Data from AgNPs_APTES_FTO_Ket_100uM_NaF_0.1M_RamanShift__4__10-43-46-167.txt Node

Date: Tue Jun 14 10:43:46 BST 2022
User: TCL
Spectrometer: QEP01345
Trigger mode: 4
Integration Time (sec): 7.000000E0
Scans to average: 10
Electric dark correction enabled: true
Nonlinearity correction enabled: false
Boxcar width: 0
XAxis mode: Raman Shifts
Number of Pixels in Spectrum: 1044
>>>>>Begin Spectral Data<<<<<
46.04893	1.225
50.45542	-2.075
54.85868	-1.375
59.25871	0.625
63.6555	27.825
68.04907	30.925
72.43941	35.825
76.82654	39.025
81.21044	39.925
85.59113	42.225
89.96862	47.825
94.34289	48.325
98.71396	52.725
103.08183	52.925
107.4465	48.825
111.80798	50.525
116.16626	47.825
120.52136	52.725
124.87327	47.925
129.222	49.725
133.56755	49.425
137.90993	45.025
142.24913	47.425
146.58517	43.225
150.91804	47.225
155.24774	42.325
159.57429	46.825
163.89768	52.225
168.21792	53.525
172.53501	58.625
176.84895	72.125
181.15975	86.325
185.46741	112.125
189.77193	134.925
194.07331	174.125
198.37157	214.025
202.6667	257.525
206.9587	295.125
211.24758	326.025
215.53334	367.825
219.81599	405.225
224.09553	445.225
228.37195	487.325
232.64527	539.425
236.91549	600.525
241.18261	660.725
245.44663	722.225
249.70755	782.725
253.96539	852.425
258.22014	907.925
262.4718	965.025
266.72039	1011.525
270.96589	1047.825
275.20832	1085.725
279.44768	1111.925
283.68397	1136.825
287.91719	1152.225
292.14735	1148.225
296.37445	1109.125
300.59849	1035.225
304.81948	948.325
309.03742	902.825
313.25231	865.925
317.46415	842.625
321.67296	829.325
325.87872	824.025
330.08145	817.325
334.28114	818.725
338.47781	815.625
342.67145	826.525
346.86207	834.325
351.04966	841.425
355.23424	846.425
359.4158	849.325
363.59435	858.625
367.76989	872.125
371.94243	887.225
376.11196	897.725
380.27849	901.825
384.44203	911.325
388.60257	907.825
392.76012	909.125
396.91468	903.825
401.06626	908.625
405.21485	915.625
409.36047	926.425
413.50311	940.025
417.64277	960.925
421.77947	984.625
425.9132	979.525
430.04396	975.525
434.17176	977.125
438.2966	977.025
442.41849	986.025
446.53742	1001.625
450.6534	1011.825
454.76644	1038.025
458.87653	1068.625
462.98368	1069.425
467.08789	1036.925
471.18916	1012.325
475.2875	1009.325
479.38291	1015.525
483.4754	1028.225
487.56496	1035.425
491.6516	1047.225
495.73531	1030.525
499.81612	1033.125
503.89401	1008.125
507.96899	992.025
512.04106	985.825
516.11023	985.625
520.1765	973.125
524.23987	969.425
528.30034	966.325
532.35792	960.025
536.41261	966.325
540.46441	972.425
544.51333	974.825
548.55936	972.825
552.60252	966.925
556.64279	965.725
560.6802	959.525
564.71473	960.125
568.7464	951.125
572.7752	953.925
576.80114	964.925
580.82422	961.625
584.84444	957.825
588.86181	959.825
592.87633	961.125
596.888	957.625
600.89682	960.425
604.9028	971.125
608.90594	961.825
612.90624	967.125
616.90371	966.525
620.89834	967.625
624.89015	963.125
628.87913	962.525
632.86528	966.925
636.84862	963.225
640.82913	956.525
644.80683	965.925
648.78172	964.025
652.75379	964.025
656.72306	967.325
660.68952	970.425
664.65319	972.625
668.61405	979.225
672.57211	972.825
676.52738	968.025
680.47986	973.625
684.42955	983.425
688.37646	989.025
692.32058	1002.225
696.26192	1003.725
700.20048	1017.725
704.13626	1036.825
708.06928	1039.825
711.99952	1038.825
715.927	1039.125
719.85171	1007.525
723.77365	1004.425
727.69284	983.025
731.60928	996.825
735.52295	988.625
739.43388	978.425
743.34206	991.225
747.24749	984.425
751.15017	986.525
755.05012	979.025
758.94733	980.325
762.8418	982.325
766.73354	980.925
770.62254	983.525
774.50882	977.625
778.39237	979.625
782.27321	979.925
786.15132	981.225
790.02671	977.625
793.89938	969.725
797.76935	969.025
801.6366	971.925
805.50115	976.725
809.36299	964.625
813.22213	960.425
817.07857	972.725
820.93231	972.825
824.78336	974.425
828.63172	977.025
832.47738	986.125
836.32036	982.525
840.16066	982.525
843.99827	987.225
847.8332	987.925
851.66546	990.625
855.49504	980.925
859.32195	980.325
863.1462	973.225
866.96777	976.025
870.78668	983.925
874.60293	987.225
878.41652	987.125
882.22745	1007.025
886.03573	1070.425
889.84136	1133.225
893.64433	1146.225
897.44466	1068.925
901.24235	992.625
905.0374	972.725
908.8298	972.025
912.61957	985.825
916.40671	1006.825
920.19121	1049.025
923.97308	1105.425
927.75233	1187.125
931.52895	1197.325
935.30295	1139.825
939.07433	1060.625
942.84309	1003.225
946.60924	953.925
950.37278	936.725
954.13371	933.125
957.89203	929.425
961.64774	918.625
965.40086	915.125
969.15137	909.325
972.89929	920.425
976.64461	926.725
980.38733	916.025
984.12747	903.625
987.86502	903.825
991.59999	900.025
995.33237	908.025
999.06217	905.625
1002.78939	910.725
1006.51404	928.425
1010.23611	930.225
1013.95561	937.725
1017.67255	930.425
1021.38692	934.925
1025.09872	931.925
1028.80796	932.825
1032.51465	936.225
1036.21877	921.125
1039.92035	922.825
1043.61937	928.525
1047.31584	958.025
1051.00976	970.425
1054.70114	985.025
1058.38998	1016.025
1062.07627	1092.525
1065.76003	1098.125
1069.44126	1015.825
1073.11995	957.525
1076.79611	934.025
1080.46974	930.525
1084.14085	917.425
1087.80943	936.525
1091.47549	946.625
1095.13903	1013.125
1098.80005	1100.125
1102.45857	1147.225
1106.11456	1088.225
1109.76805	999.825
1113.41903	943.225
1117.06751	942.125
1120.71348	988.525
1124.35696	1111.325
1127.99793	1365.325
1131.63641	1563.325
1135.2724	1310.025
1138.90589	1006.425
1142.5369	905.725
1146.16542	869.525
1149.79145	850.725
1153.415	841.925
1157.03607	840.325
1160.65467	837.025
1164.27079	844.925
1167.88443	833.825
1171.49561	828.525
1175.10432	829.325
1178.71056	832.325
1182.31434	828.625
1185.91565	827.425
1189.51451	839.925
1193.11091	831.325
1196.70485	828.125
1200.29634	827.625
1203.88538	831.625
1207.47197	826.625
1211.05612	820.525
1214.63782	814.625
1218.21708	822.925
1221.79391	818.325
1225.36829	811.625
1228.94024	809.425
1232.50976	804.625
1236.07685	807.425
1239.6415	812.125
1243.20374	812.325
1246.76355	819.025
1250.32093	823.925
1253.8759	812.825
1257.42845	810.625
1260.97859	809.725
1264.52631	805.125
1268.07163	811.725
1271.61453	810.025
1275.15503	809.625
1278.69312	813.925
1282.22882	815.425
1285.76211	820.225
1289.29301	828.725
1292.82151	867.725
1296.34761	907.625
1299.87133	916.025
1303.39266	862.825
1306.9116	833.525
1310.42815	818.225
1313.94233	812.025
1317.45412	815.225
1320.96354	812.725
1324.47058	804.825
1327.97525	799.725
1331.47754	784.325
1334.97747	789.425
1338.47502	790.425
1341.97022	780.825
1345.46305	784.425
1348.95352	791.525
1352.44163	787.025
1355.92738	792.925
1359.41078	796.225
1362.89183	801.025
1366.37053	811.125
1369.84688	831.925
1373.32088	837.125
1376.79254	846.825
1380.26186	869.125
1383.72883	896.525
1387.19347	926.425
1390.65578	959.425
1394.11575	1002.725
1397.57339	1054.725
1401.0287	1107.425
1404.48168	1129.525
1407.93234	1122.625
1411.38068	1088.125
1414.82669	1044.425
1418.27039	1009.225
1421.71177	976.125
1425.15083	935.025
1428.58758	912.125
1432.02203	901.425
1435.45416	897.125
1438.88399	890.325
1442.31151	868.025
1445.73673	836.325
1449.15965	813.125
1452.58027	794.525
1455.9986	784.325
1459.41463	784.225
1462.82837	777.925
1466.23982	767.825
1469.64898	749.725
1473.05586	724.625
1476.46045	692.025
1479.86276	670.825
1483.26279	670.025
1486.66054	666.725
1490.05602	655.525
1493.44922	649.525
1496.84016	647.525
1500.22882	638.025
1503.61521	638.525
1506.99934	644.025
1510.38121	638.725
1513.76081	633.725
1517.13816	631.125
1520.51324	630.025
1523.88607	632.025
1527.25665	635.025
1530.62498	635.525
1533.99105	627.125
1537.35488	630.725
1540.71647	636.225
1544.07581	634.425
1547.4329	633.825
1550.78776	633.325
1554.14038	630.425
1557.49077	630.925
1560.83892	634.025
1564.18484	630.925
1567.52853	623.625
1570.86999	625.025
1574.20922	623.525
1577.54624	627.525
1580.88103	622.825
1584.2136	632.725
1587.54395	618.125
1590.87208	624.125
1594.19801	626.625
1597.52172	632.725
1600.84321	630.125
1604.16251	635.825
1607.47959	639.225
1610.79447	635.025
1614.10715	635.225
1617.41763	623.325
1620.7259	617.025
1624.03199	616.125
1627.33587	617.725
1630.63757	613.025
1633.93707	609.625
1637.23439	613.225
1640.52951	608.425
1643.82246	607.825
1647.11321	604.325
1650.40179	601.125
1653.68819	595.025
1656.97241	603.925
1660.25446	596.625
1663.53433	588.925
1666.81203	581.225
1670.08756	585.225
1673.36092	572.225
1676.63211	569.525
1679.90115	565.425
1683.16801	564.925
1686.43272	561.925
1689.69527	549.925
1692.95567	557.925
1696.2139	563.225
1699.46999	565.625
1702.72392	558.225
1705.97571	547.425
1709.22535	537.125
1712.47284	532.325
1715.71819	530.325
1718.96139	526.225
1722.20246	527.625
1725.44139	521.325
1728.67818	513.025
1731.91284	515.925
1735.14537	512.225
1738.37576	514.125
1741.60403	506.125
1744.83017	508.425
1748.05418	506.925
1751.27607	508.125
1754.49584	510.125
1757.71349	510.525
1760.92903	501.425
1764.14244	500.425
1767.35375	508.725
1770.56294	510.125
1773.77002	498.825
1776.97499	495.825
1780.17785	487.925
1783.37861	480.025
1786.57727	486.525
1789.77382	484.825
1792.96828	480.025
1796.16064	476.425
1799.3509	476.625
1802.53907	480.325
1805.72514	465.725
1808.90913	461.725
1812.09102	468.925
1815.27083	465.225
1818.44856	465.325
1821.6242	454.925
1824.79776	455.825
1827.96924	458.725
1831.13864	456.025
1834.30597	454.425
1837.47122	453.125
1840.6344	452.325
1843.7955	450.625
1846.95454	446.625
1850.11151	447.525
1853.26642	441.125
1856.41926	448.625
1859.57004	450.025
1862.71876	442.025
1865.86542	443.225
1869.01003	442.525
1872.15258	438.225
1875.29308	442.725
1878.43152	434.025
1881.56792	436.125
1884.70227	432.025
1887.83457	433.925
1890.96482	433.425
1894.09304	428.425
1897.21921	429.325
1900.34335	428.525
1903.46544	424.025
1906.58551	426.325
1909.70353	420.025
1912.81953	422.525
1915.93349	423.425
1919.04543	415.225
1922.15534	419.325
1925.26322	417.225
1928.36908	412.625
1931.47292	410.925
1934.57473	408.825
1937.67453	414.925
1940.77232	412.125
1943.86808	407.025
1946.96184	403.125
1950.05358	399.225
1953.14331	406.025
1956.23103	403.225
1959.31675	399.825
1962.40046	395.725
1965.48217	403.625
1968.56188	395.925
1971.63959	394.025
1974.7153	390.125
1977.78901	391.225
1980.86073	388.225
1983.93046	390.625
1986.99819	380.525
1990.06394	386.725
1993.1277	381.025
1996.18947	378.425
1999.24925	381.225
2002.30706	382.025
2005.36288	379.325
2008.41672	378.925
2011.46859	372.825
2014.51848	375.825
2017.56639	369.525
2020.61233	368.325
2023.6563	361.225
2026.6983	364.225
2029.73833	359.025
2032.7764	364.925
2035.8125	361.425
2038.84664	356.825
2041.87881	355.325
2044.90903	359.025
2047.93729	360.225
2050.96359	357.125
2053.98794	355.125
2057.01034	349.325
2060.03078	354.725
2063.04927	354.425
2066.06582	354.725
2069.08042	352.125
2072.09307	355.325
2075.10378	353.225
2078.11255	346.325
2081.11938	345.525
2084.12426	349.225
2087.12722	348.125
2090.12824	345.525
2093.12732	350.525
2096.12447	346.925
2099.11969	341.825
2102.11299	343.025
2105.10435	349.125
2108.09379	351.625
2111.08131	345.025
2114.0669	349.725
2117.05057	350.225
2120.03233	345.825
2123.01216	342.825
2125.99008	347.025
2128.96609	349.025
2131.94018	346.525
2134.91236	342.725
2137.88263	346.925
2140.851	342.225
2143.81746	341.125
2146.78201	337.925
2149.74466	339.525
2152.7054	340.625
2155.66425	335.825
2158.6212	339.325
2161.57625	337.125
2164.52941	331.525
2167.48067	335.525
2170.43004	338.425
2173.37752	334.725
2176.32311	331.325
2179.26681	330.625
2182.20863	330.025
2185.14856	333.025
2188.08661	334.825
2191.02278	328.925
2193.95707	329.725
2196.88948	326.625
2199.82001	327.825
2202.74867	324.825
2205.67545	325.025
2208.60037	323.125
2211.52341	317.325
2214.44458	319.825
2217.36388	320.525
2220.28132	315.025
2223.1969	315.825
2226.11061	319.425
2229.02246	316.725
2231.93245	314.425
2234.84058	311.425
2237.74686	309.325
2240.65128	312.125
2243.55385	309.625
2246.45456	306.625
2249.35343	306.725
2252.25044	307.225
2255.14561	303.325
2258.03893	299.425
2260.93041	309.425
2263.82004	304.425
2266.70783	303.725
2269.59378	292.025
2272.4779	302.025
2275.36017	295.625
2278.24061	296.125
2281.11922	294.225
2283.996	296.525
2286.87094	294.425
2289.74405	294.725
2292.61534	289.925
2295.4848	288.125
2298.35243	291.725
2301.21824	288.325
2304.08223	287.125
2306.94439	289.025
2309.80474	289.325
2312.66327	291.525
2315.51999	288.325
2318.37489	283.225
2321.22797	285.025
2324.07925	289.325
2326.92871	285.325
2329.77637	291.025
2332.62222	286.025
2335.46626	280.725
2338.3085	280.125
2341.14893	285.225
2343.98756	271.125
2346.8244	279.325
2349.65943	271.325
2352.49267	278.225
2355.32411	273.025
2358.15376	275.025
2360.98161	273.625
2363.80768	271.925
2366.63195	269.925
2369.45444	269.925
2372.27514	272.525
2375.09405	270.825
2377.91118	270.625
2380.72652	268.325
2383.54009	264.825
2386.35187	272.225
2389.16188	268.725
2391.97011	273.925
2394.77657	264.625
2397.58125	267.125
2400.38416	268.125
2403.18529	266.725
2405.98466	266.725
2408.78226	268.225
2411.57809	264.925
2414.37216	262.725
2417.16446	268.425
2419.955	262.325
2422.74378	270.425
2425.5308	268.725
2428.31606	270.625
2431.09956	274.325
2433.88131	264.825
2436.6613	267.125
2439.43954	264.325
2442.21603	259.625
2444.99077	260.425
2447.76377	260.525
2450.53501	258.125
2453.30451	260.225
2456.07226	253.325
2458.83827	252.925
2461.60254	255.725
2464.36507	248.125
2467.12586	249.025
2469.88492	248.125
2472.64224	243.425
2475.39782	249.025
2478.15167	244.325
2480.90379	245.925
2483.65417	247.825
2486.40283	242.025
2489.14976	243.925
2491.89497	247.525
2494.63845	246.825
2497.3802	244.725
2500.12024	237.325
2502.85855	240.325
2505.59514	244.425
2508.33002	239.425
2511.06318	238.625
2513.79462	239.825
2516.52435	239.125
2519.25237	233.825
2521.97867	239.525
2524.70327	239.125
2527.42616	236.625
2530.14734	235.925
2532.86681	234.725
2535.58458	237.325
2538.30065	234.425
2541.01501	230.325
2543.72768	231.225
2546.43864	232.025
2549.14791	231.225
2551.85548	234.825
2554.56136	231.725
2557.26554	234.225
2559.96803	229.325
2562.66883	228.025
2565.36794	229.425
2568.06536	230.725
2570.7611	230.025
2573.45514	226.525
2576.14751	222.125
2578.83819	228.925
2581.52719	227.425
2584.21451	224.025
2586.90015	226.825
2589.58411	223.125
2592.2664	226.125
2594.94701	225.025
2597.62594	223.925
2600.30321	220.525
2602.9788	223.725
2605.65273	221.725
2608.32498	221.725
2610.99557	223.725
2613.66449	220.325
2616.33175	215.825
2618.99734	217.025
2621.66128	216.925
2624.32355	215.925
2626.98416	215.625
2629.64311	218.325
2632.30041	211.825
2634.95605	216.525
2637.61004	215.125
2640.26238	214.125
2642.91306	215.625
2645.56209	216.425
2648.20948	217.925
2650.85521	215.025
2653.4993	214.425
2656.14175	214.725
2658.78255	209.825
2661.42171	212.425
2664.05923	215.025
2666.6951	212.225
2669.32934	213.125
2671.96194	223.425
2674.59291	214.525
2677.22224	217.225
2679.84993	217.225
2682.476	210.725
2685.10043	214.025
2687.72324	212.925
2690.34441	213.125
2692.96396	215.525
2695.58188	209.425
2698.19818	216.125
2700.81285	216.025
2703.4259	219.325
2706.03733	214.425
2708.64714	214.025
2711.25533	217.325
2713.86191	218.725
2716.46687	219.225
2719.07021	219.825
2721.67194	219.925
2724.27206	223.725
2726.87057	227.125
2729.46747	233.825
2732.06276	228.825
2734.65644	231.125
2737.24852	229.625
2739.83899	229.725
2742.42786	230.325
2745.01513	228.225
2747.60079	226.925
2750.18486	224.325
2752.76733	226.525
2755.3482	219.525
2757.92747	225.225
2760.50515	226.425
2763.08123	222.025
2765.65573	217.525
2768.22863	222.325
2770.79994	220.525
2773.36967	222.325
2775.9378	217.425
2778.50435	219.625
2781.06932	214.125
2783.6327	222.725
2786.1945	213.925
2788.75471	219.725
2791.31335	218.525
2793.87041	215.225
2796.42589	218.325
2798.97979	217.825
2801.53212	217.925
2804.08288	216.625
2806.63206	222.525
2809.17967	220.025
2811.72571	219.725
2814.27018	224.025
2816.81308	223.125
2819.35442	224.125
2821.89419	223.025
2824.43239	226.925
2826.96904	230.325
2829.50412	237.225
2832.03763	248.725
2834.56959	265.025
2837.1	290.225
2839.62884	327.725
2842.15613	382.125
2844.68186	448.025
2847.20604	498.525
2849.72867	522.825
2852.24974	530.425
2854.76927	535.825
2857.28724	535.625
2859.80367	533.425
2862.31855	537.525
2864.83189	535.325
2867.34368	530.525
2869.85393	539.125
2872.36264	560.525
2874.8698	587.125
2877.37543	586.825
2879.87952	575.125
2882.38207	554.425
2884.88308	541.625
2887.38256	529.825
2889.88051	521.825
2892.37692	518.125
2894.8718	523.525
2897.36515	531.425
2899.85698	540.225
2902.34727	553.525
2904.83604	564.025
2907.32328	573.125
2909.809	573.425
2912.29319	573.325
2914.77587	560.425
2917.25702	544.625
2919.73665	532.925
2922.21476	520.025
2924.69136	514.425
2927.16644	517.325
2929.64	514.925
2932.11205	522.025
2934.58258	532.025
2937.05161	530.325
2939.51912	522.825
2941.98513	499.825
2944.44962	468.525
2946.91261	435.925
2949.37409	408.325
2951.83407	388.525
2954.29254	371.225
2956.74951	369.725
2959.20498	385.325
2961.65895	383.825
2964.11142	385.325
2966.56239	380.325
2969.01186	379.025
2971.45984	355.225
2973.90632	349.625
2976.35131	327.925
2978.7948	318.225
2981.23681	299.425
2983.67732	291.325
2986.11635	279.425
2988.55388	275.625
2990.98993	266.125
2993.4245	265.725
2995.85758	261.225
2998.28917	259.925
3000.71928	257.325
3003.14791	260.625
3005.57506	255.725
3008.00073	253.725
3010.42493	255.525
3012.84764	254.125
3015.26888	252.725
3017.68865	252.025
3020.10694	253.225
3022.52376	257.325
3024.9391	256.925
3027.35298	257.525
3029.76539	257.925
3032.17632	260.525
3034.5858	266.225
3036.9938	263.425
3039.40034	269.725
3041.80542	267.125
3044.20903	275.625
3046.61118	269.425
3049.01187	275.025
3051.4111	283.325
3053.80888	283.725
3056.20519	286.925
3058.60005	282.225
3060.99345	289.625
3063.3854	288.225
3065.7759	297.225
3068.16494	303.725
3070.55254	302.025
3072.93868	303.225
3075.32338	312.525
3077.70662	370.425
3080.08842	315.725
3082.46878	313.625
3084.84769	324.225
3087.22515	318.125
3089.60118	325.825
3091.97576	329.625
3094.3489	326.725
3096.72061	338.325
3099.09087	342.625
3101.4597	347.925
3103.82709	354.525
3106.19305	353.025
3108.55757	360.125
3110.92066	368.225
3113.28232	368.725
3115.64255	370.925
3118.00134	376.325
3120.35871	378.825
3122.71466	387.325
3125.06917	394.025
3127.42226	395.525
3129.77393	397.725
3132.12417	407.625
3134.47299	413.225
3136.82039	416.625
3139.16636	422.125
3141.51092	432.225
3143.85406	436.025
3146.19579	443.625
3148.53609	450.025
3150.87499	448.525
3153.21246	461.625
3155.54853	467.125
3157.88318	471.625
3160.21642	487.225
3162.54826	486.925
3164.87868	493.725
3167.2077	497.725
3169.5353	500.225
3171.86151	511.425
3174.18631	511.025
3176.5097	528.025
3178.83169	520.725
3181.15228	529.225
3183.47147	533.325
3185.78926	538.325
3188.10565	544.525
3190.42065	545.125
3192.73424	550.725
3195.04645	557.525
3197.35725	563.925
3199.66667	575.025
3201.97469	571.925
3204.28132	572.125
3206.58656	584.025
3208.8904	580.925
3211.19287	583.425
3213.49394	590.425
3215.79363	599.225
3218.09193	600.825
3220.38884	603.325
3222.68438	616.025
3224.97853	608.425
3227.2713	612.525
3229.56269	610.925
3231.8527	613.725
3234.14133	611.925
3236.42858	615.425
3238.71446	618.525
3240.99896	621.725
3243.28209	614.225
3245.56384	615.825
3247.84423	619.425
3250.12324	622.725
3252.40088	619.425
3254.67715	623.125
3256.95205	619.025
3259.22558	622.825
3261.49775	621.525
3263.76855	613.825
3266.03799	630.125
3268.30606	625.425
3270.57277	626.925
3272.83812	630.225
3275.10211	629.725
3277.36474	620.225
3279.62601	631.925
3281.88593	620.025
3284.14448	627.725
3286.40168	624.625
3288.65753	622.325
3290.91202	624.125
3293.16516	623.625
3295.41695	621.825
3297.66738	623.725
3299.91647	619.325
3302.16421	616.825
3304.4106	619.625
3306.65564	613.025
3308.89933	608.625
3311.14169	613.625
3313.38269	602.125
3315.62236	602.225
3317.86068	596.625
3320.09766	591.025
3322.3333	593.725
3324.5676	588.125
3326.80056	583.325
3329.03219	578.225
3331.26248	1.025
3333.49143	-1.375
3335.71905	1.325
