Data from AuAgCoreShell_UA_100uM_CRN_0uM_R6G_10uM_Scan_RamanShift__31__14-45-29-805.txt Node

Date: Thu Jun 23 14:45:29 BST 2022
User: TCL
Spectrometer: QEP01345
Trigger mode: 4
Integration Time (sec): 7.000000E0
Scans to average: 10
Electric dark correction enabled: true
Nonlinearity correction enabled: false
Boxcar width: 0
XAxis mode: Raman Shifts
Number of Pixels in Spectrum: 1044
>>>>>Begin Spectral Data<<<<<
46.04893	-0.2625
50.45542	-0.5625
54.85868	-1.0625
59.25871	-0.1625
63.6555	25.6375
68.04907	25.9375
72.43941	30.5375
76.82654	33.7375
81.21044	35.5375
85.59113	38.8375
89.96862	40.7375
94.34289	42.0375
98.71396	40.0375
103.08183	38.2375
107.4465	44.2375
111.80798	39.6375
116.16626	46.0375
120.52136	40.2375
124.87327	45.2375
129.222	43.3375
133.56755	40.3375
137.90993	41.1375
142.24913	39.4375
146.58517	40.0375
150.91804	42.2375
155.24774	37.9375
159.57429	42.1375
163.89768	44.9375
168.21792	51.4375
172.53501	58.0375
176.84895	69.2375
181.15975	82.6375
185.46741	105.1375
189.77193	136.4375
194.07331	177.1375
198.37157	222.2375
202.6667	264.3375
206.9587	305.6375
211.24758	356.3375
215.53334	398.9375
219.81599	445.0375
224.09553	488.2375
228.37195	537.8375
232.64527	593.5375
236.91549	655.6375
241.18261	712.3375
245.44663	768.7375
249.70755	841.4375
253.96539	878.9375
258.22014	917.2375
262.4718	950.0375
266.72039	974.9375
270.96589	981.7375
275.20832	986.6375
279.44768	974.6375
283.68397	968.7375
287.91719	944.0375
292.14735	936.6375
296.37445	922.5375
300.59849	920.1375
304.81948	916.7375
309.03742	915.1375
313.25231	912.5375
317.46415	908.7375
321.67296	899.8375
325.87872	896.6375
330.08145	898.4375
334.28114	898.3375
338.47781	908.4375
342.67145	917.3375
346.86207	935.6375
351.04966	941.5375
355.23424	961.2375
359.4158	976.5375
363.59435	994.3375
367.76989	1005.1375
371.94243	1019.1375
376.11196	1019.4375
380.27849	1037.7375
384.44203	1046.1375
388.60257	1056.7375
392.76012	1062.0375
396.91468	1070.9375
401.06626	1085.5375
405.21485	1096.6375
409.36047	1097.6375
413.50311	1099.9375
417.64277	1095.9375
421.77947	1097.4375
425.9132	1103.7375
430.04396	1108.2375
434.17176	1118.5375
438.2966	1124.0375
442.41849	1121.8375
446.53742	1134.6375
450.6534	1141.0375
454.76644	1145.5375
458.87653	1156.2375
462.98368	1153.0375
467.08789	1149.9375
471.18916	1154.7375
475.2875	1155.3375
479.38291	1160.3375
483.4754	1170.0375
487.56496	1178.7375
491.6516	1204.4375
495.73531	1204.9375
499.81612	1203.8375
503.89401	1192.3375
507.96899	1179.0375
512.04106	1167.4375
516.11023	1176.0375
520.1765	1174.9375
524.23987	1181.7375
528.30034	1183.9375
532.35792	1189.0375
536.41261	1181.4375
540.46441	1174.0375
544.51333	1158.3375
548.55936	1147.0375
552.60252	1146.5375
556.64279	1152.0375
560.6802	1139.9375
564.71473	1147.3375
568.7464	1149.2375
572.7752	1157.4375
576.80114	1147.2375
580.82422	1149.6375
584.84444	1163.1375
588.86181	1173.2375
592.87633	1177.4375
596.888	1180.0375
600.89682	1186.0375
604.9028	1205.9375
608.90594	1257.3375
612.90624	1319.8375
616.90371	1323.3375
620.89834	1285.6375
624.89015	1280.4375
628.87913	1321.9375
632.86528	1370.1375
636.84862	1386.5375
640.82913	1372.0375
644.80683	1331.5375
648.78172	1284.2375
652.75379	1251.4375
656.72306	1226.2375
660.68952	1218.8375
664.65319	1207.8375
668.61405	1195.7375
672.57211	1191.9375
676.52738	1197.6375
680.47986	1205.2375
684.42955	1206.4375
688.37646	1210.5375
692.32058	1204.6375
696.26192	1194.9375
700.20048	1204.0375
704.13626	1196.1375
708.06928	1198.8375
711.99952	1192.8375
715.927	1189.3375
719.85171	1191.5375
723.77365	1195.3375
727.69284	1202.8375
731.60928	1202.5375
735.52295	1185.6375
739.43388	1182.4375
743.34206	1172.8375
747.24749	1174.0375
751.15017	1169.6375
755.05012	1177.0375
758.94733	1174.3375
762.8418	1191.9375
766.73354	1224.4375
770.62254	1247.9375
774.50882	1258.1375
778.39237	1241.7375
782.27321	1224.1375
786.15132	1198.9375
790.02671	1183.3375
793.89938	1168.2375
797.76935	1176.9375
801.6366	1198.1375
805.50115	1216.5375
809.36299	1253.4375
813.22213	1253.9375
817.07857	1252.1375
820.93231	1220.5375
824.78336	1194.3375
828.63172	1171.3375
832.47738	1153.3375
836.32036	1166.1375
840.16066	1161.7375
843.99827	1160.8375
847.8332	1158.0375
851.66546	1144.6375
855.49504	1143.9375
859.32195	1142.5375
863.1462	1141.6375
866.96777	1145.0375
870.78668	1159.1375
874.60293	1172.7375
878.41652	1198.5375
882.22745	1218.7375
886.03573	1225.2375
889.84136	1228.9375
893.64433	1219.4375
897.44466	1194.0375
901.24235	1169.1375
905.0374	1145.5375
908.8298	1134.8375
912.61957	1128.6375
916.40671	1124.6375
920.19121	1117.0375
923.97308	1117.7375
927.75233	1106.7375
931.52895	1120.9375
935.30295	1111.5375
939.07433	1105.6375
942.84309	1095.1375
946.60924	1096.7375
950.37278	1093.1375
954.13371	1086.0375
957.89203	1073.2375
961.64774	1075.0375
965.40086	1067.0375
969.15137	1066.2375
972.89929	1056.6375
976.64461	1062.7375
980.38733	1049.4375
984.12747	1052.6375
987.86502	1052.6375
991.59999	1045.2375
995.33237	1047.6375
999.06217	1060.1375
1002.78939	1071.8375
1006.51404	1091.7375
1010.23611	1092.8375
1013.95561	1105.3375
1017.67255	1112.0375
1021.38692	1120.7375
1025.09872	1116.3375
1028.80796	1092.6375
1032.51465	1079.3375
1036.21877	1069.5375
1039.92035	1061.5375
1043.61937	1058.3375
1047.31584	1043.4375
1051.00976	1053.1375
1054.70114	1051.3375
1058.38998	1056.3375
1062.07627	1051.9375
1065.76003	1063.0375
1069.44126	1066.0375
1073.11995	1078.9375
1076.79611	1079.2375
1080.46974	1079.4375
1084.14085	1066.9375
1087.80943	1050.4375
1091.47549	1051.4375
1095.13903	1038.4375
1098.80005	1029.5375
1102.45857	1022.3375
1106.11456	1024.7375
1109.76805	1026.6375
1113.41903	1038.9375
1117.06751	1045.3375
1120.71348	1066.0375
1124.35696	1106.4375
1127.99793	1159.4375
1131.63641	1196.1375
1135.2724	1229.4375
1138.90589	1231.9375
1142.5369	1203.6375
1146.16542	1151.7375
1149.79145	1098.2375
1153.415	1056.4375
1157.03607	1024.3375
1160.65467	1013.6375
1164.27079	1000.6375
1167.88443	1006.0375
1171.49561	1019.2375
1175.10432	1025.8375
1178.71056	1048.9375
1182.31434	1073.8375
1185.91565	1081.3375
1189.51451	1080.9375
1193.11091	1097.4375
1196.70485	1112.3375
1200.29634	1119.6375
1203.88538	1131.8375
1207.47197	1131.5375
1211.05612	1105.1375
1214.63782	1078.2375
1218.21708	1048.4375
1221.79391	1025.2375
1225.36829	1009.7375
1228.94024	996.5375
1232.50976	982.6375
1236.07685	984.6375
1239.6415	985.8375
1243.20374	991.4375
1246.76355	988.9375
1250.32093	993.5375
1253.8759	996.2375
1257.42845	1004.6375
1260.97859	1017.6375
1264.52631	1013.2375
1268.07163	1015.6375
1271.61453	1012.5375
1275.15503	1001.2375
1278.69312	996.6375
1282.22882	993.0375
1285.76211	1000.0375
1289.29301	998.7375
1292.82151	1006.0375
1296.34761	1012.0375
1299.87133	1018.6375
1303.39266	1043.6375
1306.9116	1069.4375
1310.42815	1093.8375
1313.94233	1110.4375
1317.45412	1098.9375
1320.96354	1074.6375
1324.47058	1068.8375
1327.97525	1050.4375
1331.47754	1047.7375
1334.97747	1047.8375
1338.47502	1053.3375
1341.97022	1068.2375
1345.46305	1091.7375
1348.95352	1121.7375
1352.44163	1161.9375
1355.92738	1194.9375
1359.41078	1244.5375
1362.89183	1295.0375
1366.37053	1275.8375
1369.84688	1217.5375
1373.32088	1152.3375
1376.79254	1109.0375
1380.26186	1080.5375
1383.72883	1062.6375
1387.19347	1040.1375
1390.65578	1018.1375
1394.11575	1004.6375
1397.57339	988.4375
1401.0287	970.5375
1404.48168	963.4375
1407.93234	947.0375
1411.38068	932.5375
1414.82669	919.5375
1418.27039	909.0375
1421.71177	901.0375
1425.15083	882.5375
1428.58758	879.2375
1432.02203	880.5375
1435.45416	868.5375
1438.88399	867.6375
1442.31151	874.0375
1445.73673	866.1375
1449.15965	868.4375
1452.58027	868.1375
1455.9986	863.0375
1459.41463	856.5375
1462.82837	860.2375
1466.23982	867.8375
1469.64898	859.2375
1473.05586	861.9375
1476.46045	854.1375
1479.86276	858.9375
1483.26279	858.2375
1486.66054	867.6375
1490.05602	873.2375
1493.44922	880.2375
1496.84016	898.8375
1500.22882	919.1375
1503.61521	965.6375
1506.99934	1003.1375
1510.38121	1045.0375
1513.76081	1046.9375
1517.13816	1009.7375
1520.51324	962.6375
1523.88607	931.2375
1527.25665	895.9375
1530.62498	886.5375
1533.99105	883.1375
1537.35488	886.0375
1540.71647	880.9375
1544.07581	880.6375
1547.4329	897.9375
1550.78776	901.4375
1554.14038	913.7375
1557.49077	909.4375
1560.83892	924.5375
1564.18484	923.0375
1567.52853	933.2375
1570.86999	946.1375
1574.20922	943.7375
1577.54624	945.2375
1580.88103	944.9375
1584.2136	932.6375
1587.54395	909.2375
1590.87208	902.7375
1594.19801	884.7375
1597.52172	896.8375
1600.84321	903.3375
1604.16251	894.8375
1607.47959	893.4375
1610.79447	881.6375
1614.10715	881.5375
1617.41763	878.0375
1620.7259	874.0375
1624.03199	882.4375
1627.33587	873.1375
1630.63757	878.5375
1633.93707	883.0375
1637.23439	879.2375
1640.52951	886.6375
1643.82246	911.6375
1647.11321	943.4375
1650.40179	964.8375
1653.68819	968.4375
1656.97241	936.3375
1660.25446	898.8375
1663.53433	865.5375
1666.81203	837.0375
1670.08756	824.8375
1673.36092	803.7375
1676.63211	779.2375
1679.90115	784.2375
1683.16801	766.1375
1686.43272	759.8375
1689.69527	761.8375
1692.95567	768.8375
1696.2139	758.0375
1699.46999	764.3375
1702.72392	755.6375
1705.97571	726.7375
1709.22535	692.2375
1712.47284	687.6375
1715.71819	667.5375
1718.96139	659.5375
1722.20246	640.1375
1725.44139	642.6375
1728.67818	633.3375
1731.91284	625.4375
1735.14537	621.7375
1738.37576	619.0375
1741.60403	618.7375
1744.83017	611.7375
1748.05418	606.8375
1751.27607	605.1375
1754.49584	609.2375
1757.71349	613.8375
1760.92903	620.7375
1764.14244	616.9375
1767.35375	608.3375
1770.56294	607.4375
1773.77002	606.7375
1776.97499	589.6375
1780.17785	579.6375
1783.37861	574.8375
1786.57727	568.5375
1789.77382	576.1375
1792.96828	563.0375
1796.16064	555.6375
1799.3509	560.5375
1802.53907	553.2375
1805.72514	552.3375
1808.90913	557.2375
1812.09102	546.4375
1815.27083	542.7375
1818.44856	541.3375
1821.6242	543.6375
1824.79776	530.0375
1827.96924	532.2375
1831.13864	535.0375
1834.30597	535.0375
1837.47122	535.5375
1840.6344	528.2375
1843.7955	526.2375
1846.95454	528.1375
1850.11151	519.8375
1853.26642	520.2375
1856.41926	516.3375
1859.57004	515.3375
1862.71876	510.2375
1865.86542	512.6375
1869.01003	513.1375
1872.15258	503.2375
1875.29308	509.4375
1878.43152	501.0375
1881.56792	502.6375
1884.70227	501.0375
1887.83457	492.5375
1890.96482	496.2375
1894.09304	495.5375
1897.21921	488.9375
1900.34335	484.0375
1903.46544	484.1375
1906.58551	487.4375
1909.70353	490.9375
1912.81953	485.6375
1915.93349	482.9375
1919.04543	488.1375
1922.15534	481.0375
1925.26322	475.4375
1928.36908	473.5375
1931.47292	479.7375
1934.57473	476.7375
1937.67453	478.8375
1940.77232	474.5375
1943.86808	465.3375
1946.96184	467.5375
1950.05358	464.8375
1953.14331	467.9375
1956.23103	459.9375
1959.31675	457.3375
1962.40046	459.7375
1965.48217	458.1375
1968.56188	453.0375
1971.63959	450.5375
1974.7153	451.9375
1977.78901	441.3375
1980.86073	437.6375
1983.93046	436.6375
1986.99819	437.7375
1990.06394	439.6375
1993.1277	441.1375
1996.18947	430.8375
1999.24925	430.2375
2002.30706	429.3375
2005.36288	429.2375
2008.41672	427.1375
2011.46859	423.6375
2014.51848	421.3375
2017.56639	417.8375
2020.61233	422.9375
2023.6563	416.5375
2026.6983	418.6375
2029.73833	412.8375
2032.7764	411.6375
2035.8125	406.7375
2038.84664	410.2375
2041.87881	407.2375
2044.90903	404.1375
2047.93729	405.1375
2050.96359	405.4375
2053.98794	404.4375
2057.01034	396.3375
2060.03078	396.3375
2063.04927	393.5375
2066.06582	398.5375
2069.08042	400.6375
2072.09307	397.5375
2075.10378	391.1375
2078.11255	392.7375
2081.11938	395.0375
2084.12426	391.1375
2087.12722	390.5375
2090.12824	388.5375
2093.12732	388.0375
2096.12447	390.9375
2099.11969	388.7375
2102.11299	385.6375
2105.10435	390.3375
2108.09379	392.0375
2111.08131	381.1375
2114.0669	381.2375
2117.05057	386.3375
2120.03233	388.6375
2123.01216	380.3375
2125.99008	376.6375
2128.96609	384.4375
2131.94018	378.2375
2134.91236	384.4375
2137.88263	380.4375
2140.851	381.6375
2143.81746	386.4375
2146.78201	380.7375
2149.74466	377.7375
2152.7054	383.5375
2155.66425	381.2375
2158.6212	377.5375
2161.57625	378.0375
2164.52941	376.0375
2167.48067	374.9375
2170.43004	374.4375
2173.37752	372.0375
2176.32311	371.7375
2179.26681	375.2375
2182.20863	371.8375
2185.14856	368.5375
2188.08661	367.1375
2191.02278	364.6375
2193.95707	367.6375
2196.88948	366.6375
2199.82001	365.9375
2202.74867	361.5375
2205.67545	363.0375
2208.60037	357.1375
2211.52341	358.4375
2214.44458	357.7375
2217.36388	355.0375
2220.28132	355.5375
2223.1969	352.1375
2226.11061	347.5375
2229.02246	350.9375
2231.93245	347.2375
2234.84058	346.6375
2237.74686	349.9375
2240.65128	347.7375
2243.55385	346.3375
2246.45456	342.7375
2249.35343	345.8375
2252.25044	341.5375
2255.14561	341.7375
2258.03893	339.4375
2260.93041	341.9375
2263.82004	340.0375
2266.70783	341.8375
2269.59378	334.1375
2272.4779	331.7375
2275.36017	334.7375
2278.24061	332.7375
2281.11922	334.3375
2283.996	332.6375
2286.87094	323.6375
2289.74405	327.9375
2292.61534	328.7375
2295.4848	328.5375
2298.35243	324.6375
2301.21824	324.1375
2304.08223	322.1375
2306.94439	320.1375
2309.80474	322.9375
2312.66327	319.6375
2315.51999	315.3375
2318.37489	318.8375
2321.22797	314.6375
2324.07925	321.1375
2326.92871	313.7375
2329.77637	325.3375
2332.62222	312.1375
2335.46626	311.3375
2338.3085	311.9375
2341.14893	309.7375
2343.98756	310.0375
2346.8244	305.2375
2349.65943	308.5375
2352.49267	307.2375
2355.32411	309.1375
2358.15376	306.9375
2360.98161	296.9375
2363.80768	301.4375
2366.63195	302.1375
2369.45444	299.9375
2372.27514	299.3375
2375.09405	299.8375
2377.91118	301.7375
2380.72652	292.5375
2383.54009	291.7375
2386.35187	298.6375
2389.16188	298.0375
2391.97011	298.3375
2394.77657	296.2375
2397.58125	291.7375
2400.38416	287.5375
2403.18529	294.4375
2405.98466	285.5375
2408.78226	287.1375
2411.57809	291.1375
2414.37216	288.0375
2417.16446	285.9375
2419.955	286.3375
2422.74378	283.0375
2425.5308	279.3375
2428.31606	283.1375
2431.09956	282.7375
2433.88131	280.5375
2436.6613	276.2375
2439.43954	274.6375
2442.21603	278.1375
2444.99077	281.0375
2447.76377	278.0375
2450.53501	277.3375
2453.30451	271.4375
2456.07226	277.6375
2458.83827	274.8375
2461.60254	274.1375
2464.36507	270.7375
2467.12586	271.1375
2469.88492	270.0375
2472.64224	270.5375
2475.39782	264.9375
2478.15167	269.5375
2480.90379	270.7375
2483.65417	268.3375
2486.40283	267.3375
2489.14976	264.7375
2491.89497	260.7375
2494.63845	265.7375
2497.3802	268.6375
2500.12024	272.2375
2502.85855	265.1375
2505.59514	266.5375
2508.33002	267.7375
2511.06318	261.7375
2513.79462	260.4375
2516.52435	259.5375
2519.25237	256.0375
2521.97867	254.5375
2524.70327	254.3375
2527.42616	257.4375
2530.14734	253.7375
2532.86681	257.2375
2535.58458	256.2375
2538.30065	256.4375
2541.01501	252.9375
2543.72768	256.6375
2546.43864	251.3375
2549.14791	253.4375
2551.85548	250.1375
2554.56136	245.6375
2557.26554	252.4375
2559.96803	246.8375
2562.66883	249.0375
2565.36794	247.1375
2568.06536	243.8375
2570.7611	244.0375
2573.45514	236.4375
2576.14751	239.6375
2578.83819	240.7375
2581.52719	242.7375
2584.21451	240.2375
2586.90015	241.2375
2589.58411	238.7375
2592.2664	232.6375
2594.94701	236.8375
2597.62594	236.4375
2600.30321	237.9375
2602.9788	234.1375
2605.65273	234.1375
2608.32498	237.1375
2610.99557	233.1375
2613.66449	236.0375
2616.33175	231.1375
2618.99734	229.9375
2621.66128	231.1375
2624.32355	229.9375
2626.98416	230.9375
2629.64311	229.7375
2632.30041	230.6375
2634.95605	228.2375
2637.61004	225.6375
2640.26238	220.0375
2642.91306	216.3375
2645.56209	219.2375
2648.20948	220.4375
2650.85521	216.9375
2653.4993	214.0375
2656.14175	213.5375
2658.78255	217.4375
2661.42171	211.3375
2664.05923	215.4375
2666.6951	215.1375
2669.32934	214.7375
2671.96194	213.1375
2674.59291	218.0375
2677.22224	217.8375
2679.84993	220.8375
2682.476	218.4375
2685.10043	213.5375
2687.72324	216.8375
2690.34441	215.4375
2692.96396	215.2375
2695.58188	211.5375
2698.19818	212.7375
2700.81285	215.2375
2703.4259	223.1375
2706.03733	232.7375
2708.64714	227.1375
2711.25533	219.9375
2713.86191	215.3375
2716.46687	214.5375
2719.07021	215.8375
2721.67194	211.9375
2724.27206	217.3375
2726.87057	215.8375
2729.46747	215.1375
2732.06276	209.7375
2734.65644	223.2375
2737.24852	215.0375
2739.83899	214.5375
2742.42786	217.5375
2745.01513	214.7375
2747.60079	217.6375
2750.18486	217.8375
2752.76733	216.9375
2755.3482	213.3375
2757.92747	214.9375
2760.50515	219.4375
2763.08123	212.2375
2765.65573	212.1375
2768.22863	217.5375
2770.79994	215.7375
2773.36967	217.8375
2775.9378	218.9375
2778.50435	210.9375
2781.06932	212.5375
2783.6327	211.0375
2786.1945	208.7375
2788.75471	213.7375
2791.31335	211.3375
2793.87041	213.3375
2796.42589	213.0375
2798.97979	211.6375
2801.53212	209.8375
2804.08288	210.3375
2806.63206	211.8375
2809.17967	209.6375
2811.72571	210.1375
2814.27018	205.9375
2816.81308	214.8375
2819.35442	207.5375
2821.89419	208.1375
2824.43239	203.7375
2826.96904	207.2375
2829.50412	207.2375
2832.03763	204.8375
2834.56959	208.4375
2837.1	207.0375
2839.62884	205.9375
2842.15613	206.8375
2844.68186	205.7375
2847.20604	208.1375
2849.72867	205.4375
2852.24974	212.1375
2854.76927	206.0375
2857.28724	212.7375
2859.80367	210.8375
2862.31855	208.1375
2864.83189	209.0375
2867.34368	204.7375
2869.85393	209.7375
2872.36264	206.9375
2874.8698	208.2375
2877.37543	207.1375
2879.87952	207.2375
2882.38207	204.0375
2884.88308	208.0375
2887.38256	208.1375
2889.88051	207.9375
2892.37692	209.0375
2894.8718	212.7375
2897.36515	214.2375
2899.85698	210.7375
2902.34727	211.3375
2904.83604	216.4375
2907.32328	217.8375
2909.809	219.4375
2912.29319	219.2375
2914.77587	217.7375
2917.25702	214.5375
2919.73665	220.0375
2922.21476	218.1375
2924.69136	220.4375
2927.16644	217.5375
2929.64	221.0375
2932.11205	222.9375
2934.58258	218.1375
2937.05161	225.2375
2939.51912	227.6375
2941.98513	225.5375
2944.44962	223.2375
2946.91261	225.7375
2949.37409	221.1375
2951.83407	223.7375
2954.29254	223.8375
2956.74951	222.6375
2959.20498	221.9375
2961.65895	222.8375
2964.11142	217.9375
2966.56239	219.9375
2969.01186	224.0375
2971.45984	224.7375
2973.90632	224.6375
2976.35131	226.0375
2978.7948	222.0375
2981.23681	229.5375
2983.67732	226.4375
2986.11635	224.2375
2988.55388	225.0375
2990.98993	227.4375
2993.4245	226.7375
2995.85758	226.9375
2998.28917	229.4375
3000.71928	225.7375
3003.14791	231.1375
3005.57506	231.4375
3008.00073	240.9375
3010.42493	235.8375
3012.84764	233.9375
3015.26888	236.7375
3017.68865	235.5375
3020.10694	241.5375
3022.52376	238.7375
3024.9391	241.1375
3027.35298	245.5375
3029.76539	240.9375
3032.17632	248.4375
3034.5858	244.5375
3036.9938	249.0375
3039.40034	251.2375
3041.80542	248.9375
3044.20903	255.4375
3046.61118	253.6375
3049.01187	257.4375
3051.4111	255.8375
3053.80888	261.2375
3056.20519	262.5375
3058.60005	264.8375
3060.99345	271.6375
3063.3854	265.1375
3065.7759	273.8375
3068.16494	272.7375
3070.55254	277.4375
3072.93868	281.7375
3075.32338	281.1375
3077.70662	280.2375
3080.08842	281.8375
3082.46878	289.9375
3084.84769	297.5375
3087.22515	294.5375
3089.60118	295.5375
3091.97576	300.2375
3094.3489	306.3375
3096.72061	308.7375
3099.09087	318.9375
3101.4597	316.9375
3103.82709	322.0375
3106.19305	329.0375
3108.55757	328.0375
3110.92066	333.0375
3113.28232	336.7375
3115.64255	337.5375
3118.00134	341.8375
3120.35871	347.1375
3122.71466	357.3375
3125.06917	355.3375
3127.42226	361.2375
3129.77393	364.6375
3132.12417	369.0375
3134.47299	370.1375
3136.82039	377.3375
3139.16636	383.2375
3141.51092	385.4375
3143.85406	392.1375
3146.19579	396.1375
3148.53609	399.3375
3150.87499	403.3375
3153.21246	416.9375
3155.54853	422.2375
3157.88318	419.9375
3160.21642	430.3375
3162.54826	436.6375
3164.87868	443.2375
3167.2077	443.7375
3169.5353	447.5375
3171.86151	457.2375
3174.18631	460.3375
3176.5097	470.6375
3178.83169	470.2375
3181.15228	475.2375
3183.47147	477.0375
3185.78926	480.4375
3188.10565	490.8375
3190.42065	486.8375
3192.73424	491.6375
3195.04645	494.2375
3197.35725	496.5375
3199.66667	502.2375
3201.97469	508.6375
3204.28132	513.6375
