Data from AuAgCoreShell_UA_100uM_CRN_0uM_R6G_10uM_Scan_RamanShift__0__14-09-19-770.txt Node

Date: Thu Jun 23 14:09:19 BST 2022
User: TCL
Spectrometer: QEP01345
Trigger mode: 4
Integration Time (sec): 7.000000E0
Scans to average: 10
Electric dark correction enabled: true
Nonlinearity correction enabled: false
Boxcar width: 0
XAxis mode: Raman Shifts
Number of Pixels in Spectrum: 1044
>>>>>Begin Spectral Data<<<<<
46.04893	-1.4875
50.45542	-0.9875
54.85868	1.1125
59.25871	0.1125
63.6555	31.2125
68.04907	35.0125
72.43941	38.4125
76.82654	40.1125
81.21044	46.8125
85.59113	49.7125
89.96862	51.0125
94.34289	51.7125
98.71396	54.1125
103.08183	53.9125
107.4465	55.6125
111.80798	54.2125
116.16626	55.0125
120.52136	49.5125
124.87327	54.4125
129.222	57.4125
133.56755	51.1125
137.90993	54.0125
142.24913	51.3125
146.58517	51.9125
150.91804	53.3125
155.24774	52.0125
159.57429	50.1125
163.89768	55.8125
168.21792	63.8125
172.53501	71.6125
176.84895	87.8125
181.15975	104.2125
185.46741	127.3125
189.77193	167.0125
194.07331	214.9125
198.37157	272.1125
202.6667	330.1125
206.9587	387.8125
211.24758	443.4125
215.53334	505.7125
219.81599	568.3125
224.09553	641.0125
228.37195	715.1125
232.64527	812.9125
236.91549	905.5125
241.18261	996.1125
245.44663	1084.0125
249.70755	1155.0125
253.96539	1233.5125
258.22014	1267.2125
262.4718	1301.7125
266.72039	1302.0125
270.96589	1299.0125
275.20832	1270.5125
279.44768	1230.2125
283.68397	1194.4125
287.91719	1147.5125
292.14735	1105.0125
296.37445	1076.3125
300.59849	1063.5125
304.81948	1043.8125
309.03742	1032.6125
313.25231	1015.7125
317.46415	1002.9125
321.67296	981.3125
325.87872	963.1125
330.08145	964.6125
334.28114	961.3125
338.47781	961.3125
342.67145	980.9125
346.86207	1002.8125
351.04966	1019.9125
355.23424	1028.9125
359.4158	1051.9125
363.59435	1069.7125
367.76989	1074.6125
371.94243	1082.6125
376.11196	1086.8125
380.27849	1087.3125
384.44203	1082.5125
388.60257	1091.5125
392.76012	1093.2125
396.91468	1104.1125
401.06626	1122.2125
405.21485	1122.5125
409.36047	1116.3125
413.50311	1116.5125
417.64277	1094.5125
421.77947	1105.2125
425.9132	1101.7125
430.04396	1110.8125
434.17176	1108.7125
438.2966	1122.9125
442.41849	1122.1125
446.53742	1132.5125
450.6534	1147.7125
454.76644	1160.1125
458.87653	1152.9125
462.98368	1162.7125
467.08789	1168.2125
471.18916	1166.6125
475.2875	1159.1125
479.38291	1156.1125
483.4754	1147.9125
487.56496	1163.9125
491.6516	1162.4125
495.73531	1168.0125
499.81612	1163.5125
503.89401	1163.5125
507.96899	1161.5125
512.04106	1165.2125
516.11023	1156.7125
520.1765	1154.9125
524.23987	1153.4125
528.30034	1146.8125
532.35792	1137.5125
536.41261	1141.6125
540.46441	1130.9125
544.51333	1125.7125
548.55936	1126.5125
552.60252	1128.0125
556.64279	1125.8125
560.6802	1137.9125
564.71473	1137.4125
568.7464	1149.4125
572.7752	1149.5125
576.80114	1136.1125
580.82422	1135.0125
584.84444	1146.7125
588.86181	1140.5125
592.87633	1156.1125
596.888	1167.6125
600.89682	1184.0125
604.9028	1229.4125
608.90594	1334.5125
612.90624	1469.3125
616.90371	1464.5125
620.89834	1339.4125
624.89015	1295.5125
628.87913	1278.6125
632.86528	1272.1125
636.84862	1259.7125
640.82913	1251.3125
644.80683	1222.5125
648.78172	1197.8125
652.75379	1192.8125
656.72306	1189.3125
660.68952	1199.1125
664.65319	1195.0125
668.61405	1185.7125
672.57211	1185.5125
676.52738	1194.7125
680.47986	1214.0125
684.42955	1240.1125
688.37646	1251.9125
692.32058	1257.9125
696.26192	1220.1125
700.20048	1208.9125
704.13626	1200.9125
708.06928	1193.0125
711.99952	1190.0125
715.927	1185.1125
719.85171	1189.8125
723.77365	1173.2125
727.69284	1185.4125
731.60928	1179.3125
735.52295	1174.3125
739.43388	1163.6125
743.34206	1165.0125
747.24749	1165.5125
751.15017	1165.5125
755.05012	1173.5125
758.94733	1181.0125
762.8418	1207.0125
766.73354	1253.5125
770.62254	1305.8125
774.50882	1337.3125
778.39237	1316.2125
782.27321	1265.7125
786.15132	1228.8125
790.02671	1203.8125
793.89938	1192.0125
797.76935	1193.7125
801.6366	1200.9125
805.50115	1206.2125
809.36299	1216.8125
813.22213	1205.4125
817.07857	1206.6125
820.93231	1202.7125
824.78336	1188.5125
828.63172	1170.4125
832.47738	1177.4125
836.32036	1184.9125
840.16066	1177.2125
843.99827	1180.5125
847.8332	1175.0125
851.66546	1178.5125
855.49504	1161.8125
859.32195	1153.1125
863.1462	1162.8125
866.96777	1164.1125
870.78668	1166.1125
874.60293	1178.5125
878.41652	1186.6125
882.22745	1189.3125
886.03573	1216.6125
889.84136	1230.6125
893.64433	1247.6125
897.44466	1256.4125
901.24235	1253.4125
905.0374	1252.9125
908.8298	1257.1125
912.61957	1260.3125
916.40671	1267.6125
920.19121	1292.1125
923.97308	1295.7125
927.75233	1303.3125
931.52895	1313.9125
935.30295	1302.7125
939.07433	1273.5125
942.84309	1256.0125
946.60924	1236.6125
950.37278	1218.4125
954.13371	1203.3125
957.89203	1182.8125
961.64774	1163.6125
965.40086	1160.5125
969.15137	1145.9125
972.89929	1138.4125
976.64461	1132.7125
980.38733	1125.6125
984.12747	1123.0125
987.86502	1116.1125
991.59999	1119.2125
995.33237	1112.1125
999.06217	1115.1125
1002.78939	1113.0125
1006.51404	1132.6125
1010.23611	1142.6125
1013.95561	1148.9125
1017.67255	1150.2125
1021.38692	1152.0125
1025.09872	1156.5125
1028.80796	1142.7125
1032.51465	1141.3125
1036.21877	1129.8125
1039.92035	1124.6125
1043.61937	1112.9125
1047.31584	1105.7125
1051.00976	1111.7125
1054.70114	1108.4125
1058.38998	1112.0125
1062.07627	1101.3125
1065.76003	1112.3125
1069.44126	1113.5125
1073.11995	1120.3125
1076.79611	1119.1125
1080.46974	1120.3125
1084.14085	1127.9125
1087.80943	1114.2125
1091.47549	1108.1125
1095.13903	1094.4125
1098.80005	1081.7125
1102.45857	1071.3125
1106.11456	1074.1125
1109.76805	1071.7125
1113.41903	1077.1125
1117.06751	1092.0125
1120.71348	1117.5125
1124.35696	1138.7125
1127.99793	1162.2125
1131.63641	1176.0125
1135.2724	1167.0125
1138.90589	1159.1125
1142.5369	1134.6125
1146.16542	1104.4125
1149.79145	1089.4125
1153.415	1075.9125
1157.03607	1067.6125
1160.65467	1064.6125
1164.27079	1058.0125
1167.88443	1064.1125
1171.49561	1084.4125
1175.10432	1126.9125
1178.71056	1175.2125
1182.31434	1209.9125
1185.91565	1219.7125
1189.51451	1201.6125
1193.11091	1161.7125
1196.70485	1137.2125
1200.29634	1132.0125
1203.88538	1116.3125
1207.47197	1102.0125
1211.05612	1075.6125
1214.63782	1071.2125
1218.21708	1063.0125
1221.79391	1051.8125
1225.36829	1055.3125
1228.94024	1051.0125
1232.50976	1055.0125
1236.07685	1060.5125
1239.6415	1074.9125
1243.20374	1069.5125
1246.76355	1066.3125
1250.32093	1078.9125
1253.8759	1080.8125
1257.42845	1084.1125
1260.97859	1084.9125
1264.52631	1100.3125
1268.07163	1110.9125
1271.61453	1111.3125
1275.15503	1118.0125
1278.69312	1127.6125
1282.22882	1121.5125
1285.76211	1130.4125
1289.29301	1134.7125
1292.82151	1163.7125
1296.34761	1181.0125
1299.87133	1196.4125
1303.39266	1238.6125
1306.9116	1286.5125
1310.42815	1343.5125
1313.94233	1364.0125
1317.45412	1341.0125
1320.96354	1288.5125
1324.47058	1238.3125
1327.97525	1200.9125
1331.47754	1178.1125
1334.97747	1175.0125
1338.47502	1181.7125
1341.97022	1201.5125
1345.46305	1229.6125
1348.95352	1296.1125
1352.44163	1350.6125
1355.92738	1424.0125
1359.41078	1535.3125
1362.89183	1638.9125
1366.37053	1637.5125
1369.84688	1535.3125
1373.32088	1414.1125
1376.79254	1330.1125
1380.26186	1306.1125
1383.72883	1286.1125
1387.19347	1264.0125
1390.65578	1244.4125
1394.11575	1250.5125
1397.57339	1234.2125
1401.0287	1214.5125
1404.48168	1210.2125
1407.93234	1195.8125
1411.38068	1187.0125
1414.82669	1189.3125
1418.27039	1183.1125
1421.71177	1173.3125
1425.15083	1160.1125
1428.58758	1135.0125
1432.02203	1117.0125
1435.45416	1103.4125
1438.88399	1089.2125
1442.31151	1068.5125
1445.73673	1057.5125
1449.15965	1050.4125
1452.58027	1033.8125
1455.9986	1036.2125
1459.41463	1032.3125
1462.82837	1034.2125
1466.23982	1033.0125
1469.64898	1030.9125
1473.05586	1042.4125
1476.46045	1039.6125
1479.86276	1040.9125
1483.26279	1053.1125
1486.66054	1067.6125
1490.05602	1074.5125
1493.44922	1094.2125
1496.84016	1122.8125
1500.22882	1173.0125
1503.61521	1248.3125
1506.99934	1333.2125
1510.38121	1407.1125
1513.76081	1419.6125
1517.13816	1353.7125
1520.51324	1241.4125
1523.88607	1160.4125
1527.25665	1087.6125
1530.62498	1058.8125
1533.99105	1049.6125
1537.35488	1028.7125
1540.71647	1028.3125
1544.07581	1026.2125
1547.4329	1041.6125
1550.78776	1035.5125
1554.14038	1040.9125
1557.49077	1046.6125
1560.83892	1052.9125
1564.18484	1057.6125
1567.52853	1070.7125
1570.86999	1086.5125
1574.20922	1106.7125
1577.54624	1108.6125
1580.88103	1096.7125
1584.2136	1054.8125
1587.54395	1024.9125
1590.87208	997.6125
1594.19801	984.8125
1597.52172	987.6125
1600.84321	984.0125
1604.16251	972.8125
1607.47959	954.9125
1610.79447	945.4125
1614.10715	937.4125
1617.41763	928.7125
1620.7259	913.7125
1624.03199	928.4125
1627.33587	920.5125
1630.63757	912.1125
1633.93707	917.8125
1637.23439	923.0125
1640.52951	939.3125
1643.82246	970.3125
1647.11321	1014.3125
1650.40179	1051.7125
1653.68819	1061.6125
1656.97241	1011.0125
1660.25446	944.3125
1663.53433	897.2125
1666.81203	867.0125
1670.08756	852.9125
1673.36092	841.6125
1676.63211	830.7125
1679.90115	828.9125
1683.16801	818.6125
1686.43272	811.5125
1689.69527	808.6125
1692.95567	810.7125
1696.2139	793.4125
1699.46999	794.3125
1702.72392	777.1125
1705.97571	765.0125
1709.22535	750.7125
1712.47284	750.8125
1715.71819	740.0125
1718.96139	730.9125
1722.20246	721.2125
1725.44139	710.5125
1728.67818	711.0125
1731.91284	700.7125
1735.14537	687.6125
1738.37576	684.9125
1741.60403	679.7125
1744.83017	677.6125
1748.05418	674.3125
1751.27607	665.5125
1754.49584	665.0125
1757.71349	659.3125
1760.92903	661.6125
1764.14244	652.2125
1767.35375	650.6125
1770.56294	650.5125
1773.77002	650.7125
1776.97499	646.3125
1780.17785	643.7125
1783.37861	641.3125
1786.57727	639.6125
1789.77382	628.9125
1792.96828	630.9125
1796.16064	630.0125
1799.3509	626.9125
1802.53907	623.6125
1805.72514	631.4125
1808.90913	622.6125
1812.09102	621.1125
1815.27083	613.9125
1818.44856	607.7125
1821.6242	613.4125
1824.79776	605.5125
1827.96924	604.7125
1831.13864	602.4125
1834.30597	596.9125
1837.47122	607.0125
1840.6344	598.5125
1843.7955	599.6125
1846.95454	595.1125
1850.11151	590.3125
1853.26642	590.5125
1856.41926	589.0125
1859.57004	589.5125
1862.71876	589.8125
1865.86542	589.1125
1869.01003	588.0125
1872.15258	584.1125
1875.29308	585.2125
1878.43152	580.8125
1881.56792	577.4125
1884.70227	577.1125
1887.83457	570.0125
1890.96482	575.4125
1894.09304	571.4125
1897.21921	569.9125
1900.34335	560.7125
1903.46544	564.4125
1906.58551	562.2125
1909.70353	566.4125
1912.81953	566.6125
1915.93349	558.4125
1919.04543	561.6125
1922.15534	556.2125
1925.26322	560.0125
1928.36908	553.1125
1931.47292	552.3125
1934.57473	559.0125
1937.67453	553.5125
1940.77232	547.5125
1943.86808	551.3125
1946.96184	540.1125
1950.05358	542.1125
1953.14331	542.2125
1956.23103	535.2125
1959.31675	533.6125
1962.40046	536.5125
1965.48217	533.4125
1968.56188	526.8125
1971.63959	524.8125
1974.7153	524.0125
1977.78901	525.7125
1980.86073	520.8125
1983.93046	515.2125
1986.99819	510.2125
1990.06394	511.2125
1993.1277	519.7125
1996.18947	512.0125
1999.24925	508.5125
2002.30706	505.9125
2005.36288	506.1125
2008.41672	508.0125
2011.46859	496.3125
2014.51848	497.3125
2017.56639	495.2125
2020.61233	496.3125
2023.6563	496.2125
2026.6983	492.1125
2029.73833	484.6125
2032.7764	492.7125
2035.8125	483.0125
2038.84664	484.6125
2041.87881	480.5125
2044.90903	478.8125
2047.93729	477.8125
2050.96359	485.3125
2053.98794	481.0125
2057.01034	477.0125
2060.03078	472.4125
2063.04927	480.1125
2066.06582	473.4125
2069.08042	470.8125
2072.09307	475.2125
2075.10378	470.9125
2078.11255	470.0125
2081.11938	475.0125
2084.12426	482.0125
2087.12722	474.9125
2090.12824	477.8125
2093.12732	476.5125
2096.12447	471.4125
2099.11969	478.4125
2102.11299	473.9125
2105.10435	474.0125
2108.09379	482.5125
2111.08131	478.0125
2114.0669	476.6125
2117.05057	480.0125
2120.03233	477.3125
2123.01216	475.3125
2125.99008	480.6125
2128.96609	477.7125
2131.94018	475.9125
2134.91236	480.1125
2137.88263	480.2125
2140.851	476.7125
2143.81746	484.5125
2146.78201	480.5125
2149.74466	481.2125
2152.7054	484.5125
2155.66425	484.6125
2158.6212	496.9125
2161.57625	495.7125
2164.52941	499.2125
2167.48067	502.2125
2170.43004	506.2125
2173.37752	503.6125
2176.32311	505.0125
2179.26681	498.6125
2182.20863	504.2125
2185.14856	499.1125
2188.08661	494.8125
2191.02278	484.2125
2193.95707	484.1125
2196.88948	479.8125
2199.82001	461.1125
2202.74867	457.4125
2205.67545	454.5125
2208.60037	451.0125
2211.52341	446.4125
2214.44458	442.8125
2217.36388	436.5125
2220.28132	443.4125
2223.1969	439.1125
2226.11061	433.2125
2229.02246	429.9125
2231.93245	429.9125
2234.84058	431.5125
2237.74686	432.3125
2240.65128	427.8125
2243.55385	429.3125
2246.45456	419.6125
2249.35343	425.3125
2252.25044	429.2125
2255.14561	424.8125
2258.03893	415.6125
2260.93041	423.9125
2263.82004	414.6125
2266.70783	418.0125
2269.59378	416.5125
2272.4779	415.4125
2275.36017	409.6125
2278.24061	409.0125
2281.11922	413.0125
2283.996	408.7125
2286.87094	405.3125
2289.74405	404.3125
2292.61534	400.5125
2295.4848	405.2125
2298.35243	402.7125
2301.21824	397.3125
2304.08223	399.9125
2306.94439	401.7125
2309.80474	398.2125
2312.66327	398.9125
2315.51999	403.9125
2318.37489	400.2125
2321.22797	398.8125
2324.07925	397.1125
2326.92871	391.3125
2329.77637	398.0125
2332.62222	390.0125
2335.46626	384.4125
2338.3085	389.2125
2341.14893	386.6125
2343.98756	383.0125
2346.8244	384.3125
2349.65943	383.1125
2352.49267	384.1125
2355.32411	385.9125
2358.15376	382.1125
2360.98161	382.3125
2363.80768	382.1125
2366.63195	381.2125
2369.45444	378.9125
2372.27514	382.5125
2375.09405	378.5125
2377.91118	373.9125
2380.72652	369.0125
2383.54009	370.7125
2386.35187	371.2125
2389.16188	372.3125
2391.97011	371.2125
2394.77657	369.4125
2397.58125	368.3125
2400.38416	368.2125
2403.18529	369.3125
2405.98466	366.3125
2408.78226	361.6125
2411.57809	358.1125
2414.37216	360.5125
2417.16446	360.2125
2419.955	359.0125
2422.74378	361.1125
2425.5308	357.0125
2428.31606	362.6125
2431.09956	364.2125
2433.88131	357.4125
2436.6613	353.2125
2439.43954	353.8125
2442.21603	352.1125
2444.99077	349.2125
2447.76377	353.1125
2450.53501	349.5125
2453.30451	355.2125
2456.07226	348.2125
2458.83827	350.2125
2461.60254	352.2125
2464.36507	343.8125
2467.12586	346.8125
2469.88492	347.3125
2472.64224	346.1125
2475.39782	339.4125
2478.15167	340.0125
2480.90379	346.5125
2483.65417	344.9125
2486.40283	343.1125
2489.14976	341.5125
2491.89497	340.7125
2494.63845	338.5125
2497.3802	345.4125
2500.12024	339.5125
2502.85855	337.6125
2505.59514	338.2125
2508.33002	340.3125
2511.06318	339.3125
2513.79462	337.8125
2516.52435	330.5125
2519.25237	328.2125
2521.97867	336.6125
2524.70327	332.7125
2527.42616	332.9125
2530.14734	328.3125
2532.86681	327.5125
2535.58458	333.1125
2538.30065	329.6125
2541.01501	325.2125
2543.72768	327.1125
2546.43864	327.2125
2549.14791	320.9125
2551.85548	325.8125
2554.56136	324.5125
2557.26554	325.7125
2559.96803	317.0125
2562.66883	320.5125
2565.36794	318.4125
2568.06536	316.4125
2570.7611	319.3125
2573.45514	316.5125
2576.14751	310.9125
2578.83819	312.7125
2581.52719	316.0125
2584.21451	314.6125
2586.90015	314.6125
2589.58411	308.6125
2592.2664	310.3125
2594.94701	311.9125
2597.62594	310.4125
2600.30321	307.0125
2602.9788	304.9125
2605.65273	305.8125
2608.32498	311.0125
2610.99557	309.3125
2613.66449	303.5125
2616.33175	303.4125
2618.99734	303.9125
2621.66128	308.3125
2624.32355	299.0125
2626.98416	306.4125
2629.64311	301.9125
2632.30041	304.7125
2634.95605	301.2125
2637.61004	304.4125
2640.26238	301.8125
2642.91306	298.7125
2645.56209	298.4125
2648.20948	293.8125
2650.85521	299.4125
2653.4993	295.9125
2656.14175	297.1125
2658.78255	299.5125
2661.42171	292.2125
2664.05923	302.1125
2666.6951	296.8125
2669.32934	292.6125
2671.96194	295.5125
2674.59291	297.4125
2677.22224	298.7125
2679.84993	294.7125
2682.476	296.6125
2685.10043	296.1125
2687.72324	296.9125
2690.34441	296.2125
2692.96396	293.5125
2695.58188	298.3125
2698.19818	291.2125
2700.81285	296.0125
2703.4259	303.4125
2706.03733	296.4125
2708.64714	303.6125
2711.25533	291.5125
2713.86191	293.7125
2716.46687	293.3125
2719.07021	293.2125
2721.67194	295.0125
2724.27206	294.2125
2726.87057	294.6125
2729.46747	299.1125
2732.06276	292.1125
2734.65644	293.2125
2737.24852	294.1125
2739.83899	296.6125
2742.42786	295.8125
2745.01513	292.3125
2747.60079	287.9125
2750.18486	292.8125
2752.76733	292.3125
2755.3482	290.2125
2757.92747	291.4125
2760.50515	293.5125
2763.08123	284.5125
2765.65573	287.8125
2768.22863	288.8125
2770.79994	286.3125
2773.36967	285.5125
2775.9378	288.5125
2778.50435	284.8125
2781.06932	284.6125
2783.6327	286.5125
2786.1945	286.5125
2788.75471	285.9125
2791.31335	286.3125
2793.87041	282.3125
2796.42589	280.8125
2798.97979	282.2125
2801.53212	282.0125
2804.08288	280.1125
2806.63206	279.7125
2809.17967	285.0125
2811.72571	280.3125
2814.27018	281.0125
2816.81308	274.7125
2819.35442	276.0125
2821.89419	278.3125
2824.43239	272.9125
2826.96904	279.8125
2829.50412	277.5125
2832.03763	271.8125
2834.56959	275.1125
2837.1	274.7125
2839.62884	271.7125
2842.15613	273.0125
2844.68186	273.1125
2847.20604	272.1125
2849.72867	275.6125
2852.24974	275.5125
2854.76927	275.3125
2857.28724	280.7125
2859.80367	279.4125
2862.31855	278.6125
2864.83189	279.3125
2867.34368	275.6125
2869.85393	272.9125
2872.36264	276.8125
2874.8698	277.3125
2877.37543	276.9125
2879.87952	281.0125
2882.38207	273.6125
2884.88308	273.6125
2887.38256	280.5125
2889.88051	280.7125
2892.37692	276.8125
2894.8718	282.6125
2897.36515	280.6125
2899.85698	281.9125
2902.34727	280.4125
2904.83604	288.0125
2907.32328	289.3125
2909.809	293.9125
2912.29319	292.6125
2914.77587	296.1125
2917.25702	297.5125
2919.73665	296.6125
2922.21476	301.8125
2924.69136	302.1125
2927.16644	297.4125
2929.64	295.6125
2932.11205	303.0125
2934.58258	300.8125
2937.05161	301.9125
2939.51912	304.6125
2941.98513	301.9125
2944.44962	297.4125
2946.91261	304.0125
2949.37409	299.2125
2951.83407	293.7125
2954.29254	294.0125
2956.74951	292.5125
2959.20498	294.0125
2961.65895	298.4125
2964.11142	292.5125
2966.56239	293.6125
2969.01186	297.4125
2971.45984	293.7125
2973.90632	296.0125
2976.35131	298.0125
2978.7948	295.0125
2981.23681	294.7125
2983.67732	299.8125
2986.11635	293.9125
2988.55388	296.8125
2990.98993	304.7125
2993.4245	301.0125
2995.85758	300.5125
2998.28917	297.7125
3000.71928	304.1125
3003.14791	301.0125
3005.57506	298.2125
3008.00073	305.0125
3010.42493	311.2125
3012.84764	312.3125
3015.26888	312.5125
3017.68865	311.0125
3020.10694	308.9125
3022.52376	309.5125
3024.9391	316.4125
3027.35298	318.2125
3029.76539	320.9125
3032.17632	323.4125
3034.5858	316.3125
3036.9938	324.8125
3039.40034	331.3125
3041.80542	329.2125
3044.20903	331.3125
3046.61118	333.3125
3049.01187	337.4125
3051.4111	333.7125
3053.80888	343.0125
3056.20519	340.3125
3058.60005	345.0125
3060.99345	350.5125
3063.3854	349.7125
3065.7759	353.2125
3068.16494	354.0125
3070.55254	356.1125
3072.93868	362.3125
3075.32338	358.7125
3077.70662	367.2125
3080.08842	368.5125
3082.46878	376.1125
3084.84769	376.1125
3087.22515	378.0125
3089.60118	387.8125
3091.97576	388.8125
3094.3489	395.0125
3096.72061	392.2125
3099.09087	407.4125
3101.4597	410.7125
3103.82709	407.8125
3106.19305	417.0125
3108.55757	421.5125
3110.92066	421.4125
3113.28232	430.6125
3115.64255	430.6125
3118.00134	437.1125
3120.35871	442.5125
3122.71466	448.7125
3125.06917	453.7125
3127.42226	456.6125
3129.77393	463.8125
3132.12417	468.3125
3134.47299	473.7125
3136.82039	475.6125
3139.16636	488.1125
3141.51092	491.1125
3143.85406	494.2125
3146.19579	506.3125
3148.53609	506.7125
3150.87499	516.2125
3153.21246	522.7125
3155.54853	528.9125
3157.88318	536.3125
3160.21642	539.1125
3162.54826	551.5125
3164.87868	550.0125
3167.2077	560.5125
3169.5353	565.2125
3171.86151	578.4125
3174.18631	572.1125
3176.5097	583.4125
3178.83169	594.8125
3181.15228	597.3125
3183.47147	598.9125
3185.78926	602.3125
3188.10565	615.3125
3190.42065	608.8125
3192.73424	623.0125
