Data from AuAgCoreShell_UA_100uM_CRN_0uM_R6G_10uM_Scan_RamanShift__5__14-15-09-768.txt Node

Date: Thu Jun 23 14:15:09 BST 2022
User: TCL
Spectrometer: QEP01345
Trigger mode: 4
Integration Time (sec): 7.000000E0
Scans to average: 10
Electric dark correction enabled: true
Nonlinearity correction enabled: false
Boxcar width: 0
XAxis mode: Raman Shifts
Number of Pixels in Spectrum: 1044
>>>>>Begin Spectral Data<<<<<
46.04893	-0.95
50.45542	0.15
54.85868	-0.35
59.25871	0.75
63.6555	32.95
68.04907	34.55
72.43941	39.55
76.82654	44.05
81.21044	45.95
85.59113	50.15
89.96862	53.85
94.34289	51.55
98.71396	53.65
103.08183	52.15
107.4465	58.75
111.80798	54.65
116.16626	58.55
120.52136	51.95
124.87327	58.25
129.222	53.05
133.56755	51.55
137.90993	55.05
142.24913	49.85
146.58517	51.55
150.91804	54.75
155.24774	52.75
159.57429	54.85
163.89768	58.65
168.21792	59.75
172.53501	72.95
176.84895	85.75
181.15975	102.35
185.46741	130.35
189.77193	160.45
194.07331	211.95
198.37157	263.15
202.6667	315.15
206.9587	367.55
211.24758	425.25
215.53334	482.15
219.81599	539.55
224.09553	605.05
228.37195	668.75
232.64527	747.95
236.91549	826.25
241.18261	905.25
245.44663	974.65
249.70755	1042.85
253.96539	1099.05
258.22014	1137.75
262.4718	1176.35
266.72039	1185.15
270.96589	1196.35
275.20832	1180.95
279.44768	1162.75
283.68397	1123.55
287.91719	1094.55
292.14735	1062.75
296.37445	1042.95
300.59849	1037.15
304.81948	1035.65
309.03742	1025.15
313.25231	1013.25
317.46415	995.05
321.67296	975.35
325.87872	961.55
330.08145	965.85
334.28114	959.35
338.47781	981.25
342.67145	979.05
346.86207	999.35
351.04966	1032.05
355.23424	1041.85
359.4158	1057.85
363.59435	1072.35
367.76989	1087.45
371.94243	1088.45
376.11196	1099.45
380.27849	1102.25
384.44203	1101.45
388.60257	1098.75
392.76012	1120.95
396.91468	1122.15
401.06626	1137.15
405.21485	1144.85
409.36047	1143.45
413.50311	1129.75
417.64277	1124.15
421.77947	1124.95
425.9132	1117.85
430.04396	1119.95
434.17176	1128.05
438.2966	1141.15
442.41849	1141.45
446.53742	1150.65
450.6534	1155.75
454.76644	1171.75
458.87653	1170.55
462.98368	1182.95
467.08789	1186.95
471.18916	1176.55
475.2875	1172.85
479.38291	1173.55
483.4754	1173.85
487.56496	1181.95
491.6516	1198.75
495.73531	1192.85
499.81612	1182.55
503.89401	1192.15
507.96899	1183.25
512.04106	1184.25
516.11023	1182.35
520.1765	1182.25
524.23987	1174.65
528.30034	1162.85
532.35792	1165.45
536.41261	1160.45
540.46441	1156.85
544.51333	1148.25
548.55936	1149.85
552.60252	1147.45
556.64279	1154.85
560.6802	1153.65
564.71473	1162.15
568.7464	1166.35
572.7752	1173.55
576.80114	1161.45
580.82422	1154.05
584.84444	1157.55
588.86181	1166.15
592.87633	1177.95
596.888	1189.05
600.89682	1204.15
604.9028	1250.35
608.90594	1350.65
612.90624	1479.75
616.90371	1456.15
620.89834	1337.95
624.89015	1281.75
628.87913	1283.55
632.86528	1277.35
636.84862	1283.75
640.82913	1266.15
644.80683	1241.05
648.78172	1220.25
652.75379	1206.25
656.72306	1205.65
660.68952	1223.75
664.65319	1221.05
668.61405	1208.55
672.57211	1204.35
676.52738	1211.95
680.47986	1233.35
684.42955	1254.35
688.37646	1267.25
692.32058	1268.45
696.26192	1233.85
700.20048	1232.65
704.13626	1217.85
708.06928	1221.15
711.99952	1213.05
715.927	1214.85
719.85171	1204.85
723.77365	1205.15
727.69284	1197.95
731.60928	1197.65
735.52295	1183.65
739.43388	1188.45
743.34206	1183.85
747.24749	1193.65
751.15017	1184.75
755.05012	1192.75
758.94733	1198.45
762.8418	1235.55
766.73354	1278.45
770.62254	1328.55
774.50882	1365.85
778.39237	1339.25
782.27321	1286.25
786.15132	1249.45
790.02671	1226.95
793.89938	1211.25
797.76935	1209.55
801.6366	1211.65
805.50115	1226.05
809.36299	1226.35
813.22213	1226.65
817.07857	1216.95
820.93231	1217.55
824.78336	1205.85
828.63172	1192.25
832.47738	1185.95
836.32036	1191.15
840.16066	1193.05
843.99827	1196.35
847.8332	1185.75
851.66546	1178.45
855.49504	1173.35
859.32195	1168.75
863.1462	1178.05
866.96777	1169.15
870.78668	1182.25
874.60293	1185.35
878.41652	1182.85
882.22745	1198.85
886.03573	1224.45
889.84136	1224.85
893.64433	1240.85
897.44466	1246.85
901.24235	1233.95
905.0374	1228.65
908.8298	1237.85
912.61957	1235.15
916.40671	1249.65
920.19121	1268.15
923.97308	1277.75
927.75233	1278.75
931.52895	1286.45
935.30295	1268.15
939.07433	1252.95
942.84309	1223.25
946.60924	1218.75
950.37278	1199.95
954.13371	1194.95
957.89203	1173.45
961.64774	1159.55
965.40086	1147.25
969.15137	1139.35
972.89929	1127.75
976.64461	1124.35
980.38733	1127.15
984.12747	1115.35
987.86502	1108.15
991.59999	1108.25
995.33237	1105.85
999.06217	1114.35
1002.78939	1114.95
1006.51404	1130.25
1010.23611	1140.05
1013.95561	1141.75
1017.67255	1156.65
1021.38692	1158.45
1025.09872	1155.65
1028.80796	1140.45
1032.51465	1142.05
1036.21877	1131.85
1039.92035	1126.65
1043.61937	1121.65
1047.31584	1114.35
1051.00976	1109.95
1054.70114	1104.25
1058.38998	1112.65
1062.07627	1115.35
1065.76003	1110.15
1069.44126	1112.15
1073.11995	1126.05
1076.79611	1136.35
1080.46974	1130.25
1084.14085	1132.85
1087.80943	1121.05
1091.47549	1115.75
1095.13903	1108.65
1098.80005	1088.55
1102.45857	1079.15
1106.11456	1074.45
1109.76805	1070.65
1113.41903	1091.55
1117.06751	1101.65
1120.71348	1120.05
1124.35696	1147.55
1127.99793	1172.15
1131.63641	1190.25
1135.2724	1190.55
1138.90589	1166.95
1142.5369	1151.15
1146.16542	1117.15
1149.79145	1094.95
1153.415	1080.65
1157.03607	1075.55
1160.65467	1073.25
1164.27079	1073.75
1167.88443	1077.75
1171.49561	1097.05
1175.10432	1135.05
1178.71056	1171.05
1182.31434	1224.75
1185.91565	1227.85
1189.51451	1202.65
1193.11091	1171.45
1196.70485	1147.55
1200.29634	1139.55
1203.88538	1130.75
1207.47197	1111.05
1211.05612	1091.85
1214.63782	1077.55
1218.21708	1065.05
1221.79391	1061.65
1225.36829	1058.35
1228.94024	1060.25
1232.50976	1056.65
1236.07685	1061.35
1239.6415	1061.65
1243.20374	1069.35
1246.76355	1078.45
1250.32093	1079.25
1253.8759	1088.35
1257.42845	1087.45
1260.97859	1092.25
1264.52631	1112.15
1268.07163	1108.75
1271.61453	1120.95
1275.15503	1122.95
1278.69312	1118.75
1282.22882	1123.95
1285.76211	1125.95
1289.29301	1132.85
1292.82151	1154.15
1296.34761	1173.85
1299.87133	1199.05
1303.39266	1232.05
1306.9116	1284.95
1310.42815	1340.15
1313.94233	1373.65
1317.45412	1337.55
1320.96354	1296.65
1324.47058	1251.05
1327.97525	1202.65
1331.47754	1178.45
1334.97747	1173.35
1338.47502	1181.15
1341.97022	1198.15
1345.46305	1222.65
1348.95352	1273.55
1352.44163	1347.75
1355.92738	1418.75
1359.41078	1520.95
1362.89183	1644.65
1366.37053	1642.15
1369.84688	1532.25
1373.32088	1388.15
1376.79254	1316.35
1380.26186	1276.45
1383.72883	1258.05
1387.19347	1241.15
1390.65578	1213.55
1394.11575	1198.85
1397.57339	1189.15
1401.0287	1175.55
1404.48168	1158.85
1407.93234	1151.55
1411.38068	1150.75
1414.82669	1134.95
1418.27039	1138.45
1421.71177	1131.35
1425.15083	1105.45
1428.58758	1091.85
1432.02203	1082.75
1435.45416	1075.25
1438.88399	1061.35
1442.31151	1047.05
1445.73673	1034.95
1449.15965	1028.55
1452.58027	1023.85
1455.9986	1020.65
1459.41463	1014.65
1462.82837	1021.05
1466.23982	1017.65
1469.64898	1023.45
1473.05586	1025.55
1476.46045	1027.35
1479.86276	1040.55
1483.26279	1040.15
1486.66054	1053.25
1490.05602	1057.25
1493.44922	1078.45
1496.84016	1103.75
1500.22882	1155.15
1503.61521	1224.75
1506.99934	1321.05
1510.38121	1398.85
1513.76081	1404.85
1517.13816	1340.35
1520.51324	1242.35
1523.88607	1143.65
1527.25665	1096.05
1530.62498	1058.55
1533.99105	1030.25
1537.35488	1025.65
1540.71647	1019.05
1544.07581	1018.45
1547.4329	1015.55
1550.78776	1024.65
1554.14038	1030.75
1557.49077	1036.65
1560.83892	1049.75
1564.18484	1062.95
1567.52853	1067.45
1570.86999	1089.75
1574.20922	1104.15
1577.54624	1103.85
1580.88103	1094.75
1584.2136	1065.65
1587.54395	1017.55
1590.87208	986.65
1594.19801	984.45
1597.52172	982.55
1600.84321	979.45
1604.16251	976.65
1607.47959	951.15
1610.79447	957.75
1614.10715	945.15
1617.41763	916.25
1620.7259	907.55
1624.03199	910.15
1627.33587	906.85
1630.63757	907.95
1633.93707	910.85
1637.23439	921.05
1640.52951	932.95
1643.82246	975.25
1647.11321	1017.85
1650.40179	1059.85
1653.68819	1056.55
1656.97241	1007.05
1660.25446	945.05
1663.53433	902.35
1666.81203	858.15
1670.08756	847.15
1673.36092	835.85
1676.63211	820.45
1679.90115	818.65
1683.16801	808.85
1686.43272	808.05
1689.69527	804.15
1692.95567	796.95
1696.2139	784.15
1699.46999	781.05
1702.72392	776.55
1705.97571	760.75
1709.22535	745.75
1712.47284	740.05
1715.71819	728.45
1718.96139	713.35
1722.20246	711.35
1725.44139	702.55
1728.67818	695.75
1731.91284	684.05
1735.14537	678.05
1738.37576	678.85
1741.60403	678.75
1744.83017	659.35
1748.05418	656.95
1751.27607	654.75
1754.49584	648.25
1757.71349	650.95
1760.92903	645.55
1764.14244	645.95
1767.35375	644.15
1770.56294	635.45
1773.77002	643.55
1776.97499	635.25
1780.17785	631.35
1783.37861	626.65
1786.57727	621.15
1789.77382	619.15
1792.96828	619.85
1796.16064	617.55
1799.3509	612.85
1802.53907	612.05
1805.72514	612.35
1808.90913	601.95
1812.09102	604.85
1815.27083	604.75
1818.44856	600.15
1821.6242	596.75
1824.79776	590.65
1827.96924	589.45
1831.13864	588.65
1834.30597	586.75
1837.47122	591.35
1840.6344	586.05
1843.7955	580.75
1846.95454	577.75
1850.11151	579.05
1853.26642	573.75
1856.41926	577.25
1859.57004	580.45
1862.71876	575.55
1865.86542	576.25
1869.01003	571.55
1872.15258	564.65
1875.29308	571.65
1878.43152	564.45
1881.56792	563.25
1884.70227	563.65
1887.83457	559.55
1890.96482	555.25
1894.09304	554.55
1897.21921	553.35
1900.34335	553.55
1903.46544	550.85
1906.58551	550.85
1909.70353	548.65
1912.81953	546.75
1915.93349	543.45
1919.04543	544.85
1922.15534	541.35
1925.26322	542.15
1928.36908	540.05
1931.47292	538.95
1934.57473	545.25
1937.67453	538.95
1940.77232	528.05
1943.86808	533.35
1946.96184	526.85
1950.05358	530.25
1953.14331	526.25
1956.23103	522.85
1959.31675	516.05
1962.40046	519.75
1965.48217	516.35
1968.56188	511.65
1971.63959	510.75
1974.7153	512.55
1977.78901	506.65
1980.86073	504.65
1983.93046	498.65
1986.99819	498.85
1990.06394	497.65
1993.1277	499.95
1996.18947	501.85
1999.24925	489.45
2002.30706	491.45
2005.36288	491.45
2008.41672	486.85
2011.46859	485.85
2014.51848	481.95
2017.56639	483.95
2020.61233	481.65
2023.6563	475.75
2026.6983	473.85
2029.73833	468.35
2032.7764	472.95
2035.8125	468.35
2038.84664	470.05
2041.87881	465.15
2044.90903	465.45
2047.93729	464.95
2050.96359	466.75
2053.98794	464.45
2057.01034	459.55
2060.03078	462.05
2063.04927	458.65
2066.06582	458.75
2069.08042	456.45
2072.09307	456.95
2075.10378	455.55
2078.11255	450.65
2081.11938	458.75
2084.12426	462.95
2087.12722	457.05
2090.12824	458.45
2093.12732	463.45
2096.12447	455.55
2099.11969	455.85
2102.11299	463.15
2105.10435	460.75
2108.09379	454.85
2111.08131	457.75
2114.0669	455.85
2117.05057	454.15
2120.03233	452.55
2123.01216	460.65
2125.99008	463.15
2128.96609	462.05
2131.94018	459.45
2134.91236	459.45
2137.88263	469.25
2140.851	464.55
2143.81746	466.15
2146.78201	466.15
2149.74466	464.15
2152.7054	476.95
2155.66425	472.55
2158.6212	478.05
2161.57625	478.85
2164.52941	484.75
2167.48067	490.45
2170.43004	489.45
2173.37752	491.35
2176.32311	493.65
2179.26681	489.05
2182.20863	485.75
2185.14856	483.25
2188.08661	474.05
2191.02278	471.35
2193.95707	462.45
2196.88948	450.95
2199.82001	446.85
2202.74867	440.05
2205.67545	434.95
2208.60037	427.45
2211.52341	424.55
2214.44458	426.05
2217.36388	420.85
2220.28132	421.75
2223.1969	419.35
2226.11061	417.65
2229.02246	409.95
2231.93245	411.55
2234.84058	417.85
2237.74686	410.35
2240.65128	412.35
2243.55385	406.75
2246.45456	407.95
2249.35343	405.55
2252.25044	406.05
2255.14561	404.85
2258.03893	407.45
2260.93041	399.95
2263.82004	398.45
2266.70783	400.15
2269.59378	399.35
2272.4779	394.95
2275.36017	394.15
2278.24061	392.35
2281.11922	394.95
2283.996	396.75
2286.87094	389.35
2289.74405	392.85
2292.61534	389.25
2295.4848	387.75
2298.35243	383.65
2301.21824	383.05
2304.08223	380.15
2306.94439	383.65
2309.80474	377.25
2312.66327	381.25
2315.51999	377.65
2318.37489	376.95
2321.22797	373.65
2324.07925	381.95
2326.92871	379.25
2329.77637	381.35
2332.62222	379.25
2335.46626	372.95
2338.3085	371.05
2341.14893	375.55
2343.98756	364.05
2346.8244	370.65
2349.65943	365.15
2352.49267	368.85
2355.32411	368.25
2358.15376	367.55
2360.98161	361.75
2363.80768	368.05
2366.63195	364.85
2369.45444	359.85
2372.27514	360.35
2375.09405	360.05
2377.91118	357.45
2380.72652	353.55
2383.54009	355.85
2386.35187	355.45
2389.16188	352.05
2391.97011	352.95
2394.77657	352.55
2397.58125	350.65
2400.38416	352.35
2403.18529	350.25
2405.98466	339.75
2408.78226	343.45
2411.57809	345.05
2414.37216	343.25
2417.16446	343.75
2419.955	344.25
2422.74378	342.65
2425.5308	339.35
2428.31606	342.75
2431.09956	343.35
2433.88131	338.95
2436.6613	335.75
2439.43954	334.45
2442.21603	334.75
2444.99077	335.85
2447.76377	337.25
2450.53501	332.65
2453.30451	339.35
2456.07226	331.65
2458.83827	326.55
2461.60254	335.05
2464.36507	331.45
2467.12586	333.35
2469.88492	325.55
2472.64224	328.25
2475.39782	328.95
2478.15167	325.75
2480.90379	326.45
2483.65417	325.95
2486.40283	326.25
2489.14976	320.85
2491.89497	322.75
2494.63845	319.25
2497.3802	329.75
2500.12024	323.25
2502.85855	318.05
2505.59514	320.85
2508.33002	320.95
2511.06318	319.05
2513.79462	320.85
2516.52435	316.25
2519.25237	315.75
2521.97867	314.65
2524.70327	313.25
2527.42616	309.45
2530.14734	308.95
2532.86681	312.15
2535.58458	310.15
2538.30065	316.35
2541.01501	310.15
2543.72768	310.75
2546.43864	315.45
2549.14791	303.85
2551.85548	302.15
2554.56136	303.55
2557.26554	307.95
2559.96803	297.15
2562.66883	303.45
2565.36794	303.25
2568.06536	301.95
2570.7611	296.65
2573.45514	296.45
2576.14751	298.75
2578.83819	296.85
2581.52719	299.35
2584.21451	296.45
2586.90015	297.65
2589.58411	291.45
2592.2664	293.75
2594.94701	290.75
2597.62594	291.35
2600.30321	293.65
2602.9788	287.65
2605.65273	289.15
2608.32498	289.15
2610.99557	282.85
2613.66449	287.25
2616.33175	288.85
2618.99734	284.15
2621.66128	284.35
2624.32355	283.85
2626.98416	289.35
2629.64311	282.45
2632.30041	284.85
2634.95605	286.75
2637.61004	281.15
2640.26238	283.35
2642.91306	277.75
2645.56209	282.15
2648.20948	282.95
2650.85521	283.25
2653.4993	277.85
2656.14175	279.65
2658.78255	285.45
2661.42171	277.45
2664.05923	281.55
2666.6951	277.15
2669.32934	277.85
2671.96194	275.55
2674.59291	279.95
2677.22224	274.05
2679.84993	279.15
2682.476	275.55
2685.10043	276.55
2687.72324	279.25
2690.34441	276.75
2692.96396	276.05
2695.58188	273.05
2698.19818	273.95
2700.81285	279.45
2703.4259	279.65
2706.03733	277.15
2708.64714	282.55
2711.25533	277.55
2713.86191	273.55
2716.46687	276.45
2719.07021	278.45
2721.67194	275.15
2724.27206	272.25
2726.87057	273.25
2729.46747	273.75
2732.06276	278.15
2734.65644	275.45
2737.24852	275.25
2739.83899	273.75
2742.42786	277.25
2745.01513	270.85
2747.60079	275.45
2750.18486	275.65
2752.76733	278.35
2755.3482	276.85
2757.92747	274.45
2760.50515	275.05
2763.08123	266.95
2765.65573	265.65
2768.22863	269.75
2770.79994	269.05
2773.36967	266.45
2775.9378	272.75
2778.50435	266.05
2781.06932	268.35
2783.6327	269.95
2786.1945	265.45
2788.75471	264.85
2791.31335	267.05
2793.87041	264.45
2796.42589	262.35
2798.97979	264.85
2801.53212	264.85
2804.08288	263.55
2806.63206	263.35
2809.17967	263.75
2811.72571	259.75
2814.27018	265.05
2816.81308	258.65
2819.35442	261.45
2821.89419	259.75
2824.43239	256.15
2826.96904	263.95
2829.50412	259.15
2832.03763	250.95
2834.56959	260.75
2837.1	253.25
2839.62884	254.25
2842.15613	254.75
2844.68186	261.95
2847.20604	256.05
2849.72867	256.15
2852.24974	256.95
2854.76927	256.05
2857.28724	259.15
2859.80367	260.65
2862.31855	257.65
2864.83189	251.65
2867.34368	260.55
2869.85393	255.95
2872.36264	255.55
2874.8698	258.55
2877.37543	259.05
2879.87952	258.85
2882.38207	253.95
2884.88308	258.35
2887.38256	260.95
2889.88051	261.05
2892.37692	260.15
2894.8718	261.05
2897.36515	264.15
2899.85698	263.15
2902.34727	267.45
2904.83604	270.75
2907.32328	270.75
2909.809	276.05
2912.29319	277.65
2914.77587	279.35
2917.25702	278.75
2919.73665	279.25
2922.21476	277.95
2924.69136	281.85
2927.16644	282.85
2929.64	279.05
2932.11205	281.35
2934.58258	276.55
2937.05161	282.85
2939.51912	283.25
2941.98513	282.75
2944.44962	284.25
2946.91261	284.85
2949.37409	286.75
2951.83407	280.45
2954.29254	280.25
2956.74951	276.55
2959.20498	274.55
2961.65895	281.55
2964.11142	278.95
2966.56239	277.25
2969.01186	278.85
2971.45984	279.25
2973.90632	275.45
2976.35131	284.05
2978.7948	276.25
2981.23681	280.25
2983.67732	282.45
2986.11635	283.55
2988.55388	278.35
2990.98993	289.25
2993.4245	282.45
2995.85758	282.25
2998.28917	285.35
3000.71928	287.75
3003.14791	286.65
3005.57506	286.45
3008.00073	290.85
3010.42493	289.95
3012.84764	293.15
3015.26888	296.75
3017.68865	289.85
3020.10694	292.85
3022.52376	294.85
3024.9391	296.45
3027.35298	301.55
3029.76539	303.35
3032.17632	306.35
3034.5858	304.15
3036.9938	308.55
3039.40034	309.75
3041.80542	312.95
3044.20903	313.75
3046.61118	321.15
3049.01187	320.55
3051.4111	321.45
3053.80888	322.65
3056.20519	324.95
3058.60005	327.15
3060.99345	333.25
3063.3854	329.65
3065.7759	333.25
3068.16494	343.45
3070.55254	344.65
3072.93868	345.95
3075.32338	344.65
3077.70662	347.85
3080.08842	354.35
3082.46878	355.95
3084.84769	362.95
3087.22515	363.55
3089.60118	368.75
3091.97576	371.45
3094.3489	376.95
3096.72061	385.65
3099.09087	389.65
3101.4597	393.45
3103.82709	394.35
3106.19305	399.75
3108.55757	404.65
3110.92066	409.85
3113.28232	415.65
3115.64255	413.95
3118.00134	424.05
3120.35871	431.85
3122.71466	441.15
3125.06917	439.45
3127.42226	444.85
3129.77393	445.95
3132.12417	457.55
3134.47299	459.75
3136.82039	468.15
3139.16636	473.45
3141.51092	474.95
3143.85406	476.75
3146.19579	484.55
3148.53609	490.45
3150.87499	501.65
3153.21246	507.25
3155.54853	511.75
3157.88318	519.35
3160.21642	528.45
3162.54826	537.85
3164.87868	537.95
3167.2077	544.65
3169.5353	553.55
3171.86151	557.05
3174.18631	557.25
3176.5097	567.65
3178.83169	571.45
3181.15228	573.25
3183.47147	587.05
3185.78926	588.45
3188.10565	591.75
3190.42065	598.65
3192.73424	598.85
3195.04645	604.75
3197.35725	613.45
3199.66667	617.85
3201.97469	622.55
3204.28132	630.15
3206.58656	632.45
3208.8904	634.65
3211.19287	636.05
3213.49394	643.25
3215.79363	645.15
3218.09193	646.15
3220.38884	649.05
3222.68438	656.75
3224.97853	665.25
3227.2713	661.65
3229.56269	665.55
3231.8527	666.95
3234.14133	668.35
3236.42858	665.95
3238.71446	666.35
3240.99896	674.15
3243.28209	672.15
3245.56384	667.25
3247.84423	669.65
3250.12324	672.25
3252.40088	673.05
3254.67715	677.55
3256.95205	670.95
3259.22558	680.65
3261.49775	682.75
3263.76855	674.95
3266.03799	683.15
3268.30606	675.85
3270.57277	676.25
3272.83812	676.55
3275.10211	679.05
3277.36474	676.05
3279.62601	679.25
3281.88593	675.05
3284.14448	675.65
3286.40168	675.95
3288.65753	680.45
3290.91202	676.95
3293.16516	676.85
3295.41695	673.75
3297.66738	672.55
3299.91647	672.05
3302.16421	669.55
3304.4106	666.35
3306.65564	670.75
3308.89933	667.65
3311.14169	657.65
3313.38269	654.45
3315.62236	661.55
3317.86068	653.25
3320.09766	655.15
3322.3333	642.35
3324.5676	642.25
3326.80056	638.65
3329.03219	632.25
3331.26248	-0.75
3333.49143	0.95
3335.71905	0.55
