Data from AuAgCoreShell_UA_100uM_CRN_0uM_R6G_10uM_Scan_RamanShift__19__14-31-29-788.txt Node

Date: Thu Jun 23 14:31:29 BST 2022
User: TCL
Spectrometer: QEP01345
Trigger mode: 4
Integration Time (sec): 7.000000E0
Scans to average: 10
Electric dark correction enabled: true
Nonlinearity correction enabled: false
Boxcar width: 0
XAxis mode: Raman Shifts
Number of Pixels in Spectrum: 1044
>>>>>Begin Spectral Data<<<<<
46.04893	-1.25
50.45542	-0.15
54.85868	0.25
59.25871	-1.35
63.6555	34.55
68.04907	34.95
72.43941	39.15
76.82654	41.65
81.21044	47.05
85.59113	49.65
89.96862	52.75
94.34289	54.65
98.71396	56.95
103.08183	55.95
107.4465	58.65
111.80798	55.75
116.16626	60.05
120.52136	53.25
124.87327	55.75
129.222	54.35
133.56755	52.45
137.90993	52.65
142.24913	53.15
146.58517	49.45
150.91804	53.35
155.24774	51.95
159.57429	55.95
163.89768	54.75
168.21792	60.35
172.53501	71.15
176.84895	81.75
181.15975	97.45
185.46741	120.85
189.77193	154.25
194.07331	200.75
198.37157	247.45
202.6667	297.85
206.9587	345.65
211.24758	395.75
215.53334	442.65
219.81599	487.25
224.09553	545.25
228.37195	603.95
232.64527	664.35
236.91549	731.05
241.18261	799.55
245.44663	868.05
249.70755	932.65
253.96539	986.25
258.22014	1031.15
262.4718	1068.15
266.72039	1082.55
270.96589	1090.95
275.20832	1088.45
279.44768	1074.05
283.68397	1066.75
287.91719	1038.45
292.14735	1018.75
296.37445	1010.75
300.59849	1005.75
304.81948	996.05
309.03742	993.65
313.25231	988.25
317.46415	979.85
321.67296	971.15
325.87872	971.65
330.08145	972.15
334.28114	980.15
338.47781	982.25
342.67145	988.05
346.86207	1008.75
351.04966	1027.45
355.23424	1041.65
359.4158	1060.85
363.59435	1073.95
367.76989	1083.05
371.94243	1096.75
376.11196	1105.05
380.27849	1113.75
384.44203	1116.65
388.60257	1126.45
392.76012	1142.75
396.91468	1146.55
401.06626	1153.15
405.21485	1168.35
409.36047	1165.05
413.50311	1177.55
417.64277	1170.75
421.77947	1171.25
425.9132	1175.85
430.04396	1179.35
434.17176	1192.55
438.2966	1203.25
442.41849	1198.35
446.53742	1201.05
450.6534	1217.15
454.76644	1221.55
458.87653	1239.15
462.98368	1237.95
467.08789	1232.95
471.18916	1238.55
475.2875	1240.95
479.38291	1239.15
483.4754	1244.85
487.56496	1258.65
491.6516	1260.45
495.73531	1272.25
499.81612	1271.65
503.89401	1259.45
507.96899	1260.15
512.04106	1248.75
516.11023	1244.35
520.1765	1247.85
524.23987	1251.55
528.30034	1250.75
532.35792	1245.65
536.41261	1243.65
540.46441	1225.55
544.51333	1230.05
548.55936	1214.75
552.60252	1224.15
556.64279	1228.95
560.6802	1222.05
564.71473	1225.15
568.7464	1231.65
572.7752	1235.55
576.80114	1230.95
580.82422	1237.75
584.84444	1243.25
588.86181	1251.35
592.87633	1255.65
596.888	1261.05
600.89682	1260.35
604.9028	1290.65
608.90594	1340.15
612.90624	1402.45
616.90371	1401.85
620.89834	1339.45
624.89015	1327.15
628.87913	1335.25
632.86528	1357.75
636.84862	1367.75
640.82913	1363.75
644.80683	1347.95
648.78172	1318.75
652.75379	1299.35
656.72306	1290.35
660.68952	1291.95
664.65319	1280.75
668.61405	1275.05
672.57211	1279.95
676.52738	1289.25
680.47986	1294.45
684.42955	1318.45
688.37646	1325.45
692.32058	1332.35
696.26192	1314.05
700.20048	1304.25
704.13626	1284.25
708.06928	1285.85
711.99952	1282.45
715.927	1279.45
719.85171	1278.75
723.77365	1268.95
727.69284	1267.85
731.60928	1274.75
735.52295	1260.35
739.43388	1263.65
743.34206	1261.95
747.24749	1266.25
751.15017	1263.55
755.05012	1258.45
758.94733	1272.55
762.8418	1277.65
766.73354	1305.35
770.62254	1326.45
774.50882	1347.45
778.39237	1332.45
782.27321	1301.45
786.15132	1290.35
790.02671	1277.05
793.89938	1267.25
797.76935	1268.95
801.6366	1283.35
805.50115	1283.75
809.36299	1295.85
813.22213	1298.45
817.07857	1288.45
820.93231	1281.85
824.78336	1264.55
828.63172	1251.85
832.47738	1249.55
836.32036	1249.15
840.16066	1249.85
843.99827	1255.95
847.8332	1246.85
851.66546	1242.45
855.49504	1237.35
859.32195	1231.75
863.1462	1229.15
866.96777	1230.55
870.78668	1241.45
874.60293	1249.15
878.41652	1254.15
882.22745	1263.25
886.03573	1272.55
889.84136	1267.65
893.64433	1276.85
897.44466	1265.15
901.24235	1251.75
905.0374	1240.45
908.8298	1235.25
912.61957	1240.85
916.40671	1247.15
920.19121	1253.25
923.97308	1254.45
927.75233	1256.15
931.52895	1259.75
935.30295	1247.35
939.07433	1238.05
942.84309	1214.25
946.60924	1214.05
950.37278	1206.65
954.13371	1205.85
957.89203	1190.15
961.64774	1172.55
965.40086	1176.75
969.15137	1169.35
972.89929	1162.35
976.64461	1160.75
980.38733	1149.05
984.12747	1139.65
987.86502	1135.05
991.59999	1136.95
995.33237	1138.65
999.06217	1141.35
1002.78939	1149.95
1006.51404	1163.05
1010.23611	1177.95
1013.95561	1187.65
1017.67255	1185.35
1021.38692	1186.55
1025.09872	1185.65
1028.80796	1171.45
1032.51465	1159.55
1036.21877	1157.65
1039.92035	1150.05
1043.61937	1141.55
1047.31584	1141.75
1051.00976	1135.95
1054.70114	1130.95
1058.38998	1143.15
1062.07627	1146.45
1065.76003	1146.85
1069.44126	1150.55
1073.11995	1157.85
1076.79611	1160.55
1080.46974	1166.65
1084.14085	1152.25
1087.80943	1135.75
1091.47549	1138.95
1095.13903	1125.35
1098.80005	1118.35
1102.45857	1103.15
1106.11456	1096.85
1109.76805	1101.05
1113.41903	1108.55
1117.06751	1117.65
1120.71348	1138.05
1124.35696	1161.05
1127.99793	1185.05
1131.63641	1212.05
1135.2724	1225.25
1138.90589	1225.75
1142.5369	1199.65
1146.16542	1166.65
1149.79145	1131.35
1153.415	1113.45
1157.03607	1100.85
1160.65467	1084.15
1164.27079	1091.85
1167.88443	1087.05
1171.49561	1095.85
1175.10432	1118.45
1178.71056	1139.15
1182.31434	1163.95
1185.91565	1169.15
1189.51451	1160.35
1193.11091	1156.25
1196.70485	1150.75
1200.29634	1153.15
1203.88538	1150.15
1207.47197	1131.55
1211.05612	1121.65
1214.63782	1100.85
1218.21708	1099.35
1221.79391	1080.85
1225.36829	1074.05
1228.94024	1071.55
1232.50976	1073.05
1236.07685	1067.25
1239.6415	1070.65
1243.20374	1073.75
1246.76355	1074.45
1250.32093	1076.95
1253.8759	1082.15
1257.42845	1082.55
1260.97859	1101.25
1264.52631	1097.55
1268.07163	1089.95
1271.61453	1098.65
1275.15503	1104.45
1278.69312	1106.15
1282.22882	1102.55
1285.76211	1101.05
1289.29301	1108.05
1292.82151	1111.75
1296.34761	1117.35
1299.87133	1135.35
1303.39266	1162.55
1306.9116	1192.85
1310.42815	1215.95
1313.94233	1232.65
1317.45412	1226.05
1320.96354	1196.05
1324.47058	1176.45
1327.97525	1154.35
1331.47754	1151.65
1334.97747	1142.15
1338.47502	1149.65
1341.97022	1166.35
1345.46305	1182.85
1348.95352	1210.65
1352.44163	1247.55
1355.92738	1291.15
1359.41078	1349.35
1362.89183	1404.05
1366.37053	1401.65
1369.84688	1346.85
1373.32088	1270.15
1376.79254	1224.65
1380.26186	1202.95
1383.72883	1182.35
1387.19347	1163.15
1390.65578	1135.85
1394.11575	1129.15
1397.57339	1110.55
1401.0287	1105.85
1404.48168	1095.65
1407.93234	1071.25
1411.38068	1060.55
1414.82669	1048.75
1418.27039	1035.55
1421.71177	1041.75
1425.15083	1019.95
1428.58758	1012.85
1432.02203	998.55
1435.45416	986.55
1438.88399	986.55
1442.31151	981.75
1445.73673	971.85
1449.15965	974.85
1452.58027	962.95
1455.9986	973.15
1459.41463	970.55
1462.82837	966.35
1466.23982	971.75
1469.64898	971.65
1473.05586	970.75
1476.46045	965.55
1479.86276	975.95
1483.26279	975.75
1486.66054	980.75
1490.05602	982.25
1493.44922	992.15
1496.84016	1006.55
1500.22882	1029.75
1503.61521	1057.95
1506.99934	1110.45
1510.38121	1141.55
1513.76081	1142.55
1517.13816	1122.75
1520.51324	1063.75
1523.88607	1029.15
1527.25665	990.65
1530.62498	976.45
1533.99105	978.05
1537.35488	976.75
1540.71647	975.45
1544.07581	977.35
1547.4329	980.25
1550.78776	987.05
1554.14038	988.55
1557.49077	996.05
1560.83892	1000.95
1564.18484	998.45
1567.52853	1010.55
1570.86999	1027.85
1574.20922	1031.65
1577.54624	1032.35
1580.88103	1039.05
1584.2136	1014.85
1587.54395	988.85
1590.87208	964.45
1594.19801	953.65
1597.52172	958.25
1600.84321	949.95
1604.16251	943.05
1607.47959	934.45
1610.79447	931.25
1614.10715	930.75
1617.41763	914.05
1620.7259	912.95
1624.03199	907.55
1627.33587	905.15
1630.63757	904.85
1633.93707	903.15
1637.23439	913.45
1640.52951	918.85
1643.82246	936.65
1647.11321	943.75
1650.40179	970.95
1653.68819	965.25
1656.97241	937.35
1660.25446	901.85
1663.53433	872.65
1666.81203	847.85
1670.08756	834.35
1673.36092	827.45
1676.63211	819.75
1679.90115	814.95
1683.16801	804.75
1686.43272	798.55
1689.69527	805.95
1692.95567	794.45
1696.2139	789.65
1699.46999	789.15
1702.72392	778.15
1705.97571	767.15
1709.22535	746.65
1712.47284	729.65
1715.71819	723.95
1718.96139	719.65
1722.20246	704.05
1725.44139	689.85
1728.67818	689.35
1731.91284	672.35
1735.14537	671.15
1738.37576	667.15
1741.60403	663.25
1744.83017	655.45
1748.05418	648.55
1751.27607	647.65
1754.49584	646.75
1757.71349	650.35
1760.92903	644.65
1764.14244	636.15
1767.35375	640.55
1770.56294	636.85
1773.77002	628.65
1776.97499	632.65
1780.17785	626.45
1783.37861	612.95
1786.57727	620.15
1789.77382	617.95
1792.96828	610.05
1796.16064	614.55
1799.3509	605.55
1802.53907	600.75
1805.72514	601.65
1808.90913	600.65
1812.09102	595.95
1815.27083	594.05
1818.44856	588.15
1821.6242	583.55
1824.79776	583.75
1827.96924	586.15
1831.13864	580.25
1834.30597	584.95
1837.47122	583.25
1840.6344	578.25
1843.7955	577.75
1846.95454	574.85
1850.11151	570.15
1853.26642	562.45
1856.41926	565.05
1859.57004	567.65
1862.71876	566.95
1865.86542	564.35
1869.01003	561.25
1872.15258	560.95
1875.29308	557.85
1878.43152	557.85
1881.56792	551.75
1884.70227	550.55
1887.83457	547.75
1890.96482	555.05
1894.09304	541.65
1897.21921	540.95
1900.34335	540.55
1903.46544	538.75
1906.58551	532.65
1909.70353	545.65
1912.81953	544.85
1915.93349	530.95
1919.04543	531.75
1922.15534	535.55
1925.26322	528.35
1928.36908	531.45
1931.47292	526.65
1934.57473	525.75
1937.67453	524.15
1940.77232	515.75
1943.86808	520.55
1946.96184	517.25
1950.05358	508.95
1953.14331	509.95
1956.23103	507.05
1959.31675	504.75
1962.40046	504.35
1965.48217	504.65
1968.56188	500.75
1971.63959	501.95
1974.7153	497.85
1977.78901	498.35
1980.86073	489.55
1983.93046	481.85
1986.99819	483.95
1990.06394	485.05
1993.1277	482.75
1996.18947	488.05
1999.24925	479.15
2002.30706	476.15
2005.36288	480.75
2008.41672	479.35
2011.46859	470.45
2014.51848	467.25
2017.56639	467.05
2020.61233	465.45
2023.6563	465.65
2026.6983	460.95
2029.73833	455.15
2032.7764	455.65
2035.8125	454.85
2038.84664	455.55
2041.87881	451.75
2044.90903	445.45
2047.93729	454.75
2050.96359	445.55
2053.98794	444.55
2057.01034	443.35
2060.03078	445.95
2063.04927	443.15
2066.06582	448.75
2069.08042	446.25
2072.09307	440.25
2075.10378	435.25
2078.11255	440.75
2081.11938	445.55
2084.12426	437.95
2087.12722	435.65
2090.12824	440.85
2093.12732	439.95
2096.12447	435.85
2099.11969	435.05
2102.11299	437.65
2105.10435	439.05
2108.09379	438.55
2111.08131	431.75
2114.0669	431.55
2117.05057	432.85
2120.03233	434.05
2123.01216	434.95
2125.99008	433.25
2128.96609	433.75
2131.94018	431.25
2134.91236	438.55
2137.88263	440.05
2140.851	435.95
2143.81746	434.55
2146.78201	435.45
2149.74466	433.25
2152.7054	439.85
2155.66425	440.85
2158.6212	447.55
2161.57625	441.95
2164.52941	445.85
2167.48067	447.15
2170.43004	448.05
2173.37752	447.65
2176.32311	447.25
2179.26681	438.65
2182.20863	440.75
2185.14856	440.55
2188.08661	439.55
2191.02278	434.55
2193.95707	425.05
2196.88948	419.35
2199.82001	415.05
2202.74867	412.65
2205.67545	407.35
2208.60037	411.95
2211.52341	405.75
2214.44458	401.55
2217.36388	398.15
2220.28132	403.15
2223.1969	397.75
2226.11061	390.65
2229.02246	389.35
2231.93245	393.05
2234.84058	394.25
2237.74686	393.05
2240.65128	390.15
2243.55385	388.75
2246.45456	385.45
2249.35343	390.35
2252.25044	380.85
2255.14561	384.75
2258.03893	381.55
2260.93041	382.65
2263.82004	377.95
2266.70783	381.85
2269.59378	376.95
2272.4779	371.75
2275.36017	373.45
2278.24061	370.65
2281.11922	371.25
2283.996	369.65
2286.87094	367.95
2289.74405	366.95
2292.61534	363.15
2295.4848	364.25
2298.35243	369.95
2301.21824	362.15
2304.08223	365.35
2306.94439	365.05
2309.80474	359.25
2312.66327	358.75
2315.51999	360.05
2318.37489	355.75
2321.22797	352.25
2324.07925	361.45
2326.92871	349.25
2329.77637	361.45
2332.62222	353.75
2335.46626	348.65
2338.3085	347.65
2341.14893	349.75
2343.98756	344.85
2346.8244	346.45
2349.65943	337.25
2352.49267	346.35
2355.32411	337.35
2358.15376	339.65
2360.98161	339.85
2363.80768	336.95
2366.63195	336.75
2369.45444	338.05
2372.27514	339.35
2375.09405	336.25
2377.91118	335.05
2380.72652	335.75
2383.54009	327.15
2386.35187	330.65
2389.16188	330.55
2391.97011	335.65
2394.77657	325.35
2397.58125	326.75
2400.38416	326.95
2403.18529	330.15
2405.98466	323.65
2408.78226	320.25
2411.57809	323.05
2414.37216	317.65
2417.16446	319.55
2419.955	322.15
2422.74378	321.25
2425.5308	318.05
2428.31606	319.35
2431.09956	318.85
2433.88131	315.25
2436.6613	314.15
2439.43954	315.05
2442.21603	309.95
2444.99077	313.15
2447.76377	313.35
2450.53501	309.25
2453.30451	309.15
2456.07226	305.45
2458.83827	308.25
2461.60254	306.65
2464.36507	304.35
2467.12586	306.85
2469.88492	302.85
2472.64224	306.75
2475.39782	300.75
2478.15167	298.25
2480.90379	305.05
2483.65417	301.25
2486.40283	302.05
2489.14976	298.05
2491.89497	295.35
2494.63845	299.45
2497.3802	301.35
2500.12024	300.05
2502.85855	297.65
2505.59514	299.95
2508.33002	299.75
2511.06318	286.25
2513.79462	292.25
2516.52435	288.95
2519.25237	289.85
2521.97867	287.85
2524.70327	289.95
2527.42616	287.35
2530.14734	282.85
2532.86681	280.85
2535.58458	286.15
2538.30065	284.75
2541.01501	280.15
2543.72768	281.95
2546.43864	288.45
2549.14791	280.05
2551.85548	283.45
2554.56136	274.95
2557.26554	281.85
2559.96803	276.45
2562.66883	277.95
2565.36794	276.15
2568.06536	275.55
2570.7611	278.15
2573.45514	270.15
2576.14751	275.15
2578.83819	270.05
2581.52719	271.15
2584.21451	269.55
2586.90015	269.85
2589.58411	270.55
2592.2664	260.65
2594.94701	266.75
2597.62594	269.35
2600.30321	266.45
2602.9788	263.15
2605.65273	266.25
2608.32498	263.25
2610.99557	266.05
2613.66449	258.15
2616.33175	263.45
2618.99734	261.05
2621.66128	262.45
2624.32355	256.25
2626.98416	259.85
2629.64311	259.15
2632.30041	257.75
2634.95605	256.65
2637.61004	256.75
2640.26238	259.85
2642.91306	254.75
2645.56209	256.35
2648.20948	254.65
2650.85521	250.75
2653.4993	251.05
2656.14175	252.55
2658.78255	252.45
2661.42171	245.15
2664.05923	253.15
2666.6951	252.55
2669.32934	251.05
2671.96194	251.95
2674.59291	248.45
2677.22224	250.25
2679.84993	250.45
2682.476	250.05
2685.10043	243.45
2687.72324	245.55
2690.34441	246.75
2692.96396	245.95
2695.58188	245.65
2698.19818	243.35
2700.81285	251.35
2703.4259	251.45
2706.03733	249.05
2708.64714	250.65
2711.25533	245.95
2713.86191	245.65
2716.46687	247.35
2719.07021	247.35
2721.67194	248.95
2724.27206	242.75
2726.87057	245.15
2729.46747	248.05
2732.06276	248.55
2734.65644	246.45
2737.24852	251.55
2739.83899	245.45
2742.42786	243.75
2745.01513	245.95
2747.60079	247.05
2750.18486	250.65
2752.76733	242.55
2755.3482	245.55
2757.92747	249.55
2760.50515	245.05
2763.08123	240.35
2765.65573	242.65
2768.22863	242.85
2770.79994	244.35
2773.36967	238.55
2775.9378	242.75
2778.50435	236.75
2781.06932	238.25
2783.6327	239.35
2786.1945	240.95
2788.75471	237.85
2791.31335	240.15
2793.87041	237.85
2796.42589	234.05
2798.97979	237.15
2801.53212	238.95
2804.08288	231.05
2806.63206	232.95
2809.17967	236.85
2811.72571	232.45
2814.27018	230.05
2816.81308	233.65
2819.35442	230.15
2821.89419	228.55
2824.43239	232.45
2826.96904	228.55
2829.50412	228.25
2832.03763	225.75
2834.56959	231.75
2837.1	230.95
2839.62884	225.85
2842.15613	228.15
2844.68186	229.15
2847.20604	227.25
2849.72867	228.35
2852.24974	232.35
2854.76927	228.75
2857.28724	229.95
2859.80367	232.65
2862.31855	235.45
2864.83189	232.25
2867.34368	227.15
2869.85393	234.15
2872.36264	232.85
2874.8698	231.15
2877.37543	230.85
2879.87952	231.65
2882.38207	229.05
2884.88308	228.55
2887.38256	230.75
2889.88051	229.45
2892.37692	235.15
2894.8718	233.15
2897.36515	236.75
2899.85698	237.05
2902.34727	235.95
2904.83604	239.45
2907.32328	238.95
2909.809	242.95
2912.29319	243.65
2914.77587	247.45
2917.25702	243.65
2919.73665	244.65
2922.21476	243.25
2924.69136	248.45
2927.16644	248.45
2929.64	245.65
2932.11205	250.65
2934.58258	248.85
2937.05161	250.45
2939.51912	253.45
2941.98513	253.15
2944.44962	254.35
2946.91261	251.65
2949.37409	251.95
2951.83407	242.55
2954.29254	252.85
2956.74951	245.95
2959.20498	244.95
2961.65895	252.15
2964.11142	248.35
2966.56239	248.35
2969.01186	252.65
2971.45984	249.15
2973.90632	253.55
2976.35131	256.55
2978.7948	253.25
2981.23681	253.25
2983.67732	252.35
2986.11635	257.35
2988.55388	254.25
2990.98993	258.05
2993.4245	258.75
2995.85758	256.45
2998.28917	257.25
3000.71928	259.45
3003.14791	262.15
3005.57506	258.85
3008.00073	263.95
3010.42493	264.25
3012.84764	268.25
3015.26888	268.85
3017.68865	269.45
3020.10694	268.65
3022.52376	274.15
3024.9391	272.35
3027.35298	276.85
3029.76539	274.45
3032.17632	279.35
3034.5858	282.05
3036.9938	282.85
3039.40034	287.95
3041.80542	285.85
3044.20903	289.45
3046.61118	296.15
3049.01187	298.15
3051.4111	305.05
3053.80888	300.55
3056.20519	304.05
3058.60005	303.85
3060.99345	306.55
3063.3854	304.05
3065.7759	313.25
3068.16494	316.25
3070.55254	319.75
3072.93868	320.35
3075.32338	319.65
3077.70662	324.45
3080.08842	331.55
3082.46878	334.15
3084.84769	340.55
3087.22515	341.05
3089.60118	346.65
3091.97576	354.45
3094.3489	357.85
3096.72061	359.45
3099.09087	367.15
3101.4597	374.75
3103.82709	372.15
3106.19305	381.55
3108.55757	384.95
3110.92066	389.25
3113.28232	396.85
3115.64255	394.85
3118.00134	399.45
3120.35871	405.15
3122.71466	410.95
3125.06917	413.35
3127.42226	420.25
3129.77393	425.65
3132.12417	430.75
3134.47299	441.05
3136.82039	443.45
3139.16636	453.95
3141.51092	454.15
3143.85406	460.25
3146.19579	465.05
3148.53609	467.15
3150.87499	483.45
3153.21246	489.05
3155.54853	497.95
3157.88318	497.85
3160.21642	509.15
3162.54826	515.25
3164.87868	519.55
3167.2077	530.35
3169.5353	527.15
3171.86151	541.85
3174.18631	538.95
3176.5097	553.05
3178.83169	547.55
3181.15228	561.85
3183.47147	567.15
3185.78926	572.05
3188.10565	568.25
3190.42065	579.15
3192.73424	587.75
3195.04645	585.25
3197.35725	588.65
3199.66667	593.75
3201.97469	603.75
3204.28132	602.75
3206.58656	615.85
3208.8904	619.55
3211.19287	618.25
3213.49394	626.85
3215.79363	627.65
3218.09193	632.55
3220.38884	636.35
3222.68438	639.05
3224.97853	643.15
3227.2713	644.85
3229.56269	638.85
3231.8527	655.55
3234.14133	653.55
3236.42858	655.65
3238.71446	655.55
3240.99896	655.95
3243.28209	652.45
3245.56384	651.75
3247.84423	652.25
3250.12324	653.85
3252.40088	654.45
3254.67715	662.05
3256.95205	650.25
3259.22558	664.55
3261.49775	661.65
3263.76855	662.85
3266.03799	660.65
3268.30606	665.25
3270.57277	667.15
3272.83812	657.75
3275.10211	658.75
3277.36474	666.45
3279.62601	663.25
3281.88593	664.15
3284.14448	665.35
3286.40168	662.75
3288.65753	658.05
3290.91202	662.85
3293.16516	667.45
3295.41695	664.35
3297.66738	659.45
3299.91647	658.25
3302.16421	654.75
3304.4106	650.25
3306.65564	648.85
3308.89933	650.25
3311.14169	649.95
3313.38269	641.95
3315.62236	640.35
3317.86068	639.75
3320.09766	628.85
3322.3333	632.95
3324.5676	622.55
3326.80056	623.35
3329.03219	620.45
3331.26248	-0.55
3333.49143	0.15
3335.71905	1.85
