Data from AuAgCoreShell_UA_100uM_CRN_0uM_R6G_10uM_Scan_RamanShift__26__14-39-39-798.txt Node

Date: Thu Jun 23 14:39:39 BST 2022
User: TCL
Spectrometer: QEP01345
Trigger mode: 4
Integration Time (sec): 7.000000E0
Scans to average: 10
Electric dark correction enabled: true
Nonlinearity correction enabled: false
Boxcar width: 0
XAxis mode: Raman Shifts
Number of Pixels in Spectrum: 1044
>>>>>Begin Spectral Data<<<<<
46.04893	0.3
50.45542	-0.3
54.85868	0.3
59.25871	-0.7
63.6555	32.8
68.04907	37.6
72.43941	38.3
76.82654	41.7
81.21044	47.6
85.59113	51
89.96862	52.4
94.34289	55.1
98.71396	56.1
103.08183	55.2
107.4465	59
111.80798	54
116.16626	60.1
120.52136	56.6
124.87327	58.9
129.222	56.8
133.56755	56.3
137.90993	53.9
142.24913	50.9
146.58517	53.1
150.91804	56.4
155.24774	52.3
159.57429	55.7
163.89768	58.5
168.21792	61.4
172.53501	68.7
176.84895	84.2
181.15975	95.3
185.46741	120.8
189.77193	157.1
194.07331	198.6
198.37157	247.7
202.6667	292.8
206.9587	332.1
211.24758	387.5
215.53334	438.1
219.81599	482
224.09553	532.7
228.37195	579.1
232.64527	647.2
236.91549	712.4
241.18261	778.3
245.44663	841.6
249.70755	906.7
253.96539	958.4
258.22014	1005.2
262.4718	1032.3
266.72039	1066.1
270.96589	1068.2
275.20832	1064.4
279.44768	1059.3
283.68397	1045.8
287.91719	1030
292.14735	1011.5
296.37445	991.6
300.59849	988.3
304.81948	981.4
309.03742	978.8
313.25231	976.8
317.46415	969.1
321.67296	966
325.87872	965.6
330.08145	963.9
334.28114	964.8
338.47781	978.3
342.67145	987.1
346.86207	988.4
351.04966	1013.1
355.23424	1039.4
359.4158	1035.2
363.59435	1065.3
367.76989	1078.2
371.94243	1092.5
376.11196	1092.5
380.27849	1106
384.44203	1114.8
388.60257	1126.4
392.76012	1132.2
396.91468	1147.2
401.06626	1151.2
405.21485	1156.2
409.36047	1162.9
413.50311	1171.2
417.64277	1171.7
421.77947	1169.5
425.9132	1174
430.04396	1181.8
434.17176	1188.9
438.2966	1190.4
442.41849	1199.7
446.53742	1213.8
450.6534	1217.7
454.76644	1227.7
458.87653	1229.3
462.98368	1239.7
467.08789	1243.2
471.18916	1240.5
475.2875	1239.8
479.38291	1244.9
483.4754	1255.3
487.56496	1258.9
491.6516	1280.2
495.73531	1281
499.81612	1280.4
503.89401	1276.4
507.96899	1259.3
512.04106	1252.1
516.11023	1258.3
520.1765	1254.2
524.23987	1266.2
528.30034	1259.6
532.35792	1256.8
536.41261	1254.4
540.46441	1249.5
544.51333	1242.7
548.55936	1224
552.60252	1229.8
556.64279	1239
560.6802	1236.8
564.71473	1236
568.7464	1230.1
572.7752	1241
576.80114	1232.9
580.82422	1238.6
584.84444	1248.1
588.86181	1250.1
592.87633	1265.5
596.888	1261.7
600.89682	1273.1
604.9028	1288.2
608.90594	1335.5
612.90624	1397.1
616.90371	1392.3
620.89834	1357.3
624.89015	1350.3
628.87913	1371.1
632.86528	1401.4
636.84862	1421.1
640.82913	1406.7
644.80683	1381.9
648.78172	1340.8
652.75379	1316.5
656.72306	1299.7
660.68952	1301
664.65319	1292.5
668.61405	1284.2
672.57211	1289.9
676.52738	1288.5
680.47986	1302.2
684.42955	1313.7
688.37646	1320
692.32058	1316.7
696.26192	1303.9
700.20048	1295.9
704.13626	1282.1
708.06928	1285.4
711.99952	1275
715.927	1288.1
719.85171	1285.4
723.77365	1279.1
727.69284	1291.1
731.60928	1287.8
735.52295	1276.4
739.43388	1275.1
743.34206	1270.1
747.24749	1268.8
751.15017	1259.5
755.05012	1258.7
758.94733	1258.9
762.8418	1277.1
766.73354	1311.9
770.62254	1325.7
774.50882	1336.5
778.39237	1325
782.27321	1307.4
786.15132	1282.5
790.02671	1277.1
793.89938	1272.1
797.76935	1273.1
801.6366	1281
805.50115	1298.5
809.36299	1318.4
813.22213	1323
817.07857	1310.8
820.93231	1296.3
824.78336	1280.3
828.63172	1259.9
832.47738	1252.9
836.32036	1249.6
840.16066	1253.6
843.99827	1251.5
847.8332	1249.8
851.66546	1241.7
855.49504	1235.9
859.32195	1242
863.1462	1233
866.96777	1233
870.78668	1242
874.60293	1253
878.41652	1262.6
882.22745	1280.4
886.03573	1283
889.84136	1284.6
893.64433	1286.5
897.44466	1264.9
901.24235	1246.9
905.0374	1232.1
908.8298	1226
912.61957	1231.8
916.40671	1225.1
920.19121	1231
923.97308	1232.6
927.75233	1225.2
931.52895	1225.6
935.30295	1220.4
939.07433	1217
942.84309	1204.6
946.60924	1203.7
950.37278	1190.9
954.13371	1182.7
957.89203	1174.4
961.64774	1165.4
965.40086	1158.2
969.15137	1159.1
972.89929	1150.6
976.64461	1146.5
980.38733	1146.3
984.12747	1132.1
987.86502	1134.9
991.59999	1135.7
995.33237	1144.9
999.06217	1146.5
1002.78939	1159.5
1006.51404	1168.4
1010.23611	1174.8
1013.95561	1180.7
1017.67255	1192
1021.38692	1184.4
1025.09872	1180.8
1028.80796	1166.3
1032.51465	1163.3
1036.21877	1158.1
1039.92035	1143.9
1043.61937	1140.5
1047.31584	1132.4
1051.00976	1127.5
1054.70114	1128.1
1058.38998	1133.2
1062.07627	1137.3
1065.76003	1139.4
1069.44126	1156.3
1073.11995	1164
1076.79611	1163.6
1080.46974	1161.3
1084.14085	1153
1087.80943	1140.8
1091.47549	1130.3
1095.13903	1120.6
1098.80005	1099
1102.45857	1110.1
1106.11456	1100.3
1109.76805	1098.6
1113.41903	1102.4
1117.06751	1119.9
1120.71348	1140.2
1124.35696	1167.2
1127.99793	1202.5
1131.63641	1239.4
1135.2724	1255.1
1138.90589	1253.2
1142.5369	1234.5
1146.16542	1191.5
1149.79145	1154.5
1153.415	1121.3
1157.03607	1100.5
1160.65467	1081.1
1164.27079	1079.3
1167.88443	1073.2
1171.49561	1085.2
1175.10432	1102.7
1178.71056	1125
1182.31434	1142.7
1185.91565	1153.4
1189.51451	1150.2
1193.11091	1154.7
1196.70485	1157.4
1200.29634	1168.7
1203.88538	1160.7
1207.47197	1155.6
1211.05612	1136.2
1214.63782	1111.9
1218.21708	1101.2
1221.79391	1086.4
1225.36829	1075.1
1228.94024	1059
1232.50976	1062.9
1236.07685	1057
1239.6415	1062.9
1243.20374	1064.9
1246.76355	1065.1
1250.32093	1074.4
1253.8759	1073.1
1257.42845	1081.9
1260.97859	1079.8
1264.52631	1078.5
1268.07163	1079.6
1271.61453	1089.8
1275.15503	1082.8
1278.69312	1079.8
1282.22882	1072.7
1285.76211	1065.5
1289.29301	1079.2
1292.82151	1091.6
1296.34761	1090.2
1299.87133	1101.8
1303.39266	1123.5
1306.9116	1147
1310.42815	1161.4
1313.94233	1174.3
1317.45412	1171
1320.96354	1158.2
1324.47058	1142.9
1327.97525	1129.9
1331.47754	1119.8
1334.97747	1121.4
1338.47502	1127.5
1341.97022	1132.9
1345.46305	1161.4
1348.95352	1198
1352.44163	1226.1
1355.92738	1258.8
1359.41078	1310.6
1362.89183	1356.7
1366.37053	1345.8
1369.84688	1297.1
1373.32088	1236.2
1376.79254	1193.7
1380.26186	1171.4
1383.72883	1140
1387.19347	1125.5
1390.65578	1110.9
1394.11575	1093.1
1397.57339	1075.4
1401.0287	1062.1
1404.48168	1050.5
1407.93234	1031.3
1411.38068	1024.2
1414.82669	1007.1
1418.27039	992.8
1421.71177	980.8
1425.15083	967.7
1428.58758	960.9
1432.02203	957.2
1435.45416	942.3
1438.88399	942.5
1442.31151	939.7
1445.73673	940.5
1449.15965	936.2
1452.58027	935
1455.9986	934.6
1459.41463	934.4
1462.82837	934.4
1466.23982	935.5
1469.64898	938
1473.05586	933.6
1476.46045	929
1479.86276	936
1483.26279	933.8
1486.66054	940
1490.05602	936.7
1493.44922	941.2
1496.84016	966.1
1500.22882	980.5
1503.61521	1008.9
1506.99934	1051.4
1510.38121	1086.2
1513.76081	1088.7
1517.13816	1068.7
1520.51324	1033
1523.88607	992.8
1527.25665	958
1530.62498	942.3
1533.99105	952
1537.35488	942.4
1540.71647	949.1
1544.07581	951.3
1547.4329	955.6
1550.78776	965.2
1554.14038	970.1
1557.49077	974.8
1560.83892	978.8
1564.18484	988.5
1567.52853	989.5
1570.86999	1004.1
1574.20922	1008.8
1577.54624	1012.6
1580.88103	1015.8
1584.2136	997.6
1587.54395	971.6
1590.87208	951.3
1594.19801	944.7
1597.52172	938.5
1600.84321	941.7
1604.16251	932.5
1607.47959	923.6
1610.79447	925.3
1614.10715	926
1617.41763	914.8
1620.7259	921.8
1624.03199	915
1627.33587	910.3
1630.63757	912.6
1633.93707	916.1
1637.23439	916.2
1640.52951	925.7
1643.82246	942.3
1647.11321	954.1
1650.40179	975.2
1653.68819	965.1
1656.97241	944.5
1660.25446	917.5
1663.53433	890
1666.81203	862.1
1670.08756	850
1673.36092	840
1676.63211	825.8
1679.90115	820.5
1683.16801	818.6
1686.43272	808.9
1689.69527	806.4
1692.95567	813.4
1696.2139	814.7
1699.46999	817.9
1702.72392	801.9
1705.97571	782.4
1709.22535	748.9
1712.47284	730.6
1715.71819	722.1
1718.96139	717.4
1722.20246	697.2
1725.44139	689.4
1728.67818	679
1731.91284	670
1735.14537	665.1
1738.37576	662.2
1741.60403	661.5
1744.83017	650.1
1748.05418	641.5
1751.27607	648.3
1754.49584	653.3
1757.71349	647.9
1760.92903	652
1764.14244	645.4
1767.35375	641.9
1770.56294	643.4
1773.77002	634
1776.97499	630.8
1780.17785	618.1
1783.37861	624.4
1786.57727	614.6
1789.77382	605.2
1792.96828	603.6
1796.16064	601.1
1799.3509	601.1
1802.53907	600.1
1805.72514	598.7
1808.90913	594.8
1812.09102	582.3
1815.27083	586
1818.44856	581
1821.6242	585
1824.79776	574.8
1827.96924	574.1
1831.13864	575
1834.30597	573.8
1837.47122	577.4
1840.6344	576.9
1843.7955	568.2
1846.95454	570.7
1850.11151	560.2
1853.26642	557.9
1856.41926	560
1859.57004	563.9
1862.71876	551.5
1865.86542	547.4
1869.01003	553.7
1872.15258	553.1
1875.29308	553.4
1878.43152	545.9
1881.56792	545
1884.70227	540.8
1887.83457	543.6
1890.96482	548.1
1894.09304	537.9
1897.21921	537.2
1900.34335	532.2
1903.46544	527.1
1906.58551	531.3
1909.70353	531.6
1912.81953	530
1915.93349	522.5
1919.04543	523
1922.15534	518.2
1925.26322	523.2
1928.36908	517.3
1931.47292	519.8
1934.57473	522.8
1937.67453	512.3
1940.77232	508.5
1943.86808	519.4
1946.96184	509.1
1950.05358	507.7
1953.14331	505.3
1956.23103	498.4
1959.31675	500.2
1962.40046	493.8
1965.48217	494.5
1968.56188	491.9
1971.63959	495.9
1974.7153	491.9
1977.78901	487.2
1980.86073	480.2
1983.93046	476.1
1986.99819	478.4
1990.06394	475.8
1993.1277	477.3
1996.18947	470.8
1999.24925	466.8
2002.30706	467.2
2005.36288	466.7
2008.41672	467.1
2011.46859	465
2014.51848	459.8
2017.56639	458.1
2020.61233	457.6
2023.6563	456.8
2026.6983	456.3
2029.73833	454
2032.7764	446.7
2035.8125	445.2
2038.84664	445.7
2041.87881	443.1
2044.90903	443.4
2047.93729	443.5
2050.96359	442.6
2053.98794	444.8
2057.01034	438.5
2060.03078	441.5
2063.04927	436.2
2066.06582	439.4
2069.08042	432.7
2072.09307	435.1
2075.10378	440.2
2078.11255	425.8
2081.11938	437.6
2084.12426	435.3
2087.12722	428.5
2090.12824	433.5
2093.12732	430.7
2096.12447	428
2099.11969	426.9
2102.11299	427.7
2105.10435	426.1
2108.09379	428.7
2111.08131	426.9
2114.0669	421.9
2117.05057	423.4
2120.03233	424.4
2123.01216	421.5
2125.99008	419
2128.96609	427.7
2131.94018	420
2134.91236	422.7
2137.88263	421.3
2140.851	419.4
2143.81746	417
2146.78201	415.9
2149.74466	414
2152.7054	418.8
2155.66425	415.5
2158.6212	417
2161.57625	420
2164.52941	422.4
2167.48067	418
2170.43004	419
2173.37752	418.7
2176.32311	414.7
2179.26681	412.9
2182.20863	414
2185.14856	409.9
2188.08661	401.5
2191.02278	402.5
2193.95707	406.9
2196.88948	403
2199.82001	399.3
2202.74867	404.2
2205.67545	397.2
2208.60037	395.4
2211.52341	397.7
2214.44458	393.3
2217.36388	387.4
2220.28132	388.6
2223.1969	390.9
2226.11061	386.2
2229.02246	385.5
2231.93245	381.5
2234.84058	386.6
2237.74686	382.2
2240.65128	381.6
2243.55385	376.8
2246.45456	378.5
2249.35343	376.7
2252.25044	375.2
2255.14561	376.1
2258.03893	372.9
2260.93041	377.3
2263.82004	373
2266.70783	366.4
2269.59378	373.6
2272.4779	363.8
2275.36017	366.3
2278.24061	362.2
2281.11922	364.6
2283.996	364.4
2286.87094	354.1
2289.74405	364
2292.61534	354.8
2295.4848	355.4
2298.35243	356.9
2301.21824	351.9
2304.08223	349.3
2306.94439	353.1
2309.80474	350
2312.66327	353.4
2315.51999	342
2318.37489	349.3
2321.22797	350.7
2324.07925	349.1
2326.92871	349.1
2329.77637	353.8
2332.62222	342.3
2335.46626	348
2338.3085	340.4
2341.14893	340.9
2343.98756	333.4
2346.8244	338.9
2349.65943	332.2
2352.49267	338.7
2355.32411	336.7
2358.15376	336.9
2360.98161	331.2
2363.80768	328.7
2366.63195	332.4
2369.45444	328.7
2372.27514	323.1
2375.09405	327.7
2377.91118	329.4
2380.72652	322.8
2383.54009	327
2386.35187	328.4
2389.16188	324.5
2391.97011	323.4
2394.77657	322.5
2397.58125	317.7
2400.38416	321.6
2403.18529	317.1
2405.98466	311
2408.78226	312.7
2411.57809	312.3
2414.37216	310.5
2417.16446	311.5
2419.955	309.2
2422.74378	314.2
2425.5308	309.1
2428.31606	312.7
2431.09956	306.9
2433.88131	308.4
2436.6613	305.3
2439.43954	305.6
2442.21603	299.3
2444.99077	306.6
2447.76377	304.3
2450.53501	301.9
2453.30451	303.2
2456.07226	299.3
2458.83827	303.1
2461.60254	293.3
2464.36507	293.9
2467.12586	295.4
2469.88492	295.8
2472.64224	295.6
2475.39782	292.1
2478.15167	294.9
2480.90379	294.9
2483.65417	292.3
2486.40283	289.7
2489.14976	287.4
2491.89497	281.7
2494.63845	291.1
2497.3802	293.9
2500.12024	290.6
2502.85855	287.9
2505.59514	286.5
2508.33002	292.3
2511.06318	287
2513.79462	287
2516.52435	284.2
2519.25237	282.4
2521.97867	283.2
2524.70327	279.3
2527.42616	283.4
2530.14734	279.8
2532.86681	275.9
2535.58458	276.8
2538.30065	280.4
2541.01501	273.9
2543.72768	270.3
2546.43864	273.8
2549.14791	270.7
2551.85548	275.7
2554.56136	271.3
2557.26554	270.6
2559.96803	266.3
2562.66883	267.7
2565.36794	266.1
2568.06536	265.3
2570.7611	265.5
2573.45514	262.6
2576.14751	265.5
2578.83819	265
2581.52719	265.1
2584.21451	260.3
2586.90015	260.7
2589.58411	259.6
2592.2664	257
2594.94701	260.4
2597.62594	258.4
2600.30321	260.3
2602.9788	260.6
2605.65273	252.2
2608.32498	260.8
2610.99557	251.5
2613.66449	253.2
2616.33175	255
2618.99734	251.5
2621.66128	246.5
2624.32355	246.9
2626.98416	252.3
2629.64311	243.4
2632.30041	249.2
2634.95605	247
2637.61004	252.7
2640.26238	246.7
2642.91306	240
2645.56209	246.7
2648.20948	243.2
2650.85521	242.5
2653.4993	242.2
2656.14175	242.3
2658.78255	242.9
2661.42171	235.8
2664.05923	244.9
2666.6951	240.6
2669.32934	238.9
2671.96194	244.1
2674.59291	239.9
2677.22224	240.6
2679.84993	243.1
2682.476	240.5
2685.10043	236.8
2687.72324	239.9
2690.34441	238.1
2692.96396	242.3
2695.58188	240.3
2698.19818	238.3
2700.81285	242.7
2703.4259	246.2
2706.03733	248.8
2708.64714	245.7
2711.25533	240.6
2713.86191	242.9
2716.46687	239.8
2719.07021	238.3
2721.67194	242
2724.27206	236.3
2726.87057	232.5
2729.46747	237.2
2732.06276	235.7
2734.65644	239.3
2737.24852	235.6
2739.83899	241.6
2742.42786	240.6
2745.01513	239.4
2747.60079	237.7
2750.18486	234.6
2752.76733	233.1
2755.3482	234
2757.92747	236.5
2760.50515	233.5
2763.08123	231
2765.65573	231.6
2768.22863	231.2
2770.79994	231.1
2773.36967	230.5
2775.9378	235.6
2778.50435	233.3
2781.06932	232.5
2783.6327	235.4
2786.1945	230.6
2788.75471	226.7
2791.31335	233.2
2793.87041	229.5
2796.42589	228
2798.97979	223.3
2801.53212	227
2804.08288	231
2806.63206	224.3
2809.17967	226.2
2811.72571	225.5
2814.27018	223.2
2816.81308	230
2819.35442	220.5
2821.89419	223.8
2824.43239	224.5
2826.96904	222
2829.50412	222.1
2832.03763	218.1
2834.56959	221.9
2837.1	226.4
2839.62884	216.9
2842.15613	223
2844.68186	222.4
2847.20604	216.3
2849.72867	220
2852.24974	229
2854.76927	220.6
2857.28724	228.1
2859.80367	226.4
2862.31855	224.2
2864.83189	222.3
2867.34368	219.7
2869.85393	225.3
2872.36264	225.9
2874.8698	222.1
2877.37543	220.8
2879.87952	227.5
2882.38207	223.8
2884.88308	221.4
2887.38256	226.6
2889.88051	223
2892.37692	226.4
2894.8718	227.8
2897.36515	228.9
2899.85698	231.1
2902.34727	226.4
2904.83604	227.9
2907.32328	235.3
2909.809	235.3
2912.29319	233.6
2914.77587	233.1
2917.25702	234.8
2919.73665	236.9
2922.21476	236.7
2924.69136	239.3
2927.16644	240.3
2929.64	239.3
2932.11205	244.6
2934.58258	238.8
2937.05161	240.6
2939.51912	244.9
2941.98513	242.5
2944.44962	244.5
2946.91261	241.8
2949.37409	241.2
2951.83407	241.7
2954.29254	240.3
2956.74951	236.4
2959.20498	241.3
2961.65895	243.4
2964.11142	240
2966.56239	242.4
2969.01186	244.8
2971.45984	243.4
2973.90632	244.9
2976.35131	249.4
2978.7948	246.9
2981.23681	246.5
2983.67732	250.4
2986.11635	247
2988.55388	245.8
2990.98993	254.7
2993.4245	254.4
2995.85758	252.1
2998.28917	253.4
3000.71928	252.1
3003.14791	255.1
3005.57506	254.5
3008.00073	260.6
3010.42493	262.1
3012.84764	260.2
3015.26888	263.3
3017.68865	258.2
3020.10694	267.2
3022.52376	264.2
3024.9391	264.1
3027.35298	267.6
3029.76539	273.9
3032.17632	276.2
3034.5858	273.4
3036.9938	279.6
3039.40034	280.5
3041.80542	280.4
3044.20903	281.8
3046.61118	289.7
3049.01187	290.5
3051.4111	291.3
3053.80888	293.8
3056.20519	296.7
3058.60005	303.1
3060.99345	304.8
3063.3854	299.5
3065.7759	311.7
3068.16494	312.3
3070.55254	313.2
3072.93868	319
3075.32338	320.7
3077.70662	319.1
3080.08842	326.6
3082.46878	330.2
3084.84769	336.1
3087.22515	337.6
3089.60118	341.6
3091.97576	348.6
3094.3489	350.1
3096.72061	361.6
3099.09087	359.2
3101.4597	366.7
3103.82709	374.5
3106.19305	378.7
3108.55757	381.6
3110.92066	385.4
3113.28232	393.8
3115.64255	395
3118.00134	399
3120.35871	404.5
3122.71466	408.2
3125.06917	411.4
3127.42226	417.6
3129.77393	425.1
3132.12417	430.7
3134.47299	439
3136.82039	443.7
3139.16636	448
3141.51092	454.7
3143.85406	462.3
3146.19579	459.6
3148.53609	474.3
3150.87499	485.1
3153.21246	487.3
3155.54853	495.1
3157.88318	501.3
3160.21642	509.2
3162.54826	515.9
3164.87868	516.7
3167.2077	530.9
3169.5353	531.9
3171.86151	541.4
3174.18631	542.3
3176.5097	550.7
3178.83169	554.6
3181.15228	560.8
3183.47147	565.6
3185.78926	574.9
3188.10565	572.1
3190.42065	582.1
3192.73424	584.8
3195.04645	585.1
3197.35725	591.8
3199.66667	601.4
3201.97469	609.4
3204.28132	610.1
3206.58656	618.3
3208.8904	616.2
3211.19287	622.5
3213.49394	630.1
3215.79363	639.5
3218.09193	638.5
3220.38884	642.2
3222.68438	651.9
3224.97853	647.3
3227.2713	651.5
3229.56269	658.3
3231.8527	658.2
3234.14133	656.2
3236.42858	653.8
3238.71446	654
3240.99896	658.2
3243.28209	660.1
3245.56384	663.1
3247.84423	656.3
3250.12324	663.9
3252.40088	655.8
3254.67715	661.6
3256.95205	660.6
3259.22558	668.9
3261.49775	664.9
3263.76855	664.8
3266.03799	666
3268.30606	671.1
3270.57277	667
3272.83812	668.8
3275.10211	668.9
3277.36474	671.6
3279.62601	661.1
3281.88593	668.7
3284.14448	661.6
3286.40168	663.9
3288.65753	663.2
3290.91202	666.6
3293.16516	667.2
3295.41695	662
3297.66738	665.6
3299.91647	665.1
3302.16421	657.9
3304.4106	655.7
3306.65564	654.1
3308.89933	650.1
3311.14169	650.7
3313.38269	645.9
3315.62236	641.2
3317.86068	642
3320.09766	641.8
3322.3333	637.3
3324.5676	632.4
3326.80056	632.9
3329.03219	623.6
3331.26248	-1
3333.49143	0.2
3335.71905	1.8
