Data from AuAgCoreShell_UA_100uM_CRN_0uM_R6G_10uM_Scan_RamanShift__8__14-18-39-773.txt Node

Date: Thu Jun 23 14:18:39 BST 2022
User: TCL
Spectrometer: QEP01345
Trigger mode: 4
Integration Time (sec): 7.000000E0
Scans to average: 10
Electric dark correction enabled: true
Nonlinearity correction enabled: false
Boxcar width: 0
XAxis mode: Raman Shifts
Number of Pixels in Spectrum: 1044
>>>>>Begin Spectral Data<<<<<
46.04893	0
50.45542	-0.3
54.85868	-0.6
59.25871	-0.6
63.6555	34.5
68.04907	35.3
72.43941	39.3
76.82654	42.6
81.21044	47.6
85.59113	51.3
89.96862	54.6
94.34289	54.6
98.71396	57.8
103.08183	54.2
107.4465	59.3
111.80798	57.6
116.16626	61.9
120.52136	58.7
124.87327	60.5
129.222	54.8
133.56755	53.5
137.90993	55.5
142.24913	53.8
146.58517	52.3
150.91804	54.1
155.24774	57.4
159.57429	56.8
163.89768	55
168.21792	63
172.53501	70.6
176.84895	82.5
181.15975	98.6
185.46741	123
189.77193	157.6
194.07331	202.2
198.37157	254.4
202.6667	307.1
206.9587	356.2
211.24758	405
215.53334	457.3
219.81599	519.8
224.09553	568.2
228.37195	631.7
232.64527	710
236.91549	779.7
241.18261	856.2
245.44663	921.6
249.70755	985.6
253.96539	1037.4
258.22014	1083.3
262.4718	1122.6
266.72039	1137.5
270.96589	1140.8
275.20832	1128.7
279.44768	1102.4
283.68397	1086
287.91719	1059.1
292.14735	1032.7
296.37445	1017.5
300.59849	1009.6
304.81948	1001.4
309.03742	993.8
313.25231	986.9
317.46415	980.4
321.67296	961.7
325.87872	946.9
330.08145	948.8
334.28114	951
338.47781	960.5
342.67145	969.9
346.86207	988
351.04966	1002.6
355.23424	1030.4
359.4158	1042.4
363.59435	1055.9
367.76989	1065.6
371.94243	1070.7
376.11196	1076.1
380.27849	1084.9
384.44203	1095.1
388.60257	1093.3
392.76012	1096.5
396.91468	1105.7
401.06626	1124.8
405.21485	1126.3
409.36047	1119
413.50311	1121.8
417.64277	1113.6
421.77947	1109.4
425.9132	1117.6
430.04396	1114.3
434.17176	1124
438.2966	1133.1
442.41849	1137.3
446.53742	1154.4
450.6534	1152.1
454.76644	1161.7
458.87653	1165.6
462.98368	1164.7
467.08789	1172.6
471.18916	1176.3
475.2875	1176.6
479.38291	1173.9
483.4754	1175.4
487.56496	1179.3
491.6516	1180.2
495.73531	1182.7
499.81612	1185.5
503.89401	1183.9
507.96899	1185.8
512.04106	1172
516.11023	1172.3
520.1765	1172.6
524.23987	1176.6
528.30034	1165.1
532.35792	1160.6
536.41261	1156.2
540.46441	1155.4
544.51333	1142.7
548.55936	1141.8
552.60252	1148.5
556.64279	1147.3
560.6802	1155.7
564.71473	1156.5
568.7464	1160.5
572.7752	1160.2
576.80114	1156.4
580.82422	1163.9
584.84444	1156.2
588.86181	1169.8
592.87633	1173
596.888	1183.9
600.89682	1194.9
604.9028	1227.1
608.90594	1323.5
612.90624	1429.6
616.90371	1405.8
620.89834	1300.7
624.89015	1268.7
628.87913	1257.5
632.86528	1257.8
636.84862	1272.9
640.82913	1255.2
644.80683	1231.6
648.78172	1216.2
652.75379	1209.1
656.72306	1215.4
660.68952	1216
664.65319	1216.2
668.61405	1193
672.57211	1204.2
676.52738	1210.4
680.47986	1237.6
684.42955	1255.5
688.37646	1262.2
692.32058	1265.7
696.26192	1236.7
700.20048	1225.7
704.13626	1199.2
708.06928	1220.1
711.99952	1213
715.927	1204.8
719.85171	1189.7
723.77365	1197.4
727.69284	1200.6
731.60928	1196.5
735.52295	1186.8
739.43388	1187.3
743.34206	1187.2
747.24749	1187.6
751.15017	1182.3
755.05012	1183.8
758.94733	1187.7
762.8418	1215.8
766.73354	1271.7
770.62254	1305.3
774.50882	1336.3
778.39237	1312.5
782.27321	1262.6
786.15132	1229.5
790.02671	1211.2
793.89938	1202.8
797.76935	1192
801.6366	1213.4
805.50115	1219
809.36299	1216.1
813.22213	1224.7
817.07857	1214.3
820.93231	1204.1
824.78336	1197.4
828.63172	1184.2
832.47738	1183.4
836.32036	1184.1
840.16066	1191.3
843.99827	1178.6
847.8332	1173.7
851.66546	1166.6
855.49504	1157.5
859.32195	1164.4
863.1462	1166.5
866.96777	1166.2
870.78668	1169.9
874.60293	1177.7
878.41652	1177.7
882.22745	1190.3
886.03573	1193.3
889.84136	1204.8
893.64433	1218
897.44466	1215.6
901.24235	1222.2
905.0374	1208.4
908.8298	1212
912.61957	1219.4
916.40671	1227.1
920.19121	1239
923.97308	1250.4
927.75233	1254.1
931.52895	1242.1
935.30295	1235.8
939.07433	1219.7
942.84309	1207.7
946.60924	1187
950.37278	1169.8
954.13371	1162.5
957.89203	1147.3
961.64774	1140
965.40086	1129.7
969.15137	1118
972.89929	1116.2
976.64461	1110.5
980.38733	1101.8
984.12747	1099.3
987.86502	1094.3
991.59999	1098
995.33237	1094.1
999.06217	1094.6
1002.78939	1106.8
1006.51404	1112
1010.23611	1129.5
1013.95561	1129.2
1017.67255	1135.4
1021.38692	1139.2
1025.09872	1137
1028.80796	1126
1032.51465	1125.4
1036.21877	1119.3
1039.92035	1114
1043.61937	1095
1047.31584	1099.1
1051.00976	1092.9
1054.70114	1092.2
1058.38998	1100.7
1062.07627	1089.7
1065.76003	1098.3
1069.44126	1100.6
1073.11995	1111.5
1076.79611	1114
1080.46974	1114.8
1084.14085	1113.6
1087.80943	1103.9
1091.47549	1102.6
1095.13903	1092
1098.80005	1074.4
1102.45857	1070.2
1106.11456	1057.9
1109.76805	1067.2
1113.41903	1068.4
1117.06751	1083.1
1120.71348	1103.6
1124.35696	1131.4
1127.99793	1152.3
1131.63641	1173.1
1135.2724	1172.7
1138.90589	1150.4
1142.5369	1136.5
1146.16542	1117.4
1149.79145	1092.8
1153.415	1073
1157.03607	1054.7
1160.65467	1061.2
1164.27079	1055.1
1167.88443	1060.2
1171.49561	1075.6
1175.10432	1107.1
1178.71056	1153.8
1182.31434	1186.9
1185.91565	1193
1189.51451	1170.5
1193.11091	1144.9
1196.70485	1124
1200.29634	1109.9
1203.88538	1115.6
1207.47197	1100.2
1211.05612	1074.7
1214.63782	1065.2
1218.21708	1045.4
1221.79391	1044.3
1225.36829	1041.3
1228.94024	1044.2
1232.50976	1036.5
1236.07685	1044.9
1239.6415	1044.7
1243.20374	1049.3
1246.76355	1064.1
1250.32093	1061.6
1253.8759	1062.7
1257.42845	1071.5
1260.97859	1077.3
1264.52631	1086.4
1268.07163	1094
1271.61453	1098.1
1275.15503	1100.9
1278.69312	1104.7
1282.22882	1103.5
1285.76211	1103.6
1289.29301	1115.9
1292.82151	1141.8
1296.34761	1146.5
1299.87133	1173.5
1303.39266	1210.5
1306.9116	1252
1310.42815	1295.3
1313.94233	1316.8
1317.45412	1295.2
1320.96354	1258.2
1324.47058	1211.9
1327.97525	1174.2
1331.47754	1170.8
1334.97747	1152.6
1338.47502	1150.5
1341.97022	1174.8
1345.46305	1191.4
1348.95352	1246.2
1352.44163	1295.8
1355.92738	1357.1
1359.41078	1447.4
1362.89183	1551.7
1366.37053	1553
1369.84688	1464.9
1373.32088	1348.8
1376.79254	1275.7
1380.26186	1251.7
1383.72883	1224.8
1387.19347	1204.5
1390.65578	1185.8
1394.11575	1169.9
1397.57339	1157
1401.0287	1152.6
1404.48168	1140.7
1407.93234	1121.4
1411.38068	1113.8
1414.82669	1107
1418.27039	1106.7
1421.71177	1099
1425.15083	1079.4
1428.58758	1064
1432.02203	1050.2
1435.45416	1038.6
1438.88399	1030.6
1442.31151	1010.8
1445.73673	1003.4
1449.15965	999.3
1452.58027	991.4
1455.9986	993.2
1459.41463	988.6
1462.82837	995.8
1466.23982	992.1
1469.64898	996.5
1473.05586	1000.5
1476.46045	1003
1479.86276	1009.5
1483.26279	1006.6
1486.66054	1024.2
1490.05602	1017
1493.44922	1034.8
1496.84016	1057.6
1500.22882	1102
1503.61521	1157.9
1506.99934	1234
1510.38121	1298.1
1513.76081	1303.3
1517.13816	1265.6
1520.51324	1182.4
1523.88607	1110.3
1527.25665	1046.7
1530.62498	1024.2
1533.99105	1017.2
1537.35488	993.5
1540.71647	988.3
1544.07581	991.7
1547.4329	994.1
1550.78776	999.5
1554.14038	1000.6
1557.49077	1010.2
1560.83892	1017.2
1564.18484	1019.8
1567.52853	1029
1570.86999	1059.7
1574.20922	1056.4
1577.54624	1068.6
1580.88103	1059.7
1584.2136	1020.3
1587.54395	993.8
1590.87208	964
1594.19801	962.2
1597.52172	958.9
1600.84321	957.9
1604.16251	946.5
1607.47959	928.1
1610.79447	927.9
1614.10715	916.3
1617.41763	899.3
1620.7259	894
1624.03199	888.5
1627.33587	890.7
1630.63757	895.6
1633.93707	891.7
1637.23439	899.7
1640.52951	909.6
1643.82246	940.5
1647.11321	984.7
1650.40179	1013
1653.68819	1007.4
1656.97241	972.5
1660.25446	915.2
1663.53433	867.8
1666.81203	846
1670.08756	829.5
1673.36092	817.4
1676.63211	802.7
1679.90115	796.8
1683.16801	797.7
1686.43272	786.9
1689.69527	780.6
1692.95567	785.3
1696.2139	770.3
1699.46999	771.7
1702.72392	756.4
1705.97571	742
1709.22535	731
1712.47284	718.7
1715.71819	710.2
1718.96139	699.3
1722.20246	694
1725.44139	678.8
1728.67818	676.3
1731.91284	669.5
1735.14537	656.8
1738.37576	659.4
1741.60403	651.9
1744.83017	642.7
1748.05418	639
1751.27607	629.1
1754.49584	630.5
1757.71349	627
1760.92903	629.4
1764.14244	616.7
1767.35375	626.5
1770.56294	617
1773.77002	622.5
1776.97499	621.3
1780.17785	608.8
1783.37861	612.3
1786.57727	609.3
1789.77382	601
1792.96828	603.4
1796.16064	606.7
1799.3509	596.9
1802.53907	597.1
1805.72514	602.4
1808.90913	589.7
1812.09102	588.2
1815.27083	582.9
1818.44856	580
1821.6242	582.5
1824.79776	580.2
1827.96924	574.5
1831.13864	574.6
1834.30597	573.9
1837.47122	574.8
1840.6344	568.6
1843.7955	568.2
1846.95454	564.6
1850.11151	565.1
1853.26642	567.9
1856.41926	556.8
1859.57004	567.7
1862.71876	563.1
1865.86542	553.6
1869.01003	557.9
1872.15258	551.9
1875.29308	557.7
1878.43152	551.6
1881.56792	548.4
1884.70227	545.6
1887.83457	545.3
1890.96482	542.4
1894.09304	539.3
1897.21921	539.3
1900.34335	539
1903.46544	536.3
1906.58551	532.5
1909.70353	533
1912.81953	536.6
1915.93349	528.9
1919.04543	534.2
1922.15534	525.4
1925.26322	527.9
1928.36908	528.8
1931.47292	523.7
1934.57473	527.5
1937.67453	521.1
1940.77232	517
1943.86808	516.4
1946.96184	512.6
1950.05358	511.5
1953.14331	514.5
1956.23103	506.4
1959.31675	507.5
1962.40046	505.6
1965.48217	494.9
1968.56188	496.4
1971.63959	501.5
1974.7153	498.6
1977.78901	491.5
1980.86073	488
1983.93046	484.9
1986.99819	487.7
1990.06394	478.4
1993.1277	477.5
1996.18947	482.5
1999.24925	479
2002.30706	472.4
2005.36288	473.7
2008.41672	475.9
2011.46859	465.8
2014.51848	470.7
2017.56639	459.6
2020.61233	464.8
2023.6563	463.3
2026.6983	459.7
2029.73833	458.9
2032.7764	460.1
2035.8125	450.1
2038.84664	450.9
2041.87881	452.7
2044.90903	448.7
2047.93729	454.2
2050.96359	452.1
2053.98794	451.8
2057.01034	449.2
2060.03078	446.5
2063.04927	443.7
2066.06582	450
2069.08042	445
2072.09307	443.5
2075.10378	439.9
2078.11255	440.8
2081.11938	446.8
2084.12426	444
2087.12722	442.8
2090.12824	445.5
2093.12732	442.1
2096.12447	442.6
2099.11969	439.7
2102.11299	440.5
2105.10435	444.3
2108.09379	442.4
2111.08131	437.9
2114.0669	439
2117.05057	441.7
2120.03233	445.9
2123.01216	440.8
2125.99008	446.9
2128.96609	444
2131.94018	442.3
2134.91236	445.4
2137.88263	447.4
2140.851	445.4
2143.81746	446.9
2146.78201	450.7
2149.74466	443.2
2152.7054	452
2155.66425	451.2
2158.6212	461.9
2161.57625	460.7
2164.52941	466.8
2167.48067	475.1
2170.43004	467.5
2173.37752	473.3
2176.32311	473.4
2179.26681	472.7
2182.20863	464.4
2185.14856	463.7
2188.08661	455.8
2191.02278	450.1
2193.95707	445.4
2196.88948	439.9
2199.82001	433.6
2202.74867	423.2
2205.67545	420.7
2208.60037	416.4
2211.52341	411.6
2214.44458	403
2217.36388	410.2
2220.28132	407.1
2223.1969	404.1
2226.11061	405.5
2229.02246	400.8
2231.93245	399.7
2234.84058	400.8
2237.74686	397.2
2240.65128	398.1
2243.55385	394.2
2246.45456	392.3
2249.35343	389.4
2252.25044	394.1
2255.14561	389.2
2258.03893	388.2
2260.93041	387.6
2263.82004	385.9
2266.70783	387.2
2269.59378	389.3
2272.4779	380.6
2275.36017	382.4
2278.24061	374.9
2281.11922	382.2
2283.996	381
2286.87094	376.6
2289.74405	372.8
2292.61534	371.1
2295.4848	375.3
2298.35243	373.1
2301.21824	369.2
2304.08223	365.9
2306.94439	370.6
2309.80474	366.1
2312.66327	364.6
2315.51999	360.8
2318.37489	362.8
2321.22797	368.9
2324.07925	360.7
2326.92871	366.1
2329.77637	369.7
2332.62222	358.9
2335.46626	360.9
2338.3085	357.7
2341.14893	354.4
2343.98756	349.9
2346.8244	353.5
2349.65943	347.4
2352.49267	355.3
2355.32411	356.8
2358.15376	354.7
2360.98161	351.1
2363.80768	344.6
2366.63195	345.1
2369.45444	343.9
2372.27514	344.6
2375.09405	343.4
2377.91118	339.8
2380.72652	340.9
2383.54009	339.2
2386.35187	345
2389.16188	337.7
2391.97011	342.5
2394.77657	337.3
2397.58125	336
2400.38416	332.9
2403.18529	334.3
2405.98466	329.8
2408.78226	330.7
2411.57809	330.9
2414.37216	329.2
2417.16446	328.1
2419.955	327.7
2422.74378	333.3
2425.5308	326.3
2428.31606	327
2431.09956	329.6
2433.88131	323.2
2436.6613	319
2439.43954	322.6
2442.21603	323.3
2444.99077	321.1
2447.76377	321.9
2450.53501	321
2453.30451	320.9
2456.07226	318
2458.83827	319.7
2461.60254	317.5
2464.36507	315.3
2467.12586	317
2469.88492	314.4
2472.64224	314.3
2475.39782	311.1
2478.15167	306.1
2480.90379	313.7
2483.65417	312.1
2486.40283	307.2
2489.14976	306.2
2491.89497	309.7
2494.63845	311.1
2497.3802	309.9
2500.12024	309.2
2502.85855	310.1
2505.59514	310.6
2508.33002	298.7
2511.06318	308.9
2513.79462	301.6
2516.52435	300.9
2519.25237	298.2
2521.97867	301.9
2524.70327	298.5
2527.42616	301
2530.14734	302.6
2532.86681	300.8
2535.58458	300.5
2538.30065	300.6
2541.01501	295.2
2543.72768	296.6
2546.43864	290.2
2549.14791	293.5
2551.85548	296.5
2554.56136	289.1
2557.26554	291.4
2559.96803	290.4
2562.66883	283.3
2565.36794	291.8
2568.06536	290.2
2570.7611	285.8
2573.45514	286.1
2576.14751	281.6
2578.83819	286.1
2581.52719	284.3
2584.21451	281.6
2586.90015	283.8
2589.58411	279.9
2592.2664	279.7
2594.94701	282.9
2597.62594	275.5
2600.30321	277.3
2602.9788	276.7
2605.65273	275.8
2608.32498	277.4
2610.99557	275.3
2613.66449	278.1
2616.33175	273.6
2618.99734	272.3
2621.66128	274.5
2624.32355	272.6
2626.98416	270.5
2629.64311	272.6
2632.30041	272.7
2634.95605	267.4
2637.61004	271.8
2640.26238	268.2
2642.91306	268.2
2645.56209	264.2
2648.20948	269
2650.85521	267.2
2653.4993	264.2
2656.14175	262.7
2658.78255	264.2
2661.42171	267.6
2664.05923	266.8
2666.6951	270.5
2669.32934	260.1
2671.96194	265.9
2674.59291	265.2
2677.22224	268.6
2679.84993	261.3
2682.476	263.6
2685.10043	261.5
2687.72324	262.9
2690.34441	266.3
2692.96396	261
2695.58188	261.6
2698.19818	259.2
2700.81285	269.7
2703.4259	265.3
2706.03733	258.9
2708.64714	264.9
2711.25533	261.9
2713.86191	261.1
2716.46687	258.5
2719.07021	262.3
2721.67194	262.6
2724.27206	262
2726.87057	261.9
2729.46747	263.5
2732.06276	264.4
2734.65644	259.2
2737.24852	264.7
2739.83899	262.7
2742.42786	259.3
2745.01513	261
2747.60079	259.9
2750.18486	262.2
2752.76733	258.7
2755.3482	260.5
2757.92747	260.2
2760.50515	261.8
2763.08123	257.8
2765.65573	257
2768.22863	258.5
2770.79994	254
2773.36967	251.7
2775.9378	254.5
2778.50435	254.5
2781.06932	258.9
2783.6327	251.8
2786.1945	254.2
2788.75471	243.9
2791.31335	254.5
2793.87041	250.5
2796.42589	246.6
2798.97979	252.8
2801.53212	255.4
2804.08288	246.7
2806.63206	246.4
2809.17967	247.8
2811.72571	246.4
2814.27018	247.2
2816.81308	251.6
2819.35442	241.9
2821.89419	246.8
2824.43239	250.5
2826.96904	246.1
2829.50412	247
2832.03763	246.1
2834.56959	244.9
2837.1	244.1
2839.62884	238.9
2842.15613	245.4
2844.68186	245.4
2847.20604	246
2849.72867	243
2852.24974	246.7
2854.76927	247.5
2857.28724	245.5
2859.80367	249.6
2862.31855	245
2864.83189	247.8
2867.34368	245.8
2869.85393	240.5
2872.36264	248.2
2874.8698	243.3
2877.37543	248
2879.87952	249.4
2882.38207	240.9
2884.88308	244.7
2887.38256	244.2
2889.88051	248.5
2892.37692	246.3
2894.8718	249.3
2897.36515	249.4
2899.85698	254.2
2902.34727	254.4
2904.83604	253.7
2907.32328	255.5
2909.809	256.9
2912.29319	256.1
2914.77587	262.9
2917.25702	260.8
2919.73665	260.3
2922.21476	267.3
2924.69136	268.9
2927.16644	263.7
2929.64	266.6
2932.11205	270.8
2934.58258	269.4
2937.05161	268.9
2939.51912	270
2941.98513	269.6
2944.44962	269.6
2946.91261	271.8
2949.37409	266.2
2951.83407	264.7
2954.29254	264.9
2956.74951	264.4
2959.20498	266.1
2961.65895	263.3
2964.11142	260.4
2966.56239	265.9
2969.01186	265.5
2971.45984	265.8
2973.90632	273.2
2976.35131	268.2
2978.7948	268.3
2981.23681	267.1
2983.67732	273
2986.11635	268.9
2988.55388	265.4
2990.98993	267.6
2993.4245	267.9
2995.85758	266.8
2998.28917	270.2
3000.71928	275
3003.14791	273
3005.57506	277.8
3008.00073	280.2
3010.42493	283.4
3012.84764	281.7
3015.26888	282.7
3017.68865	279.1
3020.10694	284.4
3022.52376	282.2
3024.9391	288.3
3027.35298	293.7
3029.76539	291.8
3032.17632	293.8
3034.5858	290.3
3036.9938	292.4
3039.40034	302.2
3041.80542	300.5
3044.20903	302.2
3046.61118	309.1
3049.01187	310.4
3051.4111	307
3053.80888	312.1
3056.20519	320.7
3058.60005	319.2
3060.99345	321.5
3063.3854	321.5
3065.7759	323.1
3068.16494	326
3070.55254	330
3072.93868	336.8
3075.32338	333.5
3077.70662	339.3
3080.08842	339.8
3082.46878	346.9
3084.84769	348.7
3087.22515	353.9
3089.60118	357.8
3091.97576	366.3
3094.3489	368.1
3096.72061	393.9
3099.09087	386.5
3101.4597	444.1
3103.82709	410.2
3106.19305	394.4
3108.55757	396.4
3110.92066	396.2
3113.28232	405.2
3115.64255	411.8
3118.00134	411.9
3120.35871	417.7
3122.71466	423.9
3125.06917	427.2
3127.42226	429.1
3129.77393	440.5
3132.12417	447.5
3134.47299	448.7
3136.82039	459.7
3139.16636	465.6
3141.51092	462.1
3143.85406	470.5
3146.19579	476.7
3148.53609	485.8
3150.87499	488.8
3153.21246	504.7
3155.54853	501
3157.88318	504.3
3160.21642	513.8
3162.54826	525.3
3164.87868	528.2
3167.2077	536.3
3169.5353	541.5
3171.86151	550.7
3174.18631	550.4
3176.5097	559.5
3178.83169	564
3181.15228	570
3183.47147	573.5
3185.78926	576
3188.10565	586.5
3190.42065	587.9
3192.73424	590.7
3195.04645	589.3
3197.35725	598.2
3199.66667	611.5
3201.97469	612.8
3204.28132	619.4
3206.58656	622.7
3208.8904	628.5
3211.19287	626.6
3213.49394	636.7
3215.79363	641.6
3218.09193	644.2
3220.38884	642.2
3222.68438	646.3
3224.97853	655.5
3227.2713	653.5
3229.56269	662.3
3231.8527	661
3234.14133	659.5
3236.42858	661.8
3238.71446	657.2
3240.99896	660.8
3243.28209	657.4
3245.56384	661.7
3247.84423	668.6
3250.12324	658.7
3252.40088	669.9
3254.67715	663.5
3256.95205	664.7
3259.22558	672
3261.49775	665.8
3263.76855	677.6
3266.03799	667.9
3268.30606	672.6
3270.57277	673.1
3272.83812	667.9
3275.10211	666.2
3277.36474	667.3
3279.62601	672.4
3281.88593	675.9
3284.14448	668.8
3286.40168	668.2
3288.65753	676.9
3290.91202	667.3
3293.16516	666.5
3295.41695	672.1
3297.66738	666
3299.91647	664.3
3302.16421	662.7
3304.4106	656
3306.65564	655.3
3308.89933	656.6
3311.14169	648.1
3313.38269	642.1
3315.62236	644.8
3317.86068	642.9
3320.09766	638.9
3322.3333	638.9
3324.5676	633
3326.80056	628.3
3329.03219	626.5
3331.26248	-0.6
3333.49143	0.5
3335.71905	1.3
