Data from AuAgCoreShell_UA_100uM_CRN_0uM_R6G_10uM_Scan_RamanShift__28__14-41-59-801.txt Node

Date: Thu Jun 23 14:41:59 BST 2022
User: TCL
Spectrometer: QEP01345
Trigger mode: 4
Integration Time (sec): 7.000000E0
Scans to average: 10
Electric dark correction enabled: true
Nonlinearity correction enabled: false
Boxcar width: 0
XAxis mode: Raman Shifts
Number of Pixels in Spectrum: 1044
>>>>>Begin Spectral Data<<<<<
46.04893	-1.75
50.45542	0.35
54.85868	0.75
59.25871	0.55
63.6555	36.25
68.04907	39.25
72.43941	39.75
76.82654	48.05
81.21044	52.35
85.59113	54.65
89.96862	57.85
94.34289	60.65
98.71396	61.95
103.08183	62.75
107.4465	65.25
111.80798	59.65
116.16626	63.45
120.52136	58.85
124.87327	61.55
129.222	61.45
133.56755	61.35
137.90993	58.65
142.24913	54.25
146.58517	54.05
150.91804	57.45
155.24774	56.55
159.57429	62.35
163.89768	60.05
168.21792	66.55
172.53501	72.85
176.84895	87.35
181.15975	101.65
185.46741	124.65
189.77193	157.25
194.07331	211.65
198.37157	259.15
202.6667	309.65
206.9587	350.15
211.24758	404.35
215.53334	459.85
219.81599	507.05
224.09553	553.15
228.37195	607.15
232.64527	680.05
236.91549	739.05
241.18261	801.35
245.44663	875.85
249.70755	936.35
253.96539	991.05
258.22014	1039.25
262.4718	1078.95
266.72039	1097.15
270.96589	1111.85
275.20832	1108.75
279.44768	1091.25
283.68397	1081.05
287.91719	1062.45
292.14735	1046.45
296.37445	1030.35
300.59849	1032.05
304.81948	1029.25
309.03742	1034.25
313.25231	1019.65
317.46415	1014.85
321.67296	1009.25
325.87872	1004.25
330.08145	1013.15
334.28114	1004.35
338.47781	1022.75
342.67145	1033.65
346.86207	1044.75
351.04966	1063.35
355.23424	1081.15
359.4158	1087.95
363.59435	1110.35
367.76989	1119.95
371.94243	1131.15
376.11196	1140.25
380.27849	1154.65
384.44203	1170.25
388.60257	1180.85
392.76012	1190.85
396.91468	1202.75
401.06626	1205.95
405.21485	1223.75
409.36047	1226.15
413.50311	1228.55
417.64277	1226.85
421.77947	1231.65
425.9132	1235.65
430.04396	1242.15
434.17176	1252.65
438.2966	1252.35
442.41849	1258.85
446.53742	1269.05
450.6534	1267.55
454.76644	1285.15
458.87653	1283.05
462.98368	1290.95
467.08789	1286.15
471.18916	1301.35
475.2875	1293.05
479.38291	1306.65
483.4754	1313.45
487.56496	1339.15
491.6516	1338.45
495.73531	1347.15
499.81612	1339.45
503.89401	1334.15
507.96899	1327.25
512.04106	1315.15
516.11023	1310.95
520.1765	1314.25
524.23987	1321.95
528.30034	1311.95
532.35792	1325.45
536.41261	1319.95
540.46441	1304.85
544.51333	1301.05
548.55936	1291.95
552.60252	1287.65
556.64279	1291.85
560.6802	1286.55
564.71473	1293.45
568.7464	1296.15
572.7752	1294.65
576.80114	1297.95
580.82422	1305.75
584.84444	1310.55
588.86181	1308.35
592.87633	1315.65
596.888	1325.75
600.89682	1342.55
604.9028	1354.65
608.90594	1403.65
612.90624	1463.45
616.90371	1476.15
620.89834	1423.35
624.89015	1438.95
628.87913	1466.75
632.86528	1505.55
636.84862	1529.75
640.82913	1514.05
644.80683	1467.15
648.78172	1420.25
652.75379	1384.45
656.72306	1370.95
660.68952	1361.65
664.65319	1358.95
668.61405	1339.95
672.57211	1350.15
676.52738	1355.75
680.47986	1356.65
684.42955	1363.45
688.37646	1377.45
692.32058	1371.75
696.26192	1366.95
700.20048	1353.95
704.13626	1343.45
708.06928	1347.95
711.99952	1346.45
715.927	1339.45
719.85171	1348.15
723.77365	1339.95
727.69284	1351.65
731.60928	1342.75
735.52295	1329.65
739.43388	1333.35
743.34206	1327.85
747.24749	1325.45
751.15017	1322.25
755.05012	1314.25
758.94733	1328.25
762.8418	1339.75
766.73354	1361.25
770.62254	1384.25
774.50882	1413.25
778.39237	1386.15
782.27321	1372.75
786.15132	1352.05
790.02671	1335.65
793.89938	1334.35
797.76935	1331.85
801.6366	1340.05
805.50115	1372.75
809.36299	1393.35
813.22213	1401.25
817.07857	1387.75
820.93231	1364.75
824.78336	1336.95
828.63172	1323.65
832.47738	1305.15
836.32036	1309.45
840.16066	1303.25
843.99827	1308.65
847.8332	1309.55
851.66546	1300.25
855.49504	1296.85
859.32195	1295.95
863.1462	1289.35
866.96777	1291.45
870.78668	1309.15
874.60293	1322.65
878.41652	1332.45
882.22745	1354.65
886.03573	1364.05
889.84136	1363.65
893.64433	1359.55
897.44466	1327.15
901.24235	1311.35
905.0374	1285.55
908.8298	1280.05
912.61957	1269.15
916.40671	1270.85
920.19121	1265.15
923.97308	1267.65
927.75233	1272.95
931.52895	1265.45
935.30295	1255.45
939.07433	1260.75
942.84309	1244.25
946.60924	1244.65
950.37278	1238.45
954.13371	1235.55
957.89203	1211.45
961.64774	1212.95
965.40086	1201.75
969.15137	1201.35
972.89929	1190.75
976.64461	1194.55
980.38733	1179.05
984.12747	1184.75
987.86502	1177.45
991.59999	1180.45
995.33237	1189.05
999.06217	1193.35
1002.78939	1206.55
1006.51404	1216.15
1010.23611	1228.95
1013.95561	1242.45
1017.67255	1239.05
1021.38692	1240.45
1025.09872	1238.85
1028.80796	1223.05
1032.51465	1209.85
1036.21877	1194.45
1039.92035	1189.65
1043.61937	1183.45
1047.31584	1178.05
1051.00976	1183.95
1054.70114	1177.45
1058.38998	1183.95
1062.07627	1178.15
1065.76003	1183.25
1069.44126	1195.85
1073.11995	1210.55
1076.79611	1212.05
1080.46974	1206.65
1084.14085	1198.45
1087.80943	1195.75
1091.47549	1182.05
1095.13903	1161.95
1098.80005	1152.95
1102.45857	1152.25
1106.11456	1151.45
1109.76805	1145.75
1113.41903	1152.95
1117.06751	1162.55
1120.71348	1192.15
1124.35696	1217.65
1127.99793	1276.25
1131.63641	1321.15
1135.2724	1346.75
1138.90589	1338.45
1142.5369	1312.55
1146.16542	1266.75
1149.79145	1213.15
1153.415	1174.65
1157.03607	1151.15
1160.65467	1128.45
1164.27079	1131.25
1167.88443	1119.05
1171.49561	1135.15
1175.10432	1150.25
1178.71056	1169.75
1182.31434	1190.65
1185.91565	1204.45
1189.51451	1205.75
1193.11091	1204.65
1196.70485	1219.95
1200.29634	1227.95
1203.88538	1240.05
1207.47197	1228.85
1211.05612	1207.75
1214.63782	1179.85
1218.21708	1148.85
1221.79391	1130.95
1225.36829	1116.25
1228.94024	1109.15
1232.50976	1094.55
1236.07685	1098.95
1239.6415	1100.45
1243.20374	1107.95
1246.76355	1104.85
1250.32093	1110.05
1253.8759	1111.45
1257.42845	1124.85
1260.97859	1120.45
1264.52631	1120.95
1268.07163	1121.95
1271.61453	1123.05
1275.15503	1122.95
1278.69312	1114.35
1282.22882	1110.55
1285.76211	1106.75
1289.29301	1109.35
1292.82151	1119.55
1296.34761	1120.45
1299.87133	1134.55
1303.39266	1157.05
1306.9116	1186.35
1310.42815	1209.95
1313.94233	1229.35
1317.45412	1220.75
1320.96354	1204.15
1324.47058	1179.05
1327.97525	1172.55
1331.47754	1163.55
1334.97747	1160.45
1338.47502	1179.75
1341.97022	1184.55
1345.46305	1207.85
1348.95352	1241.75
1352.44163	1284.85
1355.92738	1321.75
1359.41078	1366.65
1362.89183	1411.85
1366.37053	1414.15
1369.84688	1350.65
1373.32088	1287.45
1376.79254	1244.05
1380.26186	1213.55
1383.72883	1189.55
1387.19347	1163.25
1390.65578	1144.05
1394.11575	1128.15
1397.57339	1104.95
1401.0287	1090.85
1404.48168	1078.55
1407.93234	1063.65
1411.38068	1038.95
1414.82669	1036.05
1418.27039	1019.05
1421.71177	1006.65
1425.15083	992.85
1428.58758	989.15
1432.02203	977.55
1435.45416	971.65
1438.88399	967.95
1442.31151	964.05
1445.73673	965.75
1449.15965	962.75
1452.58027	967.15
1455.9986	960.05
1459.41463	955.85
1462.82837	955.75
1466.23982	962.75
1469.64898	971.45
1473.05586	960.35
1476.46045	958.15
1479.86276	955.75
1483.26279	950.85
1486.66054	965.75
1490.05602	965.85
1493.44922	975.15
1496.84016	992.45
1500.22882	1012.85
1503.61521	1050.95
1506.99934	1096.25
1510.38121	1133.95
1513.76081	1133.75
1517.13816	1113.45
1520.51324	1071.15
1523.88607	1032.65
1527.25665	988.25
1530.62498	981.15
1533.99105	983.45
1537.35488	980.25
1540.71647	977.95
1544.07581	986.65
1547.4329	992.45
1550.78776	996.65
1554.14038	1009.15
1557.49077	1010.45
1560.83892	1012.85
1564.18484	1021.95
1567.52853	1036.95
1570.86999	1037.75
1574.20922	1047.35
1577.54624	1048.95
1580.88103	1045.35
1584.2136	1032.15
1587.54395	1010.65
1590.87208	992.15
1594.19801	984.75
1597.52172	980.75
1600.84321	986.55
1604.16251	984.55
1607.47959	978.05
1610.79447	981.55
1614.10715	972.85
1617.41763	960.45
1620.7259	967.35
1624.03199	969.95
1627.33587	969.05
1630.63757	963.55
1633.93707	955.45
1637.23439	970.35
1640.52951	973.65
1643.82246	998.65
1647.11321	1012.25
1650.40179	1034.85
1653.68819	1034.95
1656.97241	1011.65
1660.25446	970.45
1663.53433	940.55
1666.81203	914.65
1670.08756	899.95
1673.36092	890.95
1676.63211	867.15
1679.90115	861.85
1683.16801	854.65
1686.43272	847.25
1689.69527	851.25
1692.95567	850.95
1696.2139	854.65
1699.46999	856.65
1702.72392	843.55
1705.97571	818.75
1709.22535	787.95
1712.47284	767.05
1715.71819	751.55
1718.96139	737.55
1722.20246	729.65
1725.44139	719.05
1728.67818	706.25
1731.91284	698.85
1735.14537	693.85
1738.37576	692.25
1741.60403	689.05
1744.83017	676.85
1748.05418	680.05
1751.27607	673.25
1754.49584	689.05
1757.71349	681.35
1760.92903	681.95
1764.14244	678.55
1767.35375	676.95
1770.56294	667.85
1773.77002	671.95
1776.97499	661.85
1780.17785	651.45
1783.37861	644.95
1786.57727	636.75
1789.77382	634.65
1792.96828	629.95
1796.16064	623.05
1799.3509	626.15
1802.53907	623.65
1805.72514	614.45
1808.90913	621.35
1812.09102	620.65
1815.27083	608.55
1818.44856	608.25
1821.6242	606.45
1824.79776	594.45
1827.96924	601.05
1831.13864	594.65
1834.30597	596.85
1837.47122	593.95
1840.6344	596.75
1843.7955	587.95
1846.95454	584.15
1850.11151	583.85
1853.26642	578.45
1856.41926	583.05
1859.57004	584.85
1862.71876	585.25
1865.86542	576.05
1869.01003	577.95
1872.15258	571.75
1875.29308	572.35
1878.43152	571.85
1881.56792	563.15
1884.70227	560.45
1887.83457	561.15
1890.96482	557.65
1894.09304	555.65
1897.21921	557.35
1900.34335	549.45
1903.46544	547.05
1906.58551	552.45
1909.70353	546.95
1912.81953	549.15
1915.93349	543.95
1919.04543	548.45
1922.15534	542.65
1925.26322	540.55
1928.36908	542.05
1931.47292	536.85
1934.57473	539.45
1937.67453	535.45
1940.77232	532.95
1943.86808	532.55
1946.96184	529.55
1950.05358	525.85
1953.14331	525.35
1956.23103	516.35
1959.31675	513.35
1962.40046	514.25
1965.48217	512.55
1968.56188	508.05
1971.63959	513.45
1974.7153	510.95
1977.78901	502.95
1980.86073	501.35
1983.93046	494.55
1986.99819	495.65
1990.06394	492.35
1993.1277	492.55
1996.18947	490.85
1999.24925	495.15
2002.30706	491.05
2005.36288	485.25
2008.41672	481.05
2011.46859	479.15
2014.51848	473.15
2017.56639	472.05
2020.61233	477.15
2023.6563	469.65
2026.6983	471.25
2029.73833	467.95
2032.7764	464.95
2035.8125	459.75
2038.84664	464.55
2041.87881	459.45
2044.90903	456.05
2047.93729	461.55
2050.96359	461.35
2053.98794	455.45
2057.01034	459.95
2060.03078	451.75
2063.04927	452.25
2066.06582	454.25
2069.08042	452.25
2072.09307	450.75
2075.10378	443.25
2078.11255	446.15
2081.11938	448.65
2084.12426	450.45
2087.12722	443.85
2090.12824	441.55
2093.12732	443.05
2096.12447	445.75
2099.11969	445.65
2102.11299	448.85
2105.10435	442.35
2108.09379	442.95
2111.08131	442.05
2114.0669	442.85
2117.05057	434.75
2120.03233	440.35
2123.01216	436.75
2125.99008	440.85
2128.96609	439.85
2131.94018	434.35
2134.91236	435.15
2137.88263	433.95
2140.851	432.95
2143.81746	436.35
2146.78201	428.35
2149.74466	434.25
2152.7054	430.15
2155.66425	425.95
2158.6212	432.85
2161.57625	430.25
2164.52941	426.95
2167.48067	430.65
2170.43004	427.95
2173.37752	427.45
2176.32311	424.85
2179.26681	425.55
2182.20863	429.35
2185.14856	419.25
2188.08661	421.65
2191.02278	419.85
2193.95707	416.05
2196.88948	417.35
2199.82001	415.25
2202.74867	412.15
2205.67545	411.95
2208.60037	414.95
2211.52341	413.15
2214.44458	409.45
2217.36388	405.85
2220.28132	405.05
2223.1969	403.85
2226.11061	404.15
2229.02246	396.15
2231.93245	402.75
2234.84058	396.15
2237.74686	397.45
2240.65128	399.45
2243.55385	395.05
2246.45456	394.45
2249.35343	390.75
2252.25044	393.75
2255.14561	389.65
2258.03893	391.65
2260.93041	396.45
2263.82004	387.45
2266.70783	385.45
2269.59378	391.55
2272.4779	382.15
2275.36017	381.05
2278.24061	376.85
2281.11922	377.85
2283.996	380.65
2286.87094	372.45
2289.74405	377.25
2292.61534	371.15
2295.4848	372.25
2298.35243	371.75
2301.21824	366.25
2304.08223	362.05
2306.94439	370.35
2309.80474	365.65
2312.66327	364.15
2315.51999	362.55
2318.37489	362.55
2321.22797	362.05
2324.07925	360.85
2326.92871	359.75
2329.77637	360.05
2332.62222	361.95
2335.46626	353.25
2338.3085	355.05
2341.14893	352.55
2343.98756	349.05
2346.8244	351.25
2349.65943	343.75
2352.49267	351.05
2355.32411	350.95
2358.15376	351.75
2360.98161	347.25
2363.80768	339.95
2366.63195	345.45
2369.45444	340.85
2372.27514	342.15
2375.09405	340.85
2377.91118	345.75
2380.72652	336.65
2383.54009	338.15
2386.35187	342.85
2389.16188	335.85
2391.97011	338.35
2394.77657	336.75
2397.58125	335.55
2400.38416	332.95
2403.18529	332.75
2405.98466	325.55
2408.78226	327.75
2411.57809	323.35
2414.37216	325.15
2417.16446	325.35
2419.955	328.15
2422.74378	324.55
2425.5308	320.05
2428.31606	324.25
2431.09956	323.45
2433.88131	320.05
2436.6613	315.25
2439.43954	314.85
2442.21603	314.95
2444.99077	322.45
2447.76377	316.15
2450.53501	312.45
2453.30451	315.85
2456.07226	310.25
2458.83827	313.55
2461.60254	310.65
2464.36507	308.05
2467.12586	306.95
2469.88492	307.15
2472.64224	309.35
2475.39782	307.25
2478.15167	308.15
2480.90379	304.55
2483.65417	301.45
2486.40283	299.75
2489.14976	304.75
2491.89497	297.65
2494.63845	303.65
2497.3802	306.05
2500.12024	305.35
2502.85855	301.05
2505.59514	304.55
2508.33002	300.55
2511.06318	297.75
2513.79462	301.25
2516.52435	296.45
2519.25237	292.25
2521.97867	291.65
2524.70327	296.75
2527.42616	288.65
2530.14734	289.65
2532.86681	289.15
2535.58458	287.55
2538.30065	292.05
2541.01501	286.65
2543.72768	286.85
2546.43864	285.35
2549.14791	279.35
2551.85548	286.05
2554.56136	283.15
2557.26554	287.05
2559.96803	281.75
2562.66883	282.15
2565.36794	281.35
2568.06536	276.75
2570.7611	275.95
2573.45514	270.95
2576.14751	273.85
2578.83819	271.85
2581.52719	277.75
2584.21451	269.55
2586.90015	276.95
2589.58411	269.95
2592.2664	269.75
2594.94701	271.05
2597.62594	270.95
2600.30321	267.45
2602.9788	264.55
2605.65273	265.45
2608.32498	265.85
2610.99557	263.55
2613.66449	263.35
2616.33175	263.85
2618.99734	263.15
2621.66128	262.55
2624.32355	263.55
2626.98416	265.25
2629.64311	258.85
2632.30041	257.55
2634.95605	261.35
2637.61004	257.15
2640.26238	257.35
2642.91306	247.65
2645.56209	247.05
2648.20948	249.05
2650.85521	250.65
2653.4993	243.45
2656.14175	245.25
2658.78255	247.25
2661.42171	245.85
2664.05923	247.85
2666.6951	246.55
2669.32934	248.75
2671.96194	249.25
2674.59291	250.15
2677.22224	254.05
2679.84993	246.95
2682.476	246.65
2685.10043	249.55
2687.72324	243.85
2690.34441	249.35
2692.96396	249.45
2695.58188	244.35
2698.19818	240.85
2700.81285	250.15
2703.4259	251.45
2706.03733	260.65
2708.64714	257.35
2711.25533	250.65
2713.86191	246.15
2716.46687	248.05
2719.07021	246.25
2721.67194	245.95
2724.27206	241.75
2726.87057	245.65
2729.46747	248.15
2732.06276	242.15
2734.65644	248.55
2737.24852	250.05
2739.83899	244.85
2742.42786	249.55
2745.01513	243.55
2747.60079	243.45
2750.18486	246.85
2752.76733	249.05
2755.3482	244.55
2757.92747	246.95
2760.50515	248.15
2763.08123	242.85
2765.65573	244.85
2768.22863	241.45
2770.79994	247.05
2773.36967	240.25
2775.9378	245.15
2778.50435	240.75
2781.06932	239.55
2783.6327	241.85
2786.1945	243.85
2788.75471	241.55
2791.31335	239.35
2793.87041	237.55
2796.42589	241.95
2798.97979	235.15
2801.53212	236.25
2804.08288	238.75
2806.63206	235.65
2809.17967	237.85
2811.72571	238.95
2814.27018	236.15
2816.81308	236.35
2819.35442	231.25
2821.89419	232.25
2824.43239	235.15
2826.96904	236.45
2829.50412	235.05
2832.03763	230.55
2834.56959	236.55
2837.1	232.85
2839.62884	236.05
2842.15613	232.75
2844.68186	234.65
2847.20604	231.65
2849.72867	232.85
2852.24974	235.75
2854.76927	232.55
2857.28724	237.25
2859.80367	237.85
2862.31855	238.95
2864.83189	236.45
2867.34368	232.25
2869.85393	238.65
2872.36264	236.85
2874.8698	236.85
2877.37543	236.15
2879.87952	235.15
2882.38207	234.25
2884.88308	236.25
2887.38256	236.05
2889.88051	236.65
2892.37692	236.95
2894.8718	239.35
2897.36515	238.85
2899.85698	238.85
2902.34727	239.55
2904.83604	242.25
2907.32328	250.75
2909.809	250.05
2912.29319	243.05
2914.77587	250.15
2917.25702	247.65
2919.73665	243.55
2922.21476	248.75
2924.69136	250.35
2927.16644	250.25
2929.64	246.25
2932.11205	250.45
2934.58258	251.45
2937.05161	248.75
2939.51912	254.25
2941.98513	254.35
2944.44962	254.95
2946.91261	254.85
2949.37409	253.55
2951.83407	250.75
2954.29254	252.25
2956.74951	248.75
2959.20498	249.15
2961.65895	255.65
2964.11142	250.55
2966.56239	254.75
2969.01186	253.35
2971.45984	255.55
2973.90632	257.25
2976.35131	259.35
2978.7948	258.35
2981.23681	260.25
2983.67732	260.15
2986.11635	260.05
2988.55388	260.25
2990.98993	259.15
2993.4245	256.95
2995.85758	257.55
2998.28917	263.45
3000.71928	263.45
3003.14791	261.95
3005.57506	264.45
3008.00073	269.45
3010.42493	272.65
3012.84764	274.55
3015.26888	276.75
3017.68865	273.85
3020.10694	308.05
3022.52376	290.55
3024.9391	278.95
3027.35298	284.25
3029.76539	287.55
3032.17632	287.55
3034.5858	286.45
3036.9938	289.45
3039.40034	296.85
3041.80542	290.35
3044.20903	296.65
3046.61118	305.25
3049.01187	302.35
3051.4111	298.65
3053.80888	306.35
3056.20519	311.95
3058.60005	310.75
3060.99345	314.85
3063.3854	314.05
3065.7759	322.65
3068.16494	321.55
3070.55254	330.45
3072.93868	334.05
3075.32338	329.65
3077.70662	332.15
3080.08842	342.65
3082.46878	347.75
3084.84769	347.55
3087.22515	355.45
3089.60118	358.75
3091.97576	358.65
3094.3489	371.15
3096.72061	367.45
3099.09087	377.75
3101.4597	386.95
3103.82709	386.65
3106.19305	393.65
3108.55757	396.55
3110.92066	397.65
3113.28232	408.55
3115.64255	411.65
3118.00134	416.25
3120.35871	420.05
3122.71466	422.45
3125.06917	432.35
3127.42226	435.95
3129.77393	442.35
3132.12417	448.55
3134.47299	453.85
3136.82039	456.65
3139.16636	469.25
3141.51092	473.95
3143.85406	482.85
3146.19579	480.85
3148.53609	488.05
3150.87499	503.35
3153.21246	505.25
3155.54853	511.15
3157.88318	518.85
3160.21642	530.75
3162.54826	533.35
3164.87868	536.65
3167.2077	545.45
3169.5353	549.55
3171.86151	561.05
3174.18631	565.65
3176.5097	572.85
3178.83169	572.95
3181.15228	588.05
3183.47147	589.05
3185.78926	590.75
3188.10565	602.95
3190.42065	608.15
3192.73424	610.15
3195.04645	618.55
3197.35725	613.75
3199.66667	624.05
3201.97469	639.75
3204.28132	644.05
3206.58656	640.25
3208.8904	645.75
3211.19287	647.35
3213.49394	651.55
3215.79363	655.55
3218.09193	659.55
3220.38884	666.15
3222.68438	669.15
3224.97853	675.25
3227.2713	674.15
3229.56269	680.35
3231.8527	685.35
3234.14133	683.35
3236.42858	683.85
3238.71446	676.85
3240.99896	681.65
3243.28209	685.05
3245.56384	684.45
3247.84423	685.55
3250.12324	678.25
3252.40088	688.45
3254.67715	692.85
3256.95205	687.95
3259.22558	693.55
3261.49775	694.75
3263.76855	697.85
3266.03799	696.85
3268.30606	683.35
3270.57277	693.05
3272.83812	696.15
3275.10211	695.35
3277.36474	694.05
3279.62601	691.25
3281.88593	690.55
3284.14448	695.05
3286.40168	689.95
3288.65753	691.45
3290.91202	691.05
3293.16516	691.75
3295.41695	688.95
3297.66738	690.35
3299.91647	690.75
3302.16421	682.75
3304.4106	681.85
3306.65564	680.55
3308.89933	671.55
3311.14169	673.85
3313.38269	664.05
3315.62236	666.35
3317.86068	667.45
3320.09766	657.45
3322.3333	657.95
3324.5676	649.65
3326.80056	654.15
3329.03219	650.55
3331.26248	-1.25
3333.49143	1.25
3335.71905	0.45
