Data from AgNPs_APTES_FTO_UA_100uM_CRN_0uM_R6G_10uM_Scan_RamanShift__32__12-41-23-544.txt Node

Date: Thu Jun 23 12:41:23 BST 2022
User: TCL
Spectrometer: QEP01345
Trigger mode: 4
Integration Time (sec): 7.000000E0
Scans to average: 10
Electric dark correction enabled: true
Nonlinearity correction enabled: false
Boxcar width: 0
XAxis mode: Raman Shifts
Number of Pixels in Spectrum: 1044
>>>>>Begin Spectral Data<<<<<
46.04893	-1.6875
50.45542	-1.7875
54.85868	-1.5875
59.25871	-1.0875
63.6555	64.3125
68.04907	67.7125
72.43941	72.7125
76.82654	79.1125
81.21044	80.9125
85.59113	87.4125
89.96862	90.5125
94.34289	91.5125
98.71396	93.5125
103.08183	98.3125
107.4465	96.6125
111.80798	93.6125
116.16626	100.8125
120.52136	100.4125
124.87327	94.5125
129.222	96.8125
133.56755	98.0125
137.90993	100.5125
142.24913	95.7125
146.58517	98.7125
150.91804	101.2125
155.24774	109.0125
159.57429	119.2125
163.89768	129.5125
168.21792	149.9125
172.53501	181.2125
176.84895	225.7125
181.15975	303.9125
185.46741	406.9125
189.77193	533.3125
194.07331	701.7125
198.37157	894.1125
202.6667	1093.9125
206.9587	1281.8125
211.24758	1469.3125
215.53334	1638.5125
219.81599	1830.8125
224.09553	2022.7125
228.37195	2250.5125
232.64527	2480.8125
236.91549	2739.7125
241.18261	3013.9125
245.44663	3313.2125
249.70755	3598.0125
253.96539	3844.5125
258.22014	4063.4125
262.4718	4226.9125
266.72039	4332.0125
270.96589	4399.5125
275.20832	4418.8125
279.44768	4381.2125
283.68397	4357.1125
287.91719	4309.5125
292.14735	4266.3125
296.37445	4222.4125
300.59849	4178.1125
304.81948	4187.8125
309.03742	4180.7125
313.25231	4186.7125
317.46415	4204.8125
321.67296	4218.8125
325.87872	4260.3125
330.08145	4294.1125
334.28114	4333.9125
338.47781	4402.9125
342.67145	4457.5125
346.86207	4537.6125
351.04966	4603.5125
355.23424	4669.2125
359.4158	4755.5125
363.59435	4825.5125
367.76989	4888.6125
371.94243	4960.9125
376.11196	5039.2125
380.27849	5111.1125
384.44203	5174.4125
388.60257	5223.8125
392.76012	5306.0125
396.91468	5369.5125
401.06626	5429.5125
405.21485	5497.9125
409.36047	5563.0125
413.50311	5627.7125
417.64277	5705.8125
421.77947	5746.1125
425.9132	5838.7125
430.04396	5904.7125
434.17176	5974.8125
438.2966	6037.6125
442.41849	6083.3125
446.53742	6159.4125
450.6534	6220.7125
454.76644	6269.6125
458.87653	6312.4125
462.98368	6344.3125
467.08789	6395.6125
471.18916	6423.8125
475.2875	6480.0125
479.38291	6527.8125
483.4754	6566.0125
487.56496	6602.6125
491.6516	6656.5125
495.73531	6693.9125
499.81612	6718.1125
503.89401	6766.9125
507.96899	6795.9125
512.04106	6832.9125
516.11023	6848.8125
520.1765	6913.2125
524.23987	6945.0125
528.30034	7000.6125
532.35792	7104.8125
536.41261	7145.8125
540.46441	7221.8125
544.51333	7306.7125
548.55936	7379.2125
552.60252	7458.2125
556.64279	7510.9125
560.6802	7536.9125
564.71473	7583.5125
568.7464	7619.4125
572.7752	7649.8125
576.80114	7663.9125
580.82422	7689.4125
584.84444	7701.9125
588.86181	7750.8125
592.87633	7790.8125
596.888	7831.7125
600.89682	7871.2125
604.9028	7920.7125
608.90594	7963.7125
612.90624	8048.1125
616.90371	8073.0125
620.89834	8048.5125
624.89015	8043.7125
628.87913	8073.5125
632.86528	8144.4125
636.84862	8151.5125
640.82913	8187.0125
644.80683	8225.8125
648.78172	8242.5125
652.75379	8296.9125
656.72306	8299.6125
660.68952	8344.2125
664.65319	8380.1125
668.61405	8394.9125
672.57211	8462.6125
676.52738	8488.7125
680.47986	8537.7125
684.42955	8601.8125
688.37646	8623.8125
692.32058	8659.2125
696.26192	8743.4125
700.20048	8764.0125
704.13626	8841.3125
708.06928	8871.7125
711.99952	8912.3125
715.927	8951.8125
719.85171	8979.8125
723.77365	9028.4125
727.69284	9049.1125
731.60928	9067.8125
735.52295	9108.2125
739.43388	9164.2125
743.34206	9208.0125
747.24749	9264.8125
751.15017	9303.5125
755.05012	9371.5125
758.94733	9402.7125
762.8418	9476.5125
766.73354	9511.3125
770.62254	9611.1125
774.50882	9649.6125
778.39237	9691.2125
782.27321	9717.9125
786.15132	9742.8125
790.02671	9767.7125
793.89938	9769.8125
797.76935	9841.4125
801.6366	9863.1125
805.50115	9901.0125
809.36299	9958.4125
813.22213	9989.9125
817.07857	10020.7125
820.93231	10109.3125
824.78336	10118.9125
828.63172	10167.3125
832.47738	10214.1125
836.32036	10230.0125
840.16066	10278.7125
843.99827	10321.5125
847.8332	10398.2125
851.66546	10439.6125
855.49504	10490.8125
859.32195	10528.0125
863.1462	10608.3125
866.96777	10682.8125
870.78668	10715.7125
874.60293	10794.8125
878.41652	10835.5125
882.22745	10924.0125
886.03573	10960.6125
889.84136	11003.6125
893.64433	11042.4125
897.44466	11083.4125
901.24235	11092.7125
905.0374	11128.9125
908.8298	11175.6125
912.61957	11199.9125
916.40671	11285.2125
920.19121	11299.4125
923.97308	11345.4125
927.75233	11400.9125
931.52895	11439.0125
935.30295	11480.9125
939.07433	11524.7125
942.84309	11567.5125
946.60924	11599.8125
950.37278	11643.0125
954.13371	11695.2125
957.89203	11686.9125
961.64774	11727.4125
965.40086	11731.2125
969.15137	11781.4125
972.89929	11803.5125
976.64461	11865.3125
980.38733	11918.1125
984.12747	11938.8125
987.86502	11998.8125
991.59999	12055.0125
995.33237	12093.9125
999.06217	12172.6125
1002.78939	12216.8125
1006.51404	12282.1125
1010.23611	12351.0125
1013.95561	12410.4125
1017.67255	12450.0125
1021.38692	12526.2125
1025.09872	12603.4125
1028.80796	12647.2125
1032.51465	12717.0125
1036.21877	12776.3125
1039.92035	12888.6125
1043.61937	12966.6125
1047.31584	13066.1125
1051.00976	13122.5125
1054.70114	13182.0125
1058.38998	13271.5125
1062.07627	13384.1125
1065.76003	13484.6125
1069.44126	13579.8125
1073.11995	13683.4125
1076.79611	13750.5125
1080.46974	13830.9125
1084.14085	13875.0125
1087.80943	13959.4125
1091.47549	14034.4125
1095.13903	14081.1125
1098.80005	14108.8125
1102.45857	14168.0125
1106.11456	14225.9125
1109.76805	14262.6125
1113.41903	14290.2125
1117.06751	14303.3125
1120.71348	14354.5125
1124.35696	14429.5125
1127.99793	14445.2125
1131.63641	14472.0125
1135.2724	14477.7125
1138.90589	14514.9125
1142.5369	14537.6125
1146.16542	14530.5125
1149.79145	14556.2125
1153.415	14566.7125
1157.03607	14606.5125
1160.65467	14659.5125
1164.27079	14695.5125
1167.88443	14762.7125
1171.49561	14795.7125
1175.10432	14893.4125
1178.71056	14992.2125
1182.31434	15076.9125
1185.91565	15119.4125
1189.51451	15184.1125
1193.11091	15221.9125
1196.70485	15274.9125
1200.29634	15329.7125
1203.88538	15323.3125
1207.47197	15414.8125
1211.05612	15442.8125
1214.63782	15506.3125
1218.21708	15490.0125
1221.79391	15516.1125
1225.36829	15572.2125
1228.94024	15638.0125
1232.50976	15701.3125
1236.07685	15785.8125
1239.6415	15837.0125
1243.20374	15906.4125
1246.76355	16006.8125
1250.32093	16087.6125
1253.8759	16128.3125
1257.42845	16185.6125
1260.97859	16200.1125
1264.52631	16238.8125
1268.07163	16281.6125
1271.61453	16290.1125
1275.15503	16287.8125
1278.69312	16336.3125
1282.22882	16330.3125
1285.76211	16381.0125
1289.29301	16428.1125
1292.82151	16494.2125
1296.34761	16513.2125
1299.87133	16600.0125
1303.39266	16658.0125
1306.9116	16704.2125
1310.42815	16795.9125
1313.94233	16848.9125
1317.45412	16831.1125
1320.96354	16829.6125
1324.47058	16848.9125
1327.97525	16794.7125
1331.47754	16770.1125
1334.97747	16767.8125
1338.47502	16750.4125
1341.97022	16765.2125
1345.46305	16767.9125
1348.95352	16822.7125
1352.44163	16888.8125
1355.92738	16926.8125
1359.41078	16990.1125
1362.89183	17017.5125
1366.37053	17012.3125
1369.84688	16992.7125
1373.32088	16921.6125
1376.79254	16884.4125
1380.26186	16868.3125
1383.72883	16869.0125
1387.19347	16854.9125
1390.65578	16789.8125
1394.11575	16769.0125
1397.57339	16720.7125
1401.0287	16739.9125
1404.48168	16751.6125
1407.93234	16752.3125
1411.38068	16746.7125
1414.82669	16797.0125
1418.27039	16798.5125
1421.71177	16818.0125
1425.15083	16826.0125
1428.58758	16877.0125
1432.02203	16847.7125
1435.45416	16865.8125
1438.88399	16902.1125
1442.31151	16914.4125
1445.73673	16892.5125
1449.15965	16949.2125
1452.58027	16955.9125
1455.9986	16976.9125
1459.41463	17006.6125
1462.82837	17079.3125
1466.23982	17108.9125
1469.64898	17182.5125
1473.05586	17224.3125
1476.46045	17305.1125
1479.86276	17389.0125
1483.26279	17470.3125
1486.66054	17519.1125
1490.05602	17629.4125
1493.44922	17682.1125
1496.84016	17745.0125
1500.22882	17834.8125
1503.61521	17905.0125
1506.99934	18015.1125
1510.38121	18103.3125
1513.76081	18199.2125
1517.13816	18207.5125
1520.51324	18284.2125
1523.88607	18367.3125
1527.25665	18372.4125
1530.62498	18437.4125
1533.99105	18535.3125
1537.35488	18611.0125
1540.71647	18735.5125
1544.07581	18854.8125
1547.4329	18898.2125
1550.78776	18972.3125
1554.14038	19054.5125
1557.49077	19101.2125
1560.83892	19150.1125
1564.18484	19208.3125
1567.52853	19245.3125
1570.86999	19308.4125
1574.20922	19338.6125
1577.54624	19362.6125
1580.88103	19429.9125
1584.2136	19522.5125
1587.54395	19533.3125
1590.87208	19610.3125
1594.19801	19655.1125
1597.52172	19732.7125
1600.84321	19748.9125
1604.16251	19802.9125
1607.47959	19864.5125
1610.79447	19909.3125
1614.10715	19923.9125
1617.41763	19936.5125
1620.7259	19967.0125
1624.03199	19964.6125
1627.33587	20020.0125
1630.63757	20001.5125
1633.93707	20052.6125
1637.23439	20076.4125
1640.52951	20106.3125
1643.82246	20206.6125
1647.11321	20246.8125
1650.40179	20294.7125
1653.68819	20358.1125
1656.97241	20381.7125
1660.25446	20434.2125
1663.53433	20436.3125
1666.81203	20432.4125
1670.08756	20409.9125
1673.36092	20400.8125
1676.63211	20429.9125
1679.90115	20424.3125
1683.16801	20469.0125
1686.43272	20446.5125
1689.69527	20488.5125
1692.95567	20517.2125
1696.2139	20611.2125
1699.46999	20697.3125
1702.72392	20765.3125
1705.97571	20758.8125
1709.22535	20737.3125
1712.47284	20776.1125
1715.71819	20881.5125
1718.96139	20907.4125
1722.20246	20901.3125
1725.44139	20915.4125
1728.67818	20969.8125
1731.91284	20958.8125
1735.14537	20976.2125
1738.37576	21018.1125
1741.60403	21032.1125
1744.83017	21022.7125
1748.05418	21061.3125
1751.27607	21112.8125
1754.49584	21176.7125
1757.71349	21239.4125
1760.92903	21328.9125
1764.14244	21344.4125
1767.35375	21394.9125
1770.56294	21484.6125
1773.77002	21467.4125
1776.97499	21502.2125
1780.17785	21511.1125
1783.37861	21528.2125
1786.57727	21556.5125
1789.77382	21550.6125
1792.96828	21570.6125
1796.16064	21579.1125
1799.3509	21631.3125
1802.53907	21694.4125
1805.72514	21703.7125
1808.90913	21691.9125
1812.09102	21672.3125
1815.27083	21686.2125
1818.44856	21764.1125
1821.6242	21796.3125
1824.79776	21823.1125
1827.96924	21806.9125
1831.13864	21853.2125
1834.30597	21868.8125
1837.47122	21883.0125
1840.6344	21911.7125
1843.7955	21945.4125
1846.95454	22001.8125
1850.11151	22057.7125
1853.26642	22110.2125
1856.41926	22171.3125
1859.57004	22239.4125
1862.71876	22229.8125
1865.86542	22215.9125
1869.01003	22258.0125
1872.15258	22310.7125
1875.29308	22395.2125
1878.43152	22377.8125
1881.56792	22388.0125
1884.70227	22405.0125
1887.83457	22361.0125
1890.96482	22413.0125
1894.09304	22400.8125
1897.21921	22433.7125
1900.34335	22453.9125
1903.46544	22523.4125
1906.58551	22534.1125
1909.70353	22559.9125
1912.81953	22623.6125
1915.93349	22629.4125
1919.04543	22661.0125
1922.15534	22723.9125
1925.26322	22697.4125
1928.36908	22769.4125
1931.47292	22737.7125
1934.57473	22736.9125
1937.67453	22700.2125
1940.77232	22762.9125
1943.86808	22746.4125
1946.96184	22787.0125
1950.05358	22796.6125
1953.14331	22783.6125
1956.23103	22727.0125
1959.31675	22704.2125
1962.40046	22702.8125
1965.48217	22695.8125
1968.56188	22674.0125
1971.63959	22671.7125
1974.7153	22682.5125
1977.78901	22687.9125
1980.86073	22702.8125
1983.93046	22694.7125
1986.99819	22650.9125
1990.06394	22618.2125
1993.1277	22609.2125
1996.18947	22598.6125
1999.24925	22657.4125
2002.30706	22616.0125
2005.36288	22586.3125
2008.41672	22590.5125
2011.46859	22615.1125
2014.51848	22638.7125
2017.56639	22626.7125
2020.61233	22594.5125
2023.6563	22523.6125
2026.6983	22515.9125
2029.73833	22442.4125
2032.7764	22494.7125
2035.8125	22511.2125
2038.84664	22526.5125
2041.87881	22468.1125
2044.90903	22485.7125
2047.93729	22544.2125
2050.96359	22556.1125
2053.98794	22599.1125
2057.01034	22611.5125
2060.03078	22616.4125
2063.04927	22673.8125
2066.06582	22717.2125
2069.08042	22794.6125
2072.09307	22831.3125
2075.10378	22883.3125
2078.11255	22859.1125
2081.11938	22910.3125
2084.12426	22947.7125
2087.12722	22982.5125
2090.12824	22993.8125
2093.12732	23062.0125
2096.12447	23136.2125
2099.11969	23193.1125
2102.11299	23220.4125
2105.10435	23264.9125
2108.09379	23325.0125
2111.08131	23421.1125
2114.0669	23478.8125
2117.05057	23565.8125
2120.03233	23615.5125
2123.01216	23650.2125
2125.99008	23758.3125
2128.96609	23844.6125
2131.94018	23905.1125
2134.91236	23981.7125
2137.88263	24037.0125
2140.851	24124.0125
2143.81746	24137.4125
2146.78201	24170.6125
2149.74466	24242.4125
2152.7054	24312.8125
2155.66425	24380.5125
2158.6212	24424.9125
2161.57625	24437.0125
2164.52941	24453.7125
2167.48067	24515.0125
2170.43004	24575.9125
2173.37752	24686.6125
2176.32311	24709.3125
2179.26681	24812.6125
2182.20863	24818.6125
2185.14856	24875.8125
2188.08661	24940.4125
2191.02278	24982.2125
2193.95707	24990.6125
2196.88948	24990.9125
2199.82001	25047.4125
2202.74867	25086.7125
2205.67545	25076.4125
2208.60037	25110.4125
2211.52341	25127.8125
2214.44458	25093.0125
2217.36388	25057.4125
2220.28132	25077.3125
2223.1969	25103.1125
2226.11061	25092.4125
2229.02246	25113.0125
2231.93245	25132.5125
2234.84058	25159.0125
2237.74686	25117.8125
2240.65128	25191.4125
2243.55385	25197.8125
2246.45456	25193.4125
2249.35343	25282.3125
2252.25044	25300.2125
2255.14561	25311.7125
2258.03893	25379.0125
2260.93041	25374.5125
2263.82004	25331.0125
2266.70783	25337.5125
2269.59378	25292.8125
2272.4779	25303.8125
2275.36017	25300.5125
2278.24061	25309.4125
2281.11922	25301.9125
2283.996	25324.1125
2286.87094	25386.1125
2289.74405	25347.3125
2292.61534	25363.3125
2295.4848	25366.6125
2298.35243	25379.4125
2301.21824	25408.5125
2304.08223	25496.5125
2306.94439	25516.0125
2309.80474	25512.9125
2312.66327	25564.5125
2315.51999	25621.4125
2318.37489	25627.8125
2321.22797	25580.0125
2324.07925	25606.9125
2326.92871	25610.6125
2329.77637	25578.1125
2332.62222	25607.6125
2335.46626	25616.4125
2338.3085	25654.3125
2341.14893	25623.9125
2343.98756	25700.4125
2346.8244	25671.7125
2349.65943	25696.1125
2352.49267	25719.2125
2355.32411	25705.2125
2358.15376	25735.6125
2360.98161	25819.4125
2363.80768	25852.8125
2366.63195	25888.1125
2369.45444	25889.3125
2372.27514	25924.4125
2375.09405	25915.7125
2377.91118	25963.5125
2380.72652	25983.1125
2383.54009	25942.8125
2386.35187	25949.1125
2389.16188	25876.8125
2391.97011	25883.5125
2394.77657	25876.4125
2397.58125	25902.9125
2400.38416	25858.2125
2403.18529	25887.6125
2405.98466	25936.1125
2408.78226	25952.7125
2411.57809	26032.3125
2414.37216	26044.4125
2417.16446	26092.4125
2419.955	26040.8125
2422.74378	26051.4125
2425.5308	26077.4125
2428.31606	26143.5125
2431.09956	26194.0125
2433.88131	26199.4125
2436.6613	26235.7125
2439.43954	26209.1125
2442.21603	26156.7125
2444.99077	26136.5125
2447.76377	26183.6125
2450.53501	26253.0125
2453.30451	26281.7125
2456.07226	26200.0125
2458.83827	26240.0125
2461.60254	26245.0125
2464.36507	26271.5125
2467.12586	26270.8125
2469.88492	26243.0125
2472.64224	26279.8125
2475.39782	26293.0125
2478.15167	26335.4125
2480.90379	26360.4125
2483.65417	26433.9125
2486.40283	26448.2125
2489.14976	26462.5125
2491.89497	26499.6125
2494.63845	26607.7125
2497.3802	26569.3125
2500.12024	26618.4125
2502.85855	26552.1125
2505.59514	26553.6125
2508.33002	26579.6125
2511.06318	26584.8125
2513.79462	26558.6125
2516.52435	26484.7125
2519.25237	26533.3125
2521.97867	26535.6125
2524.70327	26563.8125
2527.42616	26611.3125
2530.14734	26612.8125
2532.86681	26688.3125
2535.58458	26745.9125
2538.30065	26735.1125
2541.01501	26762.1125
2543.72768	26776.7125
2546.43864	26749.8125
2549.14791	26779.1125
2551.85548	26754.3125
2554.56136	26749.4125
2557.26554	26677.2125
2559.96803	26679.8125
2562.66883	26673.7125
2565.36794	26622.5125
2568.06536	26638.0125
2570.7611	26619.5125
2573.45514	26587.8125
2576.14751	26618.0125
2578.83819	26582.4125
2581.52719	26633.4125
2584.21451	26569.1125
2586.90015	26644.4125
2589.58411	26564.3125
2592.2664	26555.4125
2594.94701	26503.7125
2597.62594	26543.2125
2600.30321	26536.8125
2602.9788	26548.5125
2605.65273	26532.2125
2608.32498	26585.0125
2610.99557	26573.2125
2613.66449	26652.6125
2616.33175	26617.5125
2618.99734	26591.6125
2621.66128	26530.5125
2624.32355	26543.9125
2626.98416	26553.1125
2629.64311	26497.8125
2632.30041	26490.0125
2634.95605	26412.3125
2637.61004	26421.5125
2640.26238	26447.9125
2642.91306	26513.4125
2645.56209	26459.0125
2648.20948	26467.5125
2650.85521	26483.2125
2653.4993	26495.2125
2656.14175	26512.9125
2658.78255	26618.6125
2661.42171	26628.4125
2664.05923	26665.9125
2666.6951	26627.2125
2669.32934	26724.3125
2671.96194	26745.2125
2674.59291	26797.8125
2677.22224	26797.2125
2679.84993	26843.0125
2682.476	26827.0125
2685.10043	26826.0125
2687.72324	26842.4125
2690.34441	26922.2125
2692.96396	26924.4125
2695.58188	26966.8125
2698.19818	26982.0125
2700.81285	26999.8125
2703.4259	27055.8125
2706.03733	27141.7125
2708.64714	27121.0125
2711.25533	27105.8125
2713.86191	27197.0125
2716.46687	27259.3125
2719.07021	27290.9125
2721.67194	27356.4125
2724.27206	27383.6125
2726.87057	27414.9125
2729.46747	27397.6125
2732.06276	27491.1125
2734.65644	27555.5125
2737.24852	27533.6125
2739.83899	27506.5125
2742.42786	27589.5125
2745.01513	27561.2125
2747.60079	27565.0125
2750.18486	27576.7125
2752.76733	27566.2125
2755.3482	27519.3125
2757.92747	27537.0125
2760.50515	27488.1125
2763.08123	27512.6125
2765.65573	27451.0125
2768.22863	27449.1125
2770.79994	27441.0125
2773.36967	27448.8125
2775.9378	27497.5125
2778.50435	27474.3125
2781.06932	27475.6125
2783.6327	27521.7125
2786.1945	27607.9125
2788.75471	27583.6125
2791.31335	27602.6125
2793.87041	27530.1125
2796.42589	27443.2125
2798.97979	27418.4125
2801.53212	27404.2125
2804.08288	27397.5125
2806.63206	27348.5125
2809.17967	27288.2125
2811.72571	27262.4125
2814.27018	27214.3125
2816.81308	27171.5125
2819.35442	27180.2125
2821.89419	27092.5125
2824.43239	27083.8125
2826.96904	27051.0125
2829.50412	27097.4125
2832.03763	27078.4125
2834.56959	27122.0125
2837.1	27070.2125
2839.62884	27099.1125
2842.15613	27100.0125
2844.68186	27154.8125
2847.20604	27158.4125
2849.72867	27139.1125
2852.24974	27186.3125
2854.76927	27165.1125
2857.28724	27119.3125
2859.80367	27063.2125
2862.31855	27051.9125
2864.83189	27050.7125
2867.34368	27005.4125
2869.85393	27038.1125
2872.36264	27011.7125
2874.8698	27030.0125
2877.37543	27057.8125
2879.87952	27098.5125
2882.38207	27060.2125
2884.88308	27001.8125
2887.38256	27077.6125
2889.88051	27095.0125
2892.37692	27146.0125
2894.8718	27188.7125
2897.36515	27274.5125
2899.85698	27263.1125
2902.34727	27281.3125
2904.83604	27313.7125
2907.32328	27432.3125
2909.809	27480.3125
2912.29319	27512.7125
2914.77587	27497.8125
2917.25702	27568.6125
2919.73665	27563.5125
2922.21476	27566.8125
2924.69136	27566.5125
2927.16644	27642.0125
2929.64	27610.0125
2932.11205	27622.5125
2934.58258	27569.4125
2937.05161	27608.8125
2939.51912	27634.7125
2941.98513	27680.8125
2944.44962	27665.6125
2946.91261	27609.4125
2949.37409	27692.3125
2951.83407	27727.2125
2954.29254	27719.2125
2956.74951	27793.9125
2959.20498	27839.4125
2961.65895	27862.1125
2964.11142	27939.4125
2966.56239	27952.3125
2969.01186	28018.4125
2971.45984	27991.2125
2973.90632	28038.8125
2976.35131	28043.8125
2978.7948	27990.3125
2981.23681	27974.1125
2983.67732	28027.9125
2986.11635	28012.1125
2988.55388	27962.8125
2990.98993	27903.5125
2993.4245	27840.1125
2995.85758	27887.1125
2998.28917	27868.4125
3000.71928	27821.3125
3003.14791	27778.8125
3005.57506	27758.1125
3008.00073	27738.3125
3010.42493	27724.4125
3012.84764	27722.3125
3015.26888	27744.2125
3017.68865	27680.2125
3020.10694	27672.4125
3022.52376	27675.1125
3024.9391	27692.9125
3027.35298	27659.5125
3029.76539	27674.6125
3032.17632	27765.4125
3034.5858	27754.7125
3036.9938	27800.0125
3039.40034	27763.0125
3041.80542	27759.8125
