Data from AgNPs_APTES_FTO_UA_100uM_CRN_0uM_R6G_10uM_Scan_RamanShift__35__11-20-31-274.txt Node

Date: Wed Jun 29 11:20:31 BST 2022
User: TCL
Spectrometer: QEP01345
Trigger mode: 4
Integration Time (sec): 7.000000E0
Scans to average: 10
Electric dark correction enabled: true
Nonlinearity correction enabled: false
Boxcar width: 0
XAxis mode: Raman Shifts
Number of Pixels in Spectrum: 1044
>>>>>Begin Spectral Data<<<<<
46.04893	-1.0625
50.45542	0.3375
54.85868	0.8375
59.25871	1.1375
63.6555	37.0375
68.04907	40.4375
72.43941	41.3375
76.82654	41.7375
81.21044	48.7375
85.59113	51.1375
89.96862	56.2375
94.34289	57.9375
98.71396	57.9375
103.08183	59.3375
107.4465	57.0375
111.80798	59.0375
116.16626	56.6375
120.52136	57.5375
124.87327	57.9375
129.222	56.6375
133.56755	54.4375
137.90993	53.9375
142.24913	53.2375
146.58517	51.3375
150.91804	51.2375
155.24774	54.6375
159.57429	60.0375
163.89768	59.6375
168.21792	68.7375
172.53501	80.6375
176.84895	102.1375
181.15975	123.3375
185.46741	161.0375
189.77193	213.7375
194.07331	272.2375
198.37157	349.4375
202.6667	414.4375
206.9587	490.0375
211.24758	566.3375
215.53334	636.3375
219.81599	719.5375
224.09553	800.2375
228.37195	890.8375
232.64527	993.5375
236.91549	1096.8375
241.18261	1188.5375
245.44663	1272.8375
249.70755	1334.3375
253.96539	1394.4375
258.22014	1435.9375
262.4718	1472.7375
266.72039	1494.0375
270.96589	1503.5375
275.20832	1483.4375
279.44768	1448.1375
283.68397	1417.2375
287.91719	1386.1375
292.14735	1361.7375
296.37445	1364.4375
300.59849	1388.7375
304.81948	1429.7375
309.03742	1448.9375
313.25231	1452.6375
317.46415	1416.7375
321.67296	1355.9375
325.87872	1304.6375
330.08145	1289.4375
334.28114	1286.2375
338.47781	1310.6375
342.67145	1328.1375
346.86207	1372.0375
351.04966	1424.8375
355.23424	1483.1375
359.4158	1532.6375
363.59435	1557.2375
367.76989	1576.8375
371.94243	1576.1375
376.11196	1573.5375
380.27849	1579.6375
384.44203	1582.5375
388.60257	1575.5375
392.76012	1576.9375
396.91468	1584.3375
401.06626	1610.3375
405.21485	1638.3375
409.36047	1612.0375
413.50311	1575.4375
417.64277	1518.8375
421.77947	1480.8375
425.9132	1479.7375
430.04396	1480.6375
434.17176	1490.3375
438.2966	1500.4375
442.41849	1533.6375
446.53742	1547.0375
450.6534	1568.4375
454.76644	1589.5375
458.87653	1588.7375
462.98368	1581.3375
467.08789	1575.5375
471.18916	1567.9375
475.2875	1559.6375
479.38291	1543.8375
483.4754	1545.9375
487.56496	1548.5375
491.6516	1552.2375
495.73531	1561.6375
499.81612	1563.1375
503.89401	1567.0375
507.96899	1567.1375
512.04106	1573.1375
516.11023	1591.8375
520.1765	1598.0375
524.23987	1599.2375
528.30034	1586.2375
532.35792	1586.4375
536.41261	1569.4375
540.46441	1542.4375
544.51333	1533.1375
548.55936	1532.4375
552.60252	1552.2375
556.64279	1575.1375
560.6802	1578.7375
564.71473	1594.8375
568.7464	1623.1375
572.7752	1636.2375
576.80114	1591.5375
580.82422	1569.0375
584.84444	1563.5375
588.86181	1580.1375
592.87633	1614.4375
596.888	1622.9375
600.89682	1646.3375
604.9028	1759.2375
608.90594	2087.0375
612.90624	2480.5375
616.90371	2384.8375
620.89834	1909.9375
624.89015	1688.3375
628.87913	1664.4375
632.86528	1704.7375
636.84862	1738.4375
640.82913	1737.8375
644.80683	1684.6375
648.78172	1654.7375
652.75379	1653.4375
656.72306	1671.8375
660.68952	1725.1375
664.65319	1697.7375
668.61405	1661.4375
672.57211	1641.5375
676.52738	1678.6375
680.47986	1730.8375
684.42955	1766.6375
688.37646	1811.7375
692.32058	1802.7375
696.26192	1771.0375
700.20048	1724.7375
704.13626	1696.6375
708.06928	1690.8375
711.99952	1680.6375
715.927	1659.4375
719.85171	1654.2375
723.77365	1645.3375
727.69284	1633.9375
731.60928	1630.9375
735.52295	1633.1375
739.43388	1632.6375
743.34206	1627.0375
747.24749	1610.2375
751.15017	1611.2375
755.05012	1588.3375
758.94733	1643.6375
762.8418	1763.3375
766.73354	1935.3375
770.62254	2138.1375
774.50882	2237.4375
778.39237	2173.7375
782.27321	1999.0375
786.15132	1818.2375
790.02671	1699.6375
793.89938	1664.4375
797.76935	1636.6375
801.6366	1626.2375
805.50115	1637.9375
809.36299	1639.3375
813.22213	1629.0375
817.07857	1613.9375
820.93231	1605.5375
824.78336	1601.2375
828.63172	1587.0375
832.47738	1585.9375
836.32036	1578.3375
840.16066	1578.8375
843.99827	1586.5375
847.8332	1574.5375
851.66546	1570.2375
855.49504	1572.2375
859.32195	1581.2375
863.1462	1571.3375
866.96777	1565.2375
870.78668	1570.5375
874.60293	1580.1375
878.41652	1588.4375
882.22745	1598.1375
886.03573	1613.2375
889.84136	1593.5375
893.64433	1601.6375
897.44466	1594.4375
901.24235	1580.0375
905.0374	1559.0375
908.8298	1563.9375
912.61957	1548.2375
916.40671	1554.1375
920.19121	1562.0375
923.97308	1567.1375
927.75233	1581.2375
931.52895	1597.9375
935.30295	1573.4375
939.07433	1567.7375
942.84309	1533.1375
946.60924	1530.5375
950.37278	1531.1375
954.13371	1522.1375
957.89203	1524.9375
961.64774	1514.9375
965.40086	1506.0375
969.15137	1502.7375
972.89929	1490.1375
976.64461	1487.0375
980.38733	1486.3375
984.12747	1482.7375
987.86502	1484.3375
991.59999	1493.2375
995.33237	1493.6375
999.06217	1507.7375
1002.78939	1518.7375
1006.51404	1544.0375
1010.23611	1564.3375
1013.95561	1574.2375
1017.67255	1578.6375
1021.38692	1572.6375
1025.09872	1559.5375
1028.80796	1547.0375
1032.51465	1552.0375
1036.21877	1584.2375
1039.92035	1553.7375
1043.61937	1547.3375
1047.31584	1553.4375
1051.00976	1558.2375
1054.70114	1556.8375
1058.38998	1565.9375
1062.07627	1574.1375
1065.76003	1585.3375
1069.44126	1592.9375
1073.11995	1617.5375
1076.79611	1629.2375
1080.46974	1652.8375
1084.14085	1670.4375
1087.80943	1682.1375
1091.47549	1673.3375
1095.13903	1649.5375
1098.80005	1612.8375
1102.45857	1594.1375
1106.11456	1572.1375
1109.76805	1591.1375
1113.41903	1627.6375
1117.06751	1659.0375
1120.71348	1715.7375
1124.35696	1776.7375
1127.99793	1860.1375
1131.63641	1887.4375
1135.2724	1854.4375
1138.90589	1799.0375
1142.5369	1746.8375
1146.16542	1711.2375
1149.79145	1665.9375
1153.415	1645.5375
1157.03607	1635.5375
1160.65467	1636.7375
1164.27079	1658.5375
1167.88443	1714.7375
1171.49561	1794.6375
1175.10432	1924.0375
1178.71056	2098.5375
1182.31434	2257.0375
1185.91565	2295.0375
1189.51451	2235.2375
1193.11091	2131.7375
1196.70485	2031.6375
1200.29634	1964.1375
1203.88538	1906.5375
1207.47197	1824.8375
1211.05612	1761.2375
1214.63782	1710.8375
1218.21708	1692.3375
1221.79391	1667.9375
1225.36829	1679.5375
1228.94024	1677.5375
1232.50976	1665.9375
1236.07685	1674.3375
1239.6415	1663.2375
1243.20374	1678.1375
1246.76355	1685.2375
1250.32093	1696.6375
1253.8759	1704.8375
1257.42845	1736.6375
1260.97859	1765.3375
1264.52631	1811.1375
1268.07163	1845.7375
1271.61453	1883.2375
1275.15503	1900.7375
1278.69312	1907.8375
1282.22882	1921.2375
1285.76211	1940.8375
1289.29301	2004.6375
1292.82151	2066.0375
1296.34761	2135.8375
1299.87133	2225.1375
1303.39266	2357.1375
1306.9116	2558.7375
1310.42815	2787.2375
1313.94233	2880.1375
1317.45412	2800.9375
1320.96354	2586.9375
1324.47058	2404.4375
1327.97525	2251.2375
1331.47754	2162.6375
1334.97747	2108.3375
1338.47502	2120.6375
1341.97022	2152.9375
1345.46305	2246.9375
1348.95352	2401.2375
1352.44163	2580.7375
1355.92738	2828.7375
1359.41078	3180.6375
1362.89183	3535.5375
1366.37053	3492.0375
1369.84688	3033.8375
1373.32088	2591.1375
1376.79254	2328.5375
1380.26186	2175.5375
1383.72883	2091.7375
1387.19347	2023.0375
1390.65578	1954.2375
1394.11575	1895.9375
1397.57339	1861.7375
1401.0287	1822.7375
1404.48168	1807.5375
1407.93234	1784.6375
1411.38068	1770.3375
1414.82669	1763.5375
1418.27039	1762.8375
1421.71177	1741.9375
1425.15083	1732.5375
1428.58758	1722.9375
1432.02203	1729.9375
1435.45416	1746.4375
1438.88399	1752.7375
1442.31151	1744.4375
1445.73673	1734.5375
1449.15965	1755.2375
1452.58027	1765.5375
1455.9986	1764.2375
1459.41463	1762.2375
1462.82837	1790.1375
1466.23982	1809.3375
1469.64898	1841.7375
1473.05586	1852.8375
1476.46045	1851.4375
1479.86276	1854.0375
1483.26279	1873.3375
1486.66054	1883.7375
1490.05602	1914.5375
1493.44922	1968.7375
1496.84016	2071.7375
1500.22882	2254.7375
1503.61521	2507.5375
1506.99934	2832.7375
1510.38121	3091.0375
1513.76081	3172.7375
1517.13816	2964.7375
1520.51324	2621.1375
1523.88607	2303.2375
1527.25665	2104.3375
1530.62498	1986.0375
1533.99105	1929.4375
1537.35488	1889.4375
1540.71647	1855.4375
1544.07581	1832.3375
1547.4329	1832.3375
1550.78776	1841.1375
1554.14038	1852.3375
1557.49077	1870.6375
1560.83892	1909.1375
1564.18484	1946.4375
1567.52853	2026.2375
1570.86999	2089.5375
1574.20922	2132.5375
1577.54624	2150.2375
1580.88103	2068.8375
1584.2136	1950.1375
1587.54395	1860.8375
1590.87208	1823.7375
1594.19801	1853.3375
1597.52172	1906.6375
1600.84321	1918.1375
1604.16251	1874.7375
1607.47959	1818.0375
1610.79447	1747.7375
1614.10715	1683.4375
1617.41763	1630.4375
1620.7259	1598.9375
1624.03199	1581.3375
1627.33587	1578.2375
1630.63757	1590.5375
1633.93707	1620.7375
1637.23439	1684.4375
1640.52951	1790.8375
1643.82246	1969.1375
1647.11321	2182.7375
1650.40179	2332.8375
1653.68819	2297.7375
1656.97241	2083.5375
1660.25446	1841.6375
1663.53433	1652.0375
1666.81203	1548.9375
1670.08756	1501.9375
1673.36092	1467.3375
1676.63211	1438.7375
1679.90115	1419.5375
1683.16801	1400.2375
1686.43272	1372.2375
1689.69527	1361.5375
1692.95567	1335.3375
1696.2139	1305.9375
1699.46999	1293.4375
1702.72392	1277.6375
1705.97571	1259.4375
1709.22535	1251.8375
1712.47284	1253.1375
1715.71819	1243.5375
1718.96139	1234.2375
1722.20246	1222.3375
1725.44139	1200.4375
1728.67818	1185.3375
1731.91284	1169.6375
1735.14537	1158.9375
1738.37576	1150.1375
1741.60403	1146.2375
1744.83017	1127.1375
1748.05418	1122.2375
1751.27607	1110.9375
1754.49584	1096.3375
1757.71349	1093.8375
1760.92903	1078.3375
1764.14244	1073.6375
1767.35375	1066.2375
1770.56294	1063.7375
1773.77002	1062.2375
1776.97499	1061.8375
1780.17785	1067.4375
1783.37861	1061.4375
1786.57727	1066.5375
1789.77382	1055.7375
1792.96828	1062.3375
1796.16064	1056.8375
1799.3509	1048.3375
1802.53907	1055.2375
1805.72514	1040.2375
1808.90913	1045.5375
1812.09102	1045.6375
1815.27083	1041.6375
1818.44856	1035.2375
1821.6242	1039.7375
1824.79776	1028.4375
1827.96924	1023.9375
1831.13864	1024.0375
1834.30597	1032.5375
1837.47122	1020.0375
1840.6344	1021.6375
1843.7955	1019.5375
1846.95454	1023.1375
1850.11151	1012.0375
1853.26642	1015.5375
1856.41926	1013.9375
1859.57004	1007.0375
1862.71876	1012.9375
1865.86542	1012.5375
1869.01003	1004.8375
1872.15258	1007.9375
1875.29308	1014.0375
1878.43152	1000.4375
1881.56792	1004.9375
1884.70227	1001.4375
1887.83457	991.4375
1890.96482	994.1375
1894.09304	1000.6375
1897.21921	987.4375
1900.34335	994.4375
1903.46544	990.1375
1906.58551	989.3375
1909.70353	989.3375
1912.81953	990.0375
1915.93349	992.6375
1919.04543	988.1375
1922.15534	988.6375
1925.26322	976.1375
1928.36908	978.8375
1931.47292	974.7375
1934.57473	973.9375
1937.67453	975.2375
1940.77232	966.1375
1943.86808	958.9375
1946.96184	964.2375
1950.05358	967.0375
1953.14331	958.2375
1956.23103	952.3375
1959.31675	951.2375
1962.40046	945.1375
1965.48217	940.8375
1968.56188	939.3375
1971.63959	943.4375
1974.7153	941.8375
1977.78901	940.5375
1980.86073	934.6375
1983.93046	924.4375
1986.99819	930.3375
1990.06394	916.4375
1993.1277	919.7375
1996.18947	908.8375
1999.24925	907.6375
2002.30706	908.1375
2005.36288	905.2375
2008.41672	905.5375
2011.46859	906.9375
2014.51848	905.8375
2017.56639	898.4375
2020.61233	894.1375
2023.6563	894.6375
2026.6983	890.7375
2029.73833	887.8375
2032.7764	885.7375
2035.8125	879.2375
2038.84664	885.0375
2041.87881	884.3375
2044.90903	886.1375
2047.93729	883.7375
2050.96359	881.4375
2053.98794	878.2375
2057.01034	874.8375
2060.03078	875.8375
2063.04927	883.3375
2066.06582	882.3375
2069.08042	884.9375
2072.09307	899.1375
2075.10378	880.8375
2078.11255	886.6375
2081.11938	892.5375
2084.12426	881.2375
2087.12722	896.6375
2090.12824	896.0375
2093.12732	892.9375
2096.12447	895.6375
2099.11969	896.5375
2102.11299	894.3375
2105.10435	899.9375
2108.09379	889.9375
2111.08131	893.3375
2114.0669	888.1375
2117.05057	899.7375
2120.03233	897.7375
2123.01216	890.4375
2125.99008	884.3375
2128.96609	886.5375
2131.94018	883.5375
2134.91236	881.2375
2137.88263	885.6375
2140.851	880.6375
2143.81746	884.4375
2146.78201	883.0375
2149.74466	880.2375
2152.7054	872.4375
2155.66425	874.9375
2158.6212	884.9375
2161.57625	877.3375
2164.52941	882.8375
2167.48067	875.4375
2170.43004	870.4375
2173.37752	876.5375
2176.32311	872.2375
2179.26681	872.7375
2182.20863	868.1375
2185.14856	875.0375
2188.08661	870.1375
2191.02278	867.3375
2193.95707	872.3375
2196.88948	862.5375
2199.82001	861.2375
2202.74867	869.0375
2205.67545	874.6375
2208.60037	859.7375
2211.52341	866.3375
2214.44458	855.5375
2217.36388	855.7375
2220.28132	850.2375
2223.1969	849.3375
2226.11061	850.2375
2229.02246	856.3375
2231.93245	843.1375
2234.84058	849.7375
2237.74686	842.7375
2240.65128	835.7375
2243.55385	839.5375
2246.45456	841.8375
2249.35343	839.6375
2252.25044	836.7375
2255.14561	841.8375
2258.03893	839.9375
2260.93041	830.8375
2263.82004	832.9375
2266.70783	831.8375
2269.59378	827.3375
2272.4779	829.4375
2275.36017	830.0375
2278.24061	825.6375
2281.11922	814.4375
2283.996	810.6375
2286.87094	819.6375
2289.74405	818.2375
2292.61534	819.6375
2295.4848	813.2375
2298.35243	817.4375
2301.21824	814.8375
2304.08223	815.2375
2306.94439	818.1375
2309.80474	810.3375
2312.66327	812.7375
2315.51999	817.8375
2318.37489	809.4375
2321.22797	801.2375
2324.07925	806.4375
2326.92871	814.1375
2329.77637	806.7375
2332.62222	803.8375
2335.46626	802.5375
2338.3085	801.2375
2341.14893	797.2375
2343.98756	795.4375
2346.8244	801.1375
2349.65943	795.9375
2352.49267	798.5375
2355.32411	790.5375
2358.15376	794.5375
2360.98161	794.2375
2363.80768	802.4375
2366.63195	804.3375
2369.45444	804.7375
2372.27514	799.1375
2375.09405	796.9375
2377.91118	796.6375
2380.72652	789.3375
2383.54009	795.7375
2386.35187	790.1375
2389.16188	780.9375
2391.97011	788.2375
2394.77657	794.1375
2397.58125	780.8375
2400.38416	784.0375
2403.18529	779.5375
2405.98466	775.7375
2408.78226	771.2375
2411.57809	774.7375
2414.37216	787.2375
2417.16446	776.2375
2419.955	771.0375
2422.74378	771.2375
2425.5308	771.4375
2428.31606	779.5375
2431.09956	766.8375
2433.88131	774.6375
2436.6613	766.4375
2439.43954	772.9375
2442.21603	768.3375
2444.99077	766.7375
2447.76377	769.8375
2450.53501	769.1375
2453.30451	769.4375
2456.07226	766.1375
2458.83827	772.0375
2461.60254	762.8375
2464.36507	760.2375
2467.12586	759.7375
2469.88492	765.5375
2472.64224	762.3375
2475.39782	759.0375
2478.15167	757.8375
2480.90379	763.3375
2483.65417	760.5375
2486.40283	765.5375
2489.14976	770.6375
2491.89497	766.5375
2494.63845	760.1375
2497.3802	763.0375
2500.12024	764.6375
2502.85855	753.9375
2505.59514	760.2375
2508.33002	756.5375
2511.06318	758.3375
2513.79462	752.8375
2516.52435	751.8375
2519.25237	754.2375
2521.97867	754.3375
2524.70327	744.2375
2527.42616	746.5375
2530.14734	742.1375
2532.86681	742.9375
2535.58458	746.5375
2538.30065	744.9375
2541.01501	739.4375
2543.72768	745.8375
2546.43864	741.3375
2549.14791	741.3375
2551.85548	746.0375
2554.56136	750.6375
2557.26554	737.6375
2559.96803	736.7375
2562.66883	741.4375
2565.36794	738.4375
2568.06536	734.8375
2570.7611	740.3375
2573.45514	731.8375
2576.14751	727.2375
2578.83819	733.6375
2581.52719	731.9375
2584.21451	728.4375
2586.90015	725.4375
2589.58411	728.0375
2592.2664	726.5375
2594.94701	730.5375
2597.62594	723.1375
2600.30321	726.1375
2602.9788	716.2375
2605.65273	720.2375
2608.32498	715.8375
2610.99557	712.2375
2613.66449	720.4375
2616.33175	724.3375
2618.99734	718.3375
2621.66128	717.1375
2624.32355	720.8375
2626.98416	714.6375
2629.64311	717.4375
2632.30041	709.2375
2634.95605	706.8375
2637.61004	710.5375
2640.26238	716.8375
2642.91306	716.7375
2645.56209	704.5375
2648.20948	710.6375
2650.85521	710.2375
2653.4993	706.2375
2656.14175	708.8375
2658.78255	707.8375
2661.42171	699.9375
2664.05923	704.6375
2666.6951	709.5375
2669.32934	702.9375
2671.96194	705.9375
2674.59291	715.0375
2677.22224	703.5375
2679.84993	705.7375
2682.476	706.6375
2685.10043	709.3375
2687.72324	712.9375
2690.34441	704.5375
2692.96396	706.9375
2695.58188	705.2375
2698.19818	715.0375
2700.81285	702.2375
2703.4259	704.2375
2706.03733	683.7375
2708.64714	693.8375
2711.25533	701.7375
2713.86191	702.5375
2716.46687	711.7375
2719.07021	709.6375
2721.67194	710.2375
2724.27206	713.0375
2726.87057	717.0375
2729.46747	711.1375
2732.06276	714.1375
2734.65644	713.0375
2737.24852	716.4375
2739.83899	714.5375
2742.42786	722.1375
2745.01513	711.3375
2747.60079	711.0375
2750.18486	707.8375
2752.76733	712.2375
2755.3482	713.7375
2757.92747	701.3375
2760.50515	708.1375
2763.08123	708.3375
2765.65573	707.3375
2768.22863	711.0375
2770.79994	709.6375
2773.36967	703.9375
2775.9378	707.5375
2778.50435	705.1375
2781.06932	704.8375
2783.6327	705.9375
2786.1945	708.9375
2788.75471	698.2375
2791.31335	707.7375
2793.87041	705.6375
2796.42589	705.5375
2798.97979	705.6375
2801.53212	699.6375
2804.08288	696.0375
2806.63206	693.4375
2809.17967	690.8375
2811.72571	689.9375
2814.27018	696.9375
2816.81308	690.1375
2819.35442	696.2375
2821.89419	692.3375
2824.43239	692.0375
2826.96904	689.9375
2829.50412	691.6375
2832.03763	696.2375
2834.56959	698.7375
2837.1	698.0375
2839.62884	693.2375
2842.15613	688.7375
2844.68186	694.5375
2847.20604	687.8375
2849.72867	690.8375
2852.24974	695.5375
2854.76927	697.0375
2857.28724	695.4375
2859.80367	694.6375
2862.31855	701.8375
2864.83189	704.8375
2867.34368	702.9375
2869.85393	699.8375
2872.36264	699.6375
2874.8698	704.4375
2877.37543	702.3375
2879.87952	706.5375
2882.38207	709.4375
2884.88308	706.1375
2887.38256	713.0375
2889.88051	712.2375
2892.37692	712.9375
2894.8718	716.4375
2897.36515	712.4375
2899.85698	707.7375
2902.34727	713.7375
2904.83604	717.6375
2907.32328	723.3375
2909.809	725.6375
2912.29319	723.8375
2914.77587	730.6375
2917.25702	729.6375
2919.73665	730.1375
2922.21476	725.8375
2924.69136	724.4375
2927.16644	736.1375
2929.64	738.0375
2932.11205	735.9375
2934.58258	729.0375
2937.05161	730.9375
2939.51912	728.8375
2941.98513	736.3375
2944.44962	732.3375
2946.91261	730.0375
2949.37409	730.1375
2951.83407	736.3375
2954.29254	735.8375
2956.74951	732.8375
2959.20498	727.2375
2961.65895	728.9375
2964.11142	733.4375
2966.56239	727.9375
2969.01186	732.1375
2971.45984	736.6375
2973.90632	739.9375
2976.35131	734.3375
2978.7948	730.2375
2981.23681	729.3375
2983.67732	722.0375
2986.11635	730.1375
2988.55388	728.3375
2990.98993	721.9375
2993.4245	718.8375
2995.85758	730.5375
2998.28917	731.5375
3000.71928	729.8375
3003.14791	732.9375
3005.57506	729.3375
3008.00073	732.9375
3010.42493	725.5375
3012.84764	735.4375
3015.26888	733.6375
3017.68865	745.0375
3020.10694	740.0375
3022.52376	741.3375
3024.9391	740.1375
3027.35298	743.6375
3029.76539	747.8375
3032.17632	752.5375
3034.5858	745.6375
3036.9938	752.5375
3039.40034	748.0375
3041.80542	755.5375
3044.20903	766.9375
3046.61118	758.7375
3049.01187	762.0375
3051.4111	760.5375
3053.80888	769.9375
3056.20519	774.8375
3058.60005	772.3375
3060.99345	774.7375
3063.3854	772.2375
3065.7759	785.3375
3068.16494	781.1375
3070.55254	786.7375
3072.93868	787.0375
3075.32338	796.4375
3077.70662	799.5375
3080.08842	794.8375
3082.46878	805.0375
3084.84769	804.7375
3087.22515	811.1375
3089.60118	815.1375
3091.97576	818.4375
3094.3489	823.5375
3096.72061	825.3375
3099.09087	835.0375
3101.4597	841.7375
3103.82709	849.8375
3106.19305	863.6375
3108.55757	855.8375
3110.92066	859.9375
3113.28232	870.4375
3115.64255	872.0375
3118.00134	878.0375
3120.35871	884.5375
3122.71466	892.3375
3125.06917	890.0375
3127.42226	890.5375
3129.77393	912.0375
3132.12417	906.2375
3134.47299	923.4375
3136.82039	931.1375
3139.16636	928.5375
3141.51092	934.7375
3143.85406	937.9375
3146.19579	947.7375
3148.53609	960.5375
3150.87499	968.0375
3153.21246	976.1375
3155.54853	985.8375
3157.88318	985.5375
3160.21642	995.0375
3162.54826	1013.9375
3164.87868	1014.7375
3167.2077	1023.6375
3169.5353	1034.5375
3171.86151	1026.5375
3174.18631	1041.0375
3176.5097	1043.9375
3178.83169	1048.0375
3181.15228	1063.6375
