Data from AgNPs_APTES_FTO_UA_100uM_CRN_0uM_R6G_10uM_Scan_RamanShift__31__11-15-51-269.txt Node

Date: Wed Jun 29 11:15:51 BST 2022
User: TCL
Spectrometer: QEP01345
Trigger mode: 4
Integration Time (sec): 7.000000E0
Scans to average: 10
Electric dark correction enabled: true
Nonlinearity correction enabled: false
Boxcar width: 0
XAxis mode: Raman Shifts
Number of Pixels in Spectrum: 1044
>>>>>Begin Spectral Data<<<<<
46.04893	-1.225
50.45542	-0.225
54.85868	0.475
59.25871	1.675
63.6555	36.775
68.04907	36.775
72.43941	38.975
76.82654	41.875
81.21044	45.175
85.59113	45.575
89.96862	50.175
94.34289	52.575
98.71396	52.675
103.08183	51.075
107.4465	52.475
111.80798	58.475
116.16626	50.275
120.52136	54.475
124.87327	53.875
129.222	51.775
133.56755	51.975
137.90993	50.275
142.24913	50.075
146.58517	48.275
150.91804	49.075
155.24774	49.775
159.57429	52.375
163.89768	55.775
168.21792	59.975
172.53501	70.175
176.84895	82.175
181.15975	105.075
185.46741	129.775
189.77193	168.875
194.07331	217.175
198.37157	275.475
202.6667	336.875
206.9587	387.375
211.24758	450.675
215.53334	504.875
219.81599	567.075
224.09553	629.675
228.37195	700.675
232.64527	769.475
236.91549	843.075
241.18261	907.075
245.44663	990.575
249.70755	1046.575
253.96539	1096.275
258.22014	1127.875
262.4718	1151.275
266.72039	1165.675
270.96589	1162.875
275.20832	1147.375
279.44768	1126.075
283.68397	1095.275
287.91719	1074.675
292.14735	1053.675
296.37445	1038.075
300.59849	1034.775
304.81948	1046.275
309.03742	1050.475
313.25231	1046.675
317.46415	1029.175
321.67296	1001.975
325.87872	977.975
330.08145	967.675
334.28114	980.975
338.47781	986.575
342.67145	989.775
346.86207	1013.575
351.04966	1043.075
355.23424	1072.875
359.4158	1093.975
363.59435	1112.875
367.76989	1123.375
371.94243	1127.675
376.11196	1133.575
380.27849	1142.575
384.44203	1143.375
388.60257	1147.075
392.76012	1145.575
396.91468	1155.475
401.06626	1174.675
405.21485	1181.075
409.36047	1177.675
413.50311	1162.675
417.64277	1130.675
421.77947	1135.075
425.9132	1129.175
430.04396	1130.775
434.17176	1134.775
438.2966	1143.375
442.41849	1158.575
446.53742	1171.875
450.6534	1185.975
454.76644	1192.075
458.87653	1201.675
462.98368	1200.775
467.08789	1203.075
471.18916	1203.875
475.2875	1206.675
479.38291	1203.175
483.4754	1201.375
487.56496	1207.475
491.6516	1216.375
495.73531	1218.075
499.81612	1222.575
503.89401	1208.575
507.96899	1219.075
512.04106	1214.375
516.11023	1218.575
520.1765	1214.575
524.23987	1222.175
528.30034	1214.175
532.35792	1201.675
536.41261	1193.575
540.46441	1192.475
544.51333	1181.375
548.55936	1186.075
552.60252	1195.975
556.64279	1200.575
560.6802	1203.175
564.71473	1212.975
568.7464	1223.875
572.7752	1231.075
576.80114	1217.875
580.82422	1214.275
584.84444	1204.775
588.86181	1222.075
592.87633	1215.975
596.888	1218.075
600.89682	1240.875
604.9028	1285.975
608.90594	1416.775
612.90624	1594.175
616.90371	1562.175
620.89834	1362.175
624.89015	1269.375
628.87913	1264.275
632.86528	1286.775
636.84862	1298.175
640.82913	1317.175
644.80683	1291.275
648.78172	1274.775
652.75379	1290.575
656.72306	1294.575
660.68952	1315.475
664.65319	1320.375
668.61405	1304.275
672.57211	1311.075
676.52738	1336.975
680.47986	1374.475
684.42955	1430.675
688.37646	1455.575
692.32058	1442.675
696.26192	1406.275
700.20048	1366.175
704.13626	1352.775
708.06928	1330.075
711.99952	1325.875
715.927	1317.675
719.85171	1297.975
723.77365	1292.975
727.69284	1283.175
731.60928	1287.075
735.52295	1281.775
739.43388	1291.275
743.34206	1269.475
747.24749	1270.675
751.15017	1272.275
755.05012	1235.775
758.94733	1272.075
762.8418	1323.475
766.73354	1402.375
770.62254	1489.475
774.50882	1527.075
778.39237	1504.975
782.27321	1438.575
786.15132	1373.675
790.02671	1319.575
793.89938	1310.475
797.76935	1293.775
801.6366	1300.575
805.50115	1299.175
809.36299	1299.275
813.22213	1300.075
817.07857	1290.375
820.93231	1277.975
824.78336	1271.475
828.63172	1260.875
832.47738	1259.475
836.32036	1260.175
840.16066	1254.775
843.99827	1264.075
847.8332	1253.675
851.66546	1248.675
855.49504	1257.175
859.32195	1254.875
863.1462	1239.675
866.96777	1254.875
870.78668	1248.675
874.60293	1246.675
878.41652	1261.875
882.22745	1259.975
886.03573	1259.375
889.84136	1265.975
893.64433	1259.675
897.44466	1260.275
901.24235	1261.875
905.0374	1248.775
908.8298	1255.375
912.61957	1244.775
916.40671	1248.675
920.19121	1257.575
923.97308	1262.675
927.75233	1279.775
931.52895	1281.575
935.30295	1270.975
939.07433	1260.375
942.84309	1241.775
946.60924	1236.975
950.37278	1234.175
954.13371	1223.675
957.89203	1229.675
961.64774	1218.975
965.40086	1218.075
969.15137	1217.875
972.89929	1203.175
976.64461	1197.675
980.38733	1198.075
984.12747	1193.475
987.86502	1190.075
991.59999	1201.175
995.33237	1207.375
999.06217	1210.975
1002.78939	1210.175
1006.51404	1222.275
1010.23611	1229.375
1013.95561	1235.475
1017.67255	1236.375
1021.38692	1243.175
1025.09872	1239.575
1028.80796	1230.975
1032.51465	1227.075
1036.21877	1225.175
1039.92035	1230.975
1043.61937	1227.775
1047.31584	1235.775
1051.00976	1231.075
1054.70114	1238.275
1058.38998	1235.075
1062.07627	1240.175
1065.76003	1249.975
1069.44126	1254.675
1073.11995	1265.775
1076.79611	1280.875
1080.46974	1281.675
1084.14085	1280.275
1087.80943	1281.975
1091.47549	1282.175
1095.13903	1271.175
1098.80005	1253.275
1102.45857	1241.375
1106.11456	1231.175
1109.76805	1243.975
1113.41903	1256.175
1117.06751	1276.075
1120.71348	1306.675
1124.35696	1330.775
1127.99793	1367.275
1131.63641	1383.775
1135.2724	1378.075
1138.90589	1366.675
1142.5369	1344.475
1146.16542	1325.775
1149.79145	1296.075
1153.415	1286.775
1157.03607	1279.075
1160.65467	1275.375
1164.27079	1284.475
1167.88443	1304.075
1171.49561	1336.975
1175.10432	1385.375
1178.71056	1455.575
1182.31434	1525.875
1185.91565	1543.575
1189.51451	1513.475
1193.11091	1468.175
1196.70485	1435.275
1200.29634	1412.575
1203.88538	1388.575
1207.47197	1355.575
1211.05612	1329.775
1214.63782	1310.375
1218.21708	1301.075
1221.79391	1287.675
1225.36829	1295.675
1228.94024	1289.875
1232.50976	1287.575
1236.07685	1294.575
1239.6415	1300.675
1243.20374	1302.275
1246.76355	1298.175
1250.32093	1305.775
1253.8759	1316.275
1257.42845	1323.675
1260.97859	1336.875
1264.52631	1355.175
1268.07163	1377.375
1271.61453	1395.175
1275.15503	1410.075
1278.69312	1410.675
1282.22882	1419.875
1285.76211	1435.575
1289.29301	1452.975
1292.82151	1488.075
1296.34761	1527.775
1299.87133	1569.175
1303.39266	1624.475
1306.9116	1721.475
1310.42815	1807.275
1313.94233	1846.475
1317.45412	1806.275
1320.96354	1725.975
1324.47058	1664.275
1327.97525	1600.375
1331.47754	1565.275
1334.97747	1558.875
1338.47502	1569.275
1341.97022	1597.075
1345.46305	1635.475
1348.95352	1695.875
1352.44163	1774.975
1355.92738	1876.675
1359.41078	2028.875
1362.89183	2171.775
1366.37053	2164.075
1369.84688	1986.675
1373.32088	1787.075
1376.79254	1662.675
1380.26186	1605.075
1383.72883	1552.775
1387.19347	1515.275
1390.65578	1480.575
1394.11575	1440.075
1397.57339	1424.275
1401.0287	1420.575
1404.48168	1393.675
1407.93234	1366.875
1411.38068	1370.075
1414.82669	1355.275
1418.27039	1344.675
1421.71177	1340.475
1425.15083	1328.375
1428.58758	1310.475
1432.02203	1300.175
1435.45416	1312.675
1438.88399	1310.675
1442.31151	1311.575
1445.73673	1291.575
1449.15965	1287.975
1452.58027	1304.875
1455.9986	1296.975
1459.41463	1304.775
1462.82837	1311.075
1466.23982	1313.975
1469.64898	1329.975
1473.05586	1322.575
1476.46045	1334.175
1479.86276	1344.375
1483.26279	1350.375
1486.66054	1362.975
1490.05602	1373.775
1493.44922	1398.275
1496.84016	1439.575
1500.22882	1520.875
1503.61521	1626.175
1506.99934	1760.075
1510.38121	1874.375
1513.76081	1913.275
1517.13816	1823.175
1520.51324	1685.075
1523.88607	1555.975
1527.25665	1458.775
1530.62498	1414.875
1533.99105	1383.575
1537.35488	1378.575
1540.71647	1353.375
1544.07581	1360.075
1547.4329	1353.775
1550.78776	1365.875
1554.14038	1370.875
1557.49077	1379.175
1560.83892	1401.675
1564.18484	1414.875
1567.52853	1440.875
1570.86999	1471.475
1574.20922	1490.675
1577.54624	1497.975
1580.88103	1468.175
1584.2136	1414.675
1587.54395	1374.275
1590.87208	1350.575
1594.19801	1353.175
1597.52172	1365.375
1600.84321	1362.875
1604.16251	1339.175
1607.47959	1316.175
1610.79447	1288.475
1614.10715	1261.875
1617.41763	1249.275
1620.7259	1232.575
1624.03199	1232.775
1627.33587	1217.975
1630.63757	1225.075
1633.93707	1223.975
1637.23439	1243.375
1640.52951	1283.275
1643.82246	1336.175
1647.11321	1422.975
1650.40179	1482.275
1653.68819	1480.775
1656.97241	1393.175
1660.25446	1283.475
1663.53433	1210.875
1666.81203	1162.075
1670.08756	1153.975
1673.36092	1150.075
1676.63211	1139.375
1679.90115	1119.575
1683.16801	1115.675
1686.43272	1104.475
1689.69527	1085.175
1692.95567	1051.975
1696.2139	1026.175
1699.46999	998.175
1702.72392	979.775
1705.97571	980.375
1709.22535	990.275
1712.47284	1006.275
1715.71819	994.975
1718.96139	990.375
1722.20246	980.775
1725.44139	972.975
1728.67818	952.875
1731.91284	948.775
1735.14537	934.675
1738.37576	923.175
1741.60403	911.675
1744.83017	904.775
1748.05418	890.175
1751.27607	879.875
1754.49584	864.275
1757.71349	854.175
1760.92903	845.675
1764.14244	832.975
1767.35375	833.475
1770.56294	830.675
1773.77002	832.775
1776.97499	834.575
1780.17785	851.675
1783.37861	854.075
1786.57727	864.775
1789.77382	849.775
1792.96828	852.875
1796.16064	851.975
1799.3509	852.575
1802.53907	857.375
1805.72514	840.175
1808.90913	846.475
1812.09102	846.775
1815.27083	846.875
1818.44856	825.075
1821.6242	835.375
1824.79776	835.775
1827.96924	832.575
1831.13864	836.375
1834.30597	830.575
1837.47122	838.375
1840.6344	829.175
1843.7955	828.775
1846.95454	823.375
1850.11151	830.475
1853.26642	820.675
1856.41926	823.875
1859.57004	824.375
1862.71876	825.675
1865.86542	822.175
1869.01003	826.075
1872.15258	813.675
1875.29308	815.075
1878.43152	812.175
1881.56792	816.975
1884.70227	810.075
1887.83457	807.175
1890.96482	805.375
1894.09304	811.875
1897.21921	803.875
1900.34335	804.575
1903.46544	806.075
1906.58551	809.475
1909.70353	803.675
1912.81953	801.275
1915.93349	796.675
1919.04543	805.275
1922.15534	797.675
1925.26322	793.375
1928.36908	797.175
1931.47292	791.075
1934.57473	793.975
1937.67453	800.475
1940.77232	792.675
1943.86808	786.375
1946.96184	784.875
1950.05358	787.475
1953.14331	781.675
1956.23103	777.675
1959.31675	780.975
1962.40046	770.175
1965.48217	767.575
1968.56188	767.675
1971.63959	772.475
1974.7153	767.075
1977.78901	751.275
1980.86073	758.675
1983.93046	760.575
1986.99819	755.175
1990.06394	752.575
1993.1277	748.475
1996.18947	744.375
1999.24925	748.475
2002.30706	743.475
2005.36288	739.675
2008.41672	737.275
2011.46859	741.275
2014.51848	734.575
2017.56639	728.775
2020.61233	733.675
2023.6563	729.075
2026.6983	725.175
2029.73833	732.675
2032.7764	730.475
2035.8125	723.575
2038.84664	723.475
2041.87881	726.475
2044.90903	723.275
2047.93729	724.075
2050.96359	720.775
2053.98794	718.875
2057.01034	722.175
2060.03078	721.475
2063.04927	725.075
2066.06582	732.775
2069.08042	725.975
2072.09307	735.175
2075.10378	732.475
2078.11255	731.875
2081.11938	731.175
2084.12426	738.175
2087.12722	739.175
2090.12824	730.775
2093.12732	736.075
2096.12447	737.275
2099.11969	735.275
2102.11299	739.175
2105.10435	739.875
2108.09379	733.875
2111.08131	737.575
2114.0669	741.575
2117.05057	743.075
2120.03233	737.075
2123.01216	741.975
2125.99008	736.975
2128.96609	739.475
2131.94018	738.875
2134.91236	727.375
2137.88263	738.575
2140.851	734.875
2143.81746	734.175
2146.78201	734.575
2149.74466	733.975
2152.7054	738.375
2155.66425	725.175
2158.6212	736.675
2161.57625	734.575
2164.52941	731.075
2167.48067	734.175
2170.43004	732.875
2173.37752	734.775
2176.32311	734.375
2179.26681	735.475
2182.20863	736.375
2185.14856	732.275
2188.08661	734.975
2191.02278	733.175
2193.95707	728.775
2196.88948	716.975
2199.82001	725.375
2202.74867	724.875
2205.67545	717.175
2208.60037	713.975
2211.52341	714.975
2214.44458	719.275
2217.36388	714.775
2220.28132	710.475
2223.1969	705.575
2226.11061	710.075
2229.02246	703.275
2231.93245	705.875
2234.84058	703.775
2237.74686	710.575
2240.65128	697.275
2243.55385	702.575
2246.45456	697.375
2249.35343	704.575
2252.25044	690.975
2255.14561	695.975
2258.03893	694.375
2260.93041	681.275
2263.82004	684.175
2266.70783	684.475
2269.59378	684.675
2272.4779	687.775
2275.36017	684.375
2278.24061	689.275
2281.11922	676.075
2283.996	681.675
2286.87094	680.775
2289.74405	689.875
2292.61534	680.575
2295.4848	678.575
2298.35243	681.075
2301.21824	674.075
2304.08223	682.475
2306.94439	678.775
2309.80474	670.975
2312.66327	671.075
2315.51999	669.875
2318.37489	672.675
2321.22797	659.875
2324.07925	668.775
2326.92871	672.575
2329.77637	682.275
2332.62222	672.475
2335.46626	674.975
2338.3085	668.175
2341.14893	662.875
2343.98756	660.875
2346.8244	664.975
2349.65943	667.075
2352.49267	674.775
2355.32411	654.075
2358.15376	658.775
2360.98161	662.075
2363.80768	666.575
2366.63195	662.575
2369.45444	660.975
2372.27514	657.275
2375.09405	666.975
2377.91118	659.375
2380.72652	665.575
2383.54009	659.175
2386.35187	660.275
2389.16188	652.475
2391.97011	664.075
2394.77657	654.475
2397.58125	650.975
2400.38416	649.775
2403.18529	658.775
2405.98466	649.775
2408.78226	642.575
2411.57809	643.775
2414.37216	649.475
2417.16446	644.575
2419.955	648.275
2422.74378	648.575
2425.5308	650.575
2428.31606	647.475
2431.09956	639.075
2433.88131	641.675
2436.6613	639.175
2439.43954	640.775
2442.21603	644.975
2444.99077	645.375
2447.76377	645.375
2450.53501	643.975
2453.30451	646.375
2456.07226	641.775
2458.83827	643.375
2461.60254	644.075
2464.36507	641.875
2467.12586	640.175
2469.88492	642.575
2472.64224	636.675
2475.39782	631.475
2478.15167	632.575
2480.90379	632.575
2483.65417	634.975
2486.40283	642.075
2489.14976	638.975
2491.89497	635.775
2494.63845	624.275
2497.3802	627.975
2500.12024	629.575
2502.85855	628.075
2505.59514	632.175
2508.33002	632.875
2511.06318	630.375
2513.79462	625.775
2516.52435	628.375
2519.25237	631.975
2521.97867	625.975
2524.70327	630.775
2527.42616	622.275
2530.14734	624.475
2532.86681	623.475
2535.58458	624.875
2538.30065	621.175
2541.01501	619.175
2543.72768	623.175
2546.43864	619.775
2549.14791	619.175
2551.85548	621.175
2554.56136	619.775
2557.26554	620.175
2559.96803	619.175
2562.66883	622.075
2565.36794	613.575
2568.06536	615.675
2570.7611	619.475
2573.45514	616.475
2576.14751	609.675
2578.83819	606.175
2581.52719	609.675
2584.21451	611.275
2586.90015	607.675
2589.58411	598.475
2592.2664	607.775
2594.94701	605.675
2597.62594	609.175
2600.30321	611.775
2602.9788	604.375
2605.65273	612.775
2608.32498	599.775
2610.99557	604.075
2613.66449	601.975
2616.33175	603.375
2618.99734	607.575
2621.66128	595.875
2624.32355	595.375
2626.98416	599.975
2629.64311	597.075
2632.30041	597.375
2634.95605	596.775
2637.61004	598.775
2640.26238	601.175
2642.91306	593.775
2645.56209	592.275
2648.20948	590.475
2650.85521	599.875
2653.4993	598.575
2656.14175	598.875
2658.78255	593.875
2661.42171	592.075
2664.05923	592.275
2666.6951	590.475
2669.32934	599.575
2671.96194	594.075
2674.59291	601.275
2677.22224	590.675
2679.84993	599.075
2682.476	598.075
2685.10043	599.375
2687.72324	596.675
2690.34441	600.075
2692.96396	594.375
2695.58188	599.575
2698.19818	594.075
2700.81285	597.975
2703.4259	593.975
2706.03733	556.475
2708.64714	572.075
2711.25533	581.375
2713.86191	591.375
2716.46687	593.375
2719.07021	593.975
2721.67194	602.475
2724.27206	601.675
2726.87057	602.175
2729.46747	602.075
2732.06276	606.175
2734.65644	598.275
2737.24852	605.575
2739.83899	599.575
2742.42786	608.375
2745.01513	597.075
2747.60079	597.475
2750.18486	596.275
2752.76733	601.375
2755.3482	596.375
2757.92747	599.875
2760.50515	597.075
2763.08123	593.575
2765.65573	592.875
2768.22863	590.575
2770.79994	596.375
2773.36967	602.875
2775.9378	594.075
2778.50435	593.375
2781.06932	597.075
2783.6327	594.675
2786.1945	595.575
2788.75471	590.175
2791.31335	594.875
2793.87041	594.675
2796.42589	600.375
2798.97979	597.275
2801.53212	589.775
2804.08288	589.375
2806.63206	584.775
2809.17967	587.075
2811.72571	584.775
2814.27018	583.575
2816.81308	582.575
2819.35442	581.875
2821.89419	578.575
2824.43239	583.575
2826.96904	585.875
2829.50412	576.875
2832.03763	581.075
2834.56959	581.275
2837.1	579.475
2839.62884	584.875
2842.15613	583.975
2844.68186	584.675
2847.20604	573.075
2849.72867	579.475
2852.24974	584.375
2854.76927	581.875
2857.28724	570.075
2859.80367	581.875
2862.31855	587.375
2864.83189	584.375
2867.34368	586.175
2869.85393	584.175
2872.36264	589.775
2874.8698	591.275
2877.37543	588.475
2879.87952	582.075
2882.38207	588.275
2884.88308	588.575
2887.38256	600.275
2889.88051	592.175
2892.37692	603.175
2894.8718	599.875
2897.36515	592.675
2899.85698	594.875
2902.34727	596.075
2904.83604	608.575
2907.32328	607.075
2909.809	612.575
2912.29319	607.875
2914.77587	606.075
2917.25702	619.175
2919.73665	611.875
2922.21476	614.175
2924.69136	614.975
2927.16644	615.875
2929.64	614.975
2932.11205	619.675
2934.58258	612.375
2937.05161	616.775
2939.51912	617.275
2941.98513	617.675
2944.44962	618.475
2946.91261	620.675
2949.37409	614.275
2951.83407	619.475
2954.29254	623.475
2956.74951	625.175
2959.20498	618.175
2961.65895	618.875
2964.11142	625.875
2966.56239	616.975
2969.01186	621.975
2971.45984	621.775
2973.90632	619.575
2976.35131	623.475
2978.7948	626.675
2981.23681	627.975
2983.67732	626.975
2986.11635	622.875
2988.55388	614.975
2990.98993	617.975
2993.4245	623.575
2995.85758	624.075
2998.28917	626.075
3000.71928	628.375
3003.14791	626.675
3005.57506	628.675
3008.00073	623.675
3010.42493	628.375
3012.84764	630.675
3015.26888	638.375
3017.68865	639.775
3020.10694	634.175
3022.52376	637.075
3024.9391	637.575
3027.35298	641.575
3029.76539	648.175
3032.17632	651.175
3034.5858	646.375
3036.9938	650.875
3039.40034	655.075
3041.80542	656.875
3044.20903	669.675
3046.61118	661.675
3049.01187	667.375
3051.4111	668.075
3053.80888	674.775
3056.20519	673.775
3058.60005	679.475
3060.99345	677.775
3063.3854	676.175
3065.7759	681.375
3068.16494	685.175
3070.55254	686.875
3072.93868	692.675
3075.32338	696.075
3077.70662	703.175
3080.08842	692.875
3082.46878	703.275
3084.84769	704.175
3087.22515	714.775
3089.60118	718.975
3091.97576	727.975
3094.3489	731.575
3096.72061	735.875
3099.09087	730.575
3101.4597	746.475
3103.82709	751.475
3106.19305	762.475
3108.55757	764.375
3110.92066	765.675
3113.28232	774.875
3115.64255	783.475
3118.00134	786.775
3120.35871	788.075
3122.71466	799.875
3125.06917	801.875
3127.42226	796.175
3129.77393	814.575
3132.12417	817.175
3134.47299	820.475
3136.82039	823.575
3139.16636	835.175
3141.51092	851.275
3143.85406	852.875
3146.19579	860.975
3148.53609	855.975
3150.87499	873.975
3153.21246	873.375
3155.54853	883.075
3157.88318	892.175
3160.21642	903.775
3162.54826	912.075
3164.87868	921.075
3167.2077	923.475
3169.5353	936.475
3171.86151	934.775
3174.18631	945.575
3176.5097	946.775
3178.83169	953.575
3181.15228	967.575
3183.47147	963.175
3185.78926	979.475
3188.10565	984.875
3190.42065	981.475
3192.73424	986.275
3195.04645	995.275
3197.35725	1001.275
3199.66667	1002.675
3201.97469	1004.275
3204.28132	1010.675
3206.58656	1026.975
3208.8904	1019.975
3211.19287	1035.175
3213.49394	1038.775
3215.79363	1036.375
3218.09193	1044.275
3220.38884	1040.975
3222.68438	1037.675
3224.97853	1051.375
3227.2713	1060.275
3229.56269	1062.475
3231.8527	1062.475
3234.14133	1065.875
3236.42858	1053.775
3238.71446	1065.475
3240.99896	1063.675
3243.28209	1062.975
3245.56384	1060.175
3247.84423	1057.875
3250.12324	1069.075
3252.40088	1071.275
3254.67715	1061.475
3256.95205	1063.975
3259.22558	1068.775
3261.49775	1065.575
3263.76855	1067.675
3266.03799	1069.675
3268.30606	1064.875
3270.57277	1078.775
3272.83812	1076.075
3275.10211	1068.475
3277.36474	1068.275
3279.62601	1074.175
3281.88593	1071.375
3284.14448	1062.375
3286.40168	1075.875
3288.65753	1080.375
3290.91202	1071.975
3293.16516	1073.075
3295.41695	1069.075
3297.66738	1064.475
3299.91647	1058.175
3302.16421	1056.675
