Data from AgNPs_APTES_FTO_UA_100uM_CRN_0uM_R6G_10uM_Scan_RamanShift__3__10-43-11-230.txt Node

Date: Wed Jun 29 10:43:11 BST 2022
User: TCL
Spectrometer: QEP01345
Trigger mode: 4
Integration Time (sec): 7.000000E0
Scans to average: 10
Electric dark correction enabled: true
Nonlinearity correction enabled: false
Boxcar width: 0
XAxis mode: Raman Shifts
Number of Pixels in Spectrum: 1044
>>>>>Begin Spectral Data<<<<<
46.04893	0.6
50.45542	1.9
54.85868	0.7
59.25871	1.7
63.6555	42.2
68.04907	42.4
72.43941	47.3
76.82654	47.4
81.21044	51.3
85.59113	55.4
89.96862	59.1
94.34289	63.3
98.71396	61.7
103.08183	64.6
107.4465	63.3
111.80798	68.8
116.16626	60
120.52136	66.9
124.87327	62.5
129.222	62.4
133.56755	62.5
137.90993	55.3
142.24913	56.8
146.58517	54.6
150.91804	58.2
155.24774	58.1
159.57429	62
163.89768	66.1
168.21792	76.1
172.53501	86
176.84895	101.8
181.15975	128
185.46741	161.9
189.77193	208.8
194.07331	277.9
198.37157	350.5
202.6667	426.6
206.9587	503.7
211.24758	591.2
215.53334	663.6
219.81599	755.9
224.09553	848.5
228.37195	952
232.64527	1060.6
236.91549	1178.9
241.18261	1293.3
245.44663	1405.6
249.70755	1507.2
253.96539	1581
258.22014	1622.3
262.4718	1638.8
266.72039	1627.2
270.96589	1603.1
275.20832	1544.1
279.44768	1495.8
283.68397	1426.9
287.91719	1363.6
292.14735	1303.1
296.37445	1250.3
300.59849	1200.3
304.81948	1170.2
309.03742	1146.5
313.25231	1114.5
317.46415	1090.2
321.67296	1071.3
325.87872	1047.4
330.08145	1048.8
334.28114	1044.8
338.47781	1044.8
342.67145	1055.2
346.86207	1051.2
351.04966	1065.8
355.23424	1082
359.4158	1085.6
363.59435	1092.3
367.76989	1101.2
371.94243	1106.8
376.11196	1105.4
380.27849	1115.6
384.44203	1124.3
388.60257	1123.2
392.76012	1126.9
396.91468	1139
401.06626	1143.9
405.21485	1156.6
409.36047	1157.1
413.50311	1158.3
417.64277	1153.9
421.77947	1152.2
425.9132	1159.9
430.04396	1164.1
434.17176	1173.4
438.2966	1189.1
442.41849	1194.8
446.53742	1208.6
450.6534	1219.3
454.76644	1223
458.87653	1224.5
462.98368	1222.3
467.08789	1224.6
471.18916	1236.9
475.2875	1229.1
479.38291	1233.8
483.4754	1243.5
487.56496	1237
491.6516	1235.8
495.73531	1234.8
499.81612	1225.6
503.89401	1236.3
507.96899	1224
512.04106	1214.2
516.11023	1213.4
520.1765	1207
524.23987	1208.9
528.30034	1207.9
532.35792	1205
536.41261	1197.7
540.46441	1207.8
544.51333	1200.2
548.55936	1196.5
552.60252	1199.6
556.64279	1206.1
560.6802	1203
564.71473	1209.6
568.7464	1210
572.7752	1212.8
576.80114	1201.2
580.82422	1208.1
584.84444	1200.5
588.86181	1196
592.87633	1213.3
596.888	1212.6
600.89682	1233.3
604.9028	1257.5
608.90594	1313.5
612.90624	1380.6
616.90371	1377.4
620.89834	1329
624.89015	1295.9
628.87913	1290.6
632.86528	1290.7
636.84862	1285.5
640.82913	1283.4
644.80683	1280.7
648.78172	1277.2
652.75379	1275.1
656.72306	1288.4
660.68952	1306.5
664.65319	1321
668.61405	1335.1
672.57211	1356.3
676.52738	1380.9
680.47986	1399.5
684.42955	1406.1
688.37646	1435.5
692.32058	1425.2
696.26192	1413.1
700.20048	1412.4
704.13626	1409.6
708.06928	1404.5
711.99952	1391.3
715.927	1380.9
719.85171	1357.7
723.77365	1335.6
727.69284	1334.6
731.60928	1331
735.52295	1316.5
739.43388	1308.7
743.34206	1307.8
747.24749	1300.9
751.15017	1313.8
755.05012	1281.4
758.94733	1309.2
762.8418	1335.1
766.73354	1364.2
770.62254	1387.9
774.50882	1413.3
778.39237	1408
782.27321	1392.9
786.15132	1371.2
790.02671	1354.7
793.89938	1358.2
797.76935	1367.4
801.6366	1363.2
805.50115	1362.6
809.36299	1358.9
813.22213	1374.9
817.07857	1375.4
820.93231	1368.1
824.78336	1356.9
828.63172	1352.2
832.47738	1352.4
836.32036	1340.7
840.16066	1349.1
843.99827	1341.4
847.8332	1335.7
851.66546	1330.4
855.49504	1325
859.32195	1321.6
863.1462	1330.9
866.96777	1334.2
870.78668	1342.1
874.60293	1352.5
878.41652	1358.2
882.22745	1368.5
886.03573	1380.7
889.84136	1421.3
893.64433	1446
897.44466	1455.6
901.24235	1457.9
905.0374	1462.9
908.8298	1459.7
912.61957	1465.1
916.40671	1483.3
920.19121	1499.4
923.97308	1518.1
927.75233	1528.4
931.52895	1530.2
935.30295	1516.1
939.07433	1496.2
942.84309	1472.5
946.60924	1456
950.37278	1444.7
954.13371	1431.3
957.89203	1419.8
961.64774	1418.5
965.40086	1402
969.15137	1402.5
972.89929	1386.3
976.64461	1394.5
980.38733	1399.3
984.12747	1390.7
987.86502	1388
991.59999	1391.2
995.33237	1388.6
999.06217	1401.6
1002.78939	1390.9
1006.51404	1400.8
1010.23611	1400.1
1013.95561	1401.3
1017.67255	1402.6
1021.38692	1405.3
1025.09872	1406.5
1028.80796	1405.7
1032.51465	1408.3
1036.21877	1414.5
1039.92035	1415.1
1043.61937	1416
1047.31584	1424
1051.00976	1421.3
1054.70114	1428.7
1058.38998	1411.4
1062.07627	1415.9
1065.76003	1392.8
1069.44126	1380.6
1073.11995	1379
1076.79611	1375.7
1080.46974	1373.4
1084.14085	1361.1
1087.80943	1363.2
1091.47549	1352.5
1095.13903	1334.8
1098.80005	1334
1102.45857	1327.7
1106.11456	1322.7
1109.76805	1327.2
1113.41903	1334.9
1117.06751	1338.9
1120.71348	1346.7
1124.35696	1356
1127.99793	1375.9
1131.63641	1394.2
1135.2724	1393.1
1138.90589	1383.5
1142.5369	1382.5
1146.16542	1378.4
1149.79145	1370.4
1153.415	1357
1157.03607	1349.5
1160.65467	1356.6
1164.27079	1350.9
1167.88443	1364.1
1171.49561	1374.3
1175.10432	1393.9
1178.71056	1422
1182.31434	1444.4
1185.91565	1450
1189.51451	1448.2
1193.11091	1424.2
1196.70485	1420.8
1200.29634	1418.5
1203.88538	1410.9
1207.47197	1408.3
1211.05612	1401.5
1214.63782	1400.6
1218.21708	1399.9
1221.79391	1408.9
1225.36829	1404.4
1228.94024	1418.3
1232.50976	1415.7
1236.07685	1429.1
1239.6415	1439.3
1243.20374	1462.5
1246.76355	1467.9
1250.32093	1476.5
1253.8759	1482
1257.42845	1490.7
1260.97859	1490.8
1264.52631	1497.8
1268.07163	1517.3
1271.61453	1535.1
1275.15503	1532.8
1278.69312	1551.3
1282.22882	1544
1285.76211	1565.1
1289.29301	1582.9
1292.82151	1602.4
1296.34761	1613.8
1299.87133	1644.3
1303.39266	1657.8
1306.9116	1696.9
1310.42815	1726.7
1313.94233	1743.1
1317.45412	1729.3
1320.96354	1712.1
1324.47058	1693.9
1327.97525	1688.1
1331.47754	1702.5
1334.97747	1703.1
1338.47502	1716.1
1341.97022	1747.8
1345.46305	1772.5
1348.95352	1806
1352.44163	1853.1
1355.92738	1895.9
1359.41078	1959.8
1362.89183	2027.8
1366.37053	2046.8
1369.84688	1996.5
1373.32088	1935
1376.79254	1897.9
1380.26186	1881.3
1383.72883	1874.5
1387.19347	1872.2
1390.65578	1859.1
1394.11575	1847.1
1397.57339	1839.1
1401.0287	1834
1404.48168	1832.3
1407.93234	1809.4
1411.38068	1804.1
1414.82669	1807.6
1418.27039	1782.9
1421.71177	1772.7
1425.15083	1761.7
1428.58758	1736.6
1432.02203	1721.3
1435.45416	1703.3
1438.88399	1690
1442.31151	1682.8
1445.73673	1670.7
1449.15965	1667.5
1452.58027	1663.1
1455.9986	1655.4
1459.41463	1662.5
1462.82837	1669.1
1466.23982	1671.1
1469.64898	1681.8
1473.05586	1693.5
1476.46045	1705.7
1479.86276	1700.3
1483.26279	1714.3
1486.66054	1711
1490.05602	1715.8
1493.44922	1724.8
1496.84016	1724.9
1500.22882	1745
1503.61521	1765.5
1506.99934	1796.6
1510.38121	1826.4
1513.76081	1807.9
1517.13816	1760.5
1520.51324	1700.1
1523.88607	1661.9
1527.25665	1616.8
1530.62498	1597
1533.99105	1573.9
1537.35488	1565.6
1540.71647	1562.6
1544.07581	1553.6
1547.4329	1536.4
1550.78776	1535
1554.14038	1536.5
1557.49077	1533
1560.83892	1527.6
1564.18484	1521.7
1567.52853	1522.6
1570.86999	1524.8
1574.20922	1524.6
1577.54624	1530.2
1580.88103	1517.6
1584.2136	1490.8
1587.54395	1473.3
1590.87208	1454.3
1594.19801	1436.5
1597.52172	1438.4
1600.84321	1432
1604.16251	1411.6
1607.47959	1408.8
1610.79447	1399.1
1614.10715	1396.8
1617.41763	1381.3
1620.7259	1373.1
1624.03199	1375.9
1627.33587	1373.8
1630.63757	1366.3
1633.93707	1352.7
1637.23439	1351
1640.52951	1342.5
1643.82246	1356.5
1647.11321	1374.6
1650.40179	1376.8
1653.68819	1365.6
1656.97241	1335.1
1660.25446	1294.1
1663.53433	1263.5
1666.81203	1234.3
1670.08756	1230
1673.36092	1222.3
1676.63211	1213.2
1679.90115	1197.5
1683.16801	1184.7
1686.43272	1179.6
1689.69527	1161.5
1692.95567	1139.4
1696.2139	1128.4
1699.46999	1123.7
1702.72392	1111.6
1705.97571	1104.9
1709.22535	1108.8
1712.47284	1109.2
1715.71819	1109
1718.96139	1101.4
1722.20246	1084.3
1725.44139	1080.2
1728.67818	1070.2
1731.91284	1062.3
1735.14537	1062.2
1738.37576	1064.8
1741.60403	1047
1744.83017	1040.7
1748.05418	1035.1
1751.27607	1019.9
1754.49584	1031
1757.71349	1017.8
1760.92903	1016.1
1764.14244	1016.6
1767.35375	1003.7
1770.56294	1002.3
1773.77002	1007.9
1776.97499	999.9
1780.17785	1010.8
1783.37861	1018.7
1786.57727	1018.7
1789.77382	1007.7
1792.96828	998.3
1796.16064	1001.8
1799.3509	997.1
1802.53907	998.2
1805.72514	1000
1808.90913	993.9
1812.09102	991.6
1815.27083	983.1
1818.44856	983.4
1821.6242	993.5
1824.79776	982.5
1827.96924	981.2
1831.13864	983.5
1834.30597	980.3
1837.47122	981.7
1840.6344	982.5
1843.7955	973
1846.95454	980.8
1850.11151	976.1
1853.26642	973.4
1856.41926	978.8
1859.57004	971.1
1862.71876	971.9
1865.86542	968.3
1869.01003	964.6
1872.15258	970.1
1875.29308	975.5
1878.43152	965.2
1881.56792	960.7
1884.70227	966.9
1887.83457	964.3
1890.96482	961.4
1894.09304	955.8
1897.21921	945.8
1900.34335	949.2
1903.46544	952.6
1906.58551	953.4
1909.70353	950.5
1912.81953	950.4
1915.93349	952.5
1919.04543	960.1
1922.15534	949.8
1925.26322	948.7
1928.36908	947.5
1931.47292	948.3
1934.57473	948
1937.67453	947.6
1940.77232	947.4
1943.86808	946.4
1946.96184	946.4
1950.05358	940
1953.14331	931.5
1956.23103	934.3
1959.31675	928
1962.40046	926.2
1965.48217	926.4
1968.56188	918.3
1971.63959	924.6
1974.7153	912.9
1977.78901	908.8
1980.86073	903.9
1983.93046	908.3
1986.99819	908.6
1990.06394	899.8
1993.1277	896.9
1996.18947	899.2
1999.24925	898.1
2002.30706	892.2
2005.36288	890.5
2008.41672	891.7
2011.46859	887.4
2014.51848	884.6
2017.56639	882.1
2020.61233	884.1
2023.6563	884.4
2026.6983	872.3
2029.73833	880.2
2032.7764	877.6
2035.8125	868.4
2038.84664	873.3
2041.87881	882.3
2044.90903	882.7
2047.93729	883.4
2050.96359	878.5
2053.98794	890.9
2057.01034	891
2060.03078	893.8
2063.04927	904
2066.06582	912.8
2069.08042	911.1
2072.09307	927.5
2075.10378	932.8
2078.11255	941.7
2081.11938	954.7
2084.12426	963.2
2087.12722	973.7
2090.12824	968.8
2093.12732	976.9
2096.12447	982.2
2099.11969	985.2
2102.11299	997.4
2105.10435	997.7
2108.09379	987.5
2111.08131	991.6
2114.0669	985.7
2117.05057	980.5
2120.03233	984.5
2123.01216	979
2125.99008	971.6
2128.96609	964.4
2131.94018	954.4
2134.91236	949.9
2137.88263	945.5
2140.851	940.6
2143.81746	934.8
2146.78201	926.6
2149.74466	923.2
2152.7054	918
2155.66425	917
2158.6212	919.7
2161.57625	919.8
2164.52941	908.6
2167.48067	906.1
2170.43004	907.9
2173.37752	903.7
2176.32311	897.5
2179.26681	894.9
2182.20863	901.5
2185.14856	891.7
2188.08661	890.4
2191.02278	888.1
2193.95707	883.5
2196.88948	870.9
2199.82001	874.6
2202.74867	876.6
2205.67545	864.8
2208.60037	865.2
2211.52341	868.2
2214.44458	865.4
2217.36388	862.2
2220.28132	860.5
2223.1969	859.1
2226.11061	852.7
2229.02246	848.5
2231.93245	849.3
2234.84058	845.7
2237.74686	843.8
2240.65128	851.9
2243.55385	836.3
2246.45456	834.7
2249.35343	835.5
2252.25044	840.2
2255.14561	837.8
2258.03893	829.5
2260.93041	829.9
2263.82004	827.5
2266.70783	828.1
2269.59378	829
2272.4779	823.9
2275.36017	825
2278.24061	828.4
2281.11922	824.1
2283.996	821.8
2286.87094	825.5
2289.74405	818.2
2292.61534	821.1
2295.4848	824.2
2298.35243	821.4
2301.21824	817
2304.08223	815.9
2306.94439	821.5
2309.80474	815
2312.66327	818.5
2315.51999	823.9
2318.37489	817.9
2321.22797	807.7
2324.07925	812.5
2326.92871	814.3
2329.77637	816.6
2332.62222	812.1
2335.46626	805.4
2338.3085	802.1
2341.14893	798.7
2343.98756	800.3
2346.8244	795.4
2349.65943	791.6
2352.49267	800.1
2355.32411	795.3
2358.15376	800.8
2360.98161	796.7
2363.80768	802.7
2366.63195	798.9
2369.45444	792.3
2372.27514	801.6
2375.09405	798.6
2377.91118	790.5
2380.72652	792.3
2383.54009	789.7
2386.35187	790.5
2389.16188	787.5
2391.97011	796.8
2394.77657	788.5
2397.58125	781.5
2400.38416	787.3
2403.18529	782.7
2405.98466	785.2
2408.78226	779.4
2411.57809	778.8
2414.37216	786.3
2417.16446	775.6
2419.955	785
2422.74378	772.6
2425.5308	778.8
2428.31606	780.9
2431.09956	776.8
2433.88131	768.9
2436.6613	767.8
2439.43954	775.1
2442.21603	771.2
2444.99077	774.6
2447.76377	774.5
2450.53501	774.9
2453.30451	771.3
2456.07226	771.5
2458.83827	766.3
2461.60254	767.9
2464.36507	766.6
2467.12586	762.8
2469.88492	764.8
2472.64224	768.9
2475.39782	761.9
2478.15167	765.2
2480.90379	759.9
2483.65417	761.5
2486.40283	764.3
2489.14976	765.9
2491.89497	764.5
2494.63845	764
2497.3802	757.5
2500.12024	760.4
2502.85855	755.9
2505.59514	762.7
2508.33002	752.6
2511.06318	757.3
2513.79462	759.4
2516.52435	760.6
2519.25237	751.7
2521.97867	765.8
2524.70327	752.6
2527.42616	755.6
2530.14734	752
2532.86681	753.1
2535.58458	753.7
2538.30065	749
2541.01501	750.7
2543.72768	749.5
2546.43864	745.4
2549.14791	751.7
2551.85548	749.3
2554.56136	751.2
2557.26554	747.1
2559.96803	741.6
2562.66883	743.8
2565.36794	746.6
2568.06536	741.8
2570.7611	741
2573.45514	733.2
2576.14751	738
2578.83819	734.1
2581.52719	731.8
2584.21451	729.2
2586.90015	736.9
2589.58411	732.8
2592.2664	739.8
2594.94701	734.5
2597.62594	723.9
2600.30321	731.5
2602.9788	725.3
2605.65273	728
2608.32498	714.5
2610.99557	722.5
2613.66449	721.6
2616.33175	725.4
2618.99734	722.1
2621.66128	720
2624.32355	717.9
2626.98416	722.4
2629.64311	717.8
2632.30041	716.6
2634.95605	711.8
2637.61004	720.2
2640.26238	718.9
2642.91306	718.7
2645.56209	715.8
2648.20948	711.1
2650.85521	709
2653.4993	712.8
2656.14175	721.6
2658.78255	717.1
2661.42171	714.3
2664.05923	706.8
2666.6951	716.5
2669.32934	712.5
2671.96194	710.3
2674.59291	723.2
2677.22224	715
2679.84993	716.4
2682.476	720
2685.10043	719.1
2687.72324	712
2690.34441	715.9
2692.96396	719.3
2695.58188	716.7
2698.19818	717.4
2700.81285	718.6
2703.4259	711
2706.03733	705.9
2708.64714	708.6
2711.25533	714.2
2713.86191	710.5
2716.46687	714.9
2719.07021	717.6
2721.67194	720.2
2724.27206	718.5
2726.87057	724.7
2729.46747	723.7
2732.06276	720.1
2734.65644	724.7
2737.24852	718.1
2739.83899	720.6
2742.42786	725.4
2745.01513	723.4
2747.60079	720.8
2750.18486	716.4
2752.76733	718.6
2755.3482	725.1
2757.92747	716.7
2760.50515	714.9
2763.08123	712.3
2765.65573	711.3
2768.22863	719
2770.79994	709.6
2773.36967	715.1
2775.9378	718.9
2778.50435	717.3
2781.06932	716.6
2783.6327	712.7
2786.1945	717.1
2788.75471	715
2791.31335	719.5
2793.87041	711.3
2796.42589	712.1
2798.97979	704.4
2801.53212	705.5
2804.08288	709.6
2806.63206	704.8
2809.17967	695.4
2811.72571	703.4
2814.27018	707.1
2816.81308	695.5
2819.35442	698.8
2821.89419	696.5
2824.43239	693.8
2826.96904	696.5
2829.50412	694.2
2832.03763	694.5
2834.56959	692
2837.1	697.5
2839.62884	693.6
2842.15613	691.4
2844.68186	691
2847.20604	686.1
2849.72867	690.3
2852.24974	699.5
2854.76927	696.6
2857.28724	686.9
2859.80367	693.2
2862.31855	696.5
2864.83189	689.5
2867.34368	694.1
2869.85393	688.9
2872.36264	691
2874.8698	689.5
2877.37543	692.4
2879.87952	693.7
2882.38207	685.7
2884.88308	697.9
2887.38256	697.5
2889.88051	696.6
2892.37692	699.3
2894.8718	701.4
2897.36515	701.9
2899.85698	701.9
2902.34727	700.4
2904.83604	707.1
2907.32328	712.4
2909.809	710
2912.29319	722.9
2914.77587	721.6
2917.25702	722.8
2919.73665	727.6
2922.21476	721.5
2924.69136	723
2927.16644	723.8
2929.64	732
2932.11205	730
2934.58258	729.8
2937.05161	724.1
2939.51912	724.8
2941.98513	730
2944.44962	728.6
2946.91261	726.6
2949.37409	723.6
2951.83407	730.2
2954.29254	731.2
2956.74951	736.3
2959.20498	723.1
2961.65895	726.2
2964.11142	727.8
2966.56239	723.3
2969.01186	724.2
2971.45984	736.4
2973.90632	722.6
2976.35131	724.1
2978.7948	722.2
2981.23681	724
2983.67732	730.9
2986.11635	729.9
2988.55388	727.7
2990.98993	729.2
2993.4245	728.4
2995.85758	724.2
2998.28917	728.8
3000.71928	735.2
3003.14791	736.3
3005.57506	730.4
3008.00073	731.4
3010.42493	733.5
3012.84764	733.4
3015.26888	736
3017.68865	740.5
3020.10694	747.6
3022.52376	740.9
3024.9391	745
3027.35298	744.5
3029.76539	749.8
3032.17632	745.6
3034.5858	747.7
3036.9938	753.3
3039.40034	752.1
3041.80542	759.2
3044.20903	757.5
3046.61118	767.1
3049.01187	768
3051.4111	766.7
3053.80888	769.5
3056.20519	777.3
3058.60005	781.7
3060.99345	778.2
3063.3854	778.5
3065.7759	782
3068.16494	793.1
3070.55254	792.6
3072.93868	790.9
3075.32338	795
3077.70662	796
3080.08842	799.8
3082.46878	803.7
3084.84769	807.5
3087.22515	802.7
3089.60118	819.5
3091.97576	830.1
3094.3489	831.5
3096.72061	833.3
3099.09087	839.3
3101.4597	847.8
3103.82709	862.2
3106.19305	866.7
3108.55757	868.6
3110.92066	867.7
3113.28232	874.1
3115.64255	878.6
3118.00134	888.3
3120.35871	895.1
3122.71466	895.6
3125.06917	901.6
3127.42226	903.5
3129.77393	911.8
3132.12417	923.7
3134.47299	920.6
3136.82039	930
3139.16636	939.1
3141.51092	950.2
3143.85406	953.1
3146.19579	963.5
3148.53609	972.4
3150.87499	979.3
3153.21246	981.7
3155.54853	992.4
3157.88318	1000.8
3160.21642	1016.1
3162.54826	1024.3
3164.87868	1029.9
3167.2077	1039.7
3169.5353	1040.1
3171.86151	1050.2
3174.18631	1056.2
3176.5097	1061
3178.83169	1063.1
3181.15228	1076.2
3183.47147	1073.4
3185.78926	1083
3188.10565	1087.5
3190.42065	1094.8
3192.73424	1103.6
3195.04645	1106.4
3197.35725	1101.4
3199.66667	1112.1
3201.97469	1119.9
3204.28132	1128.5
3206.58656	1133
3208.8904	1136.8
3211.19287	1143.3
3213.49394	1149.3
3215.79363	1153
3218.09193	1149.5
3220.38884	1157.9
3222.68438	1163.8
3224.97853	1165.5
3227.2713	1172.1
3229.56269	1175.6
3231.8527	1176
3234.14133	1172.8
3236.42858	1165.7
3238.71446	1180.2
3240.99896	1171.8
3243.28209	1172.4
3245.56384	1170
3247.84423	1175.7
3250.12324	1178.6
3252.40088	1175.6
3254.67715	1173.5
3256.95205	1173.7
3259.22558	1182.9
3261.49775	1184
3263.76855	1179.8
3266.03799	1182.5
3268.30606	1174
3270.57277	1178.6
3272.83812	1175
3275.10211	1172.4
3277.36474	1171.2
3279.62601	1179.8
3281.88593	1176.4
3284.14448	1176.5
3286.40168	1177.1
3288.65753	1185.4
3290.91202	1180.2
3293.16516	1171.4
3295.41695	1173.4
3297.66738	1170.9
3299.91647	1165.9
3302.16421	1150.5
3304.4106	1154
3306.65564	1145.3
3308.89933	1141
3311.14169	1133.7
3313.38269	1127.4
3315.62236	1124.5
3317.86068	1116.6
3320.09766	1109.1
3322.3333	1103.2
3324.5676	1092.5
3326.80056	1073.9
3329.03219	1079.5
3331.26248	-0.9
3333.49143	0.4
3335.71905	-3.7
