Data from AgNPs_APTES_FTO_UA_100uM_CRN_0uM_R6G_10uM_Scan_RamanShift__62__11-52-01-312.txt Node

Date: Wed Jun 29 11:52:01 BST 2022
User: TCL
Spectrometer: QEP01345
Trigger mode: 4
Integration Time (sec): 7.000000E0
Scans to average: 10
Electric dark correction enabled: true
Nonlinearity correction enabled: false
Boxcar width: 0
XAxis mode: Raman Shifts
Number of Pixels in Spectrum: 1044
>>>>>Begin Spectral Data<<<<<
46.04893	-0.0375
50.45542	0.1625
54.85868	-0.2375
59.25871	1.2625
63.6555	40.4625
68.04907	44.1625
72.43941	47.7625
76.82654	48.0625
81.21044	51.7625
85.59113	55.1625
89.96862	56.8625
94.34289	60.5625
98.71396	57.8625
103.08183	63.4625
107.4465	63.1625
111.80798	64.3625
116.16626	61.1625
120.52136	65.3625
124.87327	61.5625
129.222	63.0625
133.56755	58.1625
137.90993	58.1625
142.24913	58.3625
146.58517	56.7625
150.91804	55.6625
155.24774	61.9625
159.57429	63.6625
163.89768	68.7625
168.21792	79.0625
172.53501	96.5625
176.84895	114.9625
181.15975	155.2625
185.46741	194.5625
189.77193	258.6625
194.07331	331.5625
198.37157	426.7625
202.6667	526.3625
206.9587	618.9625
211.24758	714.0625
215.53334	825.3625
219.81599	943.2625
224.09553	1072.0625
228.37195	1229.9625
232.64527	1371.9625
236.91549	1528.7625
241.18261	1652.2625
245.44663	1754.2625
249.70755	1833.4625
253.96539	1900.0625
258.22014	1953.1625
262.4718	1988.3625
266.72039	1996.5625
270.96589	1971.4625
275.20832	1933.0625
279.44768	1871.6625
283.68397	1813.9625
287.91719	1789.7625
292.14735	1808.6625
296.37445	1854.5625
300.59849	1972.8625
304.81948	2107.4625
309.03742	2236.1625
313.25231	2269.2625
317.46415	2176.7625
321.67296	1992.6625
325.87872	1821.0625
330.08145	1736.4625
334.28114	1753.8625
338.47781	1793.0625
342.67145	1864.5625
346.86207	1980.1625
351.04966	2144.4625
355.23424	2321.6625
359.4158	2449.4625
363.59435	2466.7625
367.76989	2438.4625
371.94243	2381.2625
376.11196	2331.1625
380.27849	2302.5625
384.44203	2260.2625
388.60257	2209.5625
392.76012	2197.6625
396.91468	2225.7625
401.06626	2267.0625
405.21485	2326.6625
409.36047	2251.0625
413.50311	2109.6625
417.64277	1975.2625
421.77947	1892.0625
425.9132	1875.4625
430.04396	1856.3625
434.17176	1876.3625
438.2966	1909.0625
442.41849	1962.4625
446.53742	2007.7625
450.6534	2041.4625
454.76644	2071.8625
458.87653	2049.8625
462.98368	2037.5625
467.08789	1996.3625
471.18916	1972.2625
475.2875	1928.7625
479.38291	1899.8625
483.4754	1879.3625
487.56496	1874.5625
491.6516	1874.2625
495.73531	1881.1625
499.81612	1881.5625
503.89401	1900.9625
507.96899	1924.1625
512.04106	1961.4625
516.11023	2011.8625
520.1765	2041.8625
524.23987	2057.6625
528.30034	2052.1625
532.35792	2031.0625
536.41261	2006.7625
540.46441	1954.4625
544.51333	1911.6625
548.55936	1913.5625
552.60252	1951.7625
556.64279	1994.9625
560.6802	2039.0625
564.71473	2126.7625
568.7464	2281.9625
572.7752	2289.5625
576.80114	2099.5625
580.82422	1954.0625
584.84444	1899.6625
588.86181	1891.6625
592.87633	1917.3625
596.888	1947.6625
600.89682	2071.1625
604.9028	2440.1625
608.90594	3361.3625
612.90624	4423.6625
616.90371	4148.5625
620.89834	2837.9625
624.89015	2276.8625
628.87913	2226.4625
632.86528	2297.4625
636.84862	2347.2625
640.82913	2266.1625
644.80683	2105.1625
648.78172	2003.2625
652.75379	1998.1625
656.72306	2063.7625
660.68952	2168.2625
664.65319	2114.8625
668.61405	1970.5625
672.57211	1912.7625
676.52738	1914.6625
680.47986	1907.5625
684.42955	1890.9625
688.37646	1890.0625
692.32058	1901.5625
696.26192	1916.4625
700.20048	1948.9625
704.13626	1962.0625
708.06928	1942.5625
711.99952	1927.2625
715.927	1937.1625
719.85171	1960.5625
723.77365	1980.9625
727.69284	1968.4625
731.60928	1947.4625
735.52295	1943.3625
739.43388	1945.6625
743.34206	1937.2625
747.24749	1953.9625
751.15017	1959.0625
755.05012	1974.1625
758.94733	2163.7625
762.8418	2541.1625
766.73354	3037.6625
770.62254	3410.6625
774.50882	3552.6625
778.39237	3419.7625
782.27321	2975.0625
786.15132	2444.7625
790.02671	2151.8625
793.89938	2036.7625
797.76935	1996.2625
801.6366	1989.4625
805.50115	2002.6625
809.36299	2016.3625
813.22213	2023.8625
817.07857	2007.5625
820.93231	1988.6625
824.78336	1984.2625
828.63172	1984.2625
832.47738	1982.0625
836.32036	1960.0625
840.16066	1945.0625
843.99827	1930.8625
847.8332	1924.5625
851.66546	1910.6625
855.49504	1925.5625
859.32195	1920.6625
863.1462	1913.7625
866.96777	1906.7625
870.78668	1924.6625
874.60293	1950.6625
878.41652	1973.9625
882.22745	2022.0625
886.03573	2041.6625
889.84136	2043.0625
893.64433	2016.9625
897.44466	2003.5625
901.24235	1988.4625
905.0374	1962.4625
908.8298	1934.5625
912.61957	1899.4625
916.40671	1900.1625
920.19121	1896.6625
923.97308	1919.9625
927.75233	1963.8625
931.52895	2022.8625
935.30295	2002.5625
939.07433	1919.7625
942.84309	1867.1625
946.60924	1843.9625
950.37278	1833.4625
954.13371	1824.4625
957.89203	1816.6625
961.64774	1813.5625
965.40086	1800.4625
969.15137	1793.9625
972.89929	1802.0625
976.64461	1795.8625
980.38733	1790.8625
984.12747	1802.1625
987.86502	1809.3625
991.59999	1823.5625
995.33237	1845.2625
999.06217	1876.4625
1002.78939	1929.8625
1006.51404	1974.2625
1010.23611	2012.4625
1013.95561	2026.6625
1017.67255	2025.2625
1021.38692	1997.6625
1025.09872	1977.5625
1028.80796	1974.8625
1032.51465	1987.4625
1036.21877	2011.7625
1039.92035	2015.1625
1043.61937	2009.7625
1047.31584	1995.2625
1051.00976	1979.2625
1054.70114	1969.3625
1058.38998	1941.8625
1062.07627	1959.3625
1065.76003	1958.0625
1069.44126	1977.2625
1073.11995	1996.6625
1076.79611	2042.6625
1080.46974	2132.8625
1084.14085	2213.3625
1087.80943	2278.2625
1091.47549	2276.3625
1095.13903	2192.9625
1098.80005	2100.2625
1102.45857	2029.1625
1106.11456	2041.1625
1109.76805	2095.6625
1113.41903	2188.8625
1117.06751	2336.9625
1120.71348	2533.1625
1124.35696	2784.0625
1127.99793	2915.8625
1131.63641	2794.2625
1135.2724	2576.8625
1138.90589	2408.5625
1142.5369	2296.4625
1146.16542	2206.9625
1149.79145	2132.3625
1153.415	2088.7625
1157.03607	2082.3625
1160.65467	2107.8625
1164.27079	2172.2625
1167.88443	2290.9625
1171.49561	2480.9625
1175.10432	2804.5625
1178.71056	3221.9625
1182.31434	3514.7625
1185.91565	3552.4625
1189.51451	3395.4625
1193.11091	3141.1625
1196.70485	2933.9625
1200.29634	2808.1625
1203.88538	2688.3625
1207.47197	2509.7625
1211.05612	2346.9625
1214.63782	2217.2625
1218.21708	2172.9625
1221.79391	2126.0625
1225.36829	2122.9625
1228.94024	2105.6625
1232.50976	2098.4625
1236.07685	2099.1625
1239.6415	2117.4625
1243.20374	2144.9625
1246.76355	2161.2625
1250.32093	2194.0625
1253.8759	2237.4625
1257.42845	2321.1625
1260.97859	2421.5625
1264.52631	2510.7625
1268.07163	2576.1625
1271.61453	2619.8625
1275.15503	2618.3625
1278.69312	2626.7625
1282.22882	2688.3625
1285.76211	2776.7625
1289.29301	2908.8625
1292.82151	2978.5625
1296.34761	3086.6625
1299.87133	3291.1625
1303.39266	3690.5625
1306.9116	4354.2625
1310.42815	5003.9625
1313.94233	5151.2625
1317.45412	4671.6625
1320.96354	3973.1625
1324.47058	3411.1625
1327.97525	3000.3625
1331.47754	2797.6625
1334.97747	2745.8625
1338.47502	2830.9625
1341.97022	3040.0625
1345.46305	3388.1625
1348.95352	3790.7625
1352.44163	4256.1625
1355.92738	4971.7625
1359.41078	6102.1625
1362.89183	6922.1625
1366.37053	6245.3625
1369.84688	4788.0625
1373.32088	3765.9625
1376.79254	3244.6625
1380.26186	2954.7625
1383.72883	2727.1625
1387.19347	2529.2625
1390.65578	2375.0625
1394.11575	2265.4625
1397.57339	2209.8625
1401.0287	2184.6625
1404.48168	2172.0625
1407.93234	2159.7625
1411.38068	2196.0625
1414.82669	2244.9625
1418.27039	2260.7625
1421.71177	2239.6625
1425.15083	2228.8625
1428.58758	2275.4625
1432.02203	2352.2625
1435.45416	2368.8625
1438.88399	2329.7625
1442.31151	2293.4625
1445.73673	2285.3625
1449.15965	2294.1625
1452.58027	2275.4625
1455.9986	2251.9625
1459.41463	2228.5625
1462.82837	2271.7625
1466.23982	2317.4625
1469.64898	2372.4625
1473.05586	2359.3625
1476.46045	2376.0625
1479.86276	2403.0625
1483.26279	2465.6625
1486.66054	2583.8625
1490.05602	2749.5625
1493.44922	3013.7625
1496.84016	3436.8625
1500.22882	4048.6625
1503.61521	4917.5625
1506.99934	5953.7625
1510.38121	6740.6625
1513.76081	6795.8625
1517.13816	6036.9625
1520.51324	4888.6625
1523.88607	3899.0625
1527.25665	3282.5625
1530.62498	2926.7625
1533.99105	2727.9625
1537.35488	2601.8625
1540.71647	2552.5625
1544.07581	2558.4625
1547.4329	2578.0625
1550.78776	2630.4625
1554.14038	2667.0625
1557.49077	2727.9625
1560.83892	2831.5625
1564.18484	2980.9625
1567.52853	3143.2625
1570.86999	3247.5625
1574.20922	3270.4625
1577.54624	3184.4625
1580.88103	2932.6625
1584.2136	2623.0625
1587.54395	2458.7625
1590.87208	2432.4625
1594.19801	2566.7625
1597.52172	2768.3625
1600.84321	2851.0625
1604.16251	2756.9625
1607.47959	2601.1625
1610.79447	2455.0625
1614.10715	2299.1625
1617.41763	2196.0625
1620.7259	2131.2625
1624.03199	2126.5625
1627.33587	2147.7625
1630.63757	2211.4625
1633.93707	2338.9625
1637.23439	2562.5625
1640.52951	2933.8625
1643.82246	3522.1625
1647.11321	4212.0625
1650.40179	4588.2625
1653.68819	4344.2625
1656.97241	3617.0625
1660.25446	2912.3625
1663.53433	2432.2625
1666.81203	2165.1625
1670.08756	2015.8625
1673.36092	1939.4625
1676.63211	1873.7625
1679.90115	1833.1625
1683.16801	1800.5625
1686.43272	1790.1625
1689.69527	1771.2625
1692.95567	1754.2625
1696.2139	1739.6625
1699.46999	1736.1625
1702.72392	1717.3625
1705.97571	1709.7625
1709.22535	1713.8625
1712.47284	1698.1625
1715.71819	1698.5625
1718.96139	1695.8625
1722.20246	1688.8625
1725.44139	1673.0625
1728.67818	1644.0625
1731.91284	1626.8625
1735.14537	1622.3625
1738.37576	1615.7625
1741.60403	1607.4625
1744.83017	1592.8625
1748.05418	1589.0625
1751.27607	1585.8625
1754.49584	1579.2625
1757.71349	1578.0625
1760.92903	1578.9625
1764.14244	1575.5625
1767.35375	1565.1625
1770.56294	1555.9625
1773.77002	1551.1625
1776.97499	1531.6625
1780.17785	1529.2625
1783.37861	1530.1625
1786.57727	1532.4625
1789.77382	1518.4625
1792.96828	1523.3625
1796.16064	1515.6625
1799.3509	1516.0625
1802.53907	1513.7625
1805.72514	1499.2625
1808.90913	1495.4625
1812.09102	1497.4625
1815.27083	1493.7625
1818.44856	1490.8625
1821.6242	1492.1625
1824.79776	1474.0625
1827.96924	1478.0625
1831.13864	1485.1625
1834.30597	1468.3625
1837.47122	1472.7625
1840.6344	1468.6625
1843.7955	1467.4625
1846.95454	1469.1625
1850.11151	1456.1625
1853.26642	1471.8625
1856.41926	1455.9625
1859.57004	1454.5625
1862.71876	1452.4625
1865.86542	1460.3625
1869.01003	1456.5625
1872.15258	1450.6625
1875.29308	1461.1625
1878.43152	1449.4625
1881.56792	1450.8625
1884.70227	1451.5625
1887.83457	1450.3625
1890.96482	1444.1625
1894.09304	1439.3625
1897.21921	1434.5625
1900.34335	1431.4625
1903.46544	1434.6625
1906.58551	1442.8625
1909.70353	1432.2625
1912.81953	1439.0625
1915.93349	1426.5625
1919.04543	1432.9625
1922.15534	1427.6625
1925.26322	1427.8625
1928.36908	1423.8625
1931.47292	1422.7625
1934.57473	1409.4625
1937.67453	1419.6625
1940.77232	1399.0625
1943.86808	1401.6625
1946.96184	1392.6625
1950.05358	1394.7625
1953.14331	1394.3625
1956.23103	1380.9625
1959.31675	1385.0625
1962.40046	1380.3625
1965.48217	1379.8625
1968.56188	1375.6625
1971.63959	1378.7625
1974.7153	1368.3625
1977.78901	1365.5625
1980.86073	1361.3625
1983.93046	1351.3625
1986.99819	1340.5625
1990.06394	1341.7625
1993.1277	1338.0625
1996.18947	1332.9625
1999.24925	1332.8625
2002.30706	1325.2625
2005.36288	1321.4625
2008.41672	1310.1625
2011.46859	1324.1625
2014.51848	1300.6625
2017.56639	1304.7625
2020.61233	1296.9625
2023.6563	1308.6625
2026.6983	1292.2625
2029.73833	1297.3625
2032.7764	1293.0625
2035.8125	1291.7625
2038.84664	1292.7625
2041.87881	1279.6625
2044.90903	1280.8625
2047.93729	1279.5625
2050.96359	1279.3625
2053.98794	1284.6625
2057.01034	1280.1625
2060.03078	1271.3625
2063.04927	1275.2625
2066.06582	1278.2625
2069.08042	1264.6625
2072.09307	1269.4625
2075.10378	1266.1625
2078.11255	1269.8625
2081.11938	1264.3625
2084.12426	1265.9625
2087.12722	1268.9625
2090.12824	1262.0625
2093.12732	1267.2625
2096.12447	1263.3625
2099.11969	1256.5625
2102.11299	1260.7625
2105.10435	1269.6625
2108.09379	1263.2625
2111.08131	1275.5625
2114.0669	1266.5625
2117.05057	1274.4625
2120.03233	1278.6625
2123.01216	1288.8625
2125.99008	1273.6625
2128.96609	1287.0625
2131.94018	1286.1625
2134.91236	1279.7625
2137.88263	1293.3625
2140.851	1288.0625
2143.81746	1283.8625
2146.78201	1284.2625
2149.74466	1281.1625
2152.7054	1274.2625
2155.66425	1274.6625
2158.6212	1283.0625
2161.57625	1276.3625
2164.52941	1271.3625
2167.48067	1274.5625
2170.43004	1270.3625
2173.37752	1274.3625
2176.32311	1274.7625
2179.26681	1271.6625
2182.20863	1277.5625
2185.14856	1286.2625
2188.08661	1275.7625
2191.02278	1282.1625
2193.95707	1273.1625
2196.88948	1268.3625
2199.82001	1274.3625
2202.74867	1275.4625
2205.67545	1277.2625
2208.60037	1262.7625
2211.52341	1264.7625
2214.44458	1277.3625
2217.36388	1257.1625
2220.28132	1254.7625
2223.1969	1250.8625
2226.11061	1252.9625
2229.02246	1248.8625
2231.93245	1253.4625
2234.84058	1253.8625
2237.74686	1256.7625
2240.65128	1252.2625
2243.55385	1241.4625
2246.45456	1233.9625
2249.35343	1250.5625
2252.25044	1250.6625
2255.14561	1256.9625
2258.03893	1252.8625
2260.93041	1259.2625
2263.82004	1245.2625
2266.70783	1244.0625
2269.59378	1250.0625
2272.4779	1237.1625
2275.36017	1238.7625
2278.24061	1234.4625
2281.11922	1231.7625
2283.996	1224.0625
2286.87094	1228.7625
2289.74405	1228.8625
2292.61534	1229.9625
2295.4848	1216.3625
2298.35243	1221.4625
2301.21824	1215.7625
2304.08223	1219.4625
2306.94439	1214.3625
2309.80474	1218.8625
2312.66327	1219.6625
2315.51999	1214.0625
2318.37489	1224.3625
2321.22797	1215.2625
2324.07925	1209.7625
2326.92871	1215.8625
2329.77637	1220.7625
2332.62222	1211.4625
2335.46626	1206.3625
2338.3085	1208.2625
2341.14893	1217.2625
2343.98756	1215.8625
2346.8244	1209.6625
2349.65943	1205.4625
2352.49267	1209.2625
2355.32411	1208.8625
2358.15376	1209.6625
2360.98161	1211.4625
2363.80768	1210.8625
2366.63195	1222.6625
2369.45444	1216.2625
2372.27514	1222.6625
2375.09405	1217.6625
2377.91118	1217.6625
2380.72652	1209.2625
2383.54009	1203.0625
2386.35187	1198.0625
2389.16188	1201.4625
2391.97011	1203.7625
2394.77657	1198.0625
2397.58125	1189.5625
2400.38416	1185.4625
2403.18529	1189.0625
2405.98466	1185.6625
2408.78226	1178.1625
2411.57809	1173.0625
2414.37216	1179.4625
2417.16446	1175.4625
2419.955	1179.8625
2422.74378	1174.2625
2425.5308	1178.6625
2428.31606	1176.4625
2431.09956	1174.1625
2433.88131	1165.3625
2436.6613	1171.1625
2439.43954	1177.4625
2442.21603	1178.5625
2444.99077	1173.4625
2447.76377	1180.4625
2450.53501	1182.2625
2453.30451	1187.2625
2456.07226	1181.5625
2458.83827	1181.0625
2461.60254	1165.9625
2464.36507	1173.2625
2467.12586	1166.3625
2469.88492	1169.8625
2472.64224	1169.6625
2475.39782	1172.7625
2478.15167	1182.0625
2480.90379	1181.0625
2483.65417	1184.2625
2486.40283	1184.6625
2489.14976	1191.7625
2491.89497	1188.7625
2494.63845	1183.2625
2497.3802	1197.5625
2500.12024	1182.2625
2502.85855	1181.4625
2505.59514	1179.9625
2508.33002	1176.8625
2511.06318	1169.3625
2513.79462	1167.0625
2516.52435	1159.6625
2519.25237	1153.9625
2521.97867	1156.1625
2524.70327	1150.8625
2527.42616	1142.5625
2530.14734	1145.3625
2532.86681	1148.7625
2535.58458	1154.0625
2538.30065	1154.7625
2541.01501	1142.1625
2543.72768	1148.6625
2546.43864	1150.3625
2549.14791	1143.3625
2551.85548	1144.9625
2554.56136	1148.0625
2557.26554	1146.1625
2559.96803	1137.6625
2562.66883	1140.0625
2565.36794	1139.2625
2568.06536	1136.3625
2570.7611	1135.5625
2573.45514	1141.2625
2576.14751	1137.1625
2578.83819	1130.0625
2581.52719	1124.4625
2584.21451	1130.6625
2586.90015	1124.6625
2589.58411	1114.1625
2592.2664	1129.2625
2594.94701	1129.3625
2597.62594	1125.6625
2600.30321	1125.1625
2602.9788	1123.4625
2605.65273	1121.4625
2608.32498	1120.4625
2610.99557	1119.5625
2613.66449	1114.4625
2616.33175	1122.6625
2618.99734	1128.7625
2621.66128	1117.6625
2624.32355	1125.6625
2626.98416	1113.3625
2629.64311	1111.9625
2632.30041	1116.1625
2634.95605	1110.9625
2637.61004	1118.3625
2640.26238	1112.8625
2642.91306	1104.6625
2645.56209	1108.4625
2648.20948	1108.0625
2650.85521	1103.8625
2653.4993	1109.1625
2656.14175	1108.0625
2658.78255	1116.7625
2661.42171	1111.8625
2664.05923	1115.2625
2666.6951	1119.0625
2669.32934	1123.9625
2671.96194	1109.9625
2674.59291	1120.2625
2677.22224	1113.6625
2679.84993	1117.8625
2682.476	1110.9625
2685.10043	1107.2625
2687.72324	1114.2625
2690.34441	1113.9625
2692.96396	1113.3625
2695.58188	1113.4625
2698.19818	1122.3625
2700.81285	1115.4625
2703.4259	1124.0625
2706.03733	1114.0625
2708.64714	1114.2625
2711.25533	1114.1625
2713.86191	1111.9625
2716.46687	1117.8625
2719.07021	1116.5625
2721.67194	1118.2625
2724.27206	1117.5625
2726.87057	1115.4625
2729.46747	1122.8625
2732.06276	1124.5625
2734.65644	1116.2625
2737.24852	1119.4625
2739.83899	1117.6625
2742.42786	1131.0625
2745.01513	1114.8625
2747.60079	1116.9625
2750.18486	1104.5625
2752.76733	1105.0625
2755.3482	1104.2625
2757.92747	1110.6625
2760.50515	1096.9625
2763.08123	1098.7625
2765.65573	1103.2625
2768.22863	1098.4625
2770.79994	1098.0625
2773.36967	1097.4625
2775.9378	1100.6625
2778.50435	1107.5625
2781.06932	1098.8625
2783.6327	1103.4625
2786.1945	1104.4625
2788.75471	1108.3625
2791.31335	1103.0625
2793.87041	1101.6625
2796.42589	1103.6625
2798.97979	1107.5625
2801.53212	1100.0625
2804.08288	1102.3625
2806.63206	1100.6625
2809.17967	1100.4625
2811.72571	1095.9625
2814.27018	1104.6625
2816.81308	1096.7625
2819.35442	1104.5625
2821.89419	1097.4625
2824.43239	1105.7625
2826.96904	1099.8625
2829.50412	1103.5625
2832.03763	1102.7625
2834.56959	1111.1625
2837.1	1107.5625
2839.62884	1096.7625
2842.15613	1096.1625
2844.68186	1108.9625
2847.20604	1092.7625
2849.72867	1100.6625
2852.24974	1108.1625
2854.76927	1113.6625
2857.28724	1112.9625
2859.80367	1115.5625
2862.31855	1119.9625
2864.83189	1122.6625
2867.34368	1119.1625
2869.85393	1120.5625
2872.36264	1122.0625
2874.8698	1122.2625
2877.37543	1115.6625
2879.87952	1113.6625
2882.38207	1113.1625
2884.88308	1117.1625
2887.38256	1129.6625
2889.88051	1119.1625
2892.37692	1114.4625
2894.8718	1121.3625
2897.36515	1124.7625
2899.85698	1123.7625
2902.34727	1126.4625
2904.83604	1132.0625
2907.32328	1137.2625
2909.809	1133.2625
2912.29319	1125.3625
2914.77587	1121.5625
2917.25702	1123.0625
2919.73665	1114.6625
2922.21476	1123.5625
2924.69136	1120.0625
2927.16644	1122.6625
2929.64	1118.4625
2932.11205	1129.2625
2934.58258	1112.5625
2937.05161	1121.7625
2939.51912	1110.2625
2941.98513	1105.0625
2944.44962	1111.9625
2946.91261	1115.0625
2949.37409	1115.6625
2951.83407	1117.1625
2954.29254	1125.7625
2956.74951	1122.3625
2959.20498	1129.4625
2961.65895	1128.9625
2964.11142	1131.2625
2966.56239	1123.2625
2969.01186	1126.1625
2971.45984	1121.8625
2973.90632	1119.8625
2976.35131	1121.3625
2978.7948	1124.4625
2981.23681	1124.3625
2983.67732	1121.4625
2986.11635	1115.4625
2988.55388	1116.4625
2990.98993	1121.5625
2993.4245	1111.4625
2995.85758	1121.6625
2998.28917	1118.5625
3000.71928	1125.8625
3003.14791	1119.6625
3005.57506	1125.7625
3008.00073	1119.2625
3010.42493	1129.8625
3012.84764	1129.8625
3015.26888	1132.2625
3017.68865	1137.4625
3020.10694	1132.5625
3022.52376	1133.6625
3024.9391	1143.8625
3027.35298	1132.1625
3029.76539	1135.3625
3032.17632	1130.4625
3034.5858	1134.9625
3036.9938	1131.4625
3039.40034	1136.4625
3041.80542	1138.5625
3044.20903	1140.7625
3046.61118	1142.8625
3049.01187	1142.5625
3051.4111	1150.2625
3053.80888	1149.8625
3056.20519	1152.1625
3058.60005	1148.9625
3060.99345	1144.2625
3063.3854	1147.4625
3065.7759	1152.0625
3068.16494	1149.1625
3070.55254	1154.4625
3072.93868	1157.6625
3075.32338	1162.2625
3077.70662	1156.2625
3080.08842	1157.0625
3082.46878	1160.3625
3084.84769	1170.4625
3087.22515	1165.6625
3089.60118	1181.2625
3091.97576	1178.9625
3094.3489	1189.3625
3096.72061	1188.1625
3099.09087	1201.7625
3101.4597	1203.5625
3103.82709	1205.7625
3106.19305	1221.8625
3108.55757	1230.2625
3110.92066	1230.4625
3113.28232	1239.0625
3115.64255	1236.5625
3118.00134	1246.6625
3120.35871	1251.4625
3122.71466	1252.7625
3125.06917	1249.7625
3127.42226	1248.4625
