Data from AgNPs_APTES_FTO_UA_100uM_CRN_0uM_R6G_10uM_Scan_RamanShift__28__11-12-21-265.txt Node

Date: Wed Jun 29 11:12:21 BST 2022
User: TCL
Spectrometer: QEP01345
Trigger mode: 4
Integration Time (sec): 7.000000E0
Scans to average: 10
Electric dark correction enabled: true
Nonlinearity correction enabled: false
Boxcar width: 0
XAxis mode: Raman Shifts
Number of Pixels in Spectrum: 1044
>>>>>Begin Spectral Data<<<<<
46.04893	-0.75
50.45542	0.45
54.85868	1.35
59.25871	1.35
63.6555	31.35
68.04907	36.95
72.43941	38.35
76.82654	40.05
81.21044	44.15
85.59113	46.75
89.96862	51.55
94.34289	53.15
98.71396	54.55
103.08183	54.15
107.4465	53.55
111.80798	54.45
116.16626	51.15
120.52136	52.95
124.87327	50.35
129.222	55.85
133.56755	51.55
137.90993	48.95
142.24913	47.35
146.58517	45.15
150.91804	44.35
155.24774	48.35
159.57429	49.05
163.89768	51.85
168.21792	56.95
172.53501	65.65
176.84895	78.65
181.15975	98.45
185.46741	128.15
189.77193	159.55
194.07331	206.45
198.37157	262.35
202.6667	316.05
206.9587	362.65
211.24758	431.55
215.53334	483.45
219.81599	544.25
224.09553	612.25
228.37195	677.95
232.64527	754.55
236.91549	846.75
241.18261	922.05
245.44663	1020.35
249.70755	1089.75
253.96539	1152.25
258.22014	1186.45
262.4718	1209.25
266.72039	1208.15
270.96589	1186.15
275.20832	1161.65
279.44768	1115.05
283.68397	1088.55
287.91719	1039.65
292.14735	1003.55
296.37445	975.95
300.59849	946.55
304.81948	928.05
309.03742	920.55
313.25231	901.35
317.46415	897.05
321.67296	879.85
325.87872	871.35
330.08145	876.85
334.28114	878.35
338.47781	883.05
342.67145	896.75
346.86207	891.25
351.04966	910.45
355.23424	920.25
359.4158	924.95
363.59435	935.55
367.76989	946.75
371.94243	950.25
376.11196	944.55
380.27849	954.75
384.44203	959.25
388.60257	972.15
392.76012	971.35
396.91468	978.05
401.06626	996.25
405.21485	1003.15
409.36047	1001.85
413.50311	1003.55
417.64277	998.15
421.77947	995.25
425.9132	983.75
430.04396	987.95
434.17176	998.65
438.2966	1006.25
442.41849	1013.35
446.53742	1025.65
450.6534	1035.65
454.76644	1041.05
458.87653	1047.45
462.98368	1051.55
467.08789	1050.15
471.18916	1054.15
475.2875	1055.75
479.38291	1059.55
483.4754	1062.35
487.56496	1068.55
491.6516	1076.25
495.73531	1068.05
499.81612	1070.35
503.89401	1075.35
507.96899	1066.15
512.04106	1063.85
516.11023	1068.05
520.1765	1050.35
524.23987	1051.15
528.30034	1047.65
532.35792	1040.25
536.41261	1040.85
540.46441	1037.45
544.51333	1037.65
548.55936	1032.15
552.60252	1042.95
556.64279	1043.95
560.6802	1043.35
564.71473	1048.15
568.7464	1047.65
572.7752	1054.95
576.80114	1041.95
580.82422	1041.75
584.84444	1042.85
588.86181	1044.35
592.87633	1047.15
596.888	1056.45
600.89682	1057.15
604.9028	1082.65
608.90594	1121.35
612.90624	1170.95
616.90371	1169.85
620.89834	1118.15
624.89015	1097.35
628.87913	1085.65
632.86528	1084.55
636.84862	1089.75
640.82913	1094.35
644.80683	1097.05
648.78172	1096.85
652.75379	1106.35
656.72306	1104.55
660.68952	1118.55
664.65319	1127.15
668.61405	1136.35
672.57211	1146.25
676.52738	1161.55
680.47986	1187.65
684.42955	1199.75
688.37646	1223.25
692.32058	1223.95
696.26192	1197.25
700.20048	1187.05
704.13626	1160.25
708.06928	1145.05
711.99952	1143.25
715.927	1140.55
719.85171	1141.25
723.77365	1129.05
727.69284	1115.75
731.60928	1111.75
735.52295	1114.05
739.43388	1119.05
743.34206	1121.85
747.24749	1130.35
751.15017	1113.65
755.05012	1093.15
758.94733	1129.95
762.8418	1132.55
766.73354	1158.55
770.62254	1180.35
774.50882	1196.45
778.39237	1198.35
782.27321	1172.15
786.15132	1152.45
790.02671	1141.15
793.89938	1137.95
797.76935	1135.05
801.6366	1136.15
805.50115	1135.65
809.36299	1141.15
813.22213	1133.05
817.07857	1138.05
820.93231	1117.55
824.78336	1112.75
828.63172	1102.85
832.47738	1108.55
836.32036	1107.85
840.16066	1101.75
843.99827	1107.25
847.8332	1105.65
851.66546	1099.45
855.49504	1100.85
859.32195	1098.25
863.1462	1102.25
866.96777	1096.45
870.78668	1097.25
874.60293	1092.35
878.41652	1098.05
882.22745	1104.75
886.03573	1105.55
889.84136	1111.55
893.64433	1111.45
897.44466	1115.45
901.24235	1122.55
905.0374	1124.35
908.8298	1129.65
912.61957	1128.55
916.40671	1128.85
920.19121	1140.85
923.97308	1149.25
927.75233	1147.35
931.52895	1146.55
935.30295	1135.25
939.07433	1131.75
942.84309	1124.75
946.60924	1119.85
950.37278	1116.95
954.13371	1114.45
957.89203	1121.45
961.64774	1108.65
965.40086	1105.85
969.15137	1096.95
972.89929	1087.05
976.64461	1091.05
980.38733	1092.35
984.12747	1090.25
987.86502	1095.85
991.59999	1085.45
995.33237	1091.65
999.06217	1093.55
1002.78939	1101.75
1006.51404	1102.35
1010.23611	1097.85
1013.95561	1104.35
1017.67255	1110.75
1021.38692	1108.35
1025.09872	1110.45
1028.80796	1112.25
1032.51465	1110.75
1036.21877	1105.35
1039.92035	1118.15
1043.61937	1114.35
1047.31584	1120.75
1051.00976	1113.45
1054.70114	1120.65
1058.38998	1121.85
1062.07627	1123.15
1065.76003	1118.55
1069.44126	1119.65
1073.11995	1119.25
1076.79611	1120.05
1080.46974	1121.45
1084.14085	1114.05
1087.80943	1103.75
1091.47549	1105.35
1095.13903	1109.25
1098.80005	1104.65
1102.45857	1097.85
1106.11456	1088.05
1109.76805	1094.65
1113.41903	1099.75
1117.06751	1108.75
1120.71348	1117.45
1124.35696	1123.55
1127.99793	1135.05
1131.63641	1142.65
1135.2724	1151.35
1138.90589	1146.55
1142.5369	1152.15
1146.16542	1145.45
1149.79145	1137.65
1153.415	1135.45
1157.03607	1119.55
1160.65467	1120.65
1164.27079	1117.85
1167.88443	1125.25
1171.49561	1132.45
1175.10432	1139.75
1178.71056	1150.15
1182.31434	1182.55
1185.91565	1185.85
1189.51451	1179.05
1193.11091	1173.25
1196.70485	1168.75
1200.29634	1157.05
1203.88538	1155.05
1207.47197	1151.45
1211.05612	1142.25
1214.63782	1139.75
1218.21708	1155.75
1221.79391	1151.05
1225.36829	1150.45
1228.94024	1153.85
1232.50976	1160.95
1236.07685	1160.15
1239.6415	1158.05
1243.20374	1162.05
1246.76355	1155.95
1250.32093	1151.55
1253.8759	1157.25
1257.42845	1158.75
1260.97859	1155.95
1264.52631	1175.45
1268.07163	1184.95
1271.61453	1181.05
1275.15503	1187.85
1278.69312	1190.65
1282.22882	1187.95
1285.76211	1197.45
1289.29301	1210.85
1292.82151	1216.75
1296.34761	1231.55
1299.87133	1261.15
1303.39266	1280.85
1306.9116	1299.55
1310.42815	1327.25
1313.94233	1345.75
1317.45412	1336.45
1320.96354	1324.65
1324.47058	1312.95
1327.97525	1300.75
1331.47754	1302.05
1334.97747	1305.15
1338.47502	1300.75
1341.97022	1308.65
1345.46305	1328.95
1348.95352	1352.05
1352.44163	1370.95
1355.92738	1400.95
1359.41078	1426.95
1362.89183	1455.55
1366.37053	1463.15
1369.84688	1402.35
1373.32088	1357.85
1376.79254	1299.85
1380.26186	1288.85
1383.72883	1270.75
1387.19347	1257.95
1390.65578	1246.15
1394.11575	1241.55
1397.57339	1233.85
1401.0287	1228.05
1404.48168	1223.45
1407.93234	1207.75
1411.38068	1201.65
1414.82669	1197.15
1418.27039	1189.55
1421.71177	1187.05
1425.15083	1171.85
1428.58758	1162.25
1432.02203	1150.25
1435.45416	1144.55
1438.88399	1138.95
1442.31151	1131.45
1445.73673	1125.55
1449.15965	1138.85
1452.58027	1137.05
1455.9986	1136.85
1459.41463	1125.85
1462.82837	1135.95
1466.23982	1128.65
1469.64898	1143.55
1473.05586	1139.55
1476.46045	1139.85
1479.86276	1145.15
1483.26279	1153.15
1486.66054	1156.45
1490.05602	1157.55
1493.44922	1172.15
1496.84016	1194.65
1500.22882	1209.75
1503.61521	1232.15
1506.99934	1262.35
1510.38121	1289.95
1513.76081	1280.05
1517.13816	1258.75
1520.51324	1234.25
1523.88607	1205.85
1527.25665	1202.35
1530.62498	1184.65
1533.99105	1192.65
1537.35488	1198.85
1540.71647	1200.85
1544.07581	1201.85
1547.4329	1211.15
1550.78776	1212.65
1554.14038	1217.55
1557.49077	1232.25
1560.83892	1239.65
1564.18484	1239.55
1567.52853	1237.75
1570.86999	1247.55
1574.20922	1245.75
1577.54624	1248.05
1580.88103	1239.35
1584.2136	1233.55
1587.54395	1217.75
1590.87208	1212.25
1594.19801	1197.85
1597.52172	1195.85
1600.84321	1201.05
1604.16251	1177.45
1607.47959	1170.45
1610.79447	1163.65
1614.10715	1152.05
1617.41763	1142.45
1620.7259	1129.85
1624.03199	1128.75
1627.33587	1112.35
1630.63757	1100.35
1633.93707	1097.35
1637.23439	1096.05
1640.52951	1088.45
1643.82246	1080.85
1647.11321	1098.15
1650.40179	1095.95
1653.68819	1081.95
1656.97241	1055.85
1660.25446	1032.95
1663.53433	996.45
1666.81203	982.35
1670.08756	973.65
1673.36092	986.35
1676.63211	975.65
1679.90115	973.55
1683.16801	965.15
1686.43272	952.75
1689.69527	945.15
1692.95567	914.95
1696.2139	890.15
1699.46999	859.35
1702.72392	855.05
1705.97571	871.35
1709.22535	890.25
1712.47284	904.05
1715.71819	916.45
1718.96139	908.15
1722.20246	902.95
1725.44139	891.55
1728.67818	871.45
1731.91284	877.75
1735.14537	880.25
1738.37576	861.45
1741.60403	858.55
1744.83017	839.35
1748.05418	831.15
1751.27607	821.85
1754.49584	810.25
1757.71349	788.85
1760.92903	777.45
1764.14244	774.35
1767.35375	766.45
1770.56294	772.05
1773.77002	775.55
1776.97499	778.95
1780.17785	798.05
1783.37861	810.05
1786.57727	814.85
1789.77382	817.65
1792.96828	817.35
1796.16064	808.45
1799.3509	809.85
1802.53907	811.65
1805.72514	810.95
1808.90913	808.45
1812.09102	805.65
1815.27083	804.95
1818.44856	805.45
1821.6242	804.75
1824.79776	795.05
1827.96924	798.55
1831.13864	798.45
1834.30597	796.35
1837.47122	790.65
1840.6344	796.05
1843.7955	798.25
1846.95454	794.25
1850.11151	795.85
1853.26642	795.15
1856.41926	794.65
1859.57004	790.55
1862.71876	794.35
1865.86542	785.75
1869.01003	786.45
1872.15258	793.05
1875.29308	787.65
1878.43152	780.55
1881.56792	780.65
1884.70227	780.25
1887.83457	774.25
1890.96482	776.35
1894.09304	778.25
1897.21921	777.55
1900.34335	779.05
1903.46544	777.75
1906.58551	774.15
1909.70353	771.75
1912.81953	775.95
1915.93349	775.55
1919.04543	776.85
1922.15534	776.15
1925.26322	770.55
1928.36908	771.75
1931.47292	767.55
1934.57473	776.75
1937.67453	774.45
1940.77232	769.55
1943.86808	762.75
1946.96184	763.55
1950.05358	755.25
1953.14331	758.75
1956.23103	748.45
1959.31675	760.85
1962.40046	750.25
1965.48217	744.65
1968.56188	746.05
1971.63959	748.35
1974.7153	742.15
1977.78901	740.55
1980.86073	741.25
1983.93046	734.75
1986.99819	731.15
1990.06394	725.95
1993.1277	729.85
1996.18947	724.65
1999.24925	734.45
2002.30706	730.65
2005.36288	715.35
2008.41672	725.85
2011.46859	718.25
2014.51848	716.85
2017.56639	712.85
2020.61233	717.45
2023.6563	719.15
2026.6983	708.35
2029.73833	711.85
2032.7764	710.55
2035.8125	704.75
2038.84664	711.15
2041.87881	708.55
2044.90903	703.45
2047.93729	705.45
2050.96359	702.55
2053.98794	706.05
2057.01034	704.15
2060.03078	700.35
2063.04927	708.95
2066.06582	710.45
2069.08042	706.55
2072.09307	719.25
2075.10378	712.95
2078.11255	718.95
2081.11938	716.05
2084.12426	719.65
2087.12722	725.15
2090.12824	719.45
2093.12732	722.65
2096.12447	724.95
2099.11969	727.35
2102.11299	735.75
2105.10435	733.65
2108.09379	735.75
2111.08131	733.25
2114.0669	736.35
2117.05057	731.45
2120.03233	740.75
2123.01216	730.45
2125.99008	735.75
2128.96609	737.85
2131.94018	739.95
2134.91236	733.55
2137.88263	732.25
2140.851	733.55
2143.81746	736.05
2146.78201	731.05
2149.74466	730.65
2152.7054	734.05
2155.66425	727.45
2158.6212	738.85
2161.57625	729.85
2164.52941	730.15
2167.48067	734.85
2170.43004	731.95
2173.37752	726.95
2176.32311	730.85
2179.26681	722.55
2182.20863	731.45
2185.14856	728.05
2188.08661	725.25
2191.02278	724.95
2193.95707	720.35
2196.88948	702.95
2199.82001	717.95
2202.74867	718.05
2205.67545	712.25
2208.60037	713.15
2211.52341	712.75
2214.44458	708.95
2217.36388	701.65
2220.28132	706.25
2223.1969	703.65
2226.11061	699.75
2229.02246	699.35
2231.93245	705.05
2234.84058	694.05
2237.74686	701.45
2240.65128	696.05
2243.55385	689.85
2246.45456	693.35
2249.35343	696.15
2252.25044	693.35
2255.14561	690.95
2258.03893	687.05
2260.93041	672.45
2263.82004	675.15
2266.70783	675.05
2269.59378	686.35
2272.4779	677.95
2275.36017	682.25
2278.24061	680.55
2281.11922	675.35
2283.996	673.25
2286.87094	675.85
2289.74405	679.05
2292.61534	678.05
2295.4848	673.85
2298.35243	674.15
2301.21824	672.45
2304.08223	676.85
2306.94439	673.05
2309.80474	671.25
2312.66327	671.35
2315.51999	675.05
2318.37489	676.25
2321.22797	660.05
2324.07925	670.85
2326.92871	672.55
2329.77637	668.05
2332.62222	664.15
2335.46626	663.15
2338.3085	658.95
2341.14893	656.85
2343.98756	661.25
2346.8244	664.05
2349.65943	657.95
2352.49267	652.15
2355.32411	652.05
2358.15376	660.65
2360.98161	653.05
2363.80768	660.55
2366.63195	662.65
2369.45444	665.15
2372.27514	660.95
2375.09405	661.15
2377.91118	660.25
2380.72652	656.35
2383.54009	653.65
2386.35187	650.85
2389.16188	660.35
2391.97011	664.05
2394.77657	660.95
2397.58125	649.75
2400.38416	658.15
2403.18529	646.85
2405.98466	643.45
2408.78226	646.75
2411.57809	648.05
2414.37216	644.85
2417.16446	643.05
2419.955	646.25
2422.74378	639.85
2425.5308	643.85
2428.31606	644.85
2431.09956	647.05
2433.88131	645.15
2436.6613	646.55
2439.43954	646.05
2442.21603	646.65
2444.99077	641.25
2447.76377	644.85
2450.53501	642.65
2453.30451	640.95
2456.07226	642.75
2458.83827	642.25
2461.60254	641.85
2464.36507	637.45
2467.12586	636.95
2469.88492	637.05
2472.64224	630.15
2475.39782	633.75
2478.15167	630.65
2480.90379	632.45
2483.65417	633.45
2486.40283	638.15
2489.14976	639.35
2491.89497	637.75
2494.63845	623.45
2497.3802	628.05
2500.12024	623.85
2502.85855	629.45
2505.59514	631.45
2508.33002	628.25
2511.06318	635.05
2513.79462	639.85
2516.52435	628.45
2519.25237	633.75
2521.97867	631.95
2524.70327	627.35
2527.42616	632.25
2530.14734	631.15
2532.86681	631.05
2535.58458	629.55
2538.30065	629.45
2541.01501	626.35
2543.72768	629.75
2546.43864	620.35
2549.14791	627.35
2551.85548	621.75
2554.56136	621.55
2557.26554	622.85
2559.96803	619.35
2562.66883	623.05
2565.36794	619.65
2568.06536	618.55
2570.7611	617.35
2573.45514	617.45
2576.14751	618.75
2578.83819	607.05
2581.52719	619.35
2584.21451	607.65
2586.90015	607.65
2589.58411	606.35
2592.2664	609.65
2594.94701	613.55
2597.62594	610.45
2600.30321	618.15
2602.9788	609.85
2605.65273	609.05
2608.32498	611.45
2610.99557	605.55
2613.66449	602.05
2616.33175	608.45
2618.99734	609.15
2621.66128	599.45
2624.32355	601.45
2626.98416	607.55
2629.64311	604.55
2632.30041	606.25
2634.95605	602.25
2637.61004	605.85
2640.26238	601.25
2642.91306	603.55
2645.56209	598.55
2648.20948	597.85
2650.85521	600.85
2653.4993	600.85
2656.14175	599.45
2658.78255	604.15
2661.42171	596.65
2664.05923	603.05
2666.6951	598.75
2669.32934	597.65
2671.96194	601.25
2674.59291	600.45
2677.22224	599.55
2679.84993	602.25
2682.476	599.95
2685.10043	606.45
2687.72324	603.75
2690.34441	600.85
2692.96396	599.35
2695.58188	607.85
2698.19818	605.55
2700.81285	594.15
2703.4259	587.55
2706.03733	542.95
2708.64714	569.45
2711.25533	580.95
2713.86191	592.85
2716.46687	595.15
2719.07021	595.75
2721.67194	611.05
2724.27206	601.65
2726.87057	609.85
2729.46747	605.95
2732.06276	613.25
2734.65644	605.55
2737.24852	610.45
2739.83899	604.45
2742.42786	612.15
2745.01513	602.15
2747.60079	605.95
2750.18486	603.15
2752.76733	605.05
2755.3482	606.25
2757.92747	602.45
2760.50515	602.15
2763.08123	603.65
2765.65573	602.05
2768.22863	604.35
2770.79994	606.25
2773.36967	604.95
2775.9378	606.85
2778.50435	597.75
2781.06932	598.35
2783.6327	596.95
2786.1945	597.75
2788.75471	601.05
2791.31335	601.75
2793.87041	599.65
2796.42589	598.85
2798.97979	601.95
2801.53212	600.25
2804.08288	600.05
2806.63206	586.55
2809.17967	585.15
2811.72571	589.35
2814.27018	597.35
2816.81308	589.55
2819.35442	591.05
2821.89419	584.45
2824.43239	588.15
2826.96904	586.85
2829.50412	586.85
2832.03763	590.45
2834.56959	582.75
2837.1	589.25
2839.62884	585.65
2842.15613	591.15
2844.68186	587.05
2847.20604	583.25
2849.72867	584.55
2852.24974	590.75
2854.76927	584.25
2857.28724	571.85
2859.80367	581.35
2862.31855	584.85
2864.83189	586.85
2867.34368	587.35
2869.85393	582.45
2872.36264	588.85
2874.8698	589.85
2877.37543	585.85
2879.87952	590.85
2882.38207	586.45
2884.88308	587.85
2887.38256	588.05
2889.88051	592.65
2892.37692	600.45
2894.8718	593.95
2897.36515	601.75
2899.85698	599.75
2902.34727	589.05
2904.83604	604.15
2907.32328	596.65
2909.809	603.95
2912.29319	611.25
2914.77587	607.95
2917.25702	605.05
2919.73665	609.05
2922.21476	606.65
2924.69136	609.55
2927.16644	609.85
2929.64	612.65
2932.11205	617.75
2934.58258	608.95
2937.05161	610.45
2939.51912	618.95
2941.98513	609.75
2944.44962	614.35
2946.91261	607.95
2949.37409	615.25
2951.83407	617.05
2954.29254	618.95
2956.74951	624.85
2959.20498	623.25
2961.65895	616.45
2964.11142	622.25
2966.56239	618.95
2969.01186	618.85
2971.45984	623.45
2973.90632	623.95
2976.35131	623.15
2978.7948	627.85
2981.23681	630.55
2983.67732	628.85
2986.11635	629.55
2988.55388	623.95
2990.98993	623.95
2993.4245	629.05
2995.85758	634.95
2998.28917	629.05
3000.71928	637.05
3003.14791	628.75
3005.57506	633.65
3008.00073	629.05
3010.42493	636.95
3012.84764	629.85
3015.26888	638.85
3017.68865	640.45
3020.10694	634.35
3022.52376	645.85
3024.9391	642.15
3027.35298	646.25
3029.76539	656.65
3032.17632	652.65
3034.5858	648.65
3036.9938	654.75
3039.40034	655.45
3041.80542	660.95
3044.20903	664.25
3046.61118	665.85
3049.01187	672.75
3051.4111	668.95
3053.80888	675.25
3056.20519	681.45
3058.60005	684.45
3060.99345	682.75
3063.3854	685.95
3065.7759	691.45
3068.16494	691.65
3070.55254	690.45
3072.93868	699.75
3075.32338	699.45
3077.70662	700.35
3080.08842	707.55
3082.46878	708.15
3084.84769	713.25
3087.22515	723.15
3089.60118	724.25
3091.97576	731.85
3094.3489	723.35
3096.72061	736.05
3099.09087	738.45
3101.4597	749.25
3103.82709	756.55
3106.19305	759.95
3108.55757	767.25
3110.92066	773.85
3113.28232	781.65
3115.64255	783.15
3118.00134	789.45
3120.35871	797.65
3122.71466	800.25
3125.06917	803.95
3127.42226	804.45
3129.77393	818.95
3132.12417	822.55
3134.47299	832.15
3136.82039	828.65
3139.16636	843.05
3141.51092	852.75
3143.85406	853.25
3146.19579	853.25
3148.53609	865.45
3150.87499	869.55
3153.21246	880.15
3155.54853	888.25
3157.88318	890.35
3160.21642	910.25
3162.54826	912.05
3164.87868	914.65
3167.2077	930.15
3169.5353	933.45
3171.86151	937.25
3174.18631	946.95
3176.5097	956.35
3178.83169	955.25
3181.15228	966.05
3183.47147	977.65
3185.78926	981.05
3188.10565	982.45
3190.42065	985.25
3192.73424	994.15
3195.04645	991.05
3197.35725	993.25
3199.66667	995.95
3201.97469	1009.95
3204.28132	1016.25
3206.58656	1022.15
3208.8904	1021.75
3211.19287	1031.45
3213.49394	1035.25
3215.79363	1039.45
3218.09193	1042.25
3220.38884	1040.65
3222.68438	1034.05
3224.97853	1044.65
3227.2713	1051.95
3229.56269	1052.85
3231.8527	1060.15
3234.14133	1064.25
3236.42858	1053.15
3238.71446	1056.75
3240.99896	1059.05
3243.28209	1062.35
3245.56384	1061.75
3247.84423	1052.05
3250.12324	1061.35
3252.40088	1056.75
3254.67715	1056.15
3256.95205	1065.45
3259.22558	1064.35
3261.49775	1067.85
3263.76855	1062.15
3266.03799	1075.05
3268.30606	1073.45
3270.57277	1069.25
3272.83812	1068.45
3275.10211	1066.45
3277.36474	1066.95
3279.62601	1066.35
3281.88593	1066.45
3284.14448	1069.95
3286.40168	1071.25
3288.65753	1066.25
3290.91202	1071.15
3293.16516	1068.45
3295.41695	1064.55
3297.66738	1059.25
3299.91647	1059.45
3302.16421	1047.85
3304.4106	1039.55
3306.65564	1038.55
3308.89933	1032.95
3311.14169	1021.85
3313.38269	1013.75
3315.62236	1009.45
3317.86068	1001.65
3320.09766	994.45
3322.3333	989.75
3324.5676	983.25
3326.80056	956.15
3329.03219	959.55
3331.26248	-0.05
3333.49143	0.85
3335.71905	-2.85
