Data from AgNPs_APTES_FTO_UA_100uM_CRN_0uM_R6G_10uM_Scan_RamanShift__42__11-28-41-284.txt Node

Date: Wed Jun 29 11:28:41 BST 2022
User: TCL
Spectrometer: QEP01345
Trigger mode: 4
Integration Time (sec): 7.000000E0
Scans to average: 10
Electric dark correction enabled: true
Nonlinearity correction enabled: false
Boxcar width: 0
XAxis mode: Raman Shifts
Number of Pixels in Spectrum: 1044
>>>>>Begin Spectral Data<<<<<
46.04893	-0.275
50.45542	0.525
54.85868	0.125
59.25871	1.625
63.6555	37.925
68.04907	42.825
72.43941	43.025
76.82654	44.925
81.21044	49.925
85.59113	51.225
89.96862	56.425
94.34289	57.525
98.71396	61.625
103.08183	61.525
107.4465	60.425
111.80798	62.625
116.16626	57.825
120.52136	61.525
124.87327	57.325
129.222	59.725
133.56755	58.525
137.90993	55.325
142.24913	57.325
146.58517	53.225
150.91804	54.425
155.24774	56.125
159.57429	65.125
163.89768	65.525
168.21792	77.225
172.53501	85.225
176.84895	108.725
181.15975	141.425
185.46741	176.725
189.77193	235.225
194.07331	294.625
198.37157	372.625
202.6667	453.825
206.9587	526.725
211.24758	615.525
215.53334	694.825
219.81599	783.525
224.09553	877.425
228.37195	979.225
232.64527	1098.725
236.91549	1212.425
241.18261	1303.025
245.44663	1407.525
249.70755	1494.725
253.96539	1545.225
258.22014	1602.225
262.4718	1641.125
266.72039	1667.425
270.96589	1672.225
275.20832	1670.625
279.44768	1634.525
283.68397	1598.125
287.91719	1568.725
292.14735	1555.225
296.37445	1567.825
300.59849	1598.225
304.81948	1644.325
309.03742	1670.325
313.25231	1683.525
317.46415	1641.925
321.67296	1570.725
325.87872	1515.325
330.08145	1495.025
334.28114	1497.725
338.47781	1513.825
342.67145	1542.125
346.86207	1583.625
351.04966	1649.925
355.23424	1720.225
359.4158	1780.925
363.59435	1817.025
367.76989	1836.525
371.94243	1823.125
376.11196	1847.125
380.27849	1858.725
384.44203	1851.125
388.60257	1844.225
392.76012	1849.625
396.91468	1860.625
401.06626	1888.125
405.21485	1914.225
409.36047	1885.825
413.50311	1836.825
417.64277	1776.825
421.77947	1737.825
425.9132	1739.925
430.04396	1727.925
434.17176	1743.425
438.2966	1749.525
442.41849	1787.925
446.53742	1815.825
450.6534	1851.125
454.76644	1856.925
458.87653	1877.625
462.98368	1859.025
467.08789	1858.325
471.18916	1846.025
475.2875	1829.425
479.38291	1817.225
483.4754	1801.425
487.56496	1792.025
491.6516	1806.825
495.73531	1819.925
499.81612	1819.425
503.89401	1810.725
507.96899	1823.725
512.04106	1831.925
516.11023	1848.525
520.1765	1879.425
524.23987	1881.725
528.30034	1871.225
532.35792	1875.725
536.41261	1855.925
540.46441	1822.525
544.51333	1801.625
548.55936	1801.225
552.60252	1825.625
556.64279	1835.925
560.6802	1848.625
564.71473	1857.425
568.7464	1907.625
572.7752	1918.625
576.80114	1876.325
580.82422	1843.025
584.84444	1845.825
588.86181	1871.825
592.87633	1900.125
596.888	1922.725
600.89682	1956.125
604.9028	2098.725
608.90594	2485.025
612.90624	2949.225
616.90371	2840.925
620.89834	2275.325
624.89015	2019.625
628.87913	2015.025
632.86528	2073.225
636.84862	2113.925
640.82913	2098.625
644.80683	2017.125
648.78172	1955.625
652.75379	1941.425
656.72306	1956.025
660.68952	2007.125
664.65319	1982.725
668.61405	1918.425
672.57211	1916.325
676.52738	1938.425
680.47986	1950.325
684.42955	1982.225
688.37646	1994.525
692.32058	1995.325
696.26192	1989.125
700.20048	1970.625
704.13626	1948.725
708.06928	1929.325
711.99952	1907.125
715.927	1910.325
719.85171	1911.625
723.77365	1909.825
727.69284	1908.625
731.60928	1902.425
735.52295	1904.225
739.43388	1896.425
743.34206	1889.525
747.24749	1887.625
751.15017	1891.025
755.05012	1876.125
758.94733	1943.825
762.8418	2080.725
766.73354	2287.725
770.62254	2524.225
774.50882	2625.825
778.39237	2573.325
782.27321	2372.425
786.15132	2143.925
790.02671	2009.925
793.89938	1951.725
797.76935	1917.925
801.6366	1912.125
805.50115	1928.925
809.36299	1932.725
813.22213	1935.325
817.07857	1931.925
820.93231	1899.525
824.78336	1882.225
828.63172	1870.225
832.47738	1867.025
836.32036	1853.425
840.16066	1858.225
843.99827	1861.525
847.8332	1857.225
851.66546	1855.425
855.49504	1861.925
859.32195	1859.725
863.1462	1856.625
866.96777	1864.325
870.78668	1860.525
874.60293	1875.025
878.41652	1886.125
882.22745	1907.725
886.03573	1924.125
889.84136	1924.325
893.64433	1923.725
897.44466	1896.025
901.24235	1880.225
905.0374	1855.225
908.8298	1851.225
912.61957	1826.425
916.40671	1825.925
920.19121	1827.225
923.97308	1834.025
927.75233	1857.525
931.52895	1875.525
935.30295	1870.425
939.07433	1836.825
942.84309	1812.825
946.60924	1801.125
950.37278	1790.425
954.13371	1795.625
957.89203	1795.025
961.64774	1792.625
965.40086	1778.825
969.15137	1782.125
972.89929	1760.425
976.64461	1765.725
980.38733	1758.325
984.12747	1765.425
987.86502	1760.725
991.59999	1765.625
995.33237	1786.625
999.06217	1814.225
1002.78939	1844.925
1006.51404	1872.025
1010.23611	1891.825
1013.95561	1919.725
1017.67255	1924.725
1021.38692	1911.425
1025.09872	1910.025
1028.80796	1888.225
1032.51465	1889.725
1036.21877	1894.225
1039.92035	1901.925
1043.61937	1893.225
1047.31584	1881.025
1051.00976	1878.225
1054.70114	1867.325
1058.38998	1867.125
1062.07627	1884.125
1065.76003	1884.725
1069.44126	1910.325
1073.11995	1924.025
1076.79611	1952.725
1080.46974	1975.925
1084.14085	2012.925
1087.80943	2021.125
1091.47549	2017.325
1095.13903	1984.225
1098.80005	1941.225
1102.45857	1927.425
1106.11456	1915.625
1109.76805	1931.925
1113.41903	1962.025
1117.06751	2021.725
1120.71348	2089.425
1124.35696	2179.425
1127.99793	2271.925
1131.63641	2304.925
1135.2724	2259.625
1138.90589	2201.825
1142.5369	2151.825
1146.16542	2083.925
1149.79145	2020.825
1153.415	1973.125
1157.03607	1956.025
1160.65467	1955.525
1164.27079	1982.625
1167.88443	2049.525
1171.49561	2139.825
1175.10432	2313.125
1178.71056	2526.925
1182.31434	2716.525
1185.91565	2776.025
1189.51451	2726.225
1193.11091	2599.925
1196.70485	2494.125
1200.29634	2409.625
1203.88538	2346.325
1207.47197	2251.825
1211.05612	2159.525
1214.63782	2092.325
1218.21708	2056.525
1221.79391	2057.325
1225.36829	2042.825
1228.94024	2031.325
1232.50976	2017.025
1236.07685	2007.425
1239.6415	2019.025
1243.20374	2017.025
1246.76355	2029.625
1250.32093	2037.425
1253.8759	2072.525
1257.42845	2113.225
1260.97859	2151.825
1264.52631	2191.525
1268.07163	2261.625
1271.61453	2291.125
1275.15503	2329.425
1278.69312	2336.625
1282.22882	2357.625
1285.76211	2391.025
1289.29301	2442.525
1292.82151	2499.325
1296.34761	2572.925
1299.87133	2688.525
1303.39266	2846.225
1306.9116	3114.725
1310.42815	3381.725
1313.94233	3502.225
1317.45412	3376.025
1320.96354	3144.525
1324.47058	2904.225
1327.97525	2706.025
1331.47754	2602.925
1334.97747	2560.325
1338.47502	2568.825
1341.97022	2631.325
1345.46305	2743.225
1348.95352	2921.525
1352.44163	3142.125
1355.92738	3435.325
1359.41078	3867.925
1362.89183	4242.625
1366.37053	4148.025
1369.84688	3584.725
1373.32088	3050.225
1376.79254	2745.725
1380.26186	2588.325
1383.72883	2479.825
1387.19347	2382.425
1390.65578	2306.525
1394.11575	2239.225
1397.57339	2194.125
1401.0287	2177.025
1404.48168	2173.925
1407.93234	2146.625
1411.38068	2142.125
1414.82669	2120.025
1418.27039	2116.025
1421.71177	2099.325
1425.15083	2080.625
1428.58758	2085.025
1432.02203	2087.525
1435.45416	2130.325
1438.88399	2132.125
1442.31151	2126.225
1445.73673	2136.125
1449.15965	2146.525
1452.58027	2161.225
1455.9986	2159.625
1459.41463	2163.325
1462.82837	2187.825
1466.23982	2218.225
1469.64898	2261.025
1473.05586	2276.625
1476.46045	2277.125
1479.86276	2290.725
1483.26279	2313.425
1486.66054	2332.325
1490.05602	2351.325
1493.44922	2426.225
1496.84016	2554.625
1500.22882	2788.925
1503.61521	3095.625
1506.99934	3454.425
1510.38121	3754.325
1513.76081	3812.325
1517.13816	3555.825
1520.51324	3157.725
1523.88607	2794.125
1527.25665	2555.425
1530.62498	2420.525
1533.99105	2350.125
1537.35488	2295.725
1540.71647	2276.025
1544.07581	2259.425
1547.4329	2257.625
1550.78776	2277.325
1554.14038	2277.925
1557.49077	2301.525
1560.83892	2339.925
1564.18484	2375.325
1567.52853	2440.225
1570.86999	2525.325
1574.20922	2568.425
1577.54624	2559.825
1580.88103	2473.125
1584.2136	2353.825
1587.54395	2242.725
1590.87208	2231.225
1594.19801	2282.525
1597.52172	2396.925
1600.84321	2438.825
1604.16251	2392.725
1607.47959	2300.525
1610.79447	2199.325
1614.10715	2101.025
1617.41763	2028.425
1620.7259	1968.225
1624.03199	1951.825
1627.33587	1942.825
1630.63757	1953.925
1633.93707	2018.325
1637.23439	2098.525
1640.52951	2239.625
1643.82246	2469.225
1647.11321	2720.025
1650.40179	2887.225
1653.68819	2838.625
1656.97241	2554.325
1660.25446	2247.625
1663.53433	2033.225
1666.81203	1901.225
1670.08756	1836.225
1673.36092	1794.725
1676.63211	1762.825
1679.90115	1733.525
1683.16801	1716.525
1686.43272	1682.625
1689.69527	1674.225
1692.95567	1646.225
1696.2139	1627.425
1699.46999	1609.325
1702.72392	1585.325
1705.97571	1566.325
1709.22535	1561.125
1712.47284	1551.425
1715.71819	1546.225
1718.96139	1533.725
1722.20246	1523.325
1725.44139	1501.225
1728.67818	1483.425
1731.91284	1473.225
1735.14537	1470.925
1738.37576	1453.625
1741.60403	1457.625
1744.83017	1434.025
1748.05418	1430.825
1751.27607	1413.725
1754.49584	1414.925
1757.71349	1402.625
1760.92903	1393.925
1764.14244	1390.925
1767.35375	1384.025
1770.56294	1383.225
1773.77002	1374.125
1776.97499	1366.125
1780.17785	1365.525
1783.37861	1373.425
1786.57727	1370.325
1789.77382	1373.725
1792.96828	1365.325
1796.16064	1364.525
1799.3509	1360.425
1802.53907	1356.525
1805.72514	1359.125
1808.90913	1346.425
1812.09102	1354.025
1815.27083	1339.325
1818.44856	1334.925
1821.6242	1330.325
1824.79776	1328.725
1827.96924	1324.025
1831.13864	1322.425
1834.30597	1320.825
1837.47122	1315.225
1840.6344	1316.125
1843.7955	1317.925
1846.95454	1314.825
1850.11151	1307.825
1853.26642	1310.825
1856.41926	1310.925
1859.57004	1301.725
1862.71876	1311.925
1865.86542	1298.325
1869.01003	1301.925
1872.15258	1304.825
1875.29308	1297.825
1878.43152	1303.125
1881.56792	1298.225
1884.70227	1291.625
1887.83457	1294.025
1890.96482	1299.325
1894.09304	1283.425
1897.21921	1285.125
1900.34335	1287.025
1903.46544	1287.825
1906.58551	1281.525
1909.70353	1275.525
1912.81953	1279.525
1915.93349	1277.925
1919.04543	1279.025
1922.15534	1269.525
1925.26322	1274.925
1928.36908	1265.925
1931.47292	1265.225
1934.57473	1261.525
1937.67453	1266.125
1940.77232	1256.825
1943.86808	1254.625
1946.96184	1244.025
1950.05358	1246.525
1953.14331	1247.825
1956.23103	1247.025
1959.31675	1231.425
1962.40046	1236.525
1965.48217	1225.325
1968.56188	1226.025
1971.63959	1232.225
1974.7153	1216.825
1977.78901	1214.925
1980.86073	1215.425
1983.93046	1204.625
1986.99819	1206.825
1990.06394	1198.525
1993.1277	1193.825
1996.18947	1186.625
1999.24925	1190.425
2002.30706	1187.025
2005.36288	1181.525
2008.41672	1183.525
2011.46859	1170.625
2014.51848	1169.025
2017.56639	1168.925
2020.61233	1163.025
2023.6563	1164.425
2026.6983	1147.025
2029.73833	1156.525
2032.7764	1151.825
2035.8125	1153.225
2038.84664	1148.525
2041.87881	1150.325
2044.90903	1146.325
2047.93729	1139.625
2050.96359	1141.525
2053.98794	1146.025
2057.01034	1141.425
2060.03078	1136.825
2063.04927	1146.225
2066.06582	1139.825
2069.08042	1129.625
2072.09307	1145.425
2075.10378	1145.025
2078.11255	1142.125
2081.11938	1140.325
2084.12426	1135.425
2087.12722	1139.825
2090.12824	1140.225
2093.12732	1142.125
2096.12447	1138.125
2099.11969	1137.325
2102.11299	1137.425
2105.10435	1145.425
2108.09379	1135.825
2111.08131	1142.525
2114.0669	1142.725
2117.05057	1145.325
2120.03233	1138.925
2123.01216	1154.625
2125.99008	1138.825
2128.96609	1137.225
2131.94018	1137.125
2134.91236	1144.725
2137.88263	1145.525
2140.851	1143.625
2143.81746	1144.925
2146.78201	1136.325
2149.74466	1147.925
2152.7054	1136.625
2155.66425	1139.125
2158.6212	1137.025
2161.57625	1131.725
2164.52941	1137.525
2167.48067	1130.725
2170.43004	1133.925
2173.37752	1131.525
2176.32311	1127.525
2179.26681	1136.425
2182.20863	1126.725
2185.14856	1129.725
2188.08661	1135.225
2191.02278	1131.925
2193.95707	1127.725
2196.88948	1118.025
2199.82001	1128.425
2202.74867	1127.025
2205.67545	1126.625
2208.60037	1119.025
2211.52341	1124.025
2214.44458	1115.625
2217.36388	1110.525
2220.28132	1116.425
2223.1969	1119.525
2226.11061	1116.125
2229.02246	1107.125
2231.93245	1103.025
2234.84058	1104.125
2237.74686	1100.325
2240.65128	1105.325
2243.55385	1098.725
2246.45456	1097.425
2249.35343	1099.325
2252.25044	1102.725
2255.14561	1097.025
2258.03893	1098.425
2260.93041	1092.025
2263.82004	1089.425
2266.70783	1090.525
2269.59378	1088.525
2272.4779	1079.825
2275.36017	1084.325
2278.24061	1070.325
2281.11922	1069.525
2283.996	1069.925
2286.87094	1078.225
2289.74405	1066.125
2292.61534	1071.425
2295.4848	1063.925
2298.35243	1057.925
2301.21824	1063.725
2304.08223	1068.425
2306.94439	1060.925
2309.80474	1062.125
2312.66327	1064.225
2315.51999	1058.025
2318.37489	1060.125
2321.22797	1058.725
2324.07925	1063.125
2326.92871	1064.925
2329.77637	1062.925
2332.62222	1063.325
2335.46626	1056.925
2338.3085	1051.125
2341.14893	1056.325
2343.98756	1044.825
2346.8244	1051.525
2349.65943	1055.025
2352.49267	1049.925
2355.32411	1044.725
2358.15376	1044.925
2360.98161	1042.925
2363.80768	1050.525
2366.63195	1055.425
2369.45444	1056.925
2372.27514	1056.625
2375.09405	1046.325
2377.91118	1038.425
2380.72652	1045.125
2383.54009	1040.625
2386.35187	1035.025
2389.16188	1035.825
2391.97011	1036.125
2394.77657	1033.225
2397.58125	1029.225
2400.38416	1030.725
2403.18529	1028.425
2405.98466	1023.225
2408.78226	1020.825
2411.57809	1024.425
2414.37216	1019.525
2417.16446	1029.525
2419.955	1016.825
2422.74378	1015.825
2425.5308	1014.725
2428.31606	1013.625
2431.09956	1015.125
2433.88131	1009.325
2436.6613	1019.225
2439.43954	1010.025
2442.21603	1013.025
2444.99077	1002.925
2447.76377	1015.625
2450.53501	1009.525
2453.30451	1008.125
2456.07226	1009.325
2458.83827	1012.525
2461.60254	1004.925
2464.36507	1008.225
2467.12586	1007.625
2469.88492	1003.225
2472.64224	1010.225
2475.39782	999.425
2478.15167	1000.825
2480.90379	1002.425
2483.65417	1008.625
2486.40283	1015.025
2489.14976	1007.925
2491.89497	1008.725
2494.63845	1004.525
2497.3802	1002.925
2500.12024	1007.125
2502.85855	997.625
2505.59514	1000.225
2508.33002	1003.125
2511.06318	997.325
2513.79462	1000.925
2516.52435	995.925
2519.25237	997.725
2521.97867	986.925
2524.70327	987.725
2527.42616	994.425
2530.14734	978.325
2532.86681	978.225
2535.58458	987.225
2538.30065	977.525
2541.01501	975.725
2543.72768	981.125
2546.43864	981.925
2549.14791	980.525
2551.85548	976.125
2554.56136	980.625
2557.26554	979.425
2559.96803	977.725
2562.66883	977.725
2565.36794	971.325
2568.06536	970.225
2570.7611	971.825
2573.45514	969.125
2576.14751	970.325
2578.83819	956.925
2581.52719	960.625
2584.21451	960.325
2586.90015	959.425
2589.58411	962.525
2592.2664	962.925
2594.94701	957.425
2597.62594	958.525
2600.30321	960.725
2602.9788	949.525
2605.65273	958.725
2608.32498	949.925
2610.99557	954.425
2613.66449	952.825
2616.33175	957.525
2618.99734	955.125
2621.66128	940.325
2624.32355	944.225
2626.98416	949.125
2629.64311	945.425
2632.30041	944.325
2634.95605	939.325
2637.61004	942.225
2640.26238	940.425
2642.91306	926.925
2645.56209	935.125
2648.20948	931.825
2650.85521	935.025
2653.4993	935.125
2656.14175	935.725
2658.78255	938.125
2661.42171	941.125
2664.05923	938.725
2666.6951	942.825
2669.32934	935.925
2671.96194	941.525
2674.59291	941.925
2677.22224	935.125
2679.84993	940.725
2682.476	941.125
2685.10043	936.125
2687.72324	944.625
2690.34441	935.725
2692.96396	935.425
2695.58188	939.625
2698.19818	932.925
2700.81285	932.525
2703.4259	925.825
2706.03733	917.325
2708.64714	926.425
2711.25533	935.925
2713.86191	938.825
2716.46687	946.525
2719.07021	935.925
2721.67194	945.225
2724.27206	941.125
2726.87057	941.525
2729.46747	945.425
2732.06276	941.625
2734.65644	943.025
2737.24852	948.625
2739.83899	945.825
2742.42786	942.025
2745.01513	940.525
2747.60079	940.825
2750.18486	935.125
2752.76733	932.125
2755.3482	933.925
2757.92747	934.025
2760.50515	927.425
2763.08123	928.125
2765.65573	934.525
2768.22863	933.125
2770.79994	928.125
2773.36967	930.425
2775.9378	927.625
2778.50435	933.825
2781.06932	934.325
2783.6327	933.325
2786.1945	936.425
2788.75471	932.525
2791.31335	932.325
2793.87041	923.025
2796.42589	924.425
2798.97979	926.325
2801.53212	919.325
2804.08288	924.125
2806.63206	917.425
2809.17967	911.325
2811.72571	914.825
2814.27018	920.925
2816.81308	911.925
2819.35442	914.225
2821.89419	909.025
2824.43239	917.825
2826.96904	913.525
2829.50412	908.725
2832.03763	911.725
2834.56959	913.725
2837.1	911.825
2839.62884	908.725
2842.15613	909.925
2844.68186	911.925
2847.20604	907.425
2849.72867	910.425
2852.24974	915.725
2854.76927	919.425
2857.28724	908.325
2859.80367	917.225
2862.31855	917.425
2864.83189	919.325
2867.34368	918.725
2869.85393	917.625
2872.36264	915.925
2874.8698	918.425
2877.37543	917.825
2879.87952	923.725
2882.38207	918.425
2884.88308	922.325
2887.38256	919.125
2889.88051	928.425
2892.37692	925.825
2894.8718	923.725
2897.36515	922.925
2899.85698	930.725
2902.34727	933.925
2904.83604	928.725
2907.32328	936.325
2909.809	936.825
2912.29319	934.225
2914.77587	940.625
2917.25702	942.825
2919.73665	939.425
2922.21476	936.025
2924.69136	944.525
2927.16644	942.125
2929.64	943.125
2932.11205	941.225
2934.58258	945.125
2937.05161	936.625
2939.51912	938.725
2941.98513	943.625
2944.44962	929.825
2946.91261	937.525
2949.37409	938.125
2951.83407	943.225
2954.29254	942.225
2956.74951	945.125
2959.20498	943.525
2961.65895	937.225
2964.11142	941.825
2966.56239	938.125
2969.01186	933.525
2971.45984	936.225
2973.90632	933.825
2976.35131	941.625
2978.7948	938.125
2981.23681	948.625
2983.67732	937.625
2986.11635	932.825
2988.55388	931.125
2990.98993	931.825
2993.4245	939.025
2995.85758	935.125
2998.28917	933.725
3000.71928	937.125
3003.14791	931.025
3005.57506	929.825
3008.00073	939.425
3010.42493	933.425
3012.84764	940.925
3015.26888	938.325
3017.68865	938.025
3020.10694	939.125
3022.52376	950.125
3024.9391	946.225
3027.35298	951.325
3029.76539	940.125
3032.17632	942.525
3034.5858	944.125
3036.9938	953.425
3039.40034	953.425
3041.80542	955.225
3044.20903	952.325
3046.61118	959.625
3049.01187	957.725
3051.4111	960.025
3053.80888	963.425
3056.20519	979.425
3058.60005	972.625
3060.99345	976.825
3063.3854	966.925
3065.7759	966.725
3068.16494	979.325
3070.55254	978.025
3072.93868	975.925
3075.32338	985.525
3077.70662	978.925
3080.08842	985.125
3082.46878	985.225
3084.84769	989.825
3087.22515	998.225
3089.60118	1009.625
3091.97576	1010.625
3094.3489	1009.825
3096.72061	1013.725
3099.09087	1026.225
3101.4597	1025.725
3103.82709	1041.725
3106.19305	1042.225
3108.55757	1048.425
3110.92066	1046.925
3113.28232	1045.425
3115.64255	1065.825
3118.00134	1068.225
3120.35871	1063.825
3122.71466	1074.825
3125.06917	1082.525
3127.42226	1078.325
3129.77393	1091.725
3132.12417	1095.725
3134.47299	1093.125
3136.82039	1103.925
3139.16636	1112.125
3141.51092	1115.025
3143.85406	1126.925
3146.19579	1132.125
3148.53609	1141.225
3150.87499	1149.425
3153.21246	1160.625
3155.54853	1160.425
3157.88318	1171.925
3160.21642	1179.825
3162.54826	1189.625
3164.87868	1197.125
3167.2077	1208.325
3169.5353	1207.025
3171.86151	1214.325
3174.18631	1223.025
3176.5097	1225.025
3178.83169	1234.925
3181.15228	1244.025
3183.47147	1249.025
3185.78926	1246.525
3188.10565	1258.625
3190.42065	1261.725
3192.73424	1268.725
3195.04645	1267.825
3197.35725	1268.525
3199.66667	1280.525
3201.97469	1289.825
3204.28132	1292.425
3206.58656	1299.625
3208.8904	1300.925
3211.19287	1310.125
3213.49394	1312.025
3215.79363	1311.525
3218.09193	1322.325
3220.38884	1329.325
3222.68438	1326.325
3224.97853	1328.125
3227.2713	1332.225
3229.56269	1331.525
3231.8527	1338.125
3234.14133	1336.125
3236.42858	1340.125
3238.71446	1339.325
3240.99896	1335.025
3243.28209	1336.025
3245.56384	1339.425
3247.84423	1326.925
3250.12324	1333.025
3252.40088	1343.525
3254.67715	1339.425
3256.95205	1343.525
3259.22558	1345.925
3261.49775	1345.925
3263.76855	1339.125
3266.03799	1356.825
