Data from AgNPs_APTES_FTO_UA_100uM_CRN_0uM_R6G_10uM_Scan_RamanShift__46__11-33-21-290.txt Node

Date: Wed Jun 29 11:33:21 BST 2022
User: TCL
Spectrometer: QEP01345
Trigger mode: 4
Integration Time (sec): 7.000000E0
Scans to average: 10
Electric dark correction enabled: true
Nonlinearity correction enabled: false
Boxcar width: 0
XAxis mode: Raman Shifts
Number of Pixels in Spectrum: 1044
>>>>>Begin Spectral Data<<<<<
46.04893	0.3
50.45542	1.8
54.85868	0.7
59.25871	-0.2
63.6555	37.6
68.04907	38
72.43941	42.9
76.82654	42.3
81.21044	47
85.59113	50.9
89.96862	52.4
94.34289	56.8
98.71396	59.4
103.08183	61.3
107.4465	60.3
111.80798	63.2
116.16626	58
120.52136	60.5
124.87327	54.6
129.222	58
133.56755	56.7
137.90993	53.1
142.24913	57.5
146.58517	52.9
150.91804	51.7
155.24774	55.4
159.57429	62.7
163.89768	65.7
168.21792	71.1
172.53501	81.8
176.84895	99.6
181.15975	130.4
185.46741	169.2
189.77193	220.3
194.07331	282.8
198.37157	363.4
202.6667	433.2
206.9587	509.4
211.24758	595.7
215.53334	666.7
219.81599	756.1
224.09553	853.4
228.37195	955.5
232.64527	1065.7
236.91549	1178.4
241.18261	1278.4
245.44663	1377.3
249.70755	1435.1
253.96539	1495.9
258.22014	1538.7
262.4718	1597.1
266.72039	1619.6
270.96589	1624.2
275.20832	1616.2
279.44768	1577
283.68397	1540.8
287.91719	1508.7
292.14735	1508.6
296.37445	1521.7
300.59849	1568.8
304.81948	1610.4
309.03742	1644.7
313.25231	1639.2
317.46415	1604.8
321.67296	1536.8
325.87872	1467.5
330.08145	1441.5
334.28114	1444
338.47781	1469.2
342.67145	1497.2
346.86207	1549.4
351.04966	1612.4
355.23424	1687.6
359.4158	1757.8
363.59435	1783.5
367.76989	1804.8
371.94243	1807.9
376.11196	1807.9
380.27849	1802.1
384.44203	1818.7
388.60257	1804.4
392.76012	1808.8
396.91468	1804.5
401.06626	1849.2
405.21485	1865.8
409.36047	1843.6
413.50311	1784.2
417.64277	1713.3
421.77947	1678.1
425.9132	1661.9
430.04396	1673.2
434.17176	1670.6
438.2966	1689.8
442.41849	1725.7
446.53742	1765.7
450.6534	1790.5
454.76644	1807.5
458.87653	1819.8
462.98368	1805.4
467.08789	1791.2
471.18916	1774.1
475.2875	1757.7
479.38291	1745.4
483.4754	1748.1
487.56496	1745.3
491.6516	1747.8
495.73531	1760.9
499.81612	1759.4
503.89401	1749.5
507.96899	1764.9
512.04106	1771
516.11023	1800.3
520.1765	1812.5
524.23987	1822.4
528.30034	1818.3
532.35792	1810
536.41261	1797
540.46441	1762.5
544.51333	1742.8
548.55936	1739.3
552.60252	1749.4
556.64279	1777.3
560.6802	1792.2
564.71473	1808.8
568.7464	1855.2
572.7752	1863.4
576.80114	1821.9
580.82422	1779.5
584.84444	1772.4
588.86181	1789.9
592.87633	1819.1
596.888	1843.6
600.89682	1881.9
604.9028	2037.2
608.90594	2460.8
612.90624	2959.2
616.90371	2832.9
620.89834	2248
624.89015	1988.4
628.87913	1988.7
632.86528	2039.9
636.84862	2093.9
640.82913	2059.8
644.80683	1993.3
648.78172	1904.5
652.75379	1882.7
656.72306	1895.8
660.68952	1932.9
664.65319	1926.5
668.61405	1873
672.57211	1836.2
676.52738	1851.4
680.47986	1868.7
684.42955	1881.2
688.37646	1890.1
692.32058	1888.8
696.26192	1884.5
700.20048	1881.3
704.13626	1854
708.06928	1847.2
711.99952	1821.2
715.927	1831.1
719.85171	1833.3
723.77365	1838.2
727.69284	1848.1
731.60928	1846
735.52295	1848.2
739.43388	1814.3
743.34206	1829.2
747.24749	1828.8
751.15017	1822.5
755.05012	1807
758.94733	1882.8
762.8418	2030.7
766.73354	2264
770.62254	2489.9
774.50882	2618
778.39237	2563.8
782.27321	2328.1
786.15132	2090.9
790.02671	1947.4
793.89938	1883.4
797.76935	1856.7
801.6366	1847.7
805.50115	1870.4
809.36299	1895.1
813.22213	1887.3
817.07857	1869.5
820.93231	1849.2
824.78336	1832.3
828.63172	1811.5
832.47738	1811.3
836.32036	1800.9
840.16066	1786.8
843.99827	1804.3
847.8332	1808
851.66546	1791
855.49504	1788.4
859.32195	1793.9
863.1462	1797.2
866.96777	1799.8
870.78668	1801.7
874.60293	1807.5
878.41652	1831.3
882.22745	1862.1
886.03573	1873.2
889.84136	1877.9
893.64433	1869.2
897.44466	1845.3
901.24235	1823.2
905.0374	1800.8
908.8298	1789.1
912.61957	1775.4
916.40671	1776.9
920.19121	1780.2
923.97308	1784.3
927.75233	1796.4
931.52895	1823.5
935.30295	1806.8
939.07433	1776.9
942.84309	1756
946.60924	1737.2
950.37278	1737
954.13371	1740.5
957.89203	1737.6
961.64774	1736.8
965.40086	1715.9
969.15137	1721.2
972.89929	1704.5
976.64461	1710.6
980.38733	1701.8
984.12747	1703.1
987.86502	1708.9
991.59999	1714.1
995.33237	1737.8
999.06217	1772
1002.78939	1799.4
1006.51404	1841.9
1010.23611	1854.2
1013.95561	1883.8
1017.67255	1888.9
1021.38692	1880.1
1025.09872	1856.4
1028.80796	1854.4
1032.51465	1861.4
1036.21877	1863.9
1039.92035	1870.4
1043.61937	1857.1
1047.31584	1838.7
1051.00976	1824.9
1054.70114	1817.7
1058.38998	1832.1
1062.07627	1835
1065.76003	1839.9
1069.44126	1849.2
1073.11995	1872.2
1076.79611	1887.6
1080.46974	1927.4
1084.14085	1947.7
1087.80943	1981.5
1091.47549	1976.8
1095.13903	1939.3
1098.80005	1906
1102.45857	1865.8
1106.11456	1871.7
1109.76805	1882.4
1113.41903	1930
1117.06751	1978.5
1120.71348	2057
1124.35696	2162.2
1127.99793	2260.6
1131.63641	2287.1
1135.2724	2265.8
1138.90589	2184.6
1142.5369	2121.7
1146.16542	2035
1149.79145	1983.2
1153.415	1930.3
1157.03607	1904.5
1160.65467	1911.2
1164.27079	1935.7
1167.88443	2001
1171.49561	2086.7
1175.10432	2250.3
1178.71056	2482.3
1182.31434	2681.6
1185.91565	2727.1
1189.51451	2678.7
1193.11091	2550
1196.70485	2444.8
1200.29634	2364.9
1203.88538	2303.8
1207.47197	2212.5
1211.05612	2122.4
1214.63782	2054.4
1218.21708	2010.7
1221.79391	1989.4
1225.36829	1990.4
1228.94024	1971.6
1232.50976	1962.6
1236.07685	1953.8
1239.6415	1964
1243.20374	1971.3
1246.76355	1984.2
1250.32093	2000.6
1253.8759	2020.1
1257.42845	2049
1260.97859	2095
1264.52631	2155.2
1268.07163	2213.3
1271.61453	2253
1275.15503	2278.4
1278.69312	2300.4
1282.22882	2306.9
1285.76211	2338.5
1289.29301	2400.8
1292.82151	2448.3
1296.34761	2520.3
1299.87133	2640.8
1303.39266	2814.6
1306.9116	3095.5
1310.42815	3378.4
1313.94233	3493.4
1317.45412	3340
1320.96354	3060.8
1324.47058	2821.8
1327.97525	2630.6
1331.47754	2515.4
1334.97747	2483.1
1338.47502	2507.6
1341.97022	2574.9
1345.46305	2713.8
1348.95352	2918.4
1352.44163	3143.2
1355.92738	3446.4
1359.41078	3896.6
1362.89183	4304.7
1366.37053	4151.1
1369.84688	3545.5
1373.32088	3008
1376.79254	2694.5
1380.26186	2521.5
1383.72883	2420.9
1387.19347	2313.6
1390.65578	2228.8
1394.11575	2174.6
1397.57339	2124.6
1401.0287	2097.4
1404.48168	2090.2
1407.93234	2081.6
1411.38068	2075.6
1414.82669	2076.3
1418.27039	2073.7
1421.71177	2054.6
1425.15083	2025.6
1428.58758	2027.2
1432.02203	2048.6
1435.45416	2065.1
1438.88399	2087
1442.31151	2086.2
1445.73673	2080.7
1449.15965	2089.4
1452.58027	2111.2
1455.9986	2105.9
1459.41463	2107.1
1462.82837	2132.1
1466.23982	2171
1469.64898	2202.9
1473.05586	2215.6
1476.46045	2217
1479.86276	2229.3
1483.26279	2243.6
1486.66054	2270.9
1490.05602	2314.8
1493.44922	2387.1
1496.84016	2556
1500.22882	2799.6
1503.61521	3147.1
1506.99934	3545.3
1510.38121	3861.9
1513.76081	3924.6
1517.13816	3638.4
1520.51324	3191.7
1523.88607	2794
1527.25665	2537.8
1530.62498	2395.1
1533.99105	2302.9
1537.35488	2250.8
1540.71647	2231.4
1544.07581	2225.8
1547.4329	2226.2
1550.78776	2227.5
1554.14038	2252.7
1557.49077	2274.7
1560.83892	2313.9
1564.18484	2371.7
1567.52853	2441.7
1570.86999	2516.5
1574.20922	2551
1577.54624	2543.1
1580.88103	2439.8
1584.2136	2306
1587.54395	2216.6
1590.87208	2190.3
1594.19801	2257.2
1597.52172	2358.9
1600.84321	2398.9
1604.16251	2358.6
1607.47959	2267.3
1610.79447	2174.5
1614.10715	2072.4
1617.41763	2012.3
1620.7259	1960.8
1624.03199	1942.3
1627.33587	1936.6
1630.63757	1960.1
1633.93707	2008.4
1637.23439	2089.7
1640.52951	2251.6
1643.82246	2463.3
1647.11321	2730.9
1650.40179	2911.3
1653.68819	2864.1
1656.97241	2574.8
1660.25446	2251.3
1663.53433	2020.8
1666.81203	1902.9
1670.08756	1813.8
1673.36092	1777.8
1676.63211	1750.5
1679.90115	1711
1683.16801	1685.6
1686.43272	1673.3
1689.69527	1659.7
1692.95567	1645.9
1696.2139	1629
1699.46999	1599.7
1702.72392	1580.6
1705.97571	1557.3
1709.22535	1562.3
1712.47284	1539.5
1715.71819	1546
1718.96139	1525.2
1722.20246	1513.6
1725.44139	1495.8
1728.67818	1479.5
1731.91284	1462.9
1735.14537	1454.1
1738.37576	1442.2
1741.60403	1435.3
1744.83017	1425.7
1748.05418	1425
1751.27607	1408.9
1754.49584	1404.7
1757.71349	1402.1
1760.92903	1385.7
1764.14244	1402
1767.35375	1381.8
1770.56294	1387.5
1773.77002	1390
1776.97499	1366.4
1780.17785	1369.7
1783.37861	1372.9
1786.57727	1369.7
1789.77382	1364.4
1792.96828	1362.4
1796.16064	1357.9
1799.3509	1359.9
1802.53907	1354.3
1805.72514	1356
1808.90913	1343
1812.09102	1341.8
1815.27083	1339.5
1818.44856	1336.9
1821.6242	1337.5
1824.79776	1331.6
1827.96924	1327.5
1831.13864	1330.6
1834.30597	1323.4
1837.47122	1324.3
1840.6344	1322.7
1843.7955	1321.4
1846.95454	1316.3
1850.11151	1316.9
1853.26642	1304.6
1856.41926	1306.8
1859.57004	1304.6
1862.71876	1312.2
1865.86542	1306.1
1869.01003	1308.8
1872.15258	1304.2
1875.29308	1312.7
1878.43152	1297.3
1881.56792	1306.5
1884.70227	1300.5
1887.83457	1300.4
1890.96482	1293.3
1894.09304	1290.2
1897.21921	1296.6
1900.34335	1290.4
1903.46544	1295.7
1906.58551	1292.2
1909.70353	1287.3
1912.81953	1293
1915.93349	1284.6
1919.04543	1288.1
1922.15534	1285.2
1925.26322	1278.8
1928.36908	1276.5
1931.47292	1266.6
1934.57473	1268.2
1937.67453	1275.8
1940.77232	1268.1
1943.86808	1265.7
1946.96184	1257
1950.05358	1252.2
1953.14331	1255.4
1956.23103	1249.6
1959.31675	1252.1
1962.40046	1237
1965.48217	1233.4
1968.56188	1233.4
1971.63959	1243.2
1974.7153	1233.2
1977.78901	1227.3
1980.86073	1220.5
1983.93046	1222.4
1986.99819	1220.1
1990.06394	1211.3
1993.1277	1205.4
1996.18947	1203.1
1999.24925	1204.9
2002.30706	1192.9
2005.36288	1187.1
2008.41672	1182.6
2011.46859	1180.4
2014.51848	1182.6
2017.56639	1175.7
2020.61233	1180.6
2023.6563	1175.2
2026.6983	1174.2
2029.73833	1180.3
2032.7764	1157.4
2035.8125	1163.6
2038.84664	1163.6
2041.87881	1157.4
2044.90903	1154.1
2047.93729	1155.6
2050.96359	1148.3
2053.98794	1149.2
2057.01034	1150.1
2060.03078	1146.3
2063.04927	1150.5
2066.06582	1155.2
2069.08042	1145.3
2072.09307	1152.8
2075.10378	1151.1
2078.11255	1154.2
2081.11938	1155.8
2084.12426	1148.9
2087.12722	1157.4
2090.12824	1147.4
2093.12732	1145.9
2096.12447	1149.2
2099.11969	1149.3
2102.11299	1150.8
2105.10435	1143.3
2108.09379	1147.7
2111.08131	1156.1
2114.0669	1145.9
2117.05057	1160.2
2120.03233	1159.4
2123.01216	1161.2
2125.99008	1153.7
2128.96609	1158
2131.94018	1161.1
2134.91236	1150.5
2137.88263	1159.5
2140.851	1160.3
2143.81746	1156.2
2146.78201	1160.8
2149.74466	1160.1
2152.7054	1154.5
2155.66425	1157.9
2158.6212	1162.8
2161.57625	1162.8
2164.52941	1152.4
2167.48067	1156.2
2170.43004	1163.3
2173.37752	1154.5
2176.32311	1153.4
2179.26681	1151.9
2182.20863	1154.6
2185.14856	1154
2188.08661	1163.2
2191.02278	1155.7
2193.95707	1142.9
2196.88948	1146.7
2199.82001	1149.7
2202.74867	1147.2
2205.67545	1143.8
2208.60037	1147.5
2211.52341	1143.3
2214.44458	1143.2
2217.36388	1142.8
2220.28132	1134.9
2223.1969	1134.6
2226.11061	1142.9
2229.02246	1134.4
2231.93245	1130.9
2234.84058	1129.8
2237.74686	1123.2
2240.65128	1129.6
2243.55385	1122.7
2246.45456	1122.1
2249.35343	1127.7
2252.25044	1122.3
2255.14561	1124.6
2258.03893	1121
2260.93041	1117
2263.82004	1118.4
2266.70783	1121.1
2269.59378	1117.3
2272.4779	1111.8
2275.36017	1106.9
2278.24061	1103
2281.11922	1099.9
2283.996	1095.9
2286.87094	1098.2
2289.74405	1092.8
2292.61534	1089.7
2295.4848	1096.8
2298.35243	1090.9
2301.21824	1097.2
2304.08223	1095
2306.94439	1083
2309.80474	1095
2312.66327	1091.8
2315.51999	1090.4
2318.37489	1093.1
2321.22797	1084.4
2324.07925	1089
2326.92871	1089.5
2329.77637	1094.3
2332.62222	1085.3
2335.46626	1084
2338.3085	1079.3
2341.14893	1079.1
2343.98756	1083.8
2346.8244	1087.3
2349.65943	1079.1
2352.49267	1081.6
2355.32411	1081.4
2358.15376	1081.4
2360.98161	1082.9
2363.80768	1084.9
2366.63195	1091.3
2369.45444	1085.7
2372.27514	1086.2
2375.09405	1079.4
2377.91118	1083.3
2380.72652	1077.1
2383.54009	1081.8
2386.35187	1068.8
2389.16188	1065.9
2391.97011	1065.3
2394.77657	1067.1
2397.58125	1060.7
2400.38416	1060.2
2403.18529	1054.9
2405.98466	1056.3
2408.78226	1051.5
2411.57809	1048.8
2414.37216	1066.3
2417.16446	1042.6
2419.955	1049.7
2422.74378	1051.7
2425.5308	1045
2428.31606	1049.4
2431.09956	1043.3
2433.88131	1048.2
2436.6613	1052
2439.43954	1039.6
2442.21603	1048.4
2444.99077	1046.7
2447.76377	1054.3
2450.53501	1055.3
2453.30451	1049.2
2456.07226	1040.6
2458.83827	1041.3
2461.60254	1042.4
2464.36507	1041.6
2467.12586	1064.6
2469.88492	1043.2
2472.64224	1041.6
2475.39782	1047.2
2478.15167	1034.1
2480.90379	1037.6
2483.65417	1054.2
2486.40283	1047.7
2489.14976	1045.8
2491.89497	1039.4
2494.63845	1042
2497.3802	1052.9
2500.12024	1044.5
2502.85855	1043.7
2505.59514	1045.5
2508.33002	1034.2
2511.06318	1036.7
2513.79462	1029.5
2516.52435	1028.9
2519.25237	1030.1
2521.97867	1029.8
2524.70327	1027.3
2527.42616	1024.9
2530.14734	1018.5
2532.86681	1016.4
2535.58458	1027.1
2538.30065	1028.1
2541.01501	1018.9
2543.72768	1022.8
2546.43864	1013.1
2549.14791	1018.1
2551.85548	1017.2
2554.56136	1017.7
2557.26554	1015.1
2559.96803	1014.3
2562.66883	1011.6
2565.36794	1014.9
2568.06536	1009.3
2570.7611	1005.3
2573.45514	1010
2576.14751	1010.4
2578.83819	997.8
2581.52719	1000
2584.21451	1004.4
2586.90015	1000.3
2589.58411	1002.4
2592.2664	1002
2594.94701	1005.4
2597.62594	1001.9
2600.30321	1000.6
2602.9788	996.6
2605.65273	996.9
2608.32498	993.7
2610.99557	994.7
2613.66449	994.4
2616.33175	989.5
2618.99734	988
2621.66128	992.5
2624.32355	988.8
2626.98416	987.5
2629.64311	989.3
2632.30041	987.8
2634.95605	980.5
2637.61004	986.1
2640.26238	976.8
2642.91306	984.6
2645.56209	982.8
2648.20948	986
2650.85521	976.9
2653.4993	984.8
2656.14175	982.7
2658.78255	983.9
2661.42171	982.4
2664.05923	984.5
2666.6951	982.2
2669.32934	986.4
2671.96194	986.1
2674.59291	983.8
2677.22224	981.7
2679.84993	984.4
2682.476	982.8
2685.10043	985.4
2687.72324	986.4
2690.34441	985.5
2692.96396	981.8
2695.58188	986.1
2698.19818	987.8
2700.81285	977.6
2703.4259	978.5
2706.03733	971.6
2708.64714	971.9
2711.25533	982.2
2713.86191	971.8
2716.46687	980.8
2719.07021	986.3
2721.67194	990.1
2724.27206	980.2
2726.87057	995.4
2729.46747	997.5
2732.06276	993
2734.65644	985.2
2737.24852	995
2739.83899	984.7
2742.42786	1001.8
2745.01513	984.8
2747.60079	981.1
2750.18486	986.5
2752.76733	976.4
2755.3482	984.1
2757.92747	977.7
2760.50515	975.5
2763.08123	977.2
2765.65573	976.3
2768.22863	981.1
2770.79994	976.2
2773.36967	984.1
2775.9378	976.6
2778.50435	980.8
2781.06932	978.9
2783.6327	976.5
2786.1945	977.4
2788.75471	973.6
2791.31335	973
2793.87041	978.5
2796.42589	970.6
2798.97979	977.7
2801.53212	968.5
2804.08288	974.6
2806.63206	972.7
2809.17967	964.3
2811.72571	963.4
2814.27018	967.3
2816.81308	964.5
2819.35442	963.5
2821.89419	959.2
2824.43239	961.2
2826.96904	960.7
2829.50412	964.5
2832.03763	961.7
2834.56959	963.4
2837.1	957.8
2839.62884	958.6
2842.15613	959.4
2844.68186	957.6
2847.20604	965.6
2849.72867	961.9
2852.24974	962.9
2854.76927	969.7
2857.28724	963.6
2859.80367	969.4
2862.31855	968.2
2864.83189	971.5
2867.34368	967.3
2869.85393	961.7
2872.36264	965
2874.8698	976.2
2877.37543	976.6
2879.87952	976.9
2882.38207	969.6
2884.88308	970.6
2887.38256	978.4
2889.88051	969.3
2892.37692	984.4
2894.8718	983
2897.36515	982.7
2899.85698	976.8
2902.34727	978.2
2904.83604	988.1
2907.32328	993.8
2909.809	990.9
2912.29319	989.2
2914.77587	980.3
2917.25702	991.8
2919.73665	991.2
2922.21476	986.6
2924.69136	988.3
2927.16644	994.3
2929.64	991.1
2932.11205	991.7
2934.58258	987.9
2937.05161	989.8
2939.51912	991.5
2941.98513	981.9
2944.44962	983.4
2946.91261	988
2949.37409	988.8
2951.83407	991.9
2954.29254	994.7
2956.74951	992.1
2959.20498	989.5
2961.65895	988.1
2964.11142	1000.9
2966.56239	982.2
2969.01186	993.6
2971.45984	992.9
2973.90632	989.5
2976.35131	987.3
2978.7948	991.1
2981.23681	986.8
2983.67732	985.4
2986.11635	983.9
2988.55388	983.1
2990.98993	986.4
2993.4245	987.1
2995.85758	985.6
2998.28917	990.6
3000.71928	991.6
3003.14791	986
3005.57506	986.4
3008.00073	983.9
3010.42493	990.8
3012.84764	990
3015.26888	995.3
3017.68865	988.8
3020.10694	983.8
3022.52376	989.2
3024.9391	998.3
3027.35298	996
3029.76539	994.9
3032.17632	1002.2
3034.5858	995.6
3036.9938	1001.6
3039.40034	1005.6
3041.80542	1008.4
3044.20903	1012.2
3046.61118	1014.1
3049.01187	1003.8
3051.4111	1007
3053.80888	1022.6
3056.20519	1022.9
3058.60005	1020.7
3060.99345	1022.6
3063.3854	1020
3065.7759	1032.5
3068.16494	1035.6
3070.55254	1024.9
3072.93868	1029.1
3075.32338	1033.5
3077.70662	1031.2
3080.08842	1043.2
3082.46878	1041.5
3084.84769	1045.8
3087.22515	1049.3
3089.60118	1050.8
3091.97576	1073.4
3094.3489	1060
3096.72061	1074
3099.09087	1074.8
3101.4597	1087.3
3103.82709	1088.1
3106.19305	1089.3
3108.55757	1101.3
3110.92066	1102
3113.28232	1106.9
3115.64255	1109.1
3118.00134	1114.2
3120.35871	1115.1
3122.71466	1122.3
3125.06917	1127.1
3127.42226	1130.9
3129.77393	1140.6
3132.12417	1140.4
3134.47299	1148.5
3136.82039	1158.5
3139.16636	1163
3141.51092	1174.1
3143.85406	1171.6
3146.19579	1178.4
3148.53609	1184.7
3150.87499	1191.5
3153.21246	1207.5
3155.54853	1220.3
3157.88318	1223.1
3160.21642	1233.5
3162.54826	1242.5
3164.87868	1244
3167.2077	1243.3
3169.5353	1260
3171.86151	1262.2
3174.18631	1270.4
3176.5097	1278.8
3178.83169	1281.2
3181.15228	1290.9
3183.47147	1291.1
3185.78926	1303.8
3188.10565	1301.2
3190.42065	1309.4
3192.73424	1310.1
3195.04645	1312.2
3197.35725	1315.6
3199.66667	1319.6
3201.97469	1335.2
3204.28132	1334.2
3206.58656	1347.9
3208.8904	1344.8
3211.19287	1358.3
3213.49394	1365.6
3215.79363	1376.2
3218.09193	1377.9
3220.38884	1375.6
3222.68438	1381.8
3224.97853	1384.3
3227.2713	1387
3229.56269	1383.6
3231.8527	1393.5
3234.14133	1387.6
3236.42858	1389.9
3238.71446	1385
3240.99896	1380.4
3243.28209	1382
3245.56384	1386.4
3247.84423	1386.6
3250.12324	1387.8
3252.40088	1390.5
3254.67715	1386.1
3256.95205	1381.8
3259.22558	1390.9
3261.49775	1385.4
3263.76855	1394.3
3266.03799	1396.4
3268.30606	1388.4
3270.57277	1397.3
3272.83812	1391.1
3275.10211	1387
3277.36474	1394.8
3279.62601	1395.9
3281.88593	1384
3284.14448	1385
3286.40168	1395
3288.65753	1389.2
3290.91202	1400.6
3293.16516	1386.2
3295.41695	1380.8
3297.66738	1383
3299.91647	1378.1
3302.16421	1359.6
3304.4106	1364.9
3306.65564	1346.9
3308.89933	1343.3
3311.14169	1327.8
3313.38269	1326.4
3315.62236	1332.5
3317.86068	1308.7
3320.09766	1301.1
3322.3333	1291
3324.5676	1272.8
3326.80056	1262.3
3329.03219	1250.2
3331.26248	-1.1
3333.49143	0.3
3335.71905	-2.6
