Data from AgNPs_APTES_FTO_UA_100uM_CRN_0uM_R6G_10uM_Scan_RamanShift__14__10-56-01-245.txt Node

Date: Wed Jun 29 10:56:01 BST 2022
User: TCL
Spectrometer: QEP01345
Trigger mode: 4
Integration Time (sec): 7.000000E0
Scans to average: 10
Electric dark correction enabled: true
Nonlinearity correction enabled: false
Boxcar width: 0
XAxis mode: Raman Shifts
Number of Pixels in Spectrum: 1044
>>>>>Begin Spectral Data<<<<<
46.04893	-0.175
50.45542	1.325
54.85868	0.825
59.25871	1.225
63.6555	34.925
68.04907	35.925
72.43941	38.725
76.82654	39.325
81.21044	44.525
85.59113	44.125
89.96862	49.825
94.34289	52.825
98.71396	52.125
103.08183	54.925
107.4465	53.625
111.80798	55.025
116.16626	54.525
120.52136	53.325
124.87327	52.025
129.222	52.325
133.56755	53.325
137.90993	46.125
142.24913	49.225
146.58517	47.225
150.91804	45.725
155.24774	46.025
159.57429	50.325
163.89768	53.425
168.21792	62.925
172.53501	63.525
176.84895	77.325
181.15975	96.825
185.46741	122.025
189.77193	156.725
194.07331	204.125
198.37157	255.225
202.6667	305.425
206.9587	352.825
211.24758	411.625
215.53334	465.925
219.81599	528.925
224.09553	581.025
228.37195	644.725
232.64527	718.725
236.91549	789.525
241.18261	856.025
245.44663	932.325
249.70755	997.325
253.96539	1042.225
258.22014	1089.425
262.4718	1116.125
266.72039	1123.525
270.96589	1124.525
275.20832	1090.925
279.44768	1077.925
283.68397	1054.225
287.91719	1021.925
292.14735	991.325
296.37445	970.125
300.59849	958.325
304.81948	950.125
309.03742	949.425
313.25231	938.725
317.46415	917.525
321.67296	917.525
325.87872	891.625
330.08145	886.025
334.28114	894.825
338.47781	902.125
342.67145	910.925
346.86207	920.225
351.04966	934.425
355.23424	952.025
359.4158	963.425
363.59435	972.525
367.76989	979.525
371.94243	992.225
376.11196	993.425
380.27849	994.525
384.44203	1001.425
388.60257	1005.025
392.76012	1012.425
396.91468	1028.525
401.06626	1037.225
405.21485	1032.725
409.36047	1036.525
413.50311	1026.125
417.64277	1018.225
421.77947	1015.425
425.9132	1009.425
430.04396	1012.425
434.17176	1018.525
438.2966	1028.825
442.41849	1042.525
446.53742	1056.325
450.6534	1059.125
454.76644	1076.525
458.87653	1077.125
462.98368	1089.225
467.08789	1086.325
471.18916	1088.225
475.2875	1093.125
479.38291	1090.925
483.4754	1095.425
487.56496	1100.125
491.6516	1096.025
495.73531	1099.325
499.81612	1096.025
503.89401	1096.125
507.96899	1104.025
512.04106	1094.425
516.11023	1091.225
520.1765	1093.325
524.23987	1082.525
528.30034	1072.825
532.35792	1074.625
536.41261	1069.625
540.46441	1065.625
544.51333	1063.125
548.55936	1061.025
552.60252	1064.925
556.64279	1066.925
560.6802	1068.525
564.71473	1070.625
568.7464	1078.025
572.7752	1089.325
576.80114	1084.625
580.82422	1076.425
584.84444	1080.225
588.86181	1088.825
592.87633	1095.725
596.888	1098.825
600.89682	1105.325
604.9028	1127.725
608.90594	1198.925
612.90624	1290.925
616.90371	1273.825
620.89834	1181.125
624.89015	1141.725
628.87913	1145.825
632.86528	1165.525
636.84862	1176.325
640.82913	1171.225
644.80683	1171.325
648.78172	1159.425
652.75379	1149.825
656.72306	1161.225
660.68952	1174.325
664.65319	1170.425
668.61405	1165.125
672.57211	1173.925
676.52738	1192.225
680.47986	1224.825
684.42955	1257.025
688.37646	1275.025
692.32058	1261.725
696.26192	1222.825
700.20048	1201.125
704.13626	1189.025
708.06928	1175.825
711.99952	1170.125
715.927	1176.025
719.85171	1172.525
723.77365	1162.625
727.69284	1165.125
731.60928	1150.525
735.52295	1155.325
739.43388	1150.125
743.34206	1148.325
747.24749	1151.425
751.15017	1150.025
755.05012	1126.025
758.94733	1151.525
762.8418	1179.525
766.73354	1219.425
770.62254	1256.525
774.50882	1283.025
778.39237	1269.725
782.27321	1229.225
786.15132	1199.125
790.02671	1180.525
793.89938	1184.325
797.76935	1171.625
801.6366	1178.725
805.50115	1175.825
809.36299	1181.725
813.22213	1189.625
817.07857	1182.625
820.93231	1167.425
824.78336	1143.825
828.63172	1145.425
832.47738	1141.525
836.32036	1140.225
840.16066	1139.625
843.99827	1136.025
847.8332	1139.625
851.66546	1136.325
855.49504	1129.725
859.32195	1138.525
863.1462	1137.025
866.96777	1135.425
870.78668	1130.125
874.60293	1142.425
878.41652	1140.025
882.22745	1158.925
886.03573	1159.525
889.84136	1164.225
893.64433	1183.025
897.44466	1167.825
901.24235	1180.625
905.0374	1173.725
908.8298	1176.025
912.61957	1172.825
916.40671	1175.125
920.19121	1192.125
923.97308	1190.325
927.75233	1197.425
931.52895	1199.225
935.30295	1188.425
939.07433	1185.025
942.84309	1166.425
946.60924	1154.925
950.37278	1154.525
954.13371	1150.225
957.89203	1141.325
961.64774	1134.225
965.40086	1133.125
969.15137	1126.825
972.89929	1124.025
976.64461	1120.325
980.38733	1119.525
984.12747	1112.425
987.86502	1115.725
991.59999	1115.725
995.33237	1112.825
999.06217	1122.125
1002.78939	1132.325
1006.51404	1143.525
1010.23611	1141.825
1013.95561	1143.825
1017.67255	1152.325
1021.38692	1153.525
1025.09872	1147.025
1028.80796	1145.925
1032.51465	1144.425
1036.21877	1134.725
1039.92035	1142.225
1043.61937	1140.125
1047.31584	1135.425
1051.00976	1133.125
1054.70114	1148.125
1058.38998	1145.025
1062.07627	1139.925
1065.76003	1145.025
1069.44126	1152.525
1073.11995	1155.225
1076.79611	1158.025
1080.46974	1159.725
1084.14085	1162.325
1087.80943	1164.725
1091.47549	1161.525
1095.13903	1142.325
1098.80005	1130.525
1102.45857	1131.825
1106.11456	1120.225
1109.76805	1132.925
1113.41903	1140.225
1117.06751	1149.325
1120.71348	1173.625
1124.35696	1193.225
1127.99793	1231.725
1131.63641	1245.625
1135.2724	1245.525
1138.90589	1242.625
1142.5369	1228.325
1146.16542	1211.825
1149.79145	1190.625
1153.415	1179.725
1157.03607	1163.725
1160.65467	1156.425
1164.27079	1160.725
1167.88443	1167.725
1171.49561	1188.525
1175.10432	1205.325
1178.71056	1251.925
1182.31434	1280.325
1185.91565	1285.625
1189.51451	1290.625
1193.11091	1264.825
1196.70485	1260.625
1200.29634	1243.725
1203.88538	1229.325
1207.47197	1225.025
1211.05612	1205.325
1214.63782	1188.125
1218.21708	1188.225
1221.79391	1182.925
1225.36829	1186.625
1228.94024	1191.025
1232.50976	1180.425
1236.07685	1184.825
1239.6415	1194.425
1243.20374	1190.025
1246.76355	1189.025
1250.32093	1202.025
1253.8759	1194.025
1257.42845	1207.625
1260.97859	1215.825
1264.52631	1228.225
1268.07163	1242.625
1271.61453	1249.925
1275.15503	1258.225
1278.69312	1261.225
1282.22882	1263.525
1285.76211	1276.325
1289.29301	1301.425
1292.82151	1321.125
1296.34761	1342.325
1299.87133	1363.425
1303.39266	1391.925
1306.9116	1445.725
1310.42815	1496.125
1313.94233	1517.425
1317.45412	1495.425
1320.96354	1455.325
1324.47058	1433.925
1327.97525	1394.025
1331.47754	1381.525
1334.97747	1382.325
1338.47502	1393.525
1341.97022	1413.025
1345.46305	1430.625
1348.95352	1477.525
1352.44163	1518.125
1355.92738	1578.225
1359.41078	1643.425
1362.89183	1725.025
1366.37053	1734.225
1369.84688	1647.425
1373.32088	1549.825
1376.79254	1483.225
1380.26186	1443.625
1383.72883	1417.525
1387.19347	1392.825
1390.65578	1379.025
1394.11575	1363.625
1397.57339	1357.025
1401.0287	1350.325
1404.48168	1343.325
1407.93234	1321.325
1411.38068	1307.225
1414.82669	1311.225
1418.27039	1299.225
1421.71177	1284.225
1425.15083	1275.825
1428.58758	1258.325
1432.02203	1257.325
1435.45416	1242.025
1438.88399	1232.325
1442.31151	1225.825
1445.73673	1212.325
1449.15965	1199.425
1452.58027	1207.325
1455.9986	1212.925
1459.41463	1200.625
1462.82837	1206.925
1466.23982	1211.225
1469.64898	1217.925
1473.05586	1223.825
1476.46045	1230.325
1479.86276	1235.925
1483.26279	1242.125
1486.66054	1249.825
1490.05602	1255.225
1493.44922	1278.625
1496.84016	1292.525
1500.22882	1325.925
1503.61521	1374.325
1506.99934	1440.625
1510.38121	1494.925
1513.76081	1505.825
1517.13816	1459.725
1520.51324	1390.025
1523.88607	1338.425
1527.25665	1288.225
1530.62498	1253.725
1533.99105	1250.225
1537.35488	1248.925
1540.71647	1239.525
1544.07581	1240.025
1547.4329	1236.825
1550.78776	1248.925
1554.14038	1254.925
1557.49077	1247.525
1560.83892	1254.725
1564.18484	1262.725
1567.52853	1267.125
1570.86999	1279.125
1574.20922	1294.925
1577.54624	1290.825
1580.88103	1277.625
1584.2136	1251.925
1587.54395	1221.825
1590.87208	1215.525
1594.19801	1208.625
1597.52172	1211.225
1600.84321	1188.025
1604.16251	1187.025
1607.47959	1179.825
1610.79447	1163.525
1614.10715	1148.725
1617.41763	1140.025
1620.7259	1133.625
1624.03199	1130.425
1627.33587	1124.725
1630.63757	1116.825
1633.93707	1114.025
1637.23439	1115.825
1640.52951	1131.325
1643.82246	1151.125
1647.11321	1181.825
1650.40179	1197.425
1653.68819	1188.425
1656.97241	1139.525
1660.25446	1095.525
1663.53433	1056.325
1666.81203	1031.925
1670.08756	1025.725
1673.36092	1035.125
1676.63211	1029.525
1679.90115	1034.625
1683.16801	1026.325
1686.43272	1016.925
1689.69527	1007.625
1692.95567	967.025
1696.2139	935.125
1699.46999	890.425
1702.72392	877.325
1705.97571	881.225
1709.22535	906.225
1712.47284	913.125
1715.71819	914.725
1718.96139	914.525
1722.20246	910.125
1725.44139	895.525
1728.67818	887.725
1731.91284	876.225
1735.14537	875.325
1738.37576	870.825
1741.60403	857.125
1744.83017	846.825
1748.05418	834.525
1751.27607	824.125
1754.49584	803.125
1757.71349	790.825
1760.92903	781.825
1764.14244	772.725
1767.35375	766.925
1770.56294	764.925
1773.77002	771.825
1776.97499	778.525
1780.17785	802.825
1783.37861	807.425
1786.57727	815.125
1789.77382	814.525
1792.96828	816.725
1796.16064	811.925
1799.3509	816.225
1802.53907	813.625
1805.72514	808.325
1808.90913	810.925
1812.09102	810.525
1815.27083	806.525
1818.44856	803.025
1821.6242	811.225
1824.79776	799.525
1827.96924	797.725
1831.13864	798.525
1834.30597	797.825
1837.47122	794.125
1840.6344	790.125
1843.7955	793.325
1846.95454	791.225
1850.11151	791.125
1853.26642	792.625
1856.41926	790.825
1859.57004	794.625
1862.71876	791.325
1865.86542	796.025
1869.01003	786.425
1872.15258	785.225
1875.29308	786.625
1878.43152	778.825
1881.56792	785.325
1884.70227	789.625
1887.83457	782.425
1890.96482	777.125
1894.09304	778.325
1897.21921	776.825
1900.34335	773.825
1903.46544	773.725
1906.58551	778.425
1909.70353	773.425
1912.81953	773.125
1915.93349	775.525
1919.04543	777.725
1922.15534	775.525
1925.26322	767.325
1928.36908	773.925
1931.47292	777.725
1934.57473	768.125
1937.67453	771.125
1940.77232	765.425
1943.86808	761.825
1946.96184	764.225
1950.05358	755.425
1953.14331	756.325
1956.23103	753.025
1959.31675	753.525
1962.40046	748.925
1965.48217	747.025
1968.56188	742.725
1971.63959	749.525
1974.7153	738.625
1977.78901	742.825
1980.86073	738.025
1983.93046	736.225
1986.99819	738.225
1990.06394	731.125
1993.1277	730.725
1996.18947	726.925
1999.24925	732.625
2002.30706	727.025
2005.36288	719.025
2008.41672	720.325
2011.46859	719.025
2014.51848	713.925
2017.56639	712.025
2020.61233	716.425
2023.6563	707.525
2026.6983	708.425
2029.73833	719.025
2032.7764	711.925
2035.8125	707.925
2038.84664	705.625
2041.87881	712.625
2044.90903	703.325
2047.93729	714.525
2050.96359	707.325
2053.98794	707.325
2057.01034	702.325
2060.03078	705.025
2063.04927	711.125
2066.06582	715.425
2069.08042	714.525
2072.09307	718.725
2075.10378	717.825
2078.11255	721.925
2081.11938	722.925
2084.12426	730.625
2087.12722	730.625
2090.12824	732.125
2093.12732	733.025
2096.12447	742.625
2099.11969	738.425
2102.11299	743.025
2105.10435	751.425
2108.09379	742.125
2111.08131	749.025
2114.0669	750.925
2117.05057	759.725
2120.03233	756.925
2123.01216	761.925
2125.99008	759.225
2128.96609	758.525
2131.94018	760.525
2134.91236	750.725
2137.88263	759.625
2140.851	754.825
2143.81746	750.325
2146.78201	750.625
2149.74466	751.625
2152.7054	754.825
2155.66425	740.125
2158.6212	749.925
2161.57625	740.225
2164.52941	747.825
2167.48067	749.625
2170.43004	747.425
2173.37752	748.725
2176.32311	741.225
2179.26681	744.225
2182.20863	742.125
2185.14856	743.425
2188.08661	735.625
2191.02278	736.725
2193.95707	734.125
2196.88948	719.525
2199.82001	722.925
2202.74867	723.425
2205.67545	722.325
2208.60037	705.325
2211.52341	710.325
2214.44458	710.625
2217.36388	707.225
2220.28132	705.225
2223.1969	707.525
2226.11061	709.125
2229.02246	701.025
2231.93245	703.625
2234.84058	698.425
2237.74686	699.025
2240.65128	699.525
2243.55385	699.925
2246.45456	687.625
2249.35343	696.425
2252.25044	694.525
2255.14561	697.525
2258.03893	693.225
2260.93041	675.825
2263.82004	685.125
2266.70783	683.725
2269.59378	686.425
2272.4779	681.125
2275.36017	682.825
2278.24061	682.025
2281.11922	674.725
2283.996	673.425
2286.87094	682.325
2289.74405	674.825
2292.61534	682.225
2295.4848	678.525
2298.35243	678.325
2301.21824	674.525
2304.08223	678.025
2306.94439	681.825
2309.80474	676.625
2312.66327	678.625
2315.51999	680.125
2318.37489	670.325
2321.22797	672.725
2324.07925	676.825
2326.92871	665.125
2329.77637	677.325
2332.62222	674.025
2335.46626	669.025
2338.3085	662.825
2341.14893	663.425
2343.98756	667.425
2346.8244	655.925
2349.65943	669.125
2352.49267	665.825
2355.32411	657.625
2358.15376	664.125
2360.98161	662.925
2363.80768	666.625
2366.63195	665.025
2369.45444	661.925
2372.27514	667.825
2375.09405	665.325
2377.91118	665.625
2380.72652	666.725
2383.54009	657.625
2386.35187	655.625
2389.16188	657.525
2391.97011	664.425
2394.77657	658.925
2397.58125	664.825
2400.38416	656.725
2403.18529	655.525
2405.98466	657.325
2408.78226	653.325
2411.57809	650.025
2414.37216	655.025
2417.16446	656.525
2419.955	655.625
2422.74378	645.325
2425.5308	650.825
2428.31606	652.025
2431.09956	648.425
2433.88131	648.325
2436.6613	647.725
2439.43954	646.425
2442.21603	645.825
2444.99077	642.425
2447.76377	652.025
2450.53501	650.525
2453.30451	650.525
2456.07226	643.525
2458.83827	650.025
2461.60254	642.825
2464.36507	639.925
2467.12586	645.125
2469.88492	638.925
2472.64224	646.025
2475.39782	633.325
2478.15167	634.725
2480.90379	644.625
2483.65417	649.425
2486.40283	645.225
2489.14976	645.825
2491.89497	637.325
2494.63845	628.925
2497.3802	625.425
2500.12024	631.725
2502.85855	638.025
2505.59514	640.725
2508.33002	636.525
2511.06318	639.225
2513.79462	639.225
2516.52435	639.025
2519.25237	642.325
2521.97867	635.625
2524.70327	639.125
2527.42616	635.125
2530.14734	633.325
2532.86681	635.025
2535.58458	640.725
2538.30065	633.625
2541.01501	626.525
2543.72768	634.825
2546.43864	633.925
2549.14791	632.025
2551.85548	635.325
2554.56136	630.625
2557.26554	631.325
2559.96803	623.425
2562.66883	629.525
2565.36794	621.725
2568.06536	623.925
2570.7611	629.525
2573.45514	625.725
2576.14751	621.625
2578.83819	620.325
2581.52719	621.625
2584.21451	615.825
2586.90015	608.825
2589.58411	614.025
2592.2664	620.825
2594.94701	618.625
2597.62594	615.925
2600.30321	622.825
2602.9788	622.125
2605.65273	615.425
2608.32498	607.425
2610.99557	612.525
2613.66449	607.925
2616.33175	613.625
2618.99734	617.725
2621.66128	613.625
2624.32355	610.625
2626.98416	609.125
2629.64311	609.525
2632.30041	615.125
2634.95605	610.425
2637.61004	608.025
2640.26238	609.125
2642.91306	608.125
2645.56209	608.625
2648.20948	608.525
2650.85521	610.125
2653.4993	608.325
2656.14175	607.325
2658.78255	608.525
2661.42171	609.425
2664.05923	609.725
2666.6951	607.125
2669.32934	611.025
2671.96194	607.725
2674.59291	606.025
2677.22224	607.625
2679.84993	608.425
2682.476	609.225
2685.10043	606.625
2687.72324	606.725
2690.34441	604.225
2692.96396	612.125
2695.58188	606.925
2698.19818	611.725
2700.81285	611.425
2703.4259	597.225
2706.03733	550.625
2708.64714	575.625
2711.25533	590.625
2713.86191	598.425
2716.46687	601.825
2719.07021	610.425
2721.67194	607.325
2724.27206	616.025
2726.87057	615.225
2729.46747	622.325
2732.06276	620.225
2734.65644	615.425
2737.24852	613.825
2739.83899	617.125
2742.42786	625.925
2745.01513	615.125
2747.60079	621.325
2750.18486	613.525
2752.76733	617.925
2755.3482	615.025
2757.92747	613.925
2760.50515	618.225
2763.08123	610.325
2765.65573	615.625
2768.22863	616.825
2770.79994	616.425
2773.36967	619.425
2775.9378	616.625
2778.50435	610.725
2781.06932	611.125
2783.6327	612.825
2786.1945	612.825
2788.75471	610.625
2791.31335	610.125
2793.87041	615.125
2796.42589	614.225
2798.97979	609.825
2801.53212	603.725
2804.08288	602.925
2806.63206	597.525
2809.17967	598.625
2811.72571	596.825
2814.27018	606.425
2816.81308	599.725
2819.35442	599.825
2821.89419	597.725
2824.43239	597.425
2826.96904	594.025
2829.50412	597.925
2832.03763	597.825
2834.56959	596.525
2837.1	598.825
2839.62884	598.725
2842.15613	594.425
2844.68186	601.325
2847.20604	591.925
2849.72867	599.925
2852.24974	604.025
2854.76927	596.425
2857.28724	580.825
2859.80367	586.025
2862.31855	601.525
2864.83189	592.825
2867.34368	598.025
2869.85393	598.225
2872.36264	603.525
2874.8698	601.325
2877.37543	603.125
2879.87952	606.225
2882.38207	604.925
2884.88308	601.825
2887.38256	604.725
2889.88051	600.725
2892.37692	612.625
2894.8718	612.525
2897.36515	612.725
2899.85698	609.425
2902.34727	612.625
2904.83604	614.925
2907.32328	623.525
2909.809	623.225
2912.29319	622.825
2914.77587	621.225
2917.25702	626.625
2919.73665	623.225
2922.21476	624.625
2924.69136	630.125
2927.16644	635.325
2929.64	628.925
2932.11205	640.025
2934.58258	633.925
2937.05161	629.425
2939.51912	634.225
2941.98513	636.525
2944.44962	634.225
2946.91261	631.825
2949.37409	625.425
2951.83407	636.825
2954.29254	640.025
2956.74951	640.925
2959.20498	632.925
2961.65895	636.325
2964.11142	640.425
2966.56239	635.525
2969.01186	632.025
2971.45984	640.425
2973.90632	636.625
2976.35131	640.325
2978.7948	638.225
2981.23681	641.925
2983.67732	645.325
2986.11635	639.325
2988.55388	638.025
2990.98993	639.425
2993.4245	643.025
2995.85758	643.025
2998.28917	643.225
3000.71928	649.225
3003.14791	648.625
3005.57506	640.225
3008.00073	641.925
3010.42493	649.825
3012.84764	650.325
3015.26888	654.225
3017.68865	657.825
3020.10694	651.125
3022.52376	656.325
3024.9391	658.325
3027.35298	659.025
3029.76539	670.125
3032.17632	665.225
3034.5858	667.725
3036.9938	668.925
3039.40034	679.925
3041.80542	679.025
3044.20903	682.825
3046.61118	679.225
3049.01187	682.825
3051.4111	684.125
3053.80888	689.925
3056.20519	698.625
3058.60005	693.325
3060.99345	700.425
3063.3854	693.925
3065.7759	700.725
3068.16494	710.025
3070.55254	712.825
3072.93868	709.425
3075.32338	718.325
3077.70662	709.825
3080.08842	723.225
3082.46878	718.225
3084.84769	718.025
3087.22515	726.325
3089.60118	743.725
3091.97576	742.725
3094.3489	747.825
3096.72061	749.325
3099.09087	754.925
3101.4597	765.725
3103.82709	766.625
3106.19305	776.225
3108.55757	778.425
3110.92066	785.825
3113.28232	800.925
3115.64255	800.025
3118.00134	808.225
3120.35871	804.725
3122.71466	814.325
3125.06917	812.425
3127.42226	815.225
3129.77393	827.025
3132.12417	833.725
3134.47299	845.225
3136.82039	845.425
3139.16636	847.225
3141.51092	855.225
3143.85406	868.025
3146.19579	876.625
3148.53609	874.925
3150.87499	883.925
3153.21246	898.325
3155.54853	902.625
3157.88318	905.725
3160.21642	921.825
3162.54826	933.025
3164.87868	937.425
3167.2077	947.325
3169.5353	953.025
3171.86151	950.225
3174.18631	963.025
3176.5097	957.225
3178.83169	969.825
3181.15228	982.125
3183.47147	974.825
3185.78926	990.325
3188.10565	997.125
3190.42065	999.325
3192.73424	1001.125
3195.04645	1014.625
3197.35725	1006.525
3199.66667	1020.125
3201.97469	1020.625
3204.28132	1032.025
3206.58656	1045.125
3208.8904	1046.925
3211.19287	1044.025
3213.49394	1048.725
3215.79363	1052.425
3218.09193	1054.125
3220.38884	1054.725
3222.68438	1053.225
3224.97853	1063.025
3227.2713	1071.225
3229.56269	1065.725
3231.8527	1073.425
3234.14133	1074.425
3236.42858	1075.325
3238.71446	1076.425
3240.99896	1075.725
3243.28209	1079.025
3245.56384	1063.125
3247.84423	1073.925
3250.12324	1068.625
3252.40088	1076.325
3254.67715	1075.425
3256.95205	1077.725
3259.22558	1081.025
3261.49775	1075.925
3263.76855	1088.625
3266.03799	1087.625
3268.30606	1085.825
3270.57277	1079.825
3272.83812	1078.825
3275.10211	1075.925
3277.36474	1078.525
3279.62601	1085.125
3281.88593	1083.425
3284.14448	1081.825
3286.40168	1085.325
3288.65753	1088.225
3290.91202	1085.625
3293.16516	1082.625
3295.41695	1080.725
3297.66738	1071.625
3299.91647	1069.225
3302.16421	1061.225
3304.4106	1061.125
