Data from AgNPs_APTES_FTO_UA_100uM_CRN_0uM_R6G_10uM_Scan_RamanShift__52__11-40-21-298.txt Node

Date: Wed Jun 29 11:40:21 BST 2022
User: TCL
Spectrometer: QEP01345
Trigger mode: 4
Integration Time (sec): 7.000000E0
Scans to average: 10
Electric dark correction enabled: true
Nonlinearity correction enabled: false
Boxcar width: 0
XAxis mode: Raman Shifts
Number of Pixels in Spectrum: 1044
>>>>>Begin Spectral Data<<<<<
46.04893	0.2375
50.45542	-0.6625
54.85868	0.9375
59.25871	2.1375
63.6555	35.7375
68.04907	40.1375
72.43941	41.8375
76.82654	42.7375
81.21044	47.9375
85.59113	47.2375
89.96862	53.6375
94.34289	53.7375
98.71396	53.1375
103.08183	59.0375
107.4465	61.3375
111.80798	60.7375
116.16626	56.5375
120.52136	59.5375
124.87327	54.4375
129.222	54.6375
133.56755	55.5375
137.90993	51.2375
142.24913	52.7375
146.58517	50.2375
150.91804	51.4375
155.24774	52.9375
159.57429	59.2375
163.89768	60.2375
168.21792	67.8375
172.53501	79.7375
176.84895	97.6375
181.15975	128.5375
185.46741	158.0375
189.77193	203.9375
194.07331	260.1375
198.37157	331.9375
202.6667	404.9375
206.9587	472.8375
211.24758	536.1375
215.53334	617.6375
219.81599	694.1375
224.09553	779.8375
228.37195	866.7375
232.64527	968.2375
236.91549	1072.5375
241.18261	1163.1375
245.44663	1242.0375
249.70755	1315.8375
253.96539	1371.7375
258.22014	1410.4375
262.4718	1449.3375
266.72039	1466.6375
270.96589	1466.7375
275.20832	1460.3375
279.44768	1431.8375
283.68397	1407.9375
287.91719	1381.1375
292.14735	1383.3375
296.37445	1386.3375
300.59849	1421.3375
304.81948	1469.1375
309.03742	1499.2375
313.25231	1514.8375
317.46415	1473.2375
321.67296	1402.8375
325.87872	1333.7375
330.08145	1315.8375
334.28114	1310.8375
338.47781	1337.2375
342.67145	1365.3375
346.86207	1402.0375
351.04966	1479.6375
355.23424	1542.7375
359.4158	1602.9375
363.59435	1634.3375
367.76989	1649.0375
371.94243	1643.5375
376.11196	1632.8375
380.27849	1642.9375
384.44203	1639.4375
388.60257	1628.5375
392.76012	1638.3375
396.91468	1651.9375
401.06626	1679.9375
405.21485	1701.3375
409.36047	1679.7375
413.50311	1626.3375
417.64277	1572.0375
421.77947	1548.4375
425.9132	1534.2375
430.04396	1534.9375
434.17176	1544.2375
438.2966	1565.1375
442.41849	1589.7375
446.53742	1610.6375
450.6534	1631.5375
454.76644	1658.5375
458.87653	1660.7375
462.98368	1664.2375
467.08789	1661.0375
471.18916	1631.9375
475.2875	1618.0375
479.38291	1605.1375
483.4754	1610.7375
487.56496	1607.9375
491.6516	1623.4375
495.73531	1641.8375
499.81612	1632.5375
503.89401	1629.0375
507.96899	1617.8375
512.04106	1630.5375
516.11023	1651.6375
520.1765	1668.5375
524.23987	1677.2375
528.30034	1685.7375
532.35792	1676.9375
536.41261	1664.8375
540.46441	1636.8375
544.51333	1615.9375
548.55936	1607.5375
552.60252	1621.6375
556.64279	1634.2375
560.6802	1641.6375
564.71473	1666.5375
568.7464	1711.0375
572.7752	1727.4375
576.80114	1679.1375
580.82422	1644.5375
584.84444	1626.4375
588.86181	1641.3375
592.87633	1669.6375
596.888	1690.5375
600.89682	1728.2375
604.9028	1869.5375
608.90594	2241.8375
612.90624	2692.7375
616.90371	2590.1375
620.89834	2082.3375
624.89015	1869.1375
628.87913	1876.8375
632.86528	1944.2375
636.84862	1997.2375
640.82913	1952.0375
644.80683	1881.0375
648.78172	1788.5375
652.75379	1757.1375
656.72306	1761.7375
660.68952	1797.1375
664.65319	1773.3375
668.61405	1714.5375
672.57211	1695.2375
676.52738	1705.3375
680.47986	1709.9375
684.42955	1707.2375
688.37646	1721.0375
692.32058	1723.0375
696.26192	1715.1375
700.20048	1719.5375
704.13626	1711.1375
708.06928	1692.9375
711.99952	1681.5375
715.927	1674.9375
719.85171	1696.0375
723.77365	1709.2375
727.69284	1712.9375
731.60928	1715.3375
735.52295	1695.1375
739.43388	1685.1375
743.34206	1677.5375
747.24749	1683.1375
751.15017	1691.2375
755.05012	1669.1375
758.94733	1746.1375
762.8418	1874.9375
766.73354	2074.5375
770.62254	2269.2375
774.50882	2371.2375
778.39237	2319.8375
782.27321	2128.6375
786.15132	1915.9375
790.02671	1777.3375
793.89938	1735.7375
797.76935	1716.8375
801.6366	1725.6375
805.50115	1735.6375
809.36299	1773.1375
813.22213	1776.9375
817.07857	1763.6375
820.93231	1730.1375
824.78336	1705.1375
828.63172	1696.2375
832.47738	1680.9375
836.32036	1675.8375
840.16066	1659.2375
843.99827	1673.9375
847.8332	1662.4375
851.66546	1665.9375
855.49504	1661.3375
859.32195	1665.6375
863.1462	1657.5375
866.96777	1661.3375
870.78668	1678.2375
874.60293	1690.7375
878.41652	1721.3375
882.22745	1741.0375
886.03573	1760.8375
889.84136	1765.0375
893.64433	1761.9375
897.44466	1748.3375
901.24235	1709.3375
905.0374	1680.0375
908.8298	1663.1375
912.61957	1646.7375
916.40671	1639.4375
920.19121	1638.2375
923.97308	1657.5375
927.75233	1680.2375
931.52895	1682.9375
935.30295	1670.7375
939.07433	1648.9375
942.84309	1628.3375
946.60924	1614.3375
950.37278	1608.3375
954.13371	1610.7375
957.89203	1612.6375
961.64774	1592.4375
965.40086	1597.8375
969.15137	1590.3375
972.89929	1585.8375
976.64461	1586.5375
980.38733	1577.3375
984.12747	1579.9375
987.86502	1592.3375
991.59999	1596.6375
995.33237	1612.4375
999.06217	1651.2375
1002.78939	1677.4375
1006.51404	1709.6375
1010.23611	1738.8375
1013.95561	1766.0375
1017.67255	1768.1375
1021.38692	1763.7375
1025.09872	1760.7375
1028.80796	1737.2375
1032.51465	1760.1375
1036.21877	1764.5375
1039.92035	1758.2375
1043.61937	1742.9375
1047.31584	1726.1375
1051.00976	1705.3375
1054.70114	1698.1375
1058.38998	1708.4375
1062.07627	1713.5375
1065.76003	1714.7375
1069.44126	1726.6375
1073.11995	1755.5375
1076.79611	1766.3375
1080.46974	1794.5375
1084.14085	1811.6375
1087.80943	1841.8375
1091.47549	1832.1375
1095.13903	1798.6375
1098.80005	1755.7375
1102.45857	1737.7375
1106.11456	1727.0375
1109.76805	1755.2375
1113.41903	1786.4375
1117.06751	1844.7375
1120.71348	1932.5375
1124.35696	2032.5375
1127.99793	2133.1375
1131.63641	2165.9375
1135.2724	2139.8375
1138.90589	2084.1375
1142.5369	2017.5375
1146.16542	1937.7375
1149.79145	1860.2375
1153.415	1805.4375
1157.03607	1771.5375
1160.65467	1778.4375
1164.27079	1798.3375
1167.88443	1846.1375
1171.49561	1938.2375
1175.10432	2081.7375
1178.71056	2279.1375
1182.31434	2430.0375
1185.91565	2490.3375
1189.51451	2443.5375
1193.11091	2365.8375
1196.70485	2262.3375
1200.29634	2214.4375
1203.88538	2168.5375
1207.47197	2090.8375
1211.05612	2013.8375
1214.63782	1935.1375
1218.21708	1884.6375
1221.79391	1857.2375
1225.36829	1850.9375
1228.94024	1841.7375
1232.50976	1831.5375
1236.07685	1818.1375
1239.6415	1827.0375
1243.20374	1843.4375
1246.76355	1842.1375
1250.32093	1867.9375
1253.8759	1895.0375
1257.42845	1917.6375
1260.97859	1969.0375
1264.52631	2008.5375
1268.07163	2060.1375
1271.61453	2082.9375
1275.15503	2110.7375
1278.69312	2126.0375
1282.22882	2146.3375
1285.76211	2186.7375
1289.29301	2229.6375
1292.82151	2295.3375
1296.34761	2337.5375
1299.87133	2438.4375
1303.39266	2600.0375
1306.9116	2871.5375
1310.42815	3139.8375
1313.94233	3222.0375
1317.45412	3074.8375
1320.96354	2823.0375
1324.47058	2585.3375
1327.97525	2419.3375
1331.47754	2332.8375
1334.97747	2305.7375
1338.47502	2348.1375
1341.97022	2435.1375
1345.46305	2559.1375
1348.95352	2739.3375
1352.44163	2933.3375
1355.92738	3204.1375
1359.41078	3616.1375
1362.89183	3969.7375
1366.37053	3771.3375
1369.84688	3194.4375
1373.32088	2734.5375
1376.79254	2492.9375
1380.26186	2337.6375
1383.72883	2225.3375
1387.19347	2138.6375
1390.65578	2062.2375
1394.11575	2000.6375
1397.57339	1969.5375
1401.0287	1954.9375
1404.48168	1940.3375
1407.93234	1929.5375
1411.38068	1933.6375
1414.82669	1948.0375
1418.27039	1946.0375
1421.71177	1912.6375
1425.15083	1903.6375
1428.58758	1902.1375
1432.02203	1920.3375
1435.45416	1944.0375
1438.88399	1951.7375
1442.31151	1947.4375
1445.73673	1945.2375
1449.15965	1957.9375
1452.58027	1957.1375
1455.9986	1956.7375
1459.41463	1960.9375
1462.82837	1983.9375
1466.23982	2011.8375
1469.64898	2030.3375
1473.05586	2040.0375
1476.46045	2062.0375
1479.86276	2061.9375
1483.26279	2091.9375
1486.66054	2116.9375
1490.05602	2158.1375
1493.44922	2259.9375
1496.84016	2401.0375
1500.22882	2628.8375
1503.61521	2937.1375
1506.99934	3298.7375
1510.38121	3587.0375
1513.76081	3595.9375
1517.13816	3313.9375
1520.51324	2916.5375
1523.88607	2562.1375
1527.25665	2338.3375
1530.62498	2220.3375
1533.99105	2146.5375
1537.35488	2104.8375
1540.71647	2090.4375
1544.07581	2080.4375
1547.4329	2094.8375
1550.78776	2101.0375
1554.14038	2123.2375
1557.49077	2147.9375
1560.83892	2176.0375
1564.18484	2213.3375
1567.52853	2277.7375
1570.86999	2335.1375
1574.20922	2372.6375
1577.54624	2347.3375
1580.88103	2264.8375
1584.2136	2134.4375
1587.54395	2056.5375
1590.87208	2048.8375
1594.19801	2127.7375
1597.52172	2218.2375
1600.84321	2278.0375
1604.16251	2244.9375
1607.47959	2154.7375
1610.79447	2065.4375
1614.10715	1972.1375
1617.41763	1913.9375
1620.7259	1863.3375
1624.03199	1860.6375
1627.33587	1842.2375
1630.63757	1869.9375
1633.93707	1928.2375
1637.23439	2012.5375
1640.52951	2163.5375
1643.82246	2355.8375
1647.11321	2609.9375
1650.40179	2757.1375
1653.68819	2678.5375
1656.97241	2399.8375
1660.25446	2127.9375
1663.53433	1912.7375
1666.81203	1788.0375
1670.08756	1718.4375
1673.36092	1676.3375
1676.63211	1662.8375
1679.90115	1628.4375
1683.16801	1615.6375
1686.43272	1585.8375
1689.69527	1576.1375
1692.95567	1558.6375
1696.2139	1543.8375
1699.46999	1515.0375
1702.72392	1511.7375
1705.97571	1481.6375
1709.22535	1466.2375
1712.47284	1470.3375
1715.71819	1456.8375
1718.96139	1449.4375
1722.20246	1433.4375
1725.44139	1421.2375
1728.67818	1412.1375
1731.91284	1392.1375
1735.14537	1387.4375
1738.37576	1387.7375
1741.60403	1372.4375
1744.83017	1364.8375
1748.05418	1358.8375
1751.27607	1356.7375
1754.49584	1341.7375
1757.71349	1338.8375
1760.92903	1336.8375
1764.14244	1337.0375
1767.35375	1324.9375
1770.56294	1318.0375
1773.77002	1319.0375
1776.97499	1314.1375
1780.17785	1313.9375
1783.37861	1313.5375
1786.57727	1309.8375
1789.77382	1308.0375
1792.96828	1307.2375
1796.16064	1308.4375
1799.3509	1300.5375
1802.53907	1303.6375
1805.72514	1298.1375
1808.90913	1293.4375
1812.09102	1289.4375
1815.27083	1283.1375
1818.44856	1278.7375
1821.6242	1285.4375
1824.79776	1284.9375
1827.96924	1277.7375
1831.13864	1275.4375
1834.30597	1274.8375
1837.47122	1273.4375
1840.6344	1267.5375
1843.7955	1264.0375
1846.95454	1265.0375
1850.11151	1265.4375
1853.26642	1259.6375
1856.41926	1257.4375
1859.57004	1263.1375
1862.71876	1255.1375
1865.86542	1247.3375
1869.01003	1264.1375
1872.15258	1256.8375
1875.29308	1263.2375
1878.43152	1246.4375
1881.56792	1258.9375
1884.70227	1255.3375
1887.83457	1245.7375
1890.96482	1251.1375
1894.09304	1256.8375
1897.21921	1244.5375
1900.34335	1242.8375
1903.46544	1247.5375
1906.58551	1240.5375
1909.70353	1244.1375
1912.81953	1238.0375
1915.93349	1247.7375
1919.04543	1241.1375
1922.15534	1230.9375
1925.26322	1235.8375
1928.36908	1229.9375
1931.47292	1227.0375
1934.57473	1233.9375
1937.67453	1228.2375
1940.77232	1231.1375
1943.86808	1227.3375
1946.96184	1221.6375
1950.05358	1216.5375
1953.14331	1209.9375
1956.23103	1210.8375
1959.31675	1204.2375
1962.40046	1206.5375
1965.48217	1194.2375
1968.56188	1191.2375
1971.63959	1200.3375
1974.7153	1180.4375
1977.78901	1183.9375
1980.86073	1180.6375
1983.93046	1182.0375
1986.99819	1171.7375
1990.06394	1170.7375
1993.1277	1166.2375
1996.18947	1160.1375
1999.24925	1162.1375
2002.30706	1160.4375
2005.36288	1149.2375
2008.41672	1156.0375
2011.46859	1143.7375
2014.51848	1149.6375
2017.56639	1131.9375
2020.61233	1139.0375
2023.6563	1140.7375
2026.6983	1134.9375
2029.73833	1126.1375
2032.7764	1128.0375
2035.8125	1121.8375
2038.84664	1122.9375
2041.87881	1120.9375
2044.90903	1123.5375
2047.93729	1125.6375
2050.96359	1121.2375
2053.98794	1118.0375
2057.01034	1119.8375
2060.03078	1120.6375
2063.04927	1111.9375
2066.06582	1117.0375
2069.08042	1112.2375
2072.09307	1120.2375
2075.10378	1115.0375
2078.11255	1102.3375
2081.11938	1114.8375
2084.12426	1115.8375
2087.12722	1114.0375
2090.12824	1109.0375
2093.12732	1113.5375
2096.12447	1112.0375
2099.11969	1118.5375
2102.11299	1108.2375
2105.10435	1112.7375
2108.09379	1110.8375
2111.08131	1115.8375
2114.0669	1119.2375
2117.05057	1115.2375
2120.03233	1129.4375
2123.01216	1121.5375
2125.99008	1121.9375
2128.96609	1121.4375
2131.94018	1130.8375
2134.91236	1119.0375
2137.88263	1129.8375
2140.851	1132.2375
2143.81746	1129.4375
2146.78201	1128.5375
2149.74466	1123.4375
2152.7054	1127.3375
2155.66425	1128.4375
2158.6212	1126.3375
2161.57625	1130.8375
2164.52941	1125.1375
2167.48067	1121.7375
2170.43004	1120.8375
2173.37752	1121.2375
2176.32311	1124.0375
2179.26681	1122.3375
2182.20863	1126.4375
2185.14856	1127.8375
2188.08661	1130.3375
2191.02278	1128.6375
2193.95707	1120.8375
2196.88948	1126.5375
2199.82001	1123.7375
2202.74867	1122.5375
2205.67545	1124.8375
2208.60037	1117.1375
2211.52341	1118.3375
2214.44458	1110.7375
2217.36388	1116.8375
2220.28132	1115.6375
2223.1969	1108.9375
2226.11061	1108.1375
2229.02246	1106.8375
2231.93245	1107.9375
2234.84058	1102.9375
2237.74686	1102.6375
2240.65128	1105.4375
2243.55385	1095.9375
2246.45456	1101.8375
2249.35343	1100.7375
2252.25044	1099.0375
2255.14561	1102.3375
2258.03893	1101.1375
2260.93041	1099.0375
2263.82004	1092.3375
2266.70783	1088.1375
2269.59378	1095.3375
2272.4779	1088.5375
2275.36017	1085.2375
2278.24061	1076.8375
2281.11922	1074.9375
2283.996	1074.9375
2286.87094	1077.5375
2289.74405	1077.2375
2292.61534	1082.4375
2295.4848	1075.1375
2298.35243	1077.2375
2301.21824	1069.4375
2304.08223	1072.2375
2306.94439	1074.5375
2309.80474	1068.4375
2312.66327	1073.1375
2315.51999	1077.2375
2318.37489	1076.3375
2321.22797	1067.2375
2324.07925	1070.7375
2326.92871	1074.9375
2329.77637	1081.3375
2332.62222	1069.3375
2335.46626	1066.0375
2338.3085	1055.3375
2341.14893	1063.8375
2343.98756	1063.9375
2346.8244	1067.5375
2349.65943	1070.2375
2352.49267	1062.8375
2355.32411	1062.3375
2358.15376	1061.5375
2360.98161	1068.8375
2363.80768	1063.3375
2366.63195	1066.1375
2369.45444	1072.2375
2372.27514	1069.5375
2375.09405	1067.6375
2377.91118	1063.7375
2380.72652	1066.8375
2383.54009	1060.5375
2386.35187	1061.2375
2389.16188	1060.9375
2391.97011	1060.2375
2394.77657	1050.8375
2397.58125	1047.4375
2400.38416	1048.4375
2403.18529	1042.4375
2405.98466	1045.2375
2408.78226	1040.7375
2411.57809	1035.6375
2414.37216	1039.3375
2417.16446	1031.8375
2419.955	1036.5375
2422.74378	1032.1375
2425.5308	1040.4375
2428.31606	1043.9375
2431.09956	1033.6375
2433.88131	1036.7375
2436.6613	1035.5375
2439.43954	1024.6375
2442.21603	1029.1375
2444.99077	1028.1375
2447.76377	1037.9375
2450.53501	1044.5375
2453.30451	1031.6375
2456.07226	1037.7375
2458.83827	1031.8375
2461.60254	1036.2375
2464.36507	1038.1375
2467.12586	1029.4375
2469.88492	1023.5375
2472.64224	1026.9375
2475.39782	1030.8375
2478.15167	1031.0375
2480.90379	1030.8375
2483.65417	1036.9375
2486.40283	1031.3375
2489.14976	1044.2375
2491.89497	1029.8375
2494.63845	1032.8375
2497.3802	1033.5375
2500.12024	1031.7375
2502.85855	1025.5375
2505.59514	1029.9375
2508.33002	1025.6375
2511.06318	1024.7375
2513.79462	1031.9375
2516.52435	1022.0375
2519.25237	1020.7375
2521.97867	1019.5375
2524.70327	1020.5375
2527.42616	1016.0375
2530.14734	1008.8375
2532.86681	1013.2375
2535.58458	1017.1375
2538.30065	1025.5375
2541.01501	1013.4375
2543.72768	1012.4375
2546.43864	1010.7375
2549.14791	1013.1375
2551.85548	1018.3375
2554.56136	1013.3375
2557.26554	1005.7375
2559.96803	1002.0375
2562.66883	1011.5375
2565.36794	1010.3375
2568.06536	1008.8375
2570.7611	1000.3375
2573.45514	999.9375
2576.14751	1000.0375
2578.83819	998.3375
2581.52719	993.0375
2584.21451	994.0375
2586.90015	995.3375
2589.58411	991.4375
2592.2664	996.0375
2594.94701	997.7375
2597.62594	993.2375
2600.30321	995.8375
2602.9788	1002.8375
2605.65273	989.8375
2608.32498	996.2375
2610.99557	995.7375
2613.66449	983.9375
2616.33175	992.0375
2618.99734	990.9375
2621.66128	990.7375
2624.32355	982.2375
2626.98416	990.5375
2629.64311	988.0375
2632.30041	986.5375
2634.95605	985.2375
2637.61004	985.6375
2640.26238	985.2375
2642.91306	988.0375
2645.56209	976.3375
2648.20948	979.4375
2650.85521	976.8375
2653.4993	978.2375
2656.14175	979.8375
2658.78255	980.5375
2661.42171	979.2375
2664.05923	976.9375
2666.6951	986.1375
2669.32934	983.4375
2671.96194	980.8375
2674.59291	988.9375
2677.22224	984.0375
2679.84993	982.2375
2682.476	983.8375
2685.10043	988.6375
2687.72324	989.4375
2690.34441	984.5375
2692.96396	986.3375
2695.58188	982.0375
2698.19818	982.0375
2700.81285	978.1375
2703.4259	984.1375
2706.03733	981.1375
2708.64714	979.1375
2711.25533	985.9375
2713.86191	985.5375
2716.46687	984.9375
2719.07021	988.1375
2721.67194	993.3375
2724.27206	986.1375
2726.87057	988.0375
2729.46747	993.4375
2732.06276	995.1375
2734.65644	998.6375
2737.24852	997.2375
2739.83899	989.2375
2742.42786	992.2375
2745.01513	994.1375
2747.60079	994.1375
2750.18486	990.3375
2752.76733	988.3375
2755.3482	985.2375
2757.92747	986.4375
2760.50515	988.0375
2763.08123	980.7375
2765.65573	979.1375
2768.22863	978.3375
2770.79994	980.8375
2773.36967	980.3375
2775.9378	978.6375
2778.50435	990.3375
2781.06932	989.9375
2783.6327	977.5375
2786.1945	986.4375
2788.75471	982.5375
2791.31335	984.7375
2793.87041	980.6375
2796.42589	987.4375
2798.97979	991.1375
2801.53212	984.4375
2804.08288	984.5375
2806.63206	977.2375
2809.17967	971.4375
2811.72571	974.0375
2814.27018	978.1375
2816.81308	970.4375
2819.35442	972.0375
2821.89419	974.5375
2824.43239	980.5375
2826.96904	970.3375
2829.50412	968.5375
2832.03763	969.1375
2834.56959	973.8375
2837.1	972.5375
2839.62884	975.3375
2842.15613	970.6375
2844.68186	971.4375
2847.20604	969.2375
2849.72867	972.8375
2852.24974	977.1375
2854.76927	980.0375
2857.28724	973.6375
2859.80367	976.3375
2862.31855	978.7375
2864.83189	985.3375
2867.34368	976.0375
2869.85393	977.0375
2872.36264	984.0375
2874.8698	977.5375
2877.37543	981.4375
2879.87952	970.8375
2882.38207	982.6375
2884.88308	977.7375
2887.38256	988.3375
2889.88051	985.0375
2892.37692	986.1375
2894.8718	992.1375
2897.36515	989.0375
2899.85698	989.9375
2902.34727	992.8375
2904.83604	995.8375
2907.32328	997.3375
2909.809	997.4375
2912.29319	1000.8375
2914.77587	1001.3375
2917.25702	1002.3375
2919.73665	1001.5375
2922.21476	998.4375
2924.69136	992.0375
2927.16644	1001.3375
2929.64	998.9375
2932.11205	991.0375
2934.58258	991.8375
2937.05161	1000.6375
2939.51912	988.8375
2941.98513	995.3375
2944.44962	992.2375
2946.91261	994.0375
2949.37409	992.1375
2951.83407	1002.3375
2954.29254	995.4375
2956.74951	1004.7375
2959.20498	997.0375
2961.65895	1004.3375
2964.11142	1008.2375
2966.56239	1002.2375
2969.01186	998.8375
2971.45984	1015.6375
2973.90632	1005.2375
2976.35131	1005.0375
2978.7948	1003.1375
2981.23681	1005.2375
2983.67732	998.5375
2986.11635	994.5375
2988.55388	999.7375
2990.98993	992.9375
2993.4245	993.7375
2995.85758	1002.3375
2998.28917	1003.5375
3000.71928	1003.6375
3003.14791	996.4375
3005.57506	1001.8375
3008.00073	990.2375
3010.42493	1001.3375
3012.84764	1001.9375
3015.26888	1006.2375
3017.68865	1012.2375
3020.10694	1009.0375
3022.52376	998.4375
3024.9391	1009.3375
3027.35298	1009.1375
3029.76539	1009.3375
3032.17632	1019.6375
3034.5858	1014.7375
3036.9938	1026.3375
3039.40034	1019.0375
3041.80542	1018.2375
3044.20903	1023.6375
3046.61118	1025.1375
3049.01187	1027.3375
3051.4111	1027.7375
3053.80888	1036.4375
3056.20519	1040.3375
3058.60005	1042.0375
3060.99345	1042.6375
3063.3854	1038.6375
3065.7759	1043.4375
3068.16494	1043.2375
3070.55254	1044.9375
3072.93868	1045.8375
3075.32338	1049.0375
3077.70662	1050.1375
3080.08842	1053.1375
3082.46878	1051.5375
3084.84769	1067.5375
3087.22515	1068.8375
3089.60118	1068.1375
3091.97576	1072.9375
3094.3489	1084.3375
3096.72061	1084.0375
3099.09087	1088.5375
3101.4597	1094.1375
3103.82709	1101.1375
3106.19305	1115.8375
3108.55757	1119.7375
3110.92066	1125.2375
3113.28232	1124.6375
3115.64255	1131.7375
3118.00134	1133.0375
3120.35871	1139.3375
3122.71466	1140.8375
3125.06917	1149.1375
3127.42226	1147.9375
3129.77393	1160.1375
3132.12417	1163.9375
3134.47299	1172.6375
3136.82039	1177.0375
3139.16636	1179.6375
3141.51092	1195.1375
3143.85406	1197.1375
