Data from AgNPs_APTES_FTO_UA_100uM_CRN_0uM_R6G_10uM_Scan_RamanShift__59__11-48-31-308.txt Node

Date: Wed Jun 29 11:48:31 BST 2022
User: TCL
Spectrometer: QEP01345
Trigger mode: 4
Integration Time (sec): 7.000000E0
Scans to average: 10
Electric dark correction enabled: true
Nonlinearity correction enabled: false
Boxcar width: 0
XAxis mode: Raman Shifts
Number of Pixels in Spectrum: 1044
>>>>>Begin Spectral Data<<<<<
46.04893	-0.6125
50.45542	0.2875
54.85868	-0.3125
59.25871	1.9875
63.6555	38.9875
68.04907	43.8875
72.43941	46.6875
76.82654	46.8875
81.21044	52.3875
85.59113	53.4875
89.96862	58.7875
94.34289	62.4875
98.71396	61.8875
103.08183	62.7875
107.4465	57.2875
111.80798	66.9875
116.16626	59.8875
120.52136	66.5875
124.87327	60.9875
129.222	62.0875
133.56755	59.9875
137.90993	56.1875
142.24913	58.9875
146.58517	55.4875
150.91804	51.3875
155.24774	59.1875
159.57429	62.8875
163.89768	63.4875
168.21792	77.1875
172.53501	86.5875
176.84895	103.3875
181.15975	128.6875
185.46741	165.8875
189.77193	213.4875
194.07331	280.0875
198.37157	351.2875
202.6667	423.0875
206.9587	493.7875
211.24758	578.4875
215.53334	656.0875
219.81599	746.7875
224.09553	834.6875
228.37195	936.5875
232.64527	1045.6875
236.91549	1155.1875
241.18261	1248.3875
245.44663	1341.2875
249.70755	1400.3875
253.96539	1471.5875
258.22014	1520.6875
262.4718	1555.5875
266.72039	1573.2875
270.96589	1591.1875
275.20832	1559.0875
279.44768	1530.1875
283.68397	1493.3875
287.91719	1471.7875
292.14735	1467.9875
296.37445	1488.4875
300.59849	1525.2875
304.81948	1586.2875
309.03742	1646.2875
313.25231	1650.8875
317.46415	1601.4875
321.67296	1521.7875
325.87872	1434.9875
330.08145	1408.8875
334.28114	1400.9875
338.47781	1435.7875
342.67145	1470.8875
346.86207	1523.7875
351.04966	1611.7875
355.23424	1695.4875
359.4158	1765.4875
363.59435	1790.3875
367.76989	1804.8875
371.94243	1785.1875
376.11196	1778.1875
380.27849	1761.8875
384.44203	1761.4875
388.60257	1742.2875
392.76012	1747.3875
396.91468	1766.3875
401.06626	1803.4875
405.21485	1822.3875
409.36047	1802.4875
413.50311	1733.5875
417.64277	1682.2875
421.77947	1650.7875
425.9132	1626.9875
430.04396	1632.7875
434.17176	1650.3875
438.2966	1668.2875
442.41849	1698.3875
446.53742	1736.4875
450.6534	1758.8875
454.76644	1778.7875
458.87653	1781.5875
462.98368	1772.8875
467.08789	1744.6875
471.18916	1730.1875
475.2875	1706.3875
479.38291	1700.9875
483.4754	1700.5875
487.56496	1711.1875
491.6516	1713.1875
495.73531	1728.2875
499.81612	1712.4875
503.89401	1712.5875
507.96899	1711.8875
512.04106	1732.7875
516.11023	1758.9875
520.1765	1779.7875
524.23987	1788.5875
528.30034	1791.7875
532.35792	1790.4875
536.41261	1764.3875
540.46441	1734.5875
544.51333	1719.2875
548.55936	1710.6875
552.60252	1729.4875
556.64279	1746.6875
560.6802	1767.1875
564.71473	1810.1875
568.7464	1864.0875
572.7752	1872.4875
576.80114	1802.4875
580.82422	1748.6875
584.84444	1728.8875
588.86181	1748.3875
592.87633	1772.4875
596.888	1788.8875
600.89682	1831.6875
604.9028	2018.7875
608.90594	2460.8875
612.90624	2988.1875
616.90371	2877.5875
620.89834	2254.2875
624.89015	2002.4875
628.87913	2009.4875
632.86528	2072.2875
636.84862	2120.2875
640.82913	2069.8875
644.80683	1966.3875
648.78172	1879.1875
652.75379	1850.8875
656.72306	1867.1875
660.68952	1910.4875
664.65319	1889.9875
668.61405	1810.2875
672.57211	1781.3875
676.52738	1780.5875
680.47986	1788.9875
684.42955	1783.3875
688.37646	1792.7875
692.32058	1789.2875
696.26192	1811.7875
700.20048	1805.3875
704.13626	1816.0875
708.06928	1797.3875
711.99952	1787.2875
715.927	1799.1875
719.85171	1815.7875
723.77365	1819.2875
727.69284	1830.1875
731.60928	1812.7875
735.52295	1805.4875
739.43388	1800.9875
743.34206	1802.5875
747.24749	1802.7875
751.15017	1817.5875
755.05012	1814.4875
758.94733	1891.5875
762.8418	2069.7875
766.73354	2318.4875
770.62254	2519.5875
774.50882	2611.9875
778.39237	2549.2875
782.27321	2312.0875
786.15132	2062.6875
790.02671	1917.9875
793.89938	1853.7875
797.76935	1834.6875
801.6366	1843.6875
805.50115	1860.2875
809.36299	1897.8875
813.22213	1911.9875
817.07857	1895.1875
820.93231	1861.1875
824.78336	1844.5875
828.63172	1822.6875
832.47738	1820.4875
836.32036	1806.5875
840.16066	1799.8875
843.99827	1801.5875
847.8332	1796.5875
851.66546	1798.4875
855.49504	1798.0875
859.32195	1794.9875
863.1462	1799.0875
866.96777	1800.3875
870.78668	1808.7875
874.60293	1836.1875
878.41652	1858.9875
882.22745	1881.3875
886.03573	1913.6875
889.84136	1922.4875
893.64433	1895.9875
897.44466	1883.9875
901.24235	1850.1875
905.0374	1829.2875
908.8298	1804.4875
912.61957	1775.7875
916.40671	1766.1875
920.19121	1776.1875
923.97308	1780.9875
927.75233	1813.4875
931.52895	1840.5875
935.30295	1818.8875
939.07433	1785.3875
942.84309	1757.1875
946.60924	1733.6875
950.37278	1744.8875
954.13371	1730.8875
957.89203	1726.8875
961.64774	1727.5875
965.40086	1714.9875
969.15137	1719.2875
972.89929	1704.1875
976.64461	1705.6875
980.38733	1715.6875
984.12747	1718.3875
987.86502	1726.8875
991.59999	1721.8875
995.33237	1743.8875
999.06217	1775.6875
1002.78939	1820.6875
1006.51404	1845.7875
1010.23611	1885.4875
1013.95561	1900.0875
1017.67255	1912.5875
1021.38692	1890.5875
1025.09872	1881.4875
1028.80796	1873.0875
1032.51465	1882.1875
1036.21877	1894.9875
1039.92035	1889.9875
1043.61937	1878.5875
1047.31584	1867.0875
1051.00976	1851.2875
1054.70114	1826.5875
1058.38998	1831.3875
1062.07627	1846.7875
1065.76003	1841.1875
1069.44126	1857.9875
1073.11995	1878.4875
1076.79611	1909.1875
1080.46974	1934.6875
1084.14085	1965.0875
1087.80943	1995.0875
1091.47549	1986.8875
1095.13903	1955.0875
1098.80005	1899.5875
1102.45857	1878.6875
1106.11456	1876.7875
1109.76805	1905.0875
1113.41903	1946.5875
1117.06751	2033.3875
1120.71348	2120.0875
1124.35696	2256.2875
1127.99793	2355.0875
1131.63641	2337.7875
1135.2724	2280.7875
1138.90589	2212.5875
1142.5369	2140.1875
1146.16542	2058.5875
1149.79145	1985.6875
1153.415	1945.8875
1157.03607	1921.7875
1160.65467	1933.6875
1164.27079	1946.5875
1167.88443	2008.8875
1171.49561	2111.4875
1175.10432	2270.7875
1178.71056	2491.3875
1182.31434	2680.0875
1185.91565	2729.8875
1189.51451	2681.4875
1193.11091	2543.4875
1196.70485	2456.8875
1200.29634	2395.1875
1203.88538	2337.0875
1207.47197	2245.2875
1211.05612	2152.9875
1214.63782	2077.1875
1218.21708	2024.3875
1221.79391	1984.0875
1225.36829	1965.9875
1228.94024	1965.7875
1232.50976	1962.0875
1236.07685	1952.8875
1239.6415	1956.8875
1243.20374	1972.3875
1246.76355	1980.8875
1250.32093	1993.9875
1253.8759	2029.9875
1257.42845	2076.0875
1260.97859	2125.8875
1264.52631	2169.8875
1268.07163	2223.8875
1271.61453	2249.6875
1275.15503	2261.8875
1278.69312	2270.9875
1282.22882	2299.1875
1285.76211	2340.6875
1289.29301	2401.8875
1292.82151	2461.4875
1296.34761	2519.9875
1299.87133	2620.0875
1303.39266	2832.6875
1306.9116	3167.9875
1310.42815	3509.1875
1313.94233	3593.0875
1317.45412	3377.7875
1320.96354	3042.8875
1324.47058	2754.7875
1327.97525	2553.8875
1331.47754	2449.7875
1334.97747	2426.4875
1338.47502	2468.9875
1341.97022	2587.7875
1345.46305	2752.6875
1348.95352	2967.5875
1352.44163	3189.6875
1355.92738	3523.1875
1359.41078	4047.3875
1362.89183	4470.7875
1366.37053	4176.7875
1369.84688	3473.0875
1373.32088	2920.4875
1376.79254	2635.6875
1380.26186	2466.2875
1383.72883	2334.8875
1387.19347	2233.6875
1390.65578	2155.7875
1394.11575	2099.2875
1397.57339	2055.1875
1401.0287	2043.2875
1404.48168	2031.8875
1407.93234	2021.5875
1411.38068	2046.6875
1414.82669	2045.0875
1418.27039	2053.0875
1421.71177	2024.5875
1425.15083	2018.1875
1428.58758	2030.0875
1432.02203	2056.6875
1435.45416	2083.5875
1438.88399	2074.3875
1442.31151	2048.3875
1445.73673	2051.1875
1449.15965	2063.0875
1452.58027	2048.8875
1455.9986	2045.4875
1459.41463	2043.9875
1462.82837	2057.8875
1466.23982	2082.6875
1469.64898	2121.0875
1473.05586	2124.4875
1476.46045	2138.4875
1479.86276	2152.5875
1483.26279	2180.3875
1486.66054	2226.0875
1490.05602	2310.0875
1493.44922	2438.6875
1496.84016	2630.0875
1500.22882	2945.1875
1503.61521	3356.0875
1506.99934	3845.2875
1510.38121	4212.4875
1513.76081	4224.5875
1517.13816	3845.8875
1520.51324	3295.6875
1523.88607	2844.7875
1527.25665	2550.6875
1530.62498	2390.6875
1533.99105	2290.1875
1537.35488	2243.2875
1540.71647	2230.5875
1544.07581	2226.5875
1547.4329	2239.9875
1550.78776	2251.7875
1554.14038	2266.3875
1557.49077	2300.7875
1560.83892	2344.0875
1564.18484	2406.9875
1567.52853	2484.1875
1570.86999	2541.1875
1574.20922	2578.1875
1577.54624	2547.8875
1580.88103	2432.3875
1584.2136	2272.8875
1587.54395	2194.2875
1590.87208	2196.9875
1594.19801	2267.8875
1597.52172	2382.8875
1600.84321	2446.3875
1604.16251	2398.6875
1607.47959	2312.3875
1610.79447	2210.3875
1614.10715	2101.1875
1617.41763	2037.0875
1620.7259	1990.7875
1624.03199	1984.9875
1627.33587	1981.7875
1630.63757	2012.9875
1633.93707	2067.0875
1637.23439	2188.8875
1640.52951	2373.2875
1643.82246	2628.4875
1647.11321	2956.7875
1650.40179	3143.3875
1653.68819	3048.2875
1656.97241	2690.1875
1660.25446	2327.2875
1663.53433	2086.8875
1666.81203	1926.4875
1670.08756	1859.6875
1673.36092	1807.7875
1676.63211	1780.4875
1679.90115	1747.3875
1683.16801	1716.1875
1686.43272	1705.7875
1689.69527	1686.9875
1692.95567	1681.6875
1696.2139	1665.9875
1699.46999	1653.9875
1702.72392	1632.8875
1705.97571	1616.6875
1709.22535	1605.7875
1712.47284	1598.7875
1715.71819	1607.4875
1718.96139	1588.7875
1722.20246	1573.9875
1725.44139	1575.0875
1728.67818	1548.7875
1731.91284	1544.3875
1735.14537	1537.5875
1738.37576	1534.0875
1741.60403	1524.0875
1744.83017	1507.6875
1748.05418	1513.7875
1751.27607	1502.9875
1754.49584	1491.6875
1757.71349	1487.5875
1760.92903	1487.1875
1764.14244	1489.0875
1767.35375	1479.9875
1770.56294	1484.1875
1773.77002	1473.6875
1776.97499	1463.0875
1780.17785	1466.9875
1783.37861	1457.3875
1786.57727	1453.8875
1789.77382	1454.8875
1792.96828	1455.3875
1796.16064	1456.3875
1799.3509	1458.6875
1802.53907	1451.8875
1805.72514	1450.5875
1808.90913	1445.0875
1812.09102	1435.9875
1815.27083	1441.1875
1818.44856	1423.5875
1821.6242	1433.7875
1824.79776	1422.9875
1827.96924	1417.9875
1831.13864	1426.4875
1834.30597	1420.6875
1837.47122	1414.7875
1840.6344	1414.0875
1843.7955	1408.9875
1846.95454	1411.2875
1850.11151	1414.2875
1853.26642	1409.3875
1856.41926	1406.2875
1859.57004	1410.6875
1862.71876	1409.0875
1865.86542	1404.6875
1869.01003	1406.3875
1872.15258	1404.6875
1875.29308	1404.9875
1878.43152	1391.6875
1881.56792	1395.5875
1884.70227	1401.9875
1887.83457	1404.1875
1890.96482	1394.2875
1894.09304	1391.1875
1897.21921	1389.1875
1900.34335	1389.3875
1903.46544	1393.1875
1906.58551	1388.8875
1909.70353	1399.7875
1912.81953	1397.6875
1915.93349	1394.4875
1919.04543	1380.1875
1922.15534	1383.5875
1925.26322	1383.6875
1928.36908	1383.6875
1931.47292	1382.4875
1934.57473	1370.0875
1937.67453	1373.2875
1940.77232	1373.1875
1943.86808	1366.7875
1946.96184	1362.9875
1950.05358	1351.1875
1953.14331	1355.2875
1956.23103	1351.0875
1959.31675	1341.7875
1962.40046	1339.1875
1965.48217	1338.9875
1968.56188	1338.1875
1971.63959	1335.0875
1974.7153	1331.2875
1977.78901	1327.0875
1980.86073	1313.1875
1983.93046	1318.2875
1986.99819	1315.6875
1990.06394	1312.2875
1993.1277	1308.8875
1996.18947	1297.8875
1999.24925	1292.5875
2002.30706	1302.6875
2005.36288	1279.9875
2008.41672	1289.1875
2011.46859	1280.2875
2014.51848	1276.5875
2017.56639	1276.7875
2020.61233	1273.3875
2023.6563	1275.3875
2026.6983	1267.3875
2029.73833	1261.9875
2032.7764	1266.9875
2035.8125	1258.1875
2038.84664	1257.9875
2041.87881	1258.9875
2044.90903	1259.6875
2047.93729	1251.6875
2050.96359	1252.2875
2053.98794	1250.3875
2057.01034	1248.5875
2060.03078	1247.1875
2063.04927	1248.5875
2066.06582	1249.3875
2069.08042	1239.6875
2072.09307	1256.8875
2075.10378	1248.6875
2078.11255	1242.7875
2081.11938	1250.8875
2084.12426	1246.2875
2087.12722	1254.2875
2090.12824	1235.8875
2093.12732	1242.9875
2096.12447	1241.9875
2099.11969	1253.0875
2102.11299	1246.3875
2105.10435	1247.0875
2108.09379	1239.9875
2111.08131	1250.6875
2114.0669	1247.0875
2117.05057	1257.3875
2120.03233	1255.8875
2123.01216	1249.6875
2125.99008	1253.9875
2128.96609	1256.6875
2131.94018	1264.8875
2134.91236	1251.5875
2137.88263	1258.3875
2140.851	1263.9875
2143.81746	1263.3875
2146.78201	1258.5875
2149.74466	1261.2875
2152.7054	1256.6875
2155.66425	1251.4875
2158.6212	1251.6875
2161.57625	1252.9875
2164.52941	1259.6875
2167.48067	1254.1875
2170.43004	1261.3875
2173.37752	1256.9875
2176.32311	1260.0875
2179.26681	1254.6875
2182.20863	1263.1875
2185.14856	1258.8875
2188.08661	1257.4875
2191.02278	1252.9875
2193.95707	1252.1875
2196.88948	1258.4875
2199.82001	1257.5875
2202.74867	1248.0875
2205.67545	1247.9875
2208.60037	1238.0875
2211.52341	1250.1875
2214.44458	1257.1875
2217.36388	1246.2875
2220.28132	1242.0875
2223.1969	1240.7875
2226.11061	1230.4875
2229.02246	1244.5875
2231.93245	1234.5875
2234.84058	1226.3875
2237.74686	1233.0875
2240.65128	1230.4875
2243.55385	1237.9875
2246.45456	1234.2875
2249.35343	1226.7875
2252.25044	1223.4875
2255.14561	1229.9875
2258.03893	1229.0875
2260.93041	1225.9875
2263.82004	1224.1875
2266.70783	1219.6875
2269.59378	1219.0875
2272.4779	1223.2875
2275.36017	1209.6875
2278.24061	1205.1875
2281.11922	1207.6875
2283.996	1197.1875
2286.87094	1212.2875
2289.74405	1199.7875
2292.61534	1202.6875
2295.4848	1200.7875
2298.35243	1201.0875
2301.21824	1195.4875
2304.08223	1201.7875
2306.94439	1202.3875
2309.80474	1201.2875
2312.66327	1202.5875
2315.51999	1201.4875
2318.37489	1206.3875
2321.22797	1198.6875
2324.07925	1201.0875
2326.92871	1196.1875
2329.77637	1199.5875
2332.62222	1183.0875
2335.46626	1192.2875
2338.3085	1192.2875
2341.14893	1189.5875
2343.98756	1195.3875
2346.8244	1192.0875
2349.65943	1191.1875
2352.49267	1184.7875
2355.32411	1183.5875
2358.15376	1179.0875
2360.98161	1191.0875
2363.80768	1189.6875
2366.63195	1193.1875
2369.45444	1189.8875
2372.27514	1192.7875
2375.09405	1190.1875
2377.91118	1185.2875
2380.72652	1190.6875
2383.54009	1181.1875
2386.35187	1184.9875
2389.16188	1174.0875
2391.97011	1174.0875
2394.77657	1176.9875
2397.58125	1170.5875
2400.38416	1169.5875
2403.18529	1170.6875
2405.98466	1161.1875
2408.78226	1159.5875
2411.57809	1150.0875
2414.37216	1158.9875
2417.16446	1156.1875
2419.955	1153.7875
2422.74378	1152.4875
2425.5308	1153.3875
2428.31606	1160.3875
2431.09956	1155.1875
2433.88131	1150.4875
2436.6613	1152.4875
2439.43954	1154.9875
2442.21603	1143.1875
2444.99077	1152.0875
2447.76377	1160.2875
2450.53501	1150.8875
2453.30451	1154.4875
2456.07226	1149.5875
2458.83827	1154.1875
2461.60254	1150.3875
2464.36507	1155.9875
2467.12586	1145.2875
2469.88492	1143.6875
2472.64224	1146.0875
2475.39782	1150.5875
2478.15167	1148.0875
2480.90379	1155.3875
2483.65417	1147.1875
2486.40283	1157.3875
2489.14976	1151.9875
2491.89497	1159.5875
2494.63845	1151.2875
2497.3802	1158.8875
2500.12024	1150.6875
2502.85855	1147.9875
2505.59514	1142.6875
2508.33002	1141.0875
2511.06318	1139.9875
2513.79462	1145.9875
2516.52435	1138.2875
2519.25237	1130.4875
2521.97867	1133.9875
2524.70327	1139.8875
2527.42616	1128.6875
2530.14734	1131.3875
2532.86681	1129.2875
2535.58458	1131.0875
2538.30065	1130.7875
2541.01501	1126.2875
2543.72768	1130.5875
2546.43864	1128.7875
2549.14791	1128.0875
2551.85548	1114.0875
2554.56136	1132.7875
2557.26554	1119.6875
2559.96803	1119.1875
2562.66883	1125.3875
2565.36794	1114.7875
2568.06536	1112.6875
2570.7611	1115.7875
2573.45514	1116.6875
2576.14751	1108.8875
2578.83819	1102.6875
2581.52719	1111.1875
2584.21451	1107.9875
2586.90015	1104.4875
2589.58411	1104.4875
2592.2664	1106.0875
2594.94701	1106.5875
2597.62594	1096.8875
2600.30321	1108.1875
2602.9788	1100.2875
2605.65273	1103.7875
2608.32498	1097.3875
2610.99557	1104.3875
2613.66449	1098.5875
2616.33175	1097.0875
2618.99734	1101.3875
2621.66128	1096.2875
2624.32355	1089.8875
2626.98416	1100.3875
2629.64311	1093.8875
2632.30041	1092.7875
2634.95605	1088.0875
2637.61004	1092.0875
2640.26238	1087.4875
2642.91306	1081.8875
2645.56209	1083.1875
2648.20948	1082.9875
2650.85521	1087.9875
2653.4993	1092.1875
2656.14175	1089.6875
2658.78255	1085.3875
2661.42171	1089.4875
2664.05923	1078.3875
2666.6951	1090.7875
2669.32934	1086.2875
2671.96194	1083.0875
2674.59291	1091.1875
2677.22224	1086.9875
2679.84993	1085.5875
2682.476	1089.9875
2685.10043	1091.3875
2687.72324	1091.0875
2690.34441	1085.8875
2692.96396	1086.1875
2695.58188	1095.1875
2698.19818	1096.2875
2700.81285	1092.8875
2703.4259	1088.5875
2706.03733	1076.5875
2708.64714	1082.7875
2711.25533	1091.6875
2713.86191	1089.1875
2716.46687	1093.1875
2719.07021	1087.8875
2721.67194	1088.9875
2724.27206	1091.6875
2726.87057	1101.5875
2729.46747	1103.6875
2732.06276	1111.9875
2734.65644	1091.7875
2737.24852	1093.8875
2739.83899	1094.9875
2742.42786	1102.3875
2745.01513	1092.2875
2747.60079	1095.1875
2750.18486	1096.2875
2752.76733	1090.7875
2755.3482	1084.6875
2757.92747	1087.8875
2760.50515	1078.6875
2763.08123	1073.8875
2765.65573	1081.9875
2768.22863	1081.4875
2770.79994	1080.9875
2773.36967	1093.8875
2775.9378	1089.5875
2778.50435	1079.3875
2781.06932	1086.6875
2783.6327	1090.0875
2786.1945	1083.7875
2788.75471	1081.1875
2791.31335	1084.5875
2793.87041	1090.9875
2796.42589	1086.7875
2798.97979	1078.9875
2801.53212	1083.5875
2804.08288	1085.6875
2806.63206	1072.0875
2809.17967	1069.7875
2811.72571	1077.0875
2814.27018	1078.2875
2816.81308	1076.0875
2819.35442	1069.1875
2821.89419	1073.4875
2824.43239	1072.5875
2826.96904	1072.9875
2829.50412	1073.1875
2832.03763	1067.9875
2834.56959	1072.1875
2837.1	1075.2875
2839.62884	1074.7875
2842.15613	1061.5875
2844.68186	1071.5875
2847.20604	1068.3875
2849.72867	1069.7875
2852.24974	1077.0875
2854.76927	1084.2875
2857.28724	1079.2875
2859.80367	1077.9875
2862.31855	1077.9875
2864.83189	1076.1875
2867.34368	1081.8875
2869.85393	1080.2875
2872.36264	1077.8875
2874.8698	1080.4875
2877.37543	1087.0875
2879.87952	1082.9875
2882.38207	1077.3875
2884.88308	1079.1875
2887.38256	1082.6875
2889.88051	1085.7875
2892.37692	1090.6875
2894.8718	1084.3875
2897.36515	1102.6875
2899.85698	1091.3875
2902.34727	1090.2875
2904.83604	1093.5875
2907.32328	1090.5875
2909.809	1093.8875
2912.29319	1093.8875
2914.77587	1098.3875
2917.25702	1093.8875
2919.73665	1096.2875
2922.21476	1091.1875
2924.69136	1101.8875
2927.16644	1096.5875
2929.64	1093.1875
2932.11205	1094.3875
2934.58258	1091.2875
2937.05161	1086.1875
2939.51912	1091.3875
2941.98513	1095.0875
2944.44962	1090.5875
2946.91261	1089.4875
2949.37409	1091.8875
2951.83407	1103.5875
2954.29254	1101.6875
2956.74951	1105.9875
2959.20498	1099.0875
2961.65895	1101.6875
2964.11142	1099.6875
2966.56239	1096.4875
2969.01186	1101.4875
2971.45984	1104.4875
2973.90632	1102.7875
2976.35131	1103.0875
2978.7948	1098.1875
2981.23681	1109.5875
2983.67732	1092.1875
2986.11635	1101.1875
2988.55388	1097.6875
2990.98993	1091.6875
2993.4245	1093.4875
2995.85758	1097.1875
2998.28917	1091.7875
3000.71928	1101.2875
3003.14791	1103.5875
3005.57506	1102.1875
3008.00073	1091.4875
3010.42493	1098.7875
3012.84764	1109.8875
3015.26888	1104.0875
3017.68865	1098.5875
3020.10694	1102.4875
3022.52376	1108.3875
3024.9391	1109.2875
3027.35298	1115.6875
3029.76539	1115.8875
3032.17632	1115.3875
3034.5858	1105.4875
3036.9938	1120.4875
3039.40034	1117.2875
3041.80542	1121.4875
3044.20903	1121.9875
3046.61118	1127.4875
3049.01187	1124.5875
3051.4111	1128.0875
3053.80888	1133.5875
3056.20519	1141.2875
3058.60005	1138.8875
3060.99345	1138.6875
3063.3854	1131.9875
3065.7759	1140.7875
3068.16494	1145.3875
3070.55254	1129.4875
3072.93868	1147.4875
3075.32338	1146.8875
3077.70662	1148.8875
3080.08842	1149.4875
3082.46878	1151.8875
3084.84769	1158.3875
3087.22515	1157.3875
3089.60118	1171.1875
3091.97576	1178.8875
3094.3489	1176.5875
3096.72061	1179.0875
3099.09087	1193.1875
3101.4597	1191.2875
3103.82709	1193.9875
3106.19305	1215.6875
3108.55757	1212.1875
3110.92066	1217.9875
3113.28232	1231.0875
3115.64255	1237.6875
3118.00134	1231.2875
3120.35871	1231.6875
3122.71466	1240.4875
3125.06917	1242.8875
3127.42226	1243.5875
