Data from AgNPs_APTES_FTO_UA_100uM_CRN_0uM_R6G_10uM_Scan_RamanShift__60__11-49-41-309.txt Node

Date: Wed Jun 29 11:49:41 BST 2022
User: TCL
Spectrometer: QEP01345
Trigger mode: 4
Integration Time (sec): 7.000000E0
Scans to average: 10
Electric dark correction enabled: true
Nonlinearity correction enabled: false
Boxcar width: 0
XAxis mode: Raman Shifts
Number of Pixels in Spectrum: 1044
>>>>>Begin Spectral Data<<<<<
46.04893	-0.1125
50.45542	-0.1125
54.85868	0.5875
59.25871	0.7875
63.6555	38.5875
68.04907	40.6875
72.43941	45.1875
76.82654	47.7875
81.21044	50.9875
85.59113	52.0875
89.96862	57.6875
94.34289	59.5875
98.71396	62.1875
103.08183	62.6875
107.4465	62.7875
111.80798	67.9875
116.16626	62.8875
120.52136	63.6875
124.87327	61.6875
129.222	61.4875
133.56755	58.8875
137.90993	59.2875
142.24913	58.1875
146.58517	60.2875
150.91804	58.0875
155.24774	60.7875
159.57429	63.8875
163.89768	66.0875
168.21792	72.6875
172.53501	89.1875
176.84895	107.6875
181.15975	137.3875
185.46741	175.1875
189.77193	228.9875
194.07331	293.3875
198.37157	372.4875
202.6667	450.4875
206.9587	525.1875
211.24758	613.8875
215.53334	698.5875
219.81599	793.6875
224.09553	894.7875
228.37195	1009.9875
232.64527	1134.5875
236.91549	1255.1875
241.18261	1347.5875
245.44663	1440.2875
249.70755	1510.2875
253.96539	1576.7875
258.22014	1621.7875
262.4718	1671.6875
266.72039	1680.5875
270.96589	1678.7875
275.20832	1650.3875
279.44768	1615.6875
283.68397	1571.8875
287.91719	1547.6875
292.14735	1550.1875
296.37445	1576.9875
300.59849	1636.1875
304.81948	1713.6875
309.03742	1782.7875
313.25231	1797.4875
317.46415	1734.4875
321.67296	1629.7875
325.87872	1532.9875
330.08145	1493.9875
334.28114	1496.4875
338.47781	1530.8875
342.67145	1574.3875
346.86207	1636.0875
351.04966	1729.6875
355.23424	1847.5875
359.4158	1930.2875
363.59435	1957.7875
367.76989	1956.0875
371.94243	1946.9875
376.11196	1910.3875
380.27849	1899.9875
384.44203	1880.2875
388.60257	1863.5875
392.76012	1858.0875
396.91468	1884.9875
401.06626	1925.2875
405.21485	1942.9875
409.36047	1910.9875
413.50311	1837.8875
417.64277	1754.3875
421.77947	1715.1875
425.9132	1705.0875
430.04396	1696.2875
434.17176	1697.0875
438.2966	1741.5875
442.41849	1765.4875
446.53742	1803.6875
450.6534	1840.5875
454.76644	1855.2875
458.87653	1857.8875
462.98368	1837.6875
467.08789	1828.0875
471.18916	1809.4875
475.2875	1775.4875
479.38291	1756.0875
483.4754	1763.8875
487.56496	1751.2875
491.6516	1771.5875
495.73531	1774.6875
499.81612	1771.4875
503.89401	1772.7875
507.96899	1782.7875
512.04106	1805.7875
516.11023	1831.9875
520.1765	1854.0875
524.23987	1869.2875
528.30034	1862.9875
532.35792	1848.9875
536.41261	1831.0875
540.46441	1799.9875
544.51333	1780.5875
548.55936	1776.4875
552.60252	1801.4875
556.64279	1824.1875
560.6802	1851.5875
564.71473	1896.3875
568.7464	1972.8875
572.7752	1984.9875
576.80114	1881.0875
580.82422	1817.9875
584.84444	1781.2875
588.86181	1806.8875
592.87633	1816.3875
596.888	1850.6875
600.89682	1904.8875
604.9028	2124.8875
608.90594	2694.3875
612.90624	3330.3875
616.90371	3193.7875
620.89834	2400.2875
624.89015	2083.1875
628.87913	2083.1875
632.86528	2150.3875
636.84862	2194.3875
640.82913	2131.4875
644.80683	2023.3875
648.78172	1940.3875
652.75379	1895.9875
656.72306	1925.3875
660.68952	1986.9875
664.65319	1949.5875
668.61405	1868.3875
672.57211	1830.6875
676.52738	1834.8875
680.47986	1833.0875
684.42955	1822.5875
688.37646	1829.4875
692.32058	1839.2875
696.26192	1837.1875
700.20048	1874.8875
704.13626	1855.9875
708.06928	1846.0875
711.99952	1844.8875
715.927	1837.2875
719.85171	1865.4875
723.77365	1877.9875
727.69284	1871.3875
731.60928	1859.3875
735.52295	1866.7875
739.43388	1852.5875
743.34206	1854.1875
747.24749	1857.1875
751.15017	1871.1875
755.05012	1859.3875
758.94733	1983.6875
762.8418	2191.8875
766.73354	2500.4875
770.62254	2753.9875
774.50882	2847.5875
778.39237	2760.1875
782.27321	2476.1875
786.15132	2169.5875
790.02671	1981.0875
793.89938	1913.2875
797.76935	1891.7875
801.6366	1902.8875
805.50115	1920.7875
809.36299	1952.6875
813.22213	1956.4875
817.07857	1945.6875
820.93231	1926.4875
824.78336	1893.9875
828.63172	1870.8875
832.47738	1880.4875
836.32036	1873.2875
840.16066	1855.8875
843.99827	1848.5875
847.8332	1844.2875
851.66546	1843.7875
855.49504	1836.7875
859.32195	1844.6875
863.1462	1840.0875
866.96777	1839.5875
870.78668	1856.7875
874.60293	1873.9875
878.41652	1917.8875
882.22745	1939.5875
886.03573	1959.2875
889.84136	1973.6875
893.64433	1952.8875
897.44466	1925.6875
901.24235	1895.5875
905.0374	1876.0875
908.8298	1851.3875
912.61957	1834.6875
916.40671	1824.8875
920.19121	1824.3875
923.97308	1845.2875
927.75233	1859.5875
931.52895	1902.4875
935.30295	1875.8875
939.07433	1841.2875
942.84309	1797.3875
946.60924	1781.8875
950.37278	1782.4875
954.13371	1775.5875
957.89203	1777.1875
961.64774	1772.4875
965.40086	1762.8875
969.15137	1753.7875
972.89929	1755.2875
976.64461	1760.1875
980.38733	1751.1875
984.12747	1753.1875
987.86502	1758.2875
991.59999	1773.0875
995.33237	1799.6875
999.06217	1829.2875
1002.78939	1874.8875
1006.51404	1918.2875
1010.23611	1933.1875
1013.95561	1956.2875
1017.67255	1958.6875
1021.38692	1953.1875
1025.09872	1926.3875
1028.80796	1920.8875
1032.51465	1937.4875
1036.21877	1940.2875
1039.92035	1945.9875
1043.61937	1941.2875
1047.31584	1923.0875
1051.00976	1891.5875
1054.70114	1887.1875
1058.38998	1889.2875
1062.07627	1888.3875
1065.76003	1906.1875
1069.44126	1909.1875
1073.11995	1923.8875
1076.79611	1951.9875
1080.46974	1989.9875
1084.14085	2050.7875
1087.80943	2087.8875
1091.47549	2074.5875
1095.13903	2038.5875
1098.80005	1979.6875
1102.45857	1936.1875
1106.11456	1931.9875
1109.76805	1964.9875
1113.41903	2027.6875
1117.06751	2117.3875
1120.71348	2235.4875
1124.35696	2399.2875
1127.99793	2507.7875
1131.63641	2480.1875
1135.2724	2379.9875
1138.90589	2282.4875
1142.5369	2187.9875
1146.16542	2122.7875
1149.79145	2052.9875
1153.415	2001.0875
1157.03607	1973.8875
1160.65467	1984.9875
1164.27079	2019.0875
1167.88443	2097.4875
1171.49561	2222.2875
1175.10432	2430.8875
1178.71056	2700.2875
1182.31434	2915.7875
1185.91565	2956.8875
1189.51451	2870.0875
1193.11091	2718.8875
1196.70485	2596.2875
1200.29634	2513.1875
1203.88538	2458.3875
1207.47197	2338.7875
1211.05612	2221.2875
1214.63782	2131.6875
1218.21708	2075.4875
1221.79391	2045.8875
1225.36829	2036.7875
1228.94024	2029.4875
1232.50976	2013.4875
1236.07685	2021.3875
1239.6415	2017.6875
1243.20374	2033.0875
1246.76355	2035.2875
1250.32093	2070.5875
1253.8759	2101.1875
1257.42845	2162.2875
1260.97859	2212.1875
1264.52631	2276.2875
1268.07163	2332.2875
1271.61453	2367.2875
1275.15503	2377.1875
1278.69312	2379.0875
1282.22882	2411.7875
1285.76211	2468.3875
1289.29301	2549.9875
1292.82151	2613.9875
1296.34761	2687.8875
1299.87133	2824.8875
1303.39266	3063.4875
1306.9116	3489.2875
1310.42815	3882.8875
1313.94233	4005.5875
1317.45412	3729.2875
1320.96354	3322.6875
1324.47058	2966.5875
1327.97525	2700.6875
1331.47754	2575.1875
1334.97747	2527.3875
1338.47502	2590.8875
1341.97022	2731.6875
1345.46305	2939.5875
1348.95352	3187.4875
1352.44163	3473.1875
1355.92738	3884.0875
1359.41078	4563.5875
1362.89183	5105.9875
1366.37053	4726.6875
1369.84688	3836.8875
1373.32088	3158.6875
1376.79254	2811.5875
1380.26186	2608.2875
1383.72883	2455.0875
1387.19347	2338.4875
1390.65578	2237.1875
1394.11575	2165.8875
1397.57339	2113.2875
1401.0287	2099.5875
1404.48168	2087.8875
1407.93234	2087.4875
1411.38068	2099.6875
1414.82669	2115.4875
1418.27039	2133.0875
1421.71177	2109.0875
1425.15083	2081.5875
1428.58758	2114.1875
1432.02203	2164.4875
1435.45416	2177.5875
1438.88399	2160.3875
1442.31151	2133.5875
1445.73673	2132.0875
1449.15965	2140.4875
1452.58027	2148.0875
1455.9986	2114.8875
1459.41463	2100.2875
1462.82837	2117.7875
1466.23982	2165.9875
1469.64898	2205.6875
1473.05586	2209.5875
1476.46045	2210.2875
1479.86276	2231.6875
1483.26279	2263.3875
1486.66054	2344.1875
1490.05602	2445.4875
1493.44922	2602.5875
1496.84016	2847.5875
1500.22882	3224.9875
1503.61521	3768.2875
1506.99934	4363.5875
1510.38121	4844.3875
1513.76081	4885.7875
1517.13816	4423.1875
1520.51324	3730.0875
1523.88607	3123.8875
1527.25665	2746.3875
1530.62498	2554.1875
1533.99105	2434.2875
1537.35488	2354.5875
1540.71647	2329.4875
1544.07581	2325.2875
1547.4329	2353.1875
1550.78776	2359.1875
1554.14038	2388.3875
1557.49077	2433.3875
1560.83892	2483.1875
1564.18484	2567.1875
1567.52853	2679.1875
1570.86999	2732.5875
1574.20922	2772.3875
1577.54624	2719.7875
1580.88103	2575.1875
1584.2136	2400.5875
1587.54395	2280.1875
1590.87208	2263.9875
1594.19801	2366.9875
1597.52172	2510.9875
1600.84321	2580.4875
1604.16251	2520.2875
1607.47959	2418.3875
1610.79447	2299.6875
1614.10715	2186.4875
1617.41763	2111.6875
1620.7259	2057.2875
1624.03199	2044.8875
1627.33587	2042.5875
1630.63757	2084.5875
1633.93707	2160.7875
1637.23439	2308.3875
1640.52951	2528.6875
1643.82246	2873.7875
1647.11321	3287.8875
1650.40179	3531.6875
1653.68819	3390.2875
1656.97241	2946.8875
1660.25446	2500.1875
1663.53433	2197.3875
1666.81203	2012.9875
1670.08756	1917.8875
1673.36092	1860.9875
1676.63211	1825.1875
1679.90115	1785.3875
1683.16801	1765.0875
1686.43272	1741.7875
1689.69527	1733.4875
1692.95567	1710.0875
1696.2139	1706.2875
1699.46999	1685.4875
1702.72392	1681.8875
1705.97571	1666.2875
1709.22535	1649.6875
1712.47284	1652.6875
1715.71819	1644.2875
1718.96139	1640.5875
1722.20246	1629.1875
1725.44139	1616.3875
1728.67818	1592.4875
1731.91284	1583.8875
1735.14537	1571.9875
1738.37576	1569.7875
1741.60403	1563.1875
1744.83017	1553.0875
1748.05418	1548.9875
1751.27607	1544.8875
1754.49584	1542.3875
1757.71349	1534.8875
1760.92903	1531.0875
1764.14244	1533.8875
1767.35375	1525.6875
1770.56294	1520.5875
1773.77002	1514.5875
1776.97499	1500.5875
1780.17785	1499.8875
1783.37861	1508.4875
1786.57727	1499.2875
1789.77382	1495.8875
1792.96828	1494.0875
1796.16064	1494.3875
1799.3509	1488.3875
1802.53907	1483.1875
1805.72514	1477.1875
1808.90913	1477.1875
1812.09102	1471.7875
1815.27083	1465.7875
1818.44856	1460.5875
1821.6242	1464.1875
1824.79776	1455.4875
1827.96924	1455.3875
1831.13864	1460.0875
1834.30597	1453.4875
1837.47122	1446.5875
1840.6344	1448.5875
1843.7955	1448.6875
1846.95454	1441.3875
1850.11151	1440.2875
1853.26642	1444.7875
1856.41926	1439.6875
1859.57004	1439.7875
1862.71876	1438.7875
1865.86542	1436.7875
1869.01003	1454.4875
1872.15258	1442.3875
1875.29308	1441.0875
1878.43152	1429.9875
1881.56792	1430.7875
1884.70227	1436.1875
1887.83457	1431.2875
1890.96482	1432.0875
1894.09304	1430.8875
1897.21921	1427.8875
1900.34335	1414.2875
1903.46544	1415.8875
1906.58551	1429.8875
1909.70353	1428.7875
1912.81953	1419.6875
1915.93349	1421.8875
1919.04543	1426.6875
1922.15534	1423.3875
1925.26322	1409.5875
1928.36908	1411.9875
1931.47292	1411.1875
1934.57473	1412.3875
1937.67453	1396.8875
1940.77232	1396.9875
1943.86808	1396.9875
1946.96184	1390.0875
1950.05358	1390.0875
1953.14331	1384.9875
1956.23103	1384.6875
1959.31675	1378.6875
1962.40046	1369.3875
1965.48217	1372.7875
1968.56188	1363.0875
1971.63959	1366.9875
1974.7153	1356.0875
1977.78901	1362.1875
1980.86073	1350.4875
1983.93046	1342.6875
1986.99819	1336.2875
1990.06394	1332.6875
1993.1277	1328.3875
1996.18947	1328.3875
1999.24925	1323.0875
2002.30706	1320.5875
2005.36288	1311.1875
2008.41672	1315.7875
2011.46859	1308.3875
2014.51848	1307.3875
2017.56639	1301.7875
2020.61233	1297.6875
2023.6563	1286.8875
2026.6983	1291.5875
2029.73833	1289.1875
2032.7764	1284.3875
2035.8125	1287.6875
2038.84664	1279.4875
2041.87881	1286.8875
2044.90903	1277.9875
2047.93729	1282.2875
2050.96359	1278.2875
2053.98794	1273.8875
2057.01034	1276.0875
2060.03078	1271.6875
2063.04927	1266.2875
2066.06582	1276.7875
2069.08042	1271.4875
2072.09307	1269.5875
2075.10378	1266.0875
2078.11255	1265.7875
2081.11938	1266.0875
2084.12426	1265.1875
2087.12722	1269.9875
2090.12824	1265.7875
2093.12732	1266.4875
2096.12447	1264.3875
2099.11969	1267.8875
2102.11299	1262.8875
2105.10435	1264.5875
2108.09379	1269.2875
2111.08131	1270.7875
2114.0669	1276.2875
2117.05057	1280.3875
2120.03233	1282.6875
2123.01216	1275.5875
2125.99008	1277.7875
2128.96609	1283.2875
2131.94018	1287.9875
2134.91236	1284.7875
2137.88263	1285.8875
2140.851	1287.0875
2143.81746	1285.0875
2146.78201	1286.6875
2149.74466	1291.2875
2152.7054	1287.2875
2155.66425	1280.3875
2158.6212	1285.9875
2161.57625	1276.7875
2164.52941	1278.1875
2167.48067	1272.5875
2170.43004	1279.4875
2173.37752	1279.3875
2176.32311	1277.2875
2179.26681	1279.1875
2182.20863	1276.4875
2185.14856	1280.6875
2188.08661	1281.5875
2191.02278	1289.2875
2193.95707	1277.1875
2196.88948	1278.3875
2199.82001	1272.3875
2202.74867	1278.4875
2205.67545	1276.8875
2208.60037	1272.1875
2211.52341	1273.2875
2214.44458	1272.1875
2217.36388	1270.6875
2220.28132	1262.0875
2223.1969	1265.8875
2226.11061	1265.1875
2229.02246	1253.8875
2231.93245	1254.7875
2234.84058	1250.1875
2237.74686	1252.3875
2240.65128	1256.7875
2243.55385	1249.0875
2246.45456	1244.7875
2249.35343	1247.2875
2252.25044	1249.3875
2255.14561	1254.0875
2258.03893	1252.7875
2260.93041	1240.2875
2263.82004	1249.0875
2266.70783	1237.1875
2269.59378	1239.3875
2272.4779	1234.4875
2275.36017	1229.8875
2278.24061	1243.7875
2281.11922	1229.6875
2283.996	1223.7875
2286.87094	1223.5875
2289.74405	1229.0875
2292.61534	1224.4875
2295.4848	1216.1875
2298.35243	1217.0875
2301.21824	1221.4875
2304.08223	1212.8875
2306.94439	1215.1875
2309.80474	1218.2875
2312.66327	1219.4875
2315.51999	1222.2875
2318.37489	1224.3875
2321.22797	1213.2875
2324.07925	1216.9875
2326.92871	1214.2875
2329.77637	1224.0875
2332.62222	1206.6875
2335.46626	1217.2875
2338.3085	1206.1875
2341.14893	1214.7875
2343.98756	1213.6875
2346.8244	1210.8875
2349.65943	1213.9875
2352.49267	1210.7875
2355.32411	1220.3875
2358.15376	1216.9875
2360.98161	1214.2875
2363.80768	1216.5875
2366.63195	1217.3875
2369.45444	1214.4875
2372.27514	1217.4875
2375.09405	1211.5875
2377.91118	1215.1875
2380.72652	1204.9875
2383.54009	1203.4875
2386.35187	1201.8875
2389.16188	1197.9875
2391.97011	1202.1875
2394.77657	1198.7875
2397.58125	1176.7875
2400.38416	1189.7875
2403.18529	1193.5875
2405.98466	1177.4875
2408.78226	1181.2875
2411.57809	1183.1875
2414.37216	1178.4875
2417.16446	1175.5875
2419.955	1169.1875
2422.74378	1178.3875
2425.5308	1172.8875
2428.31606	1180.1875
2431.09956	1174.8875
2433.88131	1173.2875
2436.6613	1169.2875
2439.43954	1165.8875
2442.21603	1171.8875
2444.99077	1176.7875
2447.76377	1177.0875
2450.53501	1177.7875
2453.30451	1173.3875
2456.07226	1173.3875
2458.83827	1170.5875
2461.60254	1160.3875
2464.36507	1169.8875
2467.12586	1168.3875
2469.88492	1162.8875
2472.64224	1174.1875
2475.39782	1164.7875
2478.15167	1167.4875
2480.90379	1181.4875
2483.65417	1179.1875
2486.40283	1177.1875
2489.14976	1179.7875
2491.89497	1181.9875
2494.63845	1173.5875
2497.3802	1173.7875
2500.12024	1174.2875
2502.85855	1162.7875
2505.59514	1169.1875
2508.33002	1168.8875
2511.06318	1163.7875
2513.79462	1164.1875
2516.52435	1154.8875
2519.25237	1151.2875
2521.97867	1149.4875
2524.70327	1145.9875
2527.42616	1148.1875
2530.14734	1144.8875
2532.86681	1140.8875
2535.58458	1149.2875
2538.30065	1136.1875
2541.01501	1152.3875
2543.72768	1145.2875
2546.43864	1142.1875
2549.14791	1146.4875
2551.85548	1140.7875
2554.56136	1145.3875
2557.26554	1141.6875
2559.96803	1136.0875
2562.66883	1147.5875
2565.36794	1138.5875
2568.06536	1137.9875
2570.7611	1129.9875
2573.45514	1132.4875
2576.14751	1131.8875
2578.83819	1129.9875
2581.52719	1131.1875
2584.21451	1130.8875
2586.90015	1115.4875
2589.58411	1121.9875
2592.2664	1122.0875
2594.94701	1123.7875
2597.62594	1124.3875
2600.30321	1118.3875
2602.9788	1119.0875
2605.65273	1120.8875
2608.32498	1125.9875
2610.99557	1118.1875
2613.66449	1114.6875
2616.33175	1114.1875
2618.99734	1122.0875
2621.66128	1109.6875
2624.32355	1107.9875
2626.98416	1117.3875
2629.64311	1108.9875
2632.30041	1114.5875
2634.95605	1108.9875
2637.61004	1111.7875
2640.26238	1115.2875
2642.91306	1099.5875
2645.56209	1095.2875
2648.20948	1101.6875
2650.85521	1109.2875
2653.4993	1105.6875
2656.14175	1112.5875
2658.78255	1104.8875
2661.42171	1111.5875
2664.05923	1104.3875
2666.6951	1104.9875
2669.32934	1115.8875
2671.96194	1111.7875
2674.59291	1115.1875
2677.22224	1105.1875
2679.84993	1111.5875
2682.476	1112.4875
2685.10043	1113.8875
2687.72324	1108.5875
2690.34441	1113.9875
2692.96396	1106.4875
2695.58188	1111.0875
2698.19818	1106.2875
2700.81285	1109.8875
2703.4259	1104.8875
2706.03733	1108.9875
2708.64714	1099.6875
2711.25533	1097.8875
2713.86191	1106.0875
2716.46687	1111.4875
2719.07021	1110.0875
2721.67194	1119.8875
2724.27206	1108.6875
2726.87057	1121.7875
2729.46747	1118.5875
2732.06276	1124.2875
2734.65644	1122.4875
2737.24852	1119.5875
2739.83899	1117.0875
2742.42786	1117.9875
2745.01513	1107.6875
2747.60079	1108.6875
2750.18486	1108.7875
2752.76733	1108.5875
2755.3482	1101.6875
2757.92747	1104.0875
2760.50515	1104.6875
2763.08123	1104.0875
2765.65573	1097.5875
2768.22863	1098.4875
2770.79994	1110.3875
2773.36967	1107.1875
2775.9378	1095.2875
2778.50435	1107.4875
2781.06932	1103.5875
2783.6327	1106.3875
2786.1945	1108.9875
2788.75471	1095.7875
2791.31335	1111.3875
2793.87041	1103.1875
2796.42589	1097.4875
2798.97979	1102.6875
2801.53212	1110.5875
2804.08288	1100.7875
2806.63206	1095.7875
2809.17967	1088.6875
2811.72571	1094.9875
2814.27018	1098.5875
2816.81308	1095.9875
2819.35442	1087.2875
2821.89419	1091.4875
2824.43239	1093.3875
2826.96904	1092.7875
2829.50412	1092.5875
2832.03763	1092.1875
2834.56959	1099.9875
2837.1	1094.3875
2839.62884	1089.5875
2842.15613	1083.4875
2844.68186	1092.2875
2847.20604	1091.8875
2849.72867	1086.9875
2852.24974	1098.1875
2854.76927	1092.2875
2857.28724	1094.3875
2859.80367	1098.7875
2862.31855	1102.1875
2864.83189	1096.5875
2867.34368	1109.7875
2869.85393	1096.5875
2872.36264	1100.7875
2874.8698	1105.9875
2877.37543	1102.8875
2879.87952	1107.0875
2882.38207	1103.2875
2884.88308	1100.3875
2887.38256	1105.2875
2889.88051	1106.3875
2892.37692	1103.8875
2894.8718	1110.6875
2897.36515	1110.2875
2899.85698	1103.2875
2902.34727	1113.0875
2904.83604	1110.3875
2907.32328	1106.7875
2909.809	1107.5875
2912.29319	1116.4875
2914.77587	1109.6875
2917.25702	1119.9875
2919.73665	1114.7875
2922.21476	1123.3875
2924.69136	1109.5875
2927.16644	1112.0875
2929.64	1117.9875
2932.11205	1113.9875
2934.58258	1112.4875
2937.05161	1105.2875
2939.51912	1111.9875
2941.98513	1114.7875
2944.44962	1108.1875
2946.91261	1105.2875
2949.37409	1119.7875
2951.83407	1122.0875
2954.29254	1115.3875
2956.74951	1122.4875
2959.20498	1120.2875
2961.65895	1119.1875
2964.11142	1124.3875
2966.56239	1117.1875
2969.01186	1115.7875
2971.45984	1129.6875
2973.90632	1123.3875
2976.35131	1123.5875
2978.7948	1118.9875
2981.23681	1117.9875
2983.67732	1110.9875
2986.11635	1113.2875
2988.55388	1106.4875
2990.98993	1113.8875
2993.4245	1110.6875
2995.85758	1109.5875
2998.28917	1112.8875
3000.71928	1117.4875
3003.14791	1118.5875
3005.57506	1124.9875
3008.00073	1118.1875
3010.42493	1113.5875
3012.84764	1116.9875
3015.26888	1118.0875
3017.68865	1127.4875
3020.10694	1123.9875
3022.52376	1134.1875
3024.9391	1120.2875
3027.35298	1128.0875
3029.76539	1127.1875
3032.17632	1125.8875
3034.5858	1134.2875
3036.9938	1135.1875
3039.40034	1129.2875
3041.80542	1139.9875
3044.20903	1142.1875
3046.61118	1134.6875
3049.01187	1134.3875
3051.4111	1147.0875
3053.80888	1151.0875
3056.20519	1152.2875
3058.60005	1152.5875
3060.99345	1156.1875
3063.3854	1148.8875
3065.7759	1149.1875
3068.16494	1151.2875
3070.55254	1153.6875
3072.93868	1163.2875
3075.32338	1156.1875
3077.70662	1167.1875
3080.08842	1166.4875
3082.46878	1170.0875
3084.84769	1169.1875
3087.22515	1178.0875
3089.60118	1180.0875
3091.97576	1192.2875
3094.3489	1180.4875
3096.72061	1193.5875
3099.09087	1202.5875
3101.4597	1205.7875
3103.82709	1218.7875
3106.19305	1219.9875
3108.55757	1234.3875
3110.92066	1233.9875
3113.28232	1241.2875
3115.64255	1244.6875
3118.00134	1251.2875
3120.35871	1258.8875
3122.71466	1258.9875
3125.06917	1257.9875
3127.42226	1258.3875
