Data from AgNPs_APTES_FTO_UA_100uM_CRN_0uM_R6G_10uM_Scan_RamanShift__27__11-11-11-263.txt Node

Date: Wed Jun 29 11:11:11 BST 2022
User: TCL
Spectrometer: QEP01345
Trigger mode: 4
Integration Time (sec): 7.000000E0
Scans to average: 10
Electric dark correction enabled: true
Nonlinearity correction enabled: false
Boxcar width: 0
XAxis mode: Raman Shifts
Number of Pixels in Spectrum: 1044
>>>>>Begin Spectral Data<<<<<
46.04893	0.075
50.45542	0.475
54.85868	0.475
59.25871	1.975
63.6555	33.275
68.04907	34.875
72.43941	38.475
76.82654	39.575
81.21044	43.775
85.59113	46.875
89.96862	45.775
94.34289	48.975
98.71396	52.875
103.08183	54.375
107.4465	52.675
111.80798	57.775
116.16626	53.275
120.52136	53.875
124.87327	51.575
129.222	52.875
133.56755	50.775
137.90993	49.575
142.24913	49.575
146.58517	45.975
150.91804	46.275
155.24774	50.175
159.57429	50.475
163.89768	54.975
168.21792	59.775
172.53501	69.175
176.84895	79.975
181.15975	101.375
185.46741	126.675
189.77193	164.275
194.07331	205.775
198.37157	264.475
202.6667	318.275
206.9587	370.175
211.24758	432.775
215.53334	491.275
219.81599	550.875
224.09553	611.875
228.37195	695.375
232.64527	771.375
236.91549	859.775
241.18261	935.775
245.44663	1033.975
249.70755	1102.375
253.96539	1165.175
258.22014	1205.375
262.4718	1223.275
266.72039	1222.675
270.96589	1204.675
275.20832	1163.175
279.44768	1131.675
283.68397	1086.275
287.91719	1047.475
292.14735	1004.875
296.37445	983.575
300.59849	951.575
304.81948	932.975
309.03742	922.875
313.25231	911.075
317.46415	897.375
321.67296	888.475
325.87872	882.675
330.08145	876.575
334.28114	879.975
338.47781	884.175
342.67145	889.375
346.86207	894.675
351.04966	913.575
355.23424	921.975
359.4158	924.975
363.59435	940.575
367.76989	943.775
371.94243	956.475
376.11196	953.375
380.27849	961.875
384.44203	971.875
388.60257	972.875
392.76012	982.075
396.91468	985.075
401.06626	1001.975
405.21485	1001.075
409.36047	1014.275
413.50311	1011.875
417.64277	1008.275
421.77947	1002.575
425.9132	999.975
430.04396	997.275
434.17176	1003.975
438.2966	1010.175
442.41849	1016.775
446.53742	1027.275
450.6534	1033.775
454.76644	1045.475
458.87653	1054.275
462.98368	1063.175
467.08789	1067.675
471.18916	1060.275
475.2875	1062.875
479.38291	1064.375
483.4754	1071.975
487.56496	1072.475
491.6516	1078.975
495.73531	1082.475
499.81612	1084.275
503.89401	1073.275
507.96899	1080.375
512.04106	1073.575
516.11023	1068.775
520.1765	1060.475
524.23987	1050.975
528.30034	1050.275
532.35792	1043.375
536.41261	1044.975
540.46441	1036.775
544.51333	1043.275
548.55936	1040.675
552.60252	1047.575
556.64279	1048.175
560.6802	1049.075
564.71473	1044.775
568.7464	1052.775
572.7752	1057.175
576.80114	1042.275
580.82422	1047.475
584.84444	1046.175
588.86181	1050.075
592.87633	1055.175
596.888	1055.675
600.89682	1068.175
604.9028	1093.675
608.90594	1129.975
612.90624	1188.575
616.90371	1184.275
620.89834	1133.675
624.89015	1096.275
628.87913	1093.675
632.86528	1095.175
636.84862	1101.975
640.82913	1104.275
644.80683	1118.475
648.78172	1102.175
652.75379	1111.175
656.72306	1117.575
660.68952	1128.075
664.65319	1136.175
668.61405	1137.975
672.57211	1149.575
676.52738	1168.975
680.47986	1188.675
684.42955	1200.775
688.37646	1230.775
692.32058	1226.175
696.26192	1208.375
700.20048	1178.775
704.13626	1166.175
708.06928	1154.175
711.99952	1149.375
715.927	1145.975
719.85171	1135.275
723.77365	1126.875
727.69284	1129.175
731.60928	1116.475
735.52295	1118.475
739.43388	1119.775
743.34206	1129.175
747.24749	1125.475
751.15017	1125.875
755.05012	1093.875
758.94733	1122.775
762.8418	1149.375
766.73354	1167.875
770.62254	1191.075
774.50882	1205.875
778.39237	1198.375
782.27321	1178.875
786.15132	1158.375
790.02671	1139.475
793.89938	1135.075
797.76935	1134.275
801.6366	1149.075
805.50115	1138.975
809.36299	1145.675
813.22213	1138.375
817.07857	1143.575
820.93231	1127.075
824.78336	1122.275
828.63172	1102.375
832.47738	1107.475
836.32036	1110.375
840.16066	1102.675
843.99827	1109.575
847.8332	1107.875
851.66546	1111.675
855.49504	1101.775
859.32195	1105.175
863.1462	1101.775
866.96777	1101.975
870.78668	1102.975
874.60293	1093.775
878.41652	1096.075
882.22745	1107.575
886.03573	1100.675
889.84136	1109.875
893.64433	1132.775
897.44466	1127.075
901.24235	1130.575
905.0374	1128.875
908.8298	1134.875
912.61957	1138.175
916.40671	1141.175
920.19121	1146.575
923.97308	1151.575
927.75233	1157.275
931.52895	1151.775
935.30295	1142.375
939.07433	1139.975
942.84309	1125.275
946.60924	1116.175
950.37278	1120.175
954.13371	1107.575
957.89203	1114.175
961.64774	1116.875
965.40086	1098.475
969.15137	1101.675
972.89929	1101.875
976.64461	1092.775
980.38733	1091.575
984.12747	1090.275
987.86502	1093.875
991.59999	1094.475
995.33237	1095.775
999.06217	1099.475
1002.78939	1105.575
1006.51404	1107.375
1010.23611	1106.375
1013.95561	1114.875
1017.67255	1113.375
1021.38692	1107.275
1025.09872	1112.275
1028.80796	1110.375
1032.51465	1120.075
1036.21877	1111.875
1039.92035	1110.275
1043.61937	1119.175
1047.31584	1115.375
1051.00976	1115.975
1054.70114	1124.875
1058.38998	1123.575
1062.07627	1125.675
1065.76003	1124.775
1069.44126	1122.275
1073.11995	1129.275
1076.79611	1117.575
1080.46974	1127.275
1084.14085	1119.875
1087.80943	1118.275
1091.47549	1117.875
1095.13903	1109.075
1098.80005	1102.775
1102.45857	1099.775
1106.11456	1087.275
1109.76805	1091.275
1113.41903	1102.875
1117.06751	1111.875
1120.71348	1119.575
1124.35696	1118.575
1127.99793	1146.375
1131.63641	1155.775
1135.2724	1156.575
1138.90589	1152.475
1142.5369	1157.275
1146.16542	1162.175
1149.79145	1143.875
1153.415	1141.675
1157.03607	1126.075
1160.65467	1129.375
1164.27079	1128.075
1167.88443	1126.775
1171.49561	1136.275
1175.10432	1142.775
1178.71056	1168.575
1182.31434	1199.075
1185.91565	1194.975
1189.51451	1189.975
1193.11091	1175.875
1196.70485	1172.775
1200.29634	1168.175
1203.88538	1163.475
1207.47197	1161.875
1211.05612	1158.675
1214.63782	1146.075
1218.21708	1151.475
1221.79391	1160.775
1225.36829	1164.375
1228.94024	1160.475
1232.50976	1165.775
1236.07685	1159.075
1239.6415	1163.575
1243.20374	1160.675
1246.76355	1166.875
1250.32093	1153.175
1253.8759	1168.375
1257.42845	1172.975
1260.97859	1168.375
1264.52631	1166.275
1268.07163	1183.575
1271.61453	1194.375
1275.15503	1196.175
1278.69312	1197.875
1282.22882	1203.575
1285.76211	1216.775
1289.29301	1220.975
1292.82151	1234.775
1296.34761	1245.675
1299.87133	1275.175
1303.39266	1283.075
1306.9116	1314.575
1310.42815	1350.775
1313.94233	1358.775
1317.45412	1348.675
1320.96354	1337.275
1324.47058	1333.475
1327.97525	1310.075
1331.47754	1309.075
1334.97747	1309.875
1338.47502	1317.075
1341.97022	1331.375
1345.46305	1337.975
1348.95352	1365.475
1352.44163	1390.975
1355.92738	1418.475
1359.41078	1449.775
1362.89183	1487.775
1366.37053	1493.575
1369.84688	1434.375
1373.32088	1371.575
1376.79254	1329.775
1380.26186	1306.475
1383.72883	1289.075
1387.19347	1273.775
1390.65578	1246.175
1394.11575	1246.375
1397.57339	1238.075
1401.0287	1234.175
1404.48168	1234.675
1407.93234	1223.275
1411.38068	1222.475
1414.82669	1206.175
1418.27039	1200.575
1421.71177	1193.875
1425.15083	1180.375
1428.58758	1170.675
1432.02203	1154.775
1435.45416	1157.675
1438.88399	1150.175
1442.31151	1141.575
1445.73673	1136.675
1449.15965	1125.875
1452.58027	1132.575
1455.9986	1141.675
1459.41463	1132.375
1462.82837	1142.575
1466.23982	1141.075
1469.64898	1137.575
1473.05586	1153.375
1476.46045	1160.275
1479.86276	1164.175
1483.26279	1161.675
1486.66054	1168.275
1490.05602	1171.975
1493.44922	1191.775
1496.84016	1197.375
1500.22882	1219.375
1503.61521	1249.475
1506.99934	1282.275
1510.38121	1311.375
1513.76081	1303.875
1517.13816	1288.275
1520.51324	1256.475
1523.88607	1219.775
1527.25665	1211.375
1530.62498	1202.675
1533.99105	1203.175
1537.35488	1205.575
1540.71647	1203.875
1544.07581	1214.575
1547.4329	1220.175
1550.78776	1220.475
1554.14038	1226.975
1557.49077	1232.675
1560.83892	1240.575
1564.18484	1237.775
1567.52853	1247.275
1570.86999	1255.575
1574.20922	1260.875
1577.54624	1267.275
1580.88103	1255.575
1584.2136	1244.275
1587.54395	1219.675
1590.87208	1214.875
1594.19801	1198.275
1597.52172	1201.475
1600.84321	1197.875
1604.16251	1190.075
1607.47959	1175.875
1610.79447	1167.275
1614.10715	1154.675
1617.41763	1142.675
1620.7259	1141.075
1624.03199	1135.775
1627.33587	1121.475
1630.63757	1114.975
1633.93707	1105.875
1637.23439	1104.775
1640.52951	1094.875
1643.82246	1099.275
1647.11321	1109.075
1650.40179	1116.975
1653.68819	1088.675
1656.97241	1063.175
1660.25446	1038.875
1663.53433	1005.275
1666.81203	987.675
1670.08756	986.975
1673.36092	979.175
1676.63211	980.675
1679.90115	982.875
1683.16801	967.375
1686.43272	963.575
1689.69527	939.675
1692.95567	921.975
1696.2139	887.375
1699.46999	854.975
1702.72392	855.875
1705.97571	870.675
1709.22535	885.775
1712.47284	898.575
1715.71819	912.375
1718.96139	905.175
1722.20246	903.375
1725.44139	892.475
1728.67818	885.475
1731.91284	875.975
1735.14537	869.575
1738.37576	865.275
1741.60403	853.875
1744.83017	842.875
1748.05418	833.475
1751.27607	821.875
1754.49584	813.075
1757.71349	784.075
1760.92903	778.275
1764.14244	774.975
1767.35375	773.375
1770.56294	779.675
1773.77002	782.275
1776.97499	779.375
1780.17785	803.775
1783.37861	810.075
1786.57727	812.775
1789.77382	818.775
1792.96828	822.975
1796.16064	814.575
1799.3509	814.375
1802.53907	810.375
1805.72514	810.275
1808.90913	812.075
1812.09102	807.575
1815.27083	809.975
1818.44856	803.175
1821.6242	811.375
1824.79776	802.375
1827.96924	800.575
1831.13864	805.075
1834.30597	796.175
1837.47122	797.375
1840.6344	793.975
1843.7955	799.875
1846.95454	800.075
1850.11151	793.175
1853.26642	792.575
1856.41926	795.375
1859.57004	794.175
1862.71876	789.275
1865.86542	786.375
1869.01003	791.775
1872.15258	791.575
1875.29308	788.075
1878.43152	779.275
1881.56792	785.175
1884.70227	783.675
1887.83457	780.575
1890.96482	774.575
1894.09304	774.475
1897.21921	776.775
1900.34335	775.975
1903.46544	775.275
1906.58551	776.675
1909.70353	779.475
1912.81953	778.975
1915.93349	772.675
1919.04543	777.275
1922.15534	769.075
1925.26322	769.875
1928.36908	773.675
1931.47292	770.375
1934.57473	768.975
1937.67453	775.275
1940.77232	757.875
1943.86808	760.575
1946.96184	761.975
1950.05358	755.275
1953.14331	757.475
1956.23103	749.775
1959.31675	755.475
1962.40046	755.275
1965.48217	743.575
1968.56188	744.675
1971.63959	747.475
1974.7153	743.775
1977.78901	735.975
1980.86073	737.675
1983.93046	734.275
1986.99819	736.275
1990.06394	735.275
1993.1277	725.975
1996.18947	724.975
1999.24925	733.575
2002.30706	723.875
2005.36288	713.975
2008.41672	716.475
2011.46859	720.275
2014.51848	715.475
2017.56639	715.375
2020.61233	719.275
2023.6563	713.575
2026.6983	713.175
2029.73833	710.375
2032.7764	711.475
2035.8125	708.675
2038.84664	715.175
2041.87881	703.375
2044.90903	711.875
2047.93729	707.175
2050.96359	706.475
2053.98794	703.275
2057.01034	707.075
2060.03078	702.075
2063.04927	706.175
2066.06582	710.075
2069.08042	713.375
2072.09307	717.575
2075.10378	718.175
2078.11255	719.475
2081.11938	719.675
2084.12426	722.375
2087.12722	732.075
2090.12824	727.875
2093.12732	728.375
2096.12447	733.575
2099.11969	732.275
2102.11299	735.075
2105.10435	731.475
2108.09379	734.075
2111.08131	744.175
2114.0669	741.575
2117.05057	746.875
2120.03233	736.475
2123.01216	746.175
2125.99008	743.675
2128.96609	742.075
2131.94018	740.175
2134.91236	737.475
2137.88263	736.575
2140.851	733.175
2143.81746	736.675
2146.78201	734.975
2149.74466	740.475
2152.7054	735.175
2155.66425	726.775
2158.6212	731.675
2161.57625	736.575
2164.52941	734.775
2167.48067	732.375
2170.43004	735.175
2173.37752	734.175
2176.32311	733.375
2179.26681	726.975
2182.20863	727.875
2185.14856	722.375
2188.08661	729.475
2191.02278	726.875
2193.95707	729.175
2196.88948	713.175
2199.82001	717.175
2202.74867	718.175
2205.67545	711.475
2208.60037	710.675
2211.52341	714.775
2214.44458	713.175
2217.36388	708.875
2220.28132	704.075
2223.1969	706.375
2226.11061	701.475
2229.02246	698.675
2231.93245	699.775
2234.84058	692.575
2237.74686	702.175
2240.65128	694.675
2243.55385	694.975
2246.45456	692.475
2249.35343	696.275
2252.25044	695.175
2255.14561	696.675
2258.03893	686.275
2260.93041	676.975
2263.82004	677.375
2266.70783	678.575
2269.59378	681.475
2272.4779	676.375
2275.36017	677.375
2278.24061	680.275
2281.11922	676.375
2283.996	675.075
2286.87094	676.175
2289.74405	677.475
2292.61534	676.775
2295.4848	682.975
2298.35243	673.875
2301.21824	674.275
2304.08223	677.175
2306.94439	681.875
2309.80474	674.975
2312.66327	674.375
2315.51999	676.075
2318.37489	674.175
2321.22797	666.275
2324.07925	668.775
2326.92871	668.475
2329.77637	673.375
2332.62222	668.175
2335.46626	667.275
2338.3085	662.275
2341.14893	663.675
2343.98756	663.375
2346.8244	659.775
2349.65943	658.175
2352.49267	664.175
2355.32411	653.375
2358.15376	657.975
2360.98161	660.475
2363.80768	656.175
2366.63195	665.475
2369.45444	661.175
2372.27514	664.175
2375.09405	662.375
2377.91118	666.475
2380.72652	654.575
2383.54009	656.475
2386.35187	655.375
2389.16188	659.475
2391.97011	664.975
2394.77657	655.575
2397.58125	650.375
2400.38416	652.775
2403.18529	646.575
2405.98466	642.775
2408.78226	644.975
2411.57809	646.075
2414.37216	646.275
2417.16446	642.775
2419.955	648.875
2422.74378	644.475
2425.5308	644.975
2428.31606	647.175
2431.09956	648.875
2433.88131	647.175
2436.6613	647.075
2439.43954	638.875
2442.21603	635.275
2444.99077	645.475
2447.76377	645.575
2450.53501	648.675
2453.30451	642.375
2456.07226	644.675
2458.83827	643.575
2461.60254	640.775
2464.36507	641.475
2467.12586	643.475
2469.88492	636.475
2472.64224	634.775
2475.39782	630.075
2478.15167	626.475
2480.90379	635.775
2483.65417	639.875
2486.40283	638.575
2489.14976	639.575
2491.89497	635.775
2494.63845	627.675
2497.3802	626.175
2500.12024	629.075
2502.85855	624.175
2505.59514	629.875
2508.33002	628.975
2511.06318	633.775
2513.79462	639.375
2516.52435	633.875
2519.25237	639.375
2521.97867	631.875
2524.70327	632.675
2527.42616	632.775
2530.14734	625.475
2532.86681	629.075
2535.58458	636.375
2538.30065	632.375
2541.01501	625.475
2543.72768	632.575
2546.43864	625.275
2549.14791	620.175
2551.85548	626.875
2554.56136	628.775
2557.26554	625.375
2559.96803	623.975
2562.66883	620.975
2565.36794	625.475
2568.06536	620.075
2570.7611	618.875
2573.45514	619.375
2576.14751	619.275
2578.83819	611.875
2581.52719	619.775
2584.21451	614.575
2586.90015	608.475
2589.58411	612.475
2592.2664	616.075
2594.94701	610.075
2597.62594	609.175
2600.30321	612.075
2602.9788	612.575
2605.65273	610.475
2608.32498	606.475
2610.99557	608.775
2613.66449	609.675
2616.33175	609.375
2618.99734	609.275
2621.66128	599.875
2624.32355	603.775
2626.98416	608.175
2629.64311	610.275
2632.30041	608.775
2634.95605	610.275
2637.61004	603.875
2640.26238	603.975
2642.91306	602.075
2645.56209	601.075
2648.20948	598.475
2650.85521	600.575
2653.4993	603.475
2656.14175	605.275
2658.78255	599.575
2661.42171	599.675
2664.05923	601.975
2666.6951	601.375
2669.32934	606.875
2671.96194	603.975
2674.59291	610.975
2677.22224	601.475
2679.84993	601.175
2682.476	604.475
2685.10043	605.475
2687.72324	604.375
2690.34441	602.075
2692.96396	602.575
2695.58188	610.975
2698.19818	600.675
2700.81285	606.175
2703.4259	595.875
2706.03733	547.975
2708.64714	568.375
2711.25533	589.075
2713.86191	588.475
2716.46687	600.975
2719.07021	596.075
2721.67194	610.675
2724.27206	605.475
2726.87057	606.975
2729.46747	604.575
2732.06276	613.875
2734.65644	603.675
2737.24852	610.475
2739.83899	610.375
2742.42786	613.075
2745.01513	607.875
2747.60079	613.475
2750.18486	601.275
2752.76733	606.175
2755.3482	600.275
2757.92747	607.375
2760.50515	598.375
2763.08123	602.775
2765.65573	607.275
2768.22863	607.475
2770.79994	603.175
2773.36967	610.575
2775.9378	601.975
2778.50435	603.275
2781.06932	602.175
2783.6327	602.275
2786.1945	602.475
2788.75471	598.775
2791.31335	605.975
2793.87041	609.575
2796.42589	599.675
2798.97979	600.975
2801.53212	598.575
2804.08288	599.275
2806.63206	596.475
2809.17967	590.575
2811.72571	586.975
2814.27018	593.875
2816.81308	584.875
2819.35442	595.375
2821.89419	586.175
2824.43239	587.675
2826.96904	585.375
2829.50412	592.675
2832.03763	584.175
2834.56959	591.975
2837.1	589.575
2839.62884	586.075
2842.15613	585.375
2844.68186	584.075
2847.20604	581.075
2849.72867	584.575
2852.24974	593.875
2854.76927	587.275
2857.28724	567.275
2859.80367	585.475
2862.31855	590.375
2864.83189	590.675
2867.34368	582.775
2869.85393	588.175
2872.36264	592.475
2874.8698	592.275
2877.37543	589.575
2879.87952	594.075
2882.38207	594.275
2884.88308	594.675
2887.38256	597.475
2889.88051	595.275
2892.37692	602.975
2894.8718	598.675
2897.36515	609.975
2899.85698	598.875
2902.34727	601.375
2904.83604	601.575
2907.32328	611.475
2909.809	604.175
2912.29319	615.475
2914.77587	606.275
2917.25702	609.875
2919.73665	614.075
2922.21476	611.575
2924.69136	607.475
2927.16644	618.075
2929.64	616.975
2932.11205	617.375
2934.58258	620.875
2937.05161	617.975
2939.51912	618.975
2941.98513	618.975
2944.44962	618.975
2946.91261	621.975
2949.37409	627.475
2951.83407	616.375
2954.29254	623.675
2956.74951	620.875
2959.20498	625.175
2961.65895	624.175
2964.11142	622.575
2966.56239	619.775
2969.01186	622.175
2971.45984	627.275
2973.90632	627.675
2976.35131	631.475
2978.7948	625.175
2981.23681	630.075
2983.67732	628.175
2986.11635	623.375
2988.55388	632.975
2990.98993	626.075
2993.4245	633.975
2995.85758	633.875
2998.28917	638.675
3000.71928	634.075
3003.14791	630.075
3005.57506	634.075
3008.00073	634.975
3010.42493	636.875
3012.84764	637.475
3015.26888	639.775
3017.68865	648.475
3020.10694	643.575
3022.52376	642.675
3024.9391	650.575
3027.35298	653.375
3029.76539	651.275
3032.17632	651.475
3034.5858	656.175
3036.9938	656.975
3039.40034	661.075
3041.80542	667.975
3044.20903	667.075
3046.61118	673.575
3049.01187	669.975
3051.4111	669.775
3053.80888	682.475
3056.20519	684.375
3058.60005	683.575
3060.99345	693.075
3063.3854	684.675
3065.7759	691.375
3068.16494	690.775
3070.55254	700.275
3072.93868	696.575
3075.32338	705.375
3077.70662	704.475
3080.08842	706.475
3082.46878	709.675
3084.84769	716.575
3087.22515	719.575
3089.60118	729.575
3091.97576	738.675
3094.3489	735.675
3096.72061	743.075
3099.09087	744.275
3101.4597	756.175
3103.82709	759.675
3106.19305	767.975
3108.55757	773.275
3110.92066	774.375
3113.28232	786.175
3115.64255	792.475
3118.00134	789.575
3120.35871	796.775
3122.71466	804.475
3125.06917	808.875
3127.42226	805.275
3129.77393	811.975
3132.12417	822.275
3134.47299	830.775
3136.82039	831.375
3139.16636	848.075
3141.51092	855.975
3143.85406	851.775
3146.19579	867.475
3148.53609	866.675
3150.87499	883.175
3153.21246	882.875
3155.54853	890.475
3157.88318	899.675
3160.21642	905.775
3162.54826	918.175
3164.87868	925.575
3167.2077	928.075
3169.5353	942.675
3171.86151	944.575
3174.18631	949.175
3176.5097	949.575
3178.83169	958.475
3181.15228	966.775
3183.47147	970.175
3185.78926	986.475
3188.10565	983.175
3190.42065	993.675
3192.73424	990.975
3195.04645	999.475
3197.35725	996.875
3199.66667	1007.175
3201.97469	1011.875
3204.28132	1020.375
3206.58656	1036.675
3208.8904	1032.675
3211.19287	1033.875
3213.49394	1036.475
3215.79363	1043.575
3218.09193	1047.375
3220.38884	1040.675
3222.68438	1039.375
3224.97853	1050.275
3227.2713	1064.875
3229.56269	1057.175
3231.8527	1064.875
3234.14133	1053.875
3236.42858	1058.875
3238.71446	1061.575
3240.99896	1066.975
3243.28209	1054.975
3245.56384	1064.775
3247.84423	1053.875
3250.12324	1064.775
3252.40088	1059.375
3254.67715	1060.675
3256.95205	1064.275
3259.22558	1073.775
3261.49775	1065.575
3263.76855	1072.475
3266.03799	1078.875
3268.30606	1076.575
3270.57277	1079.975
3272.83812	1074.375
3275.10211	1069.875
3277.36474	1068.975
3279.62601	1075.475
3281.88593	1070.275
3284.14448	1073.075
3286.40168	1073.075
3288.65753	1070.475
3290.91202	1070.975
3293.16516	1067.175
3295.41695	1072.575
3297.66738	1062.775
3299.91647	1056.075
3302.16421	1053.275
3304.4106	1046.375
3306.65564	1042.975
