Data from AgNPs_APTES_FTO_UA_100uM_CRN_0uM_R6G_10uM_Scan_RamanShift__78__12-10-41-334.txt Node

Date: Wed Jun 29 12:10:41 BST 2022
User: TCL
Spectrometer: QEP01345
Trigger mode: 4
Integration Time (sec): 7.000000E0
Scans to average: 10
Electric dark correction enabled: true
Nonlinearity correction enabled: false
Boxcar width: 0
XAxis mode: Raman Shifts
Number of Pixels in Spectrum: 1044
>>>>>Begin Spectral Data<<<<<
46.04893	1.0875
50.45542	1.1875
54.85868	0.4875
59.25871	1.2875
63.6555	30.6875
68.04907	31.1875
72.43941	36.4875
76.82654	33.5875
81.21044	42.1875
85.59113	40.1875
89.96862	46.7875
94.34289	44.0875
98.71396	48.8875
103.08183	46.4875
107.4465	45.8875
111.80798	48.8875
116.16626	43.4875
120.52136	48.7875
124.87327	44.3875
129.222	46.7875
133.56755	44.6875
137.90993	42.2875
142.24913	43.6875
146.58517	41.1875
150.91804	43.0875
155.24774	41.5875
159.57429	43.6875
163.89768	44.3875
168.21792	47.9875
172.53501	60.0875
176.84895	67.7875
181.15975	89.0875
185.46741	105.7875
189.77193	139.1875
194.07331	175.3875
198.37157	217.3875
202.6667	266.2875
206.9587	306.1875
211.24758	352.6875
215.53334	400.2875
219.81599	446.2875
224.09553	491.4875
228.37195	541.4875
232.64527	599.3875
236.91549	666.6875
241.18261	727.5875
245.44663	805.5875
249.70755	867.7875
253.96539	930.2875
258.22014	965.9875
262.4718	998.9875
266.72039	1018.6875
270.96589	1028.4875
275.20832	1013.7875
279.44768	982.2875
283.68397	970.7875
287.91719	947.9875
292.14735	921.2875
296.37445	903.6875
300.59849	887.6875
304.81948	867.9875
309.03742	859.2875
313.25231	849.4875
317.46415	847.2875
321.67296	844.9875
325.87872	840.0875
330.08145	848.6875
334.28114	854.2875
338.47781	860.6875
342.67145	867.2875
346.86207	874.4875
351.04966	881.0875
355.23424	894.1875
359.4158	898.4875
363.59435	919.0875
367.76989	919.2875
371.94243	939.6875
376.11196	940.6875
380.27849	952.4875
384.44203	965.7875
388.60257	962.5875
392.76012	974.0875
396.91468	979.5875
401.06626	999.7875
405.21485	1007.0875
409.36047	1022.7875
413.50311	1023.2875
417.64277	1024.0875
421.77947	1028.9875
425.9132	1028.3875
430.04396	1032.6875
434.17176	1057.6875
438.2966	1056.2875
442.41849	1056.7875
446.53742	1067.0875
450.6534	1075.8875
454.76644	1080.6875
458.87653	1082.1875
462.98368	1099.8875
467.08789	1094.8875
471.18916	1095.8875
475.2875	1100.4875
479.38291	1111.2875
483.4754	1110.8875
487.56496	1103.7875
491.6516	1111.7875
495.73531	1110.9875
499.81612	1107.8875
503.89401	1110.9875
507.96899	1106.3875
512.04106	1097.4875
516.11023	1115.9875
520.1765	1106.4875
524.23987	1110.0875
528.30034	1113.0875
532.35792	1124.2875
536.41261	1132.0875
540.46441	1128.9875
544.51333	1129.2875
548.55936	1141.7875
552.60252	1149.7875
556.64279	1145.7875
560.6802	1157.6875
564.71473	1150.2875
568.7464	1156.8875
572.7752	1155.2875
576.80114	1150.0875
580.82422	1151.6875
584.84444	1140.9875
588.86181	1135.2875
592.87633	1153.4875
596.888	1142.7875
600.89682	1148.8875
604.9028	1154.9875
608.90594	1157.7875
612.90624	1176.2875
616.90371	1172.3875
620.89834	1159.9875
624.89015	1163.4875
628.87913	1163.6875
632.86528	1154.4875
636.84862	1158.3875
640.82913	1167.9875
644.80683	1167.3875
648.78172	1174.8875
652.75379	1181.4875
656.72306	1176.6875
660.68952	1187.4875
664.65319	1188.9875
668.61405	1185.7875
672.57211	1194.7875
676.52738	1206.0875
680.47986	1201.7875
684.42955	1206.0875
688.37646	1215.6875
692.32058	1227.0875
696.26192	1222.6875
700.20048	1226.5875
704.13626	1224.2875
708.06928	1214.0875
711.99952	1215.9875
715.927	1217.3875
719.85171	1227.6875
723.77365	1222.8875
727.69284	1220.3875
731.60928	1214.8875
735.52295	1217.4875
739.43388	1208.4875
743.34206	1213.4875
747.24749	1218.2875
751.15017	1220.6875
755.05012	1203.8875
758.94733	1220.3875
762.8418	1236.3875
766.73354	1236.9875
770.62254	1243.2875
774.50882	1254.8875
778.39237	1249.5875
782.27321	1242.6875
786.15132	1237.8875
790.02671	1239.8875
793.89938	1235.5875
797.76935	1246.2875
801.6366	1246.9875
805.50115	1245.5875
809.36299	1245.9875
813.22213	1238.6875
817.07857	1240.2875
820.93231	1244.5875
824.78336	1242.7875
828.63172	1245.2875
832.47738	1248.7875
836.32036	1252.7875
840.16066	1249.2875
843.99827	1251.7875
847.8332	1248.2875
851.66546	1252.8875
855.49504	1254.5875
859.32195	1257.8875
863.1462	1257.1875
866.96777	1257.8875
870.78668	1263.3875
874.60293	1265.3875
878.41652	1270.2875
882.22745	1272.6875
886.03573	1275.1875
889.84136	1283.6875
893.64433	1285.6875
897.44466	1284.7875
901.24235	1298.3875
905.0374	1313.0875
908.8298	1314.7875
912.61957	1317.9875
916.40671	1323.8875
920.19121	1324.9875
923.97308	1322.1875
927.75233	1310.1875
931.52895	1307.3875
935.30295	1304.2875
939.07433	1301.3875
942.84309	1298.5875
946.60924	1299.3875
950.37278	1308.2875
954.13371	1301.6875
957.89203	1295.6875
961.64774	1300.3875
965.40086	1289.3875
969.15137	1298.0875
972.89929	1290.0875
976.64461	1298.7875
980.38733	1300.3875
984.12747	1289.3875
987.86502	1290.3875
991.59999	1290.3875
995.33237	1294.9875
999.06217	1296.1875
1002.78939	1301.9875
1006.51404	1305.2875
1010.23611	1304.4875
1013.95561	1308.9875
1017.67255	1311.1875
1021.38692	1317.8875
1025.09872	1317.2875
1028.80796	1321.6875
1032.51465	1316.8875
1036.21877	1319.6875
1039.92035	1320.0875
1043.61937	1327.7875
1047.31584	1326.5875
1051.00976	1329.7875
1054.70114	1334.1875
1058.38998	1332.2875
1062.07627	1334.4875
1065.76003	1331.2875
1069.44126	1337.0875
1073.11995	1331.6875
1076.79611	1337.8875
1080.46974	1328.2875
1084.14085	1330.5875
1087.80943	1329.6875
1091.47549	1331.9875
1095.13903	1325.3875
1098.80005	1324.0875
1102.45857	1322.5875
1106.11456	1309.7875
1109.76805	1316.7875
1113.41903	1319.6875
1117.06751	1305.7875
1120.71348	1315.0875
1124.35696	1315.0875
1127.99793	1316.0875
1131.63641	1324.2875
1135.2724	1316.3875
1138.90589	1319.8875
1142.5369	1328.0875
1146.16542	1319.4875
1149.79145	1325.4875
1153.415	1321.2875
1157.03607	1314.2875
1160.65467	1317.8875
1164.27079	1308.2875
1167.88443	1318.2875
1171.49561	1320.3875
1175.10432	1325.5875
1178.71056	1327.2875
1182.31434	1336.2875
1185.91565	1338.8875
1189.51451	1354.5875
1193.11091	1341.8875
1196.70485	1352.1875
1200.29634	1351.8875
1203.88538	1347.4875
1207.47197	1341.1875
1211.05612	1338.5875
1214.63782	1331.5875
1218.21708	1328.2875
1221.79391	1330.5875
1225.36829	1335.2875
1228.94024	1329.8875
1232.50976	1335.8875
1236.07685	1336.2875
1239.6415	1337.5875
1243.20374	1337.1875
1246.76355	1334.4875
1250.32093	1339.2875
1253.8759	1340.7875
1257.42845	1334.8875
1260.97859	1335.4875
1264.52631	1341.5875
1268.07163	1342.2875
1271.61453	1348.3875
1275.15503	1342.2875
1278.69312	1355.5875
1282.22882	1346.9875
1285.76211	1350.8875
1289.29301	1353.2875
1292.82151	1367.9875
1296.34761	1358.8875
1299.87133	1377.1875
1303.39266	1381.2875
1306.9116	1379.7875
1310.42815	1389.2875
1313.94233	1397.5875
1317.45412	1401.4875
1320.96354	1397.8875
1324.47058	1391.4875
1327.97525	1379.1875
1331.47754	1381.1875
1334.97747	1379.1875
1338.47502	1384.2875
1341.97022	1389.1875
1345.46305	1389.3875
1348.95352	1393.9875
1352.44163	1388.9875
1355.92738	1398.3875
1359.41078	1387.2875
1362.89183	1395.0875
1366.37053	1384.2875
1369.84688	1369.1875
1373.32088	1359.0875
1376.79254	1344.2875
1380.26186	1338.1875
1383.72883	1320.4875
1387.19347	1310.5875
1390.65578	1297.1875
1394.11575	1302.1875
1397.57339	1295.3875
1401.0287	1296.3875
1404.48168	1295.5875
1407.93234	1292.2875
1411.38068	1295.2875
1414.82669	1289.8875
1418.27039	1294.1875
1421.71177	1283.2875
1425.15083	1288.5875
1428.58758	1275.2875
1432.02203	1274.8875
1435.45416	1274.6875
1438.88399	1282.1875
1442.31151	1271.6875
1445.73673	1269.0875
1449.15965	1264.8875
1452.58027	1272.3875
1455.9986	1275.2875
1459.41463	1277.0875
1462.82837	1284.5875
1466.23982	1276.6875
1469.64898	1291.2875
1473.05586	1289.6875
1476.46045	1284.3875
1479.86276	1291.2875
1483.26279	1294.6875
1486.66054	1293.4875
1490.05602	1291.7875
1493.44922	1302.8875
1496.84016	1298.9875
1500.22882	1311.3875
1503.61521	1321.4875
1506.99934	1316.2875
1510.38121	1314.6875
1513.76081	1322.1875
1517.13816	1314.8875
1520.51324	1316.1875
1523.88607	1320.1875
1527.25665	1322.3875
1530.62498	1322.1875
1533.99105	1319.0875
1537.35488	1340.0875
1540.71647	1320.2875
1544.07581	1341.5875
1547.4329	1334.2875
1550.78776	1342.9875
1554.14038	1339.0875
1557.49077	1346.8875
1560.83892	1360.6875
1564.18484	1350.9875
1567.52853	1351.4875
1570.86999	1356.2875
1574.20922	1348.2875
1577.54624	1349.1875
1580.88103	1362.4875
1584.2136	1356.5875
1587.54395	1348.1875
1590.87208	1355.2875
1594.19801	1343.9875
1597.52172	1353.6875
1600.84321	1349.8875
1604.16251	1359.1875
1607.47959	1358.5875
1610.79447	1357.5875
1614.10715	1327.3875
1617.41763	1327.9875
1620.7259	1322.9875
1624.03199	1308.6875
1627.33587	1304.7875
1630.63757	1300.9875
1633.93707	1302.4875
1637.23439	1308.7875
1640.52951	1299.7875
1643.82246	1303.8875
1647.11321	1288.0875
1650.40179	1289.6875
1653.68819	1276.9875
1656.97241	1263.3875
1660.25446	1259.9875
1663.53433	1238.1875
1666.81203	1242.0875
1670.08756	1241.5875
1673.36092	1249.2875
1676.63211	1244.2875
1679.90115	1252.6875
1683.16801	1249.3875
1686.43272	1238.1875
1689.69527	1235.0875
1692.95567	1213.0875
1696.2139	1190.7875
1699.46999	1171.0875
1702.72392	1166.6875
1705.97571	1177.2875
1709.22535	1204.5875
1712.47284	1217.3875
1715.71819	1245.3875
1718.96139	1236.0875
1722.20246	1238.3875
1725.44139	1243.0875
1728.67818	1235.7875
1731.91284	1233.1875
1735.14537	1229.9875
1738.37576	1224.8875
1741.60403	1223.9875
1744.83017	1208.1875
1748.05418	1220.7875
1751.27607	1196.2875
1754.49584	1190.3875
1757.71349	1170.5875
1760.92903	1148.9875
1764.14244	1161.1875
1767.35375	1161.9875
1770.56294	1158.0875
1773.77002	1164.3875
1776.97499	1174.9875
1780.17785	1189.2875
1783.37861	1198.6875
1786.57727	1208.9875
1789.77382	1211.4875
1792.96828	1207.5875
1796.16064	1215.9875
1799.3509	1203.7875
1802.53907	1215.3875
1805.72514	1206.2875
1808.90913	1203.1875
1812.09102	1209.2875
1815.27083	1215.1875
1818.44856	1210.5875
1821.6242	1195.9875
1824.79776	1200.8875
1827.96924	1210.9875
1831.13864	1209.3875
1834.30597	1202.2875
1837.47122	1199.7875
1840.6344	1199.6875
1843.7955	1201.5875
1846.95454	1209.0875
1850.11151	1202.1875
1853.26642	1204.1875
1856.41926	1198.3875
1859.57004	1205.8875
1862.71876	1201.4875
1865.86542	1204.8875
1869.01003	1207.2875
1872.15258	1205.9875
1875.29308	1195.3875
1878.43152	1190.6875
1881.56792	1202.2875
1884.70227	1193.0875
1887.83457	1205.3875
1890.96482	1192.2875
1894.09304	1196.4875
1897.21921	1188.7875
1900.34335	1194.1875
1903.46544	1194.9875
1906.58551	1196.8875
1909.70353	1196.2875
1912.81953	1196.6875
1915.93349	1193.5875
1919.04543	1195.8875
1922.15534	1196.2875
1925.26322	1192.4875
1928.36908	1189.2875
1931.47292	1185.5875
1934.57473	1193.8875
1937.67453	1188.1875
1940.77232	1185.6875
1943.86808	1185.8875
1946.96184	1183.0875
1950.05358	1174.7875
1953.14331	1176.7875
1956.23103	1178.5875
1959.31675	1180.6875
1962.40046	1165.6875
1965.48217	1164.0875
1968.56188	1166.6875
1971.63959	1164.2875
1974.7153	1160.7875
1977.78901	1151.0875
1980.86073	1143.3875
1983.93046	1152.9875
1986.99819	1146.7875
1990.06394	1145.5875
1993.1277	1137.7875
1996.18947	1149.9875
1999.24925	1141.3875
2002.30706	1142.0875
2005.36288	1132.7875
2008.41672	1143.0875
2011.46859	1139.1875
2014.51848	1131.7875
2017.56639	1138.0875
2020.61233	1130.8875
2023.6563	1131.8875
2026.6983	1130.4875
2029.73833	1130.9875
2032.7764	1119.0875
2035.8125	1123.6875
2038.84664	1123.2875
2041.87881	1120.7875
2044.90903	1118.9875
2047.93729	1121.6875
2050.96359	1122.8875
2053.98794	1118.2875
2057.01034	1129.2875
2060.03078	1128.3875
2063.04927	1126.7875
2066.06582	1129.6875
2069.08042	1134.3875
2072.09307	1130.6875
2075.10378	1127.0875
2078.11255	1128.6875
2081.11938	1138.1875
2084.12426	1133.5875
2087.12722	1131.7875
2090.12824	1130.1875
2093.12732	1134.3875
2096.12447	1134.8875
2099.11969	1133.0875
2102.11299	1132.7875
2105.10435	1138.7875
2108.09379	1131.2875
2111.08131	1143.2875
2114.0669	1143.8875
2117.05057	1146.0875
2120.03233	1149.9875
2123.01216	1146.4875
2125.99008	1146.2875
2128.96609	1147.6875
2131.94018	1148.2875
2134.91236	1150.3875
2137.88263	1163.1875
2140.851	1154.8875
2143.81746	1170.0875
2146.78201	1161.4875
2149.74466	1163.6875
2152.7054	1162.9875
2155.66425	1157.6875
2158.6212	1163.5875
2161.57625	1158.7875
2164.52941	1166.6875
2167.48067	1161.6875
2170.43004	1170.6875
2173.37752	1169.4875
2176.32311	1166.5875
2179.26681	1167.9875
2182.20863	1159.9875
2185.14856	1167.4875
2188.08661	1169.5875
2191.02278	1166.7875
2193.95707	1169.2875
2196.88948	1163.4875
2199.82001	1166.9875
2202.74867	1166.5875
2205.67545	1166.8875
2208.60037	1152.2875
2211.52341	1159.2875
2214.44458	1157.3875
2217.36388	1155.7875
2220.28132	1155.9875
2223.1969	1156.0875
2226.11061	1151.4875
2229.02246	1144.2875
2231.93245	1140.6875
2234.84058	1146.2875
2237.74686	1141.5875
2240.65128	1144.1875
2243.55385	1145.0875
2246.45456	1148.9875
2249.35343	1152.7875
2252.25044	1148.1875
2255.14561	1148.4875
2258.03893	1146.0875
2260.93041	1129.7875
2263.82004	1131.9875
2266.70783	1134.1875
2269.59378	1135.4875
2272.4779	1137.6875
2275.36017	1132.7875
2278.24061	1132.5875
2281.11922	1127.1875
2283.996	1123.8875
2286.87094	1124.6875
2289.74405	1124.7875
2292.61534	1128.9875
2295.4848	1129.2875
2298.35243	1133.1875
2301.21824	1120.9875
2304.08223	1127.4875
2306.94439	1130.9875
2309.80474	1128.1875
2312.66327	1139.8875
2315.51999	1138.5875
2318.37489	1128.0875
2321.22797	1130.9875
2324.07925	1133.2875
2326.92871	1122.9875
2329.77637	1130.0875
2332.62222	1124.5875
2335.46626	1129.3875
2338.3085	1125.8875
2341.14893	1114.2875
2343.98756	1119.9875
2346.8244	1114.2875
2349.65943	1121.0875
2352.49267	1121.7875
2355.32411	1116.8875
2358.15376	1113.6875
2360.98161	1119.8875
2363.80768	1116.8875
2366.63195	1122.2875
2369.45444	1116.8875
2372.27514	1126.7875
2375.09405	1127.1875
2377.91118	1124.9875
2380.72652	1119.1875
2383.54009	1122.6875
2386.35187	1120.2875
2389.16188	1106.3875
2391.97011	1120.4875
2394.77657	1118.3875
2397.58125	1109.9875
2400.38416	1108.9875
2403.18529	1114.3875
2405.98466	1109.5875
2408.78226	1107.3875
2411.57809	1114.6875
2414.37216	1117.1875
2417.16446	1108.5875
2419.955	1108.5875
2422.74378	1108.0875
2425.5308	1106.4875
2428.31606	1106.3875
2431.09956	1098.7875
2433.88131	1104.0875
2436.6613	1102.0875
2439.43954	1110.2875
2442.21603	1100.6875
2444.99077	1107.5875
2447.76377	1114.5875
2450.53501	1110.7875
2453.30451	1108.9875
2456.07226	1103.1875
2458.83827	1100.4875
2461.60254	1103.9875
2464.36507	1101.4875
2467.12586	1095.6875
2469.88492	1092.6875
2472.64224	1100.5875
2475.39782	1099.1875
2478.15167	1092.7875
2480.90379	1100.2875
2483.65417	1100.4875
2486.40283	1101.9875
2489.14976	1109.1875
2491.89497	1089.4875
2494.63845	1086.7875
2497.3802	1094.7875
2500.12024	1097.3875
2502.85855	1093.0875
2505.59514	1102.5875
2508.33002	1099.0875
2511.06318	1102.1875
2513.79462	1102.3875
2516.52435	1097.7875
2519.25237	1101.1875
2521.97867	1099.2875
2524.70327	1097.8875
2527.42616	1089.1875
2530.14734	1094.3875
2532.86681	1094.3875
2535.58458	1107.0875
2538.30065	1097.0875
2541.01501	1098.1875
2543.72768	1094.0875
2546.43864	1091.3875
2549.14791	1091.2875
2551.85548	1092.4875
2554.56136	1085.6875
2557.26554	1088.4875
2559.96803	1089.4875
2562.66883	1082.0875
2565.36794	1087.3875
2568.06536	1078.9875
2570.7611	1082.6875
2573.45514	1084.6875
2576.14751	1082.6875
2578.83819	1076.3875
2581.52719	1081.1875
2584.21451	1079.0875
2586.90015	1071.4875
2589.58411	1073.6875
2592.2664	1086.9875
2594.94701	1074.9875
2597.62594	1076.9875
2600.30321	1082.3875
2602.9788	1079.8875
2605.65273	1075.0875
2608.32498	1063.1875
2610.99557	1076.9875
2613.66449	1063.9875
2616.33175	1072.5875
2618.99734	1072.8875
2621.66128	1058.9875
2624.32355	1071.0875
2626.98416	1058.1875
2629.64311	1062.2875
2632.30041	1061.4875
2634.95605	1058.8875
2637.61004	1058.7875
2640.26238	1062.3875
2642.91306	1059.3875
2645.56209	1049.2875
2648.20948	1056.0875
2650.85521	1067.8875
2653.4993	1052.5875
2656.14175	1061.8875
2658.78255	1064.9875
2661.42171	1065.4875
2664.05923	1066.7875
2666.6951	1065.2875
2669.32934	1068.3875
2671.96194	1067.6875
2674.59291	1064.6875
2677.22224	1063.0875
2679.84993	1062.6875
2682.476	1063.6875
2685.10043	1066.5875
2687.72324	1068.6875
2690.34441	1074.6875
2692.96396	1062.3875
2695.58188	1066.6875
2698.19818	1067.5875
2700.81285	1065.2875
2703.4259	1048.3875
2706.03733	1015.6875
2708.64714	1035.4875
2711.25533	1055.2875
2713.86191	1052.1875
2716.46687	1066.0875
2719.07021	1067.4875
2721.67194	1075.8875
2724.27206	1077.8875
2726.87057	1080.4875
2729.46747	1085.9875
2732.06276	1081.0875
2734.65644	1076.6875
2737.24852	1085.2875
2739.83899	1083.1875
2742.42786	1082.1875
2745.01513	1082.6875
2747.60079	1082.3875
2750.18486	1079.6875
2752.76733	1077.7875
2755.3482	1070.1875
2757.92747	1078.0875
2760.50515	1073.0875
2763.08123	1067.5875
2765.65573	1071.7875
2768.22863	1073.0875
2770.79994	1073.2875
2773.36967	1071.4875
2775.9378	1077.5875
2778.50435	1074.1875
2781.06932	1072.3875
2783.6327	1075.2875
2786.1945	1073.5875
2788.75471	1071.7875
2791.31335	1070.2875
2793.87041	1070.2875
2796.42589	1068.2875
2798.97979	1062.5875
2801.53212	1070.1875
2804.08288	1061.1875
2806.63206	1063.2875
2809.17967	1050.8875
2811.72571	1052.5875
2814.27018	1059.5875
2816.81308	1043.1875
2819.35442	1047.9875
2821.89419	1046.2875
2824.43239	1049.1875
2826.96904	1050.3875
2829.50412	1046.0875
2832.03763	1044.1875
2834.56959	1042.9875
2837.1	1050.5875
2839.62884	1056.4875
2842.15613	1045.5875
2844.68186	1047.5875
2847.20604	1046.1875
2849.72867	1055.6875
2852.24974	1049.5875
2854.76927	1041.0875
2857.28724	1039.4875
2859.80367	1039.0875
2862.31855	1046.9875
2864.83189	1045.4875
2867.34368	1051.9875
2869.85393	1048.9875
2872.36264	1047.3875
2874.8698	1047.9875
2877.37543	1045.2875
2879.87952	1047.9875
2882.38207	1040.7875
2884.88308	1036.9875
2887.38256	1048.2875
2889.88051	1048.0875
2892.37692	1049.3875
2894.8718	1049.3875
2897.36515	1046.4875
2899.85698	1048.5875
2902.34727	1052.7875
2904.83604	1051.5875
2907.32328	1060.0875
2909.809	1060.8875
2912.29319	1064.3875
2914.77587	1059.2875
2917.25702	1056.5875
2919.73665	1067.5875
2922.21476	1058.3875
2924.69136	1058.6875
2927.16644	1072.3875
2929.64	1066.3875
2932.11205	1062.3875
2934.58258	1060.8875
2937.05161	1067.9875
2939.51912	1066.7875
2941.98513	1070.8875
2944.44962	1059.5875
2946.91261	1070.7875
2949.37409	1066.0875
2951.83407	1078.1875
2954.29254	1075.5875
2956.74951	1083.9875
2959.20498	1077.5875
2961.65895	1083.6875
2964.11142	1087.1875
2966.56239	1083.3875
2969.01186	1082.9875
2971.45984	1084.7875
2973.90632	1085.3875
2976.35131	1090.0875
2978.7948	1090.7875
2981.23681	1096.9875
2983.67732	1091.3875
2986.11635	1091.4875
2988.55388	1087.0875
2990.98993	1089.7875
2993.4245	1084.1875
2995.85758	1089.8875
2998.28917	1088.8875
3000.71928	1095.2875
3003.14791	1084.8875
3005.57506	1087.9875
3008.00073	1082.7875
3010.42493	1089.8875
3012.84764	1092.9875
3015.26888	1100.8875
3017.68865	1094.6875
3020.10694	1088.3875
3022.52376	1097.1875
3024.9391	1098.9875
3027.35298	1102.4875
3029.76539	1110.6875
3032.17632	1106.6875
3034.5858	1103.9875
3036.9938	1106.9875
3039.40034	1112.9875
3041.80542	1114.9875
3044.20903	1112.8875
3046.61118	1113.1875
3049.01187	1116.6875
3051.4111	1125.6875
3053.80888	1126.4875
3056.20519	1132.6875
3058.60005	1127.2875
3060.99345	1133.8875
3063.3854	1129.1875
3065.7759	1133.7875
3068.16494	1136.4875
3070.55254	1133.4875
3072.93868	1130.2875
3075.32338	1133.7875
3077.70662	1140.8875
3080.08842	1136.5875
3082.46878	1147.6875
3084.84769	1148.5875
3087.22515	1153.0875
3089.60118	1155.1875
3091.97576	1161.3875
3094.3489	1155.2875
3096.72061	1165.7875
3099.09087	1170.1875
3101.4597	1179.9875
3103.82709	1190.4875
3106.19305	1197.7875
3108.55757	1198.7875
3110.92066	1213.1875
3113.28232	1214.0875
3115.64255	1211.4875
3118.00134	1221.3875
3120.35871	1220.0875
3122.71466	1225.2875
3125.06917	1233.5875
3127.42226	1226.3875
3129.77393	1244.7875
3132.12417	1243.9875
