Data from AgNPs_APTES_FTO_UA_100uM_CRN_0uM_R6G_10uM_Scan_RamanShift__15__10-57-11-247.txt Node

Date: Wed Jun 29 10:57:11 BST 2022
User: TCL
Spectrometer: QEP01345
Trigger mode: 4
Integration Time (sec): 7.000000E0
Scans to average: 10
Electric dark correction enabled: true
Nonlinearity correction enabled: false
Boxcar width: 0
XAxis mode: Raman Shifts
Number of Pixels in Spectrum: 1044
>>>>>Begin Spectral Data<<<<<
46.04893	-0.275
50.45542	0.725
54.85868	0.325
59.25871	2.225
63.6555	35.925
68.04907	37.525
72.43941	38.525
76.82654	37.225
81.21044	42.725
85.59113	46.525
89.96862	50.425
94.34289	48.425
98.71396	52.725
103.08183	56.625
107.4465	53.825
111.80798	56.625
116.16626	48.425
120.52136	55.625
124.87327	53.725
129.222	54.425
133.56755	49.425
137.90993	50.025
142.24913	50.625
146.58517	43.025
150.91804	46.025
155.24774	48.325
159.57429	51.225
163.89768	53.125
168.21792	61.225
172.53501	68.925
176.84895	78.325
181.15975	98.925
185.46741	123.625
189.77193	156.425
194.07331	201.525
198.37157	253.425
202.6667	304.225
206.9587	359.425
211.24758	412.125
215.53334	466.825
219.81599	521.025
224.09553	582.225
228.37195	641.825
232.64527	718.225
236.91549	793.725
241.18261	860.425
245.44663	941.425
249.70755	1000.625
253.96539	1056.725
258.22014	1079.025
262.4718	1107.225
266.72039	1125.225
270.96589	1107.725
275.20832	1095.625
279.44768	1074.425
283.68397	1038.425
287.91719	1018.525
292.14735	985.325
296.37445	962.625
300.59849	949.225
304.81948	942.025
309.03742	933.925
313.25231	925.425
317.46415	909.925
321.67296	897.425
325.87872	879.525
330.08145	888.825
334.28114	881.825
338.47781	886.325
342.67145	896.725
346.86207	908.525
351.04966	920.225
355.23424	943.625
359.4158	946.525
363.59435	960.725
367.76989	970.525
371.94243	976.525
376.11196	981.025
380.27849	987.325
384.44203	992.625
388.60257	999.625
392.76012	1000.625
396.91468	1010.725
401.06626	1025.125
405.21485	1029.625
409.36047	1027.025
413.50311	1027.725
417.64277	1013.725
421.77947	1010.425
425.9132	1008.725
430.04396	1008.225
434.17176	1012.225
438.2966	1019.025
442.41849	1042.125
446.53742	1044.025
450.6534	1048.625
454.76644	1059.125
458.87653	1070.525
462.98368	1078.325
467.08789	1075.525
471.18916	1077.725
475.2875	1082.025
479.38291	1077.425
483.4754	1090.325
487.56496	1088.825
491.6516	1091.825
495.73531	1092.025
499.81612	1095.325
503.89401	1085.125
507.96899	1088.225
512.04106	1078.525
516.11023	1080.725
520.1765	1075.325
524.23987	1071.225
528.30034	1069.725
532.35792	1068.925
536.41261	1071.825
540.46441	1051.525
544.51333	1049.825
548.55936	1055.925
552.60252	1060.625
556.64279	1063.125
560.6802	1067.125
564.71473	1068.725
568.7464	1070.725
572.7752	1077.125
576.80114	1069.825
580.82422	1070.625
584.84444	1075.425
588.86181	1079.025
592.87633	1089.425
596.888	1089.325
600.89682	1096.025
604.9028	1117.125
608.90594	1190.125
612.90624	1272.325
616.90371	1266.125
620.89834	1170.825
624.89015	1123.925
628.87913	1129.325
632.86528	1158.525
636.84862	1163.125
640.82913	1172.125
644.80683	1161.025
648.78172	1152.625
652.75379	1143.625
656.72306	1155.625
660.68952	1153.125
664.65319	1159.125
668.61405	1158.625
672.57211	1164.625
676.52738	1185.425
680.47986	1207.925
684.42955	1244.725
688.37646	1262.725
692.32058	1254.525
696.26192	1219.625
700.20048	1189.825
704.13626	1172.225
708.06928	1169.725
711.99952	1165.525
715.927	1168.625
719.85171	1164.225
723.77365	1147.725
727.69284	1156.825
731.60928	1147.725
735.52295	1148.725
739.43388	1141.825
743.34206	1135.925
747.24749	1132.125
751.15017	1140.425
755.05012	1110.825
758.94733	1143.725
762.8418	1171.225
766.73354	1209.025
770.62254	1247.625
774.50882	1270.525
778.39237	1259.225
782.27321	1223.325
786.15132	1196.625
790.02671	1171.625
793.89938	1160.325
797.76935	1162.525
801.6366	1160.325
805.50115	1168.525
809.36299	1172.225
813.22213	1172.225
817.07857	1170.425
820.93231	1155.825
824.78336	1152.225
828.63172	1138.325
832.47738	1137.725
836.32036	1130.725
840.16066	1122.125
843.99827	1130.625
847.8332	1134.425
851.66546	1129.125
855.49504	1129.125
859.32195	1122.425
863.1462	1131.225
866.96777	1121.325
870.78668	1123.825
874.60293	1131.725
878.41652	1141.525
882.22745	1142.625
886.03573	1154.325
889.84136	1165.025
893.64433	1158.625
897.44466	1161.725
901.24235	1165.525
905.0374	1160.225
908.8298	1156.325
912.61957	1156.625
916.40671	1168.425
920.19121	1181.025
923.97308	1186.625
927.75233	1188.825
931.52895	1192.725
935.30295	1172.625
939.07433	1165.825
942.84309	1161.625
946.60924	1149.125
950.37278	1147.725
954.13371	1140.625
957.89203	1132.125
961.64774	1128.625
965.40086	1122.425
969.15137	1123.025
972.89929	1106.425
976.64461	1110.125
980.38733	1107.725
984.12747	1101.725
987.86502	1102.325
991.59999	1103.825
995.33237	1108.025
999.06217	1113.225
1002.78939	1120.225
1006.51404	1135.225
1010.23611	1124.525
1013.95561	1129.925
1017.67255	1137.725
1021.38692	1136.825
1025.09872	1143.325
1028.80796	1138.425
1032.51465	1135.125
1036.21877	1114.625
1039.92035	1134.225
1043.61937	1128.625
1047.31584	1134.025
1051.00976	1120.925
1054.70114	1128.125
1058.38998	1129.325
1062.07627	1129.725
1065.76003	1136.325
1069.44126	1138.525
1073.11995	1143.525
1076.79611	1148.725
1080.46974	1145.825
1084.14085	1156.425
1087.80943	1147.725
1091.47549	1137.725
1095.13903	1137.225
1098.80005	1129.325
1102.45857	1125.925
1106.11456	1110.325
1109.76805	1111.925
1113.41903	1127.325
1117.06751	1140.525
1120.71348	1165.525
1124.35696	1186.725
1127.99793	1218.425
1131.63641	1236.125
1135.2724	1242.725
1138.90589	1234.125
1142.5369	1223.725
1146.16542	1198.525
1149.79145	1181.225
1153.415	1168.725
1157.03607	1157.325
1160.65467	1153.025
1164.27079	1144.825
1167.88443	1158.425
1171.49561	1172.425
1175.10432	1204.425
1178.71056	1231.325
1182.31434	1265.225
1185.91565	1277.425
1189.51451	1276.225
1193.11091	1259.325
1196.70485	1250.725
1200.29634	1237.625
1203.88538	1232.225
1207.47197	1210.125
1211.05612	1195.225
1214.63782	1183.325
1218.21708	1181.525
1221.79391	1171.025
1225.36829	1167.625
1228.94024	1174.825
1232.50976	1169.625
1236.07685	1181.025
1239.6415	1179.325
1243.20374	1189.825
1246.76355	1184.325
1250.32093	1190.325
1253.8759	1185.325
1257.42845	1196.725
1260.97859	1200.425
1264.52631	1215.425
1268.07163	1227.325
1271.61453	1237.725
1275.15503	1252.625
1278.69312	1240.725
1282.22882	1255.325
1285.76211	1270.625
1289.29301	1279.425
1292.82151	1304.025
1296.34761	1322.525
1299.87133	1348.025
1303.39266	1375.025
1306.9116	1424.425
1310.42815	1475.925
1313.94233	1495.525
1317.45412	1483.525
1320.96354	1444.625
1324.47058	1419.125
1327.97525	1376.225
1331.47754	1375.025
1334.97747	1368.025
1338.47502	1381.525
1341.97022	1403.825
1345.46305	1425.225
1348.95352	1463.525
1352.44163	1508.925
1355.92738	1564.025
1359.41078	1622.525
1362.89183	1699.725
1366.37053	1721.625
1369.84688	1624.625
1373.32088	1525.325
1376.79254	1468.925
1380.26186	1429.725
1383.72883	1409.625
1387.19347	1381.325
1390.65578	1360.325
1394.11575	1351.325
1397.57339	1342.625
1401.0287	1340.925
1404.48168	1323.925
1407.93234	1309.625
1411.38068	1302.825
1414.82669	1287.125
1418.27039	1285.225
1421.71177	1269.625
1425.15083	1252.425
1428.58758	1248.325
1432.02203	1224.425
1435.45416	1224.125
1438.88399	1220.225
1442.31151	1209.625
1445.73673	1197.925
1449.15965	1189.525
1452.58027	1190.825
1455.9986	1199.425
1459.41463	1191.425
1462.82837	1192.225
1466.23982	1197.025
1469.64898	1202.025
1473.05586	1209.625
1476.46045	1207.625
1479.86276	1223.425
1483.26279	1225.925
1486.66054	1237.625
1490.05602	1240.925
1493.44922	1256.325
1496.84016	1283.725
1500.22882	1313.725
1503.61521	1362.325
1506.99934	1426.625
1510.38121	1481.125
1513.76081	1484.225
1517.13816	1440.725
1520.51324	1376.325
1523.88607	1316.925
1527.25665	1272.525
1530.62498	1255.325
1533.99105	1233.025
1537.35488	1233.625
1540.71647	1236.325
1544.07581	1226.225
1547.4329	1229.325
1550.78776	1234.325
1554.14038	1235.625
1557.49077	1235.725
1560.83892	1244.225
1564.18484	1252.525
1567.52853	1257.625
1570.86999	1272.825
1574.20922	1275.425
1577.54624	1273.225
1580.88103	1266.025
1584.2136	1241.725
1587.54395	1204.825
1590.87208	1204.325
1594.19801	1195.325
1597.52172	1191.225
1600.84321	1189.925
1604.16251	1182.725
1607.47959	1166.325
1610.79447	1155.025
1614.10715	1147.125
1617.41763	1133.725
1620.7259	1129.125
1624.03199	1120.325
1627.33587	1119.625
1630.63757	1110.925
1633.93707	1105.025
1637.23439	1106.425
1640.52951	1122.725
1643.82246	1132.925
1647.11321	1169.225
1650.40179	1188.025
1653.68819	1176.325
1656.97241	1130.425
1660.25446	1086.725
1663.53433	1059.725
1666.81203	1019.725
1670.08756	1022.125
1673.36092	1034.025
1676.63211	1027.925
1679.90115	1021.525
1683.16801	1015.825
1686.43272	1004.625
1689.69527	985.825
1692.95567	968.825
1696.2139	931.125
1699.46999	881.525
1702.72392	876.625
1705.97571	885.625
1709.22535	895.325
1712.47284	911.625
1715.71819	915.225
1718.96139	911.025
1722.20246	899.125
1725.44139	892.725
1728.67818	893.625
1731.91284	871.025
1735.14537	865.925
1738.37576	858.025
1741.60403	854.025
1744.83017	840.125
1748.05418	837.025
1751.27607	814.625
1754.49584	803.025
1757.71349	778.625
1760.92903	763.525
1764.14244	769.125
1767.35375	767.725
1770.56294	767.825
1773.77002	768.025
1776.97499	778.225
1780.17785	799.525
1783.37861	802.725
1786.57727	809.525
1789.77382	811.525
1792.96828	813.025
1796.16064	809.625
1799.3509	806.825
1802.53907	805.725
1805.72514	805.025
1808.90913	798.425
1812.09102	806.425
1815.27083	798.125
1818.44856	796.625
1821.6242	801.525
1824.79776	799.125
1827.96924	795.625
1831.13864	793.825
1834.30597	792.125
1837.47122	787.825
1840.6344	790.125
1843.7955	793.825
1846.95454	787.425
1850.11151	788.525
1853.26642	794.825
1856.41926	788.125
1859.57004	792.325
1862.71876	787.425
1865.86542	786.025
1869.01003	785.325
1872.15258	782.825
1875.29308	779.825
1878.43152	781.425
1881.56792	778.525
1884.70227	776.525
1887.83457	778.325
1890.96482	776.325
1894.09304	776.625
1897.21921	775.925
1900.34335	770.925
1903.46544	770.725
1906.58551	779.625
1909.70353	770.425
1912.81953	771.425
1915.93349	772.425
1919.04543	774.425
1922.15534	768.725
1925.26322	763.625
1928.36908	769.625
1931.47292	764.625
1934.57473	769.025
1937.67453	759.225
1940.77232	764.025
1943.86808	755.425
1946.96184	754.125
1950.05358	757.125
1953.14331	750.825
1956.23103	747.025
1959.31675	751.925
1962.40046	747.425
1965.48217	746.725
1968.56188	741.125
1971.63959	743.725
1974.7153	737.225
1977.78901	735.025
1980.86073	732.025
1983.93046	730.225
1986.99819	732.225
1990.06394	729.425
1993.1277	725.925
1996.18947	725.725
1999.24925	734.125
2002.30706	723.625
2005.36288	716.425
2008.41672	715.825
2011.46859	714.925
2014.51848	719.025
2017.56639	715.725
2020.61233	707.625
2023.6563	714.325
2026.6983	708.725
2029.73833	710.325
2032.7764	707.125
2035.8125	711.925
2038.84664	711.325
2041.87881	710.525
2044.90903	705.425
2047.93729	700.025
2050.96359	707.825
2053.98794	707.225
2057.01034	706.425
2060.03078	698.825
2063.04927	708.425
2066.06582	705.525
2069.08042	703.825
2072.09307	715.725
2075.10378	716.925
2078.11255	712.525
2081.11938	720.425
2084.12426	725.725
2087.12722	734.725
2090.12824	731.525
2093.12732	730.725
2096.12447	726.625
2099.11969	734.825
2102.11299	743.825
2105.10435	746.125
2108.09379	741.225
2111.08131	750.625
2114.0669	753.425
2117.05057	751.125
2120.03233	758.625
2123.01216	758.625
2125.99008	751.225
2128.96609	755.125
2131.94018	759.525
2134.91236	747.125
2137.88263	754.225
2140.851	749.625
2143.81746	747.725
2146.78201	750.125
2149.74466	751.325
2152.7054	744.225
2155.66425	741.125
2158.6212	750.425
2161.57625	747.325
2164.52941	744.525
2167.48067	743.225
2170.43004	740.625
2173.37752	745.625
2176.32311	747.425
2179.26681	740.125
2182.20863	734.225
2185.14856	741.325
2188.08661	731.425
2191.02278	738.225
2193.95707	727.125
2196.88948	721.525
2199.82001	719.125
2202.74867	717.825
2205.67545	715.325
2208.60037	712.925
2211.52341	716.625
2214.44458	708.125
2217.36388	704.225
2220.28132	708.025
2223.1969	701.125
2226.11061	699.025
2229.02246	701.725
2231.93245	695.625
2234.84058	695.225
2237.74686	694.925
2240.65128	694.225
2243.55385	688.225
2246.45456	702.725
2249.35343	697.325
2252.25044	691.525
2255.14561	693.925
2258.03893	688.025
2260.93041	675.525
2263.82004	679.425
2266.70783	681.725
2269.59378	680.825
2272.4779	674.625
2275.36017	684.225
2278.24061	679.625
2281.11922	677.925
2283.996	675.425
2286.87094	672.325
2289.74405	680.825
2292.61534	680.625
2295.4848	677.825
2298.35243	670.325
2301.21824	668.325
2304.08223	677.725
2306.94439	676.025
2309.80474	672.825
2312.66327	673.425
2315.51999	680.025
2318.37489	676.425
2321.22797	661.625
2324.07925	671.925
2326.92871	672.925
2329.77637	673.225
2332.62222	674.525
2335.46626	668.525
2338.3085	661.425
2341.14893	668.325
2343.98756	667.825
2346.8244	660.825
2349.65943	662.125
2352.49267	661.525
2355.32411	659.825
2358.15376	662.525
2360.98161	660.825
2363.80768	658.825
2366.63195	664.425
2369.45444	659.825
2372.27514	665.225
2375.09405	659.825
2377.91118	665.625
2380.72652	664.825
2383.54009	661.125
2386.35187	659.125
2389.16188	666.525
2391.97011	664.625
2394.77657	658.825
2397.58125	658.325
2400.38416	657.425
2403.18529	651.525
2405.98466	648.525
2408.78226	652.025
2411.57809	653.025
2414.37216	650.225
2417.16446	644.925
2419.955	644.525
2422.74378	644.625
2425.5308	642.225
2428.31606	641.025
2431.09956	651.925
2433.88131	648.125
2436.6613	641.225
2439.43954	645.925
2442.21603	649.025
2444.99077	640.725
2447.76377	645.225
2450.53501	644.725
2453.30451	640.525
2456.07226	647.225
2458.83827	639.325
2461.60254	636.725
2464.36507	643.125
2467.12586	642.625
2469.88492	642.825
2472.64224	638.125
2475.39782	629.725
2478.15167	633.425
2480.90379	630.025
2483.65417	637.625
2486.40283	642.025
2489.14976	639.025
2491.89497	639.925
2494.63845	625.625
2497.3802	628.825
2500.12024	633.225
2502.85855	631.825
2505.59514	639.425
2508.33002	628.325
2511.06318	636.725
2513.79462	638.225
2516.52435	635.925
2519.25237	639.825
2521.97867	638.325
2524.70327	630.925
2527.42616	638.325
2530.14734	627.425
2532.86681	630.925
2535.58458	634.525
2538.30065	634.325
2541.01501	633.325
2543.72768	632.825
2546.43864	627.325
2549.14791	622.225
2551.85548	627.725
2554.56136	629.725
2557.26554	629.925
2559.96803	621.125
2562.66883	626.625
2565.36794	625.025
2568.06536	619.025
2570.7611	624.425
2573.45514	621.925
2576.14751	621.125
2578.83819	613.225
2581.52719	621.125
2584.21451	615.425
2586.90015	614.425
2589.58411	614.325
2592.2664	614.225
2594.94701	615.425
2597.62594	611.525
2600.30321	619.125
2602.9788	616.625
2605.65273	617.525
2608.32498	606.825
2610.99557	609.925
2613.66449	611.225
2616.33175	612.725
2618.99734	613.325
2621.66128	612.225
2624.32355	606.425
2626.98416	604.925
2629.64311	605.325
2632.30041	612.825
2634.95605	604.225
2637.61004	608.525
2640.26238	610.225
2642.91306	615.325
2645.56209	608.725
2648.20948	603.125
2650.85521	606.825
2653.4993	605.025
2656.14175	604.325
2658.78255	606.025
2661.42171	610.625
2664.05923	602.925
2666.6951	610.425
2669.32934	608.725
2671.96194	603.925
2674.59291	608.425
2677.22224	602.325
2679.84993	606.325
2682.476	610.225
2685.10043	605.825
2687.72324	608.325
2690.34441	603.125
2692.96396	609.825
2695.58188	613.225
2698.19818	612.325
2700.81285	614.025
2703.4259	590.125
2706.03733	551.525
2708.64714	569.725
2711.25533	590.125
2713.86191	595.925
2716.46687	601.625
2719.07021	598.125
2721.67194	614.925
2724.27206	613.125
2726.87057	620.125
2729.46747	616.725
2732.06276	616.225
2734.65644	614.425
2737.24852	613.425
2739.83899	611.925
2742.42786	621.025
2745.01513	612.625
2747.60079	618.325
2750.18486	612.825
2752.76733	616.525
2755.3482	611.325
2757.92747	612.325
2760.50515	612.425
2763.08123	608.925
2765.65573	616.325
2768.22863	613.325
2770.79994	612.525
2773.36967	616.625
2775.9378	609.625
2778.50435	610.525
2781.06932	612.725
2783.6327	610.525
2786.1945	607.725
2788.75471	605.625
2791.31335	610.325
2793.87041	609.925
2796.42589	606.725
2798.97979	608.425
2801.53212	607.525
2804.08288	601.225
2806.63206	604.325
2809.17967	598.825
2811.72571	595.925
2814.27018	603.925
2816.81308	595.425
2819.35442	602.325
2821.89419	601.525
2824.43239	592.725
2826.96904	597.725
2829.50412	602.725
2832.03763	596.625
2834.56959	594.325
2837.1	595.425
2839.62884	602.225
2842.15613	590.825
2844.68186	597.025
2847.20604	591.325
2849.72867	593.625
2852.24974	600.125
2854.76927	595.025
2857.28724	584.525
2859.80367	589.525
2862.31855	601.025
2864.83189	597.225
2867.34368	595.825
2869.85393	595.125
2872.36264	595.525
2874.8698	594.225
2877.37543	598.125
2879.87952	602.225
2882.38207	604.225
2884.88308	599.925
2887.38256	610.525
2889.88051	606.025
2892.37692	613.825
2894.8718	613.625
2897.36515	616.125
2899.85698	609.125
2902.34727	613.825
2904.83604	615.325
2907.32328	616.925
2909.809	623.525
2912.29319	622.725
2914.77587	623.125
2917.25702	627.225
2919.73665	628.425
2922.21476	633.425
2924.69136	624.425
2927.16644	630.825
2929.64	628.225
2932.11205	625.625
2934.58258	628.225
2937.05161	631.425
2939.51912	632.225
2941.98513	632.525
2944.44962	627.225
2946.91261	631.725
2949.37409	633.625
2951.83407	638.025
2954.29254	638.025
2956.74951	644.125
2959.20498	634.625
2961.65895	632.225
2964.11142	635.425
2966.56239	635.425
2969.01186	634.025
2971.45984	642.125
2973.90632	635.825
2976.35131	638.625
2978.7948	641.425
2981.23681	641.325
2983.67732	644.225
2986.11635	640.425
2988.55388	645.025
2990.98993	643.525
2993.4245	637.225
2995.85758	640.925
2998.28917	639.425
3000.71928	651.125
3003.14791	642.725
3005.57506	651.025
3008.00073	640.025
3010.42493	651.225
3012.84764	653.625
3015.26888	651.925
3017.68865	662.925
3020.10694	649.025
3022.52376	657.125
3024.9391	662.725
3027.35298	663.025
3029.76539	659.025
3032.17632	667.125
3034.5858	662.025
3036.9938	665.325
3039.40034	671.525
3041.80542	674.025
3044.20903	679.525
3046.61118	677.325
3049.01187	677.325
3051.4111	687.725
3053.80888	688.425
3056.20519	692.125
3058.60005	690.525
3060.99345	703.225
3063.3854	698.625
3065.7759	710.225
3068.16494	706.125
3070.55254	713.625
3072.93868	705.825
3075.32338	719.425
3077.70662	716.225
3080.08842	718.525
3082.46878	713.725
3084.84769	725.025
3087.22515	729.425
3089.60118	730.425
3091.97576	739.425
3094.3489	740.925
3096.72061	748.025
3099.09087	750.725
3101.4597	764.525
3103.82709	770.625
3106.19305	780.325
3108.55757	784.925
3110.92066	780.925
3113.28232	785.225
3115.64255	797.625
3118.00134	800.525
3120.35871	809.125
3122.71466	817.725
3125.06917	815.025
3127.42226	817.825
3129.77393	837.025
3132.12417	831.325
3134.47299	835.025
3136.82039	843.425
3139.16636	847.425
3141.51092	856.225
3143.85406	863.725
3146.19579	868.125
3148.53609	874.525
3150.87499	884.925
3153.21246	894.725
3155.54853	904.225
3157.88318	907.425
3160.21642	929.825
3162.54826	928.825
3164.87868	937.125
3167.2077	940.225
3169.5353	953.725
3171.86151	951.225
3174.18631	963.625
3176.5097	969.225
3178.83169	975.225
3181.15228	982.125
3183.47147	981.625
3185.78926	986.425
3188.10565	997.225
3190.42065	1005.125
3192.73424	1008.825
3195.04645	1002.925
3197.35725	1012.825
3199.66667	1013.325
3201.97469	1022.425
3204.28132	1035.325
3206.58656	1034.925
3208.8904	1037.625
3211.19287	1044.825
3213.49394	1043.125
3215.79363	1051.525
3218.09193	1063.425
3220.38884	1055.225
3222.68438	1045.625
3224.97853	1062.725
3227.2713	1071.325
3229.56269	1068.625
3231.8527	1074.225
3234.14133	1077.625
3236.42858	1071.225
3238.71446	1079.225
3240.99896	1072.725
3243.28209	1078.925
3245.56384	1069.525
3247.84423	1070.625
3250.12324	1076.425
3252.40088	1075.225
3254.67715	1072.725
3256.95205	1071.225
3259.22558	1082.925
3261.49775	1078.925
3263.76855	1072.925
3266.03799	1085.225
3268.30606	1079.625
3270.57277	1086.325
3272.83812	1081.925
3275.10211	1083.025
3277.36474	1087.325
3279.62601	1082.125
3281.88593	1080.925
3284.14448	1086.525
3286.40168	1086.925
3288.65753	1080.025
3290.91202	1087.125
3293.16516	1077.725
3295.41695	1078.525
3297.66738	1079.825
3299.91647	1074.425
3302.16421	1067.125
3304.4106	1056.525
