Data from AgNPs_APTES_FTO_UA_100uM_CRN_0uM_R6G_10uM_Scan_RamanShift__6__10-46-41-234.txt Node

Date: Wed Jun 29 10:46:41 BST 2022
User: TCL
Spectrometer: QEP01345
Trigger mode: 4
Integration Time (sec): 7.000000E0
Scans to average: 10
Electric dark correction enabled: true
Nonlinearity correction enabled: false
Boxcar width: 0
XAxis mode: Raman Shifts
Number of Pixels in Spectrum: 1044
>>>>>Begin Spectral Data<<<<<
46.04893	-0.3625
50.45542	0.9375
54.85868	0.0375
59.25871	1.7375
63.6555	35.8375
68.04907	41.2375
72.43941	42.8375
76.82654	44.4375
81.21044	47.5375
85.59113	52.4375
89.96862	56.3375
94.34289	52.0375
98.71396	54.3375
103.08183	59.6375
107.4465	58.8375
111.80798	62.6375
116.16626	54.8375
120.52136	58.2375
124.87327	57.0375
129.222	56.8375
133.56755	53.9375
137.90993	52.3375
142.24913	52.2375
146.58517	51.3375
150.91804	51.2375
155.24774	53.4375
159.57429	57.9375
163.89768	55.6375
168.21792	62.5375
172.53501	70.1375
176.84895	80.8375
181.15975	101.7375
185.46741	130.4375
189.77193	163.3375
194.07331	205.2375
198.37157	264.4375
202.6667	319.0375
206.9587	363.8375
211.24758	421.7375
215.53334	474.8375
219.81599	534.7375
224.09553	591.6375
228.37195	649.5375
232.64527	720.9375
236.91549	788.6375
241.18261	853.0375
245.44663	933.1375
249.70755	984.5375
253.96539	1034.3375
258.22014	1080.9375
262.4718	1094.2375
266.72039	1104.8375
270.96589	1109.2375
275.20832	1099.8375
279.44768	1070.5375
283.68397	1043.7375
287.91719	1024.5375
292.14735	1010.2375
296.37445	976.5375
300.59849	972.6375
304.81948	970.3375
309.03742	968.3375
313.25231	967.5375
317.46415	957.8375
321.67296	938.1375
325.87872	909.6375
330.08145	909.8375
334.28114	920.2375
338.47781	931.9375
342.67145	934.4375
346.86207	950.6375
351.04966	965.2375
355.23424	997.9375
359.4158	1005.0375
363.59435	1014.9375
367.76989	1022.1375
371.94243	1031.1375
376.11196	1031.7375
380.27849	1029.6375
384.44203	1035.4375
388.60257	1037.7375
392.76012	1044.7375
396.91468	1060.6375
401.06626	1062.7375
405.21485	1073.4375
409.36047	1074.0375
413.50311	1066.0375
417.64277	1050.7375
421.77947	1052.6375
425.9132	1041.3375
430.04396	1044.4375
434.17176	1049.1375
438.2966	1062.6375
442.41849	1074.8375
446.53742	1080.6375
450.6534	1088.3375
454.76644	1105.6375
458.87653	1104.8375
462.98368	1100.7375
467.08789	1116.6375
471.18916	1109.1375
475.2875	1116.4375
479.38291	1107.5375
483.4754	1115.8375
487.56496	1124.5375
491.6516	1124.8375
495.73531	1133.8375
499.81612	1135.6375
503.89401	1124.0375
507.96899	1123.2375
512.04106	1125.6375
516.11023	1121.7375
520.1765	1117.8375
524.23987	1117.0375
528.30034	1105.4375
532.35792	1112.0375
536.41261	1107.0375
540.46441	1108.8375
544.51333	1093.6375
548.55936	1094.0375
552.60252	1098.5375
556.64279	1105.7375
560.6802	1103.0375
564.71473	1110.1375
568.7464	1118.5375
572.7752	1126.9375
576.80114	1111.7375
580.82422	1095.9375
584.84444	1107.6375
588.86181	1108.5375
592.87633	1117.7375
596.888	1114.1375
600.89682	1134.0375
604.9028	1161.5375
608.90594	1254.2375
612.90624	1364.6375
616.90371	1366.2375
620.89834	1252.3375
624.89015	1190.7375
628.87913	1192.7375
632.86528	1212.2375
636.84862	1225.1375
640.82913	1232.9375
644.80683	1218.4375
648.78172	1197.3375
652.75379	1196.9375
656.72306	1200.0375
660.68952	1214.8375
664.65319	1214.8375
668.61405	1216.6375
672.57211	1210.1375
676.52738	1232.1375
680.47986	1251.0375
684.42955	1275.8375
688.37646	1293.1375
692.32058	1287.0375
696.26192	1257.3375
700.20048	1235.8375
704.13626	1228.4375
708.06928	1213.0375
711.99952	1224.3375
715.927	1231.0375
719.85171	1207.3375
723.77365	1206.6375
727.69284	1212.7375
731.60928	1198.5375
735.52295	1195.1375
739.43388	1193.1375
743.34206	1183.2375
747.24749	1189.7375
751.15017	1182.5375
755.05012	1162.1375
758.94733	1185.6375
762.8418	1220.2375
766.73354	1274.5375
770.62254	1325.1375
774.50882	1344.4375
778.39237	1333.0375
782.27321	1296.4375
786.15132	1251.2375
790.02671	1233.6375
793.89938	1218.3375
797.76935	1221.2375
801.6366	1231.3375
805.50115	1232.6375
809.36299	1230.9375
813.22213	1239.5375
817.07857	1229.2375
820.93231	1208.9375
824.78336	1206.5375
828.63172	1193.9375
832.47738	1191.5375
836.32036	1188.1375
840.16066	1187.5375
843.99827	1186.9375
847.8332	1184.4375
851.66546	1179.8375
855.49504	1175.2375
859.32195	1173.8375
863.1462	1174.6375
866.96777	1167.1375
870.78668	1173.9375
874.60293	1177.7375
878.41652	1199.8375
882.22745	1213.7375
886.03573	1224.8375
889.84136	1237.1375
893.64433	1248.2375
897.44466	1244.3375
901.24235	1230.2375
905.0374	1223.9375
908.8298	1218.0375
912.61957	1222.2375
916.40671	1221.9375
920.19121	1244.5375
923.97308	1252.8375
927.75233	1251.8375
931.52895	1252.8375
935.30295	1238.2375
939.07433	1237.0375
942.84309	1219.7375
946.60924	1205.7375
950.37278	1214.0375
954.13371	1197.3375
957.89203	1197.6375
961.64774	1194.7375
965.40086	1181.7375
969.15137	1172.6375
972.89929	1169.7375
976.64461	1160.0375
980.38733	1165.5375
984.12747	1159.5375
987.86502	1156.6375
991.59999	1161.9375
995.33237	1163.4375
999.06217	1175.2375
1002.78939	1176.9375
1006.51404	1193.9375
1010.23611	1197.2375
1013.95561	1190.5375
1017.67255	1197.5375
1021.38692	1206.1375
1025.09872	1206.0375
1028.80796	1207.8375
1032.51465	1207.6375
1036.21877	1186.2375
1039.92035	1189.9375
1043.61937	1184.9375
1047.31584	1187.2375
1051.00976	1185.1375
1054.70114	1188.4375
1058.38998	1179.2375
1062.07627	1179.4375
1065.76003	1189.9375
1069.44126	1194.6375
1073.11995	1197.3375
1076.79611	1195.2375
1080.46974	1210.6375
1084.14085	1211.2375
1087.80943	1197.1375
1091.47549	1196.4375
1095.13903	1183.7375
1098.80005	1170.6375
1102.45857	1168.9375
1106.11456	1162.7375
1109.76805	1173.9375
1113.41903	1172.8375
1117.06751	1192.6375
1120.71348	1222.7375
1124.35696	1240.9375
1127.99793	1285.3375
1131.63641	1309.7375
1135.2724	1315.0375
1138.90589	1304.5375
1142.5369	1283.4375
1146.16542	1267.4375
1149.79145	1244.9375
1153.415	1221.7375
1157.03607	1212.0375
1160.65467	1204.6375
1164.27079	1193.7375
1167.88443	1211.3375
1171.49561	1231.4375
1175.10432	1257.0375
1178.71056	1306.1375
1182.31434	1346.1375
1185.91565	1351.4375
1189.51451	1337.0375
1193.11091	1313.7375
1196.70485	1305.1375
1200.29634	1304.5375
1203.88538	1294.4375
1207.47197	1262.8375
1211.05612	1255.4375
1214.63782	1239.9375
1218.21708	1237.9375
1221.79391	1229.3375
1225.36829	1224.0375
1228.94024	1225.9375
1232.50976	1231.4375
1236.07685	1236.1375
1239.6415	1247.5375
1243.20374	1248.2375
1246.76355	1252.4375
1250.32093	1263.2375
1253.8759	1268.8375
1257.42845	1268.3375
1260.97859	1282.7375
1264.52631	1297.0375
1268.07163	1303.8375
1271.61453	1320.8375
1275.15503	1339.0375
1278.69312	1344.5375
1282.22882	1338.7375
1285.76211	1357.3375
1289.29301	1369.6375
1292.82151	1409.3375
1296.34761	1421.2375
1299.87133	1465.6375
1303.39266	1477.0375
1306.9116	1550.5375
1310.42815	1610.7375
1313.94233	1640.0375
1317.45412	1603.8375
1320.96354	1570.5375
1324.47058	1521.3375
1327.97525	1478.4375
1331.47754	1466.1375
1334.97747	1463.0375
1338.47502	1485.0375
1341.97022	1505.3375
1345.46305	1531.8375
1348.95352	1592.7375
1352.44163	1645.8375
1355.92738	1717.1375
1359.41078	1813.4375
1362.89183	1923.2375
1366.37053	1934.2375
1369.84688	1823.1375
1373.32088	1710.5375
1376.79254	1626.4375
1380.26186	1600.3375
1383.72883	1580.2375
1387.19347	1547.5375
1390.65578	1537.6375
1394.11575	1527.1375
1397.57339	1509.2375
1401.0287	1505.1375
1404.48168	1482.1375
1407.93234	1471.0375
1411.38068	1462.5375
1414.82669	1453.1375
1418.27039	1443.0375
1421.71177	1425.0375
1425.15083	1413.9375
1428.58758	1405.6375
1432.02203	1388.2375
1435.45416	1383.7375
1438.88399	1363.4375
1442.31151	1352.6375
1445.73673	1347.2375
1449.15965	1334.9375
1452.58027	1339.6375
1455.9986	1347.7375
1459.41463	1338.4375
1462.82837	1338.0375
1466.23982	1354.5375
1469.64898	1360.9375
1473.05586	1378.1375
1476.46045	1375.0375
1479.86276	1387.8375
1483.26279	1400.2375
1486.66054	1409.0375
1490.05602	1401.6375
1493.44922	1424.1375
1496.84016	1433.6375
1500.22882	1485.0375
1503.61521	1532.3375
1506.99934	1607.6375
1510.38121	1680.4375
1513.76081	1698.8375
1517.13816	1630.0375
1520.51324	1550.1375
1523.88607	1458.8375
1527.25665	1394.0375
1530.62498	1355.5375
1533.99105	1335.6375
1537.35488	1323.2375
1540.71647	1319.6375
1544.07581	1314.0375
1547.4329	1314.5375
1550.78776	1313.5375
1554.14038	1310.7375
1557.49077	1322.6375
1560.83892	1333.4375
1564.18484	1341.6375
1567.52853	1353.8375
1570.86999	1368.2375
1574.20922	1374.9375
1577.54624	1375.1375
1580.88103	1347.7375
1584.2136	1328.1375
1587.54395	1290.8375
1590.87208	1275.4375
1594.19801	1260.9375
1597.52172	1264.4375
1600.84321	1259.2375
1604.16251	1237.2375
1607.47959	1222.7375
1610.79447	1212.0375
1614.10715	1203.4375
1617.41763	1186.0375
1620.7259	1175.6375
1624.03199	1168.7375
1627.33587	1177.4375
1630.63757	1156.5375
1633.93707	1154.2375
1637.23439	1161.2375
1640.52951	1161.3375
1643.82246	1184.6375
1647.11321	1224.0375
1650.40179	1259.8375
1653.68819	1249.2375
1656.97241	1200.9375
1660.25446	1137.5375
1663.53433	1091.5375
1666.81203	1065.4375
1670.08756	1058.7375
1673.36092	1058.5375
1676.63211	1058.5375
1679.90115	1052.0375
1683.16801	1040.2375
1686.43272	1035.0375
1689.69527	1008.3375
1692.95567	982.2375
1696.2139	944.9375
1699.46999	908.6375
1702.72392	904.7375
1705.97571	901.6375
1709.22535	914.6375
1712.47284	924.1375
1715.71819	926.1375
1718.96139	918.6375
1722.20246	912.6375
1725.44139	893.7375
1728.67818	890.1375
1731.91284	874.7375
1735.14537	871.9375
1738.37576	866.1375
1741.60403	855.5375
1744.83017	848.2375
1748.05418	841.6375
1751.27607	822.5375
1754.49584	807.0375
1757.71349	792.9375
1760.92903	778.5375
1764.14244	777.0375
1767.35375	767.9375
1770.56294	768.4375
1773.77002	782.8375
1776.97499	784.8375
1780.17785	797.9375
1783.37861	811.6375
1786.57727	812.0375
1789.77382	812.3375
1792.96828	815.2375
1796.16064	811.5375
1799.3509	804.2375
1802.53907	813.3375
1805.72514	802.1375
1808.90913	800.5375
1812.09102	800.2375
1815.27083	801.2375
1818.44856	803.1375
1821.6242	806.9375
1824.79776	796.4375
1827.96924	796.2375
1831.13864	787.4375
1834.30597	793.9375
1837.47122	793.1375
1840.6344	786.4375
1843.7955	790.4375
1846.95454	785.4375
1850.11151	792.3375
1853.26642	792.1375
1856.41926	785.4375
1859.57004	788.7375
1862.71876	784.9375
1865.86542	785.4375
1869.01003	781.6375
1872.15258	777.3375
1875.29308	778.6375
1878.43152	773.4375
1881.56792	780.4375
1884.70227	777.5375
1887.83457	771.1375
1890.96482	771.5375
1894.09304	773.8375
1897.21921	775.2375
1900.34335	780.0375
1903.46544	769.8375
1906.58551	772.6375
1909.70353	764.2375
1912.81953	770.4375
1915.93349	761.1375
1919.04543	775.1375
1922.15534	765.2375
1925.26322	762.3375
1928.36908	761.3375
1931.47292	763.3375
1934.57473	757.4375
1937.67453	763.3375
1940.77232	762.8375
1943.86808	763.6375
1946.96184	760.2375
1950.05358	746.9375
1953.14331	747.0375
1956.23103	746.8375
1959.31675	749.7375
1962.40046	747.3375
1965.48217	736.0375
1968.56188	732.6375
1971.63959	741.0375
1974.7153	740.4375
1977.78901	727.3375
1980.86073	728.8375
1983.93046	723.2375
1986.99819	732.0375
1990.06394	719.1375
1993.1277	725.1375
1996.18947	714.0375
1999.24925	721.8375
2002.30706	716.9375
2005.36288	712.0375
2008.41672	708.8375
2011.46859	719.7375
2014.51848	709.3375
2017.56639	706.6375
2020.61233	712.0375
2023.6563	704.9375
2026.6983	701.7375
2029.73833	704.7375
2032.7764	698.9375
2035.8125	698.5375
2038.84664	697.0375
2041.87881	695.2375
2044.90903	688.5375
2047.93729	703.2375
2050.96359	692.4375
2053.98794	695.1375
2057.01034	692.4375
2060.03078	695.1375
2063.04927	704.4375
2066.06582	704.7375
2069.08042	705.1375
2072.09307	714.3375
2075.10378	705.7375
2078.11255	710.5375
2081.11938	714.5375
2084.12426	718.9375
2087.12722	733.3375
2090.12824	720.5375
2093.12732	729.9375
2096.12447	742.0375
2099.11969	733.7375
2102.11299	745.3375
2105.10435	741.8375
2108.09379	742.7375
2111.08131	742.7375
2114.0669	749.8375
2117.05057	749.8375
2120.03233	751.3375
2123.01216	746.3375
2125.99008	749.1375
2128.96609	748.8375
2131.94018	751.4375
2134.91236	747.4375
2137.88263	752.1375
2140.851	747.5375
2143.81746	743.1375
2146.78201	734.1375
2149.74466	740.2375
2152.7054	734.3375
2155.66425	731.8375
2158.6212	732.6375
2161.57625	735.8375
2164.52941	737.9375
2167.48067	732.6375
2170.43004	737.3375
2173.37752	737.8375
2176.32311	735.3375
2179.26681	728.8375
2182.20863	733.0375
2185.14856	732.8375
2188.08661	723.3375
2191.02278	722.4375
2193.95707	714.5375
2196.88948	707.5375
2199.82001	708.2375
2202.74867	710.0375
2205.67545	702.7375
2208.60037	698.8375
2211.52341	697.4375
2214.44458	696.0375
2217.36388	696.0375
2220.28132	688.9375
2223.1969	692.9375
2226.11061	692.0375
2229.02246	681.7375
2231.93245	688.0375
2234.84058	682.2375
2237.74686	684.5375
2240.65128	681.3375
2243.55385	677.4375
2246.45456	682.1375
2249.35343	682.4375
2252.25044	676.8375
2255.14561	679.3375
2258.03893	675.6375
2260.93041	662.1375
2263.82004	662.1375
2266.70783	666.8375
2269.59378	675.8375
2272.4779	671.3375
2275.36017	669.4375
2278.24061	666.0375
2281.11922	662.4375
2283.996	662.3375
2286.87094	668.4375
2289.74405	656.0375
2292.61534	668.2375
2295.4848	663.7375
2298.35243	661.3375
2301.21824	659.4375
2304.08223	660.3375
2306.94439	664.3375
2309.80474	662.3375
2312.66327	659.5375
2315.51999	661.5375
2318.37489	662.4375
2321.22797	655.6375
2324.07925	659.5375
2326.92871	653.9375
2329.77637	660.7375
2332.62222	651.7375
2335.46626	655.2375
2338.3085	648.7375
2341.14893	651.7375
2343.98756	647.3375
2346.8244	663.6375
2349.65943	688.5375
2352.49267	655.2375
2355.32411	644.6375
2358.15376	644.2375
2360.98161	642.6375
2363.80768	649.0375
2366.63195	652.5375
2369.45444	641.9375
2372.27514	652.1375
2375.09405	647.8375
2377.91118	646.2375
2380.72652	645.8375
2383.54009	642.8375
2386.35187	643.7375
2389.16188	646.1375
2391.97011	650.5375
2394.77657	641.3375
2397.58125	641.1375
2400.38416	638.4375
2403.18529	638.4375
2405.98466	636.0375
2408.78226	627.9375
2411.57809	631.1375
2414.37216	634.0375
2417.16446	633.1375
2419.955	637.5375
2422.74378	629.0375
2425.5308	632.9375
2428.31606	632.0375
2431.09956	638.0375
2433.88131	626.5375
2436.6613	628.3375
2439.43954	633.0375
2442.21603	624.6375
2444.99077	620.6375
2447.76377	633.8375
2450.53501	625.4375
2453.30451	631.3375
2456.07226	632.8375
2458.83827	634.2375
2461.60254	625.6375
2464.36507	624.3375
2467.12586	617.2375
2469.88492	620.4375
2472.64224	622.5375
2475.39782	619.2375
2478.15167	617.0375
2480.90379	620.8375
2483.65417	628.7375
2486.40283	625.8375
2489.14976	625.5375
2491.89497	620.8375
2494.63845	616.8375
2497.3802	615.3375
2500.12024	614.0375
2502.85855	608.0375
2505.59514	616.9375
2508.33002	616.7375
2511.06318	622.5375
2513.79462	623.9375
2516.52435	614.3375
2519.25237	619.4375
2521.97867	624.2375
2524.70327	611.6375
2527.42616	617.0375
2530.14734	609.2375
2532.86681	619.6375
2535.58458	616.9375
2538.30065	614.8375
2541.01501	615.9375
2543.72768	614.3375
2546.43864	610.2375
2549.14791	611.0375
2551.85548	611.5375
2554.56136	607.3375
2557.26554	611.5375
2559.96803	603.8375
2562.66883	604.9375
2565.36794	602.8375
2568.06536	602.6375
2570.7611	601.7375
2573.45514	603.6375
2576.14751	599.2375
2578.83819	597.6375
2581.52719	593.2375
2584.21451	600.1375
2586.90015	594.1375
2589.58411	591.5375
2592.2664	596.2375
2594.94701	604.2375
2597.62594	591.8375
2600.30321	603.4375
2602.9788	596.5375
2605.65273	594.6375
2608.32498	589.7375
2610.99557	592.7375
2613.66449	589.9375
2616.33175	598.7375
2618.99734	592.8375
2621.66128	588.4375
2624.32355	590.3375
2626.98416	585.5375
2629.64311	589.4375
2632.30041	591.7375
2634.95605	589.1375
2637.61004	592.4375
2640.26238	591.2375
2642.91306	588.6375
2645.56209	587.4375
2648.20948	582.3375
2650.85521	585.0375
2653.4993	588.4375
2656.14175	586.2375
2658.78255	587.3375
2661.42171	586.9375
2664.05923	579.3375
2666.6951	588.8375
2669.32934	589.2375
2671.96194	584.0375
2674.59291	590.6375
2677.22224	586.3375
2679.84993	584.9375
2682.476	591.6375
2685.10043	586.3375
2687.72324	589.3375
2690.34441	589.2375
2692.96396	589.0375
2695.58188	595.4375
2698.19818	593.3375
2700.81285	587.3375
2703.4259	578.4375
2706.03733	535.7375
2708.64714	557.8375
2711.25533	573.0375
2713.86191	582.1375
2716.46687	586.3375
2719.07021	586.9375
2721.67194	596.2375
2724.27206	593.2375
2726.87057	596.5375
2729.46747	600.3375
2732.06276	601.7375
2734.65644	591.7375
2737.24852	600.2375
2739.83899	595.3375
2742.42786	593.8375
2745.01513	589.9375
2747.60079	592.0375
2750.18486	594.6375
2752.76733	591.0375
2755.3482	594.9375
2757.92747	596.3375
2760.50515	593.3375
2763.08123	593.6375
2765.65573	599.7375
2768.22863	596.8375
2770.79994	587.4375
2773.36967	592.6375
2775.9378	587.8375
2778.50435	591.3375
2781.06932	593.6375
2783.6327	588.8375
2786.1945	588.8375
2788.75471	589.3375
2791.31335	595.2375
2793.87041	589.5375
2796.42589	589.3375
2798.97979	594.5375
2801.53212	590.6375
2804.08288	581.6375
2806.63206	585.3375
2809.17967	583.0375
2811.72571	573.7375
2814.27018	580.6375
2816.81308	578.9375
2819.35442	580.6375
2821.89419	578.8375
2824.43239	576.6375
2826.96904	577.5375
2829.50412	577.2375
2832.03763	575.0375
2834.56959	579.7375
2837.1	576.4375
2839.62884	580.9375
2842.15613	572.5375
2844.68186	576.3375
2847.20604	574.8375
2849.72867	574.9375
2852.24974	581.9375
2854.76927	573.4375
2857.28724	562.1375
2859.80367	573.4375
2862.31855	575.3375
2864.83189	577.4375
2867.34368	573.7375
2869.85393	574.1375
2872.36264	576.5375
2874.8698	584.3375
2877.37543	574.9375
2879.87952	580.1375
2882.38207	581.7375
2884.88308	584.7375
2887.38256	583.3375
2889.88051	576.4375
2892.37692	593.6375
2894.8718	595.6375
2897.36515	594.1375
2899.85698	589.1375
2902.34727	592.7375
2904.83604	593.6375
2907.32328	593.9375
2909.809	601.3375
2912.29319	607.0375
2914.77587	605.0375
2917.25702	600.6375
2919.73665	601.1375
2922.21476	611.1375
2924.69136	604.1375
2927.16644	612.3375
2929.64	613.7375
2932.11205	615.8375
2934.58258	609.7375
2937.05161	618.3375
2939.51912	618.3375
2941.98513	615.4375
2944.44962	611.0375
2946.91261	615.8375
2949.37409	615.4375
2951.83407	615.5375
2954.29254	625.4375
2956.74951	618.1375
2959.20498	617.5375
2961.65895	612.7375
2964.11142	614.6375
2966.56239	606.8375
2969.01186	613.7375
2971.45984	615.3375
2973.90632	612.4375
2976.35131	621.6375
2978.7948	616.3375
2981.23681	621.2375
2983.67732	616.3375
2986.11635	620.0375
2988.55388	618.7375
2990.98993	618.0375
2993.4245	617.5375
2995.85758	620.8375
2998.28917	619.0375
3000.71928	627.5375
3003.14791	618.4375
3005.57506	621.0375
3008.00073	621.8375
3010.42493	624.5375
3012.84764	627.5375
3015.26888	624.0375
3017.68865	625.6375
3020.10694	637.0375
3022.52376	640.1375
3024.9391	630.2375
3027.35298	635.7375
3029.76539	637.6375
3032.17632	640.8375
3034.5858	640.9375
3036.9938	638.0375
3039.40034	648.0375
3041.80542	651.1375
3044.20903	659.5375
3046.61118	658.2375
3049.01187	655.8375
3051.4111	657.0375
3053.80888	666.3375
3056.20519	665.3375
3058.60005	672.4375
3060.99345	673.3375
3063.3854	670.5375
3065.7759	680.5375
3068.16494	685.2375
3070.55254	678.7375
3072.93868	689.3375
3075.32338	691.3375
3077.70662	696.0375
3080.08842	693.6375
3082.46878	693.8375
3084.84769	695.3375
3087.22515	701.7375
3089.60118	715.5375
3091.97576	717.5375
3094.3489	722.1375
3096.72061	720.2375
3099.09087	725.3375
3101.4597	740.3375
3103.82709	743.5375
3106.19305	749.5375
3108.55757	756.2375
3110.92066	762.6375
3113.28232	757.7375
3115.64255	774.6375
3118.00134	778.7375
3120.35871	781.5375
3122.71466	779.8375
3125.06917	782.5375
3127.42226	794.4375
3129.77393	804.4375
3132.12417	803.8375
3134.47299	805.8375
3136.82039	820.1375
3139.16636	828.9375
3141.51092	831.4375
3143.85406	844.1375
3146.19579	844.5375
3148.53609	853.8375
3150.87499	860.7375
3153.21246	869.5375
3155.54853	872.9375
3157.88318	885.4375
3160.21642	896.7375
3162.54826	910.4375
3164.87868	908.2375
3167.2077	920.5375
3169.5353	926.5375
3171.86151	924.5375
3174.18631	932.2375
3176.5097	943.6375
3178.83169	948.9375
3181.15228	949.7375
3183.47147	959.1375
3185.78926	957.9375
3188.10565	972.3375
3190.42065	980.6375
