Data from AgNPs_APTES_FTO_UA_100uM_CRN_0uM_R6G_10uM_Scan_RamanShift__29__11-13-31-266.txt Node

Date: Wed Jun 29 11:13:31 BST 2022
User: TCL
Spectrometer: QEP01345
Trigger mode: 4
Integration Time (sec): 7.000000E0
Scans to average: 10
Electric dark correction enabled: true
Nonlinearity correction enabled: false
Boxcar width: 0
XAxis mode: Raman Shifts
Number of Pixels in Spectrum: 1044
>>>>>Begin Spectral Data<<<<<
46.04893	-0.8
50.45542	0.3
54.85868	0.2
59.25871	1.1
63.6555	35.2
68.04907	35.6
72.43941	36.9
76.82654	40.5
81.21044	44.7
85.59113	47.9
89.96862	50.9
94.34289	53.2
98.71396	54.7
103.08183	52.3
107.4465	52.1
111.80798	54.7
116.16626	52.5
120.52136	54.5
124.87327	52.9
129.222	52.6
133.56755	70.1
137.90993	55.5
142.24913	49.2
146.58517	47.5
150.91804	47
155.24774	46.9
159.57429	51.8
163.89768	51.7
168.21792	55
172.53501	66.3
176.84895	79.8
181.15975	102
185.46741	125.6
189.77193	158.6
194.07331	205.2
198.37157	260.3
202.6667	318.7
206.9587	370.9
211.24758	423.6
215.53334	481.5
219.81599	543.2
224.09553	609.4
228.37195	676.2
232.64527	757.4
236.91549	839.9
241.18261	928.4
245.44663	1015.2
249.70755	1092.2
253.96539	1147.8
258.22014	1192.7
262.4718	1203.4
266.72039	1213.3
270.96589	1194.7
275.20832	1165.2
279.44768	1120.7
283.68397	1078.3
287.91719	1051.2
292.14735	1008.7
296.37445	975.4
300.59849	954.9
304.81948	935.6
309.03742	925
313.25231	907.2
317.46415	892.1
321.67296	890.4
325.87872	879.4
330.08145	881.5
334.28114	884
338.47781	895.5
342.67145	895.2
346.86207	900.9
351.04966	910.5
355.23424	923.8
359.4158	931.9
363.59435	934.1
367.76989	945.8
371.94243	952
376.11196	952
380.27849	958.2
384.44203	970.3
388.60257	967.3
392.76012	979.2
396.91468	984.4
401.06626	994.8
405.21485	1009.3
409.36047	1004
413.50311	1012.8
417.64277	1001.5
421.77947	998.4
425.9132	996.2
430.04396	994.2
434.17176	996.6
438.2966	1014.2
442.41849	1022.7
446.53742	1024.6
450.6534	1041.9
454.76644	1050.2
458.87653	1050.8
462.98368	1061
467.08789	1076.4
471.18916	1066.2
475.2875	1066.4
479.38291	1071.2
483.4754	1072.8
487.56496	1079.1
491.6516	1083
495.73531	1070.3
499.81612	1074.4
503.89401	1069.6
507.96899	1073.8
512.04106	1069.2
516.11023	1074
520.1765	1061.5
524.23987	1052.7
528.30034	1053.8
532.35792	1050.3
536.41261	1036.9
540.46441	1044.8
544.51333	1045.1
548.55936	1041.6
552.60252	1052.3
556.64279	1052.7
560.6802	1057.7
564.71473	1053.2
568.7464	1061.7
572.7752	1066.2
576.80114	1048.3
580.82422	1054.7
584.84444	1056.4
588.86181	1051.5
592.87633	1057.9
596.888	1053.6
600.89682	1071
604.9028	1087.6
608.90594	1141.3
612.90624	1169.7
616.90371	1168.5
620.89834	1131.1
624.89015	1100.5
628.87913	1101.7
632.86528	1101.8
636.84862	1103.7
640.82913	1102.3
644.80683	1113
648.78172	1109.7
652.75379	1120.6
656.72306	1118.8
660.68952	1120.5
664.65319	1131.4
668.61405	1134.1
672.57211	1155.3
676.52738	1173.3
680.47986	1186.4
684.42955	1209.9
688.37646	1227.9
692.32058	1232.2
696.26192	1213.9
700.20048	1188.6
704.13626	1172.9
708.06928	1160
711.99952	1149.8
715.927	1154.2
719.85171	1148.2
723.77365	1144
727.69284	1130.3
731.60928	1124.6
735.52295	1123.9
739.43388	1124.8
743.34206	1132.8
747.24749	1133.2
751.15017	1137.6
755.05012	1097.7
758.94733	1133.4
762.8418	1148.7
766.73354	1160.3
770.62254	1184.3
774.50882	1209.3
778.39237	1198.8
782.27321	1182.2
786.15132	1159.6
790.02671	1145
793.89938	1150.5
797.76935	1150.2
801.6366	1144.4
805.50115	1152.3
809.36299	1145.7
813.22213	1140.4
817.07857	1142.5
820.93231	1132.4
824.78336	1129.2
828.63172	1120.8
832.47738	1110.8
836.32036	1119.6
840.16066	1114.5
843.99827	1124
847.8332	1119.8
851.66546	1126.8
855.49504	1118.8
859.32195	1113.9
863.1462	1111.6
866.96777	1112.7
870.78668	1115.3
874.60293	1116.4
878.41652	1109.6
882.22745	1115.8
886.03573	1119
889.84136	1126.8
893.64433	1128
897.44466	1125.7
901.24235	1145.8
905.0374	1134.3
908.8298	1148.3
912.61957	1149.4
916.40671	1154.6
920.19121	1154.7
923.97308	1167
927.75233	1156.6
931.52895	1154.7
935.30295	1141
939.07433	1139.8
942.84309	1133.8
946.60924	1122.8
950.37278	1132.3
954.13371	1124.7
957.89203	1122.1
961.64774	1125.1
965.40086	1112.6
969.15137	1110.5
972.89929	1114.2
976.64461	1107.8
980.38733	1109.9
984.12747	1105
987.86502	1101.6
991.59999	1115.7
995.33237	1107.2
999.06217	1105.5
1002.78939	1117.2
1006.51404	1111.9
1010.23611	1113.5
1013.95561	1118.8
1017.67255	1120
1021.38692	1118.2
1025.09872	1122.7
1028.80796	1129.4
1032.51465	1124.7
1036.21877	1126.3
1039.92035	1128.8
1043.61937	1131
1047.31584	1138.3
1051.00976	1129.3
1054.70114	1134.9
1058.38998	1131.1
1062.07627	1128.1
1065.76003	1137.1
1069.44126	1132.9
1073.11995	1125.1
1076.79611	1130
1080.46974	1126.6
1084.14085	1123.5
1087.80943	1123.1
1091.47549	1122.3
1095.13903	1113.4
1098.80005	1117.7
1102.45857	1108.2
1106.11456	1107.7
1109.76805	1108.8
1113.41903	1107.3
1117.06751	1116
1120.71348	1120.9
1124.35696	1140.7
1127.99793	1142.6
1131.63641	1156.3
1135.2724	1167.5
1138.90589	1162.6
1142.5369	1163.3
1146.16542	1165.3
1149.79145	1158.4
1153.415	1141.2
1157.03607	1140.8
1160.65467	1124
1164.27079	1133.3
1167.88443	1143.9
1171.49561	1141.8
1175.10432	1160.2
1178.71056	1171.8
1182.31434	1195.7
1185.91565	1190.4
1189.51451	1194.8
1193.11091	1183.5
1196.70485	1180.3
1200.29634	1169.3
1203.88538	1168.1
1207.47197	1164.6
1211.05612	1164.6
1214.63782	1153.9
1218.21708	1167.9
1221.79391	1170.3
1225.36829	1166.4
1228.94024	1174.4
1232.50976	1177.1
1236.07685	1177.4
1239.6415	1173.3
1243.20374	1171.3
1246.76355	1167.3
1250.32093	1167.8
1253.8759	1168.2
1257.42845	1172.8
1260.97859	1173.7
1264.52631	1186.1
1268.07163	1196.1
1271.61453	1200.6
1275.15503	1196.6
1278.69312	1211.5
1282.22882	1206
1285.76211	1215.7
1289.29301	1224.7
1292.82151	1239.1
1296.34761	1245.4
1299.87133	1279.7
1303.39266	1280
1306.9116	1312.8
1310.42815	1331.7
1313.94233	1351.1
1317.45412	1353.3
1320.96354	1335.6
1324.47058	1318.6
1327.97525	1310.1
1331.47754	1315.3
1334.97747	1312.3
1338.47502	1319.5
1341.97022	1326.7
1345.46305	1343.3
1348.95352	1366.7
1352.44163	1375.1
1355.92738	1417.7
1359.41078	1427.8
1362.89183	1459.5
1366.37053	1462.1
1369.84688	1411.9
1373.32088	1363.3
1376.79254	1329.8
1380.26186	1304.1
1383.72883	1287.1
1387.19347	1266.2
1390.65578	1256.4
1394.11575	1248.9
1397.57339	1234
1401.0287	1232.5
1404.48168	1228.6
1407.93234	1219.9
1411.38068	1221.5
1414.82669	1209.6
1418.27039	1204.4
1421.71177	1188.4
1425.15083	1183.9
1428.58758	1177.4
1432.02203	1165
1435.45416	1165
1438.88399	1153.2
1442.31151	1148.1
1445.73673	1137.3
1449.15965	1136.9
1452.58027	1139.1
1455.9986	1143.1
1459.41463	1145.7
1462.82837	1145.4
1466.23982	1147.4
1469.64898	1147
1473.05586	1156.6
1476.46045	1155.8
1479.86276	1157.9
1483.26279	1170.6
1486.66054	1169.3
1490.05602	1177.2
1493.44922	1183.3
1496.84016	1191.6
1500.22882	1210.3
1503.61521	1238.1
1506.99934	1266.7
1510.38121	1288.9
1513.76081	1288.2
1517.13816	1267.8
1520.51324	1246.5
1523.88607	1227.5
1527.25665	1213.3
1530.62498	1203.3
1533.99105	1207.1
1537.35488	1206.3
1540.71647	1210.2
1544.07581	1225.6
1547.4329	1220.4
1550.78776	1235.4
1554.14038	1238.7
1557.49077	1246.4
1560.83892	1251.4
1564.18484	1250.7
1567.52853	1256.2
1570.86999	1259.6
1574.20922	1264.2
1577.54624	1260.3
1580.88103	1260.3
1584.2136	1252.8
1587.54395	1225.9
1590.87208	1225
1594.19801	1211.8
1597.52172	1209.2
1600.84321	1200.5
1604.16251	1202
1607.47959	1177.6
1610.79447	1182.4
1614.10715	1163
1617.41763	1165.2
1620.7259	1143.5
1624.03199	1140.8
1627.33587	1132.7
1630.63757	1126.5
1633.93707	1115.7
1637.23439	1100.1
1640.52951	1106.7
1643.82246	1104
1647.11321	1116.1
1650.40179	1111
1653.68819	1084.8
1656.97241	1062.6
1660.25446	1038.8
1663.53433	1014.5
1666.81203	995
1670.08756	991
1673.36092	997.1
1676.63211	991.4
1679.90115	987.8
1683.16801	980.5
1686.43272	967.5
1689.69527	953.3
1692.95567	935.7
1696.2139	903.6
1699.46999	872.3
1702.72392	874.8
1705.97571	877.9
1709.22535	898.7
1712.47284	918.6
1715.71819	931.2
1718.96139	922.9
1722.20246	926
1725.44139	920.8
1728.67818	902.2
1731.91284	893.6
1735.14537	887.3
1738.37576	885.2
1741.60403	869.2
1744.83017	856.7
1748.05418	853.3
1751.27607	844.4
1754.49584	832.4
1757.71349	813
1760.92903	797.3
1764.14244	802.7
1767.35375	789
1770.56294	796
1773.77002	795.5
1776.97499	800.3
1780.17785	824.3
1783.37861	834.3
1786.57727	836.4
1789.77382	833.6
1792.96828	836.3
1796.16064	832.9
1799.3509	831.2
1802.53907	839.6
1805.72514	837.6
1808.90913	829.5
1812.09102	835.9
1815.27083	826
1818.44856	827.9
1821.6242	825.4
1824.79776	821.8
1827.96924	819.6
1831.13864	818.4
1834.30597	823.1
1837.47122	818.3
1840.6344	818.1
1843.7955	819.5
1846.95454	816.6
1850.11151	811.4
1853.26642	811.1
1856.41926	822.1
1859.57004	817.6
1862.71876	808.6
1865.86542	810.8
1869.01003	813.7
1872.15258	816.3
1875.29308	805.7
1878.43152	804.9
1881.56792	805.6
1884.70227	808.5
1887.83457	805.5
1890.96482	804.8
1894.09304	805.5
1897.21921	797.4
1900.34335	799.2
1903.46544	795.3
1906.58551	802.5
1909.70353	790.4
1912.81953	799.1
1915.93349	799
1919.04543	799.2
1922.15534	801.2
1925.26322	787.7
1928.36908	797.1
1931.47292	791.2
1934.57473	791.9
1937.67453	795.8
1940.77232	782
1943.86808	784.2
1946.96184	784.6
1950.05358	785.7
1953.14331	780.4
1956.23103	773.9
1959.31675	778.1
1962.40046	766.8
1965.48217	766.8
1968.56188	770
1971.63959	770.6
1974.7153	759.5
1977.78901	756.4
1980.86073	760.8
1983.93046	755.9
1986.99819	758.1
1990.06394	752.3
1993.1277	749.6
1996.18947	752.5
1999.24925	745.9
2002.30706	750.5
2005.36288	741
2008.41672	742.5
2011.46859	742
2014.51848	737.2
2017.56639	741.3
2020.61233	744.2
2023.6563	729.4
2026.6983	733.2
2029.73833	736.5
2032.7764	729.3
2035.8125	729.8
2038.84664	720.3
2041.87881	727.8
2044.90903	731.5
2047.93729	730.6
2050.96359	721.1
2053.98794	732.1
2057.01034	723.2
2060.03078	724.6
2063.04927	730.6
2066.06582	732.6
2069.08042	736.7
2072.09307	736.6
2075.10378	737.6
2078.11255	733.3
2081.11938	747.9
2084.12426	744.1
2087.12722	746.9
2090.12824	750.2
2093.12732	741.1
2096.12447	737.9
2099.11969	749.1
2102.11299	758.9
2105.10435	752
2108.09379	753.1
2111.08131	754
2114.0669	759.6
2117.05057	753.1
2120.03233	756.3
2123.01216	760.2
2125.99008	753
2128.96609	760.6
2131.94018	753
2134.91236	756.4
2137.88263	761.4
2140.851	754.3
2143.81746	752.4
2146.78201	756.9
2149.74466	754.9
2152.7054	753
2155.66425	746.6
2158.6212	760.5
2161.57625	750.9
2164.52941	749.9
2167.48067	744.5
2170.43004	752.4
2173.37752	745
2176.32311	749.4
2179.26681	750.3
2182.20863	751.3
2185.14856	750
2188.08661	751.5
2191.02278	743.1
2193.95707	749.4
2196.88948	733.8
2199.82001	737.2
2202.74867	737
2205.67545	740
2208.60037	729.9
2211.52341	734.7
2214.44458	730.7
2217.36388	726.5
2220.28132	727.2
2223.1969	728.3
2226.11061	721.2
2229.02246	720.9
2231.93245	719.2
2234.84058	723.9
2237.74686	713.5
2240.65128	716.6
2243.55385	720.3
2246.45456	714.8
2249.35343	720.4
2252.25044	710.9
2255.14561	718.6
2258.03893	718.8
2260.93041	699.8
2263.82004	710.8
2266.70783	703.9
2269.59378	708.6
2272.4779	705.2
2275.36017	700.4
2278.24061	701.2
2281.11922	698.7
2283.996	691.6
2286.87094	701.8
2289.74405	703.4
2292.61534	700.1
2295.4848	696.8
2298.35243	692.5
2301.21824	695.3
2304.08223	704
2306.94439	700.9
2309.80474	692.7
2312.66327	700.9
2315.51999	695.6
2318.37489	695.6
2321.22797	691.8
2324.07925	696.5
2326.92871	686.2
2329.77637	689.8
2332.62222	689
2335.46626	689.2
2338.3085	683
2341.14893	684
2343.98756	675.3
2346.8244	679.7
2349.65943	681.5
2352.49267	683.3
2355.32411	674.1
2358.15376	683.8
2360.98161	683.4
2363.80768	680
2366.63195	681.6
2369.45444	686.6
2372.27514	683.1
2375.09405	678.4
2377.91118	680.3
2380.72652	676.8
2383.54009	680.3
2386.35187	681.9
2389.16188	672.7
2391.97011	679.6
2394.77657	677.5
2397.58125	674.5
2400.38416	670.3
2403.18529	672
2405.98466	673.1
2408.78226	671.1
2411.57809	667.5
2414.37216	676
2417.16446	666
2419.955	668
2422.74378	675.6
2425.5308	667.3
2428.31606	669.1
2431.09956	664.1
2433.88131	669.8
2436.6613	667.1
2439.43954	666.1
2442.21603	658.6
2444.99077	660.4
2447.76377	663.1
2450.53501	674.6
2453.30451	667.7
2456.07226	660.9
2458.83827	660.7
2461.60254	665.9
2464.36507	668.7
2467.12586	659
2469.88492	661.6
2472.64224	654.3
2475.39782	650.2
2478.15167	648.3
2480.90379	659
2483.65417	662.2
2486.40283	658.3
2489.14976	660.7
2491.89497	660.8
2494.63845	648.7
2497.3802	649.4
2500.12024	655.6
2502.85855	658.1
2505.59514	657.4
2508.33002	654.9
2511.06318	658.8
2513.79462	660
2516.52435	654.4
2519.25237	659.7
2521.97867	658
2524.70327	654.1
2527.42616	654.2
2530.14734	644.5
2532.86681	657.8
2535.58458	652.8
2538.30065	651.5
2541.01501	650.8
2543.72768	651.5
2546.43864	644.4
2549.14791	646.1
2551.85548	646.7
2554.56136	642.8
2557.26554	648.4
2559.96803	642.4
2562.66883	644.9
2565.36794	637.4
2568.06536	645.4
2570.7611	639.4
2573.45514	639
2576.14751	637.3
2578.83819	630.9
2581.52719	638.4
2584.21451	638.5
2586.90015	632.7
2589.58411	627.8
2592.2664	638.8
2594.94701	637.6
2597.62594	636.8
2600.30321	638.6
2602.9788	632.9
2605.65273	633.3
2608.32498	625.8
2610.99557	630.1
2613.66449	632.2
2616.33175	629.7
2618.99734	629.7
2621.66128	623.5
2624.32355	620.2
2626.98416	631.8
2629.64311	627.5
2632.30041	631
2634.95605	626.6
2637.61004	624.1
2640.26238	627.8
2642.91306	618.8
2645.56209	623.7
2648.20948	620.6
2650.85521	621.8
2653.4993	630.3
2656.14175	628.1
2658.78255	629.8
2661.42171	623
2664.05923	619.4
2666.6951	627.8
2669.32934	625.1
2671.96194	624.3
2674.59291	627.3
2677.22224	625
2679.84993	618.7
2682.476	620
2685.10043	629.5
2687.72324	624.3
2690.34441	628.5
2692.96396	621.9
2695.58188	624.9
2698.19818	618.8
2700.81285	620.8
2703.4259	612.9
2706.03733	570.4
2708.64714	593.5
2711.25533	609
2713.86191	611.4
2716.46687	621.8
2719.07021	620.9
2721.67194	633.8
2724.27206	631.9
2726.87057	632.9
2729.46747	628.9
2732.06276	638.9
2734.65644	633.4
2737.24852	629.3
2739.83899	624.5
2742.42786	634.9
2745.01513	626.9
2747.60079	634.7
2750.18486	626.5
2752.76733	630.4
2755.3482	623.4
2757.92747	628.4
2760.50515	627.3
2763.08123	622.8
2765.65573	629.3
2768.22863	626
2770.79994	617.5
2773.36967	625.5
2775.9378	629.3
2778.50435	624
2781.06932	623
2783.6327	626.5
2786.1945	618.7
2788.75471	622.4
2791.31335	618.5
2793.87041	624.1
2796.42589	618.6
2798.97979	628.2
2801.53212	615.9
2804.08288	614.8
2806.63206	616
2809.17967	616.9
2811.72571	617.7
2814.27018	616.7
2816.81308	611.2
2819.35442	609.5
2821.89419	612.2
2824.43239	610.3
2826.96904	610.4
2829.50412	609.7
2832.03763	611.5
2834.56959	613.1
2837.1	608.7
2839.62884	613.5
2842.15613	601.1
2844.68186	603
2847.20604	606.1
2849.72867	606.1
2852.24974	611.6
2854.76927	601
2857.28724	598.6
2859.80367	601.1
2862.31855	606.3
2864.83189	608.8
2867.34368	607.4
2869.85393	607.5
2872.36264	608.6
2874.8698	606.4
2877.37543	604.5
2879.87952	611.3
2882.38207	612.6
2884.88308	607.7
2887.38256	610.6
2889.88051	613.1
2892.37692	619.8
2894.8718	622.5
2897.36515	626.4
2899.85698	613.9
2902.34727	625.8
2904.83604	619.7
2907.32328	635.7
2909.809	630.2
2912.29319	625.7
2914.77587	627.5
2917.25702	628.2
2919.73665	631.8
2922.21476	635.2
2924.69136	633.2
2927.16644	635.1
2929.64	630.6
2932.11205	642.4
2934.58258	643.3
2937.05161	639.7
2939.51912	633.6
2941.98513	644
2944.44962	634.1
2946.91261	636
2949.37409	636.1
2951.83407	636.7
2954.29254	642.1
2956.74951	645.1
2959.20498	641.1
2961.65895	642.7
2964.11142	645.1
2966.56239	644.3
2969.01186	644.9
2971.45984	648.7
2973.90632	647.9
2976.35131	645.9
2978.7948	650.1
2981.23681	649.7
2983.67732	647.8
2986.11635	647.7
2988.55388	650.2
2990.98993	651.1
2993.4245	645.7
2995.85758	661.6
2998.28917	647.3
3000.71928	652.6
3003.14791	653.9
3005.57506	654.9
3008.00073	649.7
3010.42493	654.4
3012.84764	655.5
3015.26888	658
3017.68865	666.8
3020.10694	665.8
3022.52376	668.6
3024.9391	664.2
3027.35298	673.5
3029.76539	669.4
3032.17632	672.6
3034.5858	671
3036.9938	670.5
3039.40034	682.1
3041.80542	684.3
3044.20903	690.4
3046.61118	687.4
3049.01187	688.7
3051.4111	694.6
3053.80888	699.4
3056.20519	703.7
3058.60005	699.8
3060.99345	709.2
3063.3854	710.7
3065.7759	708.7
3068.16494	717.8
3070.55254	722.5
3072.93868	721.4
3075.32338	732.2
3077.70662	731
3080.08842	727.6
3082.46878	723.1
3084.84769	744.3
3087.22515	745.6
3089.60118	754.9
3091.97576	754
3094.3489	762
3096.72061	762.3
3099.09087	766.6
3101.4597	779.4
3103.82709	784.8
3106.19305	788.3
3108.55757	786.9
3110.92066	796.5
3113.28232	802.2
3115.64255	804.6
3118.00134	815.7
3120.35871	819.5
3122.71466	818.5
3125.06917	827.4
3127.42226	824.9
3129.77393	839.4
3132.12417	846.4
3134.47299	847.9
3136.82039	856.1
3139.16636	856
3141.51092	868.3
3143.85406	873
3146.19579	877.6
3148.53609	894.1
3150.87499	901.4
3153.21246	909.9
3155.54853	912.5
3157.88318	913.2
3160.21642	928.7
3162.54826	928
3164.87868	942.9
3167.2077	950.7
3169.5353	958.4
3171.86151	966.2
3174.18631	969.3
3176.5097	977
3178.83169	972.2
3181.15228	990
3183.47147	992.4
3185.78926	999.7
3188.10565	1005.1
3190.42065	1013.9
3192.73424	1013.3
3195.04645	1019.7
3197.35725	1014.2
3199.66667	1030.3
3201.97469	1039.5
3204.28132	1032.2
3206.58656	1045.5
3208.8904	1042.1
3211.19287	1049.3
3213.49394	1051.5
3215.79363	1066.2
3218.09193	1067.5
3220.38884	1065.8
3222.68438	1061.4
3224.97853	1063
3227.2713	1077.4
3229.56269	1082.1
3231.8527	1086.4
3234.14133	1077.9
3236.42858	1081
3238.71446	1076.7
3240.99896	1088.2
3243.28209	1083.3
3245.56384	1075.1
3247.84423	1086.1
3250.12324	1076.9
3252.40088	1085.7
3254.67715	1084.3
3256.95205	1083.7
3259.22558	1088.4
3261.49775	1089.9
3263.76855	1082.6
3266.03799	1101
3268.30606	1092.8
3270.57277	1093.6
3272.83812	1091.1
3275.10211	1084
3277.36474	1091.9
3279.62601	1091.8
3281.88593	1085.8
3284.14448	1084.6
3286.40168	1091.5
3288.65753	1098.3
3290.91202	1091.9
3293.16516	1083.6
3295.41695	1085.8
3297.66738	1082.4
3299.91647	1070.5
3302.16421	1065.2
3304.4106	1063.2
3306.65564	1061.2
3308.89933	1052.9
3311.14169	1044.2
3313.38269	1028.9
3315.62236	1034.5
3317.86068	1025.7
3320.09766	1020.4
3322.3333	1004.2
3324.5676	997.7
3326.80056	978.8
3329.03219	979.5
3331.26248	0.3
3333.49143	0.6
3335.71905	-2
