Data from AgNPs_APTES_FTO_UA_100uM_CRN_0uM_R6G_10uM_Scan_RamanShift__74__12-06-01-328.txt Node

Date: Wed Jun 29 12:06:01 BST 2022
User: TCL
Spectrometer: QEP01345
Trigger mode: 4
Integration Time (sec): 7.000000E0
Scans to average: 10
Electric dark correction enabled: true
Nonlinearity correction enabled: false
Boxcar width: 0
XAxis mode: Raman Shifts
Number of Pixels in Spectrum: 1044
>>>>>Begin Spectral Data<<<<<
46.04893	0.2
50.45542	-0.4
54.85868	0.6
59.25871	1.5
63.6555	43.5
68.04907	46
72.43941	50.1
76.82654	48.8
81.21044	50.7
85.59113	57.5
89.96862	58.3
94.34289	59.9
98.71396	63.9
103.08183	65.3
107.4465	63.7
111.80798	68.5
116.16626	65
120.52136	66.2
124.87327	61.7
129.222	65.5
133.56755	61.6
137.90993	60.4
142.24913	60.9
146.58517	59.4
150.91804	58.6
155.24774	64
159.57429	71.9
163.89768	72.6
168.21792	79.5
172.53501	97.5
176.84895	119.9
181.15975	160.1
185.46741	205.8
189.77193	268.6
194.07331	349.9
198.37157	445.9
202.6667	545.2
206.9587	636
211.24758	732.6
215.53334	815.4
219.81599	916.6
224.09553	1012.3
228.37195	1130.3
232.64527	1248
236.91549	1392.1
241.18261	1527.1
245.44663	1691.8
249.70755	1823.2
253.96539	1939.5
258.22014	2039.8
262.4718	2114.4
266.72039	2156
270.96589	2182
275.20832	2159.5
279.44768	2141.8
283.68397	2113.3
287.91719	2068.5
292.14735	2032.7
296.37445	2003.6
300.59849	1979.4
304.81948	1967.1
309.03742	1951.8
313.25231	1944.7
317.46415	1941.6
321.67296	1940.6
325.87872	1939.8
330.08145	1957.3
334.28114	1962.2
338.47781	1987.7
342.67145	2008.5
346.86207	2033.5
351.04966	2061.4
355.23424	2092.1
359.4158	2119.3
363.59435	2156.2
367.76989	2175.2
371.94243	2196.9
376.11196	2214.1
380.27849	2239.3
384.44203	2270.2
388.60257	2283.5
392.76012	2297.8
396.91468	2331.8
401.06626	2364.7
405.21485	2392
409.36047	2405.2
413.50311	2422.3
417.64277	2419.9
421.77947	2435
425.9132	2447.9
430.04396	2460.2
434.17176	2478.6
438.2966	2488.2
442.41849	2511.2
446.53742	2540.6
450.6534	2563.9
454.76644	2571.9
458.87653	2600.4
462.98368	2605.7
467.08789	2606.5
471.18916	2616
475.2875	2621.9
479.38291	2623.3
483.4754	2620.3
487.56496	2630
491.6516	2641.9
495.73531	2648.8
499.81612	2650.6
503.89401	2655.5
507.96899	2670.3
512.04106	2665.2
516.11023	2669.4
520.1765	2679.3
524.23987	2662.7
528.30034	2683.1
532.35792	2669.5
536.41261	2671.4
540.46441	2685.6
544.51333	2677.5
548.55936	2683.3
552.60252	2692.9
556.64279	2705.8
560.6802	2728.9
564.71473	2721.9
568.7464	2725.9
572.7752	2738.3
576.80114	2735.5
580.82422	2748.8
584.84444	2762.1
588.86181	2776.9
592.87633	2784.3
596.888	2804.8
600.89682	2836.4
604.9028	2865.6
608.90594	2939.3
612.90624	3020.6
616.90371	2993.8
620.89834	2895.4
624.89015	2845.2
628.87913	2851.9
632.86528	2848.7
636.84862	2859.5
640.82913	2880.7
644.80683	2865.5
648.78172	2873.1
652.75379	2886.7
656.72306	2898.6
660.68952	2913.3
664.65319	2914
668.61405	2907.9
672.57211	2946.5
676.52738	2948.3
680.47986	2942.9
684.42955	2946.9
688.37646	2961.1
692.32058	2975.8
696.26192	2995.4
700.20048	2999.9
704.13626	3008.2
708.06928	3011.9
711.99952	2999.5
715.927	2991.4
719.85171	3004.7
723.77365	2990.8
727.69284	2995
731.60928	2988.5
735.52295	2986
739.43388	2995.4
743.34206	3000.7
747.24749	3011.8
751.15017	3019.8
755.05012	3001.2
758.94733	3040.5
762.8418	3066.7
766.73354	3098.6
770.62254	3129.5
774.50882	3163.4
778.39237	3167.7
782.27321	3128.1
786.15132	3114.1
790.02671	3088.1
793.89938	3059.4
797.76935	3061.8
801.6366	3061.9
805.50115	3047.8
809.36299	3055.8
813.22213	3052.6
817.07857	3055.5
820.93231	3061.2
824.78336	3066.6
828.63172	3065.8
832.47738	3068.6
836.32036	3068.9
840.16066	3067.1
843.99827	3073.7
847.8332	3091
851.66546	3095.2
855.49504	3086.7
859.32195	3095.4
863.1462	3094.3
866.96777	3108.3
870.78668	3105.8
874.60293	3129.1
878.41652	3133.3
882.22745	3142.7
886.03573	3137.5
889.84136	3151.8
893.64433	3147.4
897.44466	3146.1
901.24235	3149.4
905.0374	3149.1
908.8298	3143.4
912.61957	3145
916.40671	3142.9
920.19121	3146.4
923.97308	3151.9
927.75233	3153.6
931.52895	3153.3
935.30295	3151.4
939.07433	3141.5
942.84309	3143.5
946.60924	3117.6
950.37278	3135.8
954.13371	3144.1
957.89203	3131.1
961.64774	3131.5
965.40086	3122.1
969.15137	3123.9
972.89929	3106.8
976.64461	3116.9
980.38733	3118.2
984.12747	3125.2
987.86502	3139.9
991.59999	3138.6
995.33237	3149
999.06217	3170.5
1002.78939	3182.4
1006.51404	3194.8
1010.23611	3208
1013.95561	3224.7
1017.67255	3233.7
1021.38692	3226.5
1025.09872	3236.5
1028.80796	3239
1032.51465	3225.4
1036.21877	3211
1039.92035	3222.2
1043.61937	3230.3
1047.31584	3239.5
1051.00976	3239.9
1054.70114	3243.4
1058.38998	3236.2
1062.07627	3257.4
1065.76003	3267.7
1069.44126	3279.2
1073.11995	3286.7
1076.79611	3330.5
1080.46974	3347.1
1084.14085	3331.9
1087.80943	3335.8
1091.47549	3330.2
1095.13903	3332.2
1098.80005	3336.5
1102.45857	3321.3
1106.11456	3309.7
1109.76805	3300
1113.41903	3307.5
1117.06751	3308.3
1120.71348	3309.6
1124.35696	3293.3
1127.99793	3320.5
1131.63641	3314.1
1135.2724	3310
1138.90589	3319.2
1142.5369	3310.7
1146.16542	3319
1149.79145	3298.7
1153.415	3296.5
1157.03607	3294.7
1160.65467	3283.7
1164.27079	3284.1
1167.88443	3309.6
1171.49561	3337.3
1175.10432	3372.4
1178.71056	3416.1
1182.31434	3454.4
1185.91565	3489.2
1189.51451	3516.7
1193.11091	3527.4
1196.70485	3537.8
1200.29634	3515
1203.88538	3496.3
1207.47197	3479.4
1211.05612	3447.7
1214.63782	3425.9
1218.21708	3430.7
1221.79391	3410.5
1225.36829	3394.8
1228.94024	3396
1232.50976	3401.7
1236.07685	3407.2
1239.6415	3411.4
1243.20374	3402.1
1246.76355	3421.5
1250.32093	3438.1
1253.8759	3447.5
1257.42845	3470.8
1260.97859	3496.9
1264.52631	3516.9
1268.07163	3527.8
1271.61453	3537.7
1275.15503	3540.9
1278.69312	3557.3
1282.22882	3556
1285.76211	3547.3
1289.29301	3557.9
1292.82151	3578.4
1296.34761	3580.6
1299.87133	3603.9
1303.39266	3623
1306.9116	3644.8
1310.42815	3680.6
1313.94233	3697.6
1317.45412	3725
1320.96354	3707
1324.47058	3679.5
1327.97525	3664.1
1331.47754	3637.7
1334.97747	3627.8
1338.47502	3658.2
1341.97022	3687.9
1345.46305	3716.8
1348.95352	3746.5
1352.44163	3781.8
1355.92738	3776.1
1359.41078	3799.2
1362.89183	3789
1366.37053	3757.2
1369.84688	3670
1373.32088	3588.6
1376.79254	3513.7
1380.26186	3470.9
1383.72883	3439.4
1387.19347	3410.5
1390.65578	3379.3
1394.11575	3339.8
1397.57339	3320
1401.0287	3309.2
1404.48168	3317.1
1407.93234	3307.5
1411.38068	3312.9
1414.82669	3305.8
1418.27039	3297.5
1421.71177	3277.7
1425.15083	3274.7
1428.58758	3268
1432.02203	3259.6
1435.45416	3258.2
1438.88399	3275
1442.31151	3263.6
1445.73673	3276.3
1449.15965	3269.6
1452.58027	3265.5
1455.9986	3266.3
1459.41463	3273.4
1462.82837	3298.2
1466.23982	3321.6
1469.64898	3347.4
1473.05586	3375
1476.46045	3371.1
1479.86276	3386.5
1483.26279	3378.3
1486.66054	3394.6
1490.05602	3384.2
1493.44922	3391.3
1496.84016	3405.6
1500.22882	3450.4
1503.61521	3477.4
1506.99934	3517.7
1510.38121	3541.7
1513.76081	3557.3
1517.13816	3510.6
1520.51324	3474.9
1523.88607	3447
1527.25665	3432.1
1530.62498	3420
1533.99105	3413.9
1537.35488	3407.3
1540.71647	3411
1544.07581	3406.7
1547.4329	3427
1550.78776	3426.1
1554.14038	3416.1
1557.49077	3420.8
1560.83892	3431.7
1564.18484	3427.3
1567.52853	3435.8
1570.86999	3434.7
1574.20922	3451.1
1577.54624	3457.9
1580.88103	3446.2
1584.2136	3431.5
1587.54395	3415.2
1590.87208	3435
1594.19801	3478
1597.52172	3512.6
1600.84321	3539
1604.16251	3535.5
1607.47959	3502.6
1610.79447	3474.1
1614.10715	3407.4
1617.41763	3357.1
1620.7259	3314.6
1624.03199	3279.8
1627.33587	3276
1630.63757	3265.2
1633.93707	3288.5
1637.23439	3322.6
1640.52951	3365.2
1643.82246	3391.1
1647.11321	3418.8
1650.40179	3436.9
1653.68819	3386.4
1656.97241	3319.9
1660.25446	3264.4
1663.53433	3210.9
1666.81203	3179.4
1670.08756	3133
1673.36092	3122.3
1676.63211	3102.7
1679.90115	3094.5
1683.16801	3078.5
1686.43272	3074.5
1689.69527	3064.1
1692.95567	3053.4
1696.2139	3057.9
1699.46999	3052.9
1702.72392	3057.2
1705.97571	3045
1709.22535	3025.7
1712.47284	3047.1
1715.71819	3047
1718.96139	3037.6
1722.20246	3028.2
1725.44139	3026.9
1728.67818	3019.4
1731.91284	3013.7
1735.14537	3001.1
1738.37576	2988.4
1741.60403	2991.8
1744.83017	2971.6
1748.05418	2972.2
1751.27607	2971.8
1754.49584	2966
1757.71349	2975.4
1760.92903	2959.8
1764.14244	2968
1767.35375	2963.5
1770.56294	2966.1
1773.77002	2960.6
1776.97499	2945.1
1780.17785	2942.8
1783.37861	2945.1
1786.57727	2945.9
1789.77382	2934.3
1792.96828	2935.3
1796.16064	2917.3
1799.3509	2907.2
1802.53907	2929
1805.72514	2908.8
1808.90913	2922.6
1812.09102	2909.5
1815.27083	2894.3
1818.44856	2909.8
1821.6242	2901.7
1824.79776	2880.6
1827.96924	2870.4
1831.13864	2876.3
1834.30597	2880.8
1837.47122	2869.4
1840.6344	2865.5
1843.7955	2870.2
1846.95454	2862.1
1850.11151	2883
1853.26642	2873.1
1856.41926	2859.5
1859.57004	2870.1
1862.71876	2861.5
1865.86542	2865.8
1869.01003	2856.4
1872.15258	2857.7
1875.29308	2853.9
1878.43152	2844.1
1881.56792	2843.9
1884.70227	2836.5
1887.83457	2844.4
1890.96482	2840.2
1894.09304	2835.6
1897.21921	2835.5
1900.34335	2829.5
1903.46544	2814.2
1906.58551	2831.3
1909.70353	2821.7
1912.81953	2815.3
1915.93349	2810.1
1919.04543	2819.6
1922.15534	2815.1
1925.26322	2803.2
1928.36908	2814.5
1931.47292	2791.9
1934.57473	2787.1
1937.67453	2800.5
1940.77232	2776.9
1943.86808	2783.1
1946.96184	2761.7
1950.05358	2757.5
1953.14331	2762.3
1956.23103	2764.2
1959.31675	2748.2
1962.40046	2743.9
1965.48217	2724.5
1968.56188	2731.3
1971.63959	2731.5
1974.7153	2714.6
1977.78901	2704
1980.86073	2702.4
1983.93046	2683.9
1986.99819	2683.5
1990.06394	2667.3
1993.1277	2667.2
1996.18947	2665.5
1999.24925	2660.6
2002.30706	2645.9
2005.36288	2644.4
2008.41672	2638
2011.46859	2634
2014.51848	2630
2017.56639	2617.5
2020.61233	2604.4
2023.6563	2618.1
2026.6983	2605.4
2029.73833	2607
2032.7764	2588.2
2035.8125	2589.1
2038.84664	2578.5
2041.87881	2585.4
2044.90903	2567
2047.93729	2572.9
2050.96359	2566.4
2053.98794	2569.5
2057.01034	2573.7
2060.03078	2559.5
2063.04927	2573.2
2066.06582	2568.5
2069.08042	2558.5
2072.09307	2560.2
2075.10378	2560.3
2078.11255	2555.8
2081.11938	2558.3
2084.12426	2559.4
2087.12722	2563.3
2090.12824	2550.5
2093.12732	2553.9
2096.12447	2563.1
2099.11969	2559.7
2102.11299	2570.1
2105.10435	2568.8
2108.09379	2566.5
2111.08131	2576.8
2114.0669	2568.3
2117.05057	2580.6
2120.03233	2579.8
2123.01216	2571.5
2125.99008	2599.6
2128.96609	2583.1
2131.94018	2592.6
2134.91236	2594.7
2137.88263	2591.8
2140.851	2602.6
2143.81746	2607
2146.78201	2593.2
2149.74466	2595.9
2152.7054	2608.8
2155.66425	2602.4
2158.6212	2614.4
2161.57625	2599.8
2164.52941	2598.9
2167.48067	2592.1
2170.43004	2597.7
2173.37752	2600.7
2176.32311	2595.4
2179.26681	2590.7
2182.20863	2606.4
2185.14856	2595.4
2188.08661	2593.3
2191.02278	2593.1
2193.95707	2593.4
2196.88948	2577.2
2199.82001	2596.3
2202.74867	2592.3
2205.67545	2582.3
2208.60037	2583.5
2211.52341	2569.7
2214.44458	2571.4
2217.36388	2561.7
2220.28132	2558.7
2223.1969	2552
2226.11061	2556.6
2229.02246	2542.5
2231.93245	2539.6
2234.84058	2520.9
2237.74686	2529.8
2240.65128	2543.4
2243.55385	2531.4
2246.45456	2530.1
2249.35343	2535.6
2252.25044	2524.4
2255.14561	2537
2258.03893	2525.2
2260.93041	2514.2
2263.82004	2513.7
2266.70783	2501.6
2269.59378	2506.8
2272.4779	2499.6
2275.36017	2503.6
2278.24061	2486.5
2281.11922	2477.4
2283.996	2470.2
2286.87094	2466.3
2289.74405	2469.3
2292.61534	2472.4
2295.4848	2461
2298.35243	2471.8
2301.21824	2476.1
2304.08223	2463.2
2306.94439	2459.9
2309.80474	2458.3
2312.66327	2460.9
2315.51999	2461.4
2318.37489	2467.5
2321.22797	2451.1
2324.07925	2459.1
2326.92871	2450.6
2329.77637	2457.6
2332.62222	2442.5
2335.46626	2444
2338.3085	2429.3
2341.14893	2426.6
2343.98756	2419.8
2346.8244	2425.2
2349.65943	2421.7
2352.49267	2428.9
2355.32411	2422.1
2358.15376	2421
2360.98161	2422.2
2363.80768	2415.5
2366.63195	2420.3
2369.45444	2415.4
2372.27514	2420.9
2375.09405	2403.4
2377.91118	2399.4
2380.72652	2406.2
2383.54009	2400.8
2386.35187	2394.3
2389.16188	2386.8
2391.97011	2398.7
2394.77657	2383.8
2397.58125	2382.2
2400.38416	2369.6
2403.18529	2372.9
2405.98466	2364.7
2408.78226	2359.4
2411.57809	2357
2414.37216	2360.3
2417.16446	2364.7
2419.955	2362.3
2422.74378	2358.2
2425.5308	2351.4
2428.31606	2365.3
2431.09956	2354.5
2433.88131	2337.9
2436.6613	2342.8
2439.43954	2348.5
2442.21603	2345.3
2444.99077	2344.3
2447.76377	2343.6
2450.53501	2356.9
2453.30451	2338.5
2456.07226	2329.1
2458.83827	2339.7
2461.60254	2320.4
2464.36507	2321.9
2467.12586	2323
2469.88492	2318.1
2472.64224	2305.5
2475.39782	2306.5
2478.15167	2321.5
2480.90379	2317.2
2483.65417	2322.8
2486.40283	2318.4
2489.14976	2312.6
2491.89497	2314
2494.63845	2306.4
2497.3802	2310.1
2500.12024	2299.6
2502.85855	2303.9
2505.59514	2308.6
2508.33002	2302.2
2511.06318	2293.6
2513.79462	2291.5
2516.52435	2301.7
2519.25237	2286.6
2521.97867	2297.6
2524.70327	2285.4
2527.42616	2290.9
2530.14734	2280.1
2532.86681	2283.8
2535.58458	2294.5
2538.30065	2278.8
2541.01501	2270
2543.72768	2265.1
2546.43864	2271.5
2549.14791	2265.7
2551.85548	2266.2
2554.56136	2261.6
2557.26554	2254.9
2559.96803	2259.4
2562.66883	2255.5
2565.36794	2247.6
2568.06536	2246.6
2570.7611	2245.9
2573.45514	2239.3
2576.14751	2224.6
2578.83819	2217.7
2581.52719	2209.5
2584.21451	2215
2586.90015	2217.7
2589.58411	2222.5
2592.2664	2212
2594.94701	2213
2597.62594	2209.7
2600.30321	2200.8
2602.9788	2202.2
2605.65273	2203.8
2608.32498	2197.2
2610.99557	2193.7
2613.66449	2191.1
2616.33175	2178.3
2618.99734	2184.8
2621.66128	2164.3
2624.32355	2171.2
2626.98416	2166
2629.64311	2161.2
2632.30041	2167.1
2634.95605	2166.4
2637.61004	2155.1
2640.26238	2156
2642.91306	2141.5
2645.56209	2144.9
2648.20948	2158.5
2650.85521	2140.6
2653.4993	2145
2656.14175	2149.7
2658.78255	2147
2661.42171	2142.1
2664.05923	2145.4
2666.6951	2149.6
2669.32934	2139.8
2671.96194	2147.9
2674.59291	2154.8
2677.22224	2150.7
2679.84993	2144.9
2682.476	2148.1
2685.10043	2140.8
2687.72324	2136
2690.34441	2149.5
2692.96396	2142.7
2695.58188	2143.6
2698.19818	2133.2
2700.81285	2141.9
2703.4259	2148.1
2706.03733	2134.1
2708.64714	2127.6
2711.25533	2139.9
2713.86191	2143.8
2716.46687	2144.3
2719.07021	2130.9
2721.67194	2131.5
2724.27206	2153.8
2726.87057	2142
2729.46747	2147.2
2732.06276	2160.3
2734.65644	2155.3
2737.24852	2160.9
2739.83899	2151.6
2742.42786	2145.6
2745.01513	2138.7
2747.60079	2152.1
2750.18486	2127.5
2752.76733	2129
2755.3482	2135.2
2757.92747	2126.2
2760.50515	2125.5
2763.08123	2123.2
2765.65573	2118.4
2768.22863	2116.2
2770.79994	2109.5
2773.36967	2114.8
2775.9378	2116.4
2778.50435	2117.7
2781.06932	2110.6
2783.6327	2114.7
2786.1945	2098.3
2788.75471	2099.8
2791.31335	2103.5
2793.87041	2086.7
2796.42589	2085
2798.97979	2086.1
2801.53212	2082.8
2804.08288	2081.5
2806.63206	2076.8
2809.17967	2064.1
2811.72571	2065
2814.27018	2058
2816.81308	2048.6
2819.35442	2042.6
2821.89419	2044.1
2824.43239	2045.4
2826.96904	2038
2829.50412	2035.6
2832.03763	2034.4
2834.56959	2040.6
2837.1	2041.3
2839.62884	2035.5
2842.15613	2019.8
2844.68186	2033.3
2847.20604	2024.3
2849.72867	2028.2
2852.24974	2027.6
2854.76927	2028.8
2857.28724	2025.5
2859.80367	2027.8
2862.31855	2031
2864.83189	2020.6
2867.34368	2011.4
2869.85393	2005.1
2872.36264	2005.2
2874.8698	2012.5
2877.37543	2005.4
2879.87952	1999.6
2882.38207	2001.2
2884.88308	2015.7
2887.38256	2008
2889.88051	2003.4
2892.37692	2006.6
2894.8718	2014.8
2897.36515	2017.7
2899.85698	2013.4
2902.34727	2005.6
2904.83604	2017.7
2907.32328	2020.5
2909.809	2025.6
2912.29319	2020.1
2914.77587	2019.4
2917.25702	2018.3
2919.73665	2020
2922.21476	2019.6
2924.69136	2018.1
2927.16644	2019.7
2929.64	2015.7
2932.11205	2022.2
2934.58258	2005.5
2937.05161	2016.7
2939.51912	2012.9
2941.98513	2000.4
2944.44962	2002
2946.91261	2016.4
2949.37409	2015.1
2951.83407	2012.9
2954.29254	2011.1
2956.74951	2021.6
2959.20498	2012.7
2961.65895	2015.7
2964.11142	2028.8
2966.56239	2021.3
2969.01186	2021.2
2971.45984	2035.2
2973.90632	2026.3
2976.35131	2028.1
2978.7948	2028.7
2981.23681	2022.2
2983.67732	2019.7
2986.11635	2019.2
2988.55388	2014.1
2990.98993	1997.7
2993.4245	2009.1
2995.85758	2014.2
2998.28917	2004.5
3000.71928	2008.7
3003.14791	2000.3
3005.57506	2003
3008.00073	2002.5
3010.42493	1998.7
3012.84764	1998.9
3015.26888	2006.9
3017.68865	2000.5
3020.10694	1997.2
3022.52376	1995.3
3024.9391	2001.3
3027.35298	1999
3029.76539	2003.7
3032.17632	2007.7
3034.5858	1992.3
3036.9938	2003.7
3039.40034	2002.1
3041.80542	2010.1
3044.20903	2010.6
3046.61118	2017.8
3049.01187	2001
3051.4111	2003.1
3053.80888	2008.2
3056.20519	2021.4
3058.60005	2012.2
3060.99345	2008.8
3063.3854	1994.8
3065.7759	2009.7
3068.16494	2001.8
3070.55254	1995
3072.93868	2008.3
3075.32338	1995.7
3077.70662	2014.5
3080.08842	1997.4
3082.46878	1994.9
3084.84769	2010.3
3087.22515	2011.8
3089.60118	2013.2
3091.97576	2023.6
3094.3489	2020.6
3096.72061	2031.8
3099.09087	2029
3101.4597	2041.2
3103.82709	2056.2
3106.19305	2054.7
3108.55757	2059.9
3110.92066	2061.6
3113.28232	2063.9
3115.64255	2077.5
3118.00134	2076.9
3120.35871	2072.3
3122.71466	2068.4
3125.06917	2083.1
3127.42226	2066.7
3129.77393	2082.1
3132.12417	2082.4
3134.47299	2083.9
3136.82039	2080.1
3139.16636	2086.8
3141.51092	2098
3143.85406	2103.3
3146.19579	2103.4
3148.53609	2117.6
3150.87499	2117.3
3153.21246	2132.5
3155.54853	2145.9
3157.88318	2149.8
3160.21642	2157.5
3162.54826	2172.4
3164.87868	2173.5
3167.2077	2182.8
3169.5353	2182.8
3171.86151	2190.6
3174.18631	2212
3176.5097	2217.2
3178.83169	2197
3181.15228	2199
3183.47147	2212.2
3185.78926	2222.1
3188.10565	2222.1
3190.42065	2221.7
3192.73424	2230.1
3195.04645	2232.9
3197.35725	2224.1
3199.66667	2234.2
3201.97469	2243.4
3204.28132	2245.1
3206.58656	2256.2
3208.8904	2257
3211.19287	2266.6
3213.49394	2274.2
3215.79363	2267.9
3218.09193	2282.4
3220.38884	2281.1
3222.68438	2287.8
3224.97853	2290.4
3227.2713	2290
3229.56269	2275.7
3231.8527	2290.5
3234.14133	2286.4
3236.42858	2287
3238.71446	2282.2
3240.99896	2275.3
3243.28209	2267.9
3245.56384	2270.4
3247.84423	2268.2
3250.12324	2267.3
3252.40088	2276.8
3254.67715	2272.4
3256.95205	2267.2
3259.22558	2284.8
3261.49775	2272.9
3263.76855	2263.7
3266.03799	2277.1
3268.30606	2286
3270.57277	2275.3
3272.83812	2264.3
3275.10211	2266.6
3277.36474	2258.7
3279.62601	2249.4
3281.88593	2266
3284.14448	2242.6
3286.40168	2243.1
3288.65753	2243.8
3290.91202	2236.3
3293.16516	2239.4
3295.41695	2247.3
3297.66738	2224.4
3299.91647	2228.8
3302.16421	2203.8
3304.4106	2202.2
3306.65564	2178.8
3308.89933	2165.4
3311.14169	2160.2
3313.38269	2138.5
3315.62236	2111.7
3317.86068	2104.4
3320.09766	2093
3322.3333	2084.5
3324.5676	2065
3326.80056	2035.2
3329.03219	2012.2
3331.26248	-1
3333.49143	1.1
3335.71905	-1.4
