Data from AgNPs_FTO_APTES_UA_200uM_R6G_10uM_NaF_0.1M_Addition_RamanShift__0__16-00-17-489.txt Node

Date: Fri Dec 17 16:00:17 GMT 2021
User: TCL
Spectrometer: QEP01345
Trigger mode: 4
Integration Time (sec): 7.000000E0
Scans to average: 10
Electric dark correction enabled: true
Nonlinearity correction enabled: false
Boxcar width: 0
XAxis mode: Raman Shifts
Number of Pixels in Spectrum: 1044
>>>>>Begin Spectral Data<<<<<
46.04893	1.175
50.45542	0.075
54.85868	-1.325
59.25871	-0.325
63.6555	26.875
68.04907	29.475
72.43941	30.775
76.82654	33.275
81.21044	32.175
85.59113	32.875
89.96862	36.275
94.34289	36.275
98.71396	37.575
103.08183	38.675
107.4465	38.575
111.80798	40.375
116.16626	41.975
120.52136	40.575
124.87327	41.675
129.222	46.675
133.56755	43.375
137.90993	48.875
142.24913	52.075
146.58517	54.075
150.91804	62.575
155.24774	70.775
159.57429	87.075
163.89768	108.375
168.21792	137.675
172.53501	184.775
176.84895	252.875
181.15975	352.375
185.46741	490.575
189.77193	676.175
194.07331	900.375
198.37157	1167.775
202.6667	1441.975
206.9587	1722.675
211.24758	1993.075
215.53334	2270.175
219.81599	2550.975
224.09553	2867.975
228.37195	3214.475
232.64527	3599.475
236.91549	4008.975
241.18261	4439.375
245.44663	4837.375
249.70755	5193.275
253.96539	5514.275
258.22014	5754.475
262.4718	5968.975
266.72039	6095.475
270.96589	6189.375
275.20832	6195.375
279.44768	6123.675
283.68397	6045.575
287.91719	5921.675
292.14735	5854.775
296.37445	5848.175
300.59849	5861.875
304.81948	5911.275
309.03742	5913.875
313.25231	5863.575
317.46415	5754.475
321.67296	5605.675
325.87872	5497.175
330.08145	5458.875
334.28114	5483.975
338.47781	5524.075
342.67145	5622.075
346.86207	5708.675
351.04966	5856.275
355.23424	5995.275
359.4158	6142.475
363.59435	6224.175
367.76989	6310.275
371.94243	6369.175
376.11196	6421.975
380.27849	6473.175
384.44203	6518.975
388.60257	6541.275
392.76012	6595.275
396.91468	6655.875
401.06626	6760.675
405.21485	6874.375
409.36047	6866.075
413.50311	6860.775
417.64277	6873.275
421.77947	6967.675
425.9132	7165.975
430.04396	7347.875
434.17176	7366.075
438.2966	7192.475
442.41849	7064.775
446.53742	6964.575
450.6534	6970.575
454.76644	7008.775
458.87653	6967.175
462.98368	6910.975
467.08789	6864.475
471.18916	6817.675
475.2875	6806.975
479.38291	6805.075
483.4754	6837.175
487.56496	6869.775
491.6516	6908.775
495.73531	6910.575
499.81612	6859.875
503.89401	6815.075
507.96899	6780.775
512.04106	6765.875
516.11023	6786.575
520.1765	6817.875
524.23987	6812.475
528.30034	6760.775
532.35792	6724.075
536.41261	6685.075
540.46441	6624.775
544.51333	6600.675
548.55936	6615.575
552.60252	6657.675
556.64279	6704.375
560.6802	6729.175
564.71473	6728.275
568.7464	6759.775
572.7752	6817.175
576.80114	6782.675
580.82422	6785.775
584.84444	6837.175
588.86181	6871.275
592.87633	6919.275
596.888	6955.375
600.89682	7024.875
604.9028	7329.675
608.90594	8019.475
612.90624	8882.175
616.90371	8668.875
620.89834	7486.975
624.89015	6895.775
628.87913	6797.775
632.86528	6844.375
636.84862	6941.375
640.82913	6913.275
644.80683	6794.075
648.78172	6664.575
652.75379	6646.775
656.72306	6682.175
660.68952	6758.975
664.65319	6745.975
668.61405	6627.175
672.57211	6592.975
676.52738	6587.875
680.47986	6615.575
684.42955	6611.775
688.37646	6643.575
692.32058	6741.875
696.26192	6904.075
700.20048	7142.075
704.13626	7339.675
708.06928	7418.975
711.99952	7334.075
715.927	7151.975
719.85171	7006.375
723.77365	6896.175
727.69284	6812.675
731.60928	6762.075
735.52295	6741.275
739.43388	6729.575
743.34206	6685.275
747.24749	6659.675
751.15017	6669.075
755.05012	6671.675
758.94733	6763.975
762.8418	6952.575
766.73354	7344.875
770.62254	7813.875
774.50882	8112.875
778.39237	7953.275
782.27321	7488.275
786.15132	7020.175
790.02671	6751.275
793.89938	6621.075
797.76935	6587.775
801.6366	6560.775
805.50115	6544.175
809.36299	6546.175
813.22213	6569.875
817.07857	6577.275
820.93231	6565.075
824.78336	6560.775
828.63172	6535.775
832.47738	6521.075
836.32036	6515.575
840.16066	6499.375
843.99827	6513.275
847.8332	6479.075
851.66546	6475.175
855.49504	6479.975
859.32195	6463.575
863.1462	6471.575
866.96777	6460.775
870.78668	6462.875
874.60293	6453.975
878.41652	6473.675
882.22745	6494.475
886.03573	6530.375
889.84136	6518.875
893.64433	6501.775
897.44466	6476.475
901.24235	6473.275
905.0374	6426.175
908.8298	6404.775
912.61957	6421.375
916.40671	6417.175
920.19121	6392.275
923.97308	6407.475
927.75233	6416.175
931.52895	6440.675
935.30295	6436.275
939.07433	6362.575
942.84309	6312.375
946.60924	6248.575
950.37278	6219.375
954.13371	6189.475
957.89203	6170.475
961.64774	6176.475
965.40086	6161.475
969.15137	6131.075
972.89929	6125.375
976.64461	6121.675
980.38733	6134.675
984.12747	6126.875
987.86502	6124.475
991.59999	6145.375
995.33237	6177.575
999.06217	6203.675
1002.78939	6248.375
1006.51404	6284.875
1010.23611	6319.475
1013.95561	6357.175
1017.67255	6369.775
1021.38692	6329.575
1025.09872	6323.775
1028.80796	6270.775
1032.51465	6268.375
1036.21877	6296.375
1039.92035	6300.875
1043.61937	6324.875
1047.31584	6300.875
1051.00976	6310.375
1054.70114	6319.175
1058.38998	6307.175
1062.07627	6350.075
1065.76003	6369.575
1069.44126	6437.075
1073.11995	6518.475
1076.79611	6582.475
1080.46974	6610.275
1084.14085	6613.675
1087.80943	6625.275
1091.47549	6662.675
1095.13903	6666.175
1098.80005	6643.675
1102.45857	6564.375
1106.11456	6502.375
1109.76805	6490.475
1113.41903	6524.375
1117.06751	6558.475
1120.71348	6648.675
1124.35696	6717.875
1127.99793	6798.075
1131.63641	6834.275
1135.2724	6778.575
1138.90589	6651.575
1142.5369	6574.175
1146.16542	6500.175
1149.79145	6427.375
1153.415	6372.775
1157.03607	6364.475
1160.65467	6360.775
1164.27079	6429.175
1167.88443	6529.175
1171.49561	6696.975
1175.10432	6997.775
1178.71056	7419.275
1182.31434	7747.875
1185.91565	7867.975
1189.51451	7831.675
1193.11091	7614.275
1196.70485	7345.875
1200.29634	7179.875
1203.88538	7055.375
1207.47197	6892.475
1211.05612	6760.575
1214.63782	6674.675
1218.21708	6620.975
1221.79391	6579.175
1225.36829	6570.875
1228.94024	6580.075
1232.50976	6627.175
1236.07685	6681.375
1239.6415	6738.475
1243.20374	6850.575
1246.76355	6955.275
1250.32093	7088.575
1253.8759	7234.875
1257.42845	7399.975
1260.97859	7500.975
1264.52631	7580.675
1268.07163	7631.875
1271.61453	7622.175
1275.15503	7563.475
1278.69312	7503.475
1282.22882	7409.775
1285.76211	7405.275
1289.29301	7409.575
1292.82151	7478.175
1296.34761	7548.875
1299.87133	7685.575
1303.39266	7905.675
1306.9116	8234.075
1310.42815	8584.275
1313.94233	8754.875
1317.45412	8679.375
1320.96354	8416.475
1324.47058	8237.075
1327.97525	8102.175
1331.47754	7649.875
1334.97747	7446.875
1338.47502	7402.275
1341.97022	7407.275
1345.46305	7544.175
1348.95352	7747.175
1352.44163	8066.075
1355.92738	8490.475
1359.41078	9115.075
1362.89183	9826.875
1366.37053	9876.475
1369.84688	9096.075
1373.32088	8173.475
1376.79254	7622.275
1380.26186	7421.275
1383.72883	7476.975
1387.19347	7560.775
1390.65578	7410.375
1394.11575	7057.075
1397.57339	6685.475
1401.0287	6467.275
1404.48168	6324.675
1407.93234	6272.375
1411.38068	6206.175
1414.82669	6192.375
1418.27039	6187.175
1421.71177	6158.675
1425.15083	6110.175
1428.58758	6086.275
1432.02203	6079.875
1435.45416	6080.475
1438.88399	6116.075
1442.31151	6123.175
1445.73673	6272.775
1449.15965	6338.575
1452.58027	6144.175
1455.9986	6098.775
1459.41463	6077.575
1462.82837	6131.975
1466.23982	6190.375
1469.64898	6267.475
1473.05586	6336.475
1476.46045	6377.575
1479.86276	6459.075
1483.26279	6497.675
1486.66054	6572.675
1490.05602	6668.575
1493.44922	6827.775
1496.84016	7095.375
1500.22882	7515.875
1503.61521	8075.075
1506.99934	8719.375
1510.38121	9214.975
1513.76081	9363.175
1517.13816	9032.075
1520.51324	8377.975
1523.88607	7689.475
1527.25665	7234.475
1530.62498	6931.975
1533.99105	6787.275
1537.35488	6674.575
1540.71647	6622.475
1544.07581	6602.675
1547.4329	6587.075
1550.78776	6589.775
1554.14038	6596.475
1557.49077	6613.075
1560.83892	6672.275
1564.18484	6734.575
1567.52853	6847.775
1570.86999	6964.175
1574.20922	7060.275
1577.54624	7068.075
1580.88103	6944.975
1584.2136	6759.475
1587.54395	6617.875
1590.87208	6612.175
1594.19801	6693.575
1597.52172	6923.775
1600.84321	7030.375
1604.16251	6961.775
1607.47959	6796.975
1610.79447	6630.675
1614.10715	6474.475
1617.41763	6345.575
1620.7259	6271.375
1624.03199	6269.275
1627.33587	6288.875
1630.63757	6422.275
1633.93707	6602.375
1637.23439	6871.075
1640.52951	7256.975
1643.82246	7770.875
1647.11321	8404.975
1650.40179	9022.275
1653.68819	9426.975
1656.97241	9165.975
1660.25446	8602.475
1663.53433	8116.075
1666.81203	7721.275
1670.08756	7275.675
1673.36092	6857.375
1676.63211	6517.175
1679.90115	6295.075
1683.16801	6203.575
1686.43272	6215.975
1689.69527	6416.375
1692.95567	6948.175
1696.2139	7825.575
1699.46999	8703.675
1702.72392	8781.075
1705.97571	7930.375
1709.22535	6944.275
1712.47284	6258.275
1715.71819	5880.775
1718.96139	5674.475
1722.20246	5544.975
1725.44139	5467.075
1728.67818	5413.675
1731.91284	5389.875
1735.14537	5391.175
1738.37576	5435.475
1741.60403	5481.175
1744.83017	5546.275
1748.05418	5706.475
1751.27607	5977.975
1754.49584	6428.975
1757.71349	6974.175
1760.92903	7266.975
1764.14244	7190.775
1767.35375	7133.975
1770.56294	7173.175
1773.77002	6900.075
1776.97499	6348.775
1780.17785	5818.675
1783.37861	5494.775
1786.57727	5314.975
1789.77382	5195.575
1792.96828	5105.475
1796.16064	5051.175
1799.3509	5019.175
1802.53907	4989.575
1805.72514	4943.475
1808.90913	4933.275
1812.09102	4923.375
1815.27083	4864.475
1818.44856	4856.275
1821.6242	4842.575
1824.79776	4832.675
1827.96924	4824.375
1831.13864	4806.375
1834.30597	4802.575
1837.47122	4796.975
1840.6344	4799.875
1843.7955	4784.075
1846.95454	4774.475
1850.11151	4777.975
1853.26642	4762.075
1856.41926	4768.875
1859.57004	4749.375
1862.71876	4750.175
1865.86542	4737.675
1869.01003	4740.775
1872.15258	4722.375
1875.29308	4727.375
1878.43152	4708.575
1881.56792	4709.675
1884.70227	4714.275
1887.83457	4687.475
1890.96482	4707.275
1894.09304	4682.175
1897.21921	4685.775
1900.34335	4685.875
1903.46544	4665.075
1906.58551	4681.075
1909.70353	4659.275
1912.81953	4649.175
1915.93349	4644.275
1919.04543	4633.175
1922.15534	4617.575
1925.26322	4625.475
1928.36908	4609.375
1931.47292	4613.875
1934.57473	4588.275
1937.67453	4580.675
1940.77232	4577.375
1943.86808	4555.675
1946.96184	4530.375
1950.05358	4540.175
1953.14331	4542.675
1956.23103	4517.475
1959.31675	4492.075
1962.40046	4487.675
1965.48217	4478.475
1968.56188	4469.275
1971.63959	4437.575
1974.7153	4430.575
1977.78901	4415.075
1980.86073	4405.575
1983.93046	4385.075
1986.99819	4372.775
1990.06394	4365.975
1993.1277	4348.075
1996.18947	4319.275
1999.24925	4330.475
2002.30706	4314.675
2005.36288	4292.575
2008.41672	4277.075
2011.46859	4275.275
2014.51848	4269.675
2017.56639	4254.975
2020.61233	4235.675
2023.6563	4232.075
2026.6983	4236.975
2029.73833	4209.575
2032.7764	4206.675
2035.8125	4179.175
2038.84664	4181.075
2041.87881	4169.475
2044.90903	4168.575
2047.93729	4153.475
2050.96359	4159.275
2053.98794	4189.975
2057.01034	4173.475
2060.03078	4158.475
2063.04927	4133.475
2066.06582	4130.375
2069.08042	4115.775
2072.09307	4117.675
2075.10378	4115.575
2078.11255	4100.875
2081.11938	4106.775
2084.12426	4112.275
2087.12722	4099.875
2090.12824	4102.075
2093.12732	4114.875
2096.12447	4098.975
2099.11969	4102.175
2102.11299	4103.475
2105.10435	4101.875
2108.09379	4102.975
2111.08131	4115.175
2114.0669	4102.075
2117.05057	4109.275
2120.03233	4120.175
2123.01216	4129.075
2125.99008	4120.675
2128.96609	4118.675
2131.94018	4136.175
2134.91236	4125.075
2137.88263	4134.475
2140.851	4134.075
2143.81746	4134.975
2146.78201	4141.475
2149.74466	4140.575
2152.7054	4124.575
2155.66425	4114.375
2158.6212	4131.775
2161.57625	4126.575
2164.52941	4123.875
2167.48067	4125.975
2170.43004	4121.275
2173.37752	4114.875
2176.32311	4108.875
2179.26681	4106.675
2182.20863	4121.175
2185.14856	4112.575
2188.08661	4104.575
2191.02278	4099.975
2193.95707	4095.075
2196.88948	4111.275
2199.82001	4086.475
2202.74867	4091.775
2205.67545	4089.175
2208.60037	4079.875
2211.52341	4064.575
2214.44458	4050.075
2217.36388	4044.275
2220.28132	4043.675
2223.1969	4035.275
2226.11061	4038.575
2229.02246	4031.975
2231.93245	4009.975
2234.84058	3999.775
2237.74686	4008.175
2240.65128	3995.575
2243.55385	3994.675
2246.45456	3994.675
2249.35343	3970.275
2252.25044	3963.975
2255.14561	3972.275
2258.03893	4104.275
2260.93041	4278.075
2263.82004	4130.675
2266.70783	4033.375
2269.59378	3987.375
2272.4779	3932.475
2275.36017	3921.675
2278.24061	3899.975
2281.11922	3897.675
2283.996	3884.175
2286.87094	3881.675
2289.74405	3879.275
2292.61534	3874.375
2295.4848	3878.175
2298.35243	3871.975
2301.21824	3863.175
2304.08223	3867.175
2306.94439	3869.075
2309.80474	3856.675
2312.66327	3870.775
2315.51999	3858.775
2318.37489	3872.375
2321.22797	3863.475
2324.07925	3861.575
2326.92871	3857.975
2329.77637	3861.375
2332.62222	3865.275
2335.46626	3866.375
2338.3085	3852.775
2341.14893	3856.075
2343.98756	3837.675
2346.8244	3832.075
2349.65943	3825.475
2352.49267	3815.275
2355.32411	3799.875
2358.15376	3794.375
2360.98161	3778.475
2363.80768	3774.375
2366.63195	3780.275
2369.45444	3779.175
2372.27514	3751.475
2375.09405	3758.575
2377.91118	3750.675
2380.72652	3736.175
2383.54009	3721.675
2386.35187	3716.275
2389.16188	3703.075
2391.97011	3704.075
2394.77657	3696.975
2397.58125	3705.475
2400.38416	3703.675
2403.18529	3693.175
2405.98466	3692.875
2408.78226	3687.375
2411.57809	3697.575
2414.37216	3682.175
2417.16446	3674.275
2419.955	3675.475
2422.74378	3662.975
2425.5308	3664.175
2428.31606	3638.275
2431.09956	3623.775
2433.88131	3627.475
2436.6613	3624.575
2439.43954	3603.575
2442.21603	3615.775
2444.99077	3595.575
2447.76377	3605.575
2450.53501	3601.775
2453.30451	3603.275
2456.07226	3592.975
2458.83827	3588.275
2461.60254	3588.975
2464.36507	3592.075
2467.12586	3580.575
2469.88492	3570.275
2472.64224	3589.875
2475.39782	3755.375
2478.15167	3809.775
2480.90379	3657.375
2483.65417	3616.475
2486.40283	3604.775
2489.14976	3576.575
2491.89497	3598.275
2494.63845	3783.375
2497.3802	3822.575
2500.12024	3657.275
2502.85855	3597.875
2505.59514	3590.575
2508.33002	3552.275
2511.06318	3530.475
2513.79462	3520.575
2516.52435	3508.675
2519.25237	3496.275
2521.97867	3498.675
2524.70327	3497.075
2527.42616	3489.875
2530.14734	3478.875
2532.86681	3469.375
2535.58458	3479.875
2538.30065	3462.875
2541.01501	3454.875
2543.72768	3449.475
2546.43864	3444.475
2549.14791	3445.575
2551.85548	3423.075
2554.56136	3418.575
2557.26554	3426.175
2559.96803	3413.175
2562.66883	3408.675
2565.36794	3391.875
2568.06536	3406.575
2570.7611	3395.175
2573.45514	3382.775
2576.14751	3376.675
2578.83819	3385.375
2581.52719	3379.475
2584.21451	3366.175
2586.90015	3366.775
2589.58411	3357.475
2592.2664	3335.675
2594.94701	3330.975
2597.62594	3318.175
2600.30321	3322.775
2602.9788	3303.975
2605.65273	3304.375
2608.32498	3297.475
2610.99557	3300.975
2613.66449	3295.975
2616.33175	3287.375
2618.99734	3286.675
2621.66128	3295.475
2624.32355	3296.375
2626.98416	3281.675
2629.64311	3265.575
2632.30041	3263.475
2634.95605	3266.875
2637.61004	3261.875
2640.26238	3243.375
2642.91306	3232.575
2645.56209	3271.875
2648.20948	3293.275
2650.85521	3258.075
2653.4993	3244.075
2656.14175	3240.075
2658.78255	3244.675
2661.42171	3240.575
2664.05923	3221.375
2666.6951	3231.675
2669.32934	3213.175
2671.96194	3216.275
2674.59291	3220.575
2677.22224	3227.775
2679.84993	3217.775
2682.476	3225.975
2685.10043	3237.875
2687.72324	3220.975
2690.34441	3213.375
2692.96396	3213.975
2695.58188	3235.975
2698.19818	3225.975
2700.81285	3263.475
2703.4259	3664.675
2706.03733	4485.075
2708.64714	3924.275
2711.25533	3559.275
2713.86191	3449.375
2716.46687	3383.875
2719.07021	3314.675
2721.67194	3252.775
2724.27206	3215.375
2726.87057	3213.175
2729.46747	3199.975
2732.06276	3188.475
2734.65644	3190.075
2737.24852	3198.075
2739.83899	3171.075
2742.42786	3194.075
2745.01513	3182.475
2747.60079	3180.675
2750.18486	3166.775
2752.76733	3188.275
2755.3482	3162.875
2757.92747	3175.175
2760.50515	3174.075
2763.08123	3154.175
2765.65573	3156.875
2768.22863	3138.675
2770.79994	3144.475
2773.36967	3153.475
2775.9378	3139.175
2778.50435	3136.875
2781.06932	3131.875
2783.6327	3119.775
2786.1945	3127.175
2788.75471	3097.975
2791.31335	3097.675
2793.87041	3092.075
2796.42589	3084.675
2798.97979	3080.875
2801.53212	3072.675
2804.08288	3072.575
2806.63206	3055.575
2809.17967	3064.375
2811.72571	3041.775
2814.27018	3057.975
2816.81308	3052.775
2819.35442	3047.675
2821.89419	3032.575
2824.43239	3032.875
2826.96904	3025.175
2829.50412	3028.875
2832.03763	3012.075
2834.56959	3028.675
2837.1	3023.275
2839.62884	3019.075
2842.15613	3010.475
2844.68186	3024.075
2847.20604	3013.675
2849.72867	3029.775
2852.24974	3037.575
2854.76927	3193.675
2857.28724	3402.675
2859.80367	3206.475
2862.31855	3110.575
2864.83189	3097.675
2867.34368	3070.075
2869.85393	3038.475
2872.36264	3017.975
2874.8698	3011.675
2877.37543	3006.375
2879.87952	2979.675
2882.38207	2999.075
2884.88308	2997.775
2887.38256	2975.775
2889.88051	2981.375
2892.37692	2983.775
2894.8718	2968.875
2897.36515	2976.375
2899.85698	2968.275
2902.34727	2982.875
2904.83604	2964.675
2907.32328	2971.875
2909.809	2963.575
2912.29319	2976.775
2914.77587	2964.675
2917.25702	2971.975
2919.73665	2971.075
2922.21476	2953.975
2924.69136	2958.075
2927.16644	2965.375
2929.64	2963.675
2932.11205	2954.175
2934.58258	2940.675
2937.05161	2947.575
2939.51912	2944.975
2941.98513	2942.775
2944.44962	2943.775
2946.91261	2922.575
2949.37409	2927.175
2951.83407	2921.275
2954.29254	2920.575
2956.74951	2921.675
2959.20498	2927.875
2961.65895	2915.975
2964.11142	2910.375
2966.56239	2911.075
2969.01186	2911.575
2971.45984	2892.875
2973.90632	2894.775
2976.35131	2891.275
2978.7948	2893.175
2981.23681	2869.475
2983.67732	2876.975
2986.11635	2879.775
2988.55388	2861.575
2990.98993	2873.775
2993.4245	2859.775
2995.85758	2853.275
2998.28917	2854.775
3000.71928	2836.675
3003.14791	2844.375
3005.57506	2845.375
3008.00073	2837.075
3010.42493	2829.375
3012.84764	2831.975
3015.26888	2829.275
3017.68865	2822.675
3020.10694	2827.975
3022.52376	2802.575
3024.9391	2812.375
3027.35298	2800.075
3029.76539	2794.575
3032.17632	2783.375
3034.5858	2792.375
3036.9938	2785.075
3039.40034	2781.375
3041.80542	2774.075
3044.20903	2782.575
3046.61118	2778.775
3049.01187	2761.475
3051.4111	2762.775
3053.80888	2757.075
3056.20519	2754.875
3058.60005	2755.375
3060.99345	2748.875
3063.3854	2748.175
3065.7759	2733.375
3068.16494	2733.075
3070.55254	2724.275
3072.93868	2736.075
3075.32338	2720.175
3077.70662	2712.875
3080.08842	2714.975
3082.46878	2713.375
3084.84769	2713.875
3087.22515	2715.875
3089.60118	2726.475
3091.97576	2717.175
3094.3489	2723.675
3096.72061	2718.175
3099.09087	2711.475
3101.4597	2704.475
3103.82709	2722.075
3106.19305	2722.675
3108.55757	2717.575
3110.92066	2702.175
3113.28232	2692.875
3115.64255	2684.175
3118.00134	2689.675
3120.35871	2689.475
3122.71466	2685.675
3125.06917	2682.175
3127.42226	2683.475
3129.77393	2682.475
3132.12417	2672.175
3134.47299	2699.775
3136.82039	2687.975
3139.16636	2685.475
3141.51092	2682.175
3143.85406	2691.575
3146.19579	2699.475
3148.53609	2690.875
3150.87499	2690.875
3153.21246	2698.875
3155.54853	2706.175
3157.88318	2697.875
3160.21642	2699.675
3162.54826	2705.875
3164.87868	2712.975
3167.2077	2706.775
3169.5353	2703.775
3171.86151	2701.075
3174.18631	2701.875
3176.5097	2690.075
3178.83169	2686.775
3181.15228	2688.675
3183.47147	2692.875
3185.78926	2685.175
3188.10565	2682.575
3190.42065	2680.975
3192.73424	2694.575
3195.04645	2691.375
3197.35725	2684.775
3199.66667	2686.675
3201.97469	2679.275
3204.28132	2696.275
3206.58656	2699.275
3208.8904	2703.475
3211.19287	2702.975
3213.49394	2708.075
3215.79363	2702.775
3218.09193	2720.875
3220.38884	2890.075
3222.68438	3053.475
3224.97853	2858.875
3227.2713	2787.975
3229.56269	2757.075
3231.8527	2742.875
3234.14133	2735.275
3236.42858	2715.975
