Data from AgNPs_FTO_APTES_UA_20uM_R6G_10uM_NaF_0.1M_Addition_RamanShift__2__13-57-47-350.txt Node

Date: Fri Dec 17 13:57:47 GMT 2021
User: TCL
Spectrometer: QEP01345
Trigger mode: 4
Integration Time (sec): 7.000000E0
Scans to average: 10
Electric dark correction enabled: true
Nonlinearity correction enabled: false
Boxcar width: 0
XAxis mode: Raman Shifts
Number of Pixels in Spectrum: 1044
>>>>>Begin Spectral Data<<<<<
46.04893	-0.15
50.45542	-0.05
54.85868	-1.85
59.25871	-0.15
63.6555	83.05
68.04907	84.25
72.43941	88.25
76.82654	92.35
81.21044	91.65
85.59113	99.95
89.96862	102.65
94.34289	106.25
98.71396	105.55
103.08183	109.95
107.4465	112.55
111.80798	114.95
116.16626	117.85
120.52136	123.85
124.87327	129.65
129.222	136.75
133.56755	142.85
137.90993	157.45
142.24913	171.75
146.58517	191.25
150.91804	226.35
155.24774	265.25
159.57429	331.45
163.89768	428.65
168.21792	565.45
172.53501	758.25
176.84895	1070.95
181.15975	1497.55
185.46741	2103.25
189.77193	2907.05
194.07331	3899.65
198.37157	5050.45
202.6667	6239.15
206.9587	7428.35
211.24758	8613.55
215.53334	9776.55
219.81599	11005.45
224.09553	12362.55
228.37195	13840.05
232.64527	15503.85
236.91549	17245.95
241.18261	18990.25
245.44663	20656.85
249.70755	22124.85
253.96539	23391.35
258.22014	24440.55
262.4718	25276.25
266.72039	25857.05
270.96589	26179.75
275.20832	26156.35
279.44768	25891.85
283.68397	25553.85
287.91719	25189.55
292.14735	24979.65
296.37445	24976.95
300.59849	25050.85
304.81948	25179.35
309.03742	25309.85
313.25231	25224.55
317.46415	24858.15
321.67296	24376.85
325.87872	23926.25
330.08145	23711.05
334.28114	23745.95
338.47781	23960.25
342.67145	24282.45
346.86207	24732.15
351.04966	25258.75
355.23424	25833.25
359.4158	26311.85
363.59435	26725.85
367.76989	26937.95
371.94243	27124.65
376.11196	27272.25
380.27849	27361.05
384.44203	27510.15
388.60257	27688.35
392.76012	27821.85
396.91468	28104.15
401.06626	28508.25
405.21485	28790.65
409.36047	28718.75
413.50311	28341.35
417.64277	28036.35
421.77947	27956.45
425.9132	27943.35
430.04396	28027.35
434.17176	28128.15
438.2966	28268.95
442.41849	28580.05
446.53742	29115.25
450.6534	29726.45
454.76644	30251.65
458.87653	30383.85
462.98368	30254.95
467.08789	30002.95
471.18916	29652.85
475.2875	29234.65
479.38291	28862.95
483.4754	28536.45
487.56496	28358.95
491.6516	28220.65
495.73531	28227.05
499.81612	28287.95
503.89401	28522.15
507.96899	28616.55
512.04106	28645.85
516.11023	28638.25
520.1765	28597.25
524.23987	28526.95
528.30034	28410.85
532.35792	28242.45
536.41261	28036.95
540.46441	27757.25
544.51333	27679.65
548.55936	27774.15
552.60252	28057.85
556.64279	28447.95
560.6802	28717.95
564.71473	28805.25
568.7464	29024.85
572.7752	29347.75
576.80114	29643.85
580.82422	30094.15
584.84444	30728.15
588.86181	31407.35
592.87633	31910.25
596.888	31824.25
600.89682	31558.55
604.9028	32303.55
608.90594	35036.45
612.90624	38084.55
616.90371	36597.45
620.89834	31594.05
624.89015	29246.25
628.87913	28876.15
632.86528	28949.75
636.84862	29001.45
640.82913	28720.75
644.80683	28200.55
648.78172	27781.65
652.75379	27772.25
656.72306	28099.25
660.68952	28568.05
664.65319	28435.95
668.61405	28043.65
672.57211	28054.05
676.52738	28157.45
680.47986	28160.75
684.42955	27967.15
688.37646	27915.05
692.32058	28030.35
696.26192	28391.65
700.20048	28706.05
704.13626	28763.15
708.06928	28670.15
711.99952	28469.15
715.927	28464.15
719.85171	28552.55
723.77365	28522.05
727.69284	28209.25
731.60928	27917.05
735.52295	27804.25
739.43388	27804.65
743.34206	27880.95
747.24749	28014.45
751.15017	28076.65
755.05012	28370.35
758.94733	28892.05
762.8418	29910.45
766.73354	31579.35
770.62254	33362.15
774.50882	34104.35
778.39237	33296.25
782.27321	31621.05
786.15132	29981.55
790.02671	28922.45
793.89938	28402.35
797.76935	28237.05
801.6366	28110.55
805.50115	28065.35
809.36299	27964.35
813.22213	27808.85
817.07857	27649.05
820.93231	27570.85
824.78336	27529.75
828.63172	27532.85
832.47738	27541.95
836.32036	27568.75
840.16066	27602.65
843.99827	27625.95
847.8332	27592.65
851.66546	27560.45
855.49504	27590.05
859.32195	27607.45
863.1462	27556.75
866.96777	27534.05
870.78668	27574.35
874.60293	27587.55
878.41652	27631.65
882.22745	27748.55
886.03573	27854.75
889.84136	27853.45
893.64433	27771.15
897.44466	27636.45
901.24235	27508.05
905.0374	27430.25
908.8298	27369.65
912.61957	27332.95
916.40671	27419.15
920.19121	27565.75
923.97308	27791.75
927.75233	27939.35
931.52895	27950.25
935.30295	27793.55
939.07433	27475.75
942.84309	27245.35
946.60924	27144.75
950.37278	27082.35
954.13371	26964.15
957.89203	26940.15
961.64774	26863.75
965.40086	26834.95
969.15137	26821.35
972.89929	26805.65
976.64461	26844.55
980.38733	26888.45
984.12747	27003.65
987.86502	27114.25
991.59999	27313.55
995.33237	27611.15
999.06217	28071.45
1002.78939	28588.95
1006.51404	29058.75
1010.23611	29318.55
1013.95561	29539.95
1017.67255	29547.65
1021.38692	29378.85
1025.09872	29078.65
1028.80796	29025.85
1032.51465	29371.25
1036.21877	29799.65
1039.92035	29953.35
1043.61937	29872.25
1047.31584	29536.35
1051.00976	29114.15
1054.70114	28866.35
1058.38998	28845.85
1062.07627	29022.35
1065.76003	29178.85
1069.44126	29390.65
1073.11995	29835.65
1076.79611	30241.75
1080.46974	30509.85
1084.14085	30656.25
1087.80943	30819.95
1091.47549	30883.75
1095.13903	30748.15
1098.80005	30369.45
1102.45857	29926.35
1106.11456	29583.65
1109.76805	29467.75
1113.41903	29494.85
1117.06751	29589.25
1120.71348	29790.25
1124.35696	30038.85
1127.99793	30320.35
1131.63641	30442.05
1135.2724	30202.45
1138.90589	29985.55
1142.5369	29861.65
1146.16542	29708.05
1149.79145	29683.05
1153.415	29640.65
1157.03607	29756.05
1160.65467	30115.05
1164.27079	30849.25
1167.88443	31837.45
1171.49561	33053.55
1175.10432	34690.15
1178.71056	36849.15
1182.31434	39025.35
1185.91565	40266.15
1189.51451	40394.15
1193.11091	39652.35
1196.70485	38356.45
1200.29634	37041.65
1203.88538	36032.95
1207.47197	35163.15
1211.05612	34447.15
1214.63782	33856.45
1218.21708	33324.35
1221.79391	32983.75
1225.36829	32849.15
1228.94024	32632.25
1232.50976	32388.65
1236.07685	32169.15
1239.6415	32044.25
1243.20374	32048.05
1246.76355	32266.35
1250.32093	32612.85
1253.8759	33157.05
1257.42845	33838.05
1260.97859	34588.35
1264.52631	35334.35
1268.07163	36212.05
1271.61453	37050.95
1275.15503	37860.25
1278.69312	38433.35
1282.22882	38761.65
1285.76211	39168.25
1289.29301	39600.75
1292.82151	40391.65
1296.34761	41391.35
1299.87133	42904.45
1303.39266	44857.95
1306.9116	47146.15
1310.42815	49387.65
1313.94233	50581.85
1317.45412	50145.35
1320.96354	48909.95
1324.47058	47588.05
1327.97525	46514.45
1331.47754	45799.85
1334.97747	45539.25
1338.47502	45485.65
1341.97022	45522.25
1345.46305	45558.05
1348.95352	45866.25
1352.44163	46503.35
1355.92738	47749.15
1359.41078	49729.35
1362.89183	51586.85
1366.37053	50796.85
1369.84688	46979.45
1373.32088	42543.45
1376.79254	39502.35
1380.26186	37981.55
1383.72883	37447.45
1387.19347	37058.25
1390.65578	36462.65
1394.11575	35947.55
1397.57339	35798.95
1401.0287	35908.15
1404.48168	36140.95
1407.93234	36391.35
1411.38068	36484.55
1414.82669	36220.45
1418.27039	35726.45
1421.71177	35063.15
1425.15083	34573.75
1428.58758	34323.05
1432.02203	34689.55
1435.45416	35237.65
1438.88399	35872.15
1442.31151	36214.45
1445.73673	36251.35
1449.15965	36197.25
1452.58027	36087.25
1455.9986	36000.05
1459.41463	36085.65
1462.82837	36542.25
1466.23982	37209.05
1469.64898	37705.55
1473.05586	38120.45
1476.46045	38296.75
1479.86276	38303.95
1483.26279	38296.95
1486.66054	38427.15
1490.05602	38805.65
1493.44922	39337.35
1496.84016	39939.05
1500.22882	41006.45
1503.61521	42606.85
1506.99934	44433.65
1510.38121	45792.45
1513.76081	45881.35
1517.13816	44403.75
1520.51324	42053.05
1523.88607	39955.25
1527.25665	38609.65
1530.62498	37955.15
1533.99105	37673.65
1537.35488	37394.35
1540.71647	37062.05
1544.07581	36662.85
1547.4329	36306.55
1550.78776	35993.55
1554.14038	35826.95
1557.49077	35639.95
1560.83892	35602.35
1564.18484	35708.05
1567.52853	35938.35
1570.86999	36243.25
1574.20922	36583.75
1577.54624	36853.55
1580.88103	36610.05
1584.2136	36278.05
1587.54395	36452.05
1590.87208	37458.05
1594.19801	39080.35
1597.52172	40910.25
1600.84321	41733.45
1604.16251	40875.65
1607.47959	38917.95
1610.79447	36669.45
1614.10715	34489.95
1617.41763	32616.65
1620.7259	31342.15
1624.03199	30671.65
1627.33587	30654.45
1630.63757	31128.75
1633.93707	32247.25
1637.23439	34155.45
1640.52951	36906.35
1643.82246	40207.15
1647.11321	42931.55
1650.40179	43606.45
1653.68819	41416.45
1656.97241	37398.15
1660.25446	33477.55
1663.53433	30656.45
1666.81203	28916.85
1670.08756	27833.75
1673.36092	27129.35
1676.63211	26686.75
1679.90115	26373.85
1683.16801	26125.45
1686.43272	25957.05
1689.69527	25811.25
1692.95567	25707.75
1696.2139	25647.85
1699.46999	25600.15
1702.72392	25535.15
1705.97571	25491.95
1709.22535	25462.65
1712.47284	25441.25
1715.71819	25440.75
1718.96139	25411.95
1722.20246	25327.35
1725.44139	25268.45
1728.67818	25230.95
1731.91284	25082.95
1735.14537	24968.35
1738.37576	24941.55
1741.60403	24832.25
1744.83017	24747.05
1748.05418	24757.45
1751.27607	24672.05
1754.49584	24642.55
1757.71349	24643.95
1760.92903	24639.55
1764.14244	24607.35
1767.35375	24639.15
1770.56294	24597.75
1773.77002	24552.25
1776.97499	24556.75
1780.17785	24502.95
1783.37861	24461.85
1786.57727	24437.45
1789.77382	24375.25
1792.96828	24364.85
1796.16064	24344.55
1799.3509	24259.85
1802.53907	24223.55
1805.72514	24193.35
1808.90913	24148.15
1812.09102	24131.35
1815.27083	24109.05
1818.44856	24039.65
1821.6242	24042.65
1824.79776	23987.95
1827.96924	23989.05
1831.13864	23962.05
1834.30597	24007.35
1837.47122	23990.55
1840.6344	23946.15
1843.7955	23949.05
1846.95454	23935.65
1850.11151	23937.55
1853.26642	23910.95
1856.41926	23886.75
1859.57004	23895.55
1862.71876	23893.65
1865.86542	23823.75
1869.01003	23804.55
1872.15258	23786.35
1875.29308	23810.45
1878.43152	23764.35
1881.56792	23752.55
1884.70227	23743.25
1887.83457	23697.95
1890.96482	23704.35
1894.09304	23628.35
1897.21921	23647.65
1900.34335	23643.55
1903.46544	23625.95
1906.58551	23561.55
1909.70353	23550.15
1912.81953	23530.65
1915.93349	23520.45
1919.04543	23488.25
1922.15534	23405.75
1925.26322	23397.25
1928.36908	23383.95
1931.47292	23322.65
1934.57473	23276.75
1937.67453	23187.05
1940.77232	23143.05
1943.86808	23081.85
1946.96184	23013.45
1950.05358	22999.55
1953.14331	22946.55
1956.23103	22861.85
1959.31675	22822.85
1962.40046	22757.55
1965.48217	22743.45
1968.56188	22659.65
1971.63959	22578.35
1974.7153	22546.55
1977.78901	22491.55
1980.86073	22427.95
1983.93046	22329.15
1986.99819	22299.65
1990.06394	22253.45
1993.1277	22140.65
1996.18947	22078.95
1999.24925	22048.55
2002.30706	21987.95
2005.36288	21926.85
2008.41672	21904.35
2011.46859	21832.95
2014.51848	21770.65
2017.56639	21749.35
2020.61233	21653.45
2023.6563	21635.75
2026.6983	21617.85
2029.73833	21524.95
2032.7764	21523.45
2035.8125	21439.65
2038.84664	21428.75
2041.87881	21430.55
2044.90903	21408.25
2047.93729	21337.25
2050.96359	21321.95
2053.98794	21295.35
2057.01034	21260.55
2060.03078	21253.05
2063.04927	21236.45
2066.06582	21241.35
2069.08042	21250.85
2072.09307	21195.15
2075.10378	21193.75
2078.11255	21143.65
2081.11938	21203.95
2084.12426	21163.15
2087.12722	21145.15
2090.12824	21178.55
2093.12732	21169.15
2096.12447	21171.45
2099.11969	21196.65
2102.11299	21191.85
2105.10435	21157.75
2108.09379	21216.65
2111.08131	21240.05
2114.0669	21250.65
2117.05057	21259.65
2120.03233	21264.05
2123.01216	21323.55
2125.99008	21344.25
2128.96609	21321.55
2131.94018	21380.65
2134.91236	21396.15
2137.88263	21409.55
2140.851	21449.65
2143.81746	21462.55
2146.78201	21468.95
2149.74466	21496.95
2152.7054	21449.25
2155.66425	21459.35
2158.6212	21445.15
2161.57625	21448.35
2164.52941	21459.05
2167.48067	21448.25
2170.43004	21447.15
2173.37752	21456.25
2176.32311	21434.25
2179.26681	21444.75
2182.20863	21418.65
2185.14856	21450.45
2188.08661	21458.15
2191.02278	21433.35
2193.95707	21429.15
2196.88948	21422.95
2199.82001	21460.95
2202.74867	21406.85
2205.67545	21394.85
2208.60037	21360.35
2211.52341	21337.15
2214.44458	21341.85
2217.36388	21285.25
2220.28132	21264.35
2223.1969	21217.95
2226.11061	21224.45
2229.02246	21178.15
2231.93245	21127.85
2234.84058	21093.45
2237.74686	21045.95
2240.65128	21045.45
2243.55385	21017.25
2246.45456	20995.75
2249.35343	20954.75
2252.25044	20911.15
2255.14561	20891.85
2258.03893	20906.35
2260.93041	20897.55
2263.82004	20824.05
2266.70783	20788.35
2269.59378	20727.65
2272.4779	20715.25
2275.36017	20668.15
2278.24061	20629.55
2281.11922	20598.45
2283.996	20570.15
2286.87094	20556.35
2289.74405	20526.35
2292.61534	20529.45
2295.4848	20487.15
2298.35243	20477.45
2301.21824	20467.35
2304.08223	20469.55
2306.94439	20476.95
2309.80474	20470.05
2312.66327	20493.05
2315.51999	20444.25
2318.37489	20450.35
2321.22797	20453.25
2324.07925	20392.85
2326.92871	20369.15
2329.77637	20350.85
2332.62222	20326.95
2335.46626	20279.05
2338.3085	20288.35
2341.14893	20286.75
2343.98756	20300.75
2346.8244	20251.15
2349.65943	20246.35
2352.49267	20212.15
2355.32411	20206.65
2358.15376	20214.65
2360.98161	20194.75
2363.80768	20190.45
2366.63195	20197.65
2369.45444	20149.25
2372.27514	20141.25
2375.09405	20101.35
2377.91118	20073.15
2380.72652	20007.55
2383.54009	19990.35
2386.35187	19972.75
2389.16188	19950.35
2391.97011	19897.95
2394.77657	19871.75
2397.58125	19855.65
2400.38416	19797.75
2403.18529	19772.65
2405.98466	19762.35
2408.78226	19735.95
2411.57809	19702.35
2414.37216	19691.55
2417.16446	19678.65
2419.955	19662.85
2422.74378	19661.05
2425.5308	19638.95
2428.31606	19594.35
2431.09956	19590.75
2433.88131	19562.05
2436.6613	19572.25
2439.43954	19570.35
2442.21603	19544.15
2444.99077	19535.65
2447.76377	19554.45
2450.53501	19523.05
2453.30451	19523.65
2456.07226	19554.15
2458.83827	19512.15
2461.60254	19508.05
2464.36507	19470.95
2467.12586	19475.85
2469.88492	19493.95
2472.64224	19500.35
2475.39782	19473.95
2478.15167	19435.05
2480.90379	19451.05
2483.65417	19464.15
2486.40283	19443.85
2489.14976	19430.85
2491.89497	19386.65
2494.63845	19453.05
2497.3802	19410.95
2500.12024	19393.45
2502.85855	19391.55
2505.59514	19338.95
2508.33002	19366.65
2511.06318	19337.05
2513.79462	19316.25
2516.52435	19265.75
2519.25237	19296.95
2521.97867	19277.95
2524.70327	19233.55
2527.42616	19231.85
2530.14734	19206.95
2532.86681	19216.95
2535.58458	19207.05
2538.30065	19159.15
2541.01501	19157.15
2543.72768	19136.05
2546.43864	19126.85
2549.14791	19085.75
2551.85548	19096.45
2554.56136	19049.35
2557.26554	19005.05
2559.96803	19026.35
2562.66883	18990.85
2565.36794	18982.45
2568.06536	18994.45
2570.7611	18943.85
2573.45514	18906.45
2576.14751	18916.55
2578.83819	18851.65
2581.52719	18836.95
2584.21451	18837.95
2586.90015	18832.85
2589.58411	18775.45
2592.2664	18766.05
2594.94701	18728.65
2597.62594	18732.05
2600.30321	18679.35
2602.9788	18645.85
2605.65273	18655.55
2608.32498	18671.85
2610.99557	18633.75
2613.66449	18603.95
2616.33175	18567.15
2618.99734	18574.45
2621.66128	18588.25
2624.32355	18555.35
2626.98416	18534.75
2629.64311	18506.55
2632.30041	18532.85
2634.95605	18491.15
2637.61004	18446.45
2640.26238	18439.35
2642.91306	18423.65
2645.56209	18446.65
2648.20948	18427.95
2650.85521	18429.95
2653.4993	18385.15
2656.14175	18379.25
2658.78255	18370.75
2661.42171	18405.65
2664.05923	18448.95
2666.6951	18440.75
2669.32934	18409.55
2671.96194	18424.15
2674.59291	18424.55
2677.22224	18398.55
2679.84993	18410.55
2682.476	18391.05
2685.10043	18434.65
2687.72324	18382.45
2690.34441	18398.55
2692.96396	18357.85
2695.58188	18384.65
2698.19818	18400.35
2700.81285	18393.45
2703.4259	18388.65
2706.03733	18435.15
2708.64714	18431.85
2711.25533	18422.25
2713.86191	18415.15
2716.46687	18455.65
2719.07021	18403.45
2721.67194	18413.55
2724.27206	18395.05
2726.87057	18430.45
2729.46747	18424.15
2732.06276	18412.75
2734.65644	18447.35
2737.24852	18403.95
2739.83899	18378.95
2742.42786	18415.65
2745.01513	18381.85
2747.60079	18370.45
2750.18486	18343.35
2752.76733	18364.25
2755.3482	18319.25
2757.92747	18318.25
2760.50515	18303.25
2763.08123	18272.25
2765.65573	18244.45
2768.22863	18239.35
2770.79994	18244.35
2773.36967	18222.85
2775.9378	18197.85
2778.50435	18187.65
2781.06932	18167.05
2783.6327	18156.45
2786.1945	18138.75
2788.75471	18102.65
2791.31335	18045.55
2793.87041	18042.05
2796.42589	17972.55
2798.97979	17998.95
2801.53212	17917.45
2804.08288	17921.85
2806.63206	17838.75
2809.17967	17830.45
2811.72571	17830.95
2814.27018	17801.35
2816.81308	17816.65
2819.35442	17761.25
2821.89419	17689.75
2824.43239	17736.15
2826.96904	17687.45
2829.50412	17718.55
2832.03763	17638.05
2834.56959	17642.95
2837.1	17616.95
2839.62884	17603.15
2842.15613	17573.35
2844.68186	17615.85
2847.20604	17577.95
2849.72867	17597.35
2852.24974	17572.95
2854.76927	17571.65
2857.28724	17530.25
2859.80367	17494.05
2862.31855	17477.95
2864.83189	17469.45
2867.34368	17455.05
2869.85393	17451.45
2872.36264	17473.35
2874.8698	17464.35
2877.37543	17521.85
2879.87952	17487.25
2882.38207	17470.45
2884.88308	17480.25
2887.38256	17479.45
2889.88051	17474.25
2892.37692	17472.35
2894.8718	17463.95
2897.36515	17489.75
2899.85698	17450.15
2902.34727	17524.35
2904.83604	17502.25
2907.32328	17531.35
2909.809	17474.75
2912.29319	17537.35
2914.77587	17523.35
2917.25702	17523.95
2919.73665	17498.55
2922.21476	17503.75
2924.69136	17479.85
2927.16644	17463.55
2929.64	17447.85
2932.11205	17417.65
2934.58258	17368.25
2937.05161	17408.55
2939.51912	17386.45
2941.98513	17399.15
2944.44962	17362.85
2946.91261	17342.55
2949.37409	17344.35
2951.83407	17358.15
2954.29254	17345.75
2956.74951	17314.85
2959.20498	17295.65
2961.65895	17265.05
2964.11142	17302.95
2966.56239	17268.65
2969.01186	17256.15
2971.45984	17186.95
2973.90632	17199.55
2976.35131	17171.25
2978.7948	17122.35
2981.23681	17104.05
2983.67732	17073.15
2986.11635	17046.65
2988.55388	16964.25
2990.98993	16993.95
2993.4245	16934.45
2995.85758	16918.15
2998.28917	16887.35
3000.71928	16865.35
3003.14791	16835.25
3005.57506	16842.65
3008.00073	16797.65
3010.42493	16809.75
3012.84764	16750.35
3015.26888	16741.05
3017.68865	16705.15
3020.10694	16721.55
3022.52376	16668.15
3024.9391	16703.85
3027.35298	16626.75
3029.76539	16604.55
3032.17632	16579.15
3034.5858	16562.15
3036.9938	16537.45
3039.40034	16548.75
3041.80542	16513.25
3044.20903	16469.35
3046.61118	16473.55
3049.01187	16451.75
3051.4111	16432.65
3053.80888	16383.45
3056.20519	16365.05
3058.60005	16313.05
3060.99345	16341.35
3063.3854	16312.65
3065.7759	16279.85
3068.16494	16195.25
3070.55254	16196.45
3072.93868	16169.55
3075.32338	16138.05
3077.70662	16132.55
3080.08842	16110.15
3082.46878	16097.15
3084.84769	16061.15
3087.22515	16089.95
3089.60118	16054.85
3091.97576	16002.55
3094.3489	16001.55
3096.72061	16025.35
3099.09087	16043.75
3101.4597	16023.75
3103.82709	16023.55
3106.19305	16000.05
3108.55757	15989.25
3110.92066	15922.75
3113.28232	15919.15
3115.64255	15854.95
3118.00134	15827.25
3120.35871	15828.35
3122.71466	15778.35
3125.06917	15767.55
3127.42226	15721.05
3129.77393	15756.35
3132.12417	15745.85
3134.47299	15740.65
3136.82039	15720.45
3139.16636	15723.75
3141.51092	15712.55
3143.85406	15716.95
3146.19579	15741.05
3148.53609	15726.85
3150.87499	15752.55
3153.21246	15728.95
3155.54853	15775.15
3157.88318	15740.25
3160.21642	15736.15
3162.54826	15730.25
3164.87868	15732.65
3167.2077	15731.05
3169.5353	15691.05
3171.86151	15706.75
3174.18631	15680.25
3176.5097	15659.95
3178.83169	15595.25
3181.15228	15638.55
3183.47147	15617.35
3185.78926	15599.25
3188.10565	15563.05
3190.42065	15572.25
3192.73424	15568.05
3195.04645	15535.05
3197.35725	15562.75
3199.66667	15565.35
3201.97469	15597.95
3204.28132	15582.75
3206.58656	15593.55
3208.8904	15568.45
3211.19287	15561.45
3213.49394	15585.65
3215.79363	15553.15
3218.09193	15575.95
3220.38884	15567.35
3222.68438	15582.95
3224.97853	15535.35
3227.2713	15531.85
3229.56269	15508.75
3231.8527	15500.55
3234.14133	15457.05
3236.42858	15428.15
3238.71446	15430.75
