Data from AgNPs_FTO_APTES_UA_0uM_R6G_10uM_NaF_0.1M_Addition_RamanShift__52__10-56-57-143.txt Node

Date: Fri Dec 17 10:56:57 GMT 2021
User: TCL
Spectrometer: QEP01345
Trigger mode: 4
Integration Time (sec): 7.000000E0
Scans to average: 10
Electric dark correction enabled: true
Nonlinearity correction enabled: false
Boxcar width: 0
XAxis mode: Raman Shifts
Number of Pixels in Spectrum: 1044
>>>>>Begin Spectral Data<<<<<
46.04893	0.175
50.45542	-0.025
54.85868	-1.825
59.25871	-0.225
63.6555	64.075
68.04907	65.375
72.43941	67.375
76.82654	74.175
81.21044	72.475
85.59113	76.675
89.96862	80.875
94.34289	83.875
98.71396	85.475
103.08183	87.075
107.4465	88.175
111.80798	91.875
116.16626	95.775
120.52136	93.575
124.87327	100.075
129.222	108.675
133.56755	111.675
137.90993	119.875
142.24913	129.075
146.58517	137.475
150.91804	159.475
155.24774	186.275
159.57429	227.075
163.89768	290.175
168.21792	378.975
172.53501	513.875
176.84895	706.675
181.15975	981.075
185.46741	1372.375
189.77193	1893.875
194.07331	2516.275
198.37157	3255.575
202.6667	3990.675
206.9587	4745.575
211.24758	5498.175
215.53334	6283.375
219.81599	7108.275
224.09553	8051.275
228.37195	9108.075
232.64527	10236.075
236.91549	11405.475
241.18261	12506.475
245.44663	13456.475
249.70755	14260.675
253.96539	14961.175
258.22014	15614.575
262.4718	16125.975
266.72039	16588.475
270.96589	16803.775
275.20832	16825.375
279.44768	16727.775
283.68397	16540.175
287.91719	16394.475
292.14735	16370.775
296.37445	16514.775
300.59849	16837.175
304.81948	17315.575
309.03742	17613.675
313.25231	17600.475
317.46415	17049.475
321.67296	16165.575
325.87872	15430.675
330.08145	15078.275
334.28114	15066.275
338.47781	15267.675
342.67145	15637.875
346.86207	16145.175
351.04966	16877.175
355.23424	17720.875
359.4158	18366.075
363.59435	18702.975
367.76989	18905.575
371.94243	18909.575
376.11196	18836.175
380.27849	18824.675
384.44203	18729.875
388.60257	18655.775
392.76012	18625.175
396.91468	18874.475
401.06626	19362.775
405.21485	19706.775
409.36047	19587.375
413.50311	19024.575
417.64277	18537.475
421.77947	18269.475
425.9132	18229.575
430.04396	18302.775
434.17176	18469.775
438.2966	18738.875
442.41849	19220.075
446.53742	19856.975
450.6534	20512.275
454.76644	20979.375
458.87653	21139.575
462.98368	21021.775
467.08789	20606.075
471.18916	20039.275
475.2875	19566.575
479.38291	19184.075
483.4754	18868.075
487.56496	18659.475
491.6516	18391.475
495.73531	18264.075
499.81612	18218.775
503.89401	18319.275
507.96899	18460.475
512.04106	18572.375
516.11023	18723.475
520.1765	18799.675
524.23987	18774.775
528.30034	18596.475
532.35792	18366.875
536.41261	18042.875
540.46441	17720.375
544.51333	17626.575
548.55936	17769.275
552.60252	18056.675
556.64279	18421.875
560.6802	18612.075
564.71473	18907.175
568.7464	19513.175
572.7752	19991.675
576.80114	19804.075
580.82422	19523.075
584.84444	19534.975
588.86181	19673.675
592.87633	20029.375
596.888	20394.675
600.89682	20900.175
604.9028	22433.475
608.90594	26300.075
612.90624	30892.675
616.90371	29569.475
620.89834	22863.075
624.89015	19669.675
628.87913	19074.275
632.86528	19005.475
636.84862	18974.075
640.82913	18608.875
644.80683	18078.275
648.78172	17717.375
652.75379	17783.475
656.72306	18320.075
660.68952	18997.975
664.65319	18876.375
668.61405	18310.975
672.57211	18035.175
676.52738	18002.175
680.47986	17984.375
684.42955	17883.775
688.37646	17890.375
692.32058	17988.275
696.26192	18147.075
700.20048	18368.675
704.13626	18531.075
708.06928	18459.275
711.99952	18292.575
715.927	18238.875
719.85171	18253.575
723.77365	18216.175
727.69284	18012.875
731.60928	17905.975
735.52295	17942.775
739.43388	18020.575
743.34206	18149.375
747.24749	18315.775
751.15017	18507.975
755.05012	18846.375
758.94733	19525.675
762.8418	20855.675
766.73354	23088.675
770.62254	25385.875
774.50882	26349.475
778.39237	25229.375
782.27321	22812.075
786.15132	20564.775
790.02671	19190.075
793.89938	18604.475
797.76935	18353.475
801.6366	18237.775
805.50115	18162.775
809.36299	18084.975
813.22213	18000.775
817.07857	18070.775
820.93231	18041.975
824.78336	18076.075
828.63172	18137.175
832.47738	18218.875
836.32036	18275.375
840.16066	18241.975
843.99827	18205.075
847.8332	18161.875
851.66546	18119.275
855.49504	18059.875
859.32195	18059.075
863.1462	17956.975
866.96777	17911.775
870.78668	17864.775
874.60293	17923.875
878.41652	17952.775
882.22745	18060.275
886.03573	18093.375
889.84136	18068.175
893.64433	18012.275
897.44466	17928.975
901.24235	17958.375
905.0374	17909.475
908.8298	17933.875
912.61957	17917.275
916.40671	18064.875
920.19121	18235.775
923.97308	18464.075
927.75233	18646.475
931.52895	18719.675
935.30295	18553.375
939.07433	18124.075
942.84309	17802.675
946.60924	17648.475
950.37278	17557.475
954.13371	17434.775
957.89203	17343.875
961.64774	17277.375
965.40086	17262.975
969.15137	17189.275
972.89929	17141.275
976.64461	17149.975
980.38733	17191.175
984.12747	17257.675
987.86502	17390.975
991.59999	17611.375
995.33237	17921.875
999.06217	18493.675
1002.78939	19152.875
1006.51404	19687.375
1010.23611	20057.275
1013.95561	20279.975
1017.67255	20250.275
1021.38692	19979.675
1025.09872	19762.475
1028.80796	19852.675
1032.51465	20359.475
1036.21877	20786.975
1039.92035	20890.275
1043.61937	20595.475
1047.31584	20071.375
1051.00976	19515.975
1054.70114	19211.975
1058.38998	19051.075
1062.07627	19074.675
1065.76003	19142.275
1069.44126	19201.575
1073.11995	19411.475
1076.79611	19585.275
1080.46974	19759.675
1084.14085	20039.475
1087.80943	20355.275
1091.47549	20428.975
1095.13903	20184.975
1098.80005	19699.875
1102.45857	19293.075
1106.11456	19074.575
1109.76805	19107.575
1113.41903	19320.875
1117.06751	19696.675
1120.71348	20080.275
1124.35696	20548.675
1127.99793	20983.175
1131.63641	21040.775
1135.2724	20549.775
1138.90589	20040.875
1142.5369	19710.175
1146.16542	19491.375
1149.79145	19438.375
1153.415	19503.675
1157.03607	19655.675
1160.65467	20011.475
1164.27079	20575.175
1167.88443	21415.075
1171.49561	22718.975
1175.10432	24836.875
1178.71056	27599.775
1182.31434	29893.975
1185.91565	30940.275
1189.51451	30768.475
1193.11091	29469.075
1196.70485	27652.075
1200.29634	26085.075
1203.88538	24933.875
1207.47197	23869.275
1211.05612	22975.075
1214.63782	22606.575
1218.21708	22578.275
1221.79391	22740.275
1225.36829	22918.575
1228.94024	22857.675
1232.50976	22741.975
1236.07685	22660.875
1239.6415	22657.575
1243.20374	22713.475
1246.76355	22781.075
1250.32093	23049.275
1253.8759	23561.375
1257.42845	24217.675
1260.97859	24910.075
1264.52631	25396.975
1268.07163	25942.975
1271.61453	26475.275
1275.15503	27072.875
1278.69312	27600.175
1282.22882	28070.675
1285.76211	28679.075
1289.29301	29393.075
1292.82151	30138.075
1296.34761	30971.175
1299.87133	32097.275
1303.39266	33869.475
1306.9116	36504.075
1310.42815	39605.175
1313.94233	41736.675
1317.45412	41712.575
1320.96354	40185.575
1324.47058	38211.575
1327.97525	36560.075
1331.47754	35580.475
1334.97747	35445.075
1338.47502	35697.075
1341.97022	36108.075
1345.46305	36302.075
1348.95352	36607.675
1352.44163	37296.475
1355.92738	38939.975
1359.41078	42150.875
1362.89183	45448.475
1366.37053	44998.775
1369.84688	40192.775
1373.32088	34857.375
1376.79254	31295.875
1380.26186	29546.275
1383.72883	28774.175
1387.19347	28233.175
1390.65578	27656.375
1394.11575	27283.975
1397.57339	27309.575
1401.0287	27666.775
1404.48168	28375.275
1407.93234	29123.175
1411.38068	29672.475
1414.82669	29665.475
1418.27039	28966.375
1421.71177	28005.175
1425.15083	27157.875
1428.58758	26761.675
1432.02203	26790.075
1435.45416	26959.175
1438.88399	27188.875
1442.31151	27295.875
1445.73673	27437.275
1449.15965	27618.575
1452.58027	27539.975
1455.9986	27335.675
1459.41463	27216.975
1462.82837	27384.275
1466.23982	27778.275
1469.64898	28302.475
1473.05586	28666.775
1476.46045	28927.375
1479.86276	29222.475
1483.26279	29632.275
1486.66054	30115.475
1490.05602	30692.675
1493.44922	31427.575
1496.84016	32180.275
1500.22882	33282.375
1503.61521	34724.275
1506.99934	36741.275
1510.38121	38910.975
1513.76081	40255.575
1517.13816	39512.975
1520.51324	36777.775
1523.88607	33701.275
1527.25665	31471.275
1530.62498	30237.475
1533.99105	29511.975
1537.35488	29026.075
1540.71647	28774.175
1544.07581	28569.675
1547.4329	28258.675
1550.78776	27951.275
1554.14038	27645.575
1557.49077	27512.775
1560.83892	27637.875
1564.18484	27830.475
1567.52853	28052.675
1570.86999	28206.675
1574.20922	28325.875
1577.54624	28301.975
1580.88103	27789.375
1584.2136	27166.575
1587.54395	27258.575
1590.87208	28434.975
1594.19801	30407.275
1597.52172	32764.875
1600.84321	33968.575
1604.16251	33126.075
1607.47959	30852.475
1610.79447	28084.775
1614.10715	25560.775
1617.41763	23738.075
1620.7259	22657.875
1624.03199	22149.175
1627.33587	22246.875
1630.63757	22771.975
1633.93707	23903.775
1637.23439	25484.775
1640.52951	27553.575
1643.82246	29867.975
1647.11321	32023.875
1650.40179	33054.275
1653.68819	31797.275
1656.97241	28379.075
1660.25446	24646.675
1663.53433	21868.775
1666.81203	20207.475
1670.08756	19218.875
1673.36092	18569.375
1676.63211	18194.875
1679.90115	17895.575
1683.16801	17677.775
1686.43272	17517.875
1689.69527	17458.275
1692.95567	17350.475
1696.2139	17303.675
1699.46999	17277.975
1702.72392	17249.975
1705.97571	17251.575
1709.22535	17213.975
1712.47284	17185.475
1715.71819	17216.475
1718.96139	17205.175
1722.20246	17204.275
1725.44139	17157.375
1728.67818	17062.975
1731.91284	16984.675
1735.14537	16860.675
1738.37576	16854.275
1741.60403	16756.775
1744.83017	16700.675
1748.05418	16655.975
1751.27607	16625.575
1754.49584	16614.575
1757.71349	16644.475
1760.92903	16595.275
1764.14244	16620.775
1767.35375	16604.775
1770.56294	16555.375
1773.77002	16560.375
1776.97499	16504.675
1780.17785	16500.475
1783.37861	16498.275
1786.57727	16475.075
1789.77382	16438.875
1792.96828	16434.575
1796.16064	16415.875
1799.3509	16418.475
1802.53907	16405.775
1805.72514	16351.275
1808.90913	16281.175
1812.09102	16273.175
1815.27083	16235.575
1818.44856	16206.875
1821.6242	16200.075
1824.79776	16190.775
1827.96924	16151.175
1831.13864	16164.875
1834.30597	16158.975
1837.47122	16152.475
1840.6344	16159.875
1843.7955	16153.175
1846.95454	16142.875
1850.11151	16159.475
1853.26642	16147.375
1856.41926	16160.475
1859.57004	16155.475
1862.71876	16157.175
1865.86542	16167.075
1869.01003	16178.875
1872.15258	16172.975
1875.29308	16204.075
1878.43152	16184.075
1881.56792	16189.075
1884.70227	16186.675
1887.83457	16192.775
1890.96482	16198.275
1894.09304	16188.775
1897.21921	16174.175
1900.34335	16205.775
1903.46544	16184.175
1906.58551	16189.875
1909.70353	16197.675
1912.81953	16199.075
1915.93349	16169.175
1919.04543	16130.575
1922.15534	16128.475
1925.26322	16098.875
1928.36908	16046.575
1931.47292	16000.775
1934.57473	15966.675
1937.67453	15918.775
1940.77232	15889.275
1943.86808	15792.775
1946.96184	15739.175
1950.05358	15718.475
1953.14331	15642.975
1956.23103	15592.875
1959.31675	15537.875
1962.40046	15500.575
1965.48217	15457.175
1968.56188	15412.675
1971.63959	15360.775
1974.7153	15325.075
1977.78901	15245.875
1980.86073	15212.875
1983.93046	15181.175
1986.99819	15098.575
1990.06394	15052.675
1993.1277	15033.075
1996.18947	14987.175
1999.24925	14943.275
2002.30706	14885.975
2005.36288	14842.375
2008.41672	14804.475
2011.46859	14780.175
2014.51848	14727.275
2017.56639	14695.875
2020.61233	14659.175
2023.6563	14634.875
2026.6983	14603.075
2029.73833	14608.775
2032.7764	14552.675
2035.8125	14531.575
2038.84664	14491.275
2041.87881	14479.175
2044.90903	14466.375
2047.93729	14445.675
2050.96359	14423.775
2053.98794	14385.275
2057.01034	14395.875
2060.03078	14358.175
2063.04927	14334.375
2066.06582	14311.475
2069.08042	14331.575
2072.09307	14296.975
2075.10378	14253.675
2078.11255	14260.475
2081.11938	14270.775
2084.12426	14245.175
2087.12722	14253.975
2090.12824	14206.675
2093.12732	14224.875
2096.12447	14226.075
2099.11969	14211.975
2102.11299	14208.275
2105.10435	14246.375
2108.09379	14221.275
2111.08131	14228.675
2114.0669	14267.575
2117.05057	14256.375
2120.03233	14244.875
2123.01216	14255.475
2125.99008	14272.175
2128.96609	14286.475
2131.94018	14279.475
2134.91236	14263.075
2137.88263	14305.275
2140.851	14294.875
2143.81746	14343.075
2146.78201	14316.375
2149.74466	14329.575
2152.7054	14337.375
2155.66425	14310.275
2158.6212	14313.675
2161.57625	14301.275
2164.52941	14284.375
2167.48067	14281.475
2170.43004	14283.075
2173.37752	14275.175
2176.32311	14251.675
2179.26681	14279.475
2182.20863	14263.575
2185.14856	14292.075
2188.08661	14292.475
2191.02278	14268.475
2193.95707	14261.975
2196.88948	14288.275
2199.82001	14274.675
2202.74867	14251.575
2205.67545	14261.475
2208.60037	14244.175
2211.52341	14221.475
2214.44458	14199.275
2217.36388	14160.475
2220.28132	14141.375
2223.1969	14107.075
2226.11061	14142.675
2229.02246	14073.175
2231.93245	14065.175
2234.84058	13995.675
2237.74686	13976.175
2240.65128	13989.275
2243.55385	13959.875
2246.45456	13916.075
2249.35343	13943.875
2252.25044	13892.875
2255.14561	13892.175
2258.03893	13901.575
2260.93041	13840.875
2263.82004	13786.575
2266.70783	13806.075
2269.59378	13761.575
2272.4779	13726.775
2275.36017	13656.375
2278.24061	13645.675
2281.11922	13616.475
2283.996	13621.575
2286.87094	13616.475
2289.74405	13576.275
2292.61534	13555.675
2295.4848	13512.375
2298.35243	13523.675
2301.21824	13538.375
2304.08223	13530.675
2306.94439	13539.275
2309.80474	13530.275
2312.66327	13523.075
2315.51999	13540.075
2318.37489	13532.075
2321.22797	13506.275
2324.07925	13530.175
2326.92871	13476.775
2329.77637	13489.775
2332.62222	13499.875
2335.46626	13439.375
2338.3085	13447.675
2341.14893	13443.275
2343.98756	13470.475
2346.8244	13444.575
2349.65943	13444.175
2352.49267	13432.075
2355.32411	13414.875
2358.15376	13433.675
2360.98161	13423.075
2363.80768	13397.075
2366.63195	13375.575
2369.45444	13344.875
2372.27514	13349.975
2375.09405	13332.675
2377.91118	13306.475
2380.72652	13245.375
2383.54009	13197.175
2386.35187	13218.475
2389.16188	13162.775
2391.97011	13142.075
2394.77657	13113.675
2397.58125	13086.775
2400.38416	13056.975
2403.18529	13041.575
2405.98466	13025.175
2408.78226	12983.975
2411.57809	12930.975
2414.37216	12916.275
2417.16446	12901.575
2419.955	12861.275
2422.74378	12883.075
2425.5308	12840.975
2428.31606	12846.675
2431.09956	12853.675
2433.88131	12830.575
2436.6613	12797.275
2439.43954	12801.775
2442.21603	12784.375
2444.99077	12778.275
2447.76377	12774.575
2450.53501	12775.075
2453.30451	12741.375
2456.07226	12766.775
2458.83827	12735.575
2461.60254	12727.075
2464.36507	12729.875
2467.12586	12717.975
2469.88492	12723.475
2472.64224	12720.475
2475.39782	12725.875
2478.15167	12716.675
2480.90379	12677.475
2483.65417	12727.775
2486.40283	12713.575
2489.14976	12751.675
2491.89497	12717.175
2494.63845	12733.775
2497.3802	12719.675
2500.12024	12731.075
2502.85855	12718.875
2505.59514	12710.975
2508.33002	12693.575
2511.06318	12680.175
2513.79462	12642.875
2516.52435	12630.475
2519.25237	12620.075
2521.97867	12580.475
2524.70327	12583.175
2527.42616	12569.675
2530.14734	12561.275
2532.86681	12515.575
2535.58458	12510.675
2538.30065	12520.075
2541.01501	12508.275
2543.72768	12512.375
2546.43864	12442.575
2549.14791	12447.675
2551.85548	12453.775
2554.56136	12457.775
2557.26554	12421.975
2559.96803	12406.675
2562.66883	12405.275
2565.36794	12391.175
2568.06536	12384.575
2570.7611	12367.275
2573.45514	12369.775
2576.14751	12333.075
2578.83819	12315.275
2581.52719	12321.775
2584.21451	12327.775
2586.90015	12287.375
2589.58411	12286.475
2592.2664	12265.075
2594.94701	12276.075
2597.62594	12250.075
2600.30321	12236.775
2602.9788	12262.375
2605.65273	12227.275
2608.32498	12213.275
2610.99557	12213.875
2613.66449	12216.075
2616.33175	12198.675
2618.99734	12232.375
2621.66128	12189.275
2624.32355	12229.275
2626.98416	12198.575
2629.64311	12184.975
2632.30041	12190.775
2634.95605	12172.975
2637.61004	12168.375
2640.26238	12135.775
2642.91306	12119.475
2645.56209	12089.975
2648.20948	12082.175
2650.85521	12096.575
2653.4993	12046.275
2656.14175	12047.175
2658.78255	12052.375
2661.42171	12037.575
2664.05923	12070.175
2666.6951	12063.975
2669.32934	12102.475
2671.96194	12099.275
2674.59291	12093.275
2677.22224	12114.575
2679.84993	12113.775
2682.476	12115.075
2685.10043	12114.975
2687.72324	12090.575
2690.34441	12117.775
2692.96396	12067.575
2695.58188	12102.975
2698.19818	12057.575
2700.81285	12083.875
2703.4259	12057.275
2706.03733	12103.375
2708.64714	12077.175
2711.25533	12077.175
2713.86191	12087.375
2716.46687	12086.575
2719.07021	12103.075
2721.67194	12080.175
2724.27206	12069.375
2726.87057	12056.175
2729.46747	12073.575
2732.06276	12074.075
2734.65644	12054.375
2737.24852	12070.475
2739.83899	12037.275
2742.42786	12051.375
2745.01513	12037.975
2747.60079	12043.675
2750.18486	12011.975
2752.76733	12038.575
2755.3482	12030.675
2757.92747	12014.275
2760.50515	12007.175
2763.08123	12020.575
2765.65573	11985.075
2768.22863	11999.575
2770.79994	11991.575
2773.36967	11999.775
2775.9378	11986.975
2778.50435	11974.075
2781.06932	11945.575
2783.6327	11931.775
2786.1945	11954.775
2788.75471	11933.475
2791.31335	11918.275
2793.87041	11883.875
2796.42589	11875.975
2798.97979	11864.775
2801.53212	11838.175
2804.08288	11812.675
2806.63206	11787.475
2809.17967	11810.775
2811.72571	11778.275
2814.27018	11765.275
2816.81308	11765.675
2819.35442	11787.475
2821.89419	11760.875
2824.43239	11761.075
2826.96904	11741.775
2829.50412	11751.375
2832.03763	11725.175
2834.56959	11738.675
2837.1	11732.575
2839.62884	11735.875
2842.15613	11772.075
2844.68186	11795.675
2847.20604	11828.475
2849.72867	11858.275
2852.24974	11837.075
2854.76927	11853.475
2857.28724	11825.875
2859.80367	11781.775
2862.31855	11787.975
2864.83189	11769.175
2867.34368	11736.475
2869.85393	11745.775
2872.36264	11728.375
2874.8698	11747.675
2877.37543	11703.775
2879.87952	11717.475
2882.38207	11698.475
2884.88308	11709.175
2887.38256	11720.175
2889.88051	11710.775
2892.37692	11702.475
2894.8718	11714.575
2897.36515	11695.375
2899.85698	11682.675
2902.34727	11704.075
2904.83604	11695.175
2907.32328	11723.275
2909.809	11714.375
2912.29319	11680.375
2914.77587	11688.775
2917.25702	11689.875
2919.73665	11669.175
2922.21476	11674.875
2924.69136	11648.775
2927.16644	11654.575
2929.64	11594.675
2932.11205	11626.075
2934.58258	11576.775
2937.05161	11573.175
2939.51912	11557.475
2941.98513	11515.975
2944.44962	11476.975
2946.91261	11410.275
2949.37409	11443.675
2951.83407	11381.075
2954.29254	11357.975
2956.74951	11357.675
2959.20498	11315.975
2961.65895	11283.975
2964.11142	11271.875
2966.56239	11258.475
2969.01186	11238.775
2971.45984	11173.175
2973.90632	11162.875
2976.35131	11141.775
2978.7948	11119.975
2981.23681	11072.575
2983.67732	11058.075
2986.11635	10980.675
2988.55388	10991.475
2990.98993	10978.475
2993.4245	10939.475
2995.85758	10895.675
2998.28917	10894.675
3000.71928	10892.475
3003.14791	10843.675
3005.57506	10842.075
3008.00073	10793.475
3010.42493	10797.275
3012.84764	10771.675
3015.26888	10780.075
3017.68865	10722.475
3020.10694	10713.675
3022.52376	10688.175
3024.9391	10674.375
3027.35298	10662.875
3029.76539	10637.375
3032.17632	10607.675
3034.5858	10581.975
3036.9938	10585.175
3039.40034	10580.175
3041.80542	10585.375
3044.20903	10546.075
3046.61118	10535.075
3049.01187	10489.475
3051.4111	10464.775
3053.80888	10451.775
3056.20519	10421.975
3058.60005	10403.775
3060.99345	10395.175
3063.3854	10351.875
3065.7759	10317.375
3068.16494	10300.575
3070.55254	10254.575
3072.93868	10254.775
3075.32338	10195.675
3077.70662	10212.275
3080.08842	10176.375
3082.46878	10153.675
3084.84769	10117.875
3087.22515	10112.175
3089.60118	10102.175
3091.97576	10098.475
3094.3489	10092.575
3096.72061	10071.775
3099.09087	10076.175
3101.4597	10051.475
3103.82709	10045.775
3106.19305	10012.975
3108.55757	10022.575
3110.92066	9962.475
3113.28232	9964.175
3115.64255	9925.375
3118.00134	9905.675
3120.35871	9887.275
3122.71466	9880.175
3125.06917	9900.275
3127.42226	9843.975
3129.77393	9855.675
