Data from AgNPs_FTO_APTES_UA_200uM_R6G_10uM_NaF_0.1M_Addition_RamanShift__3__16-03-47-494.txt Node

Date: Fri Dec 17 16:03:47 GMT 2021
User: TCL
Spectrometer: QEP01345
Trigger mode: 4
Integration Time (sec): 7.000000E0
Scans to average: 10
Electric dark correction enabled: true
Nonlinearity correction enabled: false
Boxcar width: 0
XAxis mode: Raman Shifts
Number of Pixels in Spectrum: 1044
>>>>>Begin Spectral Data<<<<<
46.04893	0.575
50.45542	-0.825
54.85868	-1.325
59.25871	0.975
63.6555	56.475
68.04907	56.475
72.43941	61.875
76.82654	67.575
81.21044	69.275
85.59113	72.575
89.96862	75.475
94.34289	78.175
98.71396	81.675
103.08183	86.575
107.4465	85.075
111.80798	85.575
116.16626	86.375
120.52136	86.575
124.87327	92.875
129.222	95.675
133.56755	93.975
137.90993	102.875
142.24913	107.075
146.58517	113.475
150.91804	127.875
155.24774	144.875
159.57429	176.175
163.89768	213.675
168.21792	271.075
172.53501	363.475
176.84895	493.475
181.15975	683.875
185.46741	953.375
189.77193	1323.075
194.07331	1755.075
198.37157	2278.375
202.6667	2820.175
206.9587	3339.575
211.24758	3892.875
215.53334	4407.275
219.81599	4962.875
224.09553	5590.575
228.37195	6266.375
232.64527	7022.975
236.91549	7840.375
241.18261	8663.475
245.44663	9432.975
249.70755	10101.775
253.96539	10654.675
258.22014	11153.675
262.4718	11546.475
266.72039	11809.375
270.96589	11963.275
275.20832	11932.375
279.44768	11796.275
283.68397	11613.475
287.91719	11432.275
292.14735	11286.575
296.37445	11278.775
300.59849	11344.275
304.81948	11428.175
309.03742	11462.775
313.25231	11355.375
317.46415	11076.875
321.67296	10773.175
325.87872	10555.775
330.08145	10418.475
334.28114	10450.575
338.47781	10544.075
342.67145	10710.875
346.86207	10909.975
351.04966	11151.175
355.23424	11421.775
359.4158	11688.075
363.59435	11880.975
367.76989	12010.975
371.94243	12151.475
376.11196	12243.175
380.27849	12322.075
384.44203	12375.575
388.60257	12404.275
392.76012	12432.275
396.91468	12552.475
401.06626	12717.575
405.21485	12869.275
409.36047	12808.275
413.50311	12563.875
417.64277	12295.375
421.77947	12090.975
425.9132	12016.675
430.04396	11979.275
434.17176	11970.275
438.2966	12040.275
442.41849	12158.975
446.53742	12278.975
450.6534	12393.075
454.76644	12530.875
458.87653	12563.575
462.98368	12618.175
467.08789	12605.475
471.18916	12558.075
475.2875	12461.575
479.38291	12344.875
483.4754	12312.475
487.56496	12261.075
491.6516	12243.375
495.73531	12240.975
499.81612	12262.775
503.89401	12301.975
507.96899	12321.875
512.04106	12355.175
516.11023	12470.575
520.1765	12535.675
524.23987	12515.675
528.30034	12434.275
532.35792	12339.575
536.41261	12270.475
540.46441	12176.975
544.51333	12144.775
548.55936	12183.575
552.60252	12264.875
556.64279	12386.375
560.6802	12468.075
564.71473	12433.275
568.7464	12522.175
572.7752	12598.375
576.80114	12593.975
580.82422	12533.175
584.84444	12660.975
588.86181	12722.575
592.87633	12661.575
596.888	12636.675
600.89682	12761.275
604.9028	13366.475
608.90594	14955.575
612.90624	16888.375
616.90371	16567.875
620.89834	14003.475
624.89015	12753.775
628.87913	12598.075
632.86528	12727.575
636.84862	12948.075
640.82913	12925.075
644.80683	12604.375
648.78172	12317.275
652.75379	12183.375
656.72306	12297.475
660.68952	12492.875
664.65319	12472.275
668.61405	12205.275
672.57211	12103.175
676.52738	12065.775
680.47986	12056.675
684.42955	12045.275
688.37646	11959.375
692.32058	11963.075
696.26192	12016.675
700.20048	12075.675
704.13626	12141.175
708.06928	12132.075
711.99952	12097.975
715.927	12076.575
719.85171	12087.475
723.77365	12078.675
727.69284	12043.675
731.60928	11989.775
735.52295	11953.675
739.43388	11959.475
743.34206	11966.475
747.24749	12006.975
751.15017	12004.275
755.05012	12065.675
758.94733	12259.875
762.8418	12683.575
766.73354	13607.275
770.62254	14670.675
774.50882	15365.775
778.39237	14944.375
782.27321	13798.075
786.15132	12828.575
790.02671	12244.075
793.89938	11977.875
797.76935	11861.175
801.6366	11821.775
805.50115	11814.575
809.36299	11805.575
813.22213	11801.275
817.07857	11806.475
820.93231	11794.475
824.78336	11755.875
828.63172	11722.975
832.47738	11668.675
836.32036	11680.175
840.16066	11641.575
843.99827	11640.075
847.8332	11583.975
851.66546	11589.475
855.49504	11561.975
859.32195	11581.475
863.1462	11571.775
866.96777	11544.675
870.78668	11551.575
874.60293	11557.175
878.41652	11570.775
882.22745	11633.275
886.03573	11676.775
889.84136	11676.875
893.64433	11661.175
897.44466	11639.275
901.24235	11542.575
905.0374	11499.975
908.8298	11440.475
912.61957	11427.375
916.40671	11432.575
920.19121	11435.675
923.97308	11459.375
927.75233	11470.575
931.52895	11524.775
935.30295	11495.775
939.07433	11360.575
942.84309	11218.375
946.60924	11109.075
950.37278	11056.375
954.13371	10996.875
957.89203	10962.575
961.64774	10951.775
965.40086	10902.575
969.15137	10876.175
972.89929	10859.675
976.64461	10855.375
980.38733	10832.075
984.12747	10840.475
987.86502	10820.375
991.59999	10877.775
995.33237	10928.975
999.06217	10978.275
1002.78939	11067.375
1006.51404	11141.175
1010.23611	11241.775
1013.95561	11309.475
1017.67255	11320.575
1021.38692	11293.275
1025.09872	11216.775
1028.80796	11185.575
1032.51465	11151.475
1036.21877	11156.975
1039.92035	11187.775
1043.61937	11221.875
1047.31584	11212.175
1051.00976	11230.075
1054.70114	11242.575
1058.38998	11251.975
1062.07627	11290.675
1065.76003	11388.675
1069.44126	11490.275
1073.11995	11637.075
1076.79611	11742.775
1080.46974	11784.375
1084.14085	11771.475
1087.80943	11765.175
1091.47549	11825.975
1095.13903	11803.575
1098.80005	11684.475
1102.45857	11558.075
1106.11456	11408.975
1109.76805	11370.175
1113.41903	11431.075
1117.06751	11566.775
1120.71348	11743.075
1124.35696	11920.675
1127.99793	12156.275
1131.63641	12285.575
1135.2724	12178.275
1138.90589	11941.875
1142.5369	11735.175
1146.16542	11543.975
1149.79145	11423.175
1153.415	11303.975
1157.03607	11279.375
1160.65467	11337.975
1164.27079	11488.575
1167.88443	11706.975
1171.49561	12156.475
1175.10432	12762.575
1178.71056	13683.075
1182.31434	14481.175
1185.91565	14753.275
1189.51451	14648.775
1193.11091	14185.475
1196.70485	13601.175
1200.29634	13185.475
1203.88538	12838.675
1207.47197	12472.875
1211.05612	12091.975
1214.63782	11821.175
1218.21708	11681.075
1221.79391	11608.175
1225.36829	11546.775
1228.94024	11528.375
1232.50976	11561.875
1236.07685	11597.775
1239.6415	11617.675
1243.20374	11692.375
1246.76355	11712.475
1250.32093	11788.275
1253.8759	11858.275
1257.42845	12022.375
1260.97859	12195.375
1264.52631	12359.275
1268.07163	12536.575
1271.61453	12693.775
1275.15503	12834.275
1278.69312	12925.575
1282.22882	12975.275
1285.76211	13090.375
1289.29301	13262.475
1292.82151	13502.075
1296.34761	13769.075
1299.87133	14143.975
1303.39266	14695.075
1306.9116	15455.975
1310.42815	16317.375
1313.94233	16758.575
1317.45412	16592.175
1320.96354	16041.575
1324.47058	15446.575
1327.97525	14840.475
1331.47754	14383.075
1334.97747	14093.675
1338.47502	14011.175
1341.97022	14059.475
1345.46305	14307.975
1348.95352	14748.775
1352.44163	15428.175
1355.92738	16357.575
1359.41078	17737.175
1362.89183	19237.875
1366.37053	19411.775
1369.84688	17600.175
1373.32088	15479.875
1376.79254	14018.575
1380.26186	13209.375
1383.72883	12715.875
1387.19347	12433.275
1390.65578	12106.275
1394.11575	11848.475
1397.57339	11592.475
1401.0287	11473.475
1404.48168	11371.875
1407.93234	11341.675
1411.38068	11305.875
1414.82669	11332.875
1418.27039	11319.475
1421.71177	11304.375
1425.15083	11219.675
1428.58758	11139.975
1432.02203	11070.175
1435.45416	11095.175
1438.88399	11125.275
1442.31151	11137.775
1445.73673	11129.275
1449.15965	11148.675
1452.58027	11170.375
1455.9986	11140.075
1459.41463	11178.075
1462.82837	11243.875
1466.23982	11388.375
1469.64898	11541.175
1473.05586	11688.875
1476.46045	11833.775
1479.86276	11976.875
1483.26279	12128.475
1486.66054	12292.375
1490.05602	12551.475
1493.44922	12904.475
1496.84016	13536.275
1500.22882	14504.475
1503.61521	15880.175
1506.99934	17380.275
1510.38121	18612.375
1513.76081	18917.875
1517.13816	18067.875
1520.51324	16533.475
1523.88607	14986.375
1527.25665	13900.175
1530.62498	13252.575
1533.99105	12875.575
1537.35488	12617.075
1540.71647	12462.075
1544.07581	12346.775
1547.4329	12305.275
1550.78776	12268.475
1554.14038	12308.975
1557.49077	12361.875
1560.83892	12492.075
1564.18484	12647.975
1567.52853	12878.475
1570.86999	13130.075
1574.20922	13337.675
1577.54624	13330.075
1580.88103	13066.675
1584.2136	12566.375
1587.54395	12182.975
1590.87208	12002.975
1594.19801	12123.075
1597.52172	12409.575
1600.84321	12599.475
1604.16251	12477.275
1607.47959	12179.075
1610.79447	11846.375
1614.10715	11527.575
1617.41763	11177.475
1620.7259	10899.575
1624.03199	10734.175
1627.33587	10647.975
1630.63757	10686.375
1633.93707	10838.775
1637.23439	11140.775
1640.52951	11600.175
1643.82246	12352.575
1647.11321	13344.275
1650.40179	14174.675
1653.68819	14284.575
1656.97241	13471.675
1660.25446	12282.575
1663.53433	11330.275
1666.81203	10713.975
1670.08756	10317.075
1673.36092	10063.075
1676.63211	9889.875
1679.90115	9774.275
1683.16801	9667.175
1686.43272	9612.875
1689.69527	9567.275
1692.95567	9519.475
1696.2139	9521.675
1699.46999	9536.275
1702.72392	9466.975
1705.97571	9452.775
1709.22535	9391.375
1712.47284	9343.775
1715.71819	9286.975
1718.96139	9248.575
1722.20246	9208.175
1725.44139	9129.375
1728.67818	9092.775
1731.91284	9027.675
1735.14537	9024.975
1738.37576	8979.775
1741.60403	8971.975
1744.83017	8933.675
1748.05418	8908.375
1751.27607	8896.375
1754.49584	8881.075
1757.71349	8866.575
1760.92903	8854.175
1764.14244	8853.375
1767.35375	8868.575
1770.56294	8837.375
1773.77002	8832.775
1776.97499	8811.075
1780.17785	8793.375
1783.37861	8767.775
1786.57727	8758.775
1789.77382	8743.975
1792.96828	8719.175
1796.16064	8722.775
1799.3509	8688.575
1802.53907	8685.375
1805.72514	8655.175
1808.90913	8624.375
1812.09102	8606.775
1815.27083	8583.775
1818.44856	8549.875
1821.6242	8530.275
1824.79776	8544.375
1827.96924	8517.975
1831.13864	8496.975
1834.30597	8509.675
1837.47122	8484.375
1840.6344	8481.175
1843.7955	8484.175
1846.95454	8479.375
1850.11151	8466.275
1853.26642	8460.275
1856.41926	8463.075
1859.57004	8448.475
1862.71876	8428.775
1865.86542	8432.275
1869.01003	8419.475
1872.15258	8420.375
1875.29308	8387.975
1878.43152	8384.875
1881.56792	8373.675
1884.70227	8385.775
1887.83457	8354.975
1890.96482	8344.175
1894.09304	8335.475
1897.21921	8322.575
1900.34335	8337.775
1903.46544	8310.775
1906.58551	8299.475
1909.70353	8296.875
1912.81953	8259.975
1915.93349	8283.375
1919.04543	8241.775
1922.15534	8241.575
1925.26322	8216.675
1928.36908	8205.475
1931.47292	8176.175
1934.57473	8148.775
1937.67453	8135.975
1940.77232	8128.275
1943.86808	8110.375
1946.96184	8093.675
1950.05358	8083.375
1953.14331	8045.875
1956.23103	8034.075
1959.31675	8010.875
1962.40046	7991.275
1965.48217	7957.475
1968.56188	7960.275
1971.63959	7948.975
1974.7153	7917.575
1977.78901	7867.175
1980.86073	7840.875
1983.93046	7809.275
1986.99819	7794.475
1990.06394	7761.375
1993.1277	7738.075
1996.18947	7731.075
1999.24925	7720.175
2002.30706	7678.575
2005.36288	7663.375
2008.41672	7633.775
2011.46859	7626.375
2014.51848	7597.675
2017.56639	7559.475
2020.61233	7557.775
2023.6563	7537.275
2026.6983	7513.075
2029.73833	7511.675
2032.7764	7485.675
2035.8125	7468.975
2038.84664	7449.675
2041.87881	7451.575
2044.90903	7447.875
2047.93729	7404.375
2050.96359	7394.275
2053.98794	7375.675
2057.01034	7375.875
2060.03078	7361.275
2063.04927	7364.475
2066.06582	7365.475
2069.08042	7358.575
2072.09307	7362.075
2075.10378	7345.875
2078.11255	7342.075
2081.11938	7334.475
2084.12426	7327.875
2087.12722	7337.875
2090.12824	7315.375
2093.12732	7331.775
2096.12447	7360.075
2099.11969	7338.275
2102.11299	7323.775
2105.10435	7343.375
2108.09379	7339.975
2111.08131	7354.875
2114.0669	7361.875
2117.05057	7363.775
2120.03233	7369.675
2123.01216	7366.775
2125.99008	7383.975
2128.96609	7395.075
2131.94018	7391.575
2134.91236	7405.175
2137.88263	7384.375
2140.851	7402.275
2143.81746	7408.175
2146.78201	7404.975
2149.74466	7418.075
2152.7054	7401.675
2155.66425	7396.075
2158.6212	7384.475
2161.57625	7398.675
2164.52941	7409.375
2167.48067	7368.575
2170.43004	7390.175
2173.37752	7387.875
2176.32311	7370.775
2179.26681	7359.575
2182.20863	7370.475
2185.14856	7390.075
2188.08661	7373.075
2191.02278	7380.075
2193.95707	7334.175
2196.88948	7345.275
2199.82001	7365.475
2202.74867	7345.075
2205.67545	7354.975
2208.60037	7333.475
2211.52341	7314.475
2214.44458	7322.775
2217.36388	7286.775
2220.28132	7283.375
2223.1969	7254.975
2226.11061	7251.175
2229.02246	7229.575
2231.93245	7220.975
2234.84058	7188.775
2237.74686	7191.475
2240.65128	7183.275
2243.55385	7178.675
2246.45456	7165.375
2249.35343	7163.475
2252.25044	7163.475
2255.14561	7138.975
2258.03893	7135.975
2260.93041	7130.975
2263.82004	7104.575
2266.70783	7105.075
2269.59378	7087.275
2272.4779	7071.675
2275.36017	7056.475
2278.24061	7034.575
2281.11922	7005.275
2283.996	7016.175
2286.87094	7021.675
2289.74405	6991.875
2292.61534	6988.175
2295.4848	6966.275
2298.35243	6964.475
2301.21824	6952.075
2304.08223	6980.175
2306.94439	6947.975
2309.80474	6949.975
2312.66327	6939.175
2315.51999	6931.575
2318.37489	6922.475
2321.22797	6913.875
2324.07925	6909.575
2326.92871	6881.175
2329.77637	6898.175
2332.62222	6880.275
2335.46626	6855.875
2338.3085	6869.175
2341.14893	6837.675
2343.98756	6827.875
2346.8244	6831.675
2349.65943	6813.675
2352.49267	6834.175
2355.32411	6831.475
2358.15376	6838.775
2360.98161	6836.675
2363.80768	6823.475
2366.63195	6824.575
2369.45444	6815.475
2372.27514	6815.675
2375.09405	6796.275
2377.91118	6789.475
2380.72652	6775.575
2383.54009	6764.575
2386.35187	6748.275
2389.16188	6725.075
2391.97011	6696.175
2394.77657	6705.475
2397.58125	6692.975
2400.38416	6673.875
2403.18529	6648.175
2405.98466	6661.175
2408.78226	6640.375
2411.57809	6622.375
2414.37216	6623.475
2417.16446	6607.675
2419.955	6606.575
2422.74378	6610.675
2425.5308	6600.375
2428.31606	6611.675
2431.09956	6609.875
2433.88131	6596.775
2436.6613	6579.075
2439.43954	6586.275
2442.21603	6574.475
2444.99077	6567.675
2447.76377	6576.375
2450.53501	6560.475
2453.30451	6564.075
2456.07226	6550.075
2458.83827	6554.175
2461.60254	6550.875
2464.36507	6530.875
2467.12586	6515.475
2469.88492	6500.875
2472.64224	6518.475
2475.39782	6528.875
2478.15167	6520.575
2480.90379	6526.975
2483.65417	6502.675
2486.40283	6506.975
2489.14976	6498.175
2491.89497	6495.875
2494.63845	6513.075
2497.3802	6502.575
2500.12024	6477.175
2502.85855	6488.975
2505.59514	6485.875
2508.33002	6474.375
2511.06318	6447.775
2513.79462	6435.575
2516.52435	6429.875
2519.25237	6411.975
2521.97867	6392.475
2524.70327	6403.075
2527.42616	6364.275
2530.14734	6377.875
2532.86681	6359.475
2535.58458	6339.975
2538.30065	6333.375
2541.01501	6347.675
2543.72768	6314.575
2546.43864	6330.475
2549.14791	6303.775
2551.85548	6301.375
2554.56136	6292.975
2557.26554	6285.975
2559.96803	6267.275
2562.66883	6279.275
2565.36794	6258.075
2568.06536	6265.675
2570.7611	6250.775
2573.45514	6230.575
2576.14751	6231.275
2578.83819	6206.775
2581.52719	6192.475
2584.21451	6204.875
2586.90015	6194.475
2589.58411	6183.875
2592.2664	6167.575
2594.94701	6143.775
2597.62594	6145.775
2600.30321	6124.675
2602.9788	6125.875
2605.65273	6119.675
2608.32498	6099.475
2610.99557	6091.675
2613.66449	6098.975
2616.33175	6099.375
2618.99734	6075.975
2621.66128	6061.975
2624.32355	6057.975
2626.98416	6064.875
2629.64311	6045.675
2632.30041	6060.775
2634.95605	6036.675
2637.61004	6039.675
2640.26238	6016.675
2642.91306	6004.475
2645.56209	6019.075
2648.20948	5997.375
2650.85521	6006.175
2653.4993	5988.575
2656.14175	5993.975
2658.78255	5997.575
2661.42171	5982.975
2664.05923	5991.275
2666.6951	5984.075
2669.32934	5977.075
2671.96194	5979.775
2674.59291	6002.575
2677.22224	5993.375
2679.84993	5989.775
2682.476	5992.175
2685.10043	5990.675
2687.72324	5980.175
2690.34441	5978.475
2692.96396	5968.675
2695.58188	5974.175
2698.19818	5966.075
2700.81285	5984.875
2703.4259	5987.275
2706.03733	5997.075
2708.64714	5978.575
2711.25533	5990.175
2713.86191	5994.575
2716.46687	5982.875
2719.07021	5993.675
2721.67194	6001.175
2724.27206	5978.475
2726.87057	5985.475
2729.46747	5960.275
2732.06276	5969.375
2734.65644	5960.275
2737.24852	5975.375
2739.83899	5954.375
2742.42786	5937.775
2745.01513	5952.775
2747.60079	5937.175
2750.18486	5943.375
2752.76733	5939.075
2755.3482	5920.475
2757.92747	5916.675
2760.50515	5920.575
2763.08123	5908.375
2765.65573	5901.975
2768.22863	5885.975
2770.79994	5876.575
2773.36967	5887.075
2775.9378	5869.675
2778.50435	5861.075
2781.06932	5859.675
2783.6327	5849.475
2786.1945	5844.075
2788.75471	5837.975
2791.31335	5804.475
2793.87041	5810.575
2796.42589	5787.775
2798.97979	5786.775
2801.53212	5765.875
2804.08288	5760.075
2806.63206	5753.675
2809.17967	5737.675
2811.72571	5725.375
2814.27018	5742.375
2816.81308	5725.775
2819.35442	5730.175
2821.89419	5694.975
2824.43239	5713.575
2826.96904	5719.575
2829.50412	5690.275
2832.03763	5682.875
2834.56959	5683.775
2837.1	5693.275
2839.62884	5695.475
2842.15613	5670.575
2844.68186	5708.575
2847.20604	5705.075
2849.72867	5688.475
2852.24974	5681.575
2854.76927	5684.475
2857.28724	5674.375
2859.80367	5682.075
2862.31855	5678.775
2864.83189	5672.875
2867.34368	5657.575
2869.85393	5670.175
2872.36264	5672.675
2874.8698	5662.975
2877.37543	5679.475
2879.87952	5669.875
2882.38207	5672.775
2884.88308	5651.075
2887.38256	5648.875
2889.88051	5654.075
2892.37692	5660.375
2894.8718	5657.975
2897.36515	5653.475
2899.85698	5654.275
2902.34727	5665.575
2904.83604	5644.375
2907.32328	5659.375
2909.809	5638.575
2912.29319	5670.975
2914.77587	5672.375
2917.25702	5669.575
2919.73665	5666.375
2922.21476	5668.375
2924.69136	5668.775
2927.16644	5655.575
2929.64	5661.075
2932.11205	5652.175
2934.58258	5615.175
2937.05161	5629.975
2939.51912	5621.175
2941.98513	5634.675
2944.44962	5612.375
2946.91261	5609.675
2949.37409	5604.075
2951.83407	5610.375
2954.29254	5600.375
2956.74951	5590.775
2959.20498	5593.675
2961.65895	5595.075
2964.11142	5585.375
2966.56239	5565.375
2969.01186	5585.275
2971.45984	5560.875
2973.90632	5550.875
2976.35131	5529.175
2978.7948	5528.575
2981.23681	5524.175
2983.67732	5516.175
2986.11635	5491.975
2988.55388	5507.875
2990.98993	5492.575
2993.4245	5483.775
2995.85758	5489.275
2998.28917	5474.575
3000.71928	5471.175
3003.14791	5454.075
3005.57506	5448.875
3008.00073	5459.675
3010.42493	5451.875
3012.84764	5448.175
3015.26888	5442.075
3017.68865	5435.875
3020.10694	5445.975
3022.52376	5413.775
3024.9391	5407.575
3027.35298	5400.575
3029.76539	5390.175
3032.17632	5384.175
3034.5858	5394.575
3036.9938	5382.775
3039.40034	5359.375
3041.80542	5361.175
3044.20903	5372.475
3046.61118	5356.275
3049.01187	5355.075
3051.4111	5343.775
3053.80888	5339.775
3056.20519	5352.575
3058.60005	5330.575
3060.99345	5330.475
3063.3854	5307.075
3065.7759	5310.775
3068.16494	5318.975
3070.55254	5300.675
3072.93868	5312.075
3075.32338	5299.675
3077.70662	5279.175
3080.08842	5274.475
3082.46878	5289.075
3084.84769	5289.075
3087.22515	5308.775
3089.60118	5289.475
3091.97576	5279.775
3094.3489	5282.475
3096.72061	5298.775
3099.09087	5289.075
3101.4597	5303.375
3103.82709	5315.575
3106.19305	5300.175
3108.55757	5296.875
3110.92066	5280.575
3113.28232	5278.075
3115.64255	5255.175
3118.00134	5259.575
3120.35871	5278.575
3122.71466	5265.475
3125.06917	5262.675
3127.42226	5260.275
3129.77393	5267.075
3132.12417	5268.175
3134.47299	5282.875
3136.82039	5271.375
3139.16636	5284.075
3141.51092	5287.275
3143.85406	5294.375
3146.19579	5287.575
3148.53609	5309.775
3150.87499	5319.075
3153.21246	5324.775
3155.54853	5338.575
3157.88318	5336.075
3160.21642	5344.975
3162.54826	5347.575
3164.87868	5337.075
3167.2077	5339.875
3169.5353	5346.575
3171.86151	5339.075
3174.18631	5348.875
3176.5097	5340.475
3178.83169	5339.775
3181.15228	5358.375
3183.47147	5349.175
3185.78926	5336.475
3188.10565	5319.475
3190.42065	5337.075
3192.73424	5346.975
