Data from AgNPs_FTO_APTES_UA_10uM_R6G_10uM_NaF_0.1M_Addition_RamanShift__27__13-41-27-332.txt Node

Date: Fri Dec 17 13:41:27 GMT 2021
User: TCL
Spectrometer: QEP01345
Trigger mode: 4
Integration Time (sec): 7.000000E0
Scans to average: 10
Electric dark correction enabled: true
Nonlinearity correction enabled: false
Boxcar width: 0
XAxis mode: Raman Shifts
Number of Pixels in Spectrum: 1044
>>>>>Begin Spectral Data<<<<<
46.04893	-0.1875
50.45542	-0.6875
54.85868	-1.5875
59.25871	0.1125
63.6555	74.8125
68.04907	79.8125
72.43941	81.8125
76.82654	87.6125
81.21044	88.6125
85.59113	93.6125
89.96862	96.5125
94.34289	93.6125
98.71396	98.6125
103.08183	100.9125
107.4465	104.2125
111.80798	106.4125
116.16626	112.9125
120.52136	108.1125
124.87327	121.2125
129.222	124.0125
133.56755	127.6125
137.90993	136.1125
142.24913	150.9125
146.58517	161.8125
150.91804	185.3125
155.24774	221.0125
159.57429	275.4125
163.89768	344.6125
168.21792	447.5125
172.53501	605.8125
176.84895	836.9125
181.15975	1174.1125
185.46741	1643.9125
189.77193	2251.0125
194.07331	3024.4125
198.37157	3888.0125
202.6667	4827.8125
206.9587	5728.7125
211.24758	6636.5125
215.53334	7546.9125
219.81599	8540.9125
224.09553	9614.1125
228.37195	10826.2125
232.64527	12186.3125
236.91549	13589.8125
241.18261	14918.6125
245.44663	16235.6125
249.70755	17287.5125
253.96539	18233.2125
258.22014	19089.2125
262.4718	19769.9125
266.72039	20354.6125
270.96589	20618.1125
275.20832	20659.9125
279.44768	20512.7125
283.68397	20279.7125
287.91719	19981.7125
292.14735	19925.7125
296.37445	19982.5125
300.59849	20255.5125
304.81948	20590.0125
309.03742	20843.4125
313.25231	20720.0125
317.46415	20145.2125
321.67296	19324.4125
325.87872	18611.0125
330.08145	18348.4125
334.28114	18386.5125
338.47781	18637.3125
342.67145	19012.5125
346.86207	19579.0125
351.04966	20254.9125
355.23424	21082.8125
359.4158	21704.1125
363.59435	22197.9125
367.76989	22446.0125
371.94243	22602.8125
376.11196	22645.5125
380.27849	22703.8125
384.44203	22777.1125
388.60257	22738.0125
392.76012	22787.1125
396.91468	22992.2125
401.06626	23442.8125
405.21485	23794.3125
409.36047	23690.3125
413.50311	23156.8125
417.64277	22596.7125
421.77947	22358.6125
425.9132	22296.5125
430.04396	22391.7125
434.17176	22516.3125
438.2966	22784.1125
442.41849	23210.2125
446.53742	23767.6125
450.6534	24370.6125
454.76644	24872.0125
458.87653	25076.9125
462.98368	24965.0125
467.08789	24714.1125
471.18916	24298.0125
475.2875	23811.1125
479.38291	23486.2125
483.4754	23238.6125
487.56496	23053.9125
491.6516	22905.1125
495.73531	22766.9125
499.81612	22757.9125
503.89401	22859.6125
507.96899	22994.3125
512.04106	23201.9125
516.11023	23442.1125
520.1765	23549.6125
524.23987	23496.0125
528.30034	23342.7125
532.35792	23086.0125
536.41261	22796.7125
540.46441	22518.7125
544.51333	22416.3125
548.55936	22539.5125
552.60252	22779.6125
556.64279	23112.6125
560.6802	23270.4125
564.71473	23419.8125
568.7464	23811.2125
572.7752	24207.9125
576.80114	24089.9125
580.82422	23921.0125
584.84444	23971.2125
588.86181	24089.3125
592.87633	24231.8125
596.888	24508.7125
600.89682	25050.2125
604.9028	26602.5125
608.90594	30665.6125
612.90624	35467.1125
616.90371	34361.2125
620.89834	27851.2125
624.89015	24721.5125
628.87913	24071.9125
632.86528	24085.7125
636.84862	24167.4125
640.82913	23931.1125
644.80683	23388.9125
648.78172	22926.3125
652.75379	22949.9125
656.72306	23374.3125
660.68952	23981.9125
664.65319	23933.8125
668.61405	23465.3125
672.57211	23199.4125
676.52738	23164.5125
680.47986	23182.6125
684.42955	23138.9125
688.37646	23092.7125
692.32058	23211.1125
696.26192	23364.3125
700.20048	23552.5125
704.13626	23642.2125
708.06928	23566.8125
711.99952	23406.1125
715.927	23344.4125
719.85171	23381.2125
723.77365	23365.3125
727.69284	23252.1125
731.60928	23141.2125
735.52295	23143.2125
739.43388	23254.7125
743.34206	23379.3125
747.24749	23466.3125
751.15017	23632.5125
755.05012	23949.1125
758.94733	24519.0125
762.8418	25749.3125
766.73354	27892.5125
770.62254	30207.2125
774.50882	31431.1125
778.39237	30488.5125
782.27321	27990.4125
786.15132	25739.9125
790.02671	24393.4125
793.89938	23797.1125
797.76935	23568.4125
801.6366	23448.5125
805.50115	23443.4125
809.36299	23403.7125
813.22213	23397.5125
817.07857	23343.9125
820.93231	23327.2125
824.78336	23314.8125
828.63172	23413.7125
832.47738	23420.9125
836.32036	23473.5125
840.16066	23524.4125
843.99827	23570.1125
847.8332	23544.7125
851.66546	23437.5125
855.49504	23434.1125
859.32195	23381.9125
863.1462	23385.6125
866.96777	23362.9125
870.78668	23299.1125
874.60293	23357.0125
878.41652	23435.9125
882.22745	23498.1125
886.03573	23568.8125
889.84136	23548.7125
893.64433	23459.7125
897.44466	23343.4125
901.24235	23321.1125
905.0374	23269.9125
908.8298	23258.0125
912.61957	23231.5125
916.40671	23389.2125
920.19121	23504.8125
923.97308	23667.9125
927.75233	23853.4125
931.52895	23952.6125
935.30295	23825.2125
939.07433	23485.6125
942.84309	23170.7125
946.60924	23029.7125
950.37278	22930.0125
954.13371	22795.2125
957.89203	22673.7125
961.64774	22650.5125
965.40086	22573.3125
969.15137	22530.1125
972.89929	22441.8125
976.64461	22467.8125
980.38733	22511.6125
984.12747	22589.4125
987.86502	22757.1125
991.59999	22946.9125
995.33237	23275.1125
999.06217	23808.4125
1002.78939	24464.0125
1006.51404	25047.8125
1010.23611	25455.9125
1013.95561	25730.7125
1017.67255	25858.1125
1021.38692	25739.6125
1025.09872	25610.3125
1028.80796	25715.3125
1032.51465	26113.6125
1036.21877	26449.6125
1039.92035	26419.7125
1043.61937	26135.9125
1047.31584	25589.4125
1051.00976	24997.9125
1054.70114	24697.8125
1058.38998	24623.3125
1062.07627	24695.0125
1065.76003	24851.4125
1069.44126	24945.2125
1073.11995	25157.9125
1076.79611	25263.5125
1080.46974	25421.6125
1084.14085	25625.9125
1087.80943	25882.4125
1091.47549	25938.4125
1095.13903	25735.3125
1098.80005	25223.0125
1102.45857	24838.2125
1106.11456	24684.7125
1109.76805	24713.4125
1113.41903	24971.6125
1117.06751	25340.1125
1120.71348	25775.4125
1124.35696	26262.9125
1127.99793	26717.9125
1131.63641	26851.5125
1135.2724	26405.7125
1138.90589	25904.4125
1142.5369	25548.5125
1146.16542	25234.4125
1149.79145	25030.1125
1153.415	25028.7125
1157.03607	25186.9125
1160.65467	25477.4125
1164.27079	26085.9125
1167.88443	26903.3125
1171.49561	28136.9125
1175.10432	30037.5125
1178.71056	32609.6125
1182.31434	35026.7125
1185.91565	36225.8125
1189.51451	36149.8125
1193.11091	34858.2125
1196.70485	33093.0125
1200.29634	31592.1125
1203.88538	30406.5125
1207.47197	29401.2125
1211.05612	28583.4125
1214.63782	28146.1125
1218.21708	28029.0125
1221.79391	28155.7125
1225.36829	28318.2125
1228.94024	28445.5125
1232.50976	28553.2125
1236.07685	28654.1125
1239.6415	28611.2125
1243.20374	28589.9125
1246.76355	28620.9125
1250.32093	28848.0125
1253.8759	29299.0125
1257.42845	30025.1125
1260.97859	30640.1125
1264.52631	31071.0125
1268.07163	31649.1125
1271.61453	32284.5125
1275.15503	32979.0125
1278.69312	33639.4125
1282.22882	34162.6125
1285.76211	34721.4125
1289.29301	35282.4125
1292.82151	35929.5125
1296.34761	36606.1125
1299.87133	37734.5125
1303.39266	39435.5125
1306.9116	41995.9125
1310.42815	44995.2125
1313.94233	46939.2125
1317.45412	46908.6125
1320.96354	45440.0125
1324.47058	43647.5125
1327.97525	41917.2125
1331.47754	40825.6125
1334.97747	40603.0125
1338.47502	41015.8125
1341.97022	41659.1125
1345.46305	42128.3125
1348.95352	42587.8125
1352.44163	43253.9125
1355.92738	44871.5125
1359.41078	47838.8125
1362.89183	51061.7125
1366.37053	50507.8125
1369.84688	45597.0125
1373.32088	40270.6125
1376.79254	36723.0125
1380.26186	35012.9125
1383.72883	34149.6125
1387.19347	33460.2125
1390.65578	32715.9125
1394.11575	32285.4125
1397.57339	32294.5125
1401.0287	32605.5125
1404.48168	33242.2125
1407.93234	33916.3125
1411.38068	34601.2125
1414.82669	34732.7125
1418.27039	34287.1125
1421.71177	33561.1125
1425.15083	32951.2125
1428.58758	32549.7125
1432.02203	32524.9125
1435.45416	32545.0125
1438.88399	32672.7125
1442.31151	32739.6125
1445.73673	32882.1125
1449.15965	33053.1125
1452.58027	33083.1125
1455.9986	32909.2125
1459.41463	32807.2125
1462.82837	33110.7125
1466.23982	33530.2125
1469.64898	34109.7125
1473.05586	34555.8125
1476.46045	34831.3125
1479.86276	35120.5125
1483.26279	35546.8125
1486.66054	36067.4125
1490.05602	36652.7125
1493.44922	37477.2125
1496.84016	38455.8125
1500.22882	39721.4125
1503.61521	41481.0125
1506.99934	43697.6125
1510.38121	45790.9125
1513.76081	46622.9125
1517.13816	45170.0125
1520.51324	42113.4125
1523.88607	39056.7125
1527.25665	36824.3125
1530.62498	35532.1125
1533.99105	34764.1125
1537.35488	34309.5125
1540.71647	34067.6125
1544.07581	33912.6125
1547.4329	33934.9125
1550.78776	33920.5125
1554.14038	33950.9125
1557.49077	34072.3125
1560.83892	34283.5125
1564.18484	34397.1125
1567.52853	34500.4125
1570.86999	34601.6125
1574.20922	34759.1125
1577.54624	34825.9125
1580.88103	34378.5125
1584.2136	33738.5125
1587.54395	33689.2125
1590.87208	34658.3125
1594.19801	36304.3125
1597.52172	38264.0125
1600.84321	39225.0125
1604.16251	38487.8125
1607.47959	36498.8125
1610.79447	34257.4125
1614.10715	32116.6125
1617.41763	30408.9125
1620.7259	29314.4125
1624.03199	28832.5125
1627.33587	28942.7125
1630.63757	29602.5125
1633.93707	30770.9125
1637.23439	32372.3125
1640.52951	34348.1125
1643.82246	36251.7125
1647.11321	37838.3125
1650.40179	38448.6125
1653.68819	37090.5125
1656.97241	33826.0125
1660.25446	30401.3125
1663.53433	27930.8125
1666.81203	26387.7125
1670.08756	25436.8125
1673.36092	24865.0125
1676.63211	24443.5125
1679.90115	24114.6125
1683.16801	23887.7125
1686.43272	23759.7125
1689.69527	23670.3125
1692.95567	23547.5125
1696.2139	23516.1125
1699.46999	23471.9125
1702.72392	23440.1125
1705.97571	23415.9125
1709.22535	23398.0125
1712.47284	23378.9125
1715.71819	23386.0125
1718.96139	23327.0125
1722.20246	23294.4125
1725.44139	23252.3125
1728.67818	23163.5125
1731.91284	23057.5125
1735.14537	22973.7125
1738.37576	22942.6125
1741.60403	22883.7125
1744.83017	22808.3125
1748.05418	22777.8125
1751.27607	22772.2125
1754.49584	22724.4125
1757.71349	22733.3125
1760.92903	22735.3125
1764.14244	22761.1125
1767.35375	22722.2125
1770.56294	22730.5125
1773.77002	22678.3125
1776.97499	22719.3125
1780.17785	22664.7125
1783.37861	22641.5125
1786.57727	22620.6125
1789.77382	22592.7125
1792.96828	22619.5125
1796.16064	22596.9125
1799.3509	22561.4125
1802.53907	22545.7125
1805.72514	22503.8125
1808.90913	22487.3125
1812.09102	22422.6125
1815.27083	22417.2125
1818.44856	22386.8125
1821.6242	22331.4125
1824.79776	22349.3125
1827.96924	22344.9125
1831.13864	22344.3125
1834.30597	22316.0125
1837.47122	22359.4125
1840.6344	22323.8125
1843.7955	22344.7125
1846.95454	22373.1125
1850.11151	22350.3125
1853.26642	22363.0125
1856.41926	22311.3125
1859.57004	22410.2125
1862.71876	22414.4125
1865.86542	22439.1125
1869.01003	22389.9125
1872.15258	22414.5125
1875.29308	22444.4125
1878.43152	22453.0125
1881.56792	22460.4125
1884.70227	22524.0125
1887.83457	22530.0125
1890.96482	22503.1125
1894.09304	22488.4125
1897.21921	22496.4125
1900.34335	22511.2125
1903.46544	22532.1125
1906.58551	22530.1125
1909.70353	22502.5125
1912.81953	22497.8125
1915.93349	22485.6125
1919.04543	22478.0125
1922.15534	22422.3125
1925.26322	22402.4125
1928.36908	22346.8125
1931.47292	22315.5125
1934.57473	22228.4125
1937.67453	22168.1125
1940.77232	22101.7125
1943.86808	22001.9125
1946.96184	21941.0125
1950.05358	21862.4125
1953.14331	21782.0125
1956.23103	21700.2125
1959.31675	21650.9125
1962.40046	21572.7125
1965.48217	21531.9125
1968.56188	21478.0125
1971.63959	21414.8125
1974.7153	21383.5125
1977.78901	21289.2125
1980.86073	21228.5125
1983.93046	21200.5125
1986.99819	21114.1125
1990.06394	21052.7125
1993.1277	21057.9125
1996.18947	20934.9125
1999.24925	20917.4125
2002.30706	20847.6125
2005.36288	20764.4125
2008.41672	20753.7125
2011.46859	20724.6125
2014.51848	20672.1125
2017.56639	20606.1125
2020.61233	20582.1125
2023.6563	20543.0125
2026.6983	20482.8125
2029.73833	20460.5125
2032.7764	20376.6125
2035.8125	20353.3125
2038.84664	20349.7125
2041.87881	20312.6125
2044.90903	20283.4125
2047.93729	20261.4125
2050.96359	20267.5125
2053.98794	20208.8125
2057.01034	20160.9125
2060.03078	20190.4125
2063.04927	20168.0125
2066.06582	20162.0125
2069.08042	20153.9125
2072.09307	20148.7125
2075.10378	20132.3125
2078.11255	20061.8125
2081.11938	20113.3125
2084.12426	20081.3125
2087.12722	20078.0125
2090.12824	20071.8125
2093.12732	20082.5125
2096.12447	20111.9125
2099.11969	20074.7125
2102.11299	20114.4125
2105.10435	20072.4125
2108.09379	20141.8125
2111.08131	20146.1125
2114.0669	20132.3125
2117.05057	20145.4125
2120.03233	20183.9125
2123.01216	20209.5125
2125.99008	20244.0125
2128.96609	20242.8125
2131.94018	20265.2125
2134.91236	20253.2125
2137.88263	20288.9125
2140.851	20325.1125
2143.81746	20339.9125
2146.78201	20371.9125
2149.74466	20375.6125
2152.7054	20355.2125
2155.66425	20331.2125
2158.6212	20349.5125
2161.57625	20347.6125
2164.52941	20344.1125
2167.48067	20328.5125
2170.43004	20335.9125
2173.37752	20336.0125
2176.32311	20351.6125
2179.26681	20356.5125
2182.20863	20359.6125
2185.14856	20394.2125
2188.08661	20354.6125
2191.02278	20338.8125
2193.95707	20363.8125
2196.88948	20343.1125
2199.82001	20395.9125
2202.74867	20333.3125
2205.67545	20360.8125
2208.60037	20321.1125
2211.52341	20322.6125
2214.44458	20316.3125
2217.36388	20266.5125
2220.28132	20232.0125
2223.1969	20178.7125
2226.11061	20194.6125
2229.02246	20141.5125
2231.93245	20100.9125
2234.84058	20065.0125
2237.74686	20034.2125
2240.65128	20068.3125
2243.55385	19990.8125
2246.45456	20001.6125
2249.35343	19992.4125
2252.25044	19933.7125
2255.14561	19867.5125
2258.03893	19928.0125
2260.93041	19866.5125
2263.82004	19837.0125
2266.70783	19790.2125
2269.59378	19750.8125
2272.4779	19708.9125
2275.36017	19676.5125
2278.24061	19680.8125
2281.11922	19590.9125
2283.996	19531.3125
2286.87094	19585.5125
2289.74405	19512.3125
2292.61534	19516.0125
2295.4848	19483.5125
2298.35243	19496.4125
2301.21824	19487.7125
2304.08223	19504.1125
2306.94439	19530.3125
2309.80474	19531.9125
2312.66327	19515.5125
2315.51999	19487.0125
2318.37489	19503.7125
2321.22797	19462.9125
2324.07925	19440.9125
2326.92871	19441.6125
2329.77637	19433.0125
2332.62222	19417.5125
2335.46626	19401.1125
2338.3085	19370.6125
2341.14893	19411.4125
2343.98756	19424.4125
2346.8244	19382.8125
2349.65943	19419.3125
2352.49267	19382.1125
2355.32411	19375.2125
2358.15376	19382.8125
2360.98161	19361.6125
2363.80768	19323.6125
2366.63195	19326.5125
2369.45444	19277.3125
2372.27514	19262.6125
2375.09405	19250.6125
2377.91118	19204.6125
2380.72652	19151.5125
2383.54009	19104.3125
2386.35187	19070.4125
2389.16188	19044.3125
2391.97011	19013.7125
2394.77657	18973.6125
2397.58125	18959.4125
2400.38416	18908.1125
2403.18529	18863.9125
2405.98466	18837.8125
2408.78226	18809.7125
2411.57809	18806.3125
2414.37216	18795.8125
2417.16446	18748.3125
2419.955	18687.4125
2422.74378	18698.6125
2425.5308	18699.3125
2428.31606	18670.1125
2431.09956	18681.9125
2433.88131	18629.5125
2436.6613	18643.1125
2439.43954	18612.2125
2442.21603	18614.7125
2444.99077	18582.7125
2447.76377	18585.4125
2450.53501	18558.2125
2453.30451	18583.1125
2456.07226	18552.7125
2458.83827	18539.7125
2461.60254	18532.8125
2464.36507	18529.9125
2467.12586	18531.0125
2469.88492	18534.0125
2472.64224	18530.8125
2475.39782	18533.0125
2478.15167	18549.2125
2480.90379	18518.3125
2483.65417	18529.8125
2486.40283	18527.9125
2489.14976	18559.7125
2491.89497	18511.9125
2494.63845	18584.4125
2497.3802	18554.3125
2500.12024	18565.2125
2502.85855	18554.1125
2505.59514	18542.1125
2508.33002	18520.1125
2511.06318	18472.5125
2513.79462	18456.2125
2516.52435	18418.7125
2519.25237	18424.5125
2521.97867	18406.0125
2524.70327	18384.4125
2527.42616	18343.1125
2530.14734	18337.9125
2532.86681	18292.6125
2535.58458	18301.9125
2538.30065	18281.5125
2541.01501	18260.5125
2543.72768	18234.5125
2546.43864	18241.6125
2549.14791	18180.9125
2551.85548	18182.1125
2554.56136	18129.9125
2557.26554	18136.6125
2559.96803	18148.6125
2562.66883	18119.0125
2565.36794	18107.5125
2568.06536	18098.5125
2570.7611	18065.8125
2573.45514	18072.1125
2576.14751	18056.9125
2578.83819	18046.8125
2581.52719	18034.1125
2584.21451	18013.0125
2586.90015	18018.4125
2589.58411	17956.3125
2592.2664	17966.9125
2594.94701	17927.0125
2597.62594	17923.5125
2600.30321	17886.5125
2602.9788	17902.8125
2605.65273	17881.6125
2608.32498	17885.5125
2610.99557	17862.0125
2613.66449	17865.0125
2616.33175	17847.5125
2618.99734	17865.5125
2621.66128	17858.1125
2624.32355	17832.4125
2626.98416	17863.1125
2629.64311	17841.7125
2632.30041	17861.1125
2634.95605	17813.5125
2637.61004	17791.5125
2640.26238	17782.0125
2642.91306	17774.9125
2645.56209	17772.8125
2648.20948	17728.2125
2650.85521	17701.6125
2653.4993	17729.2125
2656.14175	17674.2125
2658.78255	17724.7125
2661.42171	17730.2125
2664.05923	17753.2125
2666.6951	17737.5125
2669.32934	17732.1125
2671.96194	17757.3125
2674.59291	17759.6125
2677.22224	17764.6125
2679.84993	17800.6125
2682.476	17787.7125
2685.10043	17788.7125
2687.72324	17773.5125
2690.34441	17773.0125
2692.96396	17756.3125
2695.58188	17783.3125
2698.19818	17740.0125
2700.81285	17790.5125
2703.4259	17740.3125
2706.03733	17777.7125
2708.64714	17782.6125
2711.25533	17803.7125
2713.86191	17777.3125
2716.46687	17808.6125
2719.07021	17761.2125
2721.67194	17783.2125
2724.27206	17754.7125
2726.87057	17773.6125
2729.46747	17783.1125
2732.06276	17768.4125
2734.65644	17773.7125
2737.24852	17779.8125
2739.83899	17756.7125
2742.42786	17752.3125
2745.01513	17715.1125
2747.60079	17737.1125
2750.18486	17719.7125
2752.76733	17760.1125
2755.3482	17726.6125
2757.92747	17709.0125
2760.50515	17685.5125
2763.08123	17682.6125
2765.65573	17665.7125
2768.22863	17651.8125
2770.79994	17640.3125
2773.36967	17614.8125
2775.9378	17587.9125
2778.50435	17592.1125
2781.06932	17551.6125
2783.6327	17569.8125
2786.1945	17550.8125
2788.75471	17546.2125
2791.31335	17463.0125
2793.87041	17486.5125
2796.42589	17433.0125
2798.97979	17410.8125
2801.53212	17383.3125
2804.08288	17363.1125
2806.63206	17311.4125
2809.17967	17334.1125
2811.72571	17256.3125
2814.27018	17311.5125
2816.81308	17264.9125
2819.35442	17237.6125
2821.89419	17210.6125
2824.43239	17214.1125
2826.96904	17187.1125
2829.50412	17215.0125
2832.03763	17197.5125
2834.56959	17173.6125
2837.1	17152.3125
2839.62884	17167.7125
2842.15613	17159.2125
2844.68186	17213.3125
2847.20604	17169.8125
2849.72867	17210.3125
2852.24974	17213.2125
2854.76927	17183.3125
2857.28724	17128.8125
2859.80367	17141.6125
2862.31855	17114.1125
2864.83189	17095.3125
2867.34368	17057.5125
2869.85393	17101.2125
2872.36264	17047.7125
2874.8698	17059.4125
2877.37543	17083.2125
2879.87952	17054.8125
2882.38207	17085.7125
2884.88308	17084.4125
2887.38256	17084.4125
2889.88051	17073.9125
2892.37692	17102.4125
2894.8718	17088.7125
2897.36515	17093.1125
2899.85698	17084.5125
2902.34727	17119.4125
2904.83604	17119.3125
2907.32328	17154.2125
2909.809	17114.6125
2912.29319	17134.2125
2914.77587	17117.2125
2917.25702	17110.6125
2919.73665	17102.2125
2922.21476	17103.9125
2924.69136	17085.3125
2927.16644	17100.3125
2929.64	17071.9125
2932.11205	17013.7125
2934.58258	16971.7125
2937.05161	17024.7125
2939.51912	17004.8125
2941.98513	16986.1125
2944.44962	16933.9125
2946.91261	16870.9125
2949.37409	16917.1125
2951.83407	16902.3125
2954.29254	16880.3125
2956.74951	16863.9125
2959.20498	16858.2125
2961.65895	16811.1125
2964.11142	16833.6125
2966.56239	16765.3125
2969.01186	16750.3125
2971.45984	16712.2125
2973.90632	16681.7125
2976.35131	16664.8125
2978.7948	16621.7125
2981.23681	16578.2125
2983.67732	16553.1125
2986.11635	16520.7125
2988.55388	16470.0125
2990.98993	16455.0125
2993.4245	16435.8125
2995.85758	16408.6125
2998.28917	16346.7125
3000.71928	16342.9125
3003.14791	16318.3125
3005.57506	16319.9125
3008.00073	16248.9125
3010.42493	16240.2125
3012.84764	16217.7125
3015.26888	16246.0125
3017.68865	16167.5125
3020.10694	16179.0125
3022.52376	16149.2125
3024.9391	16142.3125
