Data from AgNPs_FTO_APTES_UA_100uM_R6G_10uM_NaF_0.1M_Addition_RamanShift__0__15-17-07-440.txt Node

Date: Fri Dec 17 15:17:07 GMT 2021
User: TCL
Spectrometer: QEP01345
Trigger mode: 4
Integration Time (sec): 7.000000E0
Scans to average: 10
Electric dark correction enabled: true
Nonlinearity correction enabled: false
Boxcar width: 0
XAxis mode: Raman Shifts
Number of Pixels in Spectrum: 1044
>>>>>Begin Spectral Data<<<<<
46.04893	0.3
50.45542	-0.3
54.85868	-1.9
59.25871	1.5
63.6555	62.4
68.04907	66.6
72.43941	71.9
76.82654	76
81.21044	76.3
85.59113	80.6
89.96862	86.4
94.34289	85.2
98.71396	91.7
103.08183	92.5
107.4465	95.4
111.80798	95.6
116.16626	102.8
120.52136	98.5
124.87327	106
129.222	113.3
133.56755	112.8
137.90993	119.2
142.24913	129.1
146.58517	139.7
150.91804	157.9
155.24774	185.3
159.57429	226.2
163.89768	285.5
168.21792	370.5
172.53501	492.1
176.84895	671.7
181.15975	947.8
185.46741	1324.9
189.77193	1817.7
194.07331	2423.9
198.37157	3134.5
202.6667	3873.9
206.9587	4601.8
211.24758	5337.9
215.53334	6052.3
219.81599	6822.8
224.09553	7669.7
228.37195	8597.1
232.64527	9644
236.91549	10759.7
241.18261	11867.8
245.44663	12883.4
249.70755	13788.1
253.96539	14581.2
258.22014	15239.8
262.4718	15777.5
266.72039	16171
270.96589	16387.5
275.20832	16378.5
279.44768	16281.5
283.68397	16034.5
287.91719	15823.2
292.14735	15734.4
296.37445	15662.5
300.59849	15794.3
304.81948	15931
309.03742	15960.5
313.25231	15837.7
317.46415	15477.1
321.67296	15054.1
325.87872	14670.3
330.08145	14526.8
334.28114	14508.5
338.47781	14638.8
342.67145	14836.5
346.86207	15073.3
351.04966	15424.8
355.23424	15806.2
359.4158	16109
363.59435	16387.4
367.76989	16577.9
371.94243	16699.5
376.11196	16804.3
380.27849	16873.4
384.44203	16912
388.60257	17009.9
392.76012	17032
396.91468	17242.4
401.06626	17461.9
405.21485	17608.3
409.36047	17541.7
413.50311	17228.7
417.64277	16899.5
421.77947	16681.5
425.9132	16647.1
430.04396	16641.8
434.17176	16709.7
438.2966	16840.1
442.41849	17011.6
446.53742	17296.7
450.6534	17570.5
454.76644	17810
458.87653	17918.5
462.98368	17943.5
467.08789	17871.4
471.18916	17747.2
475.2875	17598.3
479.38291	17431.2
483.4754	17343.8
487.56496	17193.8
491.6516	17073.5
495.73531	17005.9
499.81612	16986.3
503.89401	17048
507.96899	17158.9
512.04106	17176
516.11023	17243.1
520.1765	17236.2
524.23987	17193.4
528.30034	17094.1
532.35792	17024.8
536.41261	16839.7
540.46441	16688.3
544.51333	16670.4
548.55936	16746.5
552.60252	16972.3
556.64279	17215.4
560.6802	17387.6
564.71473	17444.8
568.7464	17602.1
572.7752	17778.5
576.80114	17836.9
580.82422	17970.4
584.84444	18109.4
588.86181	18337.3
592.87633	18422.5
596.888	18489
600.89682	18580.4
604.9028	19310.9
608.90594	21301.4
612.90624	23538
616.90371	22607
620.89834	19098.1
624.89015	17405.2
628.87913	17166.6
632.86528	17322
636.84862	17517.4
640.82913	17429.9
644.80683	17076.3
648.78172	16764.1
652.75379	16693.8
656.72306	16877.3
660.68952	17151.7
664.65319	17058.6
668.61405	16734.7
672.57211	16611.3
676.52738	16640.4
680.47986	16680.6
684.42955	16577.2
688.37646	16534.5
692.32058	16572.2
696.26192	16642.3
700.20048	16793
704.13626	16888.4
708.06928	16899.6
711.99952	16809.6
715.927	16808.5
719.85171	16783.6
723.77365	16803.8
727.69284	16694.3
731.60928	16592.6
735.52295	16522.2
739.43388	16529.2
743.34206	16578.6
747.24749	16614.8
751.15017	16657.1
755.05012	16819.5
758.94733	17120.5
762.8418	17888.2
766.73354	19170.9
770.62254	20582.5
774.50882	21260.2
778.39237	20590.7
782.27321	19124.2
786.15132	17839.6
790.02671	17057.4
793.89938	16706.1
797.76935	16502.1
801.6366	16441.6
805.50115	16360.2
809.36299	16294.7
813.22213	16293.1
817.07857	16277.2
820.93231	16241.9
824.78336	16204.2
828.63172	16200.8
832.47738	16139.3
836.32036	16166.1
840.16066	16111.5
843.99827	16122.7
847.8332	16139.1
851.66546	16090.5
855.49504	16123.9
859.32195	16086.1
863.1462	16091.3
866.96777	16093.8
870.78668	16075.5
874.60293	16063.1
878.41652	16112
882.22745	16139.2
886.03573	16202.8
889.84136	16215.4
893.64433	16185
897.44466	16141.8
901.24235	16084.3
905.0374	16031.1
908.8298	15977.2
912.61957	15959.9
916.40671	16017.4
920.19121	16093.3
923.97308	16185.7
927.75233	16213.4
931.52895	16179.9
935.30295	16092.3
939.07433	15880.4
942.84309	15694.1
946.60924	15581
950.37278	15501.7
954.13371	15452.1
957.89203	15424.2
961.64774	15436.5
965.40086	15401
969.15137	15365.7
972.89929	15346
976.64461	15344.1
980.38733	15345.6
984.12747	15372.3
987.86502	15416.7
991.59999	15476.9
995.33237	15578.7
999.06217	15707.2
1002.78939	15866.1
1006.51404	16040.7
1010.23611	16208.1
1013.95561	16336.8
1017.67255	16359.9
1021.38692	16248.6
1025.09872	16139.5
1028.80796	16001.3
1032.51465	15991.8
1036.21877	16047.3
1039.92035	16091.2
1043.61937	16112
1047.31584	16171
1051.00976	16166.4
1054.70114	16139.7
1058.38998	16181.9
1062.07627	16284.5
1065.76003	16438.5
1069.44126	16611.8
1073.11995	16871
1076.79611	17087.6
1080.46974	17204
1084.14085	17188.4
1087.80943	17259.2
1091.47549	17377.3
1095.13903	17399.9
1098.80005	17230.5
1102.45857	16981.2
1106.11456	16713.7
1109.76805	16592.3
1113.41903	16628.1
1117.06751	16747.3
1120.71348	17015.5
1124.35696	17243.4
1127.99793	17498.9
1131.63641	17648.9
1135.2724	17503.8
1138.90589	17273.1
1142.5369	17092.2
1146.16542	17020
1149.79145	16956.9
1153.415	16872.1
1157.03607	16911.4
1160.65467	17126.6
1164.27079	17533
1167.88443	18076.1
1171.49561	18822.1
1175.10432	19883.4
1178.71056	21279.9
1182.31434	22498.2
1185.91565	23050.6
1189.51451	23029
1193.11091	22479.6
1196.70485	21684.9
1200.29634	20966.1
1203.88538	20403
1207.47197	19864.8
1211.05612	19335.9
1214.63782	18944.2
1218.21708	18643.6
1221.79391	18359.3
1225.36829	18222
1228.94024	18157.2
1232.50976	18086.2
1236.07685	18081.4
1239.6415	18085.1
1243.20374	18116.3
1246.76355	18243.1
1250.32093	18381.5
1253.8759	18624.2
1257.42845	18978.3
1260.97859	19366.6
1264.52631	19722
1268.07163	20090.7
1271.61453	20368
1275.15503	20639.5
1278.69312	20914.8
1282.22882	21138.8
1285.76211	21464.7
1289.29301	21863.5
1292.82151	22422.6
1296.34761	23070.8
1299.87133	23862.1
1303.39266	24807.2
1306.9116	25969.5
1310.42815	27106.5
1313.94233	27763.7
1317.45412	27653.7
1320.96354	27023.2
1324.47058	26423.7
1327.97525	25735
1331.47754	25192.5
1334.97747	24919.6
1338.47502	24806.8
1341.97022	24937.8
1345.46305	25218.8
1348.95352	25707.3
1352.44163	26412.7
1355.92738	27385.1
1359.41078	28865.6
1362.89183	30475
1366.37053	30330.7
1369.84688	27843.2
1373.32088	24794.8
1376.79254	22670.9
1380.26186	21608
1383.72883	21109.2
1387.19347	20802.6
1390.65578	20378
1394.11575	20069.3
1397.57339	19862.5
1401.0287	19792.1
1404.48168	19789.8
1407.93234	19757.8
1411.38068	19583
1414.82669	19313.4
1418.27039	18985.8
1421.71177	18659.5
1425.15083	18357.9
1428.58758	18141
1432.02203	18153.2
1435.45416	18359.7
1438.88399	18593.1
1442.31151	18797.7
1445.73673	18945.1
1449.15965	19054.5
1452.58027	19148
1455.9986	19134.4
1459.41463	19198.7
1462.82837	19397.7
1466.23982	19676.8
1469.64898	19997.6
1473.05586	20231.8
1476.46045	20376.6
1479.86276	20478.2
1483.26279	20520.3
1486.66054	20658.3
1490.05602	20927.3
1493.44922	21323.6
1496.84016	22021.5
1500.22882	23140.1
1503.61521	24615.7
1506.99934	26202.5
1510.38121	27567.5
1513.76081	27957.2
1517.13816	27126.9
1520.51324	25468.6
1523.88607	23794.4
1527.25665	22717.3
1530.62498	22051.5
1533.99105	21635.2
1537.35488	21283.9
1540.71647	20977.3
1544.07581	20654.8
1547.4329	20379.8
1550.78776	20127.1
1554.14038	19978.6
1557.49077	19980.6
1560.83892	20014.9
1564.18484	20193.4
1567.52853	20397.4
1570.86999	20686
1574.20922	20958
1577.54624	21114.6
1580.88103	20880.2
1584.2136	20393
1587.54395	20156.6
1590.87208	20308.7
1594.19801	20840.9
1597.52172	21562.7
1600.84321	21867.1
1604.16251	21427.1
1607.47959	20575.9
1610.79447	19631.7
1614.10715	18637.9
1617.41763	17802.2
1620.7259	17164.4
1624.03199	16775.7
1627.33587	16679
1630.63757	16831.8
1633.93707	17298.5
1637.23439	18174.2
1640.52951	19439.5
1643.82246	21074
1647.11321	22781.9
1650.40179	23726.1
1653.68819	23221.7
1656.97241	21323
1660.25446	19049.6
1663.53433	17313.3
1666.81203	16166.1
1670.08756	15477.7
1673.36092	15033.6
1676.63211	14716.6
1679.90115	14494.7
1683.16801	14320.6
1686.43272	14179.6
1689.69527	14074.4
1692.95567	14028.6
1696.2139	13989.9
1699.46999	13952
1702.72392	13894
1705.97571	13822.4
1709.22535	13807.8
1712.47284	13725.7
1715.71819	13699.5
1718.96139	13671.6
1722.20246	13618.3
1725.44139	13547.1
1728.67818	13510.2
1731.91284	13421.3
1735.14537	13361.6
1738.37576	13320.1
1741.60403	13259.6
1744.83017	13221.9
1748.05418	13204.7
1751.27607	13171.2
1754.49584	13154.4
1757.71349	13160.4
1760.92903	13124.1
1764.14244	13108.2
1767.35375	13107.1
1770.56294	13088
1773.77002	13071.7
1776.97499	13052
1780.17785	13033.5
1783.37861	12996.5
1786.57727	12981.7
1789.77382	12947
1792.96828	12905.2
1796.16064	12913.8
1799.3509	12895.4
1802.53907	12864.4
1805.72514	12807.5
1808.90913	12771.4
1812.09102	12771.1
1815.27083	12745.5
1818.44856	12728.5
1821.6242	12678
1824.79776	12653.4
1827.96924	12656.7
1831.13864	12640
1834.30597	12636.5
1837.47122	12645.7
1840.6344	12620.6
1843.7955	12603.3
1846.95454	12593.1
1850.11151	12597.7
1853.26642	12536.7
1856.41926	12550.7
1859.57004	12567
1862.71876	12524.7
1865.86542	12535.1
1869.01003	12502.7
1872.15258	12486.3
1875.29308	12481.1
1878.43152	12475.7
1881.56792	12452.4
1884.70227	12414.9
1887.83457	12426.1
1890.96482	12418.4
1894.09304	12400.8
1897.21921	12373.4
1900.34335	12350.1
1903.46544	12340.9
1906.58551	12347.1
1909.70353	12325.7
1912.81953	12308.9
1915.93349	12302.2
1919.04543	12266.8
1922.15534	12253.7
1925.26322	12210.5
1928.36908	12183.5
1931.47292	12142.5
1934.57473	12132.4
1937.67453	12115.7
1940.77232	12043.1
1943.86808	12052.4
1946.96184	12030.8
1950.05358	12007.2
1953.14331	11982.6
1956.23103	11911.9
1959.31675	11882
1962.40046	11868.2
1965.48217	11824.5
1968.56188	11815.4
1971.63959	11770.5
1974.7153	11702.8
1977.78901	11674.7
1980.86073	11627.4
1983.93046	11597.2
1986.99819	11566.8
1990.06394	11528.8
1993.1277	11491
1996.18947	11444.1
1999.24925	11445.9
2002.30706	11404.3
2005.36288	11379.8
2008.41672	11355.9
2011.46859	11325.5
2014.51848	11281.2
2017.56639	11229.5
2020.61233	11204.9
2023.6563	11189.4
2026.6983	11168.6
2029.73833	11155.6
2032.7764	11093.6
2035.8125	11098.8
2038.84664	11051.6
2041.87881	11075.3
2044.90903	11034.3
2047.93729	11008.1
2050.96359	10984.9
2053.98794	10980.7
2057.01034	10922.1
2060.03078	10933.8
2063.04927	10914.4
2066.06582	10927.3
2069.08042	10925.5
2072.09307	10912.3
2075.10378	10894.2
2078.11255	10894.2
2081.11938	10877.6
2084.12426	10873.6
2087.12722	10862.4
2090.12824	10884.2
2093.12732	10861.8
2096.12447	10850.9
2099.11969	10866.6
2102.11299	10869.6
2105.10435	10880.5
2108.09379	10889.6
2111.08131	10908.1
2114.0669	10887.5
2117.05057	10905.7
2120.03233	10928.9
2123.01216	10930
2125.99008	10925
2128.96609	10947.2
2131.94018	10954.4
2134.91236	10947.6
2137.88263	10948.5
2140.851	10961.5
2143.81746	10973.1
2146.78201	10967.9
2149.74466	10951.6
2152.7054	10951.8
2155.66425	10950.5
2158.6212	10944.3
2161.57625	10934
2164.52941	10939.5
2167.48067	10941.1
2170.43004	10922.9
2173.37752	10927.8
2176.32311	10948.7
2179.26681	10939.8
2182.20863	10927
2185.14856	10928.1
2188.08661	10918.1
2191.02278	10929.1
2193.95707	10912.7
2196.88948	10892.1
2199.82001	10883.4
2202.74867	10885.2
2205.67545	10865.3
2208.60037	10840.5
2211.52341	10810.8
2214.44458	10784.7
2217.36388	10770.1
2220.28132	10777.5
2223.1969	10719.3
2226.11061	10711.1
2229.02246	10686.3
2231.93245	10692.9
2234.84058	10633.8
2237.74686	10649.3
2240.65128	10652.5
2243.55385	10649.1
2246.45456	10625.3
2249.35343	10609.1
2252.25044	10596.3
2255.14561	10577.6
2258.03893	10581
2260.93041	10558.2
2263.82004	10504.5
2266.70783	10497.1
2269.59378	10473.5
2272.4779	10447
2275.36017	10405.2
2278.24061	10412.5
2281.11922	10383.2
2283.996	10385
2286.87094	10356.8
2289.74405	10331.7
2292.61534	10329.4
2295.4848	10328.8
2298.35243	10295.5
2301.21824	10305.2
2304.08223	10289.9
2306.94439	10288.8
2309.80474	10276.8
2312.66327	10263.9
2315.51999	10231.1
2318.37489	10265.3
2321.22797	10210.5
2324.07925	10213.4
2326.92871	10182.6
2329.77637	10179
2332.62222	10169.4
2335.46626	10165
2338.3085	10098.7
2341.14893	10128.1
2343.98756	10113.1
2346.8244	10115.1
2349.65943	10091.5
2352.49267	10116.2
2355.32411	10098.6
2358.15376	10096.8
2360.98161	10084.9
2363.80768	10079.4
2366.63195	10062.8
2369.45444	10083
2372.27514	10054.1
2375.09405	10043.8
2377.91118	10015.6
2380.72652	10008.5
2383.54009	9988.2
2386.35187	9962.7
2389.16188	9930.2
2391.97011	9910.5
2394.77657	9925.4
2397.58125	9884.4
2400.38416	9876.8
2403.18529	9852.7
2405.98466	9835.7
2408.78226	9830.5
2411.57809	9809.2
2414.37216	9801.8
2417.16446	9790.7
2419.955	9757.8
2422.74378	9762.6
2425.5308	9762.6
2428.31606	9751.5
2431.09956	9735.9
2433.88131	9723.7
2436.6613	9717.8
2439.43954	9724.5
2442.21603	9705.7
2444.99077	9686.8
2447.76377	9711.5
2450.53501	9685.9
2453.30451	9693.9
2456.07226	9666.2
2458.83827	9658.9
2461.60254	9641.1
2464.36507	9650.5
2467.12586	9617.3
2469.88492	9630.3
2472.64224	9615.8
2475.39782	9616.9
2478.15167	9629.2
2480.90379	9594.4
2483.65417	9626.8
2486.40283	9611.9
2489.14976	9603.2
2491.89497	9602.9
2494.63845	9605.7
2497.3802	9601.7
2500.12024	9575.3
2502.85855	9571.3
2505.59514	9560.7
2508.33002	9557.4
2511.06318	9539.6
2513.79462	9514.2
2516.52435	9487.1
2519.25237	9487.8
2521.97867	9479.3
2524.70327	9443.2
2527.42616	9437.9
2530.14734	9413.4
2532.86681	9413.6
2535.58458	9426.4
2538.30065	9393.2
2541.01501	9398.8
2543.72768	9390.1
2546.43864	9371.9
2549.14791	9351.5
2551.85548	9339.3
2554.56136	9306
2557.26554	9307.6
2559.96803	9311.6
2562.66883	9297.3
2565.36794	9276.1
2568.06536	9301.9
2570.7611	9252.8
2573.45514	9243.7
2576.14751	9227.1
2578.83819	9198
2581.52719	9192.9
2584.21451	9185.8
2586.90015	9159.5
2589.58411	9141.2
2592.2664	9130.8
2594.94701	9098.8
2597.62594	9087
2600.30321	9071.3
2602.9788	9049.7
2605.65273	9048.9
2608.32498	9047.5
2610.99557	9017.8
2613.66449	9038
2616.33175	9015.7
2618.99734	9012.6
2621.66128	8990.8
2624.32355	8988.8
2626.98416	8980.9
2629.64311	8966.7
2632.30041	8974.8
2634.95605	8969.5
2637.61004	8933.5
2640.26238	8914.7
2642.91306	8921.8
2645.56209	8912
2648.20948	8879.4
2650.85521	8895.6
2653.4993	8920.4
2656.14175	8876.6
2658.78255	8883
2661.42171	8887
2664.05923	8892.9
2666.6951	8885.2
2669.32934	8901
2671.96194	8885.1
2674.59291	8894.7
2677.22224	8880.1
2679.84993	8872.7
2682.476	8874.8
2685.10043	8877.6
2687.72324	8853.6
2690.34441	8892.2
2692.96396	8873.5
2695.58188	8884.9
2698.19818	8864.6
2700.81285	8865.9
2703.4259	8893.1
2706.03733	8883.4
2708.64714	8868.3
2711.25533	8880.6
2713.86191	8891.4
2716.46687	8875.5
2719.07021	8877.2
2721.67194	8860.9
2724.27206	8840.1
2726.87057	8843.3
2729.46747	8865.2
2732.06276	8849.2
2734.65644	8854.7
2737.24852	8844.9
2739.83899	8847.7
2742.42786	8841.9
2745.01513	8811.2
2747.60079	8811.1
2750.18486	8793.5
2752.76733	8801
2755.3482	8793.2
2757.92747	8788.4
2760.50515	8778.8
2763.08123	8747.2
2765.65573	8726.7
2768.22863	8736.1
2770.79994	8717.1
2773.36967	8728.5
2775.9378	8716.3
2778.50435	8688.9
2781.06932	8681.7
2783.6327	8676.8
2786.1945	8653
2788.75471	8670.1
2791.31335	8620.3
2793.87041	8609
2796.42589	8564.2
2798.97979	8581.4
2801.53212	8564.1
2804.08288	8556.4
2806.63206	8519.5
2809.17967	8531.2
2811.72571	8510.4
2814.27018	8512.8
2816.81308	8502
2819.35442	8464.1
2821.89419	8450
2824.43239	8459.1
2826.96904	8444.9
2829.50412	8437.1
2832.03763	8419
2834.56959	8433.1
2837.1	8406.6
2839.62884	8420.4
2842.15613	8416.4
2844.68186	8446.2
2847.20604	8411.5
2849.72867	8426.2
2852.24974	8417.7
2854.76927	8412.2
2857.28724	8401.1
2859.80367	8395.9
2862.31855	8375.2
2864.83189	8361.2
2867.34368	8342.8
2869.85393	8352.3
2872.36264	8377
2874.8698	8354.2
2877.37543	8337.6
2879.87952	8333.5
2882.38207	8361.8
2884.88308	8341.8
2887.38256	8349.5
2889.88051	8328.5
2892.37692	8333.6
2894.8718	8340.1
2897.36515	8357.1
2899.85698	8349
2902.34727	8366.5
2904.83604	8341.4
2907.32328	8355.4
2909.809	8348.4
2912.29319	8347.3
2914.77587	8336.3
2917.25702	8349.3
2919.73665	8331.2
2922.21476	8328.2
2924.69136	8327.1
2927.16644	8320.9
2929.64	8291.4
2932.11205	8311.6
2934.58258	8280.2
2937.05161	8288.4
2939.51912	8282.7
2941.98513	8247.5
2944.44962	8264.7
2946.91261	8213
2949.37409	8237.2
2951.83407	8210
2954.29254	8209.7
2956.74951	8192
2959.20498	8205
2961.65895	8181.5
2964.11142	8154.6
2966.56239	8164.2
2969.01186	8160
2971.45984	8119.8
2973.90632	8131.7
2976.35131	8107.8
2978.7948	8099
2981.23681	8082.9
2983.67732	8071.1
2986.11635	8050.1
2988.55388	8019.5
2990.98993	8007.5
2993.4245	8006.9
2995.85758	8016.6
2998.28917	7956
3000.71928	7972.9
3003.14791	7956
3005.57506	7939.6
3008.00073	7936.7
3010.42493	7934.5
3012.84764	7924.7
3015.26888	7900.9
3017.68865	7877.5
3020.10694	7883
3022.52376	7873
3024.9391	7849.9
3027.35298	7819.1
3029.76539	7842.7
3032.17632	7808.2
3034.5858	7813.5
3036.9938	7779.2
3039.40034	7776.7
3041.80542	7772.2
3044.20903	7773.8
3046.61118	7768.6
3049.01187	7747.7
3051.4111	7752.1
3053.80888	7748.1
3056.20519	7719
3058.60005	7706
3060.99345	7710.3
3063.3854	7700.1
3065.7759	7696.7
3068.16494	7660.4
3070.55254	7624.3
3072.93868	7636.7
3075.32338	7604.5
3077.70662	7608.3
3080.08842	7599.3
3082.46878	7622.4
3084.84769	7587.9
3087.22515	7583.5
3089.60118	7595.7
3091.97576	7580.5
3094.3489	7584
3096.72061	7578
3099.09087	7564
3101.4597	7555.9
3103.82709	7558.2
3106.19305	7551.9
3108.55757	7547.1
3110.92066	7537.8
3113.28232	7506.2
3115.64255	7499.6
3118.00134	7495.1
3120.35871	7495.7
3122.71466	7471.5
3125.06917	7472.6
3127.42226	7440.9
3129.77393	7457.6
3132.12417	7453.1
3134.47299	7464.9
3136.82039	7462.7
3139.16636	7460
3141.51092	7468
3143.85406	7468.6
3146.19579	7479.6
3148.53609	7450.1
3150.87499	7470.6
3153.21246	7485.2
3155.54853	7519.7
3157.88318	7505.4
3160.21642	7492.9
3162.54826	7498
3164.87868	7490.9
3167.2077	7494.4
3169.5353	7486.2
3171.86151	7486
3174.18631	7484.9
3176.5097	7459.8
3178.83169	7465.8
3181.15228	7481.4
3183.47147	7427.9
3185.78926	7459.4
3188.10565	7436.9
3190.42065	7455.3
3192.73424	7435
3195.04645	7438.3
3197.35725	7436.2
3199.66667	7423.9
3201.97469	7465.5
3204.28132	7445.4
3206.58656	7457.3
3208.8904	7476.3
3211.19287	7465.1
3213.49394	7466.1
3215.79363	7455.6
3218.09193	7473.9
3220.38884	7459.4
3222.68438	7474.5
3224.97853	7464.4
3227.2713	7451.9
3229.56269	7444.4
3231.8527	7444.3
3234.14133	7436.5
3236.42858	7417.9
3238.71446	7416.2
3240.99896	7365.9
3243.28209	7386.9
3245.56384	7375.4
3247.84423	7387.4
3250.12324	7386.9
3252.40088	7361.2
3254.67715	7371.5
3256.95205	7357.5
3259.22558	7349.7
3261.49775	7335.5
3263.76855	7335
3266.03799	7296.3
3268.30606	7307.3
3270.57277	7312.7
3272.83812	7281
3275.10211	7276.8
3277.36474	7271
3279.62601	7268
3281.88593	7251.8
3284.14448	7255.4
3286.40168	7267.1
3288.65753	7220.8
3290.91202	7218.4
3293.16516	7197.3
3295.41695	7191.9
3297.66738	7126.2
3299.91647	7100.1
3302.16421	7068.4
3304.4106	7051.2
3306.65564	7005.7
3308.89933	6964.7
3311.14169	6925.1
3313.38269	6871.1
3315.62236	6847.3
3317.86068	6768.2
3320.09766	6722.1
3322.3333	6673.1
3324.5676	6673.3
3326.80056	6548
3329.03219	6494.5
3331.26248	0.7
3333.49143	1
3335.71905	-0.9
