Data from AgNPs_FTO_APTES_UA_200uM_R6G_10uM_NaF_0.1M_Addition_RamanShift__16__16-18-57-511.txt Node

Date: Fri Dec 17 16:18:57 GMT 2021
User: TCL
Spectrometer: QEP01345
Trigger mode: 4
Integration Time (sec): 7.000000E0
Scans to average: 10
Electric dark correction enabled: true
Nonlinearity correction enabled: false
Boxcar width: 0
XAxis mode: Raman Shifts
Number of Pixels in Spectrum: 1044
>>>>>Begin Spectral Data<<<<<
46.04893	0.675
50.45542	-0.425
54.85868	-0.725
59.25871	0.575
63.6555	47.075
68.04907	48.275
72.43941	50.575
76.82654	55.875
81.21044	51.675
85.59113	59.275
89.96862	59.675
94.34289	63.975
98.71396	64.375
103.08183	65.275
107.4465	68.275
111.80798	68.475
116.16626	72.775
120.52136	66.375
124.87327	73.475
129.222	77.975
133.56755	80.775
137.90993	84.975
142.24913	93.175
146.58517	104.075
150.91804	115.375
155.24774	134.775
159.57429	170.075
163.89768	210.675
168.21792	272.575
172.53501	365.275
176.84895	510.675
181.15975	703.975
185.46741	985.975
189.77193	1362.575
194.07331	1829.775
198.37157	2358.475
202.6667	2928.275
206.9587	3491.775
211.24758	4039.175
215.53334	4594.975
219.81599	5166.575
224.09553	5812.875
228.37195	6530.775
232.64527	7302.175
236.91549	8175.175
241.18261	9050.175
245.44663	9831.475
249.70755	10523.375
253.96539	11097.375
258.22014	11578.475
262.4718	11940.675
266.72039	12227.775
270.96589	12395.575
275.20832	12380.575
279.44768	12237.075
283.68397	12040.975
287.91719	11837.775
292.14735	11696.575
296.37445	11684.775
300.59849	11750.675
304.81948	11818.875
309.03742	11778.675
313.25231	11639.575
317.46415	11382.475
321.67296	11008.575
325.87872	10775.775
330.08145	10651.675
334.28114	10700.675
338.47781	10817.575
342.67145	10979.075
346.86207	11167.475
351.04966	11408.875
355.23424	11704.675
359.4158	11967.875
363.59435	12192.775
367.76989	12360.475
371.94243	12471.375
376.11196	12598.675
380.27849	12689.275
384.44203	12778.575
388.60257	12835.575
392.76012	12903.075
396.91468	12994.975
401.06626	13130.275
405.21485	13223.475
409.36047	13141.375
413.50311	12852.475
417.64277	12547.875
421.77947	12351.675
425.9132	12235.375
430.04396	12179.175
434.17176	12219.375
438.2966	12272.475
442.41849	12385.675
446.53742	12522.375
450.6534	12682.175
454.76644	12845.275
458.87653	12916.975
462.98368	12990.575
467.08789	12982.975
471.18916	12968.275
475.2875	12881.375
479.38291	12821.575
483.4754	12747.675
487.56496	12660.375
491.6516	12634.375
495.73531	12635.075
499.81612	12656.475
503.89401	12721.075
507.96899	12799.875
512.04106	12837.275
516.11023	12970.575
520.1765	13040.475
524.23987	13037.675
528.30034	13027.975
532.35792	13006.875
536.41261	13002.775
540.46441	12894.175
544.51333	12829.975
548.55936	12770.375
552.60252	12801.475
556.64279	12857.075
560.6802	12847.875
564.71473	12793.875
568.7464	12828.175
572.7752	12878.675
576.80114	12825.375
580.82422	12749.775
584.84444	12789.075
588.86181	12804.775
592.87633	12817.575
596.888	12898.675
600.89682	13131.675
604.9028	13883.275
608.90594	15614.875
612.90624	17651.775
616.90371	17128.075
620.89834	14391.475
624.89015	13068.775
628.87913	12891.675
632.86528	13068.175
636.84862	13311.175
640.82913	13341.575
644.80683	12996.675
648.78172	12654.075
652.75379	12504.475
656.72306	12627.375
660.68952	12867.175
664.65319	12826.375
668.61405	12658.275
672.57211	12662.175
676.52738	12720.475
680.47986	12751.875
684.42955	12599.675
688.37646	12462.375
692.32058	12398.675
696.26192	12396.275
700.20048	12410.675
704.13626	12467.075
708.06928	12455.775
711.99952	12391.475
715.927	12390.575
719.85171	12396.575
723.77365	12405.975
727.69284	12415.675
731.60928	12381.675
735.52295	12411.875
739.43388	12428.275
743.34206	12445.675
747.24749	12417.375
751.15017	12354.875
755.05012	12311.275
758.94733	12447.075
762.8418	12940.675
766.73354	13909.575
770.62254	15188.375
774.50882	16103.275
778.39237	15803.575
782.27321	14579.775
786.15132	13354.175
790.02671	12583.075
793.89938	12185.175
797.76935	12036.975
801.6366	11970.775
805.50115	11922.275
809.36299	11903.575
813.22213	11884.975
817.07857	11817.875
820.93231	11798.375
824.78336	11765.475
828.63172	11727.075
832.47738	11692.575
836.32036	11674.375
840.16066	11655.775
843.99827	11582.475
847.8332	11563.175
851.66546	11594.875
855.49504	11575.975
859.32195	11617.675
863.1462	11646.175
866.96777	11681.175
870.78668	11694.975
874.60293	11700.475
878.41652	11707.475
882.22745	11736.775
886.03573	11770.375
889.84136	11805.275
893.64433	11779.875
897.44466	11684.375
901.24235	11593.075
905.0374	11498.075
908.8298	11392.275
912.61957	11330.675
916.40671	11369.075
920.19121	11403.375
923.97308	11416.975
927.75233	11457.075
931.52895	11476.575
935.30295	11414.875
939.07433	11292.975
942.84309	11185.875
946.60924	11105.275
950.37278	11073.875
954.13371	11055.575
957.89203	11024.275
961.64774	10969.475
965.40086	10878.875
969.15137	10839.275
972.89929	10792.375
976.64461	10752.075
980.38733	10725.575
984.12747	10730.375
987.86502	10739.075
991.59999	10759.875
995.33237	10814.475
999.06217	10893.375
1002.78939	11004.875
1006.51404	11101.775
1010.23611	11236.775
1013.95561	11338.375
1017.67255	11410.075
1021.38692	11366.775
1025.09872	11249.475
1028.80796	11128.275
1032.51465	11067.475
1036.21877	11094.175
1039.92035	11129.575
1043.61937	11169.975
1047.31584	11226.275
1051.00976	11238.475
1054.70114	11271.675
1058.38998	11262.175
1062.07627	11346.375
1065.76003	11383.475
1069.44126	11473.075
1073.11995	11615.075
1076.79611	11727.775
1080.46974	11723.975
1084.14085	11696.075
1087.80943	11697.975
1091.47549	11726.375
1095.13903	11723.175
1098.80005	11648.575
1102.45857	11499.775
1106.11456	11408.375
1109.76805	11398.175
1113.41903	11500.475
1117.06751	11618.275
1120.71348	11865.375
1124.35696	12096.275
1127.99793	12367.675
1131.63641	12615.075
1135.2724	12571.875
1138.90589	12384.975
1142.5369	12124.175
1146.16542	11888.675
1149.79145	11625.775
1153.415	11428.675
1157.03607	11384.375
1160.65467	11466.775
1164.27079	11655.375
1167.88443	11984.075
1171.49561	12420.975
1175.10432	13148.375
1178.71056	14042.575
1182.31434	14832.975
1185.91565	15195.975
1189.51451	15156.175
1193.11091	14772.475
1196.70485	14167.775
1200.29634	13647.475
1203.88538	13175.375
1207.47197	12693.175
1211.05612	12240.475
1214.63782	11918.075
1218.21708	11739.575
1221.79391	11640.875
1225.36829	11605.275
1228.94024	11607.975
1232.50976	11615.175
1236.07685	11666.675
1239.6415	11669.575
1243.20374	11709.875
1246.76355	11774.375
1250.32093	11815.275
1253.8759	11966.275
1257.42845	12140.675
1260.97859	12338.975
1264.52631	12595.875
1268.07163	12829.175
1271.61453	13090.875
1275.15503	13289.875
1278.69312	13449.875
1282.22882	13604.475
1285.76211	13781.275
1289.29301	14033.575
1292.82151	14335.575
1296.34761	14727.275
1299.87133	15214.775
1303.39266	15766.475
1306.9116	16510.275
1310.42815	17255.875
1313.94233	17640.175
1317.45412	17414.175
1320.96354	16789.675
1324.47058	16119.975
1327.97525	15470.775
1331.47754	14942.175
1334.97747	14670.875
1338.47502	14607.175
1341.97022	14766.375
1345.46305	15175.375
1348.95352	15831.575
1352.44163	16837.475
1355.92738	18045.175
1359.41078	19370.875
1362.89183	20634.975
1366.37053	20503.575
1369.84688	18419.175
1373.32088	16063.175
1376.79254	14494.275
1380.26186	13662.975
1383.72883	13186.475
1387.19347	12865.275
1390.65578	12556.675
1394.11575	12254.175
1397.57339	12020.975
1401.0287	11916.175
1404.48168	11814.575
1407.93234	11763.975
1411.38068	11708.575
1414.82669	11639.775
1418.27039	11578.175
1421.71177	11482.775
1425.15083	11375.575
1428.58758	11280.275
1432.02203	11252.675
1435.45416	11317.675
1438.88399	11396.475
1442.31151	11434.175
1445.73673	11524.675
1449.15965	11600.475
1452.58027	11696.475
1455.9986	11815.175
1459.41463	11923.075
1462.82837	12064.375
1466.23982	12183.975
1469.64898	12339.075
1473.05586	12421.375
1476.46045	12486.275
1479.86276	12533.475
1483.26279	12591.475
1486.66054	12734.175
1490.05602	12885.675
1493.44922	13160.375
1496.84016	13714.375
1500.22882	14599.275
1503.61521	15807.975
1506.99934	17186.375
1510.38121	18368.275
1513.76081	18743.775
1517.13816	17965.575
1520.51324	16545.875
1523.88607	15092.375
1527.25665	14088.375
1530.62498	13486.875
1533.99105	13123.375
1537.35488	12905.675
1540.71647	12721.975
1544.07581	12577.875
1547.4329	12504.275
1550.78776	12454.975
1554.14038	12504.075
1557.49077	12623.775
1560.83892	12767.575
1564.18484	12942.775
1567.52853	13159.375
1570.86999	13355.075
1574.20922	13513.975
1577.54624	13548.275
1580.88103	13253.775
1584.2136	12762.775
1587.54395	12350.875
1590.87208	12167.875
1594.19801	12289.975
1597.52172	12643.075
1600.84321	12860.075
1604.16251	12752.575
1607.47959	12416.875
1610.79447	12031.375
1614.10715	11658.075
1617.41763	11253.675
1620.7259	10929.375
1624.03199	10700.575
1627.33587	10651.075
1630.63757	10666.875
1633.93707	10865.275
1637.23439	11227.675
1640.52951	11775.275
1643.82246	12601.875
1647.11321	13548.175
1650.40179	14417.875
1653.68819	14458.475
1656.97241	13516.275
1660.25446	12278.975
1663.53433	11276.675
1666.81203	10625.475
1670.08756	10218.275
1673.36092	9960.175
1676.63211	9753.975
1679.90115	9609.075
1683.16801	9511.375
1686.43272	9419.875
1689.69527	9384.175
1692.95567	9283.675
1696.2139	9276.275
1699.46999	9230.775
1702.72392	9188.875
1705.97571	9129.375
1709.22535	9071.175
1712.47284	9021.075
1715.71819	8971.575
1718.96139	8938.075
1722.20246	8905.275
1725.44139	8855.475
1728.67818	8808.675
1731.91284	8751.075
1735.14537	8709.475
1738.37576	8652.975
1741.60403	8622.375
1744.83017	8606.075
1748.05418	8590.775
1751.27607	8555.675
1754.49584	8533.175
1757.71349	8534.875
1760.92903	8523.675
1764.14244	8521.575
1767.35375	8502.775
1770.56294	8488.075
1773.77002	8471.775
1776.97499	8448.175
1780.17785	8408.475
1783.37861	8372.875
1786.57727	8375.275
1789.77382	8332.475
1792.96828	8334.575
1796.16064	8322.475
1799.3509	8264.375
1802.53907	8274.475
1805.72514	8233.775
1808.90913	8214.975
1812.09102	8207.975
1815.27083	8152.575
1818.44856	8145.775
1821.6242	8129.475
1824.79776	8126.475
1827.96924	8115.275
1831.13864	8110.975
1834.30597	8088.975
1837.47122	8094.175
1840.6344	8065.675
1843.7955	8071.575
1846.95454	8059.275
1850.11151	8037.775
1853.26642	8031.675
1856.41926	8036.575
1859.57004	8019.675
1862.71876	8024.575
1865.86542	7983.075
1869.01003	7983.275
1872.15258	7974.175
1875.29308	7975.775
1878.43152	7964.175
1881.56792	7939.675
1884.70227	7950.275
1887.83457	7934.975
1890.96482	7925.375
1894.09304	7902.575
1897.21921	7884.175
1900.34335	7888.575
1903.46544	7886.475
1906.58551	7879.675
1909.70353	7863.375
1912.81953	7843.175
1915.93349	7836.375
1919.04543	7800.975
1922.15534	7776.975
1925.26322	7797.875
1928.36908	7768.375
1931.47292	7745.075
1934.57473	7727.975
1937.67453	7681.875
1940.77232	7665.875
1943.86808	7648.675
1946.96184	7636.075
1950.05358	7616.275
1953.14331	7612.475
1956.23103	7584.875
1959.31675	7557.275
1962.40046	7547.575
1965.48217	7525.675
1968.56188	7512.175
1971.63959	7492.075
1974.7153	7468.975
1977.78901	7437.175
1980.86073	7421.975
1983.93046	7396.875
1986.99819	7364.975
1990.06394	7330.175
1993.1277	7322.575
1996.18947	7299.675
1999.24925	7295.175
2002.30706	7241.675
2005.36288	7226.575
2008.41672	7182.475
2011.46859	7198.575
2014.51848	7163.175
2017.56639	7131.375
2020.61233	7113.975
2023.6563	7101.675
2026.6983	7077.375
2029.73833	7063.975
2032.7764	7034.975
2035.8125	7031.075
2038.84664	7006.475
2041.87881	7010.975
2044.90903	6987.975
2047.93729	6954.975
2050.96359	6975.275
2053.98794	6951.775
2057.01034	6932.875
2060.03078	6928.775
2063.04927	6927.575
2066.06582	6895.575
2069.08042	6899.575
2072.09307	6906.875
2075.10378	6886.075
2078.11255	6893.275
2081.11938	6882.175
2084.12426	6895.275
2087.12722	6881.775
2090.12824	6893.375
2093.12732	6871.675
2096.12447	6884.475
2099.11969	6870.075
2102.11299	6865.475
2105.10435	6879.675
2108.09379	6882.775
2111.08131	6876.075
2114.0669	6883.075
2117.05057	6888.575
2120.03233	6895.575
2123.01216	6917.175
2125.99008	6913.675
2128.96609	6920.775
2131.94018	6916.975
2134.91236	6931.975
2137.88263	6913.075
2140.851	6923.075
2143.81746	6923.575
2146.78201	6927.075
2149.74466	6930.975
2152.7054	6924.275
2155.66425	6940.475
2158.6212	6929.875
2161.57625	6917.075
2164.52941	6904.975
2167.48067	6915.475
2170.43004	6909.375
2173.37752	6912.975
2176.32311	6889.075
2179.26681	6884.575
2182.20863	6877.775
2185.14856	6906.475
2188.08661	6881.575
2191.02278	6887.475
2193.95707	6865.975
2196.88948	6873.075
2199.82001	6866.975
2202.74867	6828.775
2205.67545	6843.375
2208.60037	6842.875
2211.52341	6818.475
2214.44458	6796.475
2217.36388	6786.575
2220.28132	6758.975
2223.1969	6761.175
2226.11061	6746.375
2229.02246	6719.575
2231.93245	6743.675
2234.84058	6726.575
2237.74686	6687.775
2240.65128	6691.375
2243.55385	6692.175
2246.45456	6667.775
2249.35343	6671.175
2252.25044	6662.175
2255.14561	6641.475
2258.03893	6635.275
2260.93041	6660.975
2263.82004	6633.675
2266.70783	6610.475
2269.59378	6593.475
2272.4779	6576.175
2275.36017	6561.475
2278.24061	6547.975
2281.11922	6539.275
2283.996	6527.575
2286.87094	6507.175
2289.74405	6490.675
2292.61534	6485.975
2295.4848	6489.575
2298.35243	6478.675
2301.21824	6469.775
2304.08223	6455.975
2306.94439	6449.375
2309.80474	6443.775
2312.66327	6451.475
2315.51999	6423.875
2318.37489	6422.475
2321.22797	6403.775
2324.07925	6398.775
2326.92871	6407.775
2329.77637	6380.875
2332.62222	6384.875
2335.46626	6365.775
2338.3085	6345.275
2341.14893	6346.475
2343.98756	6333.275
2346.8244	6326.175
2349.65943	6321.675
2352.49267	6334.475
2355.32411	6331.475
2358.15376	6340.875
2360.98161	6314.275
2363.80768	6305.875
2366.63195	6324.175
2369.45444	6310.975
2372.27514	6300.875
2375.09405	6307.275
2377.91118	6291.175
2380.72652	6264.575
2383.54009	6250.975
2386.35187	6258.275
2389.16188	6226.775
2391.97011	6180.575
2394.77657	6181.075
2397.58125	6168.175
2400.38416	6182.375
2403.18529	6172.075
2405.98466	6158.475
2408.78226	6138.275
2411.57809	6147.775
2414.37216	6115.675
2417.16446	6114.475
2419.955	6094.275
2422.74378	6116.475
2425.5308	6090.675
2428.31606	6092.175
2431.09956	6088.175
2433.88131	6077.975
2436.6613	6075.775
2439.43954	6067.675
2442.21603	6059.075
2444.99077	6048.175
2447.76377	6042.875
2450.53501	6047.175
2453.30451	6054.775
2456.07226	6041.775
2458.83827	6038.775
2461.60254	6038.675
2464.36507	6025.075
2467.12586	6024.675
2469.88492	6011.375
2472.64224	6012.475
2475.39782	6012.375
2478.15167	6014.875
2480.90379	6008.375
2483.65417	6005.275
2486.40283	5986.675
2489.14976	6011.075
2491.89497	5979.975
2494.63845	6005.375
2497.3802	5966.175
2500.12024	5974.075
2502.85855	5952.775
2505.59514	5958.875
2508.33002	5967.975
2511.06318	5938.575
2513.79462	5916.575
2516.52435	5919.975
2519.25237	5909.475
2521.97867	5878.975
2524.70327	5887.175
2527.42616	5861.075
2530.14734	5868.375
2532.86681	5848.075
2535.58458	5848.475
2538.30065	5829.975
2541.01501	5825.775
2543.72768	5818.975
2546.43864	5801.475
2549.14791	5799.975
2551.85548	5799.075
2554.56136	5782.175
2557.26554	5794.575
2559.96803	5787.375
2562.66883	5759.875
2565.36794	5757.375
2568.06536	5761.175
2570.7611	5750.475
2573.45514	5727.375
2576.14751	5718.075
2578.83819	5693.575
2581.52719	5690.175
2584.21451	5694.975
2586.90015	5703.475
2589.58411	5675.575
2592.2664	5670.575
2594.94701	5644.875
2597.62594	5648.975
2600.30321	5622.375
2602.9788	5605.575
2605.65273	5610.275
2608.32498	5591.975
2610.99557	5581.475
2613.66449	5591.275
2616.33175	5571.975
2618.99734	5564.175
2621.66128	5556.075
2624.32355	5553.075
2626.98416	5556.875
2629.64311	5561.875
2632.30041	5560.875
2634.95605	5551.275
2637.61004	5522.075
2640.26238	5517.575
2642.91306	5513.775
2645.56209	5502.275
2648.20948	5516.775
2650.85521	5500.775
2653.4993	5493.675
2656.14175	5486.375
2658.78255	5513.675
2661.42171	5497.875
2664.05923	5499.475
2666.6951	5490.875
2669.32934	5485.275
2671.96194	5493.775
2674.59291	5484.375
2677.22224	5488.275
2679.84993	5486.475
2682.476	5483.975
2685.10043	5484.175
2687.72324	5473.775
2690.34441	5471.675
2692.96396	5462.175
2695.58188	5488.675
2698.19818	5466.675
2700.81285	5473.675
2703.4259	5494.275
2706.03733	5500.575
2708.64714	5480.675
2711.25533	5489.175
2713.86191	5475.775
2716.46687	5482.575
2719.07021	5472.075
2721.67194	5480.375
2724.27206	5443.575
2726.87057	5455.775
2729.46747	5455.075
2732.06276	5467.075
2734.65644	5429.575
2737.24852	5457.175
2739.83899	5443.375
2742.42786	5444.375
2745.01513	5425.875
2747.60079	5426.975
2750.18486	5443.775
2752.76733	5447.075
2755.3482	5415.575
2757.92747	5415.175
2760.50515	5407.475
2763.08123	5411.675
2765.65573	5393.175
2768.22863	5376.575
2770.79994	5353.875
2773.36967	5370.975
2775.9378	5360.975
2778.50435	5348.075
2781.06932	5330.275
2783.6327	5335.875
2786.1945	5331.675
2788.75471	5316.375
2791.31335	5298.575
2793.87041	5297.075
2796.42589	5288.375
2798.97979	5283.275
2801.53212	5264.575
2804.08288	5257.175
2806.63206	5233.875
2809.17967	5241.275
2811.72571	5231.575
2814.27018	5234.675
2816.81308	5221.175
2819.35442	5216.375
2821.89419	5190.375
2824.43239	5188.875
2826.96904	5207.575
2829.50412	5200.675
2832.03763	5179.375
2834.56959	5193.775
2837.1	5186.575
2839.62884	5180.975
2842.15613	5188.775
2844.68186	5192.775
2847.20604	5186.775
2849.72867	5190.675
2852.24974	5190.575
2854.76927	5185.075
2857.28724	5173.475
2859.80367	5177.375
2862.31855	5149.975
2864.83189	5157.875
2867.34368	5142.075
2869.85393	5179.975
2872.36264	5154.575
2874.8698	5162.075
2877.37543	5162.875
2879.87952	5152.675
2882.38207	5174.275
2884.88308	5165.375
2887.38256	5155.575
2889.88051	5136.375
2892.37692	5139.675
2894.8718	5139.575
2897.36515	5153.375
2899.85698	5140.175
2902.34727	5147.975
2904.83604	5149.875
2907.32328	5147.175
2909.809	5131.975
2912.29319	5168.575
2914.77587	5164.575
2917.25702	5158.875
2919.73665	5145.275
2922.21476	5132.575
2924.69136	5132.975
2927.16644	5147.575
2929.64	5130.975
2932.11205	5133.275
2934.58258	5119.375
2937.05161	5124.375
2939.51912	5111.275
2941.98513	5098.875
2944.44962	5084.175
2946.91261	5076.175
2949.37409	5088.075
2951.83407	5075.075
2954.29254	5080.875
2956.74951	5061.575
2959.20498	5063.775
2961.65895	5061.375
2964.11142	5058.875
2966.56239	5047.975
2969.01186	5047.575
2971.45984	5041.575
2973.90632	5025.675
2976.35131	5014.075
2978.7948	5009.775
2981.23681	4997.675
2983.67732	4986.675
2986.11635	4987.475
2988.55388	4968.975
2990.98993	4960.775
2993.4245	4966.975
2995.85758	4942.175
2998.28917	4943.175
3000.71928	4936.175
3003.14791	4925.875
3005.57506	4929.675
3008.00073	4922.475
3010.42493	4912.275
3012.84764	4921.375
3015.26888	4912.475
3017.68865	4902.575
3020.10694	4892.175
3022.52376	4887.075
3024.9391	4878.875
3027.35298	4892.675
3029.76539	4876.875
3032.17632	4871.075
3034.5858	4859.575
3036.9938	4852.075
3039.40034	4830.375
3041.80542	4837.275
3044.20903	4844.775
3046.61118	4864.175
3049.01187	4833.275
3051.4111	4832.775
3053.80888	4814.875
3056.20519	4815.775
3058.60005	4816.375
3060.99345	4808.475
3063.3854	4816.175
3065.7759	4789.075
3068.16494	4779.575
3070.55254	4780.375
3072.93868	4771.675
3075.32338	4773.075
3077.70662	4760.475
3080.08842	4758.675
3082.46878	4769.375
3084.84769	4760.175
3087.22515	4770.275
3089.60118	4767.875
3091.97576	4778.875
3094.3489	4776.075
3096.72061	4781.775
3099.09087	4783.475
3101.4597	4768.575
3103.82709	4767.775
3106.19305	4767.475
3108.55757	4785.075
3110.92066	4773.175
3113.28232	4755.475
3115.64255	4748.875
3118.00134	4754.675
3120.35871	4740.675
3122.71466	4754.575
3125.06917	4741.475
3127.42226	4732.775
3129.77393	4737.575
3132.12417	4745.475
3134.47299	4757.475
3136.82039	4765.675
3139.16636	4781.875
3141.51092	4769.475
3143.85406	4760.575
3146.19579	4789.275
3148.53609	4777.575
3150.87499	4782.575
3153.21246	4796.475
3155.54853	4810.275
3157.88318	4802.175
3160.21642	4828.575
3162.54826	4812.575
3164.87868	4827.675
3167.2077	4821.875
3169.5353	4834.475
3171.86151	4832.775
3174.18631	4833.475
3176.5097	4816.075
3178.83169	4811.575
3181.15228	4829.075
3183.47147	4812.275
3185.78926	4825.775
3188.10565	4817.975
3190.42065	4827.075
3192.73424	4833.275
