Data from AgNPs_FTO_APTES_UA_50uM_R6G_10uM_NaF_0.1M_Addition_RamanShift__31__15-12-27-435.txt Node

Date: Fri Dec 17 15:12:27 GMT 2021
User: TCL
Spectrometer: QEP01345
Trigger mode: 4
Integration Time (sec): 7.000000E0
Scans to average: 10
Electric dark correction enabled: true
Nonlinearity correction enabled: false
Boxcar width: 0
XAxis mode: Raman Shifts
Number of Pixels in Spectrum: 1044
>>>>>Begin Spectral Data<<<<<
46.04893	-0.4875
50.45542	0.4125
54.85868	-1.7875
59.25871	0.9125
63.6555	56.0125
68.04907	59.8125
72.43941	62.7125
76.82654	67.7125
81.21044	68.8125
85.59113	72.8125
89.96862	78.9125
94.34289	79.1125
98.71396	82.2125
103.08183	82.1125
107.4465	85.9125
111.80798	85.4125
116.16626	89.6125
120.52136	88.4125
124.87327	92.7125
129.222	94.2125
133.56755	96.5125
137.90993	101.1125
142.24913	111.0125
146.58517	117.2125
150.91804	131.7125
155.24774	149.8125
159.57429	181.3125
163.89768	227.1125
168.21792	289.1125
172.53501	383.1125
176.84895	518.9125
181.15975	715.5125
185.46741	1001.2125
189.77193	1356.3125
194.07331	1812.5125
198.37157	2340.1125
202.6667	2889.4125
206.9587	3423.2125
211.24758	3973.3125
215.53334	4554.3125
219.81599	5172.9125
224.09553	5880.4125
228.37195	6687.7125
232.64527	7545.6125
236.91549	8422.4125
241.18261	9251.3125
245.44663	9929.6125
249.70755	10462.5125
253.96539	10896.8125
258.22014	11284.9125
262.4718	11640.2125
266.72039	11959.2125
270.96589	12161.5125
275.20832	12192.2125
279.44768	12096.8125
283.68397	11924.2125
287.91719	11788.7125
292.14735	11798.4125
296.37445	12046.3125
300.59849	12459.4125
304.81948	12989.1125
309.03742	13338.0125
313.25231	13326.5125
317.46415	12721.4125
321.67296	11787.6125
325.87872	11021.5125
330.08145	10643.0125
334.28114	10600.2125
338.47781	10745.0125
342.67145	11067.7125
346.86207	11536.2125
351.04966	12180.0125
355.23424	12943.3125
359.4158	13555.3125
363.59435	13850.4125
367.76989	13978.8125
371.94243	14009.3125
376.11196	13980.9125
380.27849	13925.1125
384.44203	13818.6125
388.60257	13666.2125
392.76012	13581.6125
396.91468	13694.4125
401.06626	14019.9125
405.21485	14334.6125
409.36047	14108.1125
413.50311	13417.0125
417.64277	12732.0125
421.77947	12314.4125
425.9132	12191.0125
430.04396	12155.2125
434.17176	12203.3125
438.2966	12335.1125
442.41849	12543.5125
446.53742	12856.5125
450.6534	13167.4125
454.76644	13367.0125
458.87653	13449.1125
462.98368	13402.6125
467.08789	13206.5125
471.18916	12958.8125
475.2875	12657.7125
479.38291	12405.4125
483.4754	12219.4125
487.56496	12082.8125
491.6516	11969.0125
495.73531	11959.8125
499.81612	12015.9125
503.89401	12139.7125
507.96899	12288.0125
512.04106	12529.7125
516.11023	12751.2125
520.1765	12872.8125
524.23987	12849.4125
528.30034	12603.8125
532.35792	12342.3125
536.41261	12094.6125
540.46441	11836.3125
544.51333	11688.6125
548.55936	11768.4125
552.60252	12006.0125
556.64279	12303.7125
560.6802	12436.4125
564.71473	12598.3125
568.7464	13011.9125
572.7752	13347.0125
576.80114	13118.9125
580.82422	12744.4125
584.84444	12595.8125
588.86181	12534.0125
592.87633	12542.2125
596.888	12681.8125
600.89682	13126.6125
604.9028	14695.1125
608.90594	18662.1125
612.90624	23743.4125
616.90371	22918.6125
620.89834	16263.5125
624.89015	13092.3125
628.87913	12451.0125
632.86528	12573.4125
636.84862	12824.3125
640.82913	12713.0125
644.80683	12208.3125
648.78172	11820.5125
652.75379	11864.6125
656.72306	12320.8125
660.68952	12914.5125
664.65319	12790.1125
668.61405	12182.4125
672.57211	11886.4125
676.52738	11842.5125
680.47986	11844.3125
684.42955	11779.6125
688.37646	11718.8125
692.32058	11768.9125
696.26192	11860.8125
700.20048	12030.3125
704.13626	12140.0125
708.06928	12163.0125
711.99952	12056.8125
715.927	12012.0125
719.85171	12052.0125
723.77365	12052.4125
727.69284	11938.0125
731.60928	11839.5125
735.52295	11828.9125
739.43388	11856.2125
743.34206	11971.9125
747.24749	11997.7125
751.15017	12111.7125
755.05012	12332.3125
758.94733	12873.1125
762.8418	14167.5125
766.73354	16333.2125
770.62254	18712.0125
774.50882	20035.0125
778.39237	19188.0125
782.27321	16696.9125
786.15132	14319.8125
790.02671	12971.3125
793.89938	12377.4125
797.76935	12163.9125
801.6366	12041.1125
805.50115	11941.2125
809.36299	11942.4125
813.22213	11931.3125
817.07857	11907.6125
820.93231	11886.0125
824.78336	11910.4125
828.63172	11955.4125
832.47738	11964.4125
836.32036	11928.4125
840.16066	11864.0125
843.99827	11844.3125
847.8332	11785.4125
851.66546	11785.8125
855.49504	11773.1125
859.32195	11750.1125
863.1462	11743.4125
866.96777	11704.8125
870.78668	11672.5125
874.60293	11719.5125
878.41652	11768.1125
882.22745	11846.2125
886.03573	11924.1125
889.84136	11915.8125
893.64433	11839.4125
897.44466	11801.7125
901.24235	11769.0125
905.0374	11758.9125
908.8298	11713.4125
912.61957	11726.6125
916.40671	11732.6125
920.19121	11848.0125
923.97308	11937.0125
927.75233	12026.0125
931.52895	12121.3125
935.30295	12020.6125
939.07433	11740.2125
942.84309	11513.1125
946.60924	11338.5125
950.37278	11259.1125
954.13371	11211.9125
957.89203	11179.6125
961.64774	11154.5125
965.40086	11111.4125
969.15137	11089.0125
972.89929	11069.5125
976.64461	11054.8125
980.38733	11079.0125
984.12747	11096.6125
987.86502	11143.2125
991.59999	11208.5125
995.33237	11303.5125
999.06217	11515.9125
1002.78939	11758.7125
1006.51404	12044.1125
1010.23611	12349.6125
1013.95561	12571.3125
1017.67255	12511.3125
1021.38692	12370.6125
1025.09872	12209.2125
1028.80796	12116.3125
1032.51465	12194.1125
1036.21877	12329.3125
1039.92035	12420.9125
1043.61937	12428.1125
1047.31584	12347.9125
1051.00976	12238.2125
1054.70114	12194.9125
1058.38998	12206.1125
1062.07627	12259.4125
1065.76003	12323.2125
1069.44126	12433.4125
1073.11995	12537.5125
1076.79611	12686.9125
1080.46974	12838.9125
1084.14085	13067.7125
1087.80943	13371.6125
1091.47549	13499.9125
1095.13903	13335.2125
1098.80005	12933.4125
1102.45857	12569.2125
1106.11456	12422.7125
1109.76805	12507.6125
1113.41903	12701.4125
1117.06751	13068.8125
1120.71348	13546.0125
1124.35696	14015.1125
1127.99793	14507.9125
1131.63641	14485.0125
1135.2724	13948.4125
1138.90589	13405.7125
1142.5369	13047.3125
1146.16542	12808.9125
1149.79145	12671.2125
1153.415	12646.7125
1157.03607	12744.3125
1160.65467	12967.6125
1164.27079	13346.2125
1167.88443	13962.8125
1171.49561	14914.1125
1175.10432	16559.8125
1178.71056	18703.3125
1182.31434	20402.6125
1185.91565	20810.5125
1189.51451	20270.9125
1193.11091	19025.7125
1196.70485	17609.7125
1200.29634	16634.4125
1203.88538	15916.2125
1207.47197	15131.8125
1211.05612	14399.9125
1214.63782	13996.7125
1218.21708	13836.7125
1221.79391	13815.7125
1225.36829	13859.8125
1228.94024	13960.0125
1232.50976	14022.1125
1236.07685	14139.6125
1239.6415	14178.4125
1243.20374	14222.4125
1246.76355	14310.6125
1250.32093	14493.8125
1253.8759	14772.5125
1257.42845	15122.0125
1260.97859	15492.0125
1264.52631	15839.7125
1268.07163	16197.2125
1271.61453	16569.1125
1275.15503	16889.6125
1278.69312	17027.2125
1282.22882	17095.4125
1285.76211	17380.6125
1289.29301	17802.6125
1292.82151	18295.3125
1296.34761	18786.2125
1299.87133	19565.8125
1303.39266	20945.6125
1306.9116	23025.5125
1310.42815	25404.9125
1313.94233	26858.5125
1317.45412	26406.4125
1320.96354	24834.7125
1324.47058	23018.0125
1327.97525	21432.1125
1331.47754	20491.7125
1334.97747	20225.1125
1338.47502	20452.9125
1341.97022	20933.8125
1345.46305	21653.4125
1348.95352	22618.8125
1352.44163	24069.7125
1355.92738	26149.4125
1359.41078	29610.6125
1362.89183	33158.8125
1366.37053	32651.7125
1369.84688	28037.8125
1373.32088	23255.3125
1376.79254	20116.5125
1380.26186	18574.2125
1383.72883	17781.6125
1387.19347	17245.4125
1390.65578	16661.8125
1394.11575	16193.3125
1397.57339	15922.1125
1401.0287	15926.8125
1404.48168	16135.0125
1407.93234	16441.7125
1411.38068	16729.9125
1414.82669	16830.2125
1418.27039	16676.1125
1421.71177	16352.7125
1425.15083	16016.5125
1428.58758	15759.8125
1432.02203	15743.5125
1435.45416	15805.0125
1438.88399	15879.6125
1442.31151	15931.9125
1445.73673	16010.5125
1449.15965	16106.4125
1452.58027	16097.7125
1455.9986	15960.4125
1459.41463	15938.7125
1462.82837	16050.9125
1466.23982	16299.3125
1469.64898	16659.4125
1473.05586	16967.5125
1476.46045	17178.9125
1479.86276	17442.7125
1483.26279	17901.8125
1486.66054	18398.8125
1490.05602	19041.8125
1493.44922	19883.2125
1496.84016	21078.4125
1500.22882	22944.8125
1503.61521	25410.6125
1506.99934	28140.5125
1510.38121	30649.4125
1513.76081	31753.5125
1517.13816	30340.8125
1520.51324	26971.3125
1523.88607	23513.4125
1527.25665	21077.5125
1530.62498	19643.8125
1533.99105	18848.0125
1537.35488	18326.5125
1540.71647	18067.6125
1544.07581	17888.3125
1547.4329	17832.1125
1550.78776	17780.0125
1554.14038	17818.0125
1557.49077	17924.0125
1560.83892	18208.3125
1564.18484	18600.9125
1567.52853	19052.8125
1570.86999	19406.4125
1574.20922	19653.7125
1577.54624	19587.5125
1580.88103	18814.2125
1584.2136	17746.4125
1587.54395	17178.0125
1590.87208	17279.8125
1594.19801	18072.2125
1597.52172	19195.7125
1600.84321	19669.4125
1604.16251	19128.8125
1607.47959	18078.9125
1610.79447	16982.9125
1614.10715	15909.9125
1617.41763	14964.9125
1620.7259	14391.3125
1624.03199	14122.6125
1627.33587	14075.4125
1630.63757	14308.3125
1633.93707	14841.1125
1637.23439	15715.0125
1640.52951	16898.8125
1643.82246	18534.8125
1647.11321	20471.2125
1650.40179	22044.9125
1653.68819	21832.1125
1656.97241	19493.8125
1660.25446	16633.5125
1663.53433	14570.6125
1666.81203	13312.5125
1670.08756	12576.6125
1673.36092	12143.8125
1676.63211	11843.4125
1679.90115	11635.5125
1683.16801	11484.4125
1686.43272	11382.0125
1689.69527	11274.8125
1692.95567	11229.4125
1696.2139	11211.5125
1699.46999	11194.1125
1702.72392	11171.0125
1705.97571	11110.6125
1709.22535	11101.4125
1712.47284	11071.8125
1715.71819	11097.8125
1718.96139	11067.6125
1722.20246	11049.8125
1725.44139	11018.5125
1728.67818	10944.3125
1731.91284	10870.8125
1735.14537	10810.4125
1738.37576	10779.9125
1741.60403	10722.6125
1744.83017	10673.8125
1748.05418	10660.9125
1751.27607	10624.5125
1754.49584	10627.8125
1757.71349	10650.0125
1760.92903	10609.4125
1764.14244	10612.4125
1767.35375	10613.1125
1770.56294	10571.7125
1773.77002	10551.3125
1776.97499	10546.4125
1780.17785	10508.9125
1783.37861	10508.1125
1786.57727	10471.3125
1789.77382	10460.6125
1792.96828	10439.4125
1796.16064	10440.7125
1799.3509	10405.4125
1802.53907	10428.0125
1805.72514	10346.8125
1808.90913	10354.5125
1812.09102	10332.3125
1815.27083	10309.8125
1818.44856	10304.4125
1821.6242	10280.2125
1824.79776	10274.8125
1827.96924	10242.1125
1831.13864	10234.3125
1834.30597	10236.0125
1837.47122	10256.0125
1840.6344	10229.1125
1843.7955	10219.3125
1846.95454	10216.8125
1850.11151	10217.6125
1853.26642	10221.5125
1856.41926	10227.6125
1859.57004	10230.5125
1862.71876	10246.3125
1865.86542	10237.1125
1869.01003	10204.0125
1872.15258	10242.4125
1875.29308	10232.3125
1878.43152	10227.7125
1881.56792	10233.4125
1884.70227	10234.9125
1887.83457	10244.7125
1890.96482	10220.3125
1894.09304	10207.3125
1897.21921	10220.5125
1900.34335	10233.4125
1903.46544	10208.8125
1906.58551	10209.9125
1909.70353	10208.5125
1912.81953	10191.1125
1915.93349	10200.9125
1919.04543	10179.7125
1922.15534	10172.7125
1925.26322	10156.7125
1928.36908	10113.4125
1931.47292	10088.8125
1934.57473	10044.9125
1937.67453	10027.3125
1940.77232	10006.0125
1943.86808	9949.2125
1946.96184	9904.7125
1950.05358	9886.2125
1953.14331	9862.5125
1956.23103	9815.6125
1959.31675	9823.9125
1962.40046	9771.1125
1965.48217	9770.9125
1968.56188	9742.3125
1971.63959	9688.1125
1974.7153	9690.3125
1977.78901	9627.7125
1980.86073	9630.3125
1983.93046	9591.9125
1986.99819	9565.2125
1990.06394	9525.5125
1993.1277	9475.9125
1996.18947	9451.1125
1999.24925	9437.5125
2002.30706	9421.9125
2005.36288	9371.6125
2008.41672	9352.5125
2011.46859	9341.8125
2014.51848	9306.7125
2017.56639	9277.6125
2020.61233	9274.2125
2023.6563	9229.3125
2026.6983	9217.5125
2029.73833	9189.8125
2032.7764	9165.9125
2035.8125	9139.5125
2038.84664	9125.2125
2041.87881	9138.1125
2044.90903	9107.1125
2047.93729	9087.9125
2050.96359	9074.5125
2053.98794	9069.1125
2057.01034	9039.0125
2060.03078	9026.3125
2063.04927	9035.8125
2066.06582	9035.2125
2069.08042	9023.3125
2072.09307	9020.0125
2075.10378	8996.2125
2078.11255	8980.5125
2081.11938	9018.1125
2084.12426	8994.4125
2087.12722	8967.6125
2090.12824	8962.0125
2093.12732	8982.1125
2096.12447	8974.6125
2099.11969	8991.3125
2102.11299	8974.0125
2105.10435	9004.5125
2108.09379	8993.8125
2111.08131	9000.9125
2114.0669	8977.9125
2117.05057	9019.2125
2120.03233	9013.9125
2123.01216	9024.4125
2125.99008	9009.4125
2128.96609	9025.2125
2131.94018	9043.0125
2134.91236	9047.9125
2137.88263	9044.1125
2140.851	9065.2125
2143.81746	9066.8125
2146.78201	9055.6125
2149.74466	9061.6125
2152.7054	9050.5125
2155.66425	9044.7125
2158.6212	9039.5125
2161.57625	9028.8125
2164.52941	9043.0125
2167.48067	9030.0125
2170.43004	8999.8125
2173.37752	9019.4125
2176.32311	9029.7125
2179.26681	9012.8125
2182.20863	9014.6125
2185.14856	9022.2125
2188.08661	9013.8125
2191.02278	9030.7125
2193.95707	8994.0125
2196.88948	8982.2125
2199.82001	8973.6125
2202.74867	8969.7125
2205.67545	8984.7125
2208.60037	8966.1125
2211.52341	8938.0125
2214.44458	8945.8125
2217.36388	8919.5125
2220.28132	8889.8125
2223.1969	8875.2125
2226.11061	8874.3125
2229.02246	8850.9125
2231.93245	8822.6125
2234.84058	8794.9125
2237.74686	8805.6125
2240.65128	8785.8125
2243.55385	8773.5125
2246.45456	8785.2125
2249.35343	8751.2125
2252.25044	8761.9125
2255.14561	8747.5125
2258.03893	8756.6125
2260.93041	8730.8125
2263.82004	8702.7125
2266.70783	8709.5125
2269.59378	8680.9125
2272.4779	8658.4125
2275.36017	8630.9125
2278.24061	8630.2125
2281.11922	8609.4125
2283.996	8577.6125
2286.87094	8578.4125
2289.74405	8551.8125
2292.61534	8547.7125
2295.4848	8517.9125
2298.35243	8508.1125
2301.21824	8496.4125
2304.08223	8493.0125
2306.94439	8508.5125
2309.80474	8500.5125
2312.66327	8478.2125
2315.51999	8482.9125
2318.37489	8487.7125
2321.22797	8457.1125
2324.07925	8452.1125
2326.92871	8448.3125
2329.77637	8443.9125
2332.62222	8425.3125
2335.46626	8427.7125
2338.3085	8399.8125
2341.14893	8434.7125
2343.98756	8409.5125
2346.8244	8397.8125
2349.65943	8435.9125
2352.49267	8409.6125
2355.32411	8434.0125
2358.15376	8421.2125
2360.98161	8418.1125
2363.80768	8436.7125
2366.63195	8449.3125
2369.45444	8414.3125
2372.27514	8395.3125
2375.09405	8405.8125
2377.91118	8358.7125
2380.72652	8351.3125
2383.54009	8317.4125
2386.35187	8306.6125
2389.16188	8256.9125
2391.97011	8242.0125
2394.77657	8208.5125
2397.58125	8182.8125
2400.38416	8202.8125
2403.18529	8162.6125
2405.98466	8166.3125
2408.78226	8143.4125
2411.57809	8128.3125
2414.37216	8101.9125
2417.16446	8081.7125
2419.955	8084.3125
2422.74378	8097.6125
2425.5308	8083.6125
2428.31606	8078.6125
2431.09956	8067.0125
2433.88131	8064.5125
2436.6613	8035.6125
2439.43954	8050.8125
2442.21603	8034.8125
2444.99077	8037.1125
2447.76377	8059.3125
2450.53501	8030.1125
2453.30451	8028.9125
2456.07226	8027.2125
2458.83827	8008.9125
2461.60254	7994.1125
2464.36507	7989.7125
2467.12586	8006.9125
2469.88492	7989.7125
2472.64224	8005.9125
2475.39782	7996.8125
2478.15167	8004.8125
2480.90379	8017.4125
2483.65417	8018.6125
2486.40283	8014.0125
2489.14976	8024.9125
2491.89497	8029.6125
2494.63845	8014.2125
2497.3802	8022.0125
2500.12024	8018.5125
2502.85855	8011.8125
2505.59514	7983.3125
2508.33002	7964.1125
2511.06318	7969.1125
2513.79462	7927.9125
2516.52435	7912.2125
2519.25237	7896.3125
2521.97867	7873.0125
2524.70327	7855.5125
2527.42616	7859.6125
2530.14734	7833.4125
2532.86681	7797.9125
2535.58458	7825.7125
2538.30065	7780.3125
2541.01501	7787.5125
2543.72768	7782.4125
2546.43864	7779.3125
2549.14791	7781.6125
2551.85548	7779.1125
2554.56136	7745.0125
2557.26554	7735.3125
2559.96803	7748.6125
2562.66883	7720.0125
2565.36794	7712.9125
2568.06536	7710.4125
2570.7611	7691.1125
2573.45514	7678.8125
2576.14751	7680.7125
2578.83819	7654.2125
2581.52719	7664.5125
2584.21451	7650.5125
2586.90015	7643.5125
2589.58411	7639.2125
2592.2664	7623.5125
2594.94701	7588.6125
2597.62594	7588.7125
2600.30321	7582.0125
2602.9788	7573.9125
2605.65273	7567.9125
2608.32498	7552.4125
2610.99557	7553.6125
2613.66449	7555.3125
2616.33175	7535.6125
2618.99734	7558.7125
2621.66128	7527.5125
2624.32355	7530.6125
2626.98416	7508.6125
2629.64311	7513.3125
2632.30041	7507.1125
2634.95605	7500.5125
2637.61004	7478.7125
2640.26238	7462.2125
2642.91306	7459.8125
2645.56209	7430.2125
2648.20948	7437.3125
2650.85521	7446.7125
2653.4993	7421.6125
2656.14175	7432.4125
2658.78255	7433.2125
2661.42171	7469.4125
2664.05923	7449.9125
2666.6951	7435.9125
2669.32934	7444.8125
2671.96194	7472.6125
2674.59291	7481.8125
2677.22224	7467.7125
2679.84993	7471.1125
2682.476	7462.8125
2685.10043	7483.4125
2687.72324	7481.9125
2690.34441	7481.2125
2692.96396	7464.1125
2695.58188	7477.1125
2698.19818	7465.9125
2700.81285	7454.1125
2703.4259	7471.6125
2706.03733	7478.8125
2708.64714	7463.0125
2711.25533	7450.7125
2713.86191	7467.6125
2716.46687	7459.0125
2719.07021	7463.1125
2721.67194	7493.8125
2724.27206	7463.8125
2726.87057	7454.2125
2729.46747	7471.2125
2732.06276	7454.1125
2734.65644	7467.8125
2737.24852	7429.6125
2739.83899	7428.2125
2742.42786	7430.9125
2745.01513	7411.7125
2747.60079	7405.1125
2750.18486	7427.7125
2752.76733	7423.4125
2755.3482	7404.5125
2757.92747	7396.6125
2760.50515	7381.6125
2763.08123	7370.5125
2765.65573	7352.2125
2768.22863	7343.6125
2770.79994	7333.3125
2773.36967	7338.6125
2775.9378	7343.8125
2778.50435	7326.7125
2781.06932	7306.5125
2783.6327	7327.4125
2786.1945	7315.7125
2788.75471	7299.3125
2791.31335	7272.6125
2793.87041	7277.5125
2796.42589	7248.8125
2798.97979	7265.1125
2801.53212	7243.5125
2804.08288	7236.6125
2806.63206	7241.3125
2809.17967	7211.3125
2811.72571	7228.3125
2814.27018	7227.2125
2816.81308	7229.4125
2819.35442	7222.9125
2821.89419	7225.1125
2824.43239	7231.2125
2826.96904	7211.7125
2829.50412	7234.5125
2832.03763	7213.8125
2834.56959	7216.5125
2837.1	7208.1125
2839.62884	7220.7125
2842.15613	7215.7125
2844.68186	7250.7125
2847.20604	7259.1125
2849.72867	7298.9125
2852.24974	7288.3125
2854.76927	7291.0125
2857.28724	7292.8125
2859.80367	7268.9125
2862.31855	7234.9125
2864.83189	7246.9125
2867.34368	7238.6125
2869.85393	7239.9125
2872.36264	7229.7125
2874.8698	7213.9125
2877.37543	7189.1125
2879.87952	7190.8125
2882.38207	7206.5125
2884.88308	7184.8125
2887.38256	7203.1125
2889.88051	7183.3125
2892.37692	7183.3125
2894.8718	7198.4125
2897.36515	7199.8125
2899.85698	7176.6125
2902.34727	7212.0125
2904.83604	7186.1125
2907.32328	7204.1125
2909.809	7189.5125
2912.29319	7209.7125
2914.77587	7214.7125
2917.25702	7204.1125
2919.73665	7179.4125
2922.21476	7187.1125
2924.69136	7166.2125
2927.16644	7171.0125
2929.64	7150.6125
2932.11205	7136.2125
2934.58258	7120.3125
2937.05161	7122.0125
2939.51912	7107.9125
2941.98513	7096.4125
2944.44962	7058.9125
2946.91261	7032.9125
2949.37409	7042.8125
2951.83407	7003.8125
2954.29254	6989.0125
2956.74951	7005.7125
2959.20498	6979.9125
2961.65895	6966.3125
2964.11142	6937.6125
2966.56239	6940.9125
2969.01186	6927.5125
2971.45984	6897.8125
2973.90632	6889.4125
2976.35131	6866.4125
2978.7948	6866.5125
2981.23681	6837.5125
2983.67732	6835.9125
2986.11635	6813.5125
2988.55388	6794.9125
2990.98993	6788.9125
2993.4245	6766.0125
2995.85758	6760.6125
2998.28917	6741.5125
3000.71928	6737.7125
3003.14791	6718.2125
3005.57506	6683.4125
3008.00073	6691.6125
3010.42493	6686.5125
3012.84764	6681.1125
3015.26888	6689.7125
3017.68865	6670.5125
3020.10694	6661.1125
3022.52376	6632.6125
3024.9391	6621.5125
3027.35298	6614.0125
3029.76539	6603.4125
3032.17632	6585.6125
3034.5858	6592.1125
3036.9938	6576.5125
3039.40034	6551.0125
3041.80542	6539.3125
3044.20903	6555.7125
3046.61118	6558.7125
3049.01187	6518.0125
3051.4111	6498.7125
3053.80888	6499.3125
3056.20519	6507.6125
3058.60005	6480.3125
3060.99345	6471.8125
3063.3854	6449.7125
3065.7759	6435.5125
3068.16494	6425.8125
3070.55254	6399.8125
3072.93868	6388.1125
