Data from AgNPs_FTO_APTES_UA_0uM_R6G_10uM_NaF_0.1M_Addition_RamanShift__3__09-58-37-076.txt Node

Date: Fri Dec 17 09:58:37 GMT 2021
User: TCL
Spectrometer: QEP01345
Trigger mode: 4
Integration Time (sec): 7.000000E0
Scans to average: 10
Electric dark correction enabled: true
Nonlinearity correction enabled: false
Boxcar width: 0
XAxis mode: Raman Shifts
Number of Pixels in Spectrum: 1044
>>>>>Begin Spectral Data<<<<<
46.04893	0.2
50.45542	-0.6
54.85868	-0.5
59.25871	0.6
63.6555	27.4
68.04907	29.6
72.43941	34.2
76.82654	36.5
81.21044	35.1
85.59113	37.7
89.96862	42.5
94.34289	43
98.71396	40.4
103.08183	44.1
107.4465	46.8
111.80798	43.8
116.16626	46.5
120.52136	48.1
124.87327	50.9
129.222	49.8
133.56755	48.8
137.90993	49.5
142.24913	50.8
146.58517	53.5
150.91804	57.4
155.24774	65.5
159.57429	80.4
163.89768	93.1
168.21792	113.7
172.53501	143.6
176.84895	178.5
181.15975	237.7
185.46741	327.8
189.77193	455.1
194.07331	608.8
198.37157	803
202.6667	1010.1
206.9587	1216.2
211.24758	1436.3
215.53334	1647
219.81599	1869.9
224.09553	2116.4
228.37195	2381.4
232.64527	2664
236.91549	2965.4
241.18261	3276
245.44663	3542
249.70755	3804.1
253.96539	4003.7
258.22014	4139.8
262.4718	4225.4
266.72039	4236
270.96589	4176
275.20832	4074
279.44768	3922.5
283.68397	3763.4
287.91719	3603
292.14735	3450
296.37445	3306.8
300.59849	3212.6
304.81948	3113.5
309.03742	3042.1
313.25231	2979.2
317.46415	2913.6
321.67296	2860.9
325.87872	2806
330.08145	2771.2
334.28114	2757.5
338.47781	2723.3
342.67145	2699.2
346.86207	2667.5
351.04966	2642.3
355.23424	2627.6
359.4158	2591.9
363.59435	2553.4
367.76989	2527.2
371.94243	2495.5
376.11196	2473.1
380.27849	2430.2
384.44203	2416.4
388.60257	2414
392.76012	2398.6
396.91468	2396.4
401.06626	2414.7
405.21485	2419.1
409.36047	2426.6
413.50311	2412.3
417.64277	2410.6
421.77947	2408.1
425.9132	2434.9
430.04396	2445.6
434.17176	2474.4
438.2966	2499.6
442.41849	2534
446.53742	2549.4
450.6534	2567
454.76644	2589.4
458.87653	2593.5
462.98368	2598.1
467.08789	2599.4
471.18916	2579.7
475.2875	2584.5
479.38291	2564.6
483.4754	2546.3
487.56496	2544.2
491.6516	2539
495.73531	2520.2
499.81612	2517.8
503.89401	2514.5
507.96899	2525.5
512.04106	2539.4
516.11023	2532.3
520.1765	2531
524.23987	2549.9
528.30034	2547.9
532.35792	2549.7
536.41261	2547.1
540.46441	2551.9
544.51333	2553.8
548.55936	2562.6
552.60252	2594.3
556.64279	2622.6
560.6802	2641.7
564.71473	2657.4
568.7464	2648.6
572.7752	2628.6
576.80114	2597
580.82422	2597.6
584.84444	2597.7
588.86181	2603.8
592.87633	2637.6
596.888	2669.3
600.89682	2757.1
604.9028	2876
608.90594	3065.9
612.90624	3315.6
616.90371	3332.5
620.89834	3127.8
624.89015	2958.3
628.87913	2829.1
632.86528	2717.9
636.84862	2626.9
640.82913	2552.8
644.80683	2514.8
648.78172	2490.4
652.75379	2491.3
656.72306	2514.9
660.68952	2536.8
664.65319	2557
668.61405	2564.3
672.57211	2616.6
676.52738	2656.3
680.47986	2712.6
684.42955	2744.9
688.37646	2752.2
692.32058	2750.2
696.26192	2739.2
700.20048	2750.9
704.13626	2739.8
708.06928	2729
711.99952	2725.5
715.927	2730.1
719.85171	2708.9
723.77365	2705.2
727.69284	2721.5
731.60928	2707.3
735.52295	2711.4
739.43388	2697.1
743.34206	2687.9
747.24749	2677.8
751.15017	2686.4
755.05012	2687.2
758.94733	2701.1
762.8418	2734.5
766.73354	2806.4
770.62254	2876
774.50882	2907.7
778.39237	2882.4
782.27321	2807.3
786.15132	2750.2
790.02671	2715.7
793.89938	2702.5
797.76935	2711.1
801.6366	2725.9
805.50115	2732.5
809.36299	2734.3
813.22213	2719.9
817.07857	2706.2
820.93231	2696.9
824.78336	2701
828.63172	2701.2
832.47738	2690.3
836.32036	2701.3
840.16066	2706.3
843.99827	2715.8
847.8332	2724
851.66546	2712.8
855.49504	2700.6
859.32195	2706.4
863.1462	2717.6
866.96777	2743.7
870.78668	2767.1
874.60293	2774.3
878.41652	2788.4
882.22745	2825.6
886.03573	2877.2
889.84136	2950
893.64433	3014.3
897.44466	3103
901.24235	3186.2
905.0374	3289.7
908.8298	3407.9
912.61957	3556.9
916.40671	3742.4
920.19121	3925.1
923.97308	4083.9
927.75233	4185.4
931.52895	4193.7
935.30295	4129.9
939.07433	3964
942.84309	3794.8
946.60924	3606.9
950.37278	3494
954.13371	3372.2
957.89203	3268.5
961.64774	3190
965.40086	3119.7
969.15137	3048.5
972.89929	3003.1
976.64461	2952.2
980.38733	2927.1
984.12747	2906.8
987.86502	2892.1
991.59999	2900.1
995.33237	2909.6
999.06217	2919.7
1002.78939	2935.3
1006.51404	2947.5
1010.23611	2967.3
1013.95561	2958
1017.67255	2948.6
1021.38692	2930.2
1025.09872	2903.2
1028.80796	2911
1032.51465	2915.5
1036.21877	2944.5
1039.92035	2973.5
1043.61937	3015.4
1047.31584	3054.4
1051.00976	3089.4
1054.70114	3115.1
1058.38998	3146.7
1062.07627	3137.4
1065.76003	3117.4
1069.44126	3080.8
1073.11995	3069.5
1076.79611	3041.5
1080.46974	3019.2
1084.14085	3005
1087.80943	2985.8
1091.47549	2953
1095.13903	2916.6
1098.80005	2860.7
1102.45857	2822.9
1106.11456	2789.5
1109.76805	2759.1
1113.41903	2746.5
1117.06751	2726.2
1120.71348	2752.5
1124.35696	2760.6
1127.99793	2771.8
1131.63641	2765.2
1135.2724	2743.8
1138.90589	2700.1
1142.5369	2669
1146.16542	2636.3
1149.79145	2595.4
1153.415	2565.3
1157.03607	2562.8
1160.65467	2564.2
1164.27079	2580.8
1167.88443	2611.7
1171.49561	2685.9
1175.10432	2780.3
1178.71056	2927.8
1182.31434	3068.4
1185.91565	3190.8
1189.51451	3272
1193.11091	3267.1
1196.70485	3214.7
1200.29634	3112.2
1203.88538	3001.2
1207.47197	2894.9
1211.05612	2799.4
1214.63782	2745.8
1218.21708	2733.2
1221.79391	2749
1225.36829	2781.7
1228.94024	2818.1
1232.50976	2827.2
1236.07685	2822
1239.6415	2794.7
1243.20374	2771.8
1246.76355	2753.6
1250.32093	2740.6
1253.8759	2748.8
1257.42845	2769.8
1260.97859	2813.6
1264.52631	2841.5
1268.07163	2892.7
1271.61453	2926.6
1275.15503	2963.7
1278.69312	3013.2
1282.22882	3043.8
1285.76211	3104.4
1289.29301	3176
1292.82151	3241.9
1296.34761	3324.4
1299.87133	3381.1
1303.39266	3431.1
1306.9116	3489.6
1310.42815	3565.5
1313.94233	3572.5
1317.45412	3532.8
1320.96354	3477.2
1324.47058	3392.8
1327.97525	3345.1
1331.47754	3339.8
1334.97747	3329.7
1338.47502	3366.3
1341.97022	3420.1
1345.46305	3474.3
1348.95352	3576.1
1352.44163	3699.5
1355.92738	3832.7
1359.41078	3981.8
1362.89183	4131.9
1366.37053	4195.7
1369.84688	4066.4
1373.32088	3904.9
1376.79254	3800.1
1380.26186	3738.6
1383.72883	3708.6
1387.19347	3702.4
1390.65578	3661.9
1394.11575	3672.6
1397.57339	3626.4
1401.0287	3620.2
1404.48168	3585
1407.93234	3563.8
1411.38068	3539
1414.82669	3504.8
1418.27039	3468.3
1421.71177	3424.5
1425.15083	3366.7
1428.58758	3310.2
1432.02203	3257.1
1435.45416	3225.3
1438.88399	3213.6
1442.31151	3205.5
1445.73673	3191.6
1449.15965	3175.8
1452.58027	3165.7
1455.9986	3144
1459.41463	3139.5
1462.82837	3128.8
1466.23982	3143
1469.64898	3156.7
1473.05586	3180.7
1476.46045	3177.3
1479.86276	3200.9
1483.26279	3214.5
1486.66054	3232.1
1490.05602	3237.7
1493.44922	3264.7
1496.84016	3282.4
1500.22882	3315.6
1503.61521	3373.1
1506.99934	3460.8
1510.38121	3537.3
1513.76081	3532.8
1517.13816	3487.9
1520.51324	3363.3
1523.88607	3248.5
1527.25665	3139.4
1530.62498	3091.2
1533.99105	3061
1537.35488	3018.9
1540.71647	2991.2
1544.07581	2969.1
1547.4329	2933.7
1550.78776	2913.7
1554.14038	2906.4
1557.49077	2894.3
1560.83892	2881.7
1564.18484	2877.9
1567.52853	2869.1
1570.86999	2841.9
1574.20922	2831.2
1577.54624	2825.7
1580.88103	2765.6
1584.2136	2730.8
1587.54395	2695.7
1590.87208	2659.7
1594.19801	2652.6
1597.52172	2669.3
1600.84321	2647.2
1604.16251	2640.9
1607.47959	2598.9
1610.79447	2580.9
1614.10715	2551.1
1617.41763	2518.5
1620.7259	2506.4
1624.03199	2492.2
1627.33587	2474.2
1630.63757	2481
1633.93707	2482.6
1637.23439	2487
1640.52951	2498.3
1643.82246	2522.4
1647.11321	2552.6
1650.40179	2603.1
1653.68819	2557.5
1656.97241	2434.4
1660.25446	2326.8
1663.53433	2210.3
1666.81203	2150.7
1670.08756	2097.7
1673.36092	2068.5
1676.63211	2032.4
1679.90115	2015.8
1683.16801	1983
1686.43272	1973.2
1689.69527	1937.2
1692.95567	1926.3
1696.2139	1901.8
1699.46999	1881.5
1702.72392	1859
1705.97571	1862.2
1709.22535	1856.4
1712.47284	1852.6
1715.71819	1843.6
1718.96139	1832.3
1722.20246	1826.2
1725.44139	1821.3
1728.67818	1804.4
1731.91284	1794.5
1735.14537	1787.8
1738.37576	1776.6
1741.60403	1769.5
1744.83017	1756.1
1748.05418	1757.4
1751.27607	1751
1754.49584	1763
1757.71349	1750.8
1760.92903	1731.9
1764.14244	1727.9
1767.35375	1723.5
1770.56294	1715.6
1773.77002	1711.4
1776.97499	1712.1
1780.17785	1715.1
1783.37861	1720
1786.57727	1708.2
1789.77382	1713.5
1792.96828	1708.3
1796.16064	1697.5
1799.3509	1703
1802.53907	1701.1
1805.72514	1689.9
1808.90913	1685.4
1812.09102	1681.4
1815.27083	1676.4
1818.44856	1669.5
1821.6242	1669.3
1824.79776	1671.7
1827.96924	1665.5
1831.13864	1664.6
1834.30597	1671.6
1837.47122	1666.9
1840.6344	1662.6
1843.7955	1647.6
1846.95454	1661.2
1850.11151	1656.7
1853.26642	1650.5
1856.41926	1654.7
1859.57004	1650.9
1862.71876	1646.2
1865.86542	1656
1869.01003	1652.9
1872.15258	1642.8
1875.29308	1645.7
1878.43152	1631.9
1881.56792	1635.4
1884.70227	1627.7
1887.83457	1633.6
1890.96482	1623.5
1894.09304	1616.4
1897.21921	1615.2
1900.34335	1625.7
1903.46544	1608.5
1906.58551	1609.1
1909.70353	1610.7
1912.81953	1617.2
1915.93349	1602.3
1919.04543	1609.7
1922.15534	1591.6
1925.26322	1598.7
1928.36908	1601.5
1931.47292	1592.4
1934.57473	1582.3
1937.67453	1588.4
1940.77232	1594.7
1943.86808	1584.8
1946.96184	1563.9
1950.05358	1575
1953.14331	1570.3
1956.23103	1568.8
1959.31675	1556.5
1962.40046	1547.7
1965.48217	1543.1
1968.56188	1551
1971.63959	1540
1974.7153	1541.3
1977.78901	1530.3
1980.86073	1530
1983.93046	1516.4
1986.99819	1517.1
1990.06394	1509.4
1993.1277	1516.2
1996.18947	1502.6
1999.24925	1505.5
2002.30706	1491.5
2005.36288	1488.6
2008.41672	1485.4
2011.46859	1476.6
2014.51848	1476.8
2017.56639	1471
2020.61233	1466.4
2023.6563	1460
2026.6983	1458.6
2029.73833	1465.8
2032.7764	1449.6
2035.8125	1451.5
2038.84664	1446.6
2041.87881	1442
2044.90903	1450.1
2047.93729	1448.4
2050.96359	1457
2053.98794	1446.6
2057.01034	1443.4
2060.03078	1454.5
2063.04927	1444.6
2066.06582	1457.3
2069.08042	1464.2
2072.09307	1476.2
2075.10378	1470.2
2078.11255	1464.3
2081.11938	1477.4
2084.12426	1479.9
2087.12722	1482.4
2090.12824	1481.3
2093.12732	1495.5
2096.12447	1494.3
2099.11969	1489.7
2102.11299	1505.7
2105.10435	1496.4
2108.09379	1500.7
2111.08131	1495.4
2114.0669	1491.6
2117.05057	1494.7
2120.03233	1492.1
2123.01216	1483.1
2125.99008	1476.4
2128.96609	1474
2131.94018	1466.3
2134.91236	1460.9
2137.88263	1454.4
2140.851	1460.4
2143.81746	1449.3
2146.78201	1445.7
2149.74466	1441
2152.7054	1437.3
2155.66425	1443.2
2158.6212	1430.6
2161.57625	1427.4
2164.52941	1433.6
2167.48067	1428.6
2170.43004	1421.1
2173.37752	1423.9
2176.32311	1424.8
2179.26681	1419.6
2182.20863	1420.6
2185.14856	1423
2188.08661	1418.5
2191.02278	1415.5
2193.95707	1409
2196.88948	1427.2
2199.82001	1420.9
2202.74867	1409.7
2205.67545	1409.1
2208.60037	1405.4
2211.52341	1397.9
2214.44458	1403.1
2217.36388	1397.3
2220.28132	1396.2
2223.1969	1385.9
2226.11061	1391
2229.02246	1389
2231.93245	1387.4
2234.84058	1376.2
2237.74686	1375.7
2240.65128	1375.4
2243.55385	1375.7
2246.45456	1369.3
2249.35343	1369.5
2252.25044	1368.6
2255.14561	1363.7
2258.03893	1358
2260.93041	1342.5
2263.82004	1358.6
2266.70783	1355.8
2269.59378	1346.2
2272.4779	1347.4
2275.36017	1345.7
2278.24061	1344.8
2281.11922	1329.8
2283.996	1342.1
2286.87094	1337.4
2289.74405	1327.7
2292.61534	1331.1
2295.4848	1327.4
2298.35243	1325.7
2301.21824	1319
2304.08223	1318.2
2306.94439	1323.4
2309.80474	1321.9
2312.66327	1310.3
2315.51999	1312.4
2318.37489	1311
2321.22797	1311.5
2324.07925	1308.2
2326.92871	1318.9
2329.77637	1306.1
2332.62222	1300.4
2335.46626	1299.1
2338.3085	1296.6
2341.14893	1299.9
2343.98756	1296
2346.8244	1295
2349.65943	1298.5
2352.49267	1290
2355.32411	1285.8
2358.15376	1280.7
2360.98161	1285.4
2363.80768	1285.1
2366.63195	1284.8
2369.45444	1277.8
2372.27514	1288
2375.09405	1274.7
2377.91118	1285.9
2380.72652	1277.5
2383.54009	1271.8
2386.35187	1275.9
2389.16188	1262.4
2391.97011	1261.8
2394.77657	1262.7
2397.58125	1266.3
2400.38416	1263.2
2403.18529	1258.3
2405.98466	1255.1
2408.78226	1257.5
2411.57809	1247.6
2414.37216	1253.9
2417.16446	1242.8
2419.955	1241.4
2422.74378	1238.4
2425.5308	1239.4
2428.31606	1231.7
2431.09956	1236.6
2433.88131	1228.8
2436.6613	1237
2439.43954	1227.7
2442.21603	1218.6
2444.99077	1218.8
2447.76377	1223.3
2450.53501	1228
2453.30451	1223.7
2456.07226	1221.5
2458.83827	1221.8
2461.60254	1216.1
2464.36507	1221.9
2467.12586	1216.9
2469.88492	1214.8
2472.64224	1217.9
2475.39782	1213
2478.15167	1208
2480.90379	1215.9
2483.65417	1213.8
2486.40283	1205
2489.14976	1198.9
2491.89497	1199.9
2494.63845	1206
2497.3802	1206.2
2500.12024	1199.2
2502.85855	1193.4
2505.59514	1200.9
2508.33002	1196.5
2511.06318	1195.5
2513.79462	1189.2
2516.52435	1187.3
2519.25237	1184.8
2521.97867	1188.6
2524.70327	1183.9
2527.42616	1179.6
2530.14734	1176.4
2532.86681	1172.8
2535.58458	1177.8
2538.30065	1172.8
2541.01501	1182.3
2543.72768	1174.7
2546.43864	1169.9
2549.14791	1163.1
2551.85548	1169.6
2554.56136	1159.4
2557.26554	1158.2
2559.96803	1159.7
2562.66883	1164.7
2565.36794	1164.9
2568.06536	1155.2
2570.7611	1155.7
2573.45514	1151.1
2576.14751	1147.1
2578.83819	1143.2
2581.52719	1144
2584.21451	1145.3
2586.90015	1138.4
2589.58411	1146.4
2592.2664	1138.6
2594.94701	1134
2597.62594	1136.7
2600.30321	1138.6
2602.9788	1131.2
2605.65273	1129.9
2608.32498	1122.8
2610.99557	1132.4
2613.66449	1119.5
2616.33175	1121.3
2618.99734	1125.5
2621.66128	1117.6
2624.32355	1122.3
2626.98416	1110.5
2629.64311	1119.6
2632.30041	1120.3
2634.95605	1117
2637.61004	1120
2640.26238	1114.4
2642.91306	1121.8
2645.56209	1116.4
2648.20948	1111.2
2650.85521	1114.6
2653.4993	1117
2656.14175	1114.1
2658.78255	1122.8
2661.42171	1119.5
2664.05923	1107.1
2666.6951	1110.8
2669.32934	1108.6
2671.96194	1113.7
2674.59291	1116.2
2677.22224	1115.8
2679.84993	1124.7
2682.476	1125.1
2685.10043	1116.9
2687.72324	1122.1
2690.34441	1124.8
2692.96396	1115.1
2695.58188	1130.5
2698.19818	1121.4
2700.81285	1122.4
2703.4259	1117.4
2706.03733	1098
2708.64714	1115.2
2711.25533	1121.9
2713.86191	1121.1
2716.46687	1115.2
2719.07021	1125.7
2721.67194	1134.2
2724.27206	1119.1
2726.87057	1135.2
2729.46747	1124.7
2732.06276	1124.6
2734.65644	1130.9
2737.24852	1129
2739.83899	1136
2742.42786	1130.5
2745.01513	1128.5
2747.60079	1124.3
2750.18486	1133.5
2752.76733	1140.4
2755.3482	1135.1
2757.92747	1137.6
2760.50515	1141.5
2763.08123	1134.7
2765.65573	1137.5
2768.22863	1134.6
2770.79994	1133.5
2773.36967	1131.8
2775.9378	1138.3
2778.50435	1128.5
2781.06932	1131
2783.6327	1134.9
2786.1945	1133.9
2788.75471	1133.1
2791.31335	1116.5
2793.87041	1122.5
2796.42589	1129.1
2798.97979	1141.8
2801.53212	1120.4
2804.08288	1123.6
2806.63206	1125.4
2809.17967	1130.6
2811.72571	1122.3
2814.27018	1119.4
2816.81308	1120.3
2819.35442	1117.2
2821.89419	1114.6
2824.43239	1118.8
2826.96904	1120.1
2829.50412	1112.1
2832.03763	1122
2834.56959	1115.6
2837.1	1119.3
2839.62884	1120.4
2842.15613	1129.3
2844.68186	1141.1
2847.20604	1138.6
2849.72867	1149.2
2852.24974	1152.9
2854.76927	1165.2
2857.28724	1164.5
2859.80367	1183.3
2862.31855	1198.6
2864.83189	1216.4
2867.34368	1223.4
2869.85393	1248.5
2872.36264	1263.6
2874.8698	1282.6
2877.37543	1296.8
2879.87952	1300.8
2882.38207	1331.6
2884.88308	1339.2
2887.38256	1355
2889.88051	1367.8
2892.37692	1376.2
2894.8718	1399.1
2897.36515	1410.8
2899.85698	1410.8
2902.34727	1416.8
2904.83604	1420
2907.32328	1434
2909.809	1439.6
2912.29319	1441.1
2914.77587	1443
2917.25702	1446.6
2919.73665	1452.2
2922.21476	1455.9
2924.69136	1467.1
2927.16644	1465
2929.64	1462.1
2932.11205	1455.9
2934.58258	1454.4
2937.05161	1454.4
2939.51912	1444.2
2941.98513	1428.2
2944.44962	1407.7
2946.91261	1378.8
2949.37409	1378.6
2951.83407	1365.9
2954.29254	1341.8
2956.74951	1328.1
2959.20498	1313.6
2961.65895	1299
2964.11142	1280.8
2966.56239	1272.4
2969.01186	1260.5
2971.45984	1252
2973.90632	1242.2
2976.35131	1217.6
2978.7948	1204.8
2981.23681	1206.2
2983.67732	1181.7
2986.11635	1177.3
2988.55388	1167.7
2990.98993	1151.6
2993.4245	1141.8
2995.85758	1144.1
2998.28917	1132.3
3000.71928	1126.9
3003.14791	1124.6
3005.57506	1120.6
3008.00073	1120
3010.42493	1107.5
3012.84764	1113.9
3015.26888	1106.6
3017.68865	1104.2
3020.10694	1108.1
3022.52376	1103.9
3024.9391	1095.3
3027.35298	1090.8
3029.76539	1095.3
3032.17632	1085
3034.5858	1091.8
3036.9938	1084.7
3039.40034	1084.5
3041.80542	1084.2
3044.20903	1094.3
3046.61118	1083.4
3049.01187	1090.2
3051.4111	1087.4
3053.80888	1086.9
3056.20519	1085.2
3058.60005	1083.5
3060.99345	1083.5
3063.3854	1094.1
3065.7759	1089
3068.16494	1094.7
3070.55254	1095
3072.93868	1089.8
3075.32338	1094.3
3077.70662	1094
3080.08842	1096.7
3082.46878	1099
3084.84769	1107
3087.22515	1111.7
3089.60118	1122.1
3091.97576	1116.8
3094.3489	1126.9
3096.72061	1125.6
3099.09087	1136.8
3101.4597	1123.7
3103.82709	1141
3106.19305	1139.9
3108.55757	1147.1
3110.92066	1152.5
3113.28232	1154.3
3115.64255	1157.7
3118.00134	1154.7
3120.35871	1165.5
3122.71466	1164.8
3125.06917	1172.6
3127.42226	1178.5
3129.77393	1182.2
3132.12417	1190.1
3134.47299	1191.4
3136.82039	1194.8
3139.16636	1204.9
3141.51092	1218.9
3143.85406	1209.8
3146.19579	1228.5
3148.53609	1225.3
3150.87499	1239.8
3153.21246	1237.8
3155.54853	1244.3
3157.88318	1255.6
3160.21642	1254.1
3162.54826	1277.2
3164.87868	1274.2
3167.2077	1278.3
3169.5353	1273.9
3171.86151	1291.9
3174.18631	1288.1
3176.5097	1300.3
3178.83169	1298.5
3181.15228	1309.1
3183.47147	1305.1
3185.78926	1307.5
3188.10565	1314
3190.42065	1320.9
3192.73424	1322
3195.04645	1333.9
3197.35725	1328
3199.66667	1339.7
3201.97469	1338.9
3204.28132	1349
3206.58656	1356.9
3208.8904	1355.5
3211.19287	1364.1
3213.49394	1360.3
3215.79363	1369.9
3218.09193	1375.3
3220.38884	1371.1
3222.68438	1375.9
3224.97853	1375.3
3227.2713	1381.8
3229.56269	1383
3231.8527	1392.7
3234.14133	1389.6
3236.42858	1388.5
3238.71446	1398.3
3240.99896	1398.1
3243.28209	1397
3245.56384	1393.4
3247.84423	1400
3250.12324	1403.9
3252.40088	1400.7
3254.67715	1404.4
3256.95205	1403.8
3259.22558	1404.4
3261.49775	1406.3
3263.76855	1409.4
3266.03799	1408.8
3268.30606	1408.8
3270.57277	1396.8
3272.83812	1399.8
3275.10211	1403.9
3277.36474	1403.7
3279.62601	1402.1
3281.88593	1391.2
3284.14448	1402.7
3286.40168	1393.6
3288.65753	1386.5
3290.91202	1395
3293.16516	1385.6
3295.41695	1381.2
3297.66738	1377.1
3299.91647	1363.4
3302.16421	1360.6
3304.4106	1346.8
3306.65564	1350.1
3308.89933	1337.9
3311.14169	1332.2
3313.38269	1322.4
3315.62236	1320.8
3317.86068	1305.2
3320.09766	1294.4
3322.3333	1288
3324.5676	1288
3326.80056	1263.6
3329.03219	1250.7
3331.26248	0.8
3333.49143	0.3
3335.71905	0.1
