Data from AgNPs_FTO_APTES_UA_10uM_R6G_10uM_NaF_0.1M_Addition_RamanShift__28__13-42-37-333.txt Node

Date: Fri Dec 17 13:42:37 GMT 2021
User: TCL
Spectrometer: QEP01345
Trigger mode: 4
Integration Time (sec): 7.000000E0
Scans to average: 10
Electric dark correction enabled: true
Nonlinearity correction enabled: false
Boxcar width: 0
XAxis mode: Raman Shifts
Number of Pixels in Spectrum: 1044
>>>>>Begin Spectral Data<<<<<
46.04893	-0.7
50.45542	-0.8
54.85868	-0.4
59.25871	0.4
63.6555	72.7
68.04907	74.7
72.43941	79.3
76.82654	82.5
81.21044	82.5
85.59113	89
89.96862	89.5
94.34289	94.6
98.71396	97.7
103.08183	101.9
107.4465	100.8
111.80798	107
116.16626	106.8
120.52136	108.4
124.87327	116.5
129.222	120.7
133.56755	122.8
137.90993	134.7
142.24913	143.4
146.58517	156.7
150.91804	178.9
155.24774	210.5
159.57429	259.8
163.89768	327.1
168.21792	426.3
172.53501	575.7
176.84895	788.7
181.15975	1104.3
185.46741	1545.1
189.77193	2123.7
194.07331	2848.6
198.37157	3666.8
202.6667	4548.2
206.9587	5391
211.24758	6253.8
215.53334	7100.1
219.81599	8018.8
224.09553	9043.8
228.37195	10191.6
232.64527	11447
236.91549	12760.6
241.18261	14069.9
245.44663	15257.4
249.70755	16266.9
253.96539	17147
258.22014	17966.7
262.4718	18614.6
266.72039	19156.8
270.96589	19414.5
275.20832	19472
279.44768	19350.1
283.68397	19073.2
287.91719	18867.5
292.14735	18767.6
296.37445	18843.9
300.59849	19067.7
304.81948	19405.5
309.03742	19619.7
313.25231	19571.8
317.46415	18977.5
321.67296	18237
325.87872	17613.4
330.08145	17348.5
334.28114	17356.3
338.47781	17611.8
342.67145	18001.2
346.86207	18463.6
351.04966	19144.1
355.23424	19882.5
359.4158	20519
363.59435	20974.5
367.76989	21202.5
371.94243	21307.7
376.11196	21376.8
380.27849	21433.7
384.44203	21459.3
388.60257	21510.5
392.76012	21545.3
396.91468	21729.8
401.06626	22138.2
405.21485	22509
409.36047	22429.4
413.50311	21875.9
417.64277	21369.1
421.77947	21153.7
425.9132	21098.8
430.04396	21126.9
434.17176	21297.6
438.2966	21569.2
442.41849	21988.2
446.53742	22524.2
450.6534	23026.3
454.76644	23503.3
458.87653	23698.5
462.98368	23648.1
467.08789	23378.9
471.18916	23033.8
475.2875	22597.4
479.38291	22244.3
483.4754	22056.2
487.56496	21882.3
491.6516	21727.9
495.73531	21635.7
499.81612	21589.8
503.89401	21696
507.96899	21823.9
512.04106	22036.2
516.11023	22240.7
520.1765	22358.4
524.23987	22348.7
528.30034	22135.8
532.35792	21931.6
536.41261	21659.3
540.46441	21363.2
544.51333	21319.7
548.55936	21439.4
552.60252	21679.1
556.64279	21949.8
560.6802	22129
564.71473	22244.4
568.7464	22667.6
572.7752	22982.4
576.80114	22905
580.82422	22739.3
584.84444	22754.6
588.86181	22855.6
592.87633	23036.5
596.888	23278.4
600.89682	23746.7
604.9028	25289.1
608.90594	28996.9
612.90624	33514.7
616.90371	32451.5
620.89834	26403.8
624.89015	23492.2
628.87913	22907.9
632.86528	22952.9
636.84862	23008.9
640.82913	22815.9
644.80683	22288.6
648.78172	21918.2
652.75379	21916.7
656.72306	22307.7
660.68952	22896.6
664.65319	22810.8
668.61405	22329.7
672.57211	22097.8
676.52738	22109.8
680.47986	22149
684.42955	22143.7
688.37646	22116.1
692.32058	22145.4
696.26192	22338.5
700.20048	22517.7
704.13626	22609.3
708.06928	22555.4
711.99952	22385.5
715.927	22352.5
719.85171	22394.3
723.77365	22343.1
727.69284	22248.8
731.60928	22172.5
735.52295	22164.7
739.43388	22238.7
743.34206	22372
747.24749	22537.5
751.15017	22636.1
755.05012	22905.8
758.94733	23466.4
762.8418	24606.9
766.73354	26566.9
770.62254	28751
774.50882	29836
778.39237	29000
782.27321	26705.6
786.15132	24549.2
790.02671	23367.7
793.89938	22780
797.76935	22592.8
801.6366	22508.9
805.50115	22493.1
809.36299	22440.8
813.22213	22413.2
817.07857	22413.2
820.93231	22412.6
824.78336	22415.2
828.63172	22459.6
832.47738	22520.2
836.32036	22533.2
840.16066	22514.3
843.99827	22567.1
847.8332	22594.3
851.66546	22528.6
855.49504	22498.4
859.32195	22466.5
863.1462	22452.4
866.96777	22433.6
870.78668	22395.6
874.60293	22442.5
878.41652	22481.7
882.22745	22559.9
886.03573	22622
889.84136	22627.4
893.64433	22514.6
897.44466	22485.9
901.24235	22430
905.0374	22386.8
908.8298	22331.7
912.61957	22312.1
916.40671	22422.4
920.19121	22591.5
923.97308	22757.9
927.75233	22887.4
931.52895	22978.9
935.30295	22848.8
939.07433	22539.1
942.84309	22279
946.60924	22161.9
950.37278	22084.9
954.13371	21927.5
957.89203	21860.4
961.64774	21796.6
965.40086	21712.7
969.15137	21653.6
972.89929	21618.8
976.64461	21639.3
980.38733	21656.7
984.12747	21735.2
987.86502	21891.8
991.59999	22067.5
995.33237	22347.4
999.06217	22836.3
1002.78939	23440.7
1006.51404	23957.6
1010.23611	24320.2
1013.95561	24615.7
1017.67255	24750.9
1021.38692	24607
1025.09872	24437.8
1028.80796	24526.3
1032.51465	24858.9
1036.21877	25150.7
1039.92035	25151.4
1043.61937	24882.1
1047.31584	24448.4
1051.00976	23973.7
1054.70114	23703.4
1058.38998	23628.8
1062.07627	23715
1065.76003	23842.6
1069.44126	23944.7
1073.11995	24101.8
1076.79611	24272.2
1080.46974	24353.4
1084.14085	24561.1
1087.80943	24815.9
1091.47549	24883.8
1095.13903	24675.5
1098.80005	24225.1
1102.45857	23812.6
1106.11456	23693.2
1109.76805	23724.6
1113.41903	23958.2
1117.06751	24267.7
1120.71348	24713
1124.35696	25167
1127.99793	25582.6
1131.63641	25710.1
1135.2724	25268.3
1138.90589	24802.9
1142.5369	24446.1
1146.16542	24195
1149.79145	24033
1153.415	24009.1
1157.03607	24168
1160.65467	24489.9
1164.27079	24965.2
1167.88443	25694.7
1171.49561	26853.9
1175.10432	28631.8
1178.71056	30968.6
1182.31434	33154.8
1185.91565	34231.3
1189.51451	34148.3
1193.11091	32989.9
1196.70485	31343
1200.29634	29917.4
1203.88538	28928.8
1207.47197	27961.1
1211.05612	27223.6
1214.63782	26827.2
1218.21708	26713.1
1221.79391	26836.4
1225.36829	27034.9
1228.94024	27179
1232.50976	27270.5
1236.07685	27361.9
1239.6415	27370
1243.20374	27309.6
1246.76355	27367.8
1250.32093	27537.2
1253.8759	27995.5
1257.42845	28635.3
1260.97859	29164.1
1264.52631	29609.1
1268.07163	30075.8
1271.61453	30647.4
1275.15503	31243.4
1278.69312	31825.4
1282.22882	32326.9
1285.76211	32835.1
1289.29301	33446.2
1292.82151	34002.8
1296.34761	34617.7
1299.87133	35576.6
1303.39266	37201.8
1306.9116	39487.9
1310.42815	42242.9
1313.94233	44014.9
1317.45412	43982.1
1320.96354	42647.5
1324.47058	40973.4
1327.97525	39446.1
1331.47754	38481
1334.97747	38260.7
1338.47502	38619.5
1341.97022	39270.8
1345.46305	39717
1348.95352	40120.4
1352.44163	40819.1
1355.92738	42275.8
1359.41078	45032
1362.89183	48047.5
1366.37053	47409.8
1369.84688	42823
1373.32088	37968.5
1376.79254	34733
1380.26186	33183.8
1383.72883	32428
1387.19347	31735.3
1390.65578	31039.9
1394.11575	30640.1
1397.57339	30601.1
1401.0287	30920.8
1404.48168	31472.6
1407.93234	32165.1
1411.38068	32730.8
1414.82669	32900.7
1418.27039	32445.9
1421.71177	31870.7
1425.15083	31218.1
1428.58758	30944.4
1432.02203	30878.6
1435.45416	30936.9
1438.88399	31045.7
1442.31151	31109.4
1445.73673	31143.2
1449.15965	31295.9
1452.58027	31313.6
1455.9986	31178.3
1459.41463	31092.6
1462.82837	31292
1466.23982	31691.3
1469.64898	32208.5
1473.05586	32645.7
1476.46045	32918.7
1479.86276	33200.5
1483.26279	33622.8
1486.66054	34047.8
1490.05602	34712.6
1493.44922	35468.6
1496.84016	36416.1
1500.22882	37625.3
1503.61521	39324.2
1506.99934	41366.2
1510.38121	43302.5
1513.76081	44022.1
1517.13816	42725.7
1520.51324	39829
1523.88607	36999.2
1527.25665	34897.5
1530.62498	33717.3
1533.99105	33017.9
1537.35488	32504.1
1540.71647	32346.9
1544.07581	32255.9
1547.4329	32226.5
1550.78776	32190.8
1554.14038	32195
1557.49077	32266.6
1560.83892	32460.5
1564.18484	32645
1567.52853	32721.7
1570.86999	32843.8
1574.20922	33038.2
1577.54624	33050
1580.88103	32597
1584.2136	32017.3
1587.54395	31950
1590.87208	32820.8
1594.19801	34340.9
1597.52172	36105.8
1600.84321	37051
1604.16251	36302
1607.47959	34579.4
1610.79447	32483.8
1614.10715	30526.1
1617.41763	28977.9
1620.7259	27981.5
1624.03199	27518.3
1627.33587	27666.2
1630.63757	28212.3
1633.93707	29307.6
1637.23439	30796.8
1640.52951	32562.7
1643.82246	34350.8
1647.11321	35863.5
1650.40179	36392.4
1653.68819	35149
1656.97241	32147.2
1660.25446	28999.2
1663.53433	26712.6
1666.81203	25308.2
1670.08756	24415.7
1673.36092	23872.5
1676.63211	23456.5
1679.90115	23200.2
1683.16801	22978.4
1686.43272	22857.5
1689.69527	22748.8
1692.95567	22654.1
1696.2139	22619.9
1699.46999	22578.6
1702.72392	22554.6
1705.97571	22529
1709.22535	22503.9
1712.47284	22477
1715.71819	22525.8
1718.96139	22486.8
1722.20246	22452.5
1725.44139	22396.6
1728.67818	22291.3
1731.91284	22255.4
1735.14537	22168.3
1738.37576	22086.9
1741.60403	22059.3
1744.83017	21982.8
1748.05418	21986.1
1751.27607	21951.6
1754.49584	21902.4
1757.71349	21904.5
1760.92903	21923
1764.14244	21922.3
1767.35375	21912.2
1770.56294	21933
1773.77002	21877.7
1776.97499	21866.6
1780.17785	21857.6
1783.37861	21817.7
1786.57727	21801.4
1789.77382	21772.5
1792.96828	21772.3
1796.16064	21760.3
1799.3509	21769.1
1802.53907	21738.4
1805.72514	21705.6
1808.90913	21677.1
1812.09102	21640.8
1815.27083	21586.4
1818.44856	21552.8
1821.6242	21525.7
1824.79776	21541.3
1827.96924	21519
1831.13864	21505.4
1834.30597	21514.6
1837.47122	21570.8
1840.6344	21521.9
1843.7955	21548.7
1846.95454	21538.9
1850.11151	21522.3
1853.26642	21537
1856.41926	21559.8
1859.57004	21581.7
1862.71876	21584.7
1865.86542	21569.6
1869.01003	21593.4
1872.15258	21609
1875.29308	21601.5
1878.43152	21617.5
1881.56792	21633.8
1884.70227	21647.1
1887.83457	21662.4
1890.96482	21680.7
1894.09304	21629.5
1897.21921	21621.4
1900.34335	21686
1903.46544	21668.6
1906.58551	21675.1
1909.70353	21651.1
1912.81953	21679.5
1915.93349	21642.9
1919.04543	21647
1922.15534	21625.2
1925.26322	21560.6
1928.36908	21522.1
1931.47292	21500.9
1934.57473	21416.5
1937.67453	21322.1
1940.77232	21267.5
1943.86808	21171.3
1946.96184	21106.9
1950.05358	21047.6
1953.14331	20986.8
1956.23103	20921.2
1959.31675	20850.4
1962.40046	20828.2
1965.48217	20722.8
1968.56188	20672.4
1971.63959	20636.7
1974.7153	20574.4
1977.78901	20474.1
1980.86073	20450.6
1983.93046	20358.1
1986.99819	20338.5
1990.06394	20277
1993.1277	20250.2
1996.18947	20143.9
1999.24925	20125.8
2002.30706	20087.4
2005.36288	20032.4
2008.41672	19986.6
2011.46859	19945.6
2014.51848	19868.4
2017.56639	19849.4
2020.61233	19775.4
2023.6563	19765.5
2026.6983	19695.8
2029.73833	19672.1
2032.7764	19610.9
2035.8125	19586.6
2038.84664	19607.1
2041.87881	19565.7
2044.90903	19566.1
2047.93729	19518.3
2050.96359	19482.2
2053.98794	19462
2057.01034	19439.8
2060.03078	19441
2063.04927	19420.1
2066.06582	19403.4
2069.08042	19394.4
2072.09307	19410.1
2075.10378	19373.5
2078.11255	19356.8
2081.11938	19339.2
2084.12426	19347.5
2087.12722	19322.9
2090.12824	19340.9
2093.12732	19328.8
2096.12447	19347
2099.11969	19328.2
2102.11299	19340.7
2105.10435	19362.4
2108.09379	19369.4
2111.08131	19383.5
2114.0669	19366.9
2117.05057	19424.2
2120.03233	19393
2123.01216	19451.2
2125.99008	19460.6
2128.96609	19467.2
2131.94018	19468.2
2134.91236	19511.8
2137.88263	19532.2
2140.851	19566.8
2143.81746	19559.6
2146.78201	19592.8
2149.74466	19579.4
2152.7054	19602.2
2155.66425	19576
2158.6212	19608.2
2161.57625	19588.4
2164.52941	19598.2
2167.48067	19590.5
2170.43004	19596.3
2173.37752	19576.9
2176.32311	19587.3
2179.26681	19569.8
2182.20863	19564.2
2185.14856	19547.8
2188.08661	19583
2191.02278	19596.4
2193.95707	19569.2
2196.88948	19599.7
2199.82001	19617.5
2202.74867	19567.5
2205.67545	19550
2208.60037	19512.4
2211.52341	19533.7
2214.44458	19525.6
2217.36388	19470.7
2220.28132	19482.7
2223.1969	19410.3
2226.11061	19384
2229.02246	19351.8
2231.93245	19338.8
2234.84058	19286
2237.74686	19276.8
2240.65128	19219.5
2243.55385	19188.6
2246.45456	19199
2249.35343	19187
2252.25044	19164.4
2255.14561	19151.7
2258.03893	19160.7
2260.93041	19138.5
2263.82004	19092.2
2266.70783	19076.3
2269.59378	18994.2
2272.4779	18945.8
2275.36017	18911.1
2278.24061	18911.3
2281.11922	18852.7
2283.996	18794.8
2286.87094	18802.7
2289.74405	18759.4
2292.61534	18731.5
2295.4848	18744
2298.35243	18736.7
2301.21824	18740.1
2304.08223	18752.9
2306.94439	18725.8
2309.80474	18740.6
2312.66327	18748.1
2315.51999	18729.6
2318.37489	18744.5
2321.22797	18723.3
2324.07925	18722.1
2326.92871	18673.1
2329.77637	18676.6
2332.62222	18630.4
2335.46626	18607.4
2338.3085	18613.6
2341.14893	18627.4
2343.98756	18615.9
2346.8244	18604.8
2349.65943	18613
2352.49267	18573
2355.32411	18599.1
2358.15376	18577.6
2360.98161	18577.6
2363.80768	18541.3
2366.63195	18527.6
2369.45444	18509.4
2372.27514	18487.7
2375.09405	18487.3
2377.91118	18418.1
2380.72652	18356
2383.54009	18321.2
2386.35187	18295.8
2389.16188	18281.2
2391.97011	18218.3
2394.77657	18232.9
2397.58125	18194.8
2400.38416	18137.6
2403.18529	18137.9
2405.98466	18098.1
2408.78226	18087.7
2411.57809	18072.1
2414.37216	18003
2417.16446	17991.5
2419.955	17973.4
2422.74378	17953.4
2425.5308	17940.5
2428.31606	17925
2431.09956	17931.9
2433.88131	17882.6
2436.6613	17862.4
2439.43954	17865
2442.21603	17832.3
2444.99077	17844.9
2447.76377	17837
2450.53501	17828.5
2453.30451	17814
2456.07226	17807.9
2458.83827	17782.8
2461.60254	17729.2
2464.36507	17747.8
2467.12586	17727.5
2469.88492	17745.2
2472.64224	17740.6
2475.39782	17742.5
2478.15167	17773
2480.90379	17752.7
2483.65417	17737.6
2486.40283	17787.2
2489.14976	17808.7
2491.89497	17765.9
2494.63845	17771.5
2497.3802	17781
2500.12024	17748.9
2502.85855	17773.3
2505.59514	17727.7
2508.33002	17745.4
2511.06318	17704.3
2513.79462	17661.3
2516.52435	17667.1
2519.25237	17627.7
2521.97867	17593.9
2524.70327	17573.8
2527.42616	17573.5
2530.14734	17577
2532.86681	17539.5
2535.58458	17536.8
2538.30065	17497.6
2541.01501	17492.4
2543.72768	17443
2546.43864	17482.8
2549.14791	17460.6
2551.85548	17388.8
2554.56136	17378.6
2557.26554	17397.2
2559.96803	17361
2562.66883	17337.5
2565.36794	17340.6
2568.06536	17333.7
2570.7611	17286.5
2573.45514	17283.7
2576.14751	17247.4
2578.83819	17210.9
2581.52719	17223.4
2584.21451	17217.6
2586.90015	17228.4
2589.58411	17203
2592.2664	17186.3
2594.94701	17171
2597.62594	17157.2
2600.30321	17094.6
2602.9788	17123.3
2605.65273	17067.4
2608.32498	17096
2610.99557	17108.9
2613.66449	17065.7
2616.33175	17062.4
2618.99734	17082
2621.66128	17046.6
2624.32355	17041
2626.98416	17046.3
2629.64311	17037.7
2632.30041	17055.2
2634.95605	17013.7
2637.61004	17006.3
2640.26238	16975.6
2642.91306	16967.8
2645.56209	16926.4
2648.20948	16936.1
2650.85521	16919.1
2653.4993	16888.5
2656.14175	16882.8
2658.78255	16910.9
2661.42171	16910.1
2664.05923	16935.7
2666.6951	16904.5
2669.32934	16932.9
2671.96194	16927.1
2674.59291	16966.4
2677.22224	16941.2
2679.84993	16970.5
2682.476	16951.7
2685.10043	16943.8
2687.72324	16954.2
2690.34441	16938
2692.96396	16939
2695.58188	16991.4
2698.19818	16941.1
2700.81285	16958.7
2703.4259	16936.5
2706.03733	16959.2
2708.64714	16964.2
2711.25533	16975.9
2713.86191	16931.8
2716.46687	16970
2719.07021	16948.6
2721.67194	16926.3
2724.27206	16942.3
2726.87057	16958.6
2729.46747	16962.4
2732.06276	16938.9
2734.65644	16959.3
2737.24852	16970.3
2739.83899	16940.3
2742.42786	16913.9
2745.01513	16889.4
2747.60079	16902.6
2750.18486	16899.1
2752.76733	16926.7
2755.3482	16877.3
2757.92747	16900.2
2760.50515	16868.6
2763.08123	16834.9
2765.65573	16831.5
2768.22863	16810
2770.79994	16815.8
2773.36967	16799.1
2775.9378	16742.2
2778.50435	16765.6
2781.06932	16711.2
2783.6327	16726.1
2786.1945	16723.2
2788.75471	16721.5
2791.31335	16660.6
2793.87041	16637.7
2796.42589	16587.3
2798.97979	16579.4
2801.53212	16537.1
2804.08288	16536.6
2806.63206	16496.1
2809.17967	16476.3
2811.72571	16452
2814.27018	16458.1
2816.81308	16431.6
2819.35442	16429.3
2821.89419	16384.5
2824.43239	16393.4
2826.96904	16396.2
2829.50412	16361.1
2832.03763	16356.7
2834.56959	16357.1
2837.1	16322.2
2839.62884	16344.4
2842.15613	16319.1
2844.68186	16368
2847.20604	16351.6
2849.72867	16397.8
2852.24974	16387.1
2854.76927	16334.3
2857.28724	16354.2
2859.80367	16298.9
2862.31855	16252.9
2864.83189	16256
2867.34368	16201.2
2869.85393	16248.9
2872.36264	16220.4
2874.8698	16219.9
2877.37543	16245.3
2879.87952	16261.8
2882.38207	16226.2
2884.88308	16241.8
2887.38256	16251
2889.88051	16252.8
2892.37692	16209.8
2894.8718	16223
2897.36515	16273.9
2899.85698	16241.1
2902.34727	16285.9
2904.83604	16258.6
2907.32328	16281
2909.809	16264.8
2912.29319	16305.7
2914.77587	16295.2
2917.25702	16263.9
2919.73665	16228.8
2922.21476	16225.1
2924.69136	16243.6
2927.16644	16223
2929.64	16201
2932.11205	16156.4
2934.58258	16127.6
2937.05161	16170.8
2939.51912	16158.8
2941.98513	16124.2
2944.44962	16090.4
2946.91261	16038.9
2949.37409	16093.3
2951.83407	16085.3
2954.29254	16046.5
2956.74951	15985.7
2959.20498	15978.8
2961.65895	15977.1
2964.11142	16005.5
2966.56239	15895.5
2969.01186	15916.3
2971.45984	15860.8
2973.90632	15854.2
2976.35131	15811.3
2978.7948	15808.9
2981.23681	15748.6
2983.67732	15716.3
2986.11635	15643.1
2988.55388	15650.2
2990.98993	15612.6
2993.4245	15590.8
2995.85758	15555.4
2998.28917	15523.5
3000.71928	15498.7
3003.14791	15493.7
3005.57506	15462.1
3008.00073	15447.3
3010.42493	15427.1
3012.84764	15408.4
3015.26888	15397.3
3017.68865	15374.1
3020.10694	15363.2
3022.52376	15325
3024.9391	15278.2
3027.35298	15265.5
3029.76539	15241.6
3032.17632	15231.9
3034.5858	15199.4
3036.9938	15188.7
3039.40034	15120.6
3041.80542	15098.5
3044.20903	15066.1
3046.61118	15104.6
3049.01187	15052.7
3051.4111	15050.9
3053.80888	14994.9
3056.20519	14986.1
3058.60005	14939.5
3060.99345	14900.8
3063.3854	14900.7
3065.7759	14873.2
3068.16494	14801.2
3070.55254	14755.5
3072.93868	14758.3
3075.32338	14684.6
3077.70662	14698.8
3080.08842	14652.7
3082.46878	14659.3
3084.84769	14628.6
3087.22515	14605
3089.60118	14571.4
3091.97576	14590.7
3094.3489	14562.7
3096.72061	14577.8
3099.09087	14578.8
3101.4597	14538.8
3103.82709	14570.5
3106.19305	14513.2
3108.55757	14525.3
3110.92066	14454.2
3113.28232	14446.9
3115.64255	14409.1
3118.00134	14381.4
3120.35871	14340.3
3122.71466	14339.2
3125.06917	14329.3
3127.42226	14286.3
3129.77393	14291.2
3132.12417	14276.5
3134.47299	14290.5
3136.82039	14238.7
3139.16636	14245.7
3141.51092	14268.7
3143.85406	14266.7
3146.19579	14268.8
3148.53609	14270.1
3150.87499	14289.8
3153.21246	14289.2
3155.54853	14280.1
3157.88318	14265.9
3160.21642	14249
3162.54826	14232.6
3164.87868	14257.7
3167.2077	14233.1
3169.5353	14248.7
3171.86151	14202.5
3174.18631	14222.3
3176.5097	14190.4
3178.83169	14174.5
3181.15228	14151
3183.47147	14126.2
3185.78926	14114.7
3188.10565	14130.9
3190.42065	14127.2
3192.73424	14150.9
3195.04645	14122.9
3197.35725	14096.6
3199.66667	14107.9
3201.97469	14135.8
3204.28132	14126.5
3206.58656	14154
3208.8904	14136.6
3211.19287	14167.8
3213.49394	14158.2
3215.79363	14144.9
3218.09193	14182.2
3220.38884	14114.1
3222.68438	14128.3
3224.97853	14104.8
3227.2713	14109.8
3229.56269	14058.4
3231.8527	14073.1
3234.14133	14054.9
3236.42858	14029.7
3238.71446	14016
3240.99896	13989.4
3243.28209	13981.3
3245.56384	13971.2
3247.84423	13966.4
3250.12324	13966.4
3252.40088	13951.2
3254.67715	13944.7
3256.95205	13908
3259.22558	13907.8
3261.49775	13881.8
3263.76855	13855.2
3266.03799	13839
3268.30606	13827.8
3270.57277	13814.7
3272.83812	13776.8
3275.10211	13731.8
3277.36474	13737.8
3279.62601	13752.7
3281.88593	13724.5
3284.14448	13738.1
3286.40168	13696.9
3288.65753	13677.4
3290.91202	13660.2
3293.16516	13608.4
3295.41695	13593
3297.66738	13518.2
3299.91647	13472.3
3302.16421	13367.8
3304.4106	13343.7
3306.65564	13234.2
3308.89933	13217
3311.14169	13102.5
3313.38269	13012.1
3315.62236	12965.6
3317.86068	12847.7
3320.09766	12712.3
3322.3333	12613.9
3324.5676	12615
3326.80056	12406.9
3329.03219	12362.4
3331.26248	2.8
3333.49143	1.2
3335.71905	-0.8
