Data from AgNPs_FTO_APTES_UA_50uM_R6G_10uM_NaF_0.1M_Addition_RamanShift__10__14-47-57-407.txt Node

Date: Fri Dec 17 14:47:57 GMT 2021
User: TCL
Spectrometer: QEP01345
Trigger mode: 4
Integration Time (sec): 7.000000E0
Scans to average: 10
Electric dark correction enabled: true
Nonlinearity correction enabled: false
Boxcar width: 0
XAxis mode: Raman Shifts
Number of Pixels in Spectrum: 1044
>>>>>Begin Spectral Data<<<<<
46.04893	0.025
50.45542	-0.875
54.85868	-0.975
59.25871	0.325
63.6555	87.625
68.04907	87.225
72.43941	91.925
76.82654	99.725
81.21044	101.625
85.59113	106.725
89.96862	111.525
94.34289	112.325
98.71396	115.825
103.08183	121.225
107.4465	122.025
111.80798	127.525
116.16626	130.125
120.52136	132.125
124.87327	144.325
129.222	148.925
133.56755	154.425
137.90993	167.425
142.24913	180.825
146.58517	201.325
150.91804	232.125
155.24774	274.025
159.57429	339.325
163.89768	430.825
168.21792	570.225
172.53501	770.025
176.84895	1061.625
181.15975	1493.025
185.46741	2112.025
189.77193	2903.325
194.07331	3878.325
198.37157	5029.825
202.6667	6227.625
206.9587	7399.525
211.24758	8586.525
215.53334	9719.325
219.81599	10935.825
224.09553	12228.025
228.37195	13727.225
232.64527	15356.925
236.91549	17100.825
241.18261	18907.025
245.44663	20607.825
249.70755	22148.325
253.96539	23519.825
258.22014	24674.725
262.4718	25565.725
266.72039	26152.425
270.96589	26441.225
275.20832	26493.125
279.44768	26335.925
283.68397	26099.325
287.91719	25838.525
292.14735	25612.325
296.37445	25558.725
300.59849	25573.725
304.81948	25581.525
309.03742	25597.225
313.25231	25444.625
317.46415	25128.525
321.67296	24703.725
325.87872	24294.525
330.08145	24128.425
334.28114	24160.825
338.47781	24339.825
342.67145	24622.325
346.86207	24901.925
351.04966	25272.925
355.23424	25672.925
359.4158	25981.425
363.59435	26309.925
367.76989	26509.225
371.94243	26724.425
376.11196	26849.925
380.27849	26979.125
384.44203	27099.025
388.60257	27288.825
392.76012	27528.725
396.91468	27903.125
401.06626	28258.525
405.21485	28544.225
409.36047	28534.725
413.50311	28322.825
417.64277	28108.625
421.77947	28028.325
425.9132	28131.825
430.04396	28272.125
434.17176	28432.525
438.2966	28548.025
442.41849	28749.025
446.53742	29069.825
450.6534	29471.725
454.76644	29818.625
458.87653	30036.925
462.98368	30138.525
467.08789	30102.225
471.18916	29939.525
475.2875	29728.125
479.38291	29490.425
483.4754	29273.925
487.56496	29014.925
491.6516	28890.825
495.73531	28821.425
499.81612	28794.525
503.89401	28998.725
507.96899	29106.525
512.04106	29158.525
516.11023	29145.425
520.1765	29061.225
524.23987	28872.725
528.30034	28738.325
532.35792	28560.125
536.41261	28422.625
540.46441	28301.425
544.51333	28286.625
548.55936	28496.025
552.60252	28867.625
556.64279	29247.925
560.6802	29400.725
564.71473	29495.125
568.7464	29670.325
572.7752	30075.525
576.80114	30598.725
580.82422	31147.925
584.84444	31619.725
588.86181	31922.025
592.87633	31973.625
596.888	31845.525
600.89682	31849.125
604.9028	32498.925
608.90594	34406.325
612.90624	36261.025
616.90371	34890.125
620.89834	31137.325
624.89015	29438.525
628.87913	29200.225
632.86528	29429.725
636.84862	29631.625
640.82913	29456.725
644.80683	29032.725
648.78172	28717.725
652.75379	28639.125
656.72306	28905.425
660.68952	29197.325
664.65319	29208.625
668.61405	28942.025
672.57211	28955.225
676.52738	28981.725
680.47986	29013.525
684.42955	28848.925
688.37646	28823.225
692.32058	28910.625
696.26192	29086.425
700.20048	29335.625
704.13626	29492.925
708.06928	29506.125
711.99952	29396.825
715.927	29275.425
719.85171	29326.125
723.77365	29197.625
727.69284	28993.925
731.60928	28767.925
735.52295	28644.125
739.43388	28640.325
743.34206	28705.825
747.24749	28791.425
751.15017	28905.625
755.05012	29162.925
758.94733	29676.325
762.8418	30564.525
766.73354	32078.425
770.62254	33498.525
774.50882	33938.925
778.39237	33040.725
782.27321	31586.225
786.15132	30317.325
790.02671	29477.525
793.89938	29000.925
797.76935	28822.225
801.6366	28654.325
805.50115	28608.825
809.36299	28464.225
813.22213	28398.525
817.07857	28340.525
820.93231	28311.625
824.78336	28289.525
828.63172	28246.125
832.47738	28237.225
836.32036	28221.425
840.16066	28228.525
843.99827	28235.725
847.8332	28162.625
851.66546	28185.725
855.49504	28270.525
859.32195	28255.625
863.1462	28245.225
866.96777	28257.725
870.78668	28201.525
874.60293	28252.925
878.41652	28318.025
882.22745	28372.725
886.03573	28436.025
889.84136	28472.325
893.64433	28436.725
897.44466	28310.625
901.24235	28269.425
905.0374	28246.625
908.8298	28207.325
912.61957	28218.925
916.40671	28340.325
920.19121	28540.725
923.97308	28613.425
927.75233	28585.225
931.52895	28515.525
935.30295	28293.125
939.07433	28068.725
942.84309	27869.625
946.60924	27751.225
950.37278	27643.125
954.13371	27538.925
957.89203	27579.425
961.64774	27567.425
965.40086	27485.125
969.15137	27485.725
972.89929	27411.625
976.64461	27391.225
980.38733	27418.525
984.12747	27401.625
987.86502	27515.125
991.59999	27600.925
995.33237	27734.425
999.06217	27985.125
1002.78939	28267.625
1006.51404	28615.825
1010.23611	28947.025
1013.95561	29151.025
1017.67255	29221.425
1021.38692	29017.425
1025.09872	28786.225
1028.80796	28627.225
1032.51465	28502.825
1036.21877	28516.625
1039.92035	28536.925
1043.61937	28679.725
1047.31584	28741.125
1051.00976	28779.225
1054.70114	28887.225
1058.38998	29053.125
1062.07627	29262.625
1065.76003	29611.525
1069.44126	29933.225
1073.11995	30341.225
1076.79611	30716.525
1080.46974	30827.925
1084.14085	30860.825
1087.80943	30934.425
1091.47549	31055.025
1095.13903	31071.125
1098.80005	30960.525
1102.45857	30552.525
1106.11456	30177.225
1109.76805	29910.825
1113.41903	29730.125
1117.06751	29722.925
1120.71348	29886.725
1124.35696	30084.125
1127.99793	30258.625
1131.63641	30411.925
1135.2724	30303.925
1138.90589	30202.925
1142.5369	30177.325
1146.16542	30167.225
1149.79145	30216.725
1153.415	30292.225
1157.03607	30442.125
1160.65467	30722.425
1164.27079	31381.125
1167.88443	32203.025
1171.49561	33259.825
1175.10432	34546.825
1178.71056	36113.925
1182.31434	37767.925
1185.91565	38985.225
1189.51451	39584.525
1193.11091	39560.625
1196.70485	38884.225
1200.29634	37784.525
1203.88538	36732.125
1207.47197	35754.425
1211.05612	34992.625
1214.63782	34369.825
1218.21708	33804.225
1221.79391	33246.425
1225.36829	32862.625
1228.94024	32706.425
1232.50976	32646.025
1236.07685	32696.725
1239.6415	32699.625
1243.20374	32771.925
1246.76355	32976.225
1250.32093	33290.925
1253.8759	33649.725
1257.42845	34230.125
1260.97859	34858.725
1264.52631	35499.125
1268.07163	36057.225
1271.61453	36604.825
1275.15503	37043.625
1278.69312	37424.225
1282.22882	37834.025
1285.76211	38255.825
1289.29301	38752.525
1292.82151	39425.625
1296.34761	40124.225
1299.87133	41089.725
1303.39266	42186.225
1306.9116	43340.225
1310.42815	44544.425
1313.94233	45204.325
1317.45412	45176.225
1320.96354	44908.925
1324.47058	44732.125
1327.97525	44662.925
1331.47754	44683.525
1334.97747	44984.925
1338.47502	45564.925
1341.97022	46214.525
1345.46305	46899.725
1348.95352	47433.325
1352.44163	47613.425
1355.92738	47635.125
1359.41078	48003.725
1362.89183	48232.925
1366.37053	47292.825
1369.84688	44659.325
1373.32088	41503.025
1376.79254	39150.825
1380.26186	37922.125
1383.72883	37303.225
1387.19347	36923.525
1390.65578	36448.925
1394.11575	36018.625
1397.57339	35762.025
1401.0287	35672.625
1404.48168	35697.325
1407.93234	35754.225
1411.38068	35604.125
1414.82669	35257.725
1418.27039	34684.125
1421.71177	34032.925
1425.15083	33485.625
1428.58758	33241.325
1432.02203	33306.325
1435.45416	33631.025
1438.88399	34015.325
1442.31151	34413.225
1445.73673	34601.525
1449.15965	34828.425
1452.58027	34939.925
1455.9986	35020.725
1459.41463	35328.925
1462.82837	35883.725
1466.23982	36403.125
1469.64898	36879.725
1473.05586	37236.025
1476.46045	37429.425
1479.86276	37484.125
1483.26279	37484.925
1486.66054	37508.425
1490.05602	37814.425
1493.44922	38204.025
1496.84016	38990.625
1500.22882	40202.925
1503.61521	41687.025
1506.99934	43194.125
1510.38121	44148.625
1513.76081	44147.925
1517.13816	43170.125
1520.51324	41700.525
1523.88607	40413.225
1527.25665	39597.125
1530.62498	39107.925
1533.99105	38821.425
1537.35488	38446.225
1540.71647	38027.125
1544.07581	37498.125
1547.4329	36998.825
1550.78776	36536.225
1554.14038	36217.825
1557.49077	36077.925
1560.83892	36026.225
1564.18484	36049.025
1567.52853	36133.325
1570.86999	36277.025
1574.20922	36571.325
1577.54624	36774.625
1580.88103	36553.825
1584.2136	36247.325
1587.54395	36218.125
1590.87208	36668.725
1594.19801	37537.725
1597.52172	38737.425
1600.84321	39257.225
1604.16251	38689.325
1607.47959	37463.325
1610.79447	36037.125
1614.10715	34442.525
1617.41763	32780.325
1620.7259	31603.825
1624.03199	30816.725
1627.33587	30515.325
1630.63757	30703.925
1633.93707	31507.925
1637.23439	32962.525
1640.52951	35070.425
1643.82246	37547.025
1647.11321	39621.225
1650.40179	40312.325
1653.68819	38997.225
1656.97241	36224.525
1660.25446	33122.225
1663.53433	30650.625
1666.81203	28965.425
1670.08756	27844.125
1673.36092	27185.125
1676.63211	26656.825
1679.90115	26296.725
1683.16801	26069.525
1686.43272	25842.025
1689.69527	25642.925
1692.95567	25488.425
1696.2139	25450.325
1699.46999	25373.825
1702.72392	25328.525
1705.97571	25241.125
1709.22535	25183.825
1712.47284	25173.025
1715.71819	25141.225
1718.96139	25105.225
1722.20246	24989.625
1725.44139	24917.725
1728.67818	24823.025
1731.91284	24733.825
1735.14537	24636.225
1738.37576	24589.725
1741.60403	24481.825
1744.83017	24425.325
1748.05418	24348.425
1751.27607	24315.125
1754.49584	24249.725
1757.71349	24286.425
1760.92903	24255.925
1764.14244	24192.625
1767.35375	24213.425
1770.56294	24179.925
1773.77002	24146.225
1776.97499	24136.925
1780.17785	24062.825
1783.37861	24054.525
1786.57727	24028.725
1789.77382	23975.525
1792.96828	23942.225
1796.16064	23879.225
1799.3509	23835.825
1802.53907	23796.825
1805.72514	23705.625
1808.90913	23651.525
1812.09102	23638.025
1815.27083	23591.825
1818.44856	23597.225
1821.6242	23536.825
1824.79776	23519.025
1827.96924	23456.525
1831.13864	23490.525
1834.30597	23472.825
1837.47122	23504.725
1840.6344	23418.525
1843.7955	23452.625
1846.95454	23453.725
1850.11151	23377.925
1853.26642	23364.425
1856.41926	23374.025
1859.57004	23388.625
1862.71876	23331.725
1865.86542	23296.325
1869.01003	23305.325
1872.15258	23284.825
1875.29308	23213.825
1878.43152	23179.825
1881.56792	23144.425
1884.70227	23093.225
1887.83457	23072.725
1890.96482	23013.125
1894.09304	22988.925
1897.21921	22938.125
1900.34335	23003.525
1903.46544	22928.725
1906.58551	22915.825
1909.70353	22881.625
1912.81953	22879.725
1915.93349	22827.525
1919.04543	22752.525
1922.15534	22712.825
1925.26322	22693.925
1928.36908	22597.525
1931.47292	22585.425
1934.57473	22510.025
1937.67453	22447.325
1940.77232	22393.725
1943.86808	22329.525
1946.96184	22289.125
1950.05358	22234.125
1953.14331	22237.025
1956.23103	22152.025
1959.31675	22039.725
1962.40046	22025.225
1965.48217	21987.625
1968.56188	21906.925
1971.63959	21874.525
1974.7153	21755.925
1977.78901	21678.325
1980.86073	21631.725
1983.93046	21573.225
1986.99819	21489.225
1990.06394	21426.725
1993.1277	21341.925
1996.18947	21284.225
1999.24925	21257.425
2002.30706	21194.125
2005.36288	21108.525
2008.41672	21039.625
2011.46859	21008.725
2014.51848	20966.425
2017.56639	20885.825
2020.61233	20803.325
2023.6563	20769.525
2026.6983	20736.125
2029.73833	20675.525
2032.7764	20604.125
2035.8125	20587.325
2038.84664	20535.425
2041.87881	20490.525
2044.90903	20453.225
2047.93729	20427.925
2050.96359	20459.025
2053.98794	20404.125
2057.01034	20362.425
2060.03078	20322.025
2063.04927	20316.025
2066.06582	20298.025
2069.08042	20275.325
2072.09307	20287.025
2075.10378	20236.625
2078.11255	20252.725
2081.11938	20251.725
2084.12426	20215.325
2087.12722	20211.025
2090.12824	20173.125
2093.12732	20183.425
2096.12447	20221.225
2099.11969	20173.325
2102.11299	20216.125
2105.10435	20216.425
2108.09379	20236.825
2111.08131	20267.525
2114.0669	20261.025
2117.05057	20264.225
2120.03233	20287.925
2123.01216	20313.825
2125.99008	20333.425
2128.96609	20331.525
2131.94018	20334.525
2134.91236	20375.725
2137.88263	20345.325
2140.851	20363.725
2143.81746	20421.825
2146.78201	20391.125
2149.74466	20396.025
2152.7054	20393.125
2155.66425	20386.725
2158.6212	20413.325
2161.57625	20371.525
2164.52941	20387.925
2167.48067	20363.825
2170.43004	20377.325
2173.37752	20384.025
2176.32311	20309.525
2179.26681	20339.125
2182.20863	20309.225
2185.14856	20281.725
2188.08661	20306.325
2191.02278	20322.425
2193.95707	20307.125
2196.88948	20271.925
2199.82001	20277.125
2202.74867	20217.325
2205.67545	20250.025
2208.60037	20199.925
2211.52341	20173.525
2214.44458	20144.125
2217.36388	20070.625
2220.28132	20013.825
2223.1969	20005.925
2226.11061	19966.525
2229.02246	19933.625
2231.93245	19901.425
2234.84058	19860.725
2237.74686	19833.525
2240.65128	19806.125
2243.55385	19776.325
2246.45456	19776.725
2249.35343	19750.525
2252.25044	19709.625
2255.14561	19646.425
2258.03893	19662.425
2260.93041	19604.125
2263.82004	19575.025
2266.70783	19532.325
2269.59378	19466.425
2272.4779	19464.125
2275.36017	19371.525
2278.24061	19379.525
2281.11922	19348.525
2283.996	19320.925
2286.87094	19279.025
2289.74405	19251.825
2292.61534	19206.725
2295.4848	19155.725
2298.35243	19167.925
2301.21824	19129.325
2304.08223	19118.925
2306.94439	19094.325
2309.80474	19091.625
2312.66327	19089.125
2315.51999	19016.125
2318.37489	19059.825
2321.22797	19007.825
2324.07925	18978.225
2326.92871	18948.725
2329.77637	18936.425
2332.62222	18902.025
2335.46626	18890.825
2338.3085	18862.125
2341.14893	18822.925
2343.98756	18807.825
2346.8244	18779.825
2349.65943	18737.525
2352.49267	18782.725
2355.32411	18744.625
2358.15376	18755.625
2360.98161	18735.825
2363.80768	18746.525
2366.63195	18723.925
2369.45444	18717.125
2372.27514	18674.525
2375.09405	18636.325
2377.91118	18633.225
2380.72652	18578.025
2383.54009	18540.425
2386.35187	18530.525
2389.16188	18460.725
2391.97011	18441.025
2394.77657	18425.325
2397.58125	18355.725
2400.38416	18347.425
2403.18529	18297.725
2405.98466	18318.025
2408.78226	18243.825
2411.57809	18250.025
2414.37216	18242.425
2417.16446	18254.525
2419.955	18168.525
2422.74378	18174.425
2425.5308	18146.725
2428.31606	18148.325
2431.09956	18147.625
2433.88131	18105.925
2436.6613	18101.725
2439.43954	18062.025
2442.21603	18056.925
2444.99077	18064.525
2447.76377	18035.825
2450.53501	18060.125
2453.30451	18008.125
2456.07226	17968.725
2458.83827	17966.325
2461.60254	17934.725
2464.36507	17944.025
2467.12586	17914.125
2469.88492	17901.225
2472.64224	17894.025
2475.39782	17906.625
2478.15167	17873.625
2480.90379	17847.225
2483.65417	17859.125
2486.40283	17814.625
2489.14976	17845.625
2491.89497	17798.625
2494.63845	17808.625
2497.3802	17785.325
2500.12024	17756.725
2502.85855	17736.125
2505.59514	17782.225
2508.33002	17761.625
2511.06318	17727.525
2513.79462	17732.525
2516.52435	17659.425
2519.25237	17669.425
2521.97867	17661.225
2524.70327	17622.125
2527.42616	17582.825
2530.14734	17586.125
2532.86681	17531.725
2535.58458	17524.925
2538.30065	17497.125
2541.01501	17483.025
2543.72768	17468.525
2546.43864	17427.325
2549.14791	17415.825
2551.85548	17376.125
2554.56136	17359.825
2557.26554	17333.725
2559.96803	17309.125
2562.66883	17269.125
2565.36794	17269.025
2568.06536	17233.325
2570.7611	17215.825
2573.45514	17179.825
2576.14751	17175.725
2578.83819	17144.025
2581.52719	17105.425
2584.21451	17079.225
2586.90015	17044.725
2589.58411	17000.325
2592.2664	16994.525
2594.94701	16944.625
2597.62594	16937.125
2600.30321	16904.725
2602.9788	16858.325
2605.65273	16854.625
2608.32498	16827.525
2610.99557	16836.925
2613.66449	16792.825
2616.33175	16770.025
2618.99734	16769.925
2621.66128	16729.125
2624.32355	16727.425
2626.98416	16702.225
2629.64311	16693.925
2632.30041	16695.225
2634.95605	16647.625
2637.61004	16647.225
2640.26238	16596.725
2642.91306	16624.925
2645.56209	16560.625
2648.20948	16554.625
2650.85521	16573.525
2653.4993	16595.625
2656.14175	16525.025
2658.78255	16594.725
2661.42171	16596.925
2664.05923	16574.625
2666.6951	16584.725
2669.32934	16543.725
2671.96194	16539.625
2674.59291	16579.525
2677.22224	16556.325
2679.84993	16558.625
2682.476	16549.325
2685.10043	16569.625
2687.72324	16546.125
2690.34441	16536.525
2692.96396	16522.025
2695.58188	16538.125
2698.19818	16530.125
2700.81285	16574.225
2703.4259	16528.225
2706.03733	16528.725
2708.64714	16506.625
2711.25533	16538.525
2713.86191	16485.425
2716.46687	16527.225
2719.07021	16519.825
2721.67194	16498.025
2724.27206	16469.825
2726.87057	16497.525
2729.46747	16482.225
2732.06276	16495.525
2734.65644	16448.825
2737.24852	16498.125
2739.83899	16455.525
2742.42786	16462.525
2745.01513	16415.925
2747.60079	16391.525
2750.18486	16410.025
2752.76733	16400.725
2755.3482	16357.225
2757.92747	16364.925
2760.50515	16322.125
2763.08123	16328.125
2765.65573	16261.025
2768.22863	16288.325
2770.79994	16220.525
2773.36967	16220.525
2775.9378	16181.825
2778.50435	16184.925
2781.06932	16169.125
2783.6327	16142.725
2786.1945	16137.325
2788.75471	16087.025
2791.31335	16074.625
2793.87041	16014.625
2796.42589	15979.625
2798.97979	15974.925
2801.53212	15960.825
2804.08288	15884.025
2806.63206	15879.025
2809.17967	15844.425
2811.72571	15813.625
2814.27018	15825.625
2816.81308	15755.325
2819.35442	15749.125
2821.89419	15727.625
2824.43239	15695.825
2826.96904	15697.525
2829.50412	15629.925
2832.03763	15626.125
2834.56959	15612.625
2837.1	15579.425
2839.62884	15582.725
2842.15613	15558.525
2844.68186	15537.825
2847.20604	15526.025
2849.72867	15540.925
2852.24974	15519.925
2854.76927	15478.425
2857.28724	15480.325
2859.80367	15455.025
2862.31855	15432.325
2864.83189	15398.925
2867.34368	15368.525
2869.85393	15377.825
2872.36264	15345.325
2874.8698	15348.525
2877.37543	15339.725
2879.87952	15372.325
2882.38207	15333.825
2884.88308	15315.525
2887.38256	15323.525
2889.88051	15304.025
2892.37692	15300.825
2894.8718	15315.525
2897.36515	15319.225
2899.85698	15309.625
2902.34727	15345.325
2904.83604	15291.125
2907.32328	15307.625
2909.809	15309.725
2912.29319	15322.425
2914.77587	15320.425
2917.25702	15307.525
2919.73665	15291.225
2922.21476	15270.325
2924.69136	15261.925
2927.16644	15280.325
2929.64	15242.825
2932.11205	15231.325
2934.58258	15195.225
2937.05161	15201.025
2939.51912	15221.325
2941.98513	15193.525
2944.44962	15184.125
2946.91261	15117.325
2949.37409	15145.525
2951.83407	15096.725
2954.29254	15119.925
2956.74951	15085.225
2959.20498	15076.525
2961.65895	15032.625
2964.11142	15041.725
2966.56239	15019.125
2969.01186	15026.225
2971.45984	14969.125
2973.90632	14956.225
2976.35131	14928.725
2978.7948	14891.225
2981.23681	14844.525
2983.67732	14833.825
2986.11635	14811.125
2988.55388	14782.125
2990.98993	14759.525
2993.4245	14721.925
2995.85758	14697.025
2998.28917	14657.425
3000.71928	14633.125
3003.14791	14589.425
3005.57506	14606.225
3008.00073	14567.225
3010.42493	14534.925
3012.84764	14509.425
3015.26888	14496.425
3017.68865	14489.925
3020.10694	14484.825
3022.52376	14418.325
3024.9391	14387.225
3027.35298	14359.725
3029.76539	14319.825
3032.17632	14332.325
3034.5858	14301.525
3036.9938	14298.425
3039.40034	14254.525
3041.80542	14265.125
3044.20903	14234.625
3046.61118	14237.925
3049.01187	14179.725
3051.4111	14137.725
3053.80888	14123.125
3056.20519	14132.325
3058.60005	14083.125
3060.99345	14070.725
3063.3854	14023.225
3065.7759	14010.225
3068.16494	13980.325
3070.55254	13978.025
3072.93868	13925.725
3075.32338	13891.525
3077.70662	13856.525
3080.08842	13836.925
3082.46878	13826.125
3084.84769	13817.125
3087.22515	13823.625
3089.60118	13808.725
3091.97576	13759.725
3094.3489	13782.325
3096.72061	13759.325
3099.09087	13751.625
3101.4597	13724.225
3103.82709	13722.125
3106.19305	13676.925
3108.55757	13667.525
3110.92066	13616.725
3113.28232	13618.525
3115.64255	13588.525
3118.00134	13548.225
3120.35871	13533.525
3122.71466	13509.125
3125.06917	13489.625
3127.42226	13453.025
