Data from AgNPs_FTO_APTES_UA_200uM_R6G_10uM_NaF_0.1M_Addition_RamanShift__36__16-42-17-540.txt Node

Date: Fri Dec 17 16:42:17 GMT 2021
User: TCL
Spectrometer: QEP01345
Trigger mode: 4
Integration Time (sec): 7.000000E0
Scans to average: 10
Electric dark correction enabled: true
Nonlinearity correction enabled: false
Boxcar width: 0
XAxis mode: Raman Shifts
Number of Pixels in Spectrum: 1044
>>>>>Begin Spectral Data<<<<<
46.04893	0.1375
50.45542	-0.4625
54.85868	-1.0625
59.25871	0.3375
63.6555	43.0375
68.04907	43.3375
72.43941	44.1375
76.82654	51.9375
81.21044	46.7375
85.59113	52.8375
89.96862	54.7375
94.34289	57.8375
98.71396	57.7375
103.08183	60.7375
107.4465	62.8375
111.80798	61.6375
116.16626	66.9375
120.52136	63.6375
124.87327	68.6375
129.222	71.0375
133.56755	74.6375
137.90993	76.0375
142.24913	83.4375
146.58517	90.0375
150.91804	101.1375
155.24774	119.5375
159.57429	146.9375
163.89768	183.7375
168.21792	239.2375
172.53501	315.9375
176.84895	442.7375
181.15975	611.2375
185.46741	854.9375
189.77193	1183.7375
194.07331	1586.2375
198.37157	2041.9375
202.6667	2543.2375
206.9587	3017.0375
211.24758	3497.2375
215.53334	3976.7375
219.81599	4460.9375
224.09553	5020.3375
228.37195	5639.6375
232.64527	6301.0375
236.91549	7028.2375
241.18261	7766.1375
245.44663	8460.7375
249.70755	9054.7375
253.96539	9579.4375
258.22014	10038.6375
262.4718	10413.0375
266.72039	10688.9375
270.96589	10830.2375
275.20832	10845.0375
279.44768	10716.5375
283.68397	10548.9375
287.91719	10366.4375
292.14735	10234.5375
296.37445	10212.4375
300.59849	10253.9375
304.81948	10312.5375
309.03742	10284.1375
313.25231	10179.6375
317.46415	9976.4375
321.67296	9729.1375
325.87872	9530.1375
330.08145	9458.9375
334.28114	9482.3375
338.47781	9554.7375
342.67145	9692.0375
346.86207	9834.7375
351.04966	10042.0375
355.23424	10306.4375
359.4158	10528.2375
363.59435	10698.9375
367.76989	10857.2375
371.94243	10982.5375
376.11196	11096.9375
380.27849	11176.3375
384.44203	11222.6375
388.60257	11258.9375
392.76012	11288.8375
396.91468	11334.2375
401.06626	11462.1375
405.21485	11516.7375
409.36047	11482.7375
413.50311	11277.9375
417.64277	11055.4375
421.77947	10912.8375
425.9132	10906.6375
430.04396	10862.5375
434.17176	10916.4375
438.2966	10976.3375
442.41849	11073.2375
446.53742	11189.3375
450.6534	11286.1375
454.76644	11389.5375
458.87653	11443.1375
462.98368	11440.8375
467.08789	11437.9375
471.18916	11391.1375
475.2875	11353.4375
479.38291	11297.4375
483.4754	11250.1375
487.56496	11208.7375
491.6516	11225.4375
495.73531	11230.3375
499.81612	11240.9375
503.89401	11276.4375
507.96899	11306.6375
512.04106	11350.3375
516.11023	11408.0375
520.1765	11470.8375
524.23987	11473.8375
528.30034	11406.7375
532.35792	11360.3375
536.41261	11270.3375
540.46441	11184.3375
544.51333	11128.6375
548.55936	11126.6375
552.60252	11170.5375
556.64279	11252.5375
560.6802	11293.4375
564.71473	11325.6375
568.7464	11371.9375
572.7752	11421.1375
576.80114	11378.0375
580.82422	11286.3375
584.84444	11270.8375
588.86181	11324.5375
592.87633	11365.2375
596.888	11411.0375
600.89682	11535.9375
604.9028	12008.9375
608.90594	13169.8375
612.90624	14750.9375
616.90371	14525.2375
620.89834	12590.6375
624.89015	11669.4375
628.87913	11588.2375
632.86528	11723.9375
636.84862	11919.0375
640.82913	11920.5375
644.80683	11662.4375
648.78172	11404.5375
652.75379	11251.2375
656.72306	11291.7375
660.68952	11397.8375
664.65319	11339.8375
668.61405	11126.9375
672.57211	11004.2375
676.52738	11020.0375
680.47986	11023.5375
684.42955	11019.3375
688.37646	10967.2375
692.32058	10990.6375
696.26192	11011.2375
700.20048	11034.0375
704.13626	11050.3375
708.06928	11043.4375
711.99952	11028.8375
715.927	11002.0375
719.85171	11009.4375
723.77365	11047.7375
727.69284	11022.0375
731.60928	10985.8375
735.52295	10937.3375
739.43388	10925.9375
743.34206	10930.7375
747.24749	10909.1375
751.15017	10920.2375
755.05012	10947.0375
758.94733	11049.0375
762.8418	11394.9375
766.73354	12050.5375
770.62254	12858.9375
774.50882	13410.8375
778.39237	13121.3375
782.27321	12279.7375
786.15132	11507.5375
790.02671	11064.5375
793.89938	10872.5375
797.76935	10782.4375
801.6366	10753.0375
805.50115	10765.1375
809.36299	10771.9375
813.22213	10809.9375
817.07857	10795.8375
820.93231	10765.0375
824.78336	10699.7375
828.63172	10655.6375
832.47738	10614.5375
836.32036	10573.8375
840.16066	10566.0375
843.99827	10553.7375
847.8332	10521.5375
851.66546	10512.4375
855.49504	10508.3375
859.32195	10520.5375
863.1462	10531.5375
866.96777	10508.2375
870.78668	10534.9375
874.60293	10546.3375
878.41652	10547.6375
882.22745	10595.5375
886.03573	10638.3375
889.84136	10665.4375
893.64433	10659.6375
897.44466	10562.6375
901.24235	10507.1375
905.0374	10420.7375
908.8298	10365.0375
912.61957	10297.1375
916.40671	10291.1375
920.19121	10333.0375
923.97308	10319.4375
927.75233	10321.2375
931.52895	10340.7375
935.30295	10323.3375
939.07433	10232.5375
942.84309	10132.3375
946.60924	10058.4375
950.37278	9979.1375
954.13371	9964.7375
957.89203	9916.7375
961.64774	9897.7375
965.40086	9857.5375
969.15137	9798.1375
972.89929	9831.2375
976.64461	9806.4375
980.38733	9797.1375
984.12747	9793.1375
987.86502	9827.9375
991.59999	9819.8375
995.33237	9866.4375
999.06217	9940.2375
1002.78939	9984.4375
1006.51404	10058.6375
1010.23611	10119.1375
1013.95561	10162.2375
1017.67255	10169.2375
1021.38692	10159.3375
1025.09872	10103.7375
1028.80796	10055.7375
1032.51465	10059.6375
1036.21877	10034.2375
1039.92035	10060.6375
1043.61937	10049.6375
1047.31584	10044.0375
1051.00976	9991.7375
1054.70114	10010.7375
1058.38998	9986.8375
1062.07627	10018.7375
1065.76003	10067.5375
1069.44126	10142.2375
1073.11995	10227.4375
1076.79611	10290.9375
1080.46974	10335.8375
1084.14085	10293.0375
1087.80943	10308.6375
1091.47549	10325.1375
1095.13903	10305.0375
1098.80005	10205.8375
1102.45857	10091.7375
1106.11456	10034.1375
1109.76805	10043.2375
1113.41903	10117.6375
1117.06751	10255.9375
1120.71348	10448.8375
1124.35696	10596.3375
1127.99793	10847.3375
1131.63641	11017.1375
1135.2724	10925.9375
1138.90589	10752.1375
1142.5369	10549.6375
1146.16542	10357.2375
1149.79145	10171.2375
1153.415	10050.8375
1157.03607	9949.2375
1160.65467	9966.0375
1164.27079	10054.4375
1167.88443	10258.9375
1171.49561	10538.1375
1175.10432	11034.0375
1178.71056	11720.0375
1182.31434	12334.2375
1185.91565	12554.2375
1189.51451	12388.7375
1193.11091	12023.7375
1196.70485	11595.4375
1200.29634	11301.0375
1203.88538	11111.8375
1207.47197	10896.6375
1211.05612	10616.1375
1214.63782	10426.7375
1218.21708	10279.8375
1221.79391	10179.7375
1225.36829	10128.3375
1228.94024	10080.2375
1232.50976	10018.3375
1236.07685	10031.3375
1239.6415	10018.2375
1243.20374	10041.8375
1246.76355	10100.3375
1250.32093	10149.7375
1253.8759	10244.3375
1257.42845	10376.7375
1260.97859	10507.4375
1264.52631	10626.5375
1268.07163	10731.0375
1271.61453	10842.0375
1275.15503	10932.1375
1278.69312	10996.6375
1282.22882	10998.8375
1285.76211	11046.7375
1289.29301	11155.0375
1292.82151	11355.4375
1296.34761	11565.9375
1299.87133	11901.9375
1303.39266	12349.5375
1306.9116	12961.1375
1310.42815	13635.6375
1313.94233	13970.2375
1317.45412	13798.9375
1320.96354	13306.0375
1324.47058	12777.1375
1327.97525	12271.9375
1331.47754	11854.7375
1334.97747	11633.6375
1338.47502	11562.5375
1341.97022	11680.8375
1345.46305	11865.8375
1348.95352	12263.9375
1352.44163	12844.9375
1355.92738	13613.4375
1359.41078	14689.1375
1362.89183	15977.3375
1366.37053	16163.4375
1369.84688	14712.9375
1373.32088	12965.9375
1376.79254	11805.5375
1380.26186	11169.6375
1383.72883	10848.7375
1387.19347	10629.8375
1390.65578	10420.4375
1394.11575	10216.7375
1397.57339	10056.0375
1401.0287	9918.3375
1404.48168	9848.4375
1407.93234	9778.2375
1411.38068	9715.0375
1414.82669	9674.6375
1418.27039	9614.2375
1421.71177	9553.9375
1425.15083	9497.0375
1428.58758	9407.7375
1432.02203	9395.5375
1435.45416	9386.9375
1438.88399	9443.0375
1442.31151	9431.7375
1445.73673	9468.5375
1449.15965	9477.0375
1452.58027	9491.1375
1455.9986	9477.0375
1459.41463	9476.7375
1462.82837	9524.9375
1466.23982	9605.3375
1469.64898	9701.9375
1473.05586	9814.7375
1476.46045	9870.9375
1479.86276	9933.3375
1483.26279	10022.5375
1486.66054	10135.7375
1490.05602	10274.4375
1493.44922	10475.3375
1496.84016	10867.5375
1500.22882	11454.4375
1503.61521	12335.2375
1506.99934	13374.5375
1510.38121	14334.3375
1513.76081	14651.3375
1517.13816	14171.5375
1520.51324	13073.7375
1523.88607	11985.9375
1527.25665	11231.5375
1530.62498	10813.8375
1533.99105	10577.6375
1537.35488	10406.1375
1540.71647	10316.7375
1544.07581	10248.0375
1547.4329	10217.9375
1550.78776	10215.7375
1554.14038	10221.3375
1557.49077	10271.2375
1560.83892	10340.8375
1564.18484	10426.2375
1567.52853	10593.3375
1570.86999	10764.4375
1574.20922	10895.6375
1577.54624	10966.1375
1580.88103	10785.4375
1584.2136	10426.9375
1587.54395	10168.3375
1590.87208	10042.2375
1594.19801	10107.6375
1597.52172	10355.0375
1600.84321	10489.9375
1604.16251	10371.3375
1607.47959	10142.2375
1610.79447	9868.7375
1614.10715	9576.1375
1617.41763	9313.2375
1620.7259	9133.7375
1624.03199	8995.8375
1627.33587	8932.8375
1630.63757	8971.3375
1633.93707	9114.5375
1637.23439	9355.1375
1640.52951	9702.7375
1643.82246	10267.5375
1647.11321	10990.1375
1650.40179	11591.8375
1653.68819	11642.8375
1656.97241	11009.1375
1660.25446	10087.3375
1663.53433	9380.6375
1666.81203	8984.0375
1670.08756	8735.9375
1673.36092	8542.5375
1676.63211	8414.7375
1679.90115	8356.5375
1683.16801	8278.5375
1686.43272	8240.2375
1689.69527	8199.7375
1692.95567	8183.7375
1696.2139	8189.4375
1699.46999	8207.3375
1702.72392	8192.3375
1705.97571	8115.6375
1709.22535	8033.3375
1712.47284	7958.7375
1715.71819	7887.2375
1718.96139	7840.5375
1722.20246	7778.1375
1725.44139	7749.6375
1728.67818	7692.4375
1731.91284	7627.6375
1735.14537	7614.1375
1738.37576	7586.3375
1741.60403	7557.8375
1744.83017	7557.0375
1748.05418	7540.1375
1751.27607	7504.0375
1754.49584	7501.2375
1757.71349	7509.0375
1760.92903	7482.1375
1764.14244	7476.6375
1767.35375	7485.0375
1770.56294	7457.6375
1773.77002	7438.6375
1776.97499	7432.5375
1780.17785	7396.0375
1783.37861	7368.2375
1786.57727	7375.6375
1789.77382	7354.1375
1792.96828	7333.4375
1796.16064	7326.8375
1799.3509	7309.1375
1802.53907	7300.3375
1805.72514	7284.6375
1808.90913	7254.6375
1812.09102	7238.2375
1815.27083	7229.3375
1818.44856	7206.6375
1821.6242	7182.5375
1824.79776	7170.4375
1827.96924	7147.6375
1831.13864	7148.1375
1834.30597	7157.0375
1837.47122	7191.7375
1840.6344	7225.1375
1843.7955	7168.1375
1846.95454	7144.1375
1850.11151	7218.7375
1853.26642	7168.2375
1856.41926	7153.4375
1859.57004	7183.2375
1862.71876	7067.6375
1865.86542	7066.4375
1869.01003	7053.6375
1872.15258	7045.2375
1875.29308	7029.4375
1878.43152	7027.0375
1881.56792	7033.7375
1884.70227	7000.2375
1887.83457	7014.0375
1890.96482	6992.7375
1894.09304	6978.7375
1897.21921	6955.0375
1900.34335	6954.5375
1903.46544	6932.4375
1906.58551	6927.8375
1909.70353	6917.8375
1912.81953	6920.4375
1915.93349	6905.5375
1919.04543	6898.0375
1922.15534	6875.2375
1925.26322	6867.1375
1928.36908	6856.1375
1931.47292	6843.0375
1934.57473	6822.8375
1937.67453	6771.8375
1940.77232	6787.7375
1943.86808	6763.1375
1946.96184	6740.8375
1950.05358	6755.1375
1953.14331	6712.8375
1956.23103	6689.1375
1959.31675	6675.3375
1962.40046	6636.6375
1965.48217	6646.9375
1968.56188	6620.7375
1971.63959	6595.9375
1974.7153	6587.6375
1977.78901	6553.0375
1980.86073	6542.6375
1983.93046	6503.4375
1986.99819	6495.7375
1990.06394	6476.0375
1993.1277	6453.4375
1996.18947	6437.1375
1999.24925	6409.4375
2002.30706	6399.2375
2005.36288	6365.2375
2008.41672	6376.2375
2011.46859	6322.0375
2014.51848	6302.2375
2017.56639	6276.6375
2020.61233	6277.6375
2023.6563	6242.0375
2026.6983	6241.8375
2029.73833	6226.8375
2032.7764	6191.3375
2035.8125	6192.5375
2038.84664	6173.6375
2041.87881	6164.7375
2044.90903	6154.9375
2047.93729	6145.4375
2050.96359	6116.3375
2053.98794	6121.7375
2057.01034	6117.9375
2060.03078	6103.5375
2063.04927	6095.2375
2066.06582	6085.7375
2069.08042	6074.8375
2072.09307	6077.4375
2075.10378	6085.5375
2078.11255	6060.2375
2081.11938	6073.4375
2084.12426	6053.8375
2087.12722	6065.1375
2090.12824	6045.9375
2093.12732	6071.0375
2096.12447	6050.1375
2099.11969	6065.8375
2102.11299	6054.0375
2105.10435	6053.9375
2108.09379	6070.0375
2111.08131	6062.9375
2114.0669	6065.4375
2117.05057	6063.8375
2120.03233	6076.9375
2123.01216	6071.7375
2125.99008	6071.8375
2128.96609	6092.5375
2131.94018	6089.1375
2134.91236	6083.2375
2137.88263	6101.7375
2140.851	6086.3375
2143.81746	6095.2375
2146.78201	6098.1375
2149.74466	6073.9375
2152.7054	6097.5375
2155.66425	6084.1375
2158.6212	6096.4375
2161.57625	6089.9375
2164.52941	6072.9375
2167.48067	6069.4375
2170.43004	6070.8375
2173.37752	6069.8375
2176.32311	6075.7375
2179.26681	6054.7375
2182.20863	6055.0375
2185.14856	6059.0375
2188.08661	6054.1375
2191.02278	6055.0375
2193.95707	6039.2375
2196.88948	6040.8375
2199.82001	6032.0375
2202.74867	6018.0375
2205.67545	6018.2375
2208.60037	5999.7375
2211.52341	5993.2375
2214.44458	5985.6375
2217.36388	5958.8375
2220.28132	5950.1375
2223.1969	5942.3375
2226.11061	5931.1375
2229.02246	5921.5375
2231.93245	5910.3375
2234.84058	5875.3375
2237.74686	5879.8375
2240.65128	5887.1375
2243.55385	5890.2375
2246.45456	5879.1375
2249.35343	5861.6375
2252.25044	5858.2375
2255.14561	5835.4375
2258.03893	5836.6375
2260.93041	5818.4375
2263.82004	5815.7375
2266.70783	5803.0375
2269.59378	5777.6375
2272.4779	5774.5375
2275.36017	5748.6375
2278.24061	5743.8375
2281.11922	5725.3375
2283.996	5723.1375
2286.87094	5712.8375
2289.74405	5694.3375
2292.61534	5682.3375
2295.4848	5696.1375
2298.35243	5678.3375
2301.21824	5669.4375
2304.08223	5660.9375
2306.94439	5668.0375
2309.80474	5642.2375
2312.66327	5652.5375
2315.51999	5645.6375
2318.37489	5638.6375
2321.22797	5618.8375
2324.07925	5616.6375
2326.92871	5623.9375
2329.77637	5589.3375
2332.62222	5599.9375
2335.46626	5584.7375
2338.3085	5568.8375
2341.14893	5544.4375
2343.98756	5546.8375
2346.8244	5549.5375
2349.65943	5526.9375
2352.49267	5539.4375
2355.32411	5542.2375
2358.15376	5545.1375
2360.98161	5544.8375
2363.80768	5531.3375
2366.63195	5531.7375
2369.45444	5527.3375
2372.27514	5499.9375
2375.09405	5502.7375
2377.91118	5492.7375
2380.72652	5496.4375
2383.54009	5471.6375
2386.35187	5465.3375
2389.16188	5439.7375
2391.97011	5418.0375
2394.77657	5416.8375
2397.58125	5401.7375
2400.38416	5386.0375
2403.18529	5373.9375
2405.98466	5371.4375
2408.78226	5370.0375
2411.57809	5352.2375
2414.37216	5355.1375
2417.16446	5348.9375
2419.955	5341.7375
2422.74378	5325.9375
2425.5308	5335.2375
2428.31606	5332.2375
2431.09956	5308.2375
2433.88131	5306.7375
2436.6613	5298.4375
2439.43954	5300.6375
2442.21603	5289.7375
2444.99077	5283.8375
2447.76377	5279.4375
2450.53501	5278.4375
2453.30451	5269.8375
2456.07226	5260.7375
2458.83827	5254.7375
2461.60254	5246.1375
2464.36507	5246.2375
2467.12586	5244.5375
2469.88492	5225.1375
2472.64224	5237.1375
2475.39782	5216.6375
2478.15167	5228.2375
2480.90379	5232.4375
2483.65417	5219.9375
2486.40283	5208.0375
2489.14976	5215.0375
2491.89497	5210.2375
2494.63845	5207.0375
2497.3802	5196.8375
2500.12024	5200.4375
2502.85855	5175.0375
2505.59514	5180.6375
2508.33002	5174.1375
2511.06318	5151.8375
2513.79462	5147.8375
2516.52435	5122.5375
2519.25237	5136.0375
2521.97867	5125.5375
2524.70327	5097.7375
2527.42616	5089.2375
2530.14734	5075.3375
2532.86681	5067.3375
2535.58458	5062.0375
2538.30065	5066.3375
2541.01501	5044.4375
2543.72768	5037.8375
2546.43864	5040.9375
2549.14791	5015.2375
2551.85548	5025.1375
2554.56136	5015.6375
2557.26554	5007.4375
2559.96803	4980.5375
2562.66883	5003.8375
2565.36794	4981.3375
2568.06536	4983.8375
2570.7611	4958.6375
2573.45514	4969.4375
2576.14751	4949.9375
2578.83819	4938.5375
2581.52719	4928.0375
2584.21451	4920.9375
2586.90015	4936.5375
2589.58411	4902.9375
2592.2664	4895.2375
2594.94701	4861.6375
2597.62594	4880.2375
2600.30321	4850.5375
2602.9788	4840.6375
2605.65273	4846.0375
2608.32498	4826.0375
2610.99557	4830.3375
2613.66449	4829.3375
2616.33175	4808.0375
2618.99734	4799.0375
2621.66128	4792.7375
2624.32355	4807.1375
2626.98416	4775.6375
2629.64311	4775.6375
2632.30041	4785.3375
2634.95605	4778.1375
2637.61004	4761.3375
2640.26238	4770.4375
2642.91306	4754.9375
2645.56209	4730.8375
2648.20948	4735.0375
2650.85521	4731.1375
2653.4993	4725.3375
2656.14175	4726.3375
2658.78255	4731.3375
2661.42171	4728.9375
2664.05923	4719.9375
2666.6951	4728.4375
2669.32934	4730.4375
2671.96194	4711.1375
2674.59291	4711.0375
2677.22224	4712.1375
2679.84993	4703.7375
2682.476	4707.0375
2685.10043	4706.7375
2687.72324	4695.6375
2690.34441	4705.8375
2692.96396	4688.6375
2695.58188	4704.6375
2698.19818	4693.8375
2700.81285	4696.8375
2703.4259	4714.0375
2706.03733	4724.8375
2708.64714	4703.6375
2711.25533	4706.4375
2713.86191	4693.7375
2716.46687	4695.2375
2719.07021	4683.1375
2721.67194	4697.8375
2724.27206	4689.8375
2726.87057	4687.8375
2729.46747	4686.1375
2732.06276	4680.8375
2734.65644	4669.4375
2737.24852	4680.7375
2739.83899	4665.1375
2742.42786	4651.4375
2745.01513	4656.7375
2747.60079	4649.9375
2750.18486	4641.9375
2752.76733	4650.8375
2755.3482	4617.3375
2757.92747	4637.8375
2760.50515	4623.6375
2763.08123	4617.9375
2765.65573	4590.6375
2768.22863	4593.1375
2770.79994	4585.0375
2773.36967	4596.3375
2775.9378	4593.0375
2778.50435	4576.5375
2781.06932	4563.0375
2783.6327	4558.6375
2786.1945	4543.3375
2788.75471	4540.2375
2791.31335	4528.6375
2793.87041	4513.5375
2796.42589	4502.4375
2798.97979	4525.1375
2801.53212	4487.7375
2804.08288	4477.9375
2806.63206	4474.5375
2809.17967	4467.6375
2811.72571	4449.6375
2814.27018	4450.2375
2816.81308	4452.0375
2819.35442	4445.2375
2821.89419	4426.7375
2824.43239	4440.5375
2826.96904	4429.6375
2829.50412	4429.3375
2832.03763	4401.7375
2834.56959	4409.7375
2837.1	4407.8375
2839.62884	4409.1375
2842.15613	4414.4375
2844.68186	4433.5375
2847.20604	4404.2375
2849.72867	4409.1375
2852.24974	4419.0375
2854.76927	4412.3375
2857.28724	4415.8375
2859.80367	4391.3375
2862.31855	4391.4375
2864.83189	4414.6375
2867.34368	4390.9375
2869.85393	4392.9375
2872.36264	4394.8375
2874.8698	4389.4375
2877.37543	4389.4375
2879.87952	4387.1375
2882.38207	4396.2375
2884.88308	4375.9375
2887.38256	4386.6375
2889.88051	4364.5375
2892.37692	4364.8375
2894.8718	4378.3375
2897.36515	4370.5375
2899.85698	4378.2375
2902.34727	4387.1375
2904.83604	4373.5375
2907.32328	4381.4375
2909.809	4372.9375
2912.29319	4370.1375
2914.77587	4375.2375
2917.25702	4379.7375
2919.73665	4382.1375
2922.21476	4388.1375
2924.69136	4369.0375
2927.16644	4362.9375
2929.64	4366.5375
2932.11205	4353.9375
2934.58258	4341.6375
2937.05161	4348.1375
2939.51912	4362.0375
2941.98513	4338.6375
2944.44962	4333.3375
2946.91261	4320.0375
2949.37409	4315.6375
2951.83407	4320.7375
2954.29254	4320.4375
2956.74951	4314.7375
2959.20498	4324.9375
2961.65895	4309.4375
2964.11142	4321.5375
2966.56239	4289.3375
2969.01186	4295.4375
2971.45984	4286.5375
2973.90632	4288.3375
2976.35131	4280.0375
2978.7948	4259.4375
2981.23681	4250.7375
2983.67732	4271.1375
2986.11635	4238.7375
2988.55388	4235.3375
2990.98993	4233.4375
2993.4245	4227.9375
2995.85758	4214.8375
2998.28917	4216.5375
3000.71928	4212.7375
3003.14791	4197.5375
3005.57506	4203.7375
3008.00073	4198.6375
3010.42493	4202.9375
3012.84764	4186.5375
3015.26888	4199.6375
3017.68865	4181.8375
3020.10694	4184.7375
3022.52376	4180.9375
3024.9391	4169.2375
3027.35298	4174.6375
3029.76539	4141.5375
3032.17632	4134.6375
3034.5858	4140.2375
3036.9938	4136.9375
3039.40034	4136.5375
3041.80542	4153.6375
3044.20903	4129.9375
3046.61118	4121.9375
3049.01187	4120.8375
3051.4111	4110.2375
3053.80888	4111.8375
3056.20519	4113.3375
3058.60005	4110.6375
3060.99345	4113.7375
3063.3854	4105.4375
3065.7759	4105.1375
3068.16494	4094.0375
3070.55254	4082.1375
3072.93868	4098.3375
3075.32338	4079.3375
3077.70662	4094.2375
3080.08842	4090.9375
3082.46878	4078.0375
3084.84769	4068.5375
3087.22515	4103.9375
3089.60118	4086.2375
