Data from AgNPs_FTO_APTES_UA_0uM_R6G_10uM_NaF_0.1M_Addition_RamanShift__51__10-55-47-142.txt Node

Date: Fri Dec 17 10:55:47 GMT 2021
User: TCL
Spectrometer: QEP01345
Trigger mode: 4
Integration Time (sec): 7.000000E0
Scans to average: 10
Electric dark correction enabled: true
Nonlinearity correction enabled: false
Boxcar width: 0
XAxis mode: Raman Shifts
Number of Pixels in Spectrum: 1044
>>>>>Begin Spectral Data<<<<<
46.04893	-1.525
50.45542	0.475
54.85868	-1.225
59.25871	1.175
63.6555	72.575
68.04907	70.775
72.43941	73.575
76.82654	76.675
81.21044	77.675
85.59113	82.775
89.96862	88.375
94.34289	92.975
98.71396	95.475
103.08183	94.575
107.4465	98.075
111.80798	98.875
116.16626	103.675
120.52136	102.275
124.87327	113.175
129.222	116.875
133.56755	120.675
137.90993	130.275
142.24913	141.675
146.58517	155.575
150.91804	178.275
155.24774	212.675
159.57429	260.075
163.89768	328.575
168.21792	436.375
172.53501	588.875
176.84895	814.075
181.15975	1134.075
185.46741	1580.675
189.77193	2171.575
194.07331	2897.875
198.37157	3722.975
202.6667	4606.575
206.9587	5480.275
211.24758	6338.575
215.53334	7233.775
219.81599	8205.275
224.09553	9286.675
228.37195	10492.675
232.64527	11820.975
236.91549	13158.575
241.18261	14425.675
245.44663	15490.375
249.70755	16437.675
253.96539	17241.075
258.22014	17951.875
262.4718	18595.675
266.72039	19053.675
270.96589	19308.575
275.20832	19387.075
279.44768	19206.475
283.68397	19053.275
287.91719	18852.275
292.14735	18795.675
296.37445	18989.875
300.59849	19393.575
304.81948	19952.775
309.03742	20300.875
313.25231	20312.375
317.46415	19633.475
321.67296	18559.475
325.87872	17670.875
330.08145	17242.975
334.28114	17236.475
338.47781	17482.275
342.67145	17877.275
346.86207	18485.875
351.04966	19319.275
355.23424	20278.875
359.4158	21093.175
363.59435	21527.975
367.76989	21682.675
371.94243	21724.975
376.11196	21676.575
380.27849	21595.875
384.44203	21548.075
388.60257	21443.175
392.76012	21435.875
396.91468	21663.775
401.06626	22172.475
405.21485	22598.275
409.36047	22429.975
413.50311	21755.975
417.64277	21142.875
421.77947	20831.875
425.9132	20789.875
430.04396	20849.875
434.17176	20973.175
438.2966	21325.875
442.41849	21850.075
446.53742	22646.875
450.6534	23433.875
454.76644	23990.075
458.87653	24183.675
462.98368	23961.275
467.08789	23499.075
471.18916	22875.175
475.2875	22305.275
479.38291	21865.175
483.4754	21458.175
487.56496	21190.175
491.6516	20927.275
495.73531	20713.575
499.81612	20693.275
503.89401	20796.575
507.96899	20937.775
512.04106	21065.675
516.11023	21243.375
520.1765	21356.675
524.23987	21303.975
528.30034	21091.475
532.35792	20776.675
536.41261	20411.375
540.46441	20084.875
544.51333	19944.775
548.55936	20049.675
552.60252	20437.775
556.64279	20840.475
560.6802	21148.875
564.71473	21453.675
568.7464	22188.875
572.7752	22742.775
576.80114	22515.775
580.82422	22162.075
584.84444	22116.075
588.86181	22327.175
592.87633	22795.175
596.888	23228.675
600.89682	23786.975
604.9028	25600.175
608.90594	30208.375
612.90624	35699.275
616.90371	34092.575
620.89834	26117.775
624.89015	22359.575
628.87913	21643.275
632.86528	21544.675
636.84862	21455.975
640.82913	21088.475
644.80683	20361.575
648.78172	19933.175
652.75379	20012.375
656.72306	20621.275
660.68952	21340.075
664.65319	21278.375
668.61405	20538.775
672.57211	20224.975
676.52738	20179.675
680.47986	20169.175
684.42955	20116.575
688.37646	20061.375
692.32058	20201.175
696.26192	20356.975
700.20048	20644.575
704.13626	20782.675
708.06928	20721.575
711.99952	20489.975
715.927	20440.475
719.85171	20481.075
723.77365	20423.475
727.69284	20244.075
731.60928	20025.875
735.52295	20086.675
739.43388	20192.275
743.34206	20361.775
747.24749	20526.275
751.15017	20757.875
755.05012	21149.275
758.94733	21912.775
762.8418	23473.775
766.73354	26101.375
770.62254	28795.475
774.50882	30000.675
778.39237	28695.675
782.27321	25787.775
786.15132	23115.675
790.02671	21545.275
793.89938	20836.275
797.76935	20568.775
801.6366	20411.975
805.50115	20311.075
809.36299	20198.975
813.22213	20126.575
817.07857	20146.875
820.93231	20162.675
824.78336	20209.775
828.63172	20313.375
832.47738	20345.675
836.32036	20425.275
840.16066	20436.375
843.99827	20412.775
847.8332	20350.975
851.66546	20291.175
855.49504	20239.775
859.32195	20179.475
863.1462	20064.375
866.96777	19993.875
870.78668	19955.475
874.60293	20001.275
878.41652	20076.075
882.22745	20143.575
886.03573	20213.875
889.84136	20182.775
893.64433	20093.175
897.44466	19998.875
901.24235	19984.975
905.0374	19979.275
908.8298	19935.675
912.61957	20003.975
916.40671	20117.175
920.19121	20335.475
923.97308	20661.375
927.75233	20844.475
931.52895	20992.875
935.30295	20776.775
939.07433	20268.975
942.84309	19910.875
946.60924	19743.875
950.37278	19598.575
954.13371	19483.275
957.89203	19339.875
961.64774	19266.575
965.40086	19231.075
969.15137	19137.275
972.89929	19093.675
976.64461	19098.075
980.38733	19146.675
984.12747	19272.375
987.86502	19443.275
991.59999	19706.675
995.33237	20077.375
999.06217	20738.775
1002.78939	21580.575
1006.51404	22249.375
1010.23611	22626.375
1013.95561	22861.175
1017.67255	22854.175
1021.38692	22547.575
1025.09872	22338.475
1028.80796	22479.375
1032.51465	23126.675
1036.21877	23751.175
1039.92035	23809.175
1043.61937	23432.775
1047.31584	22754.075
1051.00976	21974.475
1054.70114	21520.875
1058.38998	21344.975
1062.07627	21352.775
1065.76003	21370.275
1069.44126	21458.775
1073.11995	21674.375
1076.79611	21922.375
1080.46974	22114.875
1084.14085	22457.775
1087.80943	22800.575
1091.47549	22982.675
1095.13903	22651.475
1098.80005	22126.075
1102.45857	21599.975
1106.11456	21409.275
1109.76805	21464.075
1113.41903	21757.075
1117.06751	22125.575
1120.71348	22596.075
1124.35696	23147.275
1127.99793	23654.975
1131.63641	23740.275
1135.2724	23121.575
1138.90589	22529.575
1142.5369	22132.775
1146.16542	21913.075
1149.79145	21806.475
1153.415	21890.675
1157.03607	22082.975
1160.65467	22484.375
1164.27079	23173.975
1167.88443	24224.375
1171.49561	25814.075
1175.10432	28331.375
1178.71056	31642.775
1182.31434	34399.675
1185.91565	35676.775
1189.51451	35410.775
1193.11091	33869.075
1196.70485	31660.475
1200.29634	29734.175
1203.88538	28406.075
1207.47197	27108.875
1211.05612	26122.975
1214.63782	25712.975
1218.21708	25698.275
1221.79391	25910.975
1225.36829	26011.675
1228.94024	25930.175
1232.50976	25733.875
1236.07685	25559.075
1239.6415	25528.775
1243.20374	25549.875
1246.76355	25676.475
1250.32093	25994.675
1253.8759	26609.175
1257.42845	27465.875
1260.97859	28234.675
1264.52631	28848.375
1268.07163	29499.475
1271.61453	30209.875
1275.15503	30946.475
1278.69312	31640.575
1282.22882	32207.075
1285.76211	32879.675
1289.29301	33764.675
1292.82151	34680.975
1296.34761	35653.275
1299.87133	37039.975
1303.39266	39223.475
1306.9116	42460.775
1310.42815	46133.775
1313.94233	48748.775
1317.45412	48782.075
1320.96354	46894.675
1324.47058	44557.575
1327.97525	42422.475
1331.47754	41169.675
1334.97747	40772.075
1338.47502	41126.075
1341.97022	41536.475
1345.46305	41752.175
1348.95352	41993.475
1352.44163	42883.875
1355.92738	44864.675
1359.41078	48689.875
1362.89183	52916.175
1366.37053	52433.775
1369.84688	46632.275
1373.32088	40134.175
1376.79254	35879.275
1380.26186	33746.075
1383.72883	32868.175
1387.19347	32225.975
1390.65578	31529.675
1394.11575	31156.475
1397.57339	31182.075
1401.0287	31754.775
1404.48168	32525.875
1407.93234	33358.775
1411.38068	33969.375
1414.82669	33968.675
1418.27039	33165.575
1421.71177	31978.475
1425.15083	31017.875
1428.58758	30455.575
1432.02203	30436.075
1435.45416	30688.775
1438.88399	31009.575
1442.31151	31136.475
1445.73673	31355.675
1449.15965	31569.875
1452.58027	31562.075
1455.9986	31300.975
1459.41463	31223.075
1462.82837	31411.975
1466.23982	31948.175
1469.64898	32520.375
1473.05586	32901.975
1476.46045	33173.275
1479.86276	33554.675
1483.26279	33991.875
1486.66054	34504.275
1490.05602	35189.975
1493.44922	35905.175
1496.84016	36817.875
1500.22882	37980.975
1503.61521	39711.375
1506.99934	42056.175
1510.38121	44668.275
1513.76081	46315.275
1517.13816	45558.775
1520.51324	42361.075
1523.88607	38744.375
1527.25665	36057.275
1530.62498	34505.075
1533.99105	33605.475
1537.35488	33068.375
1540.71647	32717.175
1544.07581	32410.875
1547.4329	32130.775
1550.78776	31692.375
1554.14038	31411.575
1557.49077	31339.375
1560.83892	31443.475
1564.18484	31731.475
1567.52853	31922.375
1570.86999	32079.575
1574.20922	32293.775
1577.54624	32240.475
1580.88103	31737.175
1584.2136	30972.975
1587.54395	31184.475
1590.87208	32532.475
1594.19801	34931.775
1597.52172	37731.075
1600.84321	39138.675
1604.16251	38066.675
1607.47959	35268.175
1610.79447	32010.975
1614.10715	29144.975
1617.41763	26926.275
1620.7259	25605.775
1624.03199	24996.775
1627.33587	25092.175
1630.63757	25790.375
1633.93707	27116.575
1637.23439	29026.475
1640.52951	31462.375
1643.82246	34253.675
1647.11321	36886.175
1650.40179	38154.575
1653.68819	36703.175
1656.97241	32609.375
1660.25446	28118.575
1663.53433	24762.675
1666.81203	22762.775
1670.08756	21532.075
1673.36092	20766.775
1676.63211	20300.475
1679.90115	19965.375
1683.16801	19701.875
1686.43272	19556.575
1689.69527	19415.175
1692.95567	19306.175
1696.2139	19271.075
1699.46999	19226.575
1702.72392	19202.575
1705.97571	19184.475
1709.22535	19153.875
1712.47284	19149.075
1715.71819	19175.675
1718.96139	19130.875
1722.20246	19111.875
1725.44139	19056.275
1728.67818	18962.475
1731.91284	18852.875
1735.14537	18760.275
1738.37576	18674.875
1741.60403	18629.675
1744.83017	18588.375
1748.05418	18516.075
1751.27607	18479.075
1754.49584	18497.875
1757.71349	18451.275
1760.92903	18482.475
1764.14244	18440.775
1767.35375	18455.975
1770.56294	18416.375
1773.77002	18389.675
1776.97499	18361.575
1780.17785	18339.375
1783.37861	18352.475
1786.57727	18323.875
1789.77382	18273.875
1792.96828	18276.875
1796.16064	18302.175
1799.3509	18258.075
1802.53907	18234.475
1805.72514	18216.075
1808.90913	18101.175
1812.09102	18079.275
1815.27083	18049.875
1818.44856	18049.575
1821.6242	18039.375
1824.79776	17975.175
1827.96924	17985.475
1831.13864	17965.275
1834.30597	17931.175
1837.47122	17968.975
1840.6344	17963.975
1843.7955	17965.075
1846.95454	17982.975
1850.11151	17949.275
1853.26642	17923.775
1856.41926	17958.875
1859.57004	17949.675
1862.71876	17956.875
1865.86542	17973.675
1869.01003	17992.175
1872.15258	17991.675
1875.29308	18032.575
1878.43152	17990.875
1881.56792	18005.675
1884.70227	18013.975
1887.83457	18017.675
1890.96482	18013.675
1894.09304	18024.575
1897.21921	18008.675
1900.34335	18006.175
1903.46544	17998.875
1906.58551	18031.775
1909.70353	18041.175
1912.81953	18030.275
1915.93349	18002.475
1919.04543	17988.675
1922.15534	17961.575
1925.26322	17912.775
1928.36908	17864.575
1931.47292	17830.475
1934.57473	17770.575
1937.67453	17749.875
1940.77232	17666.075
1943.86808	17612.175
1946.96184	17543.475
1950.05358	17466.875
1953.14331	17409.075
1956.23103	17354.375
1959.31675	17289.675
1962.40046	17232.075
1965.48217	17199.475
1968.56188	17158.875
1971.63959	17116.575
1974.7153	17074.275
1977.78901	17006.975
1980.86073	16935.675
1983.93046	16863.975
1986.99819	16831.075
1990.06394	16775.775
1993.1277	16700.075
1996.18947	16628.875
1999.24925	16639.475
2002.30706	16562.175
2005.36288	16527.375
2008.41672	16487.375
2011.46859	16436.775
2014.51848	16402.675
2017.56639	16364.475
2020.61233	16321.175
2023.6563	16305.375
2026.6983	16284.775
2029.73833	16240.375
2032.7764	16238.175
2035.8125	16194.175
2038.84664	16165.775
2041.87881	16179.275
2044.90903	16112.275
2047.93729	16120.675
2050.96359	16068.175
2053.98794	16025.575
2057.01034	16034.175
2060.03078	15999.775
2063.04927	15967.775
2066.06582	15972.375
2069.08042	15972.375
2072.09307	15953.575
2075.10378	15916.875
2078.11255	15881.175
2081.11938	15919.075
2084.12426	15885.875
2087.12722	15858.075
2090.12824	15869.875
2093.12732	15881.975
2096.12447	15899.475
2099.11969	15868.275
2102.11299	15859.375
2105.10435	15860.175
2108.09379	15881.775
2111.08131	15889.775
2114.0669	15887.775
2117.05057	15889.975
2120.03233	15872.975
2123.01216	15891.575
2125.99008	15890.975
2128.96609	15936.875
2131.94018	15946.775
2134.91236	15939.075
2137.88263	15951.075
2140.851	15980.875
2143.81746	15972.175
2146.78201	15977.075
2149.74466	15990.975
2152.7054	15969.475
2155.66425	15970.675
2158.6212	15958.575
2161.57625	15940.975
2164.52941	15961.775
2167.48067	15944.075
2170.43004	15936.275
2173.37752	15967.775
2176.32311	15929.075
2179.26681	15927.575
2182.20863	15921.975
2185.14856	15950.075
2188.08661	15956.475
2191.02278	15968.975
2193.95707	15949.575
2196.88948	15939.575
2199.82001	15952.475
2202.74867	15918.475
2205.67545	15887.175
2208.60037	15914.375
2211.52341	15903.975
2214.44458	15877.175
2217.36388	15820.475
2220.28132	15819.275
2223.1969	15780.275
2226.11061	15762.175
2229.02246	15729.675
2231.93245	15709.275
2234.84058	15681.575
2237.74686	15657.775
2240.65128	15644.475
2243.55385	15646.275
2246.45456	15613.975
2249.35343	15582.675
2252.25044	15565.875
2255.14561	15514.975
2258.03893	15532.475
2260.93041	15487.375
2263.82004	15459.675
2266.70783	15423.275
2269.59378	15392.975
2272.4779	15356.575
2275.36017	15312.975
2278.24061	15304.175
2281.11922	15249.875
2283.996	15244.875
2286.87094	15214.075
2289.74405	15172.375
2292.61534	15187.175
2295.4848	15150.375
2298.35243	15140.275
2301.21824	15180.475
2304.08223	15148.575
2306.94439	15182.175
2309.80474	15177.975
2312.66327	15212.775
2315.51999	15179.375
2318.37489	15190.375
2321.22797	15175.175
2324.07925	15153.375
2326.92871	15116.575
2329.77637	15139.175
2332.62222	15114.475
2335.46626	15140.175
2338.3085	15073.075
2341.14893	15076.675
2343.98756	15111.075
2346.8244	15163.575
2349.65943	15123.075
2352.49267	15113.675
2355.32411	15101.375
2358.15376	15058.675
2360.98161	15083.775
2363.80768	15061.575
2366.63195	15028.075
2369.45444	14983.575
2372.27514	14999.675
2375.09405	15000.475
2377.91118	14939.375
2380.72652	14875.775
2383.54009	14848.575
2386.35187	14833.375
2389.16188	14763.975
2391.97011	14752.375
2394.77657	14716.075
2397.58125	14726.175
2400.38416	14709.975
2403.18529	14636.475
2405.98466	14636.975
2408.78226	14583.275
2411.57809	14540.675
2414.37216	14550.475
2417.16446	14497.875
2419.955	14488.575
2422.74378	14484.775
2425.5308	14464.275
2428.31606	14450.075
2431.09956	14440.975
2433.88131	14416.775
2436.6613	14411.575
2439.43954	14390.475
2442.21603	14377.575
2444.99077	14378.675
2447.76377	14379.175
2450.53501	14387.375
2453.30451	14383.175
2456.07226	14383.775
2458.83827	14322.975
2461.60254	14308.575
2464.36507	14346.075
2467.12586	14350.875
2469.88492	14299.275
2472.64224	14337.275
2475.39782	14326.275
2478.15167	14321.875
2480.90379	14342.775
2483.65417	14334.075
2486.40283	14347.875
2489.14976	14358.175
2491.89497	14361.475
2494.63845	14383.875
2497.3802	14391.275
2500.12024	14366.075
2502.85855	14365.175
2505.59514	14348.375
2508.33002	14345.775
2511.06318	14264.175
2513.79462	14283.975
2516.52435	14251.275
2519.25237	14248.475
2521.97867	14217.575
2524.70327	14225.875
2527.42616	14158.675
2530.14734	14165.175
2532.86681	14165.475
2535.58458	14160.075
2538.30065	14155.775
2541.01501	14144.175
2543.72768	14105.575
2546.43864	14093.475
2549.14791	14067.175
2551.85548	14103.875
2554.56136	14058.575
2557.26554	14089.075
2559.96803	14022.775
2562.66883	14025.475
2565.36794	14025.475
2568.06536	14021.775
2570.7611	14009.975
2573.45514	13978.775
2576.14751	13975.275
2578.83819	13959.475
2581.52719	13931.775
2584.21451	13930.575
2586.90015	13966.275
2589.58411	13923.975
2592.2664	13916.175
2594.94701	13901.975
2597.62594	13895.475
2600.30321	13888.475
2602.9788	13906.575
2605.65273	13847.975
2608.32498	13849.575
2610.99557	13866.075
2613.66449	13860.275
2616.33175	13832.575
2618.99734	13867.775
2621.66128	13853.975
2624.32355	13870.675
2626.98416	13838.675
2629.64311	13849.675
2632.30041	13855.475
2634.95605	13833.275
2637.61004	13821.375
2640.26238	13789.875
2642.91306	13797.175
2645.56209	13749.375
2648.20948	13709.175
2650.85521	13718.175
2653.4993	13698.775
2656.14175	13717.775
2658.78255	13707.875
2661.42171	13699.875
2664.05923	13741.275
2666.6951	13746.275
2669.32934	13773.575
2671.96194	13762.975
2674.59291	13762.175
2677.22224	13781.675
2679.84993	13768.675
2682.476	13738.575
2685.10043	13761.675
2687.72324	13750.875
2690.34441	13767.175
2692.96396	13693.475
2695.58188	13714.675
2698.19818	13720.475
2700.81285	13721.175
2703.4259	13715.775
2706.03733	13728.275
2708.64714	13732.375
2711.25533	13733.175
2713.86191	13733.775
2716.46687	13711.175
2719.07021	13721.875
2721.67194	13728.075
2724.27206	13699.075
2726.87057	13732.575
2729.46747	13730.475
2732.06276	13742.875
2734.65644	13720.475
2737.24852	13708.375
2739.83899	13699.075
2742.42786	13707.375
2745.01513	13715.275
2747.60079	13705.475
2750.18486	13684.875
2752.76733	13719.675
2755.3482	13671.075
2757.92747	13673.275
2760.50515	13678.775
2763.08123	13667.675
2765.65573	13630.275
2768.22863	13657.975
2770.79994	13637.475
2773.36967	13643.975
2775.9378	13643.775
2778.50435	13628.275
2781.06932	13608.475
2783.6327	13617.175
2786.1945	13597.775
2788.75471	13597.875
2791.31335	13557.075
2793.87041	13543.275
2796.42589	13522.575
2798.97979	13502.575
2801.53212	13456.775
2804.08288	13478.175
2806.63206	13420.875
2809.17967	13433.875
2811.72571	13435.975
2814.27018	13409.275
2816.81308	13415.375
2819.35442	13393.475
2821.89419	13371.375
2824.43239	13400.675
2826.96904	13368.275
2829.50412	13370.375
2832.03763	13344.675
2834.56959	13353.175
2837.1	13344.475
2839.62884	13376.075
2842.15613	13362.775
2844.68186	13406.875
2847.20604	13438.775
2849.72867	13463.675
2852.24974	13449.375
2854.76927	13444.175
2857.28724	13458.475
2859.80367	13409.875
2862.31855	13405.375
2864.83189	13356.975
2867.34368	13316.775
2869.85393	13342.775
2872.36264	13312.975
2874.8698	13361.175
2877.37543	13336.075
2879.87952	13330.575
2882.38207	13341.375
2884.88308	13316.075
2887.38256	13326.275
2889.88051	13309.675
2892.37692	13324.875
2894.8718	13314.075
2897.36515	13309.375
2899.85698	13302.975
2902.34727	13350.775
2904.83604	13330.675
2907.32328	13342.875
2909.809	13342.175
2912.29319	13336.275
2914.77587	13312.375
2917.25702	13302.575
2919.73665	13304.175
2922.21476	13292.175
2924.69136	13283.875
2927.16644	13312.375
2929.64	13247.675
2932.11205	13200.875
2934.58258	13205.475
2937.05161	13196.675
2939.51912	13181.975
2941.98513	13187.575
2944.44962	13124.275
2946.91261	13060.875
2949.37409	13060.175
2951.83407	13024.275
2954.29254	12991.075
2956.74951	12966.975
2959.20498	12963.875
2961.65895	12927.475
2964.11142	12920.875
2966.56239	12860.775
2969.01186	12852.375
2971.45984	12821.175
2973.90632	12799.875
2976.35131	12759.875
2978.7948	12735.075
2981.23681	12691.475
2983.67732	12680.975
2986.11635	12619.575
2988.55388	12585.875
2990.98993	12560.775
2993.4245	12524.275
2995.85758	12517.375
2998.28917	12490.975
3000.71928	12475.675
3003.14791	12447.475
3005.57506	12437.475
3008.00073	12415.975
3010.42493	12391.575
3012.84764	12373.975
3015.26888	12360.775
3017.68865	12334.375
3020.10694	12315.475
3022.52376	12276.275
3024.9391	12272.675
3027.35298	12230.075
3029.76539	12201.375
3032.17632	12169.775
3034.5858	12148.375
3036.9938	12161.875
3039.40034	12140.675
3041.80542	12125.475
3044.20903	12094.975
3046.61118	12091.075
3049.01187	12052.775
3051.4111	12045.675
3053.80888	12014.775
3056.20519	11991.575
3058.60005	11952.875
3060.99345	11908.275
3063.3854	11879.675
3065.7759	11847.175
3068.16494	11815.475
3070.55254	11786.975
3072.93868	11781.975
3075.32338	11732.375
3077.70662	11726.575
3080.08842	11667.275
3082.46878	11670.375
3084.84769	11619.675
3087.22515	11626.475
3089.60118	11605.775
3091.97576	11611.975
3094.3489	11587.375
3096.72061	11605.675
3099.09087	11595.275
3101.4597	11547.675
3103.82709	11535.075
3106.19305	11525.475
3108.55757	11511.575
3110.92066	11489.775
3113.28232	11473.175
3115.64255	11414.875
3118.00134	11393.875
3120.35871	11403.775
3122.71466	11388.175
3125.06917	11350.175
3127.42226	11343.875
3129.77393	11349.575
