Data from AgNPs_FTO_APTES_UA_10uM_R6G_10uM_NaF_0.1M_Addition_RamanShift__30__13-44-57-336.txt Node

Date: Fri Dec 17 13:44:57 GMT 2021
User: TCL
Spectrometer: QEP01345
Trigger mode: 4
Integration Time (sec): 7.000000E0
Scans to average: 10
Electric dark correction enabled: true
Nonlinearity correction enabled: false
Boxcar width: 0
XAxis mode: Raman Shifts
Number of Pixels in Spectrum: 1044
>>>>>Begin Spectral Data<<<<<
46.04893	-0.0625
50.45542	-0.0625
54.85868	-0.8625
59.25871	0.0375
63.6555	46.3375
68.04907	49.7375
72.43941	53.3375
76.82654	57.8375
81.21044	58.9375
85.59113	61.9375
89.96862	63.4375
94.34289	67.2375
98.71396	67.7375
103.08183	66.5375
107.4465	72.6375
111.80798	74.0375
116.16626	72.7375
120.52136	72.3375
124.87327	77.8375
129.222	80.0375
133.56755	79.3375
137.90993	83.4375
142.24913	87.4375
146.58517	90.5375
150.91804	104.0375
155.24774	116.1375
159.57429	144.4375
163.89768	171.6375
168.21792	216.3375
172.53501	282.7375
176.84895	387.3375
181.15975	527.4375
185.46741	734.9375
189.77193	1005.1375
194.07331	1328.7375
198.37157	1721.2375
202.6667	2112.0375
206.9587	2512.4375
211.24758	2915.0375
215.53334	3315.8375
219.81599	3763.0375
224.09553	4281.2375
228.37195	4857.7375
232.64527	5452.3375
236.91549	6100.1375
241.18261	6686.4375
245.44663	7179.1375
249.70755	7583.4375
253.96539	7944.6375
258.22014	8248.3375
262.4718	8542.3375
266.72039	8775.4375
270.96589	8917.9375
275.20832	8905.8375
279.44768	8848.6375
283.68397	8705.1375
287.91719	8579.4375
292.14735	8585.5375
296.37445	8708.8375
300.59849	8960.4375
304.81948	9260.7375
309.03742	9488.3375
313.25231	9484.6375
317.46415	9094.5375
321.67296	8504.7375
325.87872	8073.3375
330.08145	7847.9375
334.28114	7867.6375
338.47781	8013.4375
342.67145	8247.8375
346.86207	8563.3375
351.04966	8984.8375
355.23424	9504.3375
359.4158	9945.0375
363.59435	10178.8375
367.76989	10304.5375
371.94243	10348.6375
376.11196	10372.2375
380.27849	10350.2375
384.44203	10302.9375
388.60257	10201.3375
392.76012	10159.5375
396.91468	10232.3375
401.06626	10470.8375
405.21485	10661.1375
409.36047	10535.2375
413.50311	10099.3375
417.64277	9713.7375
421.77947	9473.9375
425.9132	9384.4375
430.04396	9365.9375
434.17176	9420.1375
438.2966	9555.4375
442.41849	9754.4375
446.53742	10013.1375
450.6534	10254.5375
454.76644	10400.5375
458.87653	10470.0375
462.98368	10411.3375
467.08789	10281.9375
471.18916	10109.7375
475.2875	9925.0375
479.38291	9771.5375
483.4754	9690.4375
487.56496	9628.7375
491.6516	9617.5375
495.73531	9585.3375
499.81612	9599.5375
503.89401	9671.4375
507.96899	9769.3375
512.04106	9942.0375
516.11023	10116.7375
520.1765	10251.3375
524.23987	10218.6375
528.30034	10063.8375
532.35792	9901.5375
536.41261	9717.6375
540.46441	9519.7375
544.51333	9463.6375
548.55936	9494.0375
552.60252	9663.5375
556.64279	9827.4375
560.6802	9902.1375
564.71473	10003.7375
568.7464	10294.8375
572.7752	10473.6375
576.80114	10308.8375
580.82422	10097.4375
584.84444	10031.5375
588.86181	10021.6375
592.87633	10044.4375
596.888	10139.3375
600.89682	10438.0375
604.9028	11411.2375
608.90594	13906.2375
612.90624	17108.4375
616.90371	16684.6375
620.89834	12590.8375
624.89015	10666.6375
628.87913	10252.7375
632.86528	10288.1375
636.84862	10435.3375
640.82913	10385.1375
644.80683	10088.3375
648.78172	9875.5375
652.75379	9902.4375
656.72306	10236.6375
660.68952	10613.7375
664.65319	10539.5375
668.61405	10134.2375
672.57211	9945.8375
676.52738	9943.4375
680.47986	9963.4375
684.42955	9952.6375
688.37646	9931.9375
692.32058	10001.5375
696.26192	10096.3375
700.20048	10158.7375
704.13626	10261.4375
708.06928	10241.2375
711.99952	10218.8375
715.927	10171.0375
719.85171	10163.4375
723.77365	10173.7375
727.69284	10129.9375
731.60928	10082.4375
735.52295	10091.9375
739.43388	10117.2375
743.34206	10187.0375
747.24749	10213.6375
751.15017	10309.5375
755.05012	10443.3375
758.94733	10786.3375
762.8418	11535.9375
766.73354	12809.7375
770.62254	14290.3375
774.50882	15190.2375
778.39237	14815.6375
782.27321	13263.2375
786.15132	11775.7375
790.02671	10927.3375
793.89938	10582.8375
797.76935	10410.2375
801.6366	10385.6375
805.50115	10364.5375
809.36299	10351.3375
813.22213	10360.6375
817.07857	10354.6375
820.93231	10340.9375
824.78336	10321.0375
828.63172	10373.4375
832.47738	10373.2375
836.32036	10361.2375
840.16066	10360.6375
843.99827	10324.8375
847.8332	10315.1375
851.66546	10335.2375
855.49504	10328.1375
859.32195	10332.8375
863.1462	10305.2375
866.96777	10276.5375
870.78668	10312.7375
874.60293	10356.2375
878.41652	10394.2375
882.22745	10445.0375
886.03573	10500.3375
889.84136	10518.8375
893.64433	10473.5375
897.44466	10429.4375
901.24235	10426.6375
905.0374	10381.2375
908.8298	10364.4375
912.61957	10359.2375
916.40671	10392.7375
920.19121	10414.3375
923.97308	10475.5375
927.75233	10542.7375
931.52895	10624.3375
935.30295	10564.4375
939.07433	10391.3375
942.84309	10265.6375
946.60924	10165.2375
950.37278	10096.1375
954.13371	10068.9375
957.89203	10032.8375
961.64774	10015.0375
965.40086	10012.6375
969.15137	9965.5375
972.89929	9966.1375
976.64461	9965.6375
980.38733	9980.1375
984.12747	9998.4375
987.86502	10024.1375
991.59999	10106.1375
995.33237	10174.3375
999.06217	10291.5375
1002.78939	10502.8375
1006.51404	10662.5375
1010.23611	10842.3375
1013.95561	10961.1375
1017.67255	10981.4375
1021.38692	10906.1375
1025.09872	10780.8375
1028.80796	10677.5375
1032.51465	10687.0375
1036.21877	10781.2375
1039.92035	10871.1375
1043.61937	10895.9375
1047.31584	10865.9375
1051.00976	10807.4375
1054.70114	10772.1375
1058.38998	10779.8375
1062.07627	10804.8375
1065.76003	10872.0375
1069.44126	10935.9375
1073.11995	11026.6375
1076.79611	11093.9375
1080.46974	11197.0375
1084.14085	11345.6375
1087.80943	11530.3375
1091.47549	11609.5375
1095.13903	11461.1375
1098.80005	11179.8375
1102.45857	10947.3375
1106.11456	10896.6375
1109.76805	10941.3375
1113.41903	11116.9375
1117.06751	11370.9375
1120.71348	11663.3375
1124.35696	11991.5375
1127.99793	12299.3375
1131.63641	12298.2375
1135.2724	11966.7375
1138.90589	11601.0375
1142.5369	11367.0375
1146.16542	11195.2375
1149.79145	11085.8375
1153.415	11040.6375
1157.03607	11108.5375
1160.65467	11227.5375
1164.27079	11487.6375
1167.88443	11818.5375
1171.49561	12422.3375
1175.10432	13376.1375
1178.71056	14769.1375
1182.31434	15883.8375
1185.91565	16213.8375
1189.51451	15949.9375
1193.11091	15173.2375
1196.70485	14240.4375
1200.29634	13572.9375
1203.88538	13104.4375
1207.47197	12581.2375
1211.05612	12129.6375
1214.63782	11920.5375
1218.21708	11797.9375
1221.79391	11798.8375
1225.36829	11909.9375
1228.94024	12016.9375
1232.50976	12138.1375
1236.07685	12262.2375
1239.6415	12323.0375
1243.20374	12301.6375
1246.76355	12300.0375
1250.32093	12383.9375
1253.8759	12530.1375
1257.42845	12747.2375
1260.97859	13010.2375
1264.52631	13202.9375
1268.07163	13419.6375
1271.61453	13673.0375
1275.15503	13876.0375
1278.69312	13963.7375
1282.22882	14020.1375
1285.76211	14248.8375
1289.29301	14515.9375
1292.82151	14836.8375
1296.34761	15073.1375
1299.87133	15524.0375
1303.39266	16302.0375
1306.9116	17556.3375
1310.42815	18978.5375
1313.94233	19802.6375
1317.45412	19576.6375
1320.96354	18596.8375
1324.47058	17508.3375
1327.97525	16595.8375
1331.47754	16102.6375
1334.97747	15987.4375
1338.47502	16141.8375
1341.97022	16513.3375
1345.46305	16943.5375
1348.95352	17665.1375
1352.44163	18590.7375
1355.92738	19889.0375
1359.41078	21945.9375
1362.89183	23842.9375
1366.37053	23334.9375
1369.84688	20537.0375
1373.32088	17699.3375
1376.79254	15835.0375
1380.26186	14867.3375
1383.72883	14377.8375
1387.19347	13983.8375
1390.65578	13537.0375
1394.11575	13174.1375
1397.57339	12973.0375
1401.0287	12951.2375
1404.48168	13096.0375
1407.93234	13360.1375
1411.38068	13552.4375
1414.82669	13685.9375
1418.27039	13615.8375
1421.71177	13463.6375
1425.15083	13280.1375
1428.58758	13241.2375
1432.02203	13259.4375
1435.45416	13324.4375
1438.88399	13343.3375
1442.31151	13341.9375
1445.73673	13373.3375
1449.15965	13394.9375
1452.58027	13373.8375
1455.9986	13249.3375
1459.41463	13203.1375
1462.82837	13250.1375
1466.23982	13405.5375
1469.64898	13584.0375
1473.05586	13722.4375
1476.46045	13875.9375
1479.86276	14034.2375
1483.26279	14291.5375
1486.66054	14623.3375
1490.05602	15037.0375
1493.44922	15638.8375
1496.84016	16458.3375
1500.22882	17654.0375
1503.61521	19165.1375
1506.99934	20821.2375
1510.38121	22210.6375
1513.76081	22648.5375
1517.13816	21597.9375
1520.51324	19485.4375
1523.88607	17415.9375
1527.25665	16027.6375
1530.62498	15259.9375
1533.99105	14740.1375
1537.35488	14464.1375
1540.71647	14341.4375
1544.07581	14257.9375
1547.4329	14307.1375
1550.78776	14300.1375
1554.14038	14288.8375
1557.49077	14335.4375
1560.83892	14462.3375
1564.18484	14665.6375
1567.52853	14906.9375
1570.86999	15196.6375
1574.20922	15404.1375
1577.54624	15383.0375
1580.88103	14938.8375
1584.2136	14255.8375
1587.54395	13892.7375
1590.87208	14047.5375
1594.19801	14509.6375
1597.52172	15222.7375
1600.84321	15584.3375
1604.16251	15335.0375
1607.47959	14701.0375
1610.79447	13940.0375
1614.10715	13262.7375
1617.41763	12646.7375
1620.7259	12270.9375
1624.03199	12106.8375
1627.33587	12131.5375
1630.63757	12286.5375
1633.93707	12682.2375
1637.23439	13259.1375
1640.52951	14016.7375
1643.82246	14912.0375
1647.11321	15937.8375
1650.40179	16649.1375
1653.68819	16401.6375
1656.97241	14968.7375
1660.25446	13341.9375
1663.53433	12178.2375
1666.81203	11505.6375
1670.08756	11082.8375
1673.36092	10808.8375
1676.63211	10648.0375
1679.90115	10517.7375
1683.16801	10415.2375
1686.43272	10359.2375
1689.69527	10298.1375
1692.95567	10259.6375
1696.2139	10251.5375
1699.46999	10259.6375
1702.72392	10238.1375
1705.97571	10234.2375
1709.22535	10203.4375
1712.47284	10180.5375
1715.71819	10188.2375
1718.96139	10195.0375
1722.20246	10165.7375
1725.44139	10161.4375
1728.67818	10102.9375
1731.91284	10058.5375
1735.14537	10009.7375
1738.37576	9979.7375
1741.60403	9937.9375
1744.83017	9917.1375
1748.05418	9888.9375
1751.27607	9893.9375
1754.49584	9877.4375
1757.71349	9871.7375
1760.92903	9869.7375
1764.14244	9867.4375
1767.35375	9851.7375
1770.56294	9826.7375
1773.77002	9831.0375
1776.97499	9841.4375
1780.17785	9792.1375
1783.37861	9777.0375
1786.57727	9762.9375
1789.77382	9727.9375
1792.96828	9724.5375
1796.16064	9739.7375
1799.3509	9715.5375
1802.53907	9715.0375
1805.72514	9674.6375
1808.90913	9668.8375
1812.09102	9654.4375
1815.27083	9622.8375
1818.44856	9627.2375
1821.6242	9608.2375
1824.79776	9597.2375
1827.96924	9607.8375
1831.13864	9567.9375
1834.30597	9581.6375
1837.47122	9580.7375
1840.6344	9562.3375
1843.7955	9578.3375
1846.95454	9567.1375
1850.11151	9557.6375
1853.26642	9549.9375
1856.41926	9571.6375
1859.57004	9548.5375
1862.71876	9578.9375
1865.86542	9565.9375
1869.01003	9564.9375
1872.15258	9567.8375
1875.29308	9584.5375
1878.43152	9574.4375
1881.56792	9561.3375
1884.70227	9576.9375
1887.83457	9553.5375
1890.96482	9565.6375
1894.09304	9550.2375
1897.21921	9557.5375
1900.34335	9569.9375
1903.46544	9566.6375
1906.58551	9559.9375
1909.70353	9583.9375
1912.81953	9556.0375
1915.93349	9558.3375
1919.04543	9542.1375
1922.15534	9545.2375
1925.26322	9520.6375
1928.36908	9506.4375
1931.47292	9475.7375
1934.57473	9451.7375
1937.67453	9393.0375
1940.77232	9360.3375
1943.86808	9332.3375
1946.96184	9317.5375
1950.05358	9287.3375
1953.14331	9241.7375
1956.23103	9203.1375
1959.31675	9168.7375
1962.40046	9139.8375
1965.48217	9129.5375
1968.56188	9118.2375
1971.63959	9088.3375
1974.7153	9067.5375
1977.78901	9046.6375
1980.86073	8985.8375
1983.93046	8963.7375
1986.99819	8944.8375
1990.06394	8911.5375
1993.1277	8895.0375
1996.18947	8845.9375
1999.24925	8852.0375
2002.30706	8805.5375
2005.36288	8784.9375
2008.41672	8779.4375
2011.46859	8766.4375
2014.51848	8719.4375
2017.56639	8685.5375
2020.61233	8670.5375
2023.6563	8654.7375
2026.6983	8643.7375
2029.73833	8635.6375
2032.7764	8573.2375
2035.8125	8570.7375
2038.84664	8576.0375
2041.87881	8538.8375
2044.90903	8529.8375
2047.93729	8513.9375
2050.96359	8530.3375
2053.98794	8497.3375
2057.01034	8491.2375
2060.03078	8470.1375
2063.04927	8456.5375
2066.06582	8465.2375
2069.08042	8456.5375
2072.09307	8465.2375
2075.10378	8439.1375
2078.11255	8438.8375
2081.11938	8448.0375
2084.12426	8434.3375
2087.12722	8450.7375
2090.12824	8413.1375
2093.12732	8421.8375
2096.12447	8448.9375
2099.11969	8424.7375
2102.11299	8433.9375
2105.10435	8438.7375
2108.09379	8436.7375
2111.08131	8441.4375
2114.0669	8434.7375
2117.05057	8440.3375
2120.03233	8430.4375
2123.01216	8479.0375
2125.99008	8478.6375
2128.96609	8468.4375
2131.94018	8476.8375
2134.91236	8467.4375
2137.88263	8510.1375
2140.851	8477.4375
2143.81746	8505.1375
2146.78201	8513.6375
2149.74466	8478.0375
2152.7054	8504.3375
2155.66425	8478.7375
2158.6212	8479.5375
2161.57625	8488.2375
2164.52941	8479.0375
2167.48067	8486.5375
2170.43004	8469.6375
2173.37752	8486.9375
2176.32311	8480.7375
2179.26681	8479.5375
2182.20863	8449.1375
2185.14856	8476.1375
2188.08661	8459.1375
2191.02278	8469.6375
2193.95707	8460.5375
2196.88948	8464.8375
2199.82001	8451.1375
2202.74867	8433.8375
2205.67545	8417.3375
2208.60037	8407.7375
2211.52341	8395.0375
2214.44458	8401.6375
2217.36388	8356.5375
2220.28132	8369.4375
2223.1969	8319.7375
2226.11061	8303.5375
2229.02246	8299.0375
2231.93245	8289.3375
2234.84058	8278.7375
2237.74686	8282.5375
2240.65128	8258.3375
2243.55385	8244.8375
2246.45456	8219.4375
2249.35343	8243.9375
2252.25044	8227.4375
2255.14561	8194.5375
2258.03893	8206.3375
2260.93041	8204.8375
2263.82004	8171.3375
2266.70783	8153.5375
2269.59378	8121.8375
2272.4779	8120.1375
2275.36017	8097.3375
2278.24061	8101.6375
2281.11922	8058.7375
2283.996	8040.0375
2286.87094	8016.0375
2289.74405	8019.3375
2292.61534	7993.3375
2295.4848	7998.3375
2298.35243	7993.7375
2301.21824	7980.1375
2304.08223	7956.2375
2306.94439	7980.0375
2309.80474	7950.5375
2312.66327	7965.9375
2315.51999	7934.3375
2318.37489	7928.1375
2321.22797	7916.5375
2324.07925	7914.9375
2326.92871	7911.2375
2329.77637	7892.4375
2332.62222	7875.7375
2335.46626	7863.8375
2338.3085	7869.8375
2341.14893	7840.4375
2343.98756	7841.5375
2346.8244	7836.5375
2349.65943	7825.1375
2352.49267	7829.2375
2355.32411	7832.2375
2358.15376	7817.5375
2360.98161	7831.8375
2363.80768	7836.9375
2366.63195	7813.6375
2369.45444	7802.2375
2372.27514	7800.9375
2375.09405	7798.8375
2377.91118	7773.4375
2380.72652	7752.7375
2383.54009	7748.1375
2386.35187	7716.9375
2389.16188	7691.7375
2391.97011	7669.4375
2394.77657	7654.1375
2397.58125	7623.3375
2400.38416	7599.1375
2403.18529	7609.4375
2405.98466	7600.4375
2408.78226	7560.7375
2411.57809	7564.5375
2414.37216	7550.8375
2417.16446	7529.5375
2419.955	7532.5375
2422.74378	7520.5375
2425.5308	7499.2375
2428.31606	7510.4375
2431.09956	7507.7375
2433.88131	7486.2375
2436.6613	7481.7375
2439.43954	7473.6375
2442.21603	7473.0375
2444.99077	7443.0375
2447.76377	7466.1375
2450.53501	7458.8375
2453.30451	7450.3375
2456.07226	7431.5375
2458.83827	7435.7375
2461.60254	7429.4375
2464.36507	7431.1375
2467.12586	7418.2375
2469.88492	7398.0375
2472.64224	7405.6375
2475.39782	7387.5375
2478.15167	7399.1375
2480.90379	7391.8375
2483.65417	7410.1375
2486.40283	7373.3375
2489.14976	7403.4375
2491.89497	7384.1375
2494.63845	7421.4375
2497.3802	7389.4375
2500.12024	7368.0375
2502.85855	7371.1375
2505.59514	7375.4375
2508.33002	7342.3375
2511.06318	7352.0375
2513.79462	7326.6375
2516.52435	7289.3375
2519.25237	7287.0375
2521.97867	7286.7375
2524.70327	7261.2375
2527.42616	7225.1375
2530.14734	7223.2375
2532.86681	7222.0375
2535.58458	7201.3375
2538.30065	7196.0375
2541.01501	7202.5375
2543.72768	7181.0375
2546.43864	7158.7375
2549.14791	7142.2375
2551.85548	7152.4375
2554.56136	7123.0375
2557.26554	7118.1375
2559.96803	7116.8375
2562.66883	7094.7375
2565.36794	7092.0375
2568.06536	7079.6375
2570.7611	7060.5375
2573.45514	7046.2375
2576.14751	7047.9375
2578.83819	7045.1375
2581.52719	7031.3375
2584.21451	7030.1375
2586.90015	7005.4375
2589.58411	6985.3375
2592.2664	6992.7375
2594.94701	6975.4375
2597.62594	6964.3375
2600.30321	6945.7375
2602.9788	6940.1375
2605.65273	6918.9375
2608.32498	6927.9375
2610.99557	6928.8375
2613.66449	6906.7375
2616.33175	6906.5375
2618.99734	6889.0375
2621.66128	6861.2375
2624.32355	6869.8375
2626.98416	6865.2375
2629.64311	6857.5375
2632.30041	6844.1375
2634.95605	6840.7375
2637.61004	6822.6375
2640.26238	6802.1375
2642.91306	6799.7375
2645.56209	6800.7375
2648.20948	6798.1375
2650.85521	6782.8375
2653.4993	6782.0375
2656.14175	6780.4375
2658.78255	6761.4375
2661.42171	6770.8375
2664.05923	6768.0375
2666.6951	6771.5375
2669.32934	6761.6375
2671.96194	6770.4375
2674.59291	6778.3375
2677.22224	6789.8375
2679.84993	6777.7375
2682.476	6788.0375
2685.10043	6786.9375
2687.72324	6779.7375
2690.34441	6771.1375
2692.96396	6782.7375
2695.58188	6773.0375
2698.19818	6765.8375
2700.81285	6774.4375
2703.4259	6779.6375
2706.03733	6804.7375
2708.64714	6806.3375
2711.25533	6804.1375
2713.86191	6785.8375
2716.46687	6788.0375
2719.07021	6785.0375
2721.67194	6778.1375
2724.27206	6768.8375
2726.87057	6774.6375
2729.46747	6784.6375
2732.06276	6750.7375
2734.65644	6758.8375
2737.24852	6761.7375
2739.83899	6753.3375
2742.42786	6734.6375
2745.01513	6720.6375
2747.60079	6714.5375
2750.18486	6713.0375
2752.76733	6717.7375
2755.3482	6714.7375
2757.92747	6695.4375
2760.50515	6683.1375
2763.08123	6691.2375
2765.65573	6677.4375
2768.22863	6662.6375
2770.79994	6653.5375
2773.36967	6654.2375
2775.9378	6630.0375
2778.50435	6630.6375
2781.06932	6628.2375
2783.6327	6610.4375
2786.1945	6619.5375
2788.75471	6599.9375
2791.31335	6579.1375
2793.87041	6573.8375
2796.42589	6565.5375
2798.97979	6554.5375
2801.53212	6539.2375
2804.08288	6546.7375
2806.63206	6520.4375
2809.17967	6530.4375
2811.72571	6537.2375
2814.27018	6510.7375
2816.81308	6498.5375
2819.35442	6519.6375
2821.89419	6506.0375
2824.43239	6524.1375
2826.96904	6497.8375
2829.50412	6512.1375
2832.03763	6500.7375
2834.56959	6517.6375
2837.1	6511.7375
2839.62884	6513.1375
2842.15613	6531.6375
2844.68186	6563.7375
2847.20604	6595.2375
2849.72867	6640.9375
2852.24974	6665.9375
2854.76927	6658.1375
2857.28724	6636.4375
2859.80367	6611.7375
2862.31855	6588.4375
2864.83189	6593.5375
2867.34368	6565.7375
2869.85393	6586.8375
2872.36264	6580.3375
2874.8698	6562.3375
2877.37543	6560.7375
2879.87952	6561.6375
2882.38207	6539.1375
2884.88308	6534.5375
2887.38256	6549.0375
2889.88051	6540.9375
2892.37692	6532.2375
2894.8718	6537.0375
2897.36515	6533.8375
2899.85698	6554.5375
2902.34727	6566.2375
2904.83604	6546.3375
2907.32328	6584.8375
2909.809	6565.0375
2912.29319	6534.7375
2914.77587	6550.5375
2917.25702	6522.8375
2919.73665	6515.1375
2922.21476	6499.7375
2924.69136	6487.0375
2927.16644	6503.2375
2929.64	6470.4375
2932.11205	6474.2375
2934.58258	6438.7375
2937.05161	6434.3375
2939.51912	6404.9375
2941.98513	6405.0375
2944.44962	6351.8375
2946.91261	6338.0375
2949.37409	6329.9375
2951.83407	6289.8375
2954.29254	6278.8375
2956.74951	6252.5375
2959.20498	6251.8375
2961.65895	6250.2375
2964.11142	6226.4375
2966.56239	6193.9375
2969.01186	6185.0375
2971.45984	6171.2375
2973.90632	6170.6375
2976.35131	6142.6375
2978.7948	6121.5375
2981.23681	6102.4375
2983.67732	6090.6375
2986.11635	6067.4375
2988.55388	6051.2375
2990.98993	6034.3375
2993.4245	6032.2375
2995.85758	5992.9375
2998.28917	6001.4375
3000.71928	5984.1375
3003.14791	5961.5375
3005.57506	5955.7375
3008.00073	5941.5375
3010.42493	5938.8375
3012.84764	5922.1375
3015.26888	5928.2375
3017.68865	5914.6375
3020.10694	5898.0375
3022.52376	5889.6375
3024.9391	5859.5375
3027.35298	5877.5375
3029.76539	5856.5375
3032.17632	5851.4375
3034.5858	5833.0375
3036.9938	5830.4375
3039.40034	5814.1375
3041.80542	5821.2375
3044.20903	5803.0375
3046.61118	5795.8375
3049.01187	5771.1375
3051.4111	5773.3375
3053.80888	5747.8375
3056.20519	5755.7375
3058.60005	5739.2375
3060.99345	5747.6375
3063.3854	5725.2375
3065.7759	5715.1375
3068.16494	5716.6375
3070.55254	5678.3375
3072.93868	5671.1375
3075.32338	5670.4375
3077.70662	5648.2375
3080.08842	5624.3375
3082.46878	5629.5375
3084.84769	5610.8375
3087.22515	5613.5375
