Data from AgNPs_FTO_APTES_UA_50uM_R6G_10uM_NaF_0.1M_Addition_RamanShift__7__14-44-27-403.txt Node

Date: Fri Dec 17 14:44:27 GMT 2021
User: TCL
Spectrometer: QEP01345
Trigger mode: 4
Integration Time (sec): 7.000000E0
Scans to average: 10
Electric dark correction enabled: true
Nonlinearity correction enabled: false
Boxcar width: 0
XAxis mode: Raman Shifts
Number of Pixels in Spectrum: 1044
>>>>>Begin Spectral Data<<<<<
46.04893	-0.725
50.45542	-0.025
54.85868	-1.825
59.25871	0.975
63.6555	89.675
68.04907	96.475
72.43941	97.675
76.82654	105.175
81.21044	107.975
85.59113	110.075
89.96862	113.875
94.34289	117.875
98.71396	121.175
103.08183	122.275
107.4465	129.075
111.80798	129.175
116.16626	138.275
120.52136	137.475
124.87327	149.475
129.222	156.175
133.56755	161.575
137.90993	178.375
142.24913	190.275
146.58517	212.375
150.91804	247.375
155.24774	294.775
159.57429	363.175
163.89768	465.175
168.21792	609.875
172.53501	821.275
176.84895	1143.075
181.15975	1608.075
185.46741	2250.475
189.77193	3101.075
194.07331	4171.075
198.37157	5363.375
202.6667	6644.175
206.9587	7904.275
211.24758	9158.975
215.53334	10377.475
219.81599	11677.475
224.09553	13102.975
228.37195	14670.275
232.64527	16417.375
236.91549	18278.575
241.18261	20176.675
245.44663	21960.875
249.70755	23594.275
253.96539	25029.875
258.22014	26259.075
262.4718	27234.075
266.72039	27864.675
270.96589	28176.575
275.20832	28233.675
279.44768	28076.775
283.68397	27797.975
287.91719	27529.775
292.14735	27280.375
296.37445	27208.075
300.59849	27277.675
304.81948	27359.875
309.03742	27326.275
313.25231	27248.575
317.46415	26841.375
321.67296	26358.775
325.87872	25917.775
330.08145	25702.875
334.28114	25735.175
338.47781	25932.475
342.67145	26210.475
346.86207	26536.275
351.04966	26941.875
355.23424	27428.275
359.4158	27869.075
363.59435	28215.775
367.76989	28484.475
371.94243	28689.875
376.11196	28819.475
380.27849	28953.475
384.44203	29128.875
388.60257	29300.875
392.76012	29611.275
396.91468	29992.775
401.06626	30378.475
405.21485	30695.175
409.36047	30702.475
413.50311	30445.975
417.64277	30241.675
421.77947	30202.575
425.9132	30248.575
430.04396	30418.775
434.17176	30519.875
438.2966	30677.675
442.41849	30902.475
446.53742	31297.475
450.6534	31805.275
454.76644	32183.375
458.87653	32460.575
462.98368	32549.275
467.08789	32448.775
471.18916	32205.275
475.2875	31848.675
479.38291	31554.475
483.4754	31263.975
487.56496	31020.875
491.6516	30801.975
495.73531	30704.175
499.81612	30728.875
503.89401	30994.075
507.96899	31093.175
512.04106	31152.075
516.11023	31117.375
520.1765	31021.275
524.23987	30785.775
528.30034	30599.175
532.35792	30366.575
536.41261	30186.275
540.46441	30020.075
544.51333	30012.775
548.55936	30286.075
552.60252	30615.875
556.64279	31038.575
560.6802	31283.275
564.71473	31405.475
568.7464	31651.775
572.7752	32119.075
576.80114	32661.275
580.82422	33309.275
584.84444	34026.275
588.86181	34625.375
592.87633	34905.375
596.888	34710.875
600.89682	34436.675
604.9028	35085.175
608.90594	37266.075
612.90624	39439.275
616.90371	37723.775
620.89834	33353.675
624.89015	31374.975
628.87913	31085.375
632.86528	31286.375
636.84862	31462.575
640.82913	31193.675
644.80683	30692.275
648.78172	30368.075
652.75379	30252.775
656.72306	30608.075
660.68952	30974.875
664.65319	30848.975
668.61405	30589.275
672.57211	30568.675
676.52738	30682.375
680.47986	30658.675
684.42955	30479.175
688.37646	30412.275
692.32058	30536.875
696.26192	30835.875
700.20048	31091.475
704.13626	31227.775
708.06928	31286.275
711.99952	31092.575
715.927	31027.275
719.85171	31046.275
723.77365	30978.475
727.69284	30730.175
731.60928	30412.875
735.52295	30267.075
739.43388	30231.975
743.34206	30317.275
747.24749	30378.675
751.15017	30597.775
755.05012	30885.675
758.94733	31484.475
762.8418	32503.075
766.73354	34145.875
770.62254	35735.675
774.50882	36252.475
778.39237	35244.275
782.27321	33555.375
786.15132	32115.375
790.02671	31203.875
793.89938	30662.675
797.76935	30474.875
801.6366	30411.575
805.50115	30325.475
809.36299	30223.975
813.22213	30099.875
817.07857	29955.075
820.93231	29914.575
824.78336	29825.375
828.63172	29812.875
832.47738	29743.375
836.32036	29760.875
840.16066	29748.575
843.99827	29745.475
847.8332	29750.075
851.66546	29717.275
855.49504	29838.075
859.32195	29784.375
863.1462	29775.775
866.96777	29735.875
870.78668	29756.375
874.60293	29795.175
878.41652	29845.175
882.22745	29921.675
886.03573	29985.475
889.84136	30020.275
893.64433	29948.575
897.44466	29836.175
901.24235	29752.175
905.0374	29705.675
908.8298	29631.275
912.61957	29639.275
916.40671	29792.375
920.19121	29998.075
923.97308	30137.475
927.75233	30169.575
931.52895	30059.875
935.30295	29852.275
939.07433	29525.175
942.84309	29283.275
946.60924	29167.675
950.37278	29128.475
954.13371	29020.175
957.89203	29047.775
961.64774	29019.975
965.40086	28976.975
969.15137	28933.775
972.89929	28941.975
976.64461	28910.875
980.38733	28911.575
984.12747	28962.175
987.86502	29103.475
991.59999	29198.575
995.33237	29408.475
999.06217	29760.075
1002.78939	30179.675
1006.51404	30576.075
1010.23611	31024.275
1013.95561	31262.575
1017.67255	31236.875
1021.38692	31040.075
1025.09872	30728.475
1028.80796	30541.875
1032.51465	30554.575
1036.21877	30660.475
1039.92035	30780.175
1043.61937	30787.575
1047.31584	30725.975
1051.00976	30662.475
1054.70114	30701.875
1058.38998	30847.875
1062.07627	31070.875
1065.76003	31438.675
1069.44126	31787.875
1073.11995	32261.475
1076.79611	32697.075
1080.46974	32905.475
1084.14085	32934.075
1087.80943	33023.075
1091.47549	33185.775
1095.13903	33242.975
1098.80005	32986.975
1102.45857	32502.675
1106.11456	32021.375
1109.76805	31758.775
1113.41903	31667.975
1117.06751	31640.975
1120.71348	31806.375
1124.35696	32015.475
1127.99793	32296.475
1131.63641	32428.975
1135.2724	32328.875
1138.90589	32221.175
1142.5369	32201.875
1146.16542	32223.075
1149.79145	32311.575
1153.415	32363.575
1157.03607	32523.175
1160.65467	32953.375
1164.27079	33774.275
1167.88443	34863.375
1171.49561	36152.375
1175.10432	37735.575
1178.71056	39670.175
1182.31434	41593.375
1185.91565	42931.475
1189.51451	43514.875
1193.11091	43264.875
1196.70485	42309.375
1200.29634	41042.075
1203.88538	39928.475
1207.47197	39036.375
1211.05612	38274.075
1214.63782	37605.775
1218.21708	36878.675
1221.79391	36207.075
1225.36829	35740.275
1228.94024	35419.875
1232.50976	35314.275
1236.07685	35309.575
1239.6415	35333.575
1243.20374	35361.475
1246.76355	35588.975
1250.32093	35953.875
1253.8759	36517.775
1257.42845	37213.575
1260.97859	37980.375
1264.52631	38813.075
1268.07163	39536.075
1271.61453	40267.475
1275.15503	40883.975
1278.69312	41432.775
1282.22882	41891.275
1285.76211	42448.175
1289.29301	43132.175
1292.82151	44001.575
1296.34761	45139.275
1299.87133	46519.675
1303.39266	48135.375
1306.9116	49729.775
1310.42815	51232.075
1313.94233	52057.875
1317.45412	51985.975
1320.96354	51526.575
1324.47058	51154.575
1327.97525	50920.975
1331.47754	50951.175
1334.97747	51224.375
1338.47502	51600.375
1341.97022	52020.975
1345.46305	52404.775
1348.95352	52580.175
1352.44163	52619.875
1355.92738	52788.275
1359.41078	53530.375
1362.89183	54322.875
1366.37053	53322.275
1369.84688	50148.475
1373.32088	46250.475
1376.79254	43324.475
1380.26186	41857.775
1383.72883	41332.975
1387.19347	41054.475
1390.65578	40530.275
1394.11575	40099.375
1397.57339	39926.175
1401.0287	40030.575
1404.48168	40295.475
1407.93234	40471.975
1411.38068	40324.975
1414.82669	39824.575
1418.27039	39006.975
1421.71177	38104.575
1425.15083	37375.675
1428.58758	37099.575
1432.02203	37272.875
1435.45416	37885.175
1438.88399	38539.075
1442.31151	39014.775
1445.73673	39230.275
1449.15965	39382.175
1452.58027	39408.575
1455.9986	39398.575
1459.41463	39718.075
1462.82837	40271.275
1466.23982	40852.775
1469.64898	41476.175
1473.05586	41818.975
1476.46045	41961.175
1479.86276	41889.175
1483.26279	41803.675
1486.66054	41903.775
1490.05602	42087.075
1493.44922	42610.375
1496.84016	43321.475
1500.22882	44403.775
1503.61521	45882.775
1506.99934	47408.375
1510.38121	48480.575
1513.76081	48579.775
1517.13816	47502.775
1520.51324	45863.975
1523.88607	44397.575
1527.25665	43485.075
1530.62498	43004.775
1533.99105	42721.275
1537.35488	42344.475
1540.71647	41848.675
1544.07581	41249.375
1547.4329	40616.775
1550.78776	40144.775
1554.14038	39701.275
1557.49077	39492.575
1560.83892	39408.375
1564.18484	39349.275
1567.52853	39432.675
1570.86999	39584.275
1574.20922	40003.175
1577.54624	40322.575
1580.88103	40275.175
1584.2136	40104.375
1587.54395	40410.575
1590.87208	41369.375
1594.19801	42855.175
1597.52172	44473.575
1600.84321	45073.275
1604.16251	44063.175
1607.47959	42261.275
1610.79447	40175.975
1614.10715	37918.875
1617.41763	35907.575
1620.7259	34385.875
1624.03199	33466.275
1627.33587	33199.475
1630.63757	33650.575
1633.93707	34774.575
1637.23439	36846.475
1640.52951	39714.075
1643.82246	43087.375
1647.11321	45738.975
1650.40179	46239.775
1653.68819	44205.275
1656.97241	40267.275
1660.25446	36288.875
1663.53433	33241.775
1666.81203	31224.275
1670.08756	29942.175
1673.36092	29128.375
1676.63211	28492.875
1679.90115	28165.675
1683.16801	27823.875
1686.43272	27572.175
1689.69527	27417.875
1692.95567	27243.675
1696.2139	27178.575
1699.46999	27098.175
1702.72392	27033.575
1705.97571	26953.775
1709.22535	26885.575
1712.47284	26845.375
1715.71819	26831.775
1718.96139	26788.275
1722.20246	26698.475
1725.44139	26608.575
1728.67818	26496.075
1731.91284	26390.475
1735.14537	26271.675
1738.37576	26215.775
1741.60403	26106.475
1744.83017	26057.075
1748.05418	25935.875
1751.27607	25938.075
1754.49584	25911.875
1757.71349	25836.075
1760.92903	25823.275
1764.14244	25800.675
1767.35375	25818.075
1770.56294	25786.775
1773.77002	25761.275
1776.97499	25700.075
1780.17785	25678.975
1783.37861	25643.875
1786.57727	25666.775
1789.77382	25588.575
1792.96828	25525.875
1796.16064	25479.975
1799.3509	25424.275
1802.53907	25414.075
1805.72514	25357.575
1808.90913	25257.875
1812.09102	25249.175
1815.27083	25175.775
1818.44856	25157.575
1821.6242	25112.275
1824.79776	25095.675
1827.96924	25083.475
1831.13864	25053.375
1834.30597	25074.875
1837.47122	25116.775
1840.6344	25064.875
1843.7955	25067.375
1846.95454	25077.375
1850.11151	25037.475
1853.26642	25024.475
1856.41926	25004.575
1859.57004	24995.275
1862.71876	24967.575
1865.86542	24930.075
1869.01003	24923.575
1872.15258	24880.575
1875.29308	24860.575
1878.43152	24750.175
1881.56792	24770.475
1884.70227	24769.475
1887.83457	24732.075
1890.96482	24686.275
1894.09304	24651.075
1897.21921	24619.375
1900.34335	24603.275
1903.46544	24603.975
1906.58551	24579.375
1909.70353	24519.675
1912.81953	24472.275
1915.93349	24459.175
1919.04543	24390.375
1922.15534	24338.475
1925.26322	24302.975
1928.36908	24245.375
1931.47292	24191.775
1934.57473	24121.275
1937.67453	24059.275
1940.77232	24025.975
1943.86808	23965.275
1946.96184	23919.875
1950.05358	23911.175
1953.14331	23821.575
1956.23103	23777.575
1959.31675	23685.075
1962.40046	23646.375
1965.48217	23610.775
1968.56188	23533.575
1971.63959	23412.575
1974.7153	23343.975
1977.78901	23293.675
1980.86073	23216.875
1983.93046	23144.275
1986.99819	23077.975
1990.06394	23013.575
1993.1277	22963.175
1996.18947	22901.375
1999.24925	22848.075
2002.30706	22773.975
2005.36288	22690.875
2008.41672	22645.575
2011.46859	22558.375
2014.51848	22531.275
2017.56639	22436.375
2020.61233	22410.675
2023.6563	22330.975
2026.6983	22311.675
2029.73833	22267.975
2032.7764	22206.975
2035.8125	22152.475
2038.84664	22134.275
2041.87881	22069.475
2044.90903	22041.575
2047.93729	22013.375
2050.96359	21981.575
2053.98794	21984.575
2057.01034	21926.175
2060.03078	21906.675
2063.04927	21914.575
2066.06582	21870.775
2069.08042	21865.175
2072.09307	21858.075
2075.10378	21848.975
2078.11255	21785.675
2081.11938	21818.475
2084.12426	21823.675
2087.12722	21814.075
2090.12824	21773.975
2093.12732	21769.675
2096.12447	21810.275
2099.11969	21833.575
2102.11299	21836.975
2105.10435	21827.975
2108.09379	21865.675
2111.08131	21881.175
2114.0669	21861.375
2117.05057	21893.575
2120.03233	21917.275
2123.01216	21921.975
2125.99008	21927.175
2128.96609	21960.675
2131.94018	21980.875
2134.91236	21993.975
2137.88263	21981.475
2140.851	22004.275
2143.81746	22028.075
2146.78201	22056.875
2149.74466	22039.875
2152.7054	22067.775
2155.66425	22020.575
2158.6212	22033.775
2161.57625	22004.175
2164.52941	22046.175
2167.48067	22019.375
2170.43004	22036.775
2173.37752	22034.875
2176.32311	22019.975
2179.26681	22028.375
2182.20863	21975.075
2185.14856	21988.375
2188.08661	22005.675
2191.02278	22006.075
2193.95707	21948.475
2196.88948	21972.775
2199.82001	21951.775
2202.74867	21917.275
2205.67545	21903.175
2208.60037	21870.375
2211.52341	21828.575
2214.44458	21785.975
2217.36388	21755.775
2220.28132	21750.775
2223.1969	21724.975
2226.11061	21689.575
2229.02246	21617.475
2231.93245	21586.275
2234.84058	21540.975
2237.74686	21506.975
2240.65128	21477.775
2243.55385	21452.975
2246.45456	21426.975
2249.35343	21410.075
2252.25044	21373.875
2255.14561	21353.575
2258.03893	21330.675
2260.93041	21291.775
2263.82004	21242.575
2266.70783	21215.175
2269.59378	21153.875
2272.4779	21119.975
2275.36017	21075.775
2278.24061	21066.275
2281.11922	20999.675
2283.996	20996.775
2286.87094	20938.375
2289.74405	20926.775
2292.61534	20892.975
2295.4848	20843.475
2298.35243	20845.975
2301.21824	20835.775
2304.08223	20800.775
2306.94439	20807.975
2309.80474	20834.975
2312.66327	20789.075
2315.51999	20766.475
2318.37489	20769.475
2321.22797	20726.075
2324.07925	20727.275
2326.92871	20671.575
2329.77637	20682.675
2332.62222	20647.575
2335.46626	20622.575
2338.3085	20586.175
2341.14893	20579.275
2343.98756	20530.075
2346.8244	20534.875
2349.65943	20495.875
2352.49267	20505.775
2355.32411	20521.075
2358.15376	20488.075
2360.98161	20462.975
2363.80768	20448.875
2366.63195	20461.975
2369.45444	20427.875
2372.27514	20427.275
2375.09405	20399.575
2377.91118	20349.975
2380.72652	20317.575
2383.54009	20307.575
2386.35187	20304.575
2389.16188	20199.875
2391.97011	20144.075
2394.77657	20154.975
2397.58125	20078.775
2400.38416	20050.475
2403.18529	20053.775
2405.98466	20043.675
2408.78226	20015.275
2411.57809	19978.775
2414.37216	19955.775
2417.16446	19937.875
2419.955	19923.275
2422.74378	19942.675
2425.5308	19882.775
2428.31606	19881.975
2431.09956	19848.975
2433.88131	19869.075
2436.6613	19854.475
2439.43954	19840.775
2442.21603	19787.875
2444.99077	19794.075
2447.76377	19789.375
2450.53501	19807.575
2453.30451	19761.875
2456.07226	19751.275
2458.83827	19693.675
2461.60254	19704.675
2464.36507	19704.675
2467.12586	19686.975
2469.88492	19673.575
2472.64224	19670.175
2475.39782	19635.175
2478.15167	19624.375
2480.90379	19613.275
2483.65417	19635.475
2486.40283	19591.875
2489.14976	19626.475
2491.89497	19596.675
2494.63845	19604.275
2497.3802	19572.275
2500.12024	19592.975
2502.85855	19563.075
2505.59514	19584.975
2508.33002	19579.775
2511.06318	19538.075
2513.79462	19514.575
2516.52435	19472.075
2519.25237	19454.675
2521.97867	19444.175
2524.70327	19447.275
2527.42616	19387.875
2530.14734	19385.275
2532.86681	19363.775
2535.58458	19341.975
2538.30065	19323.775
2541.01501	19322.175
2543.72768	19273.175
2546.43864	19287.375
2549.14791	19245.675
2551.85548	19209.175
2554.56136	19198.975
2557.26554	19182.975
2559.96803	19169.275
2562.66883	19114.275
2565.36794	19124.575
2568.06536	19097.775
2570.7611	19051.975
2573.45514	19045.475
2576.14751	19020.175
2578.83819	18964.675
2581.52719	18944.375
2584.21451	18932.375
2586.90015	18920.675
2589.58411	18875.275
2592.2664	18885.575
2594.94701	18824.575
2597.62594	18824.675
2600.30321	18759.475
2602.9788	18742.875
2605.65273	18726.275
2608.32498	18709.875
2610.99557	18678.975
2613.66449	18670.275
2616.33175	18675.675
2618.99734	18662.175
2621.66128	18627.675
2624.32355	18608.275
2626.98416	18603.775
2629.64311	18579.575
2632.30041	18553.075
2634.95605	18555.375
2637.61004	18540.375
2640.26238	18502.775
2642.91306	18485.675
2645.56209	18476.275
2648.20948	18457.975
2650.85521	18472.275
2653.4993	18486.475
2656.14175	18456.175
2658.78255	18472.175
2661.42171	18458.175
2664.05923	18494.275
2666.6951	18493.475
2669.32934	18477.275
2671.96194	18449.175
2674.59291	18483.475
2677.22224	18483.375
2679.84993	18476.275
2682.476	18465.575
2685.10043	18475.875
2687.72324	18458.175
2690.34441	18474.875
2692.96396	18449.875
2695.58188	18492.475
2698.19818	18450.975
2700.81285	18470.575
2703.4259	18465.275
2706.03733	18487.275
2708.64714	18459.475
2711.25533	18446.475
2713.86191	18488.375
2716.46687	18490.375
2719.07021	18495.675
2721.67194	18475.175
2724.27206	18424.975
2726.87057	18461.575
2729.46747	18447.775
2732.06276	18483.975
2734.65644	18430.775
2737.24852	18435.675
2739.83899	18409.275
2742.42786	18393.275
2745.01513	18383.775
2747.60079	18394.575
2750.18486	18386.775
2752.76733	18371.575
2755.3482	18358.575
2757.92747	18359.575
2760.50515	18313.175
2763.08123	18316.075
2765.65573	18264.975
2768.22863	18251.275
2770.79994	18224.675
2773.36967	18239.275
2775.9378	18221.075
2778.50435	18190.075
2781.06932	18139.075
2783.6327	18166.575
2786.1945	18154.475
2788.75471	18115.475
2791.31335	18070.575
2793.87041	18037.975
2796.42589	17968.575
2798.97979	17978.975
2801.53212	17908.075
2804.08288	17922.975
2806.63206	17881.575
2809.17967	17820.575
2811.72571	17806.475
2814.27018	17799.575
2816.81308	17760.475
2819.35442	17744.875
2821.89419	17702.575
2824.43239	17656.675
2826.96904	17690.075
2829.50412	17647.975
2832.03763	17610.375
2834.56959	17598.475
2837.1	17577.675
2839.62884	17607.575
2842.15613	17517.275
2844.68186	17580.275
2847.20604	17523.075
2849.72867	17550.675
2852.24974	17496.475
2854.76927	17503.675
2857.28724	17457.375
2859.80367	17458.775
2862.31855	17381.275
2864.83189	17427.375
2867.34368	17365.175
2869.85393	17394.875
2872.36264	17383.675
2874.8698	17357.475
2877.37543	17356.275
2879.87952	17349.675
2882.38207	17332.675
2884.88308	17317.975
2887.38256	17305.175
2889.88051	17330.475
2892.37692	17308.575
2894.8718	17301.475
2897.36515	17314.475
2899.85698	17294.975
2902.34727	17388.475
2904.83604	17357.675
2907.32328	17347.175
2909.809	17305.175
2912.29319	17382.675
2914.77587	17349.675
2917.25702	17356.775
2919.73665	17333.075
2922.21476	17314.475
2924.69136	17287.175
2927.16644	17312.775
2929.64	17279.575
2932.11205	17263.275
2934.58258	17186.475
2937.05161	17232.575
2939.51912	17248.975
2941.98513	17213.875
2944.44962	17195.275
2946.91261	17145.175
2949.37409	17161.375
2951.83407	17171.175
2954.29254	17117.075
2956.74951	17142.175
2959.20498	17110.175
2961.65895	17093.175
2964.11142	17090.075
2966.56239	17034.675
2969.01186	17033.575
2971.45984	16981.475
2973.90632	16999.675
2976.35131	16918.175
2978.7948	16895.875
2981.23681	16884.475
2983.67732	16871.575
2986.11635	16835.775
2988.55388	16748.975
2990.98993	16750.975
2993.4245	16741.975
2995.85758	16723.675
2998.28917	16629.175
3000.71928	16647.375
3003.14791	16563.375
3005.57506	16575.775
3008.00073	16487.575
3010.42493	16520.575
3012.84764	16504.775
3015.26888	16485.675
3017.68865	16445.375
3020.10694	16448.475
3022.52376	16419.375
3024.9391	16354.775
3027.35298	16334.275
3029.76539	16273.875
3032.17632	16283.375
3034.5858	16248.875
3036.9938	16247.175
3039.40034	16205.875
3041.80542	16184.075
3044.20903	16166.575
3046.61118	16175.975
3049.01187	16127.175
3051.4111	16121.275
3053.80888	16079.275
3056.20519	16074.275
3058.60005	16017.675
3060.99345	16000.675
3063.3854	15998.075
3065.7759	15939.775
3068.16494	15908.875
3070.55254	15870.875
3072.93868	15850.275
3075.32338	15812.275
3077.70662	15773.575
3080.08842	15759.675
3082.46878	15756.375
3084.84769	15717.075
3087.22515	15696.375
3089.60118	15701.775
3091.97576	15661.475
3094.3489	15676.275
3096.72061	15673.575
3099.09087	15659.175
3101.4597	15632.575
3103.82709	15607.575
3106.19305	15571.775
3108.55757	15581.275
3110.92066	15518.575
3113.28232	15516.075
3115.64255	15459.375
3118.00134	15441.075
3120.35871	15414.175
3122.71466	15390.475
3125.06917	15353.475
3127.42226	15304.775
