Data from AgNPs_FTO_APTES_UA_1uM_R6G_10uM_NaF_0.1M_Addition_RamanShift__7__11-12-07-160.txt Node

Date: Fri Dec 17 11:12:07 GMT 2021
User: TCL
Spectrometer: QEP01345
Trigger mode: 4
Integration Time (sec): 7.000000E0
Scans to average: 10
Electric dark correction enabled: true
Nonlinearity correction enabled: false
Boxcar width: 0
XAxis mode: Raman Shifts
Number of Pixels in Spectrum: 1044
>>>>>Begin Spectral Data<<<<<
46.04893	-0.1
50.45542	-0.5
54.85868	-0.8
59.25871	-0.7
63.6555	103.1
68.04907	103
72.43941	109.4
76.82654	117.8
81.21044	121.8
85.59113	126.5
89.96862	132.6
94.34289	137.5
98.71396	140.2
103.08183	144.9
107.4465	150.5
111.80798	151.9
116.16626	155.5
120.52136	156
124.87327	165.3
129.222	170.4
133.56755	179.3
137.90993	192.1
142.24913	207.7
146.58517	227.8
150.91804	265.5
155.24774	307.7
159.57429	381.2
163.89768	473.5
168.21792	624
172.53501	835.7
176.84895	1163.1
181.15975	1602.5
185.46741	2237.4
189.77193	3079.3
194.07331	4114.5
198.37157	5327.1
202.6667	6562
206.9587	7801.4
211.24758	9059.5
215.53334	10308.1
219.81599	11573.5
224.09553	13025.7
228.37195	14651.8
232.64527	16426.8
236.91549	18263.3
241.18261	20170.8
245.44663	21939
249.70755	23516.9
253.96539	24925.6
258.22014	26053.1
262.4718	26997.4
266.72039	27533.6
270.96589	27842.3
275.20832	27764.2
279.44768	27498.1
283.68397	27137.5
287.91719	26778
292.14735	26505.7
296.37445	26330.6
300.59849	26304.4
304.81948	26384.7
309.03742	26373.5
313.25231	26224
317.46415	25937.9
321.67296	25520.4
325.87872	25157.5
330.08145	25067
334.28114	25074.1
338.47781	25272.4
342.67145	25520.7
346.86207	25905.9
351.04966	26333.6
355.23424	26831.2
359.4158	27242.5
363.59435	27627.5
367.76989	27897.9
371.94243	28037.2
376.11196	28074.2
380.27849	28128
384.44203	28324
388.60257	28451
392.76012	28796.6
396.91468	29043.8
401.06626	29500.9
405.21485	29781.2
409.36047	29729.9
413.50311	29471.6
417.64277	29353
421.77947	29383.2
425.9132	29475.1
430.04396	29618.3
434.17176	29727.3
438.2966	29844.3
442.41849	30166.6
446.53742	30685.5
450.6534	31267.3
454.76644	31660.1
458.87653	31898.7
462.98368	31832.6
467.08789	31625.1
471.18916	31322.6
475.2875	30929.9
479.38291	30650.8
483.4754	30486.1
487.56496	30356.7
491.6516	30181.5
495.73531	30026.8
499.81612	29991.9
503.89401	30201.1
507.96899	30267.3
512.04106	30312.6
516.11023	30225
520.1765	30020.8
524.23987	29863.4
528.30034	29667.2
532.35792	29433.2
536.41261	29249.3
540.46441	29011.6
544.51333	28958.9
548.55936	29127.9
552.60252	29410
556.64279	29850.7
560.6802	30158.6
564.71473	30425.2
568.7464	30682.9
572.7752	31193.3
576.80114	31700.9
580.82422	32349.6
584.84444	33265.3
588.86181	34366.2
592.87633	35161
596.888	35077.3
600.89682	34345.1
604.9028	34748.2
608.90594	36901.2
612.90624	39231.4
616.90371	37373.9
620.89834	32750.4
624.89015	30546.7
628.87913	30192.9
632.86528	30282.6
636.84862	30254.9
640.82913	29876.1
644.80683	29365.1
648.78172	29039.8
652.75379	29012.6
656.72306	29364.4
660.68952	29751.9
664.65319	29595.4
668.61405	29281.3
672.57211	29338.6
676.52738	29507.1
680.47986	29462.4
684.42955	29281.8
688.37646	29192.4
692.32058	29318.9
696.26192	29734.2
700.20048	30149.1
704.13626	30298.8
708.06928	30267.9
711.99952	30078
715.927	30016.6
719.85171	30111
723.77365	30096.4
727.69284	29759.6
731.60928	29406.3
735.52295	29258.2
739.43388	29225.6
743.34206	29337.3
747.24749	29488.8
751.15017	29660.5
755.05012	29959.4
758.94733	30596.3
762.8418	31555.9
766.73354	33106.4
770.62254	34562.6
774.50882	34959.4
778.39237	33985.7
782.27321	32507.1
786.15132	31206.8
790.02671	30322.1
793.89938	29837.5
797.76935	29677.2
801.6366	29579.7
805.50115	29507
809.36299	29423.2
813.22213	29220.6
817.07857	29097.1
820.93231	28987.3
824.78336	28890.6
828.63172	28820.9
832.47738	28820
836.32036	28824.2
840.16066	28900.9
843.99827	28905.1
847.8332	28914.2
851.66546	28881
855.49504	28845.8
859.32195	28889
863.1462	28947.4
866.96777	28897.3
870.78668	28944.7
874.60293	29049.7
878.41652	29077.4
882.22745	29213.2
886.03573	29338.5
889.84136	29398.3
893.64433	29380.9
897.44466	29261.4
901.24235	29243.5
905.0374	29260.5
908.8298	29226.4
912.61957	29269.5
916.40671	29378.7
920.19121	29655.9
923.97308	29928.8
927.75233	30032.1
931.52895	29974.1
935.30295	29686.6
939.07433	29244.8
942.84309	28913.9
946.60924	28739.5
950.37278	28695
954.13371	28597.2
957.89203	28518.8
961.64774	28492.6
965.40086	28435.5
969.15137	28430.4
972.89929	28366.2
976.64461	28391.8
980.38733	28345.7
984.12747	28416.9
987.86502	28490.9
991.59999	28673.2
995.33237	28857.1
999.06217	29246.1
1002.78939	29789.5
1006.51404	30298.9
1010.23611	30840
1013.95561	31047.2
1017.67255	31016.7
1021.38692	30767.6
1025.09872	30453.6
1028.80796	30179.2
1032.51465	30274.2
1036.21877	30502
1039.92035	30566.9
1043.61937	30596.6
1047.31584	30465.6
1051.00976	30329.3
1054.70114	30317
1058.38998	30408.8
1062.07627	30619.7
1065.76003	30917.6
1069.44126	31254
1073.11995	31738.9
1076.79611	32166.9
1080.46974	32428.9
1084.14085	32529.5
1087.80943	32734.4
1091.47549	32850.5
1095.13903	32828.3
1098.80005	32467.6
1102.45857	31917
1106.11456	31414.2
1109.76805	31108.5
1113.41903	30951.6
1117.06751	30952.7
1120.71348	31089.3
1124.35696	31299.1
1127.99793	31490.1
1131.63641	31690.9
1135.2724	31544.5
1138.90589	31466.5
1142.5369	31483.2
1146.16542	31460.1
1149.79145	31532.4
1153.415	31653.6
1157.03607	31863.2
1160.65467	32375.9
1164.27079	33365.3
1167.88443	34654.3
1171.49561	35998.8
1175.10432	37705.4
1178.71056	39934
1182.31434	42167.9
1185.91565	43515.8
1189.51451	43880
1193.11091	43297.2
1196.70485	42164
1200.29634	40719.9
1203.88538	39644.1
1207.47197	38907.7
1211.05612	38317.5
1214.63782	37746.3
1218.21708	37012.7
1221.79391	36297.4
1225.36829	35866.4
1228.94024	35513.2
1232.50976	35283.8
1236.07685	35065.7
1239.6415	34896.2
1243.20374	34940.2
1246.76355	35186.8
1250.32093	35504.2
1253.8759	36102.8
1257.42845	36889.4
1260.97859	37885.5
1264.52631	38911
1268.07163	39886.7
1271.61453	40842.5
1275.15503	41648
1278.69312	42330.4
1282.22882	43002.8
1285.76211	43604.9
1289.29301	44505.7
1292.82151	45599.9
1296.34761	47007.1
1299.87133	48678.6
1303.39266	50660.1
1306.9116	52680
1310.42815	54348.6
1313.94233	55320.8
1317.45412	55285.7
1320.96354	54641.3
1324.47058	54052.9
1327.97525	53820.7
1331.47754	53809.4
1334.97747	53722.7
1338.47502	53542.3
1341.97022	53119.1
1345.46305	52593
1348.95352	52152.9
1352.44163	52008.5
1355.92738	52529.4
1359.41078	53860.1
1362.89183	55253.7
1366.37053	54735.4
1369.84688	51664.1
1373.32088	47347.3
1376.79254	44189.1
1380.26186	42684.5
1383.72883	42437.1
1387.19347	42257.6
1390.65578	41816
1394.11575	41490.8
1397.57339	41429.9
1401.0287	41741.5
1404.48168	42126.9
1407.93234	42232.3
1411.38068	42071
1414.82669	41362.9
1418.27039	40388.5
1421.71177	39395.1
1425.15083	38693.9
1428.58758	38411.8
1432.02203	38810.2
1435.45416	39632.6
1438.88399	40425.5
1442.31151	40992.5
1445.73673	41139.7
1449.15965	41156.6
1452.58027	41087.2
1455.9986	40926.4
1459.41463	41034.8
1462.82837	41553.8
1466.23982	42148.3
1469.64898	42691.4
1473.05586	43004.6
1476.46045	43003.7
1479.86276	42914.8
1483.26279	42708.2
1486.66054	42667.6
1490.05602	42920.7
1493.44922	43305.3
1496.84016	43756.2
1500.22882	44271.3
1503.61521	45163.6
1506.99934	46163.4
1510.38121	46915.5
1513.76081	47011.4
1517.13816	46215.7
1520.51324	44844
1523.88607	43673.9
1527.25665	42927.4
1530.62498	42644.1
1533.99105	42426.5
1537.35488	41966
1540.71647	41291
1544.07581	40617.4
1547.4329	40003.4
1550.78776	39553.7
1554.14038	39200.4
1557.49077	39078.4
1560.83892	38959.1
1564.18484	39046.3
1567.52853	39069.1
1570.86999	39305
1574.20922	39828.7
1577.54624	40334.2
1580.88103	40672.2
1584.2136	40960.1
1587.54395	41814
1590.87208	43271.8
1594.19801	45153.6
1597.52172	46912.4
1600.84321	47281.4
1604.16251	45550.3
1607.47959	42845.5
1610.79447	39956.5
1614.10715	37300
1617.41763	35124
1620.7259	33711.7
1624.03199	32993.9
1627.33587	33101.8
1630.63757	33914.4
1633.93707	35488.7
1637.23439	38129.4
1640.52951	41900.3
1643.82246	46197.1
1647.11321	49232.3
1650.40179	49268
1653.68819	46010.2
1656.97241	40990.3
1660.25446	36333.9
1663.53433	32982.1
1666.81203	30881.3
1670.08756	29585.4
1673.36092	28792.1
1676.63211	28223.9
1679.90115	27810
1683.16801	27532.8
1686.43272	27272
1689.69527	27168.4
1692.95567	26980.7
1696.2139	26924.2
1699.46999	26841
1702.72392	26815.4
1705.97571	26768.2
1709.22535	26702.2
1712.47284	26755.7
1715.71819	26753.6
1718.96139	26687.1
1722.20246	26606.3
1725.44139	26493.1
1728.67818	26397.6
1731.91284	26286.2
1735.14537	26187.7
1738.37576	26092.5
1741.60403	26026.9
1744.83017	25969.8
1748.05418	25874.9
1751.27607	25855.9
1754.49584	25822.1
1757.71349	25831.1
1760.92903	25743.6
1764.14244	25774.5
1767.35375	25769.9
1770.56294	25715.4
1773.77002	25663
1776.97499	25635.3
1780.17785	25596.1
1783.37861	25644.1
1786.57727	25592.9
1789.77382	25536.4
1792.96828	25502.1
1796.16064	25471.5
1799.3509	25427.8
1802.53907	25396.8
1805.72514	25323.5
1808.90913	25280
1812.09102	25260
1815.27083	25185.9
1818.44856	25176.9
1821.6242	25173
1824.79776	25155.1
1827.96924	25162.7
1831.13864	25185.1
1834.30597	25167.6
1837.47122	25178.1
1840.6344	25222.9
1843.7955	25254.5
1846.95454	25254.9
1850.11151	25203
1853.26642	25228.6
1856.41926	25165.8
1859.57004	25137.5
1862.71876	25151.6
1865.86542	25101.4
1869.01003	25072.2
1872.15258	25046.4
1875.29308	25036.4
1878.43152	24980.6
1881.56792	24987.9
1884.70227	24932.3
1887.83457	24907.1
1890.96482	24888.7
1894.09304	24826.7
1897.21921	24796.3
1900.34335	24773.9
1903.46544	24715
1906.58551	24737.9
1909.70353	24657.8
1912.81953	24632
1915.93349	24561.4
1919.04543	24486.4
1922.15534	24440.8
1925.26322	24395.5
1928.36908	24330.3
1931.47292	24316.7
1934.57473	24251.1
1937.67453	24205.9
1940.77232	24137.8
1943.86808	24129.4
1946.96184	24089.5
1950.05358	23964.9
1953.14331	23898.9
1956.23103	23838.9
1959.31675	23797.3
1962.40046	23703
1965.48217	23662.6
1968.56188	23617.2
1971.63959	23552.9
1974.7153	23480.1
1977.78901	23410.9
1980.86073	23326.3
1983.93046	23234.1
1986.99819	23181.4
1990.06394	23113
1993.1277	23083.9
1996.18947	23042.8
1999.24925	22972.1
2002.30706	22872.8
2005.36288	22823.5
2008.41672	22786.2
2011.46859	22715
2014.51848	22661.9
2017.56639	22610.5
2020.61233	22560.2
2023.6563	22521.2
2026.6983	22504.8
2029.73833	22430.1
2032.7764	22404
2035.8125	22364
2038.84664	22319.9
2041.87881	22323.2
2044.90903	22273.4
2047.93729	22207.9
2050.96359	22191.1
2053.98794	22176.4
2057.01034	22148.6
2060.03078	22154.1
2063.04927	22107
2066.06582	22073
2069.08042	22104.2
2072.09307	22085
2075.10378	22047.3
2078.11255	22045.8
2081.11938	22028
2084.12426	22044.7
2087.12722	22031.4
2090.12824	22049.7
2093.12732	22031.6
2096.12447	22068
2099.11969	22077.1
2102.11299	22085.2
2105.10435	22085.9
2108.09379	22100.7
2111.08131	22113.8
2114.0669	22118.8
2117.05057	22156.3
2120.03233	22144.3
2123.01216	22172
2125.99008	22195.1
2128.96609	22204.5
2131.94018	22245.9
2134.91236	22239.9
2137.88263	22264.9
2140.851	22245.8
2143.81746	22306.2
2146.78201	22303.8
2149.74466	22304.2
2152.7054	22288.9
2155.66425	22266
2158.6212	22312.8
2161.57625	22296.2
2164.52941	22286.6
2167.48067	22305.5
2170.43004	22306.6
2173.37752	22273.2
2176.32311	22270
2179.26681	22275.6
2182.20863	22250.4
2185.14856	22309.5
2188.08661	22270.4
2191.02278	22262.7
2193.95707	22266.9
2196.88948	22275.9
2199.82001	22257.9
2202.74867	22230.4
2205.67545	22212.4
2208.60037	22217.9
2211.52341	22137.2
2214.44458	22110.1
2217.36388	22091.6
2220.28132	22069.2
2223.1969	21996.6
2226.11061	21976.5
2229.02246	21948.8
2231.93245	21910.3
2234.84058	21883.6
2237.74686	21851.8
2240.65128	21859.3
2243.55385	21829.9
2246.45456	21826.2
2249.35343	21774.6
2252.25044	21732.7
2255.14561	21678
2258.03893	21671.7
2260.93041	21605.8
2263.82004	21572.4
2266.70783	21556.2
2269.59378	21504
2272.4779	21474.4
2275.36017	21416.5
2278.24061	21403.4
2281.11922	21361.4
2283.996	21375.3
2286.87094	21308.9
2289.74405	21266.5
2292.61534	21263.3
2295.4848	21226.1
2298.35243	21193.9
2301.21824	21169.8
2304.08223	21234
2306.94439	21218.6
2309.80474	21194.1
2312.66327	21160.4
2315.51999	21137.3
2318.37489	21170.5
2321.22797	21109.9
2324.07925	21119.9
2326.92871	21088.1
2329.77637	21050.5
2332.62222	21037.3
2335.46626	21002.1
2338.3085	20937.4
2341.14893	20985
2343.98756	20961.8
2346.8244	20931.2
2349.65943	20921.4
2352.49267	20906.3
2355.32411	20938
2358.15376	20877.6
2360.98161	20858.8
2363.80768	20835.4
2366.63195	20833.7
2369.45444	20832.4
2372.27514	20765.2
2375.09405	20785.4
2377.91118	20750
2380.72652	20724
2383.54009	20681.4
2386.35187	20684.2
2389.16188	20592.6
2391.97011	20586.9
2394.77657	20552.1
2397.58125	20539.5
2400.38416	20473.8
2403.18529	20438.7
2405.98466	20415.6
2408.78226	20387.8
2411.57809	20369.1
2414.37216	20380.6
2417.16446	20335.1
2419.955	20315.8
2422.74378	20310.1
2425.5308	20273.4
2428.31606	20228.1
2431.09956	20257.4
2433.88131	20235.2
2436.6613	20235.8
2439.43954	20210.1
2442.21603	20182
2444.99077	20179.1
2447.76377	20200.7
2450.53501	20196.9
2453.30451	20170.8
2456.07226	20145.2
2458.83827	20136.3
2461.60254	20134.4
2464.36507	20118.4
2467.12586	20108.9
2469.88492	20103.5
2472.64224	20110.3
2475.39782	20081.3
2478.15167	20075.1
2480.90379	20053.3
2483.65417	20066.5
2486.40283	20029.8
2489.14976	19999.3
2491.89497	19979.2
2494.63845	20014.2
2497.3802	20021.2
2500.12024	20007.4
2502.85855	19994.7
2505.59514	19959.8
2508.33002	19953.9
2511.06318	19922.6
2513.79462	19918.3
2516.52435	19922.5
2519.25237	19927.1
2521.97867	19876
2524.70327	19876
2527.42616	19849.2
2530.14734	19846.5
2532.86681	19818.6
2535.58458	19820.7
2538.30065	19775.7
2541.01501	19741.8
2543.72768	19735.6
2546.43864	19729.6
2549.14791	19690.4
2551.85548	19684.6
2554.56136	19656.1
2557.26554	19675.3
2559.96803	19625.9
2562.66883	19612.4
2565.36794	19589.9
2568.06536	19587.2
2570.7611	19535.8
2573.45514	19519
2576.14751	19479.2
2578.83819	19429.5
2581.52719	19432.6
2584.21451	19405.6
2586.90015	19435.5
2589.58411	19385.5
2592.2664	19332.4
2594.94701	19290.8
2597.62594	19300.8
2600.30321	19288.3
2602.9788	19258.8
2605.65273	19196.1
2608.32498	19259.4
2610.99557	19213
2613.66449	19205.2
2616.33175	19140.3
2618.99734	19161
2621.66128	19125.3
2624.32355	19113
2626.98416	19086.1
2629.64311	19082.5
2632.30041	19051.5
2634.95605	19032.6
2637.61004	19024.2
2640.26238	18995.9
2642.91306	18985.1
2645.56209	18975.2
2648.20948	18948.5
2650.85521	18936.7
2653.4993	18959.5
2656.14175	18932.5
2658.78255	18963.7
2661.42171	18944.3
2664.05923	19004.6
2666.6951	18971.8
2669.32934	18998.7
2671.96194	18981.9
2674.59291	19021.9
2677.22224	18978.7
2679.84993	19033.1
2682.476	18964.1
2685.10043	18959
2687.72324	18943.7
2690.34441	18985.2
2692.96396	18950.5
2695.58188	18951.8
2698.19818	18982.8
2700.81285	18976
2703.4259	18942.2
2706.03733	18915.6
2708.64714	18954.7
2711.25533	18975.3
2713.86191	18975.8
2716.46687	18982
2719.07021	19013.2
2721.67194	18986.2
2724.27206	18979.1
2726.87057	19000.3
2729.46747	18980.5
2732.06276	19007.8
2734.65644	18954.1
2737.24852	18992.8
2739.83899	18996.3
2742.42786	18967.9
2745.01513	18948.6
2747.60079	18971.5
2750.18486	18927.3
2752.76733	18940.6
2755.3482	18884.4
2757.92747	18901.3
2760.50515	18901.5
2763.08123	18904.4
2765.65573	18899.9
2768.22863	18857
2770.79994	18835.3
2773.36967	18870.4
2775.9378	18811.9
2778.50435	18805.6
2781.06932	18751
2783.6327	18721.6
2786.1945	18710.1
2788.75471	18717.5
2791.31335	18671.3
2793.87041	18675.2
2796.42589	18624
2798.97979	18573.4
2801.53212	18541.2
2804.08288	18486.3
2806.63206	18478.1
2809.17967	18446.4
2811.72571	18418.7
2814.27018	18412.8
2816.81308	18389.6
2819.35442	18354.1
2821.89419	18301.6
2824.43239	18275.8
2826.96904	18251.6
2829.50412	18254.7
2832.03763	18214.9
2834.56959	18188.7
2837.1	18181.4
2839.62884	18196.1
2842.15613	18207.3
2844.68186	18225.8
2847.20604	18189.1
2849.72867	18196.4
2852.24974	18187.8
2854.76927	18182.8
2857.28724	18194.3
2859.80367	18143.1
2862.31855	18149.1
2864.83189	18131.5
2867.34368	18118.9
2869.85393	18113.6
2872.36264	18119.7
2874.8698	18156.2
2877.37543	18131.1
2879.87952	18143.2
2882.38207	18176.1
2884.88308	18178.1
2887.38256	18180.9
2889.88051	18194.8
2892.37692	18227.2
2894.8718	18237.3
2897.36515	18262.9
2899.85698	18195.4
2902.34727	18246
2904.83604	18234.2
2907.32328	18300.2
2909.809	18267.2
2912.29319	18263.1
2914.77587	18276.7
2917.25702	18237.1
2919.73665	18226.1
2922.21476	18202.5
2924.69136	18224.6
2927.16644	18238.6
2929.64	18241.3
2932.11205	18188
2934.58258	18157.3
2937.05161	18179.9
2939.51912	18147.9
2941.98513	18129.3
2944.44962	18060.5
2946.91261	17995.8
2949.37409	17975.4
2951.83407	17968
2954.29254	17937
2956.74951	17917.2
2959.20498	17879.4
2961.65895	17836.3
2964.11142	17865.8
2966.56239	17786.2
2969.01186	17793.3
2971.45984	17732.1
2973.90632	17747.9
2976.35131	17672.1
2978.7948	17647
2981.23681	17636.4
2983.67732	17570.8
2986.11635	17518.2
2988.55388	17493.5
2990.98993	17420.8
2993.4245	17416.9
2995.85758	17351.5
2998.28917	17330.6
3000.71928	17297.3
3003.14791	17231.1
3005.57506	17244.3
3008.00073	17187.9
3010.42493	17182.9
3012.84764	17152.7
3015.26888	17154.9
3017.68865	17057.6
3020.10694	17074.9
3022.52376	17028.9
3024.9391	17033.5
3027.35298	16980.6
3029.76539	16965.2
3032.17632	16953.1
3034.5858	16924.1
3036.9938	16886.8
3039.40034	16891.1
3041.80542	16895.3
3044.20903	16812.4
3046.61118	16833.1
3049.01187	16733.8
3051.4111	16744
3053.80888	16678.7
3056.20519	16697.8
3058.60005	16648.2
3060.99345	16619.9
3063.3854	16568.3
3065.7759	16528.4
3068.16494	16519.1
3070.55254	16483
3072.93868	16462.9
3075.32338	16431.9
3077.70662	16417.3
3080.08842	16375.6
3082.46878	16358.3
3084.84769	16342.7
3087.22515	16336.3
3089.60118	16300.2
3091.97576	16298.7
3094.3489	16312.7
3096.72061	16298.4
3099.09087	16279.6
3101.4597	16251.3
3103.82709	16257.6
3106.19305	16237.5
3108.55757	16224.2
3110.92066	16140.4
3113.28232	16131.6
3115.64255	16093.5
3118.00134	16057.3
3120.35871	16071.2
3122.71466	16014.4
3125.06917	15982.4
3127.42226	15940.2
3129.77393	15980.4
3132.12417	15966.2
3134.47299	15978.4
3136.82039	15966.5
3139.16636	15943.9
3141.51092	15913.6
3143.85406	15935.1
3146.19579	15948.7
3148.53609	15928.1
3150.87499	15950.5
3153.21246	15967.8
3155.54853	16001.1
3157.88318	15957
3160.21642	15979.1
3162.54826	15939
3164.87868	15905
3167.2077	15888.7
3169.5353	15882.8
3171.86151	15880.9
3174.18631	15863
3176.5097	15866.9
3178.83169	15811.6
3181.15228	15799.2
3183.47147	15789.4
3185.78926	15803.5
3188.10565	15770
3190.42065	15781.6
3192.73424	15774.8
3195.04645	15720.7
3197.35725	15768.8
3199.66667	15741
3201.97469	15768.3
3204.28132	15751.7
3206.58656	15771.5
3208.8904	15760.5
3211.19287	15731.5
3213.49394	15735.5
3215.79363	15721
3218.09193	15697.7
3220.38884	15687.7
3222.68438	15714.2
3224.97853	15675.5
3227.2713	15647.5
3229.56269	15636.4
3231.8527	15684
3234.14133	15618.7
3236.42858	15606.6
3238.71446	15583.6
3240.99896	15556.1
3243.28209	15558
3245.56384	15544.7
3247.84423	15589.7
3250.12324	15553.4
3252.40088	15517.3
3254.67715	15505
3256.95205	15482.6
3259.22558	15447.4
3261.49775	15433.3
3263.76855	15378.2
3266.03799	15369
3268.30606	15360
3270.57277	15328.8
3272.83812	15337.7
3275.10211	15290.4
3277.36474	15281.7
3279.62601	15291.1
3281.88593	15256.5
3284.14448	15261.9
3286.40168	15243.2
3288.65753	15245.3
3290.91202	15205.3
3293.16516	15152.5
3295.41695	15131.9
3297.66738	15034.9
3299.91647	14964.2
3302.16421	14871.5
3304.4106	14828.8
3306.65564	14722.4
3308.89933	14652.1
3311.14169	14574.7
3313.38269	14434.9
3315.62236	14369.2
3317.86068	14230
3320.09766	14082.1
3322.3333	13975.9
3324.5676	13961.6
3326.80056	13739.5
3329.03219	13674.5
3331.26248	3.8
3333.49143	0.3
3335.71905	-0.4
