Data from AgNPs_FTO_APTES_UA_0uM_R6G_10uM_NaF_0.1M_Addition_RamanShift__4__09-59-47-078.txt Node

Date: Fri Dec 17 09:59:47 GMT 2021
User: TCL
Spectrometer: QEP01345
Trigger mode: 4
Integration Time (sec): 7.000000E0
Scans to average: 10
Electric dark correction enabled: true
Nonlinearity correction enabled: false
Boxcar width: 0
XAxis mode: Raman Shifts
Number of Pixels in Spectrum: 1044
>>>>>Begin Spectral Data<<<<<
46.04893	-0.925
50.45542	-0.225
54.85868	-1.125
59.25871	1.875
63.6555	31.475
68.04907	31.575
72.43941	31.575
76.82654	38.475
81.21044	37.575
85.59113	39.775
89.96862	43.275
94.34289	45.975
98.71396	47.475
103.08183	45.175
107.4465	48.875
111.80798	49.575
116.16626	48.575
120.52136	43.875
124.87327	51.375
129.222	52.575
133.56755	50.575
137.90993	54.675
142.24913	52.575
146.58517	59.475
150.91804	65.475
155.24774	71.875
159.57429	85.375
163.89768	102.475
168.21792	127.275
172.53501	163.175
176.84895	212.575
181.15975	283.475
185.46741	390.875
189.77193	545.275
194.07331	733.375
198.37157	968.575
202.6667	1218.575
206.9587	1484.675
211.24758	1746.175
215.53334	2015.275
219.81599	2304.475
224.09553	2593.475
228.37195	2943.675
232.64527	3315.475
236.91549	3725.475
241.18261	4137.775
245.44663	4517.675
249.70755	4889.475
253.96539	5161.375
258.22014	5365.275
262.4718	5459.175
266.72039	5449.175
270.96589	5364.475
275.20832	5185.575
279.44768	4960.575
283.68397	4734.375
287.91719	4476.675
292.14735	4259.775
296.37445	4041.175
300.59849	3877.375
304.81948	3739.375
309.03742	3633.475
313.25231	3537.875
317.46415	3471.375
321.67296	3396.975
325.87872	3341.075
330.08145	3308.175
334.28114	3274.475
338.47781	3244.075
342.67145	3240.975
346.86207	3203.175
351.04966	3190.475
355.23424	3150.475
359.4158	3120.275
363.59435	3077.675
367.76989	3024.875
371.94243	2991.575
376.11196	2924.275
380.27849	2884.975
384.44203	2844.675
388.60257	2821.875
392.76012	2796.375
396.91468	2774.575
401.06626	2785.175
405.21485	2783.875
409.36047	2773.475
413.50311	2773.475
417.64277	2762.175
421.77947	2760.075
425.9132	2767.675
430.04396	2790.775
434.17176	2806.575
438.2966	2842.075
442.41849	2863.975
446.53742	2874.275
450.6534	2882.975
454.76644	2901.875
458.87653	2891.875
462.98368	2886.975
467.08789	2864.075
471.18916	2850.775
475.2875	2822.375
479.38291	2803.175
483.4754	2781.075
487.56496	2768.775
491.6516	2754.175
495.73531	2738.875
499.81612	2725.475
503.89401	2711.675
507.96899	2710.375
512.04106	2721.975
516.11023	2737.475
520.1765	2749.275
524.23987	2795.075
528.30034	2852.275
532.35792	2905.075
536.41261	2960.975
540.46441	3002.775
544.51333	3045.175
548.55936	3099.575
552.60252	3148.575
556.64279	3200.275
560.6802	3252.475
564.71473	3278.575
568.7464	3295.875
572.7752	3270.475
576.80114	3228.175
580.82422	3169.875
584.84444	3126.975
588.86181	3071.075
592.87633	3053.375
596.888	3074.875
600.89682	3136.175
604.9028	3284.275
608.90594	3509.275
612.90624	3796.875
616.90371	3948.775
620.89834	3962.575
624.89015	3915.375
628.87913	3749.375
632.86528	3468.275
636.84862	3168.375
640.82913	2936.475
644.80683	2807.875
648.78172	2740.475
652.75379	2714.775
656.72306	2713.175
660.68952	2725.375
664.65319	2736.575
668.61405	2770.375
672.57211	2801.075
676.52738	2856.575
680.47986	2901.175
684.42955	2957.575
688.37646	2962.875
692.32058	2962.675
696.26192	2962.975
700.20048	2955.875
704.13626	2933.075
708.06928	2924.675
711.99952	2916.175
715.927	2903.475
719.85171	2890.075
723.77365	2881.875
727.69284	2866.275
731.60928	2862.475
735.52295	2877.675
739.43388	2869.875
743.34206	2854.375
747.24749	2857.175
751.15017	2850.375
755.05012	2857.375
758.94733	2879.975
762.8418	2905.175
766.73354	2963.975
770.62254	3025.375
774.50882	3066.875
778.39237	3045.875
782.27321	2984.675
786.15132	2951.775
790.02671	2907.675
793.89938	2899.475
797.76935	2909.375
801.6366	2927.575
805.50115	2947.575
809.36299	2949.375
813.22213	2935.775
817.07857	2952.175
820.93231	2940.275
824.78336	2955.675
828.63172	2945.775
832.47738	2961.475
836.32036	2970.275
840.16066	2978.275
843.99827	2999.975
847.8332	3008.775
851.66546	3006.775
855.49504	3025.775
859.32195	3045.475
863.1462	3076.975
866.96777	3107.275
870.78668	3154.875
874.60293	3192.375
878.41652	3241.875
882.22745	3300.975
886.03573	3379.775
889.84136	3495.975
893.64433	3627.975
897.44466	3760.775
901.24235	3941.275
905.0374	4149.875
908.8298	4366.975
912.61957	4599.075
916.40671	4814.275
920.19121	4990.475
923.97308	5143.475
927.75233	5194.675
931.52895	5184.875
935.30295	5056.675
939.07433	4873.475
942.84309	4671.075
946.60924	4476.075
950.37278	4323.175
954.13371	4167.075
957.89203	4028.875
961.64774	3928.575
965.40086	3843.475
969.15137	3775.975
972.89929	3701.675
976.64461	3653.375
980.38733	3599.775
984.12747	3570.575
987.86502	3542.975
991.59999	3529.775
995.33237	3514.075
999.06217	3529.675
1002.78939	3534.775
1006.51404	3539.675
1010.23611	3567.875
1013.95561	3567.775
1017.67255	3577.975
1021.38692	3578.275
1025.09872	3591.575
1028.80796	3588.075
1032.51465	3628.775
1036.21877	3669.975
1039.92035	3729.275
1043.61937	3767.475
1047.31584	3816.675
1051.00976	3852.775
1054.70114	3871.475
1058.38998	3873.775
1062.07627	3830.975
1065.76003	3769.075
1069.44126	3688.975
1073.11995	3638.775
1076.79611	3565.375
1080.46974	3498.975
1084.14085	3436.375
1087.80943	3367.775
1091.47549	3310.775
1095.13903	3250.875
1098.80005	3183.175
1102.45857	3121.975
1106.11456	3087.375
1109.76805	3048.775
1113.41903	3020.775
1117.06751	3003.675
1120.71348	3006.975
1124.35696	2997.275
1127.99793	3007.475
1131.63641	3011.175
1135.2724	2986.175
1138.90589	2941.175
1142.5369	2914.575
1146.16542	2891.575
1149.79145	2856.475
1153.415	2833.175
1157.03607	2837.575
1160.65467	2830.475
1164.27079	2853.375
1167.88443	2877.575
1171.49561	2930.775
1175.10432	3020.475
1178.71056	3134.475
1182.31434	3235.375
1185.91565	3327.875
1189.51451	3370.375
1193.11091	3369.775
1196.70485	3322.975
1200.29634	3243.375
1203.88538	3158.575
1207.47197	3079.175
1211.05612	2998.475
1214.63782	2973.775
1218.21708	2966.175
1221.79391	2975.075
1225.36829	2992.575
1228.94024	3013.575
1232.50976	3035.675
1236.07685	3030.375
1239.6415	3021.675
1243.20374	3007.375
1246.76355	2987.275
1250.32093	2997.075
1253.8759	2999.675
1257.42845	3017.275
1260.97859	3065.375
1264.52631	3078.675
1268.07163	3101.375
1271.61453	3148.575
1275.15503	3187.475
1278.69312	3211.775
1282.22882	3231.975
1285.76211	3302.375
1289.29301	3354.475
1292.82151	3425.875
1296.34761	3465.475
1299.87133	3549.675
1303.39266	3568.975
1306.9116	3637.075
1310.42815	3691.375
1313.94233	3709.075
1317.45412	3681.575
1320.96354	3622.375
1324.47058	3556.375
1327.97525	3539.275
1331.47754	3508.475
1334.97747	3511.275
1338.47502	3538.875
1341.97022	3571.575
1345.46305	3618.475
1348.95352	3709.675
1352.44163	3815.875
1355.92738	3924.475
1359.41078	4062.475
1362.89183	4169.975
1366.37053	4206.375
1369.84688	4131.475
1373.32088	3983.275
1376.79254	3910.975
1380.26186	3855.075
1383.72883	3827.075
1387.19347	3806.475
1390.65578	3794.075
1394.11575	3796.275
1397.57339	3762.575
1401.0287	3740.375
1404.48168	3713.475
1407.93234	3706.775
1411.38068	3692.575
1414.82669	3651.775
1418.27039	3620.175
1421.71177	3566.175
1425.15083	3522.575
1428.58758	3475.775
1432.02203	3426.375
1435.45416	3402.675
1438.88399	3387.875
1442.31151	3357.275
1445.73673	3342.975
1449.15965	3331.975
1452.58027	3318.875
1455.9986	3293.675
1459.41463	3273.275
1462.82837	3281.875
1466.23982	3284.975
1469.64898	3281.275
1473.05586	3312.475
1476.46045	3327.175
1479.86276	3333.375
1483.26279	3346.675
1486.66054	3361.575
1490.05602	3352.775
1493.44922	3377.675
1496.84016	3415.975
1500.22882	3460.575
1503.61521	3514.175
1506.99934	3568.375
1510.38121	3625.775
1513.76081	3628.375
1517.13816	3593.075
1520.51324	3500.975
1523.88607	3409.475
1527.25665	3343.775
1530.62498	3279.275
1533.99105	3261.075
1537.35488	3233.575
1540.71647	3213.475
1544.07581	3197.275
1547.4329	3157.175
1550.78776	3147.075
1554.14038	3124.575
1557.49077	3121.775
1560.83892	3095.975
1564.18484	3093.375
1567.52853	3065.775
1570.86999	3072.875
1574.20922	3050.875
1577.54624	3037.875
1580.88103	2998.575
1584.2136	2950.875
1587.54395	2927.475
1590.87208	2901.875
1594.19801	2886.075
1597.52172	2906.875
1600.84321	2893.575
1604.16251	2877.875
1607.47959	2856.875
1610.79447	2836.975
1614.10715	2816.275
1617.41763	2777.775
1620.7259	2765.275
1624.03199	2762.175
1627.33587	2735.775
1630.63757	2726.275
1633.93707	2730.175
1637.23439	2725.175
1640.52951	2740.175
1643.82246	2762.275
1647.11321	2794.175
1650.40179	2820.275
1653.68819	2800.675
1656.97241	2687.475
1660.25446	2580.875
1663.53433	2505.475
1666.81203	2442.675
1670.08756	2402.875
1673.36092	2371.575
1676.63211	2346.875
1679.90115	2325.175
1683.16801	2286.775
1686.43272	2281.475
1689.69527	2265.975
1692.95567	2236.775
1696.2139	2222.675
1699.46999	2207.475
1702.72392	2188.975
1705.97571	2193.875
1709.22535	2187.875
1712.47284	2193.075
1715.71819	2172.075
1718.96139	2183.075
1722.20246	2172.675
1725.44139	2165.975
1728.67818	2155.775
1731.91284	2145.175
1735.14537	2121.075
1738.37576	2126.975
1741.60403	2115.775
1744.83017	2114.175
1748.05418	2118.375
1751.27607	2097.175
1754.49584	2097.975
1757.71349	2098.975
1760.92903	2101.475
1764.14244	2094.375
1767.35375	2088.475
1770.56294	2078.475
1773.77002	2082.275
1776.97499	2077.075
1780.17785	2075.575
1783.37861	2079.775
1786.57727	2082.275
1789.77382	2072.675
1792.96828	2076.975
1796.16064	2065.275
1799.3509	2054.875
1802.53907	2061.275
1805.72514	2058.675
1808.90913	2060.475
1812.09102	2043.575
1815.27083	2036.175
1818.44856	2034.175
1821.6242	2041.875
1824.79776	2040.075
1827.96924	2032.175
1831.13864	2020.675
1834.30597	2039.175
1837.47122	2032.475
1840.6344	2028.175
1843.7955	2033.075
1846.95454	2030.075
1850.11151	2023.275
1853.26642	2012.475
1856.41926	2025.275
1859.57004	2023.375
1862.71876	2016.675
1865.86542	2002.475
1869.01003	2013.575
1872.15258	2011.875
1875.29308	2010.675
1878.43152	2006.275
1881.56792	1999.675
1884.70227	1995.375
1887.83457	1994.075
1890.96482	1988.175
1894.09304	1991.075
1897.21921	1973.575
1900.34335	1989.875
1903.46544	1980.275
1906.58551	1980.175
1909.70353	1972.375
1912.81953	1972.175
1915.93349	1978.375
1919.04543	1963.275
1922.15534	1972.375
1925.26322	1969.775
1928.36908	1952.675
1931.47292	1950.875
1934.57473	1950.675
1937.67453	1963.175
1940.77232	1952.275
1943.86808	1940.575
1946.96184	1930.475
1950.05358	1937.175
1953.14331	1921.975
1956.23103	1928.875
1959.31675	1920.975
1962.40046	1913.375
1965.48217	1898.475
1968.56188	1892.175
1971.63959	1887.075
1974.7153	1892.775
1977.78901	1874.075
1980.86073	1877.175
1983.93046	1866.475
1986.99819	1868.875
1990.06394	1859.675
1993.1277	1870.075
1996.18947	1844.775
1999.24925	1848.975
2002.30706	1827.175
2005.36288	1832.675
2008.41672	1835.175
2011.46859	1840.175
2014.51848	1827.075
2017.56639	1828.375
2020.61233	1825.975
2023.6563	1825.875
2026.6983	1826.575
2029.73833	1836.275
2032.7764	1827.975
2035.8125	1830.675
2038.84664	1838.675
2041.87881	1847.675
2044.90903	1848.575
2047.93729	1858.175
2050.96359	1856.375
2053.98794	1856.875
2057.01034	1871.275
2060.03078	1880.075
2063.04927	1875.975
2066.06582	1896.175
2069.08042	1907.775
2072.09307	1897.875
2075.10378	1898.575
2078.11255	1910.475
2081.11938	1910.275
2084.12426	1908.975
2087.12722	1913.875
2090.12824	1895.675
2093.12732	1898.675
2096.12447	1903.175
2099.11969	1884.575
2102.11299	1880.875
2105.10435	1877.675
2108.09379	1859.175
2111.08131	1864.775
2114.0669	1853.275
2117.05057	1838.175
2120.03233	1838.175
2123.01216	1819.475
2125.99008	1819.775
2128.96609	1812.075
2131.94018	1807.175
2134.91236	1797.375
2137.88263	1796.075
2140.851	1793.175
2143.81746	1778.375
2146.78201	1777.375
2149.74466	1780.675
2152.7054	1776.875
2155.66425	1775.175
2158.6212	1780.175
2161.57625	1782.475
2164.52941	1772.275
2167.48067	1770.975
2170.43004	1760.075
2173.37752	1769.775
2176.32311	1756.775
2179.26681	1758.075
2182.20863	1756.175
2185.14856	1760.275
2188.08661	1764.275
2191.02278	1753.875
2193.95707	1755.975
2196.88948	1756.975
2199.82001	1758.375
2202.74867	1750.475
2205.67545	1749.175
2208.60037	1744.275
2211.52341	1742.275
2214.44458	1733.975
2217.36388	1742.475
2220.28132	1736.075
2223.1969	1730.375
2226.11061	1727.775
2229.02246	1724.475
2231.93245	1723.275
2234.84058	1714.475
2237.74686	1724.575
2240.65128	1721.775
2243.55385	1714.775
2246.45456	1711.775
2249.35343	1713.675
2252.25044	1711.075
2255.14561	1702.975
2258.03893	1704.075
2260.93041	1686.875
2263.82004	1681.875
2266.70783	1686.175
2269.59378	1683.075
2272.4779	1689.875
2275.36017	1682.775
2278.24061	1672.075
2281.11922	1663.775
2283.996	1661.775
2286.87094	1666.575
2289.74405	1660.175
2292.61534	1661.375
2295.4848	1652.875
2298.35243	1650.575
2301.21824	1645.475
2304.08223	1646.875
2306.94439	1650.875
2309.80474	1648.975
2312.66327	1646.775
2315.51999	1641.375
2318.37489	1636.075
2321.22797	1635.875
2324.07925	1629.875
2326.92871	1629.775
2329.77637	1626.375
2332.62222	1633.375
2335.46626	1628.275
2338.3085	1612.175
2341.14893	1621.775
2343.98756	1609.275
2346.8244	1617.175
2349.65943	1605.575
2352.49267	1615.275
2355.32411	1606.875
2358.15376	1606.675
2360.98161	1598.775
2363.80768	1606.175
2366.63195	1601.975
2369.45444	1608.375
2372.27514	1598.575
2375.09405	1598.175
2377.91118	1597.275
2380.72652	1589.275
2383.54009	1587.975
2386.35187	1591.175
2389.16188	1581.375
2391.97011	1585.175
2394.77657	1586.475
2397.58125	1578.975
2400.38416	1571.475
2403.18529	1573.375
2405.98466	1568.275
2408.78226	1564.175
2411.57809	1562.975
2414.37216	1560.375
2417.16446	1569.075
2419.955	1552.875
2422.74378	1562.175
2425.5308	1542.875
2428.31606	1549.875
2431.09956	1553.475
2433.88131	1548.775
2436.6613	1546.675
2439.43954	1546.675
2442.21603	1538.675
2444.99077	1530.775
2447.76377	1542.175
2450.53501	1539.575
2453.30451	1536.675
2456.07226	1531.375
2458.83827	1534.275
2461.60254	1522.275
2464.36507	1532.175
2467.12586	1519.175
2469.88492	1517.275
2472.64224	1515.475
2475.39782	1518.575
2478.15167	1510.875
2480.90379	1524.575
2483.65417	1508.875
2486.40283	1510.975
2489.14976	1501.975
2491.89497	1504.475
2494.63845	1502.775
2497.3802	1499.975
2500.12024	1506.975
2502.85855	1506.475
2505.59514	1510.575
2508.33002	1513.475
2511.06318	1501.975
2513.79462	1506.275
2516.52435	1494.975
2519.25237	1492.575
2521.97867	1494.475
2524.70327	1485.275
2527.42616	1483.875
2530.14734	1487.675
2532.86681	1477.475
2535.58458	1474.075
2538.30065	1480.675
2541.01501	1479.475
2543.72768	1467.075
2546.43864	1466.975
2549.14791	1464.375
2551.85548	1464.775
2554.56136	1459.475
2557.26554	1461.475
2559.96803	1454.875
2562.66883	1450.975
2565.36794	1449.175
2568.06536	1447.075
2570.7611	1453.175
2573.45514	1453.775
2576.14751	1438.975
2578.83819	1444.075
2581.52719	1436.175
2584.21451	1447.475
2586.90015	1430.775
2589.58411	1441.175
2592.2664	1432.375
2594.94701	1422.275
2597.62594	1430.875
2600.30321	1416.175
2602.9788	1417.175
2605.65273	1422.075
2608.32498	1414.175
2610.99557	1420.075
2613.66449	1407.175
2616.33175	1409.275
2618.99734	1406.475
2621.66128	1404.775
2624.32355	1406.575
2626.98416	1398.575
2629.64311	1406.075
2632.30041	1403.375
2634.95605	1403.075
2637.61004	1399.475
2640.26238	1406.675
2642.91306	1398.675
2645.56209	1399.975
2648.20948	1387.175
2650.85521	1388.975
2653.4993	1399.975
2656.14175	1400.175
2658.78255	1393.175
2661.42171	1390.975
2664.05923	1394.175
2666.6951	1387.375
2669.32934	1391.075
2671.96194	1393.375
2674.59291	1397.175
2677.22224	1401.875
2679.84993	1396.375
2682.476	1398.475
2685.10043	1394.175
2687.72324	1398.475
2690.34441	1403.675
2692.96396	1407.975
2695.58188	1409.375
2698.19818	1399.775
2700.81285	1400.775
2703.4259	1394.875
2706.03733	1381.375
2708.64714	1381.275
2711.25533	1395.075
2713.86191	1398.675
2716.46687	1391.875
2719.07021	1400.075
2721.67194	1402.975
2724.27206	1403.275
2726.87057	1407.075
2729.46747	1402.475
2732.06276	1410.975
2734.65644	1404.675
2737.24852	1392.875
2739.83899	1406.575
2742.42786	1397.375
2745.01513	1402.075
2747.60079	1402.375
2750.18486	1388.575
2752.76733	1408.675
2755.3482	1401.175
2757.92747	1402.975
2760.50515	1401.875
2763.08123	1395.575
2765.65573	1390.375
2768.22863	1398.775
2770.79994	1402.375
2773.36967	1400.775
2775.9378	1401.775
2778.50435	1391.075
2781.06932	1399.175
2783.6327	1392.375
2786.1945	1394.675
2788.75471	1391.275
2791.31335	1383.875
2793.87041	1392.475
2796.42589	1374.375
2798.97979	1385.775
2801.53212	1382.275
2804.08288	1381.375
2806.63206	1364.075
2809.17967	1374.075
2811.72571	1375.075
2814.27018	1371.675
2816.81308	1378.875
2819.35442	1374.475
2821.89419	1364.675
2824.43239	1374.375
2826.96904	1365.375
2829.50412	1366.575
2832.03763	1365.275
2834.56959	1366.175
2837.1	1366.775
2839.62884	1371.775
2842.15613	1374.775
2844.68186	1381.875
2847.20604	1384.275
2849.72867	1394.775
2852.24974	1396.875
2854.76927	1405.975
2857.28724	1398.375
2859.80367	1420.275
2862.31855	1428.875
2864.83189	1438.275
2867.34368	1445.675
2869.85393	1457.875
2872.36264	1477.875
2874.8698	1492.775
2877.37543	1506.775
2879.87952	1520.975
2882.38207	1531.775
2884.88308	1547.475
2887.38256	1558.475
2889.88051	1565.775
2892.37692	1581.175
2894.8718	1584.775
2897.36515	1605.475
2899.85698	1604.075
2902.34727	1614.075
2904.83604	1621.575
2907.32328	1636.275
2909.809	1632.775
2912.29319	1632.575
2914.77587	1634.775
2917.25702	1647.675
2919.73665	1643.575
2922.21476	1640.375
2924.69136	1657.775
2927.16644	1649.975
2929.64	1650.475
2932.11205	1648.975
2934.58258	1638.175
2937.05161	1634.075
2939.51912	1615.175
2941.98513	1614.475
2944.44962	1602.675
2946.91261	1583.775
2949.37409	1572.775
2951.83407	1569.975
2954.29254	1549.675
2956.74951	1529.375
2959.20498	1530.075
2961.65895	1508.575
2964.11142	1495.175
2966.56239	1488.875
2969.01186	1478.575
2971.45984	1475.275
2973.90632	1462.575
2976.35131	1450.875
2978.7948	1446.875
2981.23681	1434.875
2983.67732	1408.675
2986.11635	1413.175
2988.55388	1395.375
2990.98993	1390.975
2993.4245	1387.975
2995.85758	1377.075
2998.28917	1381.075
3000.71928	1367.275
3003.14791	1363.275
3005.57506	1366.275
3008.00073	1360.275
3010.42493	1353.975
3012.84764	1352.475
3015.26888	1349.075
3017.68865	1352.375
3020.10694	1333.675
3022.52376	1341.675
3024.9391	1343.875
3027.35298	1342.675
3029.76539	1335.175
3032.17632	1331.075
3034.5858	1326.275
3036.9938	1332.175
3039.40034	1324.775
3041.80542	1328.075
3044.20903	1333.275
3046.61118	1329.475
3049.01187	1320.475
3051.4111	1319.075
3053.80888	1318.675
3056.20519	1327.275
3058.60005	1331.875
3060.99345	1320.875
3063.3854	1331.775
3065.7759	1318.575
3068.16494	1328.675
3070.55254	1319.375
3072.93868	1331.575
3075.32338	1322.875
3077.70662	1323.575
3080.08842	1327.275
3082.46878	1333.775
3084.84769	1332.975
3087.22515	1344.575
3089.60118	1347.175
3091.97576	1351.575
3094.3489	1360.875
3096.72061	1367.775
3099.09087	1362.675
3101.4597	1363.175
3103.82709	1374.975
3106.19305	1379.275
3108.55757	1379.375
3110.92066	1371.675
3113.28232	1383.075
3115.64255	1389.575
3118.00134	1389.875
3120.35871	1398.575
3122.71466	1389.275
3125.06917	1390.275
3127.42226	1410.075
3129.77393	1403.175
3132.12417	1407.775
3134.47299	1418.375
3136.82039	1428.575
3139.16636	1426.575
3141.51092	1432.675
3143.85406	1439.575
3146.19579	1447.375
3148.53609	1438.075
3150.87499	1450.675
3153.21246	1465.475
3155.54853	1468.075
3157.88318	1481.175
3160.21642	1480.275
3162.54826	1488.075
3164.87868	1499.875
3167.2077	1500.675
3169.5353	1510.075
3171.86151	1509.175
3174.18631	1513.775
3176.5097	1513.375
3178.83169	1516.675
3181.15228	1527.275
3183.47147	1529.275
3185.78926	1529.975
3188.10565	1536.075
3190.42065	1537.275
3192.73424	1552.075
3195.04645	1555.075
3197.35725	1557.775
3199.66667	1568.475
3201.97469	1561.475
3204.28132	1570.475
3206.58656	1576.075
3208.8904	1580.375
3211.19287	1589.075
3213.49394	1585.775
3215.79363	1586.175
3218.09193	1596.575
3220.38884	1582.375
3222.68438	1582.375
3224.97853	1593.775
3227.2713	1597.875
3229.56269	1598.775
3231.8527	1601.675
3234.14133	1600.775
3236.42858	1604.675
