Data from AgNPs_FTO_APTES_UA_20uM_R6G_10uM_NaF_0.1M_Addition_RamanShift__5__14-01-17-354.txt Node

Date: Fri Dec 17 14:01:17 GMT 2021
User: TCL
Spectrometer: QEP01345
Trigger mode: 4
Integration Time (sec): 7.000000E0
Scans to average: 10
Electric dark correction enabled: true
Nonlinearity correction enabled: false
Boxcar width: 0
XAxis mode: Raman Shifts
Number of Pixels in Spectrum: 1044
>>>>>Begin Spectral Data<<<<<
46.04893	-1.0625
50.45542	-1.2625
54.85868	-0.9625
59.25871	0.2375
63.6555	81.6375
68.04907	79.7375
72.43941	82.6375
76.82654	84.9375
81.21044	89.7375
85.59113	89.7375
89.96862	98.5375
94.34289	100.1375
98.71396	104.8375
103.08183	106.1375
107.4465	109.8375
111.80798	109.8375
116.16626	115.7375
120.52136	118.6375
124.87327	124.5375
129.222	133.2375
133.56755	136.8375
137.90993	155.3375
142.24913	166.5375
146.58517	184.8375
150.91804	211.2375
155.24774	255.5375
159.57429	324.2375
163.89768	408.7375
168.21792	537.2375
172.53501	730.5375
176.84895	1028.2375
181.15975	1427.3375
185.46741	1994.1375
189.77193	2765.5375
194.07331	3708.5375
198.37157	4804.1375
202.6667	5928.5375
206.9587	7049.9375
211.24758	8162.3375
215.53334	9247.4375
219.81599	10399.3375
224.09553	11688.0375
228.37195	13096.7375
232.64527	14663.4375
236.91549	16313.4375
241.18261	17997.3375
245.44663	19574.2375
249.70755	21011.8375
253.96539	22210.1375
258.22014	23259.9375
262.4718	24113.8375
266.72039	24658.2375
270.96589	24921.7375
275.20832	24906.7375
279.44768	24704.3375
283.68397	24408.0375
287.91719	24071.6375
292.14735	23916.6375
296.37445	23802.7375
300.59849	23895.2375
304.81948	23988.6375
309.03742	23996.4375
313.25231	23903.3375
317.46415	23623.4375
321.67296	23151.0375
325.87872	22780.0375
330.08145	22589.8375
334.28114	22625.9375
338.47781	22809.6375
342.67145	23132.8375
346.86207	23476.1375
351.04966	23954.1375
355.23424	24436.2375
359.4158	24906.5375
363.59435	25231.0375
367.76989	25473.2375
371.94243	25657.8375
376.11196	25784.6375
380.27849	25921.7375
384.44203	26051.1375
388.60257	26235.6375
392.76012	26413.8375
396.91468	26662.6375
401.06626	26989.0375
405.21485	27290.6375
409.36047	27247.8375
413.50311	26928.3375
417.64277	26706.6375
421.77947	26631.2375
425.9132	26734.7375
430.04396	26810.8375
434.17176	26881.8375
438.2966	27024.8375
442.41849	27287.9375
446.53742	27769.7375
450.6534	28353.9375
454.76644	28798.5375
458.87653	28924.1375
462.98368	28884.4375
467.08789	28632.8375
471.18916	28269.6375
475.2875	27924.8375
479.38291	27573.2375
483.4754	27333.6375
487.56496	27123.3375
491.6516	26980.4375
495.73531	26986.3375
499.81612	27001.3375
503.89401	27225.7375
507.96899	27354.1375
512.04106	27387.5375
516.11023	27383.3375
520.1765	27263.5375
524.23987	27192.8375
528.30034	27044.3375
532.35792	26894.0375
536.41261	26673.5375
540.46441	26461.5375
544.51333	26359.6375
548.55936	26472.5375
552.60252	26763.3375
556.64279	27093.2375
560.6802	27436.8375
564.71473	27530.3375
568.7464	27702.7375
572.7752	28037.4375
576.80114	28417.9375
580.82422	28882.1375
584.84444	29598.4375
588.86181	30316.5375
592.87633	30713.8375
596.888	30590.5375
600.89682	30229.5375
604.9028	30831.3375
608.90594	33075.6375
612.90624	35572.4375
616.90371	34160.3375
620.89834	29782.5375
624.89015	27735.2375
628.87913	27395.9375
632.86528	27488.3375
636.84862	27550.7375
640.82913	27280.3375
644.80683	26814.8375
648.78172	26475.2375
652.75379	26444.4375
656.72306	26685.1375
660.68952	27140.0375
664.65319	27020.5375
668.61405	26674.5375
672.57211	26625.7375
676.52738	26783.3375
680.47986	26740.7375
684.42955	26565.9375
688.37646	26498.1375
692.32058	26668.8375
696.26192	27004.4375
700.20048	27230.7375
704.13626	27350.0375
708.06928	27255.3375
711.99952	27070.7375
715.927	27039.6375
719.85171	27145.2375
723.77365	27106.4375
727.69284	26842.3375
731.60928	26574.9375
735.52295	26417.7375
739.43388	26433.0375
743.34206	26510.6375
747.24749	26627.1375
751.15017	26756.0375
755.05012	26992.8375
758.94733	27470.8375
762.8418	28423.9375
766.73354	29925.7375
770.62254	31451.2375
774.50882	32123.9375
778.39237	31293.7375
782.27321	29723.5375
786.15132	28296.6375
790.02671	27404.0375
793.89938	26936.0375
797.76935	26752.3375
801.6366	26740.1375
805.50115	26642.8375
809.36299	26498.9375
813.22213	26361.1375
817.07857	26234.8375
820.93231	26136.2375
824.78336	26076.8375
828.63172	26084.9375
832.47738	26055.8375
836.32036	26112.9375
840.16066	26141.4375
843.99827	26182.8375
847.8332	26109.7375
851.66546	26095.4375
855.49504	26100.5375
859.32195	26115.8375
863.1462	26123.5375
866.96777	26053.4375
870.78668	26077.9375
874.60293	26089.0375
878.41652	26163.7375
882.22745	26225.6375
886.03573	26312.0375
889.84136	26347.9375
893.64433	26270.6375
897.44466	26146.5375
901.24235	26015.3375
905.0374	25951.2375
908.8298	25886.9375
912.61957	25933.1375
916.40671	25967.8375
920.19121	26143.5375
923.97308	26271.3375
927.75233	26452.3375
931.52895	26413.9375
935.30295	26242.2375
939.07433	25911.2375
942.84309	25718.0375
946.60924	25607.3375
950.37278	25543.5375
954.13371	25454.0375
957.89203	25428.4375
961.64774	25376.3375
965.40086	25374.6375
969.15137	25349.2375
972.89929	25322.5375
976.64461	25314.3375
980.38733	25390.0375
984.12747	25458.6375
987.86502	25598.5375
991.59999	25732.7375
995.33237	25945.6375
999.06217	26366.5375
1002.78939	26845.3375
1006.51404	27232.8375
1010.23611	27518.5375
1013.95561	27768.1375
1017.67255	27722.7375
1021.38692	27565.2375
1025.09872	27331.0375
1028.80796	27224.0375
1032.51465	27452.2375
1036.21877	27761.4375
1039.92035	27899.6375
1043.61937	27825.0375
1047.31584	27542.3375
1051.00976	27251.3375
1054.70114	27092.1375
1058.38998	27124.5375
1062.07627	27239.1375
1065.76003	27454.8375
1069.44126	27723.6375
1073.11995	28093.8375
1076.79611	28453.7375
1080.46974	28647.0375
1084.14085	28826.0375
1087.80943	28914.7375
1091.47549	29000.2375
1095.13903	28874.9375
1098.80005	28602.9375
1102.45857	28168.7375
1106.11456	27859.5375
1109.76805	27720.8375
1113.41903	27712.1375
1117.06751	27745.6375
1120.71348	27934.5375
1124.35696	28156.3375
1127.99793	28410.1375
1131.63641	28531.1375
1135.2724	28386.7375
1138.90589	28242.0375
1142.5369	28110.3375
1146.16542	28021.3375
1149.79145	27999.8375
1153.415	28023.3375
1157.03607	28108.9375
1160.65467	28499.7375
1164.27079	29206.0375
1167.88443	30245.0375
1171.49561	31415.6375
1175.10432	32908.5375
1178.71056	34827.3375
1182.31434	36855.6375
1185.91565	38000.7375
1189.51451	38176.8375
1193.11091	37558.3375
1196.70485	36419.9375
1200.29634	35173.3375
1203.88538	34257.2375
1207.47197	33485.4375
1211.05612	32872.2375
1214.63782	32280.9375
1218.21708	31755.8375
1221.79391	31386.5375
1225.36829	31083.7375
1228.94024	30889.0375
1232.50976	30636.0375
1236.07685	30439.8375
1239.6415	30327.6375
1243.20374	30377.5375
1246.76355	30531.8375
1250.32093	30879.3375
1253.8759	31378.1375
1257.42845	32036.8375
1260.97859	32703.5375
1264.52631	33478.3375
1268.07163	34243.1375
1271.61453	35024.2375
1275.15503	35700.4375
1278.69312	36258.8375
1282.22882	36645.3375
1285.76211	37026.1375
1289.29301	37531.2375
1292.82151	38337.7375
1296.34761	39389.3375
1299.87133	40864.6375
1303.39266	42709.4375
1306.9116	44758.6375
1310.42815	46643.6375
1313.94233	47608.3375
1317.45412	47349.3375
1320.96354	46315.4375
1324.47058	45364.7375
1327.97525	44513.9375
1331.47754	44040.8375
1334.97747	43800.6375
1338.47502	43763.7375
1341.97022	43784.6375
1345.46305	43763.4375
1348.95352	43912.6375
1352.44163	44384.1375
1355.92738	45305.5375
1359.41078	46910.2375
1362.89183	48346.5375
1366.37053	47592.0375
1369.84688	44256.8375
1373.32088	40212.3375
1376.79254	37397.3375
1380.26186	36047.7375
1383.72883	35566.7375
1387.19347	35292.9375
1390.65578	34745.2375
1394.11575	34395.2375
1397.57339	34309.7375
1401.0287	34524.6375
1404.48168	34795.1375
1407.93234	35026.4375
1411.38068	34986.6375
1414.82669	34594.2375
1418.27039	33963.0375
1421.71177	33246.8375
1425.15083	32620.3375
1428.58758	32436.7375
1432.02203	32731.2375
1435.45416	33312.4375
1438.88399	33911.7375
1442.31151	34236.6375
1445.73673	34355.4375
1449.15965	34383.3375
1452.58027	34325.9375
1455.9986	34218.3375
1459.41463	34365.3375
1462.82837	34780.7375
1466.23982	35389.2375
1469.64898	35926.0375
1473.05586	36240.0375
1476.46045	36403.0375
1479.86276	36345.8375
1483.26279	36242.0375
1486.66054	36310.7375
1490.05602	36591.7375
1493.44922	37019.2375
1496.84016	37547.9375
1500.22882	38349.5375
1503.61521	39718.7375
1506.99934	41222.2375
1510.38121	42322.4375
1513.76081	42405.6375
1517.13816	41101.1375
1520.51324	39299.9375
1523.88607	37618.8375
1527.25665	36589.4375
1530.62498	36219.3375
1533.99105	35979.2375
1537.35488	35704.2375
1540.71647	35286.9375
1544.07581	34897.8375
1547.4329	34498.3375
1550.78776	34124.1375
1554.14038	33896.6375
1557.49077	33706.4375
1560.83892	33595.0375
1564.18484	33657.9375
1567.52853	33787.7375
1570.86999	34079.1375
1574.20922	34416.6375
1577.54624	34667.9375
1580.88103	34581.5375
1584.2136	34440.3375
1587.54395	34689.2375
1590.87208	35684.1375
1594.19801	37227.5375
1597.52172	38934.0375
1600.84321	39575.8375
1604.16251	38711.6375
1607.47959	36824.3375
1610.79447	34677.5375
1614.10715	32613.8375
1617.41763	30793.7375
1620.7259	29549.5375
1624.03199	28872.5375
1627.33587	28788.2375
1630.63757	29268.4375
1633.93707	30348.8375
1637.23439	32271.4375
1640.52951	34997.4375
1643.82246	38173.3375
1647.11321	40752.1375
1650.40179	41148.0375
1653.68819	38975.3375
1656.97241	35198.9375
1660.25446	31447.6375
1663.53433	28744.8375
1666.81203	27090.7375
1670.08756	26074.2375
1673.36092	25373.1375
1676.63211	24897.2375
1679.90115	24634.3375
1683.16801	24351.0375
1686.43272	24159.8375
1689.69527	23995.4375
1692.95567	23935.0375
1696.2139	23883.6375
1699.46999	23835.4375
1702.72392	23744.5375
1705.97571	23703.4375
1709.22535	23681.1375
1712.47284	23660.2375
1715.71819	23653.6375
1718.96139	23581.1375
1722.20246	23537.5375
1725.44139	23452.4375
1728.67818	23394.4375
1731.91284	23265.9375
1735.14537	23175.1375
1738.37576	23109.7375
1741.60403	23028.5375
1744.83017	22962.7375
1748.05418	22931.5375
1751.27607	22949.4375
1754.49584	22853.8375
1757.71349	22851.6375
1760.92903	22817.4375
1764.14244	22841.1375
1767.35375	22829.1375
1770.56294	22838.1375
1773.77002	22776.5375
1776.97499	22770.0375
1780.17785	22699.1375
1783.37861	22670.4375
1786.57727	22667.0375
1789.77382	22604.7375
1792.96828	22596.0375
1796.16064	22522.3375
1799.3509	22509.8375
1802.53907	22513.0375
1805.72514	22404.2375
1808.90913	22385.9375
1812.09102	22346.9375
1815.27083	22310.2375
1818.44856	22250.7375
1821.6242	22244.2375
1824.79776	22259.0375
1827.96924	22234.5375
1831.13864	22211.2375
1834.30597	22220.8375
1837.47122	22222.7375
1840.6344	22172.6375
1843.7955	22230.2375
1846.95454	22193.6375
1850.11151	22183.2375
1853.26642	22145.6375
1856.41926	22110.2375
1859.57004	22095.6375
1862.71876	22109.8375
1865.86542	22079.1375
1869.01003	22059.6375
1872.15258	22026.7375
1875.29308	22011.4375
1878.43152	21971.7375
1881.56792	22007.2375
1884.70227	21982.5375
1887.83457	21943.1375
1890.96482	21916.9375
1894.09304	21878.0375
1897.21921	21859.6375
1900.34335	21850.2375
1903.46544	21846.1375
1906.58551	21796.7375
1909.70353	21780.8375
1912.81953	21731.9375
1915.93349	21716.8375
1919.04543	21661.4375
1922.15534	21662.2375
1925.26322	21559.2375
1928.36908	21573.2375
1931.47292	21527.8375
1934.57473	21478.1375
1937.67453	21417.0375
1940.77232	21398.2375
1943.86808	21346.3375
1946.96184	21286.1375
1950.05358	21213.0375
1953.14331	21154.2375
1956.23103	21107.3375
1959.31675	21033.1375
1962.40046	21010.9375
1965.48217	20960.2375
1968.56188	20905.6375
1971.63959	20841.4375
1974.7153	20812.7375
1977.78901	20748.4375
1980.86073	20664.0375
1983.93046	20606.2375
1986.99819	20550.8375
1990.06394	20504.2375
1993.1277	20453.6375
1996.18947	20353.1375
1999.24925	20320.6375
2002.30706	20271.1375
2005.36288	20238.0375
2008.41672	20196.8375
2011.46859	20158.7375
2014.51848	20049.8375
2017.56639	20004.9375
2020.61233	19976.9375
2023.6563	19921.0375
2026.6983	19888.7375
2029.73833	19858.9375
2032.7764	19818.0375
2035.8125	19753.9375
2038.84664	19745.8375
2041.87881	19723.8375
2044.90903	19687.9375
2047.93729	19662.9375
2050.96359	19594.9375
2053.98794	19586.1375
2057.01034	19578.3375
2060.03078	19558.8375
2063.04927	19570.3375
2066.06582	19559.0375
2069.08042	19545.0375
2072.09307	19532.8375
2075.10378	19513.8375
2078.11255	19478.4375
2081.11938	19473.6375
2084.12426	19480.6375
2087.12722	19466.1375
2090.12824	19460.2375
2093.12732	19461.6375
2096.12447	19494.2375
2099.11969	19483.8375
2102.11299	19498.4375
2105.10435	19484.5375
2108.09379	19519.6375
2111.08131	19547.0375
2114.0669	19526.5375
2117.05057	19578.6375
2120.03233	19556.5375
2123.01216	19580.2375
2125.99008	19603.3375
2128.96609	19623.7375
2131.94018	19680.2375
2134.91236	19669.1375
2137.88263	19685.7375
2140.851	19666.8375
2143.81746	19716.8375
2146.78201	19725.6375
2149.74466	19735.2375
2152.7054	19717.2375
2155.66425	19759.0375
2158.6212	19717.5375
2161.57625	19730.2375
2164.52941	19689.7375
2167.48067	19705.2375
2170.43004	19708.0375
2173.37752	19707.0375
2176.32311	19715.2375
2179.26681	19690.5375
2182.20863	19681.2375
2185.14856	19699.2375
2188.08661	19700.6375
2191.02278	19678.7375
2193.95707	19662.8375
2196.88948	19675.9375
2199.82001	19666.6375
2202.74867	19644.7375
2205.67545	19616.9375
2208.60037	19621.0375
2211.52341	19567.6375
2214.44458	19577.3375
2217.36388	19519.0375
2220.28132	19479.8375
2223.1969	19451.3375
2226.11061	19468.9375
2229.02246	19409.4375
2231.93245	19399.9375
2234.84058	19317.1375
2237.74686	19286.1375
2240.65128	19303.5375
2243.55385	19303.1375
2246.45456	19274.7375
2249.35343	19245.5375
2252.25044	19194.4375
2255.14561	19176.3375
2258.03893	19159.1375
2260.93041	19136.2375
2263.82004	19091.1375
2266.70783	19027.7375
2269.59378	19001.4375
2272.4779	18987.8375
2275.36017	18926.8375
2278.24061	18904.9375
2281.11922	18864.2375
2283.996	18826.8375
2286.87094	18816.0375
2289.74405	18778.7375
2292.61534	18791.9375
2295.4848	18746.6375
2298.35243	18777.8375
2301.21824	18763.2375
2304.08223	18786.5375
2306.94439	18772.2375
2309.80474	18741.3375
2312.66327	18755.9375
2315.51999	18754.7375
2318.37489	18692.6375
2321.22797	18683.3375
2324.07925	18667.1375
2326.92871	18660.9375
2329.77637	18616.4375
2332.62222	18580.2375
2335.46626	18595.0375
2338.3085	18568.5375
2341.14893	18566.1375
2343.98756	18544.9375
2346.8244	18508.2375
2349.65943	18512.8375
2352.49267	18502.9375
2355.32411	18523.2375
2358.15376	18501.1375
2360.98161	18480.1375
2363.80768	18451.2375
2366.63195	18456.1375
2369.45444	18423.2375
2372.27514	18425.2375
2375.09405	18409.4375
2377.91118	18360.4375
2380.72652	18296.3375
2383.54009	18293.1375
2386.35187	18244.2375
2389.16188	18233.3375
2391.97011	18180.0375
2394.77657	18165.5375
2397.58125	18129.1375
2400.38416	18129.3375
2403.18529	18073.8375
2405.98466	18071.0375
2408.78226	18020.1375
2411.57809	18038.4375
2414.37216	17996.7375
2417.16446	18012.1375
2419.955	17949.3375
2422.74378	17932.5375
2425.5308	17956.2375
2428.31606	17930.3375
2431.09956	17891.7375
2433.88131	17881.0375
2436.6613	17921.8375
2439.43954	17870.8375
2442.21603	17884.7375
2444.99077	17852.7375
2447.76377	17874.4375
2450.53501	17821.2375
2453.30451	17852.3375
2456.07226	17854.1375
2458.83827	17786.0375
2461.60254	17821.3375
2464.36507	17768.3375
2467.12586	17780.9375
2469.88492	17777.9375
2472.64224	17774.8375
2475.39782	17786.0375
2478.15167	17773.3375
2480.90379	17750.0375
2483.65417	17770.7375
2486.40283	17758.1375
2489.14976	17720.9375
2491.89497	17704.0375
2494.63845	17732.6375
2497.3802	17695.6375
2500.12024	17698.6375
2502.85855	17685.2375
2505.59514	17643.3375
2508.33002	17663.1375
2511.06318	17648.8375
2513.79462	17629.4375
2516.52435	17615.5375
2519.25237	17596.1375
2521.97867	17578.2375
2524.70327	17561.3375
2527.42616	17512.0375
2530.14734	17551.8375
2532.86681	17532.0375
2535.58458	17506.1375
2538.30065	17506.7375
2541.01501	17482.3375
2543.72768	17452.3375
2546.43864	17420.5375
2549.14791	17426.9375
2551.85548	17398.4375
2554.56136	17368.2375
2557.26554	17326.3375
2559.96803	17357.2375
2562.66883	17346.1375
2565.36794	17315.4375
2568.06536	17300.5375
2570.7611	17243.4375
2573.45514	17238.2375
2576.14751	17228.5375
2578.83819	17212.3375
2581.52719	17202.5375
2584.21451	17156.3375
2586.90015	17156.8375
2589.58411	17129.6375
2592.2664	17090.2375
2594.94701	17044.9375
2597.62594	17055.7375
2600.30321	16991.0375
2602.9788	16999.9375
2605.65273	17017.3375
2608.32498	16996.2375
2610.99557	16984.5375
2613.66449	16977.6375
2616.33175	16922.5375
2618.99734	16905.8375
2621.66128	16914.6375
2624.32355	16884.0375
2626.98416	16892.9375
2629.64311	16875.7375
2632.30041	16872.3375
2634.95605	16836.5375
2637.61004	16801.4375
2640.26238	16789.6375
2642.91306	16800.2375
2645.56209	16766.3375
2648.20948	16730.0375
2650.85521	16749.6375
2653.4993	16756.1375
2656.14175	16741.4375
2658.78255	16781.0375
2661.42171	16741.5375
2664.05923	16776.8375
2666.6951	16780.0375
2669.32934	16779.7375
2671.96194	16793.3375
2674.59291	16796.1375
2677.22224	16769.8375
2679.84993	16748.1375
2682.476	16754.5375
2685.10043	16764.5375
2687.72324	16761.1375
2690.34441	16759.1375
2692.96396	16734.2375
2695.58188	16741.4375
2698.19818	16718.6375
2700.81285	16725.7375
2703.4259	16717.8375
2706.03733	16755.1375
2708.64714	16766.2375
2711.25533	16770.6375
2713.86191	16787.6375
2716.46687	16792.7375
2719.07021	16780.8375
2721.67194	16763.0375
2724.27206	16761.5375
2726.87057	16776.9375
2729.46747	16802.2375
2732.06276	16777.1375
2734.65644	16754.3375
2737.24852	16750.3375
2739.83899	16722.6375
2742.42786	16768.5375
2745.01513	16722.4375
2747.60079	16689.5375
2750.18486	16707.0375
2752.76733	16690.0375
2755.3482	16679.5375
2757.92747	16670.0375
2760.50515	16620.1375
2763.08123	16621.1375
2765.65573	16594.6375
2768.22863	16578.2375
2770.79994	16597.1375
2773.36967	16590.3375
2775.9378	16524.1375
2778.50435	16553.7375
2781.06932	16520.3375
2783.6327	16506.3375
2786.1945	16497.3375
2788.75471	16485.7375
2791.31335	16405.9375
2793.87041	16414.0375
2796.42589	16357.0375
2798.97979	16373.4375
2801.53212	16315.5375
2804.08288	16288.9375
2806.63206	16235.4375
2809.17967	16211.5375
2811.72571	16195.2375
2814.27018	16192.5375
2816.81308	16195.3375
2819.35442	16159.2375
2821.89419	16122.6375
2824.43239	16089.0375
2826.96904	16080.4375
2829.50412	16086.1375
2832.03763	16028.3375
2834.56959	16019.6375
2837.1	16009.2375
2839.62884	15991.8375
2842.15613	15968.5375
2844.68186	15981.7375
2847.20604	15980.4375
2849.72867	15979.7375
2852.24974	15978.5375
2854.76927	15979.1375
2857.28724	15938.1375
2859.80367	15907.8375
2862.31855	15878.3375
2864.83189	15884.8375
2867.34368	15877.9375
2869.85393	15862.0375
2872.36264	15840.6375
2874.8698	15858.0375
2877.37543	15879.8375
2879.87952	15874.6375
2882.38207	15872.6375
2884.88308	15863.9375
2887.38256	15908.0375
2889.88051	15852.9375
2892.37692	15861.8375
2894.8718	15853.3375
2897.36515	15880.8375
2899.85698	15882.8375
2902.34727	15945.7375
2904.83604	15932.6375
2907.32328	15948.5375
2909.809	15898.9375
2912.29319	15931.2375
2914.77587	15922.3375
2917.25702	15912.1375
2919.73665	15872.7375
2922.21476	15883.9375
2924.69136	15847.1375
2927.16644	15889.5375
2929.64	15853.5375
2932.11205	15838.9375
2934.58258	15744.1375
2937.05161	15782.7375
2939.51912	15796.2375
2941.98513	15777.0375
2944.44962	15758.4375
2946.91261	15724.5375
2949.37409	15761.6375
2951.83407	15746.7375
2954.29254	15698.1375
2956.74951	15723.2375
2959.20498	15663.6375
2961.65895	15671.9375
2964.11142	15657.9375
2966.56239	15649.7375
2969.01186	15660.5375
2971.45984	15603.7375
2973.90632	15601.9375
2976.35131	15572.9375
2978.7948	15531.9375
2981.23681	15502.7375
2983.67732	15494.6375
2986.11635	15455.7375
2988.55388	15397.1375
2990.98993	15396.3375
2993.4245	15388.0375
2995.85758	15346.5375
2998.28917	15300.0375
3000.71928	15301.4375
3003.14791	15273.5375
3005.57506	15253.4375
3008.00073	15236.9375
3010.42493	15230.2375
3012.84764	15205.8375
3015.26888	15198.2375
3017.68865	15157.5375
3020.10694	15155.6375
3022.52376	15136.0375
3024.9391	15065.8375
