Data from AgNPs_FTO_APTES_UA_20uM_R6G_10uM_NaF_0.1M_Addition_RamanShift__26__14-25-47-382.txt Node

Date: Fri Dec 17 14:25:47 GMT 2021
User: TCL
Spectrometer: QEP01345
Trigger mode: 4
Integration Time (sec): 7.000000E0
Scans to average: 10
Electric dark correction enabled: true
Nonlinearity correction enabled: false
Boxcar width: 0
XAxis mode: Raman Shifts
Number of Pixels in Spectrum: 1044
>>>>>Begin Spectral Data<<<<<
46.04893	-0.875
50.45542	-0.775
54.85868	-0.675
59.25871	-0.175
63.6555	65.425
68.04907	66.625
72.43941	73.125
76.82654	75.625
81.21044	76.325
85.59113	80.425
89.96862	80.525
94.34289	84.825
98.71396	87.725
103.08183	85.825
107.4465	93.325
111.80798	92.625
116.16626	97.925
120.52136	98.725
124.87327	104.325
129.222	107.525
133.56755	114.825
137.90993	121.225
142.24913	132.325
146.58517	139.225
150.91804	162.725
155.24774	189.425
159.57429	236.525
163.89768	294.525
168.21792	384.225
172.53501	517.525
176.84895	715.625
181.15975	1005.725
185.46741	1394.525
189.77193	1921.725
194.07331	2580.925
198.37157	3319.225
202.6667	4101.825
206.9587	4884.725
211.24758	5663.625
215.53334	6402.625
219.81599	7257.625
224.09553	8137.625
228.37195	9164.425
232.64527	10298.625
236.91549	11458.825
241.18261	12648.925
245.44663	13734.125
249.70755	14698.725
253.96539	15534.825
258.22014	16248.125
262.4718	16862.325
266.72039	17285.225
270.96589	17548.425
275.20832	17608.225
279.44768	17499.125
283.68397	17278.925
287.91719	17053.525
292.14735	16979.325
296.37445	17042.425
300.59849	17216.125
304.81948	17448.925
309.03742	17537.725
313.25231	17396.025
317.46415	16947.325
321.67296	16314.625
325.87872	15803.425
330.08145	15602.625
334.28114	15637.425
338.47781	15817.125
342.67145	16144.425
346.86207	16531.725
351.04966	17039.325
355.23424	17608.225
359.4158	18119.525
363.59435	18464.025
367.76989	18694.025
371.94243	18834.325
376.11196	18916.025
380.27849	19012.225
384.44203	19073.325
388.60257	19070.325
392.76012	19115.725
396.91468	19270.525
401.06626	19627.825
405.21485	19900.725
409.36047	19836.125
413.50311	19394.725
417.64277	18987.425
421.77947	18781.225
425.9132	18755.825
430.04396	18808.725
434.17176	18902.825
438.2966	19110.325
442.41849	19397.025
446.53742	19806.525
450.6534	20270.625
454.76644	20620.425
458.87653	20839.225
462.98368	20768.825
467.08789	20589.025
471.18916	20315.925
475.2875	19978.325
479.38291	19697.425
483.4754	19518.225
487.56496	19350.925
491.6516	19211.825
495.73531	19119.325
499.81612	19097.225
503.89401	19195.925
507.96899	19329.425
512.04106	19441.325
516.11023	19583.525
520.1765	19706.425
524.23987	19673.325
528.30034	19503.825
532.35792	19313.325
536.41261	19112.925
540.46441	18879.025
544.51333	18800.425
548.55936	18904.625
552.60252	19124.625
556.64279	19372.925
560.6802	19510.025
564.71473	19556.725
568.7464	19817.925
572.7752	20088.625
576.80114	20038.825
580.82422	19948.925
584.84444	20026.725
588.86181	20098.425
592.87633	20248.725
596.888	20457.625
600.89682	20825.425
604.9028	22104.325
608.90594	25087.025
612.90624	28678.625
616.90371	27735.525
620.89834	22762.125
624.89015	20434.125
628.87913	19983.325
632.86528	19998.225
636.84862	20058.025
640.82913	19875.325
644.80683	19423.425
648.78172	19067.825
652.75379	19041.925
656.72306	19374.125
660.68952	19848.125
664.65319	19756.525
668.61405	19379.125
672.57211	19219.325
676.52738	19206.625
680.47986	19239.825
684.42955	19180.125
688.37646	19184.225
692.32058	19241.125
696.26192	19353.825
700.20048	19493.025
704.13626	19575.625
708.06928	19505.325
711.99952	19421.025
715.927	19371.725
719.85171	19383.425
723.77365	19340.725
727.69284	19262.225
731.60928	19172.025
735.52295	19154.025
739.43388	19188.825
743.34206	19297.625
747.24749	19370.625
751.15017	19473.725
755.05012	19703.625
758.94733	20176.425
762.8418	21137.025
766.73354	22755.825
770.62254	24596.325
774.50882	25546.025
778.39237	24786.925
782.27321	22799.125
786.15132	21039.225
790.02671	19987.825
793.89938	19565.625
797.76935	19389.025
801.6366	19295.225
805.50115	19264.625
809.36299	19203.825
813.22213	19199.525
817.07857	19191.825
820.93231	19159.425
824.78336	19098.725
828.63172	19159.025
832.47738	19203.525
836.32036	19207.025
840.16066	19222.525
843.99827	19243.925
847.8332	19244.425
851.66546	19221.925
855.49504	19144.625
859.32195	19192.425
863.1462	19132.425
866.96777	19069.525
870.78668	19065.825
874.60293	19095.525
878.41652	19094.225
882.22745	19217.925
886.03573	19244.525
889.84136	19233.925
893.64433	19161.425
897.44466	19072.025
901.24235	19026.325
905.0374	18982.725
908.8298	18953.025
912.61957	18935.125
916.40671	19029.225
920.19121	19127.325
923.97308	19280.325
927.75233	19391.025
931.52895	19426.725
935.30295	19317.225
939.07433	19076.725
942.84309	18869.125
946.60924	18759.225
950.37278	18682.225
954.13371	18559.425
957.89203	18482.925
961.64774	18437.825
965.40086	18397.025
969.15137	18314.325
972.89929	18274.525
976.64461	18264.825
980.38733	18310.025
984.12747	18346.125
987.86502	18469.125
991.59999	18613.225
995.33237	18855.025
999.06217	19289.525
1002.78939	19771.125
1006.51404	20192.225
1010.23611	20450.925
1013.95561	20667.925
1017.67255	20730.825
1021.38692	20612.525
1025.09872	20550.825
1028.80796	20641.725
1032.51465	20959.225
1036.21877	21276.425
1039.92035	21335.725
1043.61937	21067.225
1047.31584	20665.525
1051.00976	20229.925
1054.70114	19998.625
1058.38998	19910.225
1062.07627	19943.425
1065.76003	20072.325
1069.44126	20144.825
1073.11995	20274.125
1076.79611	20433.825
1080.46974	20495.425
1084.14085	20626.325
1087.80943	20834.325
1091.47549	20901.225
1095.13903	20717.225
1098.80005	20394.425
1102.45857	20074.325
1106.11456	19916.025
1109.76805	19995.225
1113.41903	20235.825
1117.06751	20458.925
1120.71348	20795.025
1124.35696	21098.725
1127.99793	21423.325
1131.63641	21568.725
1135.2724	21278.725
1138.90589	20889.225
1142.5369	20602.325
1146.16542	20379.025
1149.79145	20266.225
1153.415	20260.225
1157.03607	20364.425
1160.65467	20587.425
1164.27079	21000.725
1167.88443	21653.125
1171.49561	22581.725
1175.10432	24001.025
1178.71056	25971.925
1182.31434	27833.725
1185.91565	28737.325
1189.51451	28731.725
1193.11091	27733.025
1196.70485	26342.825
1200.29634	25206.925
1203.88538	24357.225
1207.47197	23561.725
1211.05612	22929.425
1214.63782	22561.925
1218.21708	22427.225
1221.79391	22478.525
1225.36829	22572.425
1228.94024	22621.725
1232.50976	22571.825
1236.07685	22554.625
1239.6415	22583.225
1243.20374	22624.025
1246.76355	22684.625
1250.32093	22933.025
1253.8759	23352.925
1257.42845	23827.425
1260.97859	24326.325
1264.52631	24662.225
1268.07163	25064.825
1271.61453	25564.325
1275.15503	26066.125
1278.69312	26567.125
1282.22882	26910.825
1285.76211	27280.225
1289.29301	27698.225
1292.82151	28147.625
1296.34761	28735.225
1299.87133	29641.825
1303.39266	31093.425
1306.9116	33066.025
1310.42815	35158.925
1313.94233	36458.225
1317.45412	36298.225
1320.96354	35176.425
1324.47058	33841.525
1327.97525	32612.825
1331.47754	31825.325
1334.97747	31664.025
1338.47502	31993.525
1341.97022	32526.325
1345.46305	32849.925
1348.95352	33129.525
1352.44163	33705.125
1355.92738	34926.825
1359.41078	37243.025
1362.89183	39652.625
1366.37053	39161.025
1369.84688	35410.325
1373.32088	31366.625
1376.79254	28666.825
1380.26186	27296.325
1383.72883	26650.825
1387.19347	26159.725
1390.65578	25693.825
1394.11575	25335.725
1397.57339	25311.025
1401.0287	25503.725
1404.48168	25917.125
1407.93234	26398.225
1411.38068	26808.125
1414.82669	26895.625
1418.27039	26579.425
1421.71177	26033.125
1425.15083	25481.225
1428.58758	25194.725
1432.02203	25105.525
1435.45416	25155.525
1438.88399	25281.325
1442.31151	25390.525
1445.73673	25528.425
1449.15965	25664.725
1452.58027	25767.025
1455.9986	25654.625
1459.41463	25628.425
1462.82837	25814.025
1466.23982	26195.025
1469.64898	26666.425
1473.05586	27029.025
1476.46045	27212.825
1479.86276	27536.825
1483.26279	27802.425
1486.66054	28194.025
1490.05602	28650.925
1493.44922	29216.825
1496.84016	29912.925
1500.22882	30938.925
1503.61521	32325.225
1506.99934	34125.825
1510.38121	35750.425
1513.76081	36231.025
1517.13816	35091.425
1520.51324	32793.225
1523.88607	30501.425
1527.25665	28840.125
1530.62498	27936.125
1533.99105	27366.525
1537.35488	27065.125
1540.71647	26892.325
1544.07581	26827.525
1547.4329	26761.225
1550.78776	26726.525
1554.14038	26717.325
1557.49077	26768.225
1560.83892	26855.725
1564.18484	26954.825
1567.52853	27051.525
1570.86999	27143.925
1574.20922	27315.625
1577.54624	27356.625
1580.88103	26967.225
1584.2136	26427.825
1587.54395	26364.825
1590.87208	27028.025
1594.19801	28256.125
1597.52172	29712.625
1600.84321	30494.525
1604.16251	29903.225
1607.47959	28469.525
1610.79447	26829.325
1614.10715	25212.525
1617.41763	23897.425
1620.7259	23057.225
1624.03199	22628.925
1627.33587	22634.025
1630.63757	23036.725
1633.93707	23853.825
1637.23439	24936.225
1640.52951	26393.925
1643.82246	27914.125
1647.11321	29343.425
1650.40179	30035.525
1653.68819	29142.225
1656.97241	26682.425
1660.25446	24089.725
1663.53433	22120.225
1666.81203	20932.625
1670.08756	20145.125
1673.36092	19653.825
1676.63211	19327.425
1679.90115	19102.525
1683.16801	18920.225
1686.43272	18776.625
1689.69527	18668.925
1692.95567	18595.425
1696.2139	18555.125
1699.46999	18525.325
1702.72392	18460.525
1705.97571	18413.525
1709.22535	18419.825
1712.47284	18398.225
1715.71819	18392.325
1718.96139	18401.025
1722.20246	18343.525
1725.44139	18286.425
1728.67818	18217.825
1731.91284	18112.525
1735.14537	18085.525
1738.37576	18021.325
1741.60403	17948.725
1744.83017	17907.225
1748.05418	17935.625
1751.27607	17888.625
1754.49584	17871.825
1757.71349	17873.325
1760.92903	17863.025
1764.14244	17858.525
1767.35375	17880.225
1770.56294	17859.225
1773.77002	17809.225
1776.97499	17828.425
1780.17785	17812.125
1783.37861	17785.125
1786.57727	17767.525
1789.77382	17737.425
1792.96828	17722.825
1796.16064	17735.525
1799.3509	17683.625
1802.53907	17674.325
1805.72514	17641.225
1808.90913	17610.525
1812.09102	17596.525
1815.27083	17584.625
1818.44856	17572.125
1821.6242	17554.525
1824.79776	17516.325
1827.96924	17516.025
1831.13864	17485.625
1834.30597	17491.225
1837.47122	17485.925
1840.6344	17479.225
1843.7955	17479.025
1846.95454	17486.925
1850.11151	17488.725
1853.26642	17483.625
1856.41926	17482.125
1859.57004	17498.825
1862.71876	17485.925
1865.86542	17489.825
1869.01003	17496.025
1872.15258	17493.125
1875.29308	17495.025
1878.43152	17485.125
1881.56792	17492.625
1884.70227	17522.925
1887.83457	17482.925
1890.96482	17511.325
1894.09304	17489.525
1897.21921	17486.425
1900.34335	17493.425
1903.46544	17487.125
1906.58551	17489.825
1909.70353	17461.225
1912.81953	17489.725
1915.93349	17451.525
1919.04543	17417.425
1922.15534	17414.325
1925.26322	17389.325
1928.36908	17367.725
1931.47292	17346.025
1934.57473	17286.025
1937.67453	17227.925
1940.77232	17187.325
1943.86808	17132.025
1946.96184	17075.325
1950.05358	17019.825
1953.14331	16984.825
1956.23103	16943.925
1959.31675	16896.725
1962.40046	16863.025
1965.48217	16842.825
1968.56188	16763.125
1971.63959	16712.525
1974.7153	16668.425
1977.78901	16626.225
1980.86073	16582.325
1983.93046	16529.825
1986.99819	16497.725
1990.06394	16460.225
1993.1277	16402.525
1996.18947	16343.325
1999.24925	16296.425
2002.30706	16257.925
2005.36288	16245.825
2008.41672	16222.325
2011.46859	16176.025
2014.51848	16109.525
2017.56639	16101.125
2020.61233	16058.825
2023.6563	16002.725
2026.6983	16015.825
2029.73833	15987.125
2032.7764	15921.725
2035.8125	15908.325
2038.84664	15878.125
2041.87881	15864.525
2044.90903	15823.025
2047.93729	15832.225
2050.96359	15805.525
2053.98794	15772.525
2057.01034	15761.625
2060.03078	15762.725
2063.04927	15740.925
2066.06582	15746.325
2069.08042	15739.125
2072.09307	15719.125
2075.10378	15686.225
2078.11255	15677.525
2081.11938	15692.425
2084.12426	15690.625
2087.12722	15663.825
2090.12824	15657.025
2093.12732	15654.125
2096.12447	15694.125
2099.11969	15684.725
2102.11299	15701.925
2105.10435	15668.325
2108.09379	15711.325
2111.08131	15717.625
2114.0669	15743.525
2117.05057	15758.525
2120.03233	15757.025
2123.01216	15761.425
2125.99008	15800.225
2128.96609	15830.225
2131.94018	15816.125
2134.91236	15820.525
2137.88263	15846.025
2140.851	15881.925
2143.81746	15903.725
2146.78201	15869.425
2149.74466	15888.625
2152.7054	15901.425
2155.66425	15860.725
2158.6212	15880.625
2161.57625	15905.025
2164.52941	15901.625
2167.48067	15888.625
2170.43004	15873.825
2173.37752	15902.125
2176.32311	15873.325
2179.26681	15875.825
2182.20863	15876.225
2185.14856	15908.625
2188.08661	15892.425
2191.02278	15897.625
2193.95707	15853.625
2196.88948	15889.125
2199.82001	15908.825
2202.74867	15875.925
2205.67545	15863.825
2208.60037	15882.625
2211.52341	15833.125
2214.44458	15845.725
2217.36388	15797.725
2220.28132	15799.525
2223.1969	15787.925
2226.11061	15752.425
2229.02246	15729.625
2231.93245	15708.125
2234.84058	15655.225
2237.74686	15650.125
2240.65128	15661.725
2243.55385	15577.225
2246.45456	15616.525
2249.35343	15608.025
2252.25044	15564.125
2255.14561	15537.525
2258.03893	15570.825
2260.93041	15496.625
2263.82004	15511.125
2266.70783	15435.025
2269.59378	15429.025
2272.4779	15392.925
2275.36017	15368.125
2278.24061	15322.525
2281.11922	15289.125
2283.996	15272.325
2286.87094	15239.825
2289.74405	15220.225
2292.61534	15223.425
2295.4848	15182.625
2298.35243	15215.625
2301.21824	15233.125
2304.08223	15234.125
2306.94439	15250.925
2309.80474	15214.825
2312.66327	15239.425
2315.51999	15199.325
2318.37489	15218.725
2321.22797	15206.325
2324.07925	15187.125
2326.92871	15188.025
2329.77637	15169.225
2332.62222	15180.825
2335.46626	15138.025
2338.3085	15140.025
2341.14893	15145.225
2343.98756	15151.925
2346.8244	15147.325
2349.65943	15137.225
2352.49267	15107.225
2355.32411	15152.225
2358.15376	15120.725
2360.98161	15129.125
2363.80768	15103.825
2366.63195	15093.125
2369.45444	15073.825
2372.27514	15047.425
2375.09405	15025.225
2377.91118	14973.925
2380.72652	14958.725
2383.54009	14940.425
2386.35187	14909.725
2389.16188	14883.425
2391.97011	14864.725
2394.77657	14836.725
2397.58125	14806.125
2400.38416	14776.525
2403.18529	14739.925
2405.98466	14725.425
2408.78226	14719.225
2411.57809	14691.425
2414.37216	14655.225
2417.16446	14674.825
2419.955	14653.125
2422.74378	14626.125
2425.5308	14602.425
2428.31606	14598.525
2431.09956	14619.625
2433.88131	14569.025
2436.6613	14572.725
2439.43954	14585.625
2442.21603	14549.625
2444.99077	14553.225
2447.76377	14530.825
2450.53501	14511.425
2453.30451	14510.625
2456.07226	14498.425
2458.83827	14515.325
2461.60254	14484.125
2464.36507	14520.725
2467.12586	14486.625
2469.88492	14479.725
2472.64224	14500.625
2475.39782	14511.725
2478.15167	14493.025
2480.90379	14473.125
2483.65417	14499.625
2486.40283	14494.925
2489.14976	14496.725
2491.89497	14482.025
2494.63845	14525.325
2497.3802	14509.225
2500.12024	14489.325
2502.85855	14501.325
2505.59514	14488.325
2508.33002	14451.225
2511.06318	14446.225
2513.79462	14426.225
2516.52435	14387.125
2519.25237	14382.525
2521.97867	14391.325
2524.70327	14353.425
2527.42616	14325.525
2530.14734	14330.625
2532.86681	14286.525
2535.58458	14300.625
2538.30065	14301.025
2541.01501	14292.925
2543.72768	14267.925
2546.43864	14241.825
2549.14791	14247.525
2551.85548	14208.825
2554.56136	14201.625
2557.26554	14207.725
2559.96803	14185.525
2562.66883	14140.825
2565.36794	14144.825
2568.06536	14162.625
2570.7611	14149.725
2573.45514	14113.825
2576.14751	14106.925
2578.83819	14092.325
2581.52719	14080.425
2584.21451	14059.625
2586.90015	14051.725
2589.58411	14064.825
2592.2664	14051.325
2594.94701	14035.025
2597.62594	14004.625
2600.30321	14013.625
2602.9788	14007.525
2605.65273	13971.325
2608.32498	13955.125
2610.99557	13975.225
2613.66449	13968.425
2616.33175	13946.625
2618.99734	13952.425
2621.66128	13938.725
2624.32355	13935.125
2626.98416	13921.725
2629.64311	13936.825
2632.30041	13948.425
2634.95605	13942.625
2637.61004	13909.325
2640.26238	13875.925
2642.91306	13877.525
2645.56209	13865.525
2648.20948	13836.225
2650.85521	13858.525
2653.4993	13825.225
2656.14175	13823.225
2658.78255	13824.525
2661.42171	13806.025
2664.05923	13848.225
2666.6951	13837.225
2669.32934	13852.725
2671.96194	13850.525
2674.59291	13873.725
2677.22224	13862.225
2679.84993	13885.525
2682.476	13859.325
2685.10043	13869.725
2687.72324	13867.825
2690.34441	13865.325
2692.96396	13857.225
2695.58188	13874.325
2698.19818	13850.625
2700.81285	13867.525
2703.4259	13855.225
2706.03733	13888.725
2708.64714	13876.325
2711.25533	13898.825
2713.86191	13892.525
2716.46687	13884.325
2719.07021	13911.925
2721.67194	13872.325
2724.27206	13885.725
2726.87057	13881.625
2729.46747	13899.525
2732.06276	13888.325
2734.65644	13874.025
2737.24852	13854.825
2739.83899	13867.125
2742.42786	13900.325
2745.01513	13841.725
2747.60079	13861.625
2750.18486	13841.825
2752.76733	13837.525
2755.3482	13827.725
2757.92747	13834.425
2760.50515	13811.225
2763.08123	13791.525
2765.65573	13788.425
2768.22863	13781.725
2770.79994	13770.125
2773.36967	13750.425
2775.9378	13752.625
2778.50435	13764.525
2781.06932	13703.925
2783.6327	13713.825
2786.1945	13725.625
2788.75471	13694.525
2791.31335	13657.325
2793.87041	13641.225
2796.42589	13580.025
2798.97979	13597.325
2801.53212	13580.125
2804.08288	13563.125
2806.63206	13516.725
2809.17967	13512.425
2811.72571	13490.825
2814.27018	13492.625
2816.81308	13487.025
2819.35442	13452.625
2821.89419	13420.825
2824.43239	13450.825
2826.96904	13423.525
2829.50412	13438.725
2832.03763	13407.625
2834.56959	13400.625
2837.1	13399.025
2839.62884	13384.625
2842.15613	13360.725
2844.68186	13403.025
2847.20604	13412.225
2849.72867	13420.825
2852.24974	13391.525
2854.76927	13365.925
2857.28724	13335.725
2859.80367	13349.425
2862.31855	13335.425
2864.83189	13272.925
2867.34368	13268.825
2869.85393	13290.725
2872.36264	13285.625
2874.8698	13284.425
2877.37543	13306.425
2879.87952	13325.425
2882.38207	13306.825
2884.88308	13294.025
2887.38256	13318.425
2889.88051	13278.825
2892.37692	13288.425
2894.8718	13301.725
2897.36515	13321.125
2899.85698	13305.025
2902.34727	13351.425
2904.83604	13348.125
2907.32328	13346.725
2909.809	13347.325
2912.29319	13358.025
2914.77587	13334.425
2917.25702	13335.525
2919.73665	13313.025
2922.21476	13340.025
2924.69136	13309.125
2927.16644	13297.025
2929.64	13291.625
2932.11205	13271.325
2934.58258	13234.425
2937.05161	13256.225
2939.51912	13249.425
2941.98513	13242.325
2944.44962	13232.425
2946.91261	13190.725
2949.37409	13221.425
2951.83407	13209.725
2954.29254	13178.125
2956.74951	13187.925
2959.20498	13188.425
2961.65895	13159.925
2964.11142	13132.825
2966.56239	13116.525
2969.01186	13119.925
2971.45984	13091.725
2973.90632	13070.425
2976.35131	13059.325
2978.7948	12986.725
2981.23681	12977.625
2983.67732	12979.825
2986.11635	12970.025
2988.55388	12915.525
2990.98993	12909.525
2993.4245	12895.925
2995.85758	12866.825
2998.28917	12838.525
3000.71928	12844.225
3003.14791	12792.125
3005.57506	12799.025
3008.00073	12792.325
3010.42493	12770.025
3012.84764	12726.725
3015.26888	12762.625
3017.68865	12737.625
3020.10694	12706.925
3022.52376	12659.225
3024.9391	12679.125
3027.35298	12638.025
3029.76539	12626.825
3032.17632	12608.925
3034.5858	12591.725
3036.9938	12582.125
3039.40034	12578.925
3041.80542	12540.225
3044.20903	12520.225
3046.61118	12537.425
3049.01187	12506.725
3051.4111	12488.225
3053.80888	12468.425
3056.20519	12426.025
3058.60005	12402.025
3060.99345	12409.625
3063.3854	12400.825
3065.7759	12346.625
3068.16494	12337.725
3070.55254	12270.625
3072.93868	12256.725
3075.32338	12212.525
3077.70662	12243.525
3080.08842	12199.625
3082.46878	12203.825
3084.84769	12179.225
3087.22515	12182.125
3089.60118	12191.225
3091.97576	12150.725
3094.3489	12140.025
3096.72061	12143.025
3099.09087	12158.025
3101.4597	12126.125
3103.82709	12102.025
3106.19305	12108.825
3108.55757	12091.625
3110.92066	12064.425
3113.28232	12079.325
3115.64255	12031.225
3118.00134	12016.625
3120.35871	12000.125
3122.71466	11977.125
3125.06917	11958.825
3127.42226	11929.725
3129.77393	11951.325
