Data from AgNPs_FTO_APTES_UA_200uM_R6G_10uM_NaF_0.1M_Addition_RamanShift__10__16-11-57-503.txt Node

Date: Fri Dec 17 16:11:57 GMT 2021
User: TCL
Spectrometer: QEP01345
Trigger mode: 4
Integration Time (sec): 7.000000E0
Scans to average: 10
Electric dark correction enabled: true
Nonlinearity correction enabled: false
Boxcar width: 0
XAxis mode: Raman Shifts
Number of Pixels in Spectrum: 1044
>>>>>Begin Spectral Data<<<<<
46.04893	-0.2625
50.45542	-1.1625
54.85868	0.4375
59.25871	1.4375
63.6555	52.3375
68.04907	52.0375
72.43941	56.3375
76.82654	61.8375
81.21044	66.6375
85.59113	68.6375
89.96862	71.7375
94.34289	77.4375
98.71396	75.8375
103.08183	74.2375
107.4465	80.4375
111.80798	80.5375
116.16626	81.2375
120.52136	82.8375
124.87327	86.4375
129.222	87.6375
133.56755	88.4375
137.90993	96.7375
142.24913	97.7375
146.58517	107.3375
150.91804	117.8375
155.24774	135.4375
159.57429	162.0375
163.89768	198.8375
168.21792	255.7375
172.53501	339.7375
176.84895	462.7375
181.15975	645.4375
185.46741	895.1375
189.77193	1233.9375
194.07331	1643.3375
198.37157	2118.2375
202.6667	2634.0375
206.9587	3117.3375
211.24758	3624.2375
215.53334	4106.6375
219.81599	4622.1375
224.09553	5175.3375
228.37195	5828.5375
232.64527	6533.6375
236.91549	7307.8375
241.18261	8066.5375
245.44663	8795.7375
249.70755	9428.4375
253.96539	9984.5375
258.22014	10423.1375
262.4718	10762.3375
266.72039	11004.8375
270.96589	11121.2375
275.20832	11078.2375
279.44768	10972.5375
283.68397	10776.7375
287.91719	10582.4375
292.14735	10445.3375
296.37445	10397.4375
300.59849	10422.4375
304.81948	10470.6375
309.03742	10470.1375
313.25231	10384.5375
317.46415	10167.2375
321.67296	9925.7375
325.87872	9723.4375
330.08145	9660.0375
334.28114	9670.2375
338.47781	9741.8375
342.67145	9892.1375
346.86207	10059.8375
351.04966	10265.2375
355.23424	10495.2375
359.4158	10711.7375
363.59435	10884.0375
367.76989	10988.1375
371.94243	11137.1375
376.11196	11217.1375
380.27849	11311.1375
384.44203	11363.9375
388.60257	11379.7375
392.76012	11439.6375
396.91468	11555.3375
401.06626	11705.2375
405.21485	11793.0375
409.36047	11755.1375
413.50311	11560.7375
417.64277	11331.9375
421.77947	11197.1375
425.9132	11108.7375
430.04396	11113.5375
434.17176	11131.6375
438.2966	11178.1375
442.41849	11245.5375
446.53742	11347.6375
450.6534	11459.0375
454.76644	11553.9375
458.87653	11608.6375
462.98368	11652.2375
467.08789	11632.3375
471.18916	11585.2375
475.2875	11557.6375
479.38291	11493.3375
483.4754	11450.7375
487.56496	11367.9375
491.6516	11380.6375
495.73531	11387.2375
499.81612	11377.4375
503.89401	11433.6375
507.96899	11453.9375
512.04106	11500.9375
516.11023	11572.4375
520.1765	11598.0375
524.23987	11576.0375
528.30034	11516.3375
532.35792	11438.8375
536.41261	11381.0375
540.46441	11267.6375
544.51333	11256.7375
548.55936	11288.0375
552.60252	11363.9375
556.64279	11468.3375
560.6802	11516.2375
564.71473	11511.9375
568.7464	11579.5375
572.7752	11607.5375
576.80114	11596.7375
580.82422	11615.7375
584.84444	11643.8375
588.86181	11742.8375
592.87633	11710.5375
596.888	11685.1375
600.89682	11798.0375
604.9028	12323.4375
608.90594	13539.9375
612.90624	15097.4375
616.90371	14823.2375
620.89834	12784.0375
624.89015	11753.0375
628.87913	11597.4375
632.86528	11731.8375
636.84862	11882.9375
640.82913	11833.4375
644.80683	11632.8375
648.78172	11405.3375
652.75379	11348.2375
656.72306	11429.5375
660.68952	11599.1375
664.65319	11545.5375
668.61405	11390.8375
672.57211	11312.9375
676.52738	11276.5375
680.47986	11254.4375
684.42955	11209.6375
688.37646	11166.9375
692.32058	11193.5375
696.26192	11221.3375
700.20048	11258.9375
704.13626	11292.0375
708.06928	11283.9375
711.99952	11247.7375
715.927	11229.3375
719.85171	11224.4375
723.77365	11215.5375
727.69284	11190.7375
731.60928	11148.7375
735.52295	11124.3375
739.43388	11133.6375
743.34206	11129.5375
747.24749	11158.0375
751.15017	11175.0375
755.05012	11223.7375
758.94733	11383.9375
762.8418	11750.2375
766.73354	12449.0375
770.62254	13311.1375
774.50882	13840.4375
778.39237	13541.9375
782.27321	12615.3375
786.15132	11838.5375
790.02671	11364.2375
793.89938	11144.2375
797.76935	11023.3375
801.6366	10995.7375
805.50115	10956.6375
809.36299	10959.9375
813.22213	10974.7375
817.07857	10965.0375
820.93231	10927.5375
824.78336	10913.6375
828.63172	10882.5375
832.47738	10822.2375
836.32036	10803.4375
840.16066	10808.4375
843.99827	10760.5375
847.8332	10768.1375
851.66546	10780.8375
855.49504	10744.4375
859.32195	10742.7375
863.1462	10733.6375
866.96777	10731.5375
870.78668	10721.9375
874.60293	10734.9375
878.41652	10763.0375
882.22745	10756.1375
886.03573	10815.2375
889.84136	10852.4375
893.64433	10789.6375
897.44466	10758.8375
901.24235	10751.1375
905.0374	10698.7375
908.8298	10673.5375
912.61957	10626.2375
916.40671	10635.6375
920.19121	10615.6375
923.97308	10641.9375
927.75233	10646.8375
931.52895	10686.5375
935.30295	10632.0375
939.07433	10552.2375
942.84309	10419.2375
946.60924	10340.1375
950.37278	10283.1375
954.13371	10243.1375
957.89203	10206.2375
961.64774	10205.2375
965.40086	10158.3375
969.15137	10140.5375
972.89929	10122.6375
976.64461	10110.3375
980.38733	10099.4375
984.12747	10092.4375
987.86502	10087.4375
991.59999	10123.2375
995.33237	10138.6375
999.06217	10176.7375
1002.78939	10229.5375
1006.51404	10257.2375
1010.23611	10384.7375
1013.95561	10431.3375
1017.67255	10443.4375
1021.38692	10410.1375
1025.09872	10398.8375
1028.80796	10317.1375
1032.51465	10275.3375
1036.21877	10271.3375
1039.92035	10274.0375
1043.61937	10316.7375
1047.31584	10336.5375
1051.00976	10363.0375
1054.70114	10378.7375
1058.38998	10372.4375
1062.07627	10430.6375
1065.76003	10476.7375
1069.44126	10535.7375
1073.11995	10672.0375
1076.79611	10772.7375
1080.46974	10805.4375
1084.14085	10770.5375
1087.80943	10821.9375
1091.47549	10845.3375
1095.13903	10837.1375
1098.80005	10782.8375
1102.45857	10635.9375
1106.11456	10557.9375
1109.76805	10508.0375
1113.41903	10566.7375
1117.06751	10652.8375
1120.71348	10801.2375
1124.35696	10924.5375
1127.99793	11099.9375
1131.63641	11190.0375
1135.2724	11122.3375
1138.90589	10878.7375
1142.5369	10734.1375
1146.16542	10600.2375
1149.79145	10497.9375
1153.415	10404.6375
1157.03607	10364.1375
1160.65467	10417.6375
1164.27079	10556.3375
1167.88443	10775.8375
1171.49561	11076.7375
1175.10432	11604.0375
1178.71056	12309.9375
1182.31434	12941.4375
1185.91565	13219.9375
1189.51451	13153.3375
1193.11091	12809.2375
1196.70485	12374.6375
1200.29634	12038.7375
1203.88538	11761.2375
1207.47197	11401.5375
1211.05612	11081.4375
1214.63782	10860.8375
1218.21708	10733.8375
1221.79391	10610.7375
1225.36829	10557.4375
1228.94024	10543.3375
1232.50976	10566.3375
1236.07685	10600.1375
1239.6415	10611.8375
1243.20374	10657.8375
1246.76355	10687.1375
1250.32093	10737.8375
1253.8759	10797.0375
1257.42845	10935.5375
1260.97859	11089.8375
1264.52631	11203.3375
1268.07163	11341.7375
1271.61453	11467.7375
1275.15503	11548.2375
1278.69312	11617.3375
1282.22882	11643.3375
1285.76211	11689.6375
1289.29301	11809.2375
1292.82151	11991.0375
1296.34761	12177.0375
1299.87133	12490.4375
1303.39266	12919.1375
1306.9116	13558.8375
1310.42815	14218.0375
1313.94233	14580.1375
1317.45412	14436.7375
1320.96354	13992.1375
1324.47058	13550.5375
1327.97525	13130.8375
1331.47754	12736.2375
1334.97747	12517.7375
1338.47502	12497.6375
1341.97022	12588.3375
1345.46305	12812.0375
1348.95352	13232.8375
1352.44163	13779.7375
1355.92738	14508.1375
1359.41078	15544.2375
1362.89183	16690.4375
1366.37053	16805.5375
1369.84688	15379.5375
1373.32088	13674.0375
1376.79254	12493.1375
1380.26186	11809.4375
1383.72883	11416.2375
1387.19347	11152.7375
1390.65578	10890.5375
1394.11575	10658.5375
1397.57339	10471.1375
1401.0287	10315.4375
1404.48168	10253.3375
1407.93234	10165.1375
1411.38068	10156.5375
1414.82669	10171.1375
1418.27039	10098.5375
1421.71177	10069.5375
1425.15083	9974.9375
1428.58758	9882.6375
1432.02203	9850.8375
1435.45416	9854.0375
1438.88399	9876.1375
1442.31151	9875.6375
1445.73673	9904.4375
1449.15965	9909.9375
1452.58027	9946.6375
1455.9986	9942.2375
1459.41463	9944.6375
1462.82837	10024.2375
1466.23982	10136.8375
1469.64898	10277.7375
1473.05586	10424.2375
1476.46045	10527.2375
1479.86276	10626.1375
1483.26279	10746.5375
1486.66054	10898.0375
1490.05602	11091.3375
1493.44922	11382.1375
1496.84016	11873.9375
1500.22882	12680.6375
1503.61521	13760.4375
1506.99934	14934.8375
1510.38121	15903.3375
1513.76081	16073.1375
1517.13816	15419.7375
1520.51324	14151.3375
1523.88607	12962.8375
1527.25665	12124.8375
1530.62498	11620.8375
1533.99105	11348.9375
1537.35488	11136.0375
1540.71647	11007.9375
1544.07581	10930.2375
1547.4329	10895.2375
1550.78776	10847.5375
1554.14038	10862.4375
1557.49077	10902.2375
1560.83892	11015.8375
1564.18484	11139.3375
1567.52853	11301.7375
1570.86999	11500.9375
1574.20922	11647.6375
1577.54624	11636.9375
1580.88103	11402.3375
1584.2136	10982.6375
1587.54395	10660.7375
1590.87208	10498.6375
1594.19801	10558.3375
1597.52172	10788.7375
1600.84321	10960.5375
1604.16251	10885.3375
1607.47959	10673.9375
1610.79447	10443.0375
1614.10715	10149.2375
1617.41763	9875.4375
1620.7259	9617.2375
1624.03199	9471.6375
1627.33587	9422.0375
1630.63757	9387.7375
1633.93707	9510.4375
1637.23439	9679.5375
1640.52951	10056.3375
1643.82246	10655.6375
1647.11321	11420.6375
1650.40179	12106.3375
1653.68819	12241.2375
1656.97241	11542.9375
1660.25446	10660.6375
1663.53433	9926.0375
1666.81203	9400.2375
1670.08756	9100.2375
1673.36092	8900.0375
1676.63211	8762.8375
1679.90115	8674.0375
1683.16801	8583.4375
1686.43272	8504.7375
1689.69527	8468.7375
1692.95567	8426.4375
1696.2139	8444.9375
1699.46999	8402.8375
1702.72392	8359.0375
1705.97571	8330.3375
1709.22535	8292.5375
1712.47284	8251.3375
1715.71819	8204.2375
1718.96139	8165.5375
1722.20246	8109.3375
1725.44139	8068.9375
1728.67818	8016.5375
1731.91284	7944.3375
1735.14537	7918.1375
1738.37576	7886.6375
1741.60403	7846.0375
1744.83017	7844.8375
1748.05418	7809.9375
1751.27607	7791.4375
1754.49584	7779.2375
1757.71349	7744.2375
1760.92903	7740.5375
1764.14244	7717.6375
1767.35375	7721.0375
1770.56294	7692.6375
1773.77002	7695.1375
1776.97499	7671.6375
1780.17785	7652.5375
1783.37861	7618.0375
1786.57727	7617.1375
1789.77382	7590.8375
1792.96828	7559.0375
1796.16064	7554.1375
1799.3509	7545.8375
1802.53907	7510.9375
1805.72514	7475.2375
1808.90913	7462.8375
1812.09102	7436.9375
1815.27083	7424.5375
1818.44856	7402.8375
1821.6242	7368.1375
1824.79776	7381.8375
1827.96924	7356.5375
1831.13864	7330.1375
1834.30597	7317.4375
1837.47122	7316.9375
1840.6344	7312.3375
1843.7955	7319.7375
1846.95454	7284.9375
1850.11151	7250.1375
1853.26642	7267.6375
1856.41926	7262.9375
1859.57004	7251.8375
1862.71876	7246.3375
1865.86542	7237.5375
1869.01003	7220.8375
1872.15258	7196.2375
1875.29308	7188.5375
1878.43152	7164.3375
1881.56792	7190.7375
1884.70227	7177.6375
1887.83457	7126.6375
1890.96482	7124.3375
1894.09304	7103.7375
1897.21921	7100.9375
1900.34335	7091.2375
1903.46544	7077.2375
1906.58551	7065.8375
1909.70353	7033.9375
1912.81953	7054.5375
1915.93349	7038.0375
1919.04543	6992.5375
1922.15534	7002.8375
1925.26322	6990.8375
1928.36908	6976.2375
1931.47292	6927.2375
1934.57473	6928.8375
1937.67453	6901.5375
1940.77232	6895.4375
1943.86808	6856.2375
1946.96184	6832.4375
1950.05358	6812.9375
1953.14331	6825.7375
1956.23103	6802.6375
1959.31675	6761.0375
1962.40046	6731.3375
1965.48217	6709.2375
1968.56188	6711.0375
1971.63959	6683.3375
1974.7153	6646.8375
1977.78901	6618.7375
1980.86073	6584.8375
1983.93046	6571.7375
1986.99819	6551.7375
1990.06394	6537.9375
1993.1277	6506.3375
1996.18947	6490.6375
1999.24925	6484.2375
2002.30706	6434.1375
2005.36288	6424.5375
2008.41672	6385.4375
2011.46859	6384.4375
2014.51848	6350.5375
2017.56639	6335.8375
2020.61233	6298.8375
2023.6563	6295.3375
2026.6983	6286.3375
2029.73833	6267.9375
2032.7764	6233.1375
2035.8125	6207.5375
2038.84664	6216.9375
2041.87881	6214.7375
2044.90903	6198.0375
2047.93729	6174.5375
2050.96359	6152.9375
2053.98794	6127.6375
2057.01034	6137.4375
2060.03078	6095.8375
2063.04927	6100.9375
2066.06582	6106.6375
2069.08042	6110.3375
2072.09307	6073.4375
2075.10378	6073.2375
2078.11255	6071.1375
2081.11938	6068.1375
2084.12426	6061.6375
2087.12722	6048.8375
2090.12824	6040.3375
2093.12732	6044.7375
2096.12447	6072.3375
2099.11969	6049.0375
2102.11299	6049.2375
2105.10435	6033.4375
2108.09379	6034.8375
2111.08131	6043.5375
2114.0669	6038.4375
2117.05057	6040.0375
2120.03233	6044.9375
2123.01216	6035.8375
2125.99008	6049.2375
2128.96609	6059.3375
2131.94018	6062.1375
2134.91236	6058.5375
2137.88263	6032.4375
2140.851	6042.3375
2143.81746	6052.2375
2146.78201	6044.0375
2149.74466	6050.5375
2152.7054	6029.9375
2155.66425	6029.9375
2158.6212	6027.4375
2161.57625	6048.4375
2164.52941	6012.6375
2167.48067	6011.0375
2170.43004	6026.1375
2173.37752	6003.0375
2176.32311	6007.0375
2179.26681	6027.9375
2182.20863	5999.5375
2185.14856	5983.4375
2188.08661	5979.6375
2191.02278	5977.1375
2193.95707	5959.3375
2196.88948	5958.4375
2199.82001	5954.7375
2202.74867	5925.4375
2205.67545	5929.4375
2208.60037	5909.4375
2211.52341	5914.2375
2214.44458	5878.2375
2217.36388	5877.4375
2220.28132	5866.1375
2223.1969	5855.5375
2226.11061	5839.6375
2229.02246	5826.5375
2231.93245	5796.1375
2234.84058	5783.6375
2237.74686	5770.8375
2240.65128	5777.7375
2243.55385	5761.9375
2246.45456	5755.1375
2249.35343	5735.2375
2252.25044	5739.2375
2255.14561	5717.0375
2258.03893	5725.2375
2260.93041	5694.4375
2263.82004	5674.1375
2266.70783	5690.9375
2269.59378	5659.9375
2272.4779	5644.3375
2275.36017	5631.9375
2278.24061	5612.3375
2281.11922	5613.3375
2283.996	5598.2375
2286.87094	5581.2375
2289.74405	5555.6375
2292.61534	5560.2375
2295.4848	5527.3375
2298.35243	5539.6375
2301.21824	5517.3375
2304.08223	5527.7375
2306.94439	5508.0375
2309.80474	5516.5375
2312.66327	5472.9375
2315.51999	5499.7375
2318.37489	5486.4375
2321.22797	5462.7375
2324.07925	5456.6375
2326.92871	5451.5375
2329.77637	5449.8375
2332.62222	5421.8375
2335.46626	5397.0375
2338.3085	5394.3375
2341.14893	5390.9375
2343.98756	5372.8375
2346.8244	5369.0375
2349.65943	5371.9375
2352.49267	5371.4375
2355.32411	5364.2375
2358.15376	5356.9375
2360.98161	5355.2375
2363.80768	5352.1375
2366.63195	5339.6375
2369.45444	5330.2375
2372.27514	5325.4375
2375.09405	5324.0375
2377.91118	5318.7375
2380.72652	5294.0375
2383.54009	5280.6375
2386.35187	5289.1375
2389.16188	5261.2375
2391.97011	5236.9375
2394.77657	5208.9375
2397.58125	5196.2375
2400.38416	5181.1375
2403.18529	5180.8375
2405.98466	5167.9375
2408.78226	5171.0375
2411.57809	5158.2375
2414.37216	5141.5375
2417.16446	5140.0375
2419.955	5123.2375
2422.74378	5100.6375
2425.5308	5103.8375
2428.31606	5089.6375
2431.09956	5106.5375
2433.88131	5093.7375
2436.6613	5088.2375
2439.43954	5075.8375
2442.21603	5065.9375
2444.99077	5060.7375
2447.76377	5068.0375
2450.53501	5059.5375
2453.30451	5055.2375
2456.07226	5035.8375
2458.83827	5040.4375
2461.60254	5009.1375
2464.36507	5018.4375
2467.12586	5011.6375
2469.88492	4992.7375
2472.64224	5000.3375
2475.39782	4989.9375
2478.15167	4982.9375
2480.90379	4994.2375
2483.65417	4975.8375
2486.40283	4976.0375
2489.14976	4978.8375
2491.89497	4960.3375
2494.63845	4966.6375
2497.3802	4949.8375
2500.12024	4949.2375
2502.85855	4922.2375
2505.59514	4923.8375
2508.33002	4921.1375
2511.06318	4904.9375
2513.79462	4881.9375
2516.52435	4877.0375
2519.25237	4854.8375
2521.97867	4858.0375
2524.70327	4834.1375
2527.42616	4826.7375
2530.14734	4830.8375
2532.86681	4817.3375
2535.58458	4796.1375
2538.30065	4796.4375
2541.01501	4799.1375
2543.72768	4778.4375
2546.43864	4774.2375
2549.14791	4761.8375
2551.85548	4746.7375
2554.56136	4745.8375
2557.26554	4732.8375
2559.96803	4737.2375
2562.66883	4707.6375
2565.36794	4701.3375
2568.06536	4701.1375
2570.7611	4697.2375
2573.45514	4662.6375
2576.14751	4670.0375
2578.83819	4641.5375
2581.52719	4642.9375
2584.21451	4635.1375
2586.90015	4641.6375
2589.58411	4615.2375
2592.2664	4627.8375
2594.94701	4596.6375
2597.62594	4586.3375
2600.30321	4563.4375
2602.9788	4552.9375
2605.65273	4543.5375
2608.32498	4552.4375
2610.99557	4508.8375
2613.66449	4525.0375
2616.33175	4513.4375
2618.99734	4506.3375
2621.66128	4508.7375
2624.32355	4487.3375
2626.98416	4481.2375
2629.64311	4474.6375
2632.30041	4479.4375
2634.95605	4467.4375
2637.61004	4461.9375
2640.26238	4438.1375
2642.91306	4432.4375
2645.56209	4436.8375
2648.20948	4428.2375
2650.85521	4412.9375
2653.4993	4407.7375
2656.14175	4393.7375
2658.78255	4421.2375
2661.42171	4403.1375
2664.05923	4415.0375
2666.6951	4399.0375
2669.32934	4401.9375
2671.96194	4391.7375
2674.59291	4399.6375
2677.22224	4391.0375
2679.84993	4380.9375
2682.476	4379.3375
2685.10043	4380.4375
2687.72324	4380.1375
2690.34441	4384.5375
2692.96396	4360.1375
2695.58188	4363.6375
2698.19818	4370.4375
2700.81285	4365.1375
2703.4259	4360.6375
2706.03733	4379.2375
2708.64714	4348.6375
2711.25533	4346.2375
2713.86191	4360.1375
2716.46687	4354.1375
2719.07021	4346.7375
2721.67194	4349.4375
2724.27206	4332.7375
2726.87057	4329.2375
2729.46747	4337.6375
2732.06276	4316.8375
2734.65644	4321.3375
2737.24852	4328.7375
2739.83899	4310.9375
2742.42786	4308.6375
2745.01513	4299.1375
2747.60079	4288.3375
2750.18486	4286.7375
2752.76733	4288.6375
2755.3482	4282.0375
2757.92747	4264.1375
2760.50515	4264.2375
2763.08123	4260.3375
2765.65573	4231.2375
2768.22863	4230.0375
2770.79994	4220.9375
2773.36967	4228.1375
2775.9378	4221.6375
2778.50435	4205.3375
2781.06932	4192.1375
2783.6327	4184.8375
2786.1945	4188.8375
2788.75471	4171.3375
2791.31335	4149.2375
2793.87041	4158.6375
2796.42589	4138.9375
2798.97979	4146.3375
2801.53212	4120.7375
2804.08288	4100.5375
2806.63206	4104.4375
2809.17967	4107.2375
2811.72571	4083.9375
2814.27018	4089.6375
2816.81308	4060.7375
2819.35442	4057.0375
2821.89419	4054.1375
2824.43239	4053.5375
2826.96904	4049.9375
2829.50412	4054.1375
2832.03763	4042.1375
2834.56959	4039.4375
2837.1	4041.6375
2839.62884	4041.4375
2842.15613	4035.7375
2844.68186	4061.1375
2847.20604	4041.0375
2849.72867	4051.4375
2852.24974	4023.2375
2854.76927	4029.3375
2857.28724	4021.2375
2859.80367	4014.8375
2862.31855	4011.1375
2864.83189	4016.4375
2867.34368	4003.9375
2869.85393	4005.7375
2872.36264	4010.2375
2874.8698	4012.0375
2877.37543	4000.3375
2879.87952	4002.0375
2882.38207	4001.6375
2884.88308	4002.4375
2887.38256	3987.2375
2889.88051	3989.2375
2892.37692	3989.0375
2894.8718	3981.6375
2897.36515	3980.5375
2899.85698	3971.4375
2902.34727	3988.9375
2904.83604	3967.5375
2907.32328	3988.2375
2909.809	3962.8375
2912.29319	3980.4375
2914.77587	3982.1375
2917.25702	3978.8375
2919.73665	3971.8375
2922.21476	3968.9375
2924.69136	3958.3375
2927.16644	3962.5375
2929.64	3948.1375
2932.11205	3963.0375
2934.58258	3942.6375
2937.05161	3949.9375
2939.51912	3934.7375
2941.98513	3926.3375
2944.44962	3922.5375
2946.91261	3902.2375
2949.37409	3910.1375
2951.83407	3894.0375
2954.29254	3891.7375
2956.74951	3894.8375
2959.20498	3893.3375
2961.65895	3878.9375
2964.11142	3881.6375
2966.56239	3864.5375
2969.01186	3862.7375
2971.45984	3864.9375
2973.90632	3869.4375
2976.35131	3854.2375
2978.7948	3849.8375
2981.23681	3827.1375
2983.67732	3832.3375
2986.11635	3800.4375
2988.55388	3800.0375
2990.98993	3804.7375
2993.4245	3783.3375
2995.85758	3782.0375
2998.28917	3784.6375
3000.71928	3766.1375
3003.14791	3764.9375
3005.57506	3763.6375
3008.00073	3760.0375
3010.42493	3768.5375
3012.84764	3756.5375
3015.26888	3754.7375
3017.68865	3732.3375
3020.10694	3736.3375
3022.52376	3721.2375
3024.9391	3727.3375
3027.35298	3720.5375
3029.76539	3721.9375
3032.17632	3699.8375
3034.5858	3702.2375
3036.9938	3699.0375
3039.40034	3705.3375
3041.80542	3684.4375
3044.20903	3695.4375
3046.61118	3688.0375
3049.01187	3662.5375
3051.4111	3666.6375
3053.80888	3662.7375
3056.20519	3667.4375
3058.60005	3657.1375
3060.99345	3642.7375
3063.3854	3648.2375
3065.7759	3640.0375
3068.16494	3639.5375
3070.55254	3641.7375
3072.93868	3647.0375
3075.32338	3641.2375
3077.70662	3626.9375
3080.08842	3627.6375
3082.46878	3629.2375
3084.84769	3629.3375
