Data from AgNPs_FTO_APTES_UA_5uM_R6G_10uM_NaF_0.1M_Addition_RamanShift__23__12-52-27-276.txt Node

Date: Fri Dec 17 12:52:27 GMT 2021
User: TCL
Spectrometer: QEP01345
Trigger mode: 4
Integration Time (sec): 7.000000E0
Scans to average: 10
Electric dark correction enabled: true
Nonlinearity correction enabled: false
Boxcar width: 0
XAxis mode: Raman Shifts
Number of Pixels in Spectrum: 1044
>>>>>Begin Spectral Data<<<<<
46.04893	-0.9875
50.45542	0.0125
54.85868	-2.6875
59.25871	-0.8875
63.6555	117.3125
68.04907	124.7125
72.43941	128.5125
76.82654	138.5125
81.21044	139.5125
85.59113	140.9125
89.96862	153.9125
94.34289	151.9125
98.71396	160.6125
103.08183	162.5125
107.4465	170.2125
111.80798	173.8125
116.16626	177.4125
120.52136	180.4125
124.87327	193.1125
129.222	200.0125
133.56755	213.6125
137.90993	227.1125
142.24913	251.0125
146.58517	275.0125
150.91804	313.1125
155.24774	370.9125
159.57429	457.1125
163.89768	587.3125
168.21792	769.4125
172.53501	1045.1125
176.84895	1446.0125
181.15975	2024.9125
185.46741	2832.1125
189.77193	3900.0125
194.07331	5221.5125
198.37157	6705.7125
202.6667	8297.8125
206.9587	9881.3125
211.24758	11386.1125
215.53334	12934.1125
219.81599	14585.5125
224.09553	16391.1125
228.37195	18456.1125
232.64527	20701.6125
236.91549	23114.8125
241.18261	25456.3125
245.44663	27654.0125
249.70755	29500.9125
253.96539	31179.9125
258.22014	32587.7125
262.4718	33749.3125
266.72039	34700.9125
270.96589	35264.2125
275.20832	35371.5125
279.44768	35187.1125
283.68397	34821.6125
287.91719	34484.7125
292.14735	34328.2125
296.37445	34382.8125
300.59849	34601.8125
304.81948	34974.0125
309.03742	35188.9125
313.25231	34991.6125
317.46415	34083.7125
321.67296	32862.4125
325.87872	31858.4125
330.08145	31400.7125
334.28114	31363.8125
338.47781	31706.5125
342.67145	32309.4125
346.86207	32972.9125
351.04966	33977.6125
355.23424	35043.7125
359.4158	35956.6125
363.59435	36608.7125
367.76989	36913.0125
371.94243	37092.4125
376.11196	37240.1125
380.27849	37373.2125
384.44203	37426.6125
388.60257	37496.5125
392.76012	37690.9125
396.91468	38101.9125
401.06626	38864.6125
405.21485	39406.7125
409.36047	39278.4125
413.50311	38491.4125
417.64277	37725.9125
421.77947	37483.7125
425.9132	37519.9125
430.04396	37675.4125
434.17176	37930.6125
438.2966	38313.5125
442.41849	38910.9125
446.53742	39726.1125
450.6534	40826.8125
454.76644	41668.0125
458.87653	42032.9125
462.98368	41953.4125
467.08789	41485.2125
471.18916	40716.2125
475.2875	39857.9125
479.38291	39187.8125
483.4754	38697.7125
487.56496	38197.5125
491.6516	37876.1125
495.73531	37614.9125
499.81612	37611.5125
503.89401	37814.9125
507.96899	38014.8125
512.04106	38168.1125
516.11023	38260.3125
520.1765	38266.8125
524.23987	38094.9125
528.30034	37796.9125
532.35792	37299.3125
536.41261	36839.5125
540.46441	36387.8125
544.51333	36316.0125
548.55936	36622.4125
552.60252	37218.6125
556.64279	37871.5125
560.6802	38221.8125
564.71473	38418.0125
568.7464	38975.7125
572.7752	39680.1125
576.80114	39905.9125
580.82422	40004.6125
584.84444	40197.9125
588.86181	40439.4125
592.87633	40724.7125
596.888	41208.4125
600.89682	42039.9125
604.9028	44531.9125
608.90594	50274.7125
612.90624	56535.1125
616.90371	53794.2125
620.89834	44036.7125
624.89015	39544.1125
628.87913	38771.7125
632.86528	38679.6125
636.84862	38565.3125
640.82913	38090.4125
644.80683	37034.0125
648.78172	36318.5125
652.75379	36300.7125
656.72306	36970.5125
660.68952	37884.6125
664.65319	37744.8125
668.61405	36948.2125
672.57211	36614.5125
676.52738	36602.7125
680.47986	36614.6125
684.42955	36463.9125
688.37646	36439.5125
692.32058	36605.6125
696.26192	37004.9125
700.20048	37357.6125
704.13626	37569.8125
708.06928	37414.4125
711.99952	37040.9125
715.927	36929.6125
719.85171	36966.9125
723.77365	36897.5125
727.69284	36524.7125
731.60928	36231.4125
735.52295	36171.8125
739.43388	36299.0125
743.34206	36470.0125
747.24749	36669.4125
751.15017	37030.0125
755.05012	37618.9125
758.94733	38659.2125
762.8418	40814.6125
766.73354	44203.1125
770.62254	47683.8125
774.50882	49002.5125
778.39237	46858.8125
782.27321	43009.7125
786.15132	39788.6125
790.02671	37865.4125
793.89938	36973.5125
797.76935	36624.3125
801.6366	36471.3125
805.50115	36393.3125
809.36299	36205.6125
813.22213	36001.2125
817.07857	35864.8125
820.93231	35810.8125
824.78336	35802.0125
828.63172	35884.8125
832.47738	35943.7125
836.32036	36038.6125
840.16066	36141.1125
843.99827	36142.3125
847.8332	36128.9125
851.66546	35992.9125
855.49504	35930.2125
859.32195	35879.4125
863.1462	35709.9125
866.96777	35597.6125
870.78668	35528.6125
874.60293	35566.2125
878.41652	35572.2125
882.22745	35728.1125
886.03573	35825.8125
889.84136	35813.4125
893.64433	35673.8125
897.44466	35465.7125
901.24235	35400.5125
905.0374	35305.1125
908.8298	35300.2125
912.61957	35365.4125
916.40671	35630.6125
920.19121	36016.7125
923.97308	36444.8125
927.75233	36717.2125
931.52895	36740.5125
935.30295	36358.8125
939.07433	35710.7125
942.84309	35215.1125
946.60924	35055.0125
950.37278	34922.8125
954.13371	34727.6125
957.89203	34459.3125
961.64774	34323.6125
965.40086	34215.1125
969.15137	34134.2125
972.89929	34058.1125
976.64461	34061.2125
980.38733	34193.7125
984.12747	34332.3125
987.86502	34698.2125
991.59999	35175.8125
995.33237	35828.2125
999.06217	36968.1125
1002.78939	38272.5125
1006.51404	39230.6125
1010.23611	39843.0125
1013.95561	40133.1125
1017.67255	40066.7125
1021.38692	39604.0125
1025.09872	39387.5125
1028.80796	39833.9125
1032.51465	40959.1125
1036.21877	42033.7125
1039.92035	42246.2125
1043.61937	41512.7125
1047.31584	40365.5125
1051.00976	38949.4125
1054.70114	38228.7125
1058.38998	38015.8125
1062.07627	38091.8125
1065.76003	38303.5125
1069.44126	38499.8125
1073.11995	38923.0125
1076.79611	39366.6125
1080.46974	39665.9125
1084.14085	39975.4125
1087.80943	40348.0125
1091.47549	40512.2125
1095.13903	40132.2125
1098.80005	39433.0125
1102.45857	38757.1125
1106.11456	38345.6125
1109.76805	38354.0125
1113.41903	38648.8125
1117.06751	39087.9125
1120.71348	39559.3125
1124.35696	40053.2125
1127.99793	40630.1125
1131.63641	40817.9125
1135.2724	40269.1125
1138.90589	39742.9125
1142.5369	39339.3125
1146.16542	39029.2125
1149.79145	38940.8125
1153.415	39072.5125
1157.03607	39470.5125
1160.65467	40100.2125
1164.27079	41328.1125
1167.88443	43099.9125
1171.49561	45559.2125
1175.10432	49070.5125
1178.71056	53516.1125
1182.31434	57763.4125
1185.91565	60207.3125
1189.51451	60369.0125
1193.11091	58312.4125
1196.70485	55174.2125
1200.29634	52267.4125
1203.88538	50064.0125
1207.47197	48275.4125
1211.05612	46790.1125
1214.63782	45890.1125
1218.21708	45734.4125
1221.79391	46015.8125
1225.36829	46272.1125
1228.94024	46312.6125
1232.50976	46147.6125
1236.07685	46040.9125
1239.6415	45846.7125
1243.20374	45656.7125
1246.76355	45776.0125
1250.32093	46288.3125
1253.8759	47300.2125
1257.42845	48582.6125
1260.97859	49884.0125
1264.52631	50911.6125
1268.07163	52069.0125
1271.61453	53445.3125
1275.15503	54918.9125
1278.69312	56419.7125
1282.22882	57511.3125
1285.76211	58404.3125
1289.29301	59215.1125
1292.82151	60251.0125
1296.34761	61566.7125
1299.87133	63779.4125
1303.39266	67053.4125
1306.9116	71686.3125
1310.42815	76764.3125
1313.94233	80277.1125
1317.45412	80683.5125
1320.96354	78841.9125
1324.47058	76389.7125
1327.97525	73941.2125
1331.47754	72260.2125
1334.97747	71769.7125
1338.47502	72149.6125
1341.97022	72807.4125
1345.46305	72921.3125
1348.95352	72753.6125
1352.44163	72919.5125
1355.92738	74692.1125
1359.41078	79002.0125
1362.89183	83473.3125
1366.37053	81981.6125
1369.84688	74299.8125
1373.32088	65914.8125
1376.79254	60248.1125
1380.26186	57610.1125
1383.72883	56481.1125
1387.19347	55497.7125
1390.65578	54453.0125
1394.11575	53867.9125
1397.57339	54036.1125
1401.0287	54873.9125
1404.48168	56012.1125
1407.93234	57305.3125
1411.38068	58126.5125
1414.82669	58057.1125
1418.27039	56865.6125
1421.71177	55153.9125
1425.15083	53606.4125
1428.58758	52767.1125
1432.02203	52488.5125
1435.45416	52883.5125
1438.88399	53385.3125
1442.31151	53864.4125
1445.73673	54189.5125
1449.15965	54668.4125
1452.58027	54795.6125
1455.9986	54679.1125
1459.41463	54680.4125
1462.82837	55281.1125
1466.23982	56289.4125
1469.64898	57440.0125
1473.05586	58300.9125
1476.46045	58773.2125
1479.86276	59041.1125
1483.26279	59293.6125
1486.66054	59766.5125
1490.05602	60491.4125
1493.44922	61310.2125
1496.84016	62249.7125
1500.22882	63512.6125
1503.61521	65650.4125
1506.99934	68458.0125
1510.38121	71431.9125
1513.76081	72788.5125
1517.13816	71288.7125
1520.51324	67421.8125
1523.88607	63346.9125
1527.25665	60370.9125
1530.62498	58598.1125
1533.99105	57637.6125
1537.35488	56902.3125
1540.71647	56467.1125
1544.07581	56026.9125
1547.4329	55608.8125
1550.78776	55164.4125
1554.14038	54963.8125
1557.49077	54890.8125
1560.83892	55111.5125
1564.18484	55157.4125
1567.52853	55132.7125
1570.86999	55184.8125
1574.20922	55420.6125
1577.54624	55654.3125
1580.88103	55283.0125
1584.2136	54862.8125
1587.54395	55553.9125
1590.87208	57652.7125
1594.19801	60968.6125
1597.52172	64435.0125
1600.84321	65860.1125
1604.16251	63844.3125
1607.47959	59874.1125
1610.79447	55540.7125
1614.10715	51469.8125
1617.41763	48133.5125
1620.7259	45934.7125
1624.03199	44844.6125
1627.33587	44896.2125
1630.63757	46058.8125
1633.93707	48390.6125
1637.23439	51669.3125
1640.52951	55617.7125
1643.82246	59701.7125
1647.11321	62638.7125
1650.40179	63151.2125
1653.68819	60104.0125
1656.97241	53896.9125
1660.25446	47502.7125
1663.53433	42768.5125
1666.81203	39733.0125
1670.08756	37891.3125
1673.36092	36678.1125
1676.63211	35903.3125
1679.90115	35331.9125
1683.16801	34845.6125
1686.43272	34587.8125
1689.69527	34327.1125
1692.95567	34138.4125
1696.2139	34004.9125
1699.46999	33945.3125
1702.72392	33902.4125
1705.97571	33871.5125
1709.22535	33785.3125
1712.47284	33741.3125
1715.71819	33758.5125
1718.96139	33693.9125
1722.20246	33626.9125
1725.44139	33519.2125
1728.67818	33361.4125
1731.91284	33147.1125
1735.14537	33060.7125
1738.37576	32909.1125
1741.60403	32787.6125
1744.83017	32710.6125
1748.05418	32638.3125
1751.27607	32579.5125
1754.49584	32524.8125
1757.71349	32511.9125
1760.92903	32435.1125
1764.14244	32492.1125
1767.35375	32501.7125
1770.56294	32443.7125
1773.77002	32408.9125
1776.97499	32367.9125
1780.17785	32312.8125
1783.37861	32276.5125
1786.57727	32262.3125
1789.77382	32241.5125
1792.96828	32178.6125
1796.16064	32165.3125
1799.3509	32116.4125
1802.53907	32102.9125
1805.72514	32052.6125
1808.90913	31974.5125
1812.09102	31913.1125
1815.27083	31872.8125
1818.44856	31810.6125
1821.6242	31804.2125
1824.79776	31793.9125
1827.96924	31773.0125
1831.13864	31798.8125
1834.30597	31797.8125
1837.47122	31794.3125
1840.6344	31793.6125
1843.7955	31822.8125
1846.95454	31834.0125
1850.11151	31810.3125
1853.26642	31858.1125
1856.41926	31868.5125
1859.57004	31939.6125
1862.71876	31913.0125
1865.86542	31915.8125
1869.01003	31916.0125
1872.15258	31947.5125
1875.29308	31931.0125
1878.43152	32002.4125
1881.56792	32004.0125
1884.70227	32051.7125
1887.83457	32082.9125
1890.96482	32065.4125
1894.09304	32089.5125
1897.21921	32079.5125
1900.34335	32080.8125
1903.46544	32083.8125
1906.58551	32087.9125
1909.70353	32123.0125
1912.81953	32086.3125
1915.93349	32066.6125
1919.04543	31984.3125
1922.15534	31928.2125
1925.26322	31841.1125
1928.36908	31779.8125
1931.47292	31632.5125
1934.57473	31460.7125
1937.67453	31378.4125
1940.77232	31186.4125
1943.86808	31108.1125
1946.96184	31008.4125
1950.05358	30884.9125
1953.14331	30761.7125
1956.23103	30655.0125
1959.31675	30533.5125
1962.40046	30466.6125
1965.48217	30372.4125
1968.56188	30276.7125
1971.63959	30217.1125
1974.7153	30100.1125
1977.78901	30017.6125
1980.86073	29910.9125
1983.93046	29829.1125
1986.99819	29721.4125
1990.06394	29661.8125
1993.1277	29570.5125
1996.18947	29471.9125
1999.24925	29359.9125
2002.30706	29298.3125
2005.36288	29233.9125
2008.41672	29179.8125
2011.46859	29119.6125
2014.51848	29040.4125
2017.56639	28972.3125
2020.61233	28933.4125
2023.6563	28870.5125
2026.6983	28811.5125
2029.73833	28764.9125
2032.7764	28660.1125
2035.8125	28629.6125
2038.84664	28594.9125
2041.87881	28565.9125
2044.90903	28571.2125
2047.93729	28530.7125
2050.96359	28529.6125
2053.98794	28446.6125
2057.01034	28401.1125
2060.03078	28348.5125
2063.04927	28336.8125
2066.06582	28320.0125
2069.08042	28301.2125
2072.09307	28263.5125
2075.10378	28292.6125
2078.11255	28194.0125
2081.11938	28197.9125
2084.12426	28143.2125
2087.12722	28140.3125
2090.12824	28131.4125
2093.12732	28157.1125
2096.12447	28173.6125
2099.11969	28150.3125
2102.11299	28191.5125
2105.10435	28185.9125
2108.09379	28224.7125
2111.08131	28210.9125
2114.0669	28225.1125
2117.05057	28244.8125
2120.03233	28246.4125
2123.01216	28315.7125
2125.99008	28347.7125
2128.96609	28339.9125
2131.94018	28389.0125
2134.91236	28373.5125
2137.88263	28416.9125
2140.851	28407.7125
2143.81746	28429.6125
2146.78201	28421.9125
2149.74466	28473.2125
2152.7054	28482.3125
2155.66425	28469.4125
2158.6212	28461.9125
2161.57625	28457.6125
2164.52941	28436.1125
2167.48067	28474.2125
2170.43004	28479.1125
2173.37752	28459.7125
2176.32311	28422.0125
2179.26681	28397.8125
2182.20863	28402.9125
2185.14856	28456.7125
2188.08661	28508.1125
2191.02278	28475.1125
2193.95707	28490.5125
2196.88948	28451.0125
2199.82001	28468.0125
2202.74867	28474.5125
2205.67545	28441.3125
2208.60037	28420.0125
2211.52341	28418.3125
2214.44458	28403.9125
2217.36388	28359.8125
2220.28132	28358.6125
2223.1969	28281.0125
2226.11061	28261.9125
2229.02246	28198.6125
2231.93245	28154.3125
2234.84058	28126.7125
2237.74686	28045.0125
2240.65128	28022.3125
2243.55385	27978.4125
2246.45456	27925.5125
2249.35343	27914.4125
2252.25044	27865.2125
2255.14561	27814.8125
2258.03893	27840.7125
2260.93041	27764.5125
2263.82004	27728.2125
2266.70783	27683.6125
2269.59378	27581.9125
2272.4779	27500.8125
2275.36017	27468.4125
2278.24061	27390.8125
2281.11922	27358.7125
2283.996	27327.2125
2286.87094	27328.9125
2289.74405	27292.3125
2292.61534	27271.1125
2295.4848	27290.5125
2298.35243	27261.2125
2301.21824	27275.1125
2304.08223	27311.1125
2306.94439	27319.5125
2309.80474	27329.8125
2312.66327	27402.1125
2315.51999	27353.2125
2318.37489	27320.7125
2321.22797	27343.3125
2324.07925	27331.3125
2326.92871	27282.3125
2329.77637	27248.3125
2332.62222	27225.1125
2335.46626	27254.1125
2338.3085	27219.7125
2341.14893	27264.3125
2343.98756	27264.2125
2346.8244	27275.5125
2349.65943	27273.3125
2352.49267	27277.2125
2355.32411	27276.3125
2358.15376	27230.1125
2360.98161	27219.4125
2363.80768	27174.2125
2366.63195	27164.4125
2369.45444	27072.8125
2372.27514	27080.3125
2375.09405	26982.8125
2377.91118	26942.2125
2380.72652	26840.2125
2383.54009	26735.8125
2386.35187	26789.5125
2389.16188	26668.4125
2391.97011	26696.0125
2394.77657	26611.1125
2397.58125	26623.6125
2400.38416	26549.6125
2403.18529	26503.0125
2405.98466	26473.2125
2408.78226	26397.2125
2411.57809	26367.1125
2414.37216	26344.6125
2417.16446	26323.1125
2419.955	26270.0125
2422.74378	26255.0125
2425.5308	26196.5125
2428.31606	26243.9125
2431.09956	26203.7125
2433.88131	26151.3125
2436.6613	26177.1125
2439.43954	26149.3125
2442.21603	26136.8125
2444.99077	26105.7125
2447.76377	26126.9125
2450.53501	26105.3125
2453.30451	26134.6125
2456.07226	26087.8125
2458.83827	26063.7125
2461.60254	26045.5125
2464.36507	26064.7125
2467.12586	26061.0125
2469.88492	26109.3125
2472.64224	26054.7125
2475.39782	26078.4125
2478.15167	26107.6125
2480.90379	26090.6125
2483.65417	26085.1125
2486.40283	26130.1125
2489.14976	26128.5125
2491.89497	26139.9125
2494.63845	26177.1125
2497.3802	26165.0125
2500.12024	26143.9125
2502.85855	26169.7125
2505.59514	26142.6125
2508.33002	26137.5125
2511.06318	26072.7125
2513.79462	26058.4125
2516.52435	26012.5125
2519.25237	25977.6125
2521.97867	26002.4125
2524.70327	26003.8125
2527.42616	25912.7125
2530.14734	25930.0125
2532.86681	25914.5125
2535.58458	25921.8125
2538.30065	25858.6125
2541.01501	25836.9125
2543.72768	25828.7125
2546.43864	25861.5125
2549.14791	25809.5125
2551.85548	25779.5125
2554.56136	25724.2125
2557.26554	25749.9125
2559.96803	25711.4125
2562.66883	25727.4125
2565.36794	25675.6125
2568.06536	25707.0125
2570.7611	25675.3125
2573.45514	25609.2125
2576.14751	25628.2125
2578.83819	25613.1125
2581.52719	25593.3125
2584.21451	25561.4125
2586.90015	25601.6125
2589.58411	25541.6125
2592.2664	25561.7125
2594.94701	25513.8125
2597.62594	25513.7125
2600.30321	25476.5125
2602.9788	25474.1125
2605.65273	25467.7125
2608.32498	25453.5125
2610.99557	25444.6125
2613.66449	25505.8125
2616.33175	25476.1125
2618.99734	25465.2125
2621.66128	25462.0125
2624.32355	25490.3125
2626.98416	25452.0125
2629.64311	25441.5125
2632.30041	25485.2125
2634.95605	25472.3125
2637.61004	25436.6125
2640.26238	25430.9125
2642.91306	25380.8125
2645.56209	25361.0125
2648.20948	25329.0125
2650.85521	25310.4125
2653.4993	25282.2125
2656.14175	25250.2125
2658.78255	25294.7125
2661.42171	25266.3125
2664.05923	25312.3125
2666.6951	25326.8125
2669.32934	25360.0125
2671.96194	25402.8125
2674.59291	25437.4125
2677.22224	25382.9125
2679.84993	25399.6125
2682.476	25355.0125
2685.10043	25366.7125
2687.72324	25317.9125
2690.34441	25319.0125
2692.96396	25318.7125
2695.58188	25333.5125
2698.19818	25294.9125
2700.81285	25295.8125
2703.4259	25235.9125
2706.03733	25318.1125
2708.64714	25282.9125
2711.25533	25291.3125
2713.86191	25308.3125
2716.46687	25322.1125
2719.07021	25313.6125
2721.67194	25315.0125
2724.27206	25309.3125
2726.87057	25335.0125
2729.46747	25358.9125
2732.06276	25372.0125
2734.65644	25367.0125
2737.24852	25364.7125
2739.83899	25306.7125
2742.42786	25325.1125
2745.01513	25326.2125
2747.60079	25306.1125
2750.18486	25318.4125
2752.76733	25313.9125
2755.3482	25286.3125
2757.92747	25301.6125
2760.50515	25274.3125
2763.08123	25246.4125
2765.65573	25206.3125
2768.22863	25187.2125
2770.79994	25162.9125
2773.36967	25209.9125
2775.9378	25175.5125
2778.50435	25142.2125
2781.06932	25108.3125
2783.6327	25116.4125
2786.1945	25123.3125
2788.75471	25076.3125
2791.31335	25016.4125
2793.87041	24973.0125
2796.42589	24931.9125
2798.97979	24934.7125
2801.53212	24882.3125
2804.08288	24839.6125
2806.63206	24781.0125
2809.17967	24763.4125
2811.72571	24742.2125
2814.27018	24765.1125
2816.81308	24724.5125
2819.35442	24695.4125
2821.89419	24640.8125
2824.43239	24697.9125
2826.96904	24678.0125
2829.50412	24633.6125
2832.03763	24611.5125
2834.56959	24599.6125
2837.1	24521.6125
2839.62884	24558.3125
2842.15613	24503.6125
2844.68186	24541.9125
2847.20604	24495.9125
2849.72867	24524.9125
2852.24974	24481.3125
2854.76927	24470.3125
2857.28724	24401.5125
2859.80367	24380.4125
2862.31855	24373.7125
2864.83189	24373.2125
2867.34368	24357.5125
2869.85393	24329.8125
2872.36264	24339.7125
2874.8698	24339.0125
2877.37543	24383.9125
2879.87952	24353.7125
2882.38207	24361.4125
2884.88308	24394.2125
2887.38256	24349.2125
2889.88051	24352.1125
2892.37692	24367.9125
2894.8718	24384.4125
2897.36515	24383.4125
2899.85698	24425.9125
2902.34727	24452.1125
2904.83604	24437.8125
2907.32328	24495.2125
2909.809	24465.1125
2912.29319	24494.0125
2914.77587	24486.5125
2917.25702	24476.8125
2919.73665	24433.2125
2922.21476	24428.7125
2924.69136	24433.8125
2927.16644	24405.0125
2929.64	24415.2125
2932.11205	24307.4125
2934.58258	24241.1125
2937.05161	24315.9125
2939.51912	24312.6125
2941.98513	24247.3125
2944.44962	24221.9125
2946.91261	24154.9125
2949.37409	24182.4125
2951.83407	24186.8125
2954.29254	24154.7125
2956.74951	24145.8125
2959.20498	24117.8125
2961.65895	24093.3125
2964.11142	24077.3125
2966.56239	23993.6125
2969.01186	23970.2125
2971.45984	23940.2125
2973.90632	23870.1125
2976.35131	23825.3125
2978.7948	23849.5125
2981.23681	23737.7125
2983.67732	23698.6125
2986.11635	23631.4125
2988.55388	23559.6125
2990.98993	23549.4125
2993.4245	23489.1125
2995.85758	23507.0125
2998.28917	23424.7125
3000.71928	23379.1125
3003.14791	23348.4125
3005.57506	23345.0125
3008.00073	23293.7125
3010.42493	23270.8125
3012.84764	23214.9125
3015.26888	23241.8125
3017.68865	23200.6125
3020.10694	23141.2125
3022.52376	23075.5125
