Data from AgNPs_FTO_APTES_UA_2uM_R6G_10uM_NaF_0.1M_Addition_RamanShift__22__12-09-17-226.txt Node

Date: Fri Dec 17 12:09:17 GMT 2021
User: TCL
Spectrometer: QEP01345
Trigger mode: 4
Integration Time (sec): 7.000000E0
Scans to average: 10
Electric dark correction enabled: true
Nonlinearity correction enabled: false
Boxcar width: 0
XAxis mode: Raman Shifts
Number of Pixels in Spectrum: 1044
>>>>>Begin Spectral Data<<<<<
46.04893	-1.825
50.45542	0.275
54.85868	-0.725
59.25871	0.375
63.6555	114.175
68.04907	125.375
72.43941	129.075
76.82654	135.875
81.21044	141.375
85.59113	142.475
89.96862	151.475
94.34289	159.575
98.71396	159.375
103.08183	164.775
107.4465	172.975
111.80798	174.975
116.16626	176.975
120.52136	183.075
124.87327	192.475
129.222	202.375
133.56755	209.175
137.90993	233.075
142.24913	248.675
146.58517	276.275
150.91804	321.575
155.24774	380.275
159.57429	470.775
163.89768	598.875
168.21792	791.075
172.53501	1070.275
176.84895	1479.375
181.15975	2071.875
185.46741	2904.375
189.77193	3990.175
194.07331	5344.275
198.37157	6886.975
202.6667	8515.275
206.9587	10128.775
211.24758	11705.575
215.53334	13284.375
219.81599	14945.675
224.09553	16832.375
228.37195	18946.475
232.64527	21230.375
236.91549	23668.475
241.18261	26068.375
245.44663	28251.975
249.70755	30235.575
253.96539	31906.175
258.22014	33317.275
262.4718	34564.375
266.72039	35521.475
270.96589	35989.875
275.20832	36071.175
279.44768	35763.875
283.68397	35414.175
287.91719	34943.975
292.14735	34807.575
296.37445	34802.875
300.59849	35049.575
304.81948	35373.275
309.03742	35571.175
313.25231	35328.475
317.46415	34481.575
321.67296	33381.275
325.87872	32355.375
330.08145	31926.975
334.28114	31934.675
338.47781	32277.175
342.67145	32754.675
346.86207	33499.775
351.04966	34386.575
355.23424	35493.275
359.4158	36470.575
363.59435	37084.775
367.76989	37477.775
371.94243	37673.175
376.11196	37780.075
380.27849	37922.075
384.44203	38000.075
388.60257	38099.675
392.76012	38249.775
396.91468	38696.575
401.06626	39398.575
405.21485	39979.375
409.36047	39803.475
413.50311	39065.975
417.64277	38297.175
421.77947	37985.875
425.9132	37998.975
430.04396	38169.975
434.17176	38397.975
438.2966	38715.075
442.41849	39360.475
446.53742	40262.275
450.6534	41349.475
454.76644	42194.675
458.87653	42595.675
462.98368	42523.475
467.08789	42063.675
471.18916	41261.275
475.2875	40444.775
479.38291	39803.875
483.4754	39396.275
487.56496	38990.775
491.6516	38582.375
495.73531	38244.075
499.81612	38167.575
503.89401	38381.275
507.96899	38529.575
512.04106	38722.275
516.11023	38801.375
520.1765	38804.475
524.23987	38692.475
528.30034	38344.975
532.35792	37909.875
536.41261	37424.275
540.46441	36930.475
544.51333	36796.775
548.55936	37126.775
552.60252	37695.075
556.64279	38274.775
560.6802	38633.875
564.71473	38800.375
568.7464	39395.875
572.7752	40028.175
576.80114	40168.675
580.82422	40299.175
584.84444	40604.175
588.86181	40824.375
592.87633	41223.875
596.888	41746.575
600.89682	42610.475
604.9028	45067.375
608.90594	50752.875
612.90624	56816.175
616.90371	54135.475
620.89834	44433.475
624.89015	40081.075
628.87913	39363.175
632.86528	39243.275
636.84862	39066.875
640.82913	38455.475
644.80683	37459.775
648.78172	36722.475
652.75379	36659.575
656.72306	37264.275
660.68952	38199.175
664.65319	38071.675
668.61405	37257.875
672.57211	36959.575
676.52738	36962.575
680.47986	36966.075
684.42955	36857.475
688.37646	36819.075
692.32058	36996.375
696.26192	37381.175
700.20048	37758.875
704.13626	37912.675
708.06928	37679.975
711.99952	37339.675
715.927	37210.775
719.85171	37214.375
723.77365	37141.575
727.69284	36776.275
731.60928	36463.175
735.52295	36384.575
739.43388	36497.275
743.34206	36695.775
747.24749	36835.075
751.15017	37128.075
755.05012	37656.675
758.94733	38779.575
762.8418	40785.275
766.73354	44176.875
770.62254	47565.275
774.50882	48904.575
778.39237	46877.775
782.27321	43142.075
786.15132	39921.175
790.02671	38090.675
793.89938	37212.475
797.76935	36856.975
801.6366	36714.175
805.50115	36580.075
809.36299	36384.375
813.22213	36172.975
817.07857	36045.075
820.93231	35970.275
824.78336	35959.675
828.63172	36027.575
832.47738	36138.175
836.32036	36251.675
840.16066	36325.075
843.99827	36479.575
847.8332	36451.675
851.66546	36249.775
855.49504	36158.475
859.32195	36056.075
863.1462	35976.375
866.96777	35816.375
870.78668	35733.575
874.60293	35695.375
878.41652	35753.375
882.22745	35855.575
886.03573	35996.775
889.84136	35954.675
893.64433	35831.375
897.44466	35655.575
901.24235	35539.775
905.0374	35482.075
908.8298	35448.875
912.61957	35516.675
916.40671	35709.375
920.19121	36137.475
923.97308	36596.575
927.75233	36911.475
931.52895	36952.975
935.30295	36632.775
939.07433	36010.075
942.84309	35485.975
946.60924	35246.375
950.37278	35093.175
954.13371	34877.275
957.89203	34584.975
961.64774	34484.575
965.40086	34397.675
969.15137	34287.575
972.89929	34183.175
976.64461	34209.675
980.38733	34315.175
984.12747	34480.775
987.86502	34845.875
991.59999	35376.675
995.33237	36145.075
999.06217	37306.975
1002.78939	38687.375
1006.51404	39625.775
1010.23611	40065.575
1013.95561	40392.875
1017.67255	40280.975
1021.38692	39792.075
1025.09872	39558.675
1028.80796	40104.075
1032.51465	41446.275
1036.21877	42722.375
1039.92035	42887.375
1043.61937	42202.475
1047.31584	40860.375
1051.00976	39381.275
1054.70114	38537.375
1058.38998	38201.875
1062.07627	38289.875
1065.76003	38436.275
1069.44126	38661.875
1073.11995	39089.875
1076.79611	39566.975
1080.46974	39850.275
1084.14085	40179.475
1087.80943	40565.075
1091.47549	40632.875
1095.13903	40279.975
1098.80005	39534.075
1102.45857	38854.575
1106.11456	38423.675
1109.76805	38431.075
1113.41903	38735.075
1117.06751	39160.675
1120.71348	39570.875
1124.35696	40070.875
1127.99793	40561.275
1131.63641	40791.875
1135.2724	40248.775
1138.90589	39710.775
1142.5369	39276.675
1146.16542	39024.175
1149.79145	38829.575
1153.415	38956.775
1157.03607	39255.575
1160.65467	39947.275
1164.27079	41071.575
1167.88443	42830.475
1171.49561	45260.775
1175.10432	48718.775
1178.71056	53250.675
1182.31434	57560.875
1185.91565	60008.975
1189.51451	60017.775
1193.11091	57905.875
1196.70485	54757.475
1200.29634	51875.375
1203.88538	49776.575
1207.47197	47975.775
1211.05612	46628.975
1214.63782	45824.775
1218.21708	45628.175
1221.79391	45881.175
1225.36829	46179.475
1228.94024	46120.375
1232.50976	45855.175
1236.07685	45492.775
1239.6415	45303.275
1243.20374	45208.275
1246.76355	45387.175
1250.32093	45976.975
1253.8759	46889.475
1257.42845	48229.375
1260.97859	49465.875
1264.52631	50568.575
1268.07163	51767.675
1271.61453	53162.375
1275.15503	54656.875
1278.69312	56146.775
1282.22882	57186.475
1285.76211	58030.675
1289.29301	58834.975
1292.82151	59888.675
1296.34761	61195.975
1299.87133	63440.475
1303.39266	66822.475
1306.9116	71449.675
1310.42815	76477.675
1313.94233	79892.875
1317.45412	80062.875
1320.96354	78059.475
1324.47058	75507.475
1327.97525	72941.375
1331.47754	71221.975
1334.97747	70606.075
1338.47502	70924.975
1341.97022	71519.975
1345.46305	71512.075
1348.95352	71184.975
1352.44163	71476.075
1355.92738	73339.275
1359.41078	77712.475
1362.89183	82246.075
1366.37053	81065.775
1369.84688	73538.075
1373.32088	65206.375
1376.79254	59488.675
1380.26186	56729.375
1383.72883	55612.575
1387.19347	54702.375
1390.65578	53721.775
1394.11575	53209.075
1397.57339	53371.375
1401.0287	54098.675
1404.48168	55138.875
1407.93234	56203.475
1411.38068	56987.275
1414.82669	56790.275
1418.27039	55775.875
1421.71177	54161.475
1425.15083	52696.075
1428.58758	51795.575
1432.02203	51684.275
1435.45416	51964.975
1438.88399	52569.075
1442.31151	53054.875
1445.73673	53454.075
1449.15965	53890.575
1452.58027	54078.275
1455.9986	53964.175
1459.41463	54029.275
1462.82837	54650.075
1466.23982	55624.775
1469.64898	56735.675
1473.05586	57515.175
1476.46045	57830.175
1479.86276	58102.775
1483.26279	58350.575
1486.66054	58760.875
1490.05602	59473.875
1493.44922	60311.075
1496.84016	61171.075
1500.22882	62384.775
1503.61521	64440.475
1506.99934	67145.075
1510.38121	70007.675
1513.76081	71281.275
1517.13816	69636.475
1520.51324	65811.575
1523.88607	61771.375
1527.25665	58931.375
1530.62498	57304.275
1533.99105	56301.375
1537.35488	55643.375
1540.71647	55177.075
1544.07581	54739.275
1547.4329	54353.675
1550.78776	53939.675
1554.14038	53724.975
1557.49077	53626.475
1560.83892	53788.875
1564.18484	53894.975
1567.52853	53889.875
1570.86999	54034.575
1574.20922	54353.075
1577.54624	54694.575
1580.88103	54451.275
1584.2136	54072.175
1587.54395	54739.675
1590.87208	56737.575
1594.19801	60001.975
1597.52172	63510.175
1600.84321	64783.175
1604.16251	62774.275
1607.47959	58714.275
1610.79447	54363.475
1614.10715	50319.175
1617.41763	46995.075
1620.7259	44790.475
1624.03199	43800.175
1627.33587	43951.875
1630.63757	45106.475
1633.93707	47379.975
1637.23439	50614.575
1640.52951	54490.675
1643.82246	58541.575
1647.11321	61639.575
1650.40179	62314.475
1653.68819	59222.575
1656.97241	53009.975
1660.25446	46662.475
1663.53433	42026.875
1666.81203	39065.775
1670.08756	37223.675
1673.36092	36013.175
1676.63211	35214.275
1679.90115	34609.575
1683.16801	34225.875
1686.43272	33919.375
1689.69527	33674.675
1692.95567	33464.875
1696.2139	33325.575
1699.46999	33289.175
1702.72392	33210.075
1705.97571	33168.475
1709.22535	33133.275
1712.47284	33193.575
1715.71819	33104.575
1718.96139	33081.575
1722.20246	32966.675
1725.44139	32855.975
1728.67818	32720.775
1731.91284	32532.075
1735.14537	32369.975
1738.37576	32273.375
1741.60403	32118.375
1744.83017	32049.475
1748.05418	32010.475
1751.27607	31916.375
1754.49584	31842.075
1757.71349	31845.375
1760.92903	31801.475
1764.14244	31803.875
1767.35375	31810.975
1770.56294	31796.275
1773.77002	31725.175
1776.97499	31716.675
1780.17785	31670.275
1783.37861	31686.675
1786.57727	31621.875
1789.77382	31539.875
1792.96828	31494.075
1796.16064	31508.875
1799.3509	31451.775
1802.53907	31438.775
1805.72514	31367.775
1808.90913	31281.975
1812.09102	31274.475
1815.27083	31213.975
1818.44856	31178.875
1821.6242	31118.275
1824.79776	31118.275
1827.96924	31102.675
1831.13864	31110.975
1834.30597	31125.175
1837.47122	31124.975
1840.6344	31133.075
1843.7955	31127.475
1846.95454	31131.875
1850.11151	31174.875
1853.26642	31148.775
1856.41926	31189.075
1859.57004	31164.475
1862.71876	31165.475
1865.86542	31190.575
1869.01003	31162.475
1872.15258	31200.075
1875.29308	31236.375
1878.43152	31246.075
1881.56792	31262.475
1884.70227	31244.575
1887.83457	31309.975
1890.96482	31297.975
1894.09304	31247.675
1897.21921	31316.475
1900.34335	31310.275
1903.46544	31283.475
1906.58551	31315.375
1909.70353	31257.575
1912.81953	31252.975
1915.93349	31213.875
1919.04543	31171.975
1922.15534	31058.875
1925.26322	30997.775
1928.36908	30906.975
1931.47292	30838.275
1934.57473	30727.975
1937.67453	30589.375
1940.77232	30469.575
1943.86808	30384.175
1946.96184	30266.575
1950.05358	30172.775
1953.14331	30043.275
1956.23103	29949.875
1959.31675	29859.675
1962.40046	29747.375
1965.48217	29658.675
1968.56188	29627.675
1971.63959	29567.075
1974.7153	29441.475
1977.78901	29372.975
1980.86073	29299.175
1983.93046	29145.975
1986.99819	29064.975
1990.06394	29018.575
1993.1277	28907.475
1996.18947	28781.475
1999.24925	28762.675
2002.30706	28635.975
2005.36288	28552.075
2008.41672	28489.375
2011.46859	28437.975
2014.51848	28342.775
2017.56639	28309.475
2020.61233	28224.775
2023.6563	28193.475
2026.6983	28145.075
2029.73833	28141.275
2032.7764	28009.975
2035.8125	28022.175
2038.84664	28000.275
2041.87881	27980.675
2044.90903	27908.575
2047.93729	27927.775
2050.96359	27878.175
2053.98794	27833.975
2057.01034	27787.775
2060.03078	27766.775
2063.04927	27772.075
2066.06582	27753.575
2069.08042	27718.275
2072.09307	27656.475
2075.10378	27632.875
2078.11255	27588.275
2081.11938	27591.175
2084.12426	27576.375
2087.12722	27508.875
2090.12824	27541.275
2093.12732	27546.275
2096.12447	27590.975
2099.11969	27552.275
2102.11299	27579.175
2105.10435	27555.275
2108.09379	27613.575
2111.08131	27618.775
2114.0669	27665.475
2117.05057	27689.075
2120.03233	27647.975
2123.01216	27685.475
2125.99008	27692.675
2128.96609	27758.175
2131.94018	27745.275
2134.91236	27751.975
2137.88263	27746.775
2140.851	27775.475
2143.81746	27836.475
2146.78201	27837.575
2149.74466	27844.575
2152.7054	27846.375
2155.66425	27910.575
2158.6212	27871.975
2161.57625	27841.175
2164.52941	27846.175
2167.48067	27837.775
2170.43004	27861.375
2173.37752	27832.875
2176.32311	27861.375
2179.26681	27854.275
2182.20863	27854.975
2185.14856	27844.575
2188.08661	27854.775
2191.02278	27914.775
2193.95707	27884.675
2196.88948	27897.675
2199.82001	27941.375
2202.74867	27874.675
2205.67545	27895.675
2208.60037	27879.075
2211.52341	27846.975
2214.44458	27831.475
2217.36388	27772.875
2220.28132	27763.475
2223.1969	27705.575
2226.11061	27699.875
2229.02246	27665.675
2231.93245	27619.775
2234.84058	27540.575
2237.74686	27481.075
2240.65128	27423.675
2243.55385	27389.875
2246.45456	27387.575
2249.35343	27355.075
2252.25044	27295.675
2255.14561	27318.075
2258.03893	27273.975
2260.93041	27171.275
2263.82004	27143.675
2266.70783	27133.175
2269.59378	27072.375
2272.4779	26994.775
2275.36017	26909.075
2278.24061	26907.075
2281.11922	26808.375
2283.996	26798.075
2286.87094	26780.875
2289.74405	26738.475
2292.61534	26731.375
2295.4848	26705.675
2298.35243	26797.675
2301.21824	26757.275
2304.08223	26798.875
2306.94439	26801.975
2309.80474	26784.875
2312.66327	26836.275
2315.51999	26859.875
2318.37489	26819.975
2321.22797	26851.175
2324.07925	26812.975
2326.92871	26792.675
2329.77637	26749.975
2332.62222	26733.075
2335.46626	26680.175
2338.3085	26727.975
2341.14893	26739.175
2343.98756	26799.875
2346.8244	26783.875
2349.65943	26819.975
2352.49267	26743.275
2355.32411	26789.675
2358.15376	26723.675
2360.98161	26682.975
2363.80768	26688.675
2366.63195	26609.175
2369.45444	26564.975
2372.27514	26483.575
2375.09405	26501.975
2377.91118	26398.275
2380.72652	26337.675
2383.54009	26302.775
2386.35187	26263.275
2389.16188	26189.675
2391.97011	26189.875
2394.77657	26119.975
2397.58125	26125.275
2400.38416	26093.975
2403.18529	26035.875
2405.98466	26013.875
2408.78226	25918.475
2411.57809	25872.275
2414.37216	25807.575
2417.16446	25781.875
2419.955	25743.475
2422.74378	25739.575
2425.5308	25703.475
2428.31606	25726.375
2431.09956	25644.675
2433.88131	25647.975
2436.6613	25665.775
2439.43954	25616.375
2442.21603	25639.175
2444.99077	25646.075
2447.76377	25651.975
2450.53501	25626.975
2453.30451	25640.675
2456.07226	25636.775
2458.83827	25598.275
2461.60254	25568.575
2464.36507	25592.975
2467.12586	25593.875
2469.88492	25555.375
2472.64224	25578.775
2475.39782	25591.975
2478.15167	25621.075
2480.90379	25572.775
2483.65417	25617.475
2486.40283	25641.775
2489.14976	25675.075
2491.89497	25678.875
2494.63845	25655.675
2497.3802	25704.975
2500.12024	25698.775
2502.85855	25683.775
2505.59514	25664.175
2508.33002	25615.075
2511.06318	25572.375
2513.79462	25513.575
2516.52435	25521.575
2519.25237	25546.275
2521.97867	25498.675
2524.70327	25468.375
2527.42616	25429.575
2530.14734	25403.775
2532.86681	25431.475
2535.58458	25390.375
2538.30065	25376.075
2541.01501	25364.875
2543.72768	25326.675
2546.43864	25326.575
2549.14791	25296.075
2551.85548	25262.575
2554.56136	25216.075
2557.26554	25234.775
2559.96803	25208.775
2562.66883	25181.475
2565.36794	25200.875
2568.06536	25177.975
2570.7611	25163.375
2573.45514	25098.975
2576.14751	25109.975
2578.83819	25087.975
2581.52719	25079.875
2584.21451	25078.575
2586.90015	25128.775
2589.58411	25101.075
2592.2664	25053.175
2594.94701	25055.775
2597.62594	25054.575
2600.30321	24996.475
2602.9788	25007.275
2605.65273	24964.475
2608.32498	24952.275
2610.99557	24996.675
2613.66449	25012.575
2616.33175	24960.675
2618.99734	25035.375
2621.66128	24980.875
2624.32355	25003.875
2626.98416	24992.875
2629.64311	24964.875
2632.30041	24988.975
2634.95605	24963.675
2637.61004	24944.775
2640.26238	24890.875
2642.91306	24883.975
2645.56209	24840.475
2648.20948	24835.375
2650.85521	24785.975
2653.4993	24832.675
2656.14175	24781.975
2658.78255	24760.375
2661.42171	24771.175
2664.05923	24808.175
2666.6951	24848.475
2669.32934	24856.975
2671.96194	24864.675
2674.59291	24873.475
2677.22224	24832.675
2679.84993	24875.175
2682.476	24845.275
2685.10043	24846.175
2687.72324	24818.575
2690.34441	24780.075
2692.96396	24793.775
2695.58188	24819.875
2698.19818	24777.575
2700.81285	24779.575
2703.4259	24700.875
2706.03733	24766.375
2708.64714	24748.275
2711.25533	24790.375
2713.86191	24757.575
2716.46687	24796.975
2719.07021	24766.375
2721.67194	24801.675
2724.27206	24740.775
2726.87057	24786.675
2729.46747	24773.675
2732.06276	24812.075
2734.65644	24806.875
2737.24852	24832.175
2739.83899	24761.675
2742.42786	24787.575
2745.01513	24777.775
2747.60079	24786.975
2750.18486	24764.575
2752.76733	24729.475
2755.3482	24754.775
2757.92747	24748.875
2760.50515	24703.275
2763.08123	24728.475
2765.65573	24671.675
2768.22863	24667.775
2770.79994	24657.075
2773.36967	24678.575
2775.9378	24624.375
2778.50435	24613.275
2781.06932	24593.475
2783.6327	24589.175
2786.1945	24554.375
2788.75471	24564.975
2791.31335	24518.075
2793.87041	24435.075
2796.42589	24419.675
2798.97979	24408.675
2801.53212	24331.075
2804.08288	24323.575
2806.63206	24269.375
2809.17967	24254.175
2811.72571	24224.875
2814.27018	24213.075
2816.81308	24212.575
2819.35442	24188.675
2821.89419	24123.675
2824.43239	24135.275
2826.96904	24137.575
2829.50412	24152.275
2832.03763	24056.375
2834.56959	24066.875
2837.1	23970.275
2839.62884	24056.775
2842.15613	23981.375
2844.68186	23997.175
2847.20604	24005.175
2849.72867	24008.975
2852.24974	23993.575
2854.76927	23921.275
2857.28724	23915.575
2859.80367	23866.275
2862.31855	23840.975
2864.83189	23860.675
2867.34368	23828.275
2869.85393	23856.875
2872.36264	23822.975
2874.8698	23835.275
2877.37543	23851.175
2879.87952	23866.875
2882.38207	23906.575
2884.88308	23878.775
2887.38256	23912.075
2889.88051	23907.475
2892.37692	23896.075
2894.8718	23886.675
2897.36515	23922.075
2899.85698	23934.275
2902.34727	23981.575
2904.83604	23997.975
2907.32328	24024.175
2909.809	24010.775
2912.29319	24020.675
2914.77587	24026.175
2917.25702	24027.475
2919.73665	23966.075
2922.21476	23966.975
2924.69136	23953.975
2927.16644	23925.875
2929.64	23883.875
2932.11205	23845.375
2934.58258	23744.775
2937.05161	23821.575
2939.51912	23821.975
2941.98513	23765.075
2944.44962	23749.475
2946.91261	23633.475
2949.37409	23708.475
2951.83407	23711.375
2954.29254	23674.975
2956.74951	23640.275
2959.20498	23637.175
2961.65895	23568.675
2964.11142	23534.975
2966.56239	23480.575
2969.01186	23462.275
2971.45984	23394.075
2973.90632	23335.475
2976.35131	23282.275
2978.7948	23321.975
2981.23681	23229.575
2983.67732	23204.275
2986.11635	23142.175
2988.55388	23059.875
2990.98993	23019.375
2993.4245	23011.675
2995.85758	22961.575
2998.28917	22905.275
3000.71928	22878.475
3003.14791	22849.975
3005.57506	22864.275
3008.00073	22811.775
3010.42493	22771.475
3012.84764	22705.475
3015.26888	22708.575
3017.68865	22682.175
3020.10694	22682.275
3022.52376	22577.675
3024.9391	22511.475
3027.35298	22521.775
3029.76539	22495.275
3032.17632	22429.375
3034.5858	22358.675
3036.9938	22398.875
3039.40034	22366.975
3041.80542	22342.975
3044.20903	22333.875
3046.61118	22303.875
3049.01187	22212.075
3051.4111	22203.675
3053.80888	22137.675
3056.20519	22131.575
3058.60005	22047.575
3060.99345	22032.975
3063.3854	21999.675
3065.7759	21917.275
3068.16494	21881.175
3070.55254	21824.575
3072.93868	21744.275
3075.32338	21701.075
3077.70662	21692.575
3080.08842	21623.275
3082.46878	21623.075
3084.84769	21562.975
3087.22515	21567.475
3089.60118	21549.775
3091.97576	21519.075
3094.3489	21512.775
3096.72061	21514.475
3099.09087	21504.775
3101.4597	21484.575
3103.82709	21480.975
3106.19305	21401.775
3108.55757	21382.475
3110.92066	21294.675
3113.28232	21286.775
3115.64255	21248.975
3118.00134	21172.875
3120.35871	21172.075
3122.71466	21144.075
3125.06917	21095.975
3127.42226	21052.975
