Data from AgNPs_FTO_APTES_UA_100uM_R6G_10uM_NaF_0.1M_Addition_RamanShift__32__15-54-27-483.txt Node

Date: Fri Dec 17 15:54:27 GMT 2021
User: TCL
Spectrometer: QEP01345
Trigger mode: 4
Integration Time (sec): 7.000000E0
Scans to average: 10
Electric dark correction enabled: true
Nonlinearity correction enabled: false
Boxcar width: 0
XAxis mode: Raman Shifts
Number of Pixels in Spectrum: 1044
>>>>>Begin Spectral Data<<<<<
46.04893	-0.775
50.45542	0.725
54.85868	-0.175
59.25871	0.325
63.6555	44.225
68.04907	49.625
72.43941	51.425
76.82654	56.125
81.21044	59.325
85.59113	58.625
89.96862	64.725
94.34289	68.425
98.71396	68.525
103.08183	68.725
107.4465	69.125
111.80798	71.225
116.16626	72.125
120.52136	69.325
124.87327	77.125
129.222	77.725
133.56755	77.725
137.90993	84.925
142.24913	84.825
146.58517	95.725
150.91804	99.325
155.24774	117.925
159.57429	139.025
163.89768	174.925
168.21792	223.325
172.53501	289.425
176.84895	398.225
181.15975	551.025
185.46741	758.625
189.77193	1053.525
194.07331	1396.425
198.37157	1795.925
202.6667	2217.725
206.9587	2626.525
211.24758	3061.925
215.53334	3475.725
219.81599	3933.525
224.09553	4448.725
228.37195	5027.825
232.64527	5659.625
236.91549	6315.125
241.18261	6932.725
245.44663	7439.425
249.70755	7893.625
253.96539	8247.525
258.22014	8580.325
262.4718	8857.625
266.72039	9100.525
270.96589	9226.425
275.20832	9223.025
279.44768	9118.425
283.68397	8943.925
287.91719	8779.425
292.14735	8760.825
296.37445	8862.625
300.59849	9118.025
304.81948	9439.625
309.03742	9624.225
313.25231	9573.725
317.46415	9171.725
321.67296	8608.625
325.87872	8119.925
330.08145	7908.325
334.28114	7882.825
338.47781	8004.125
342.67145	8196.325
346.86207	8488.025
351.04966	8901.625
355.23424	9353.925
359.4158	9726.425
363.59435	9980.025
367.76989	10096.925
371.94243	10158.125
376.11196	10200.825
380.27849	10188.625
384.44203	10133.825
388.60257	10034.125
392.76012	9964.825
396.91468	10023.425
401.06626	10215.825
405.21485	10337.325
409.36047	10173.825
413.50311	9740.725
417.64277	9283.725
421.77947	8980.525
425.9132	8856.425
430.04396	8821.925
434.17176	8832.125
438.2966	8906.425
442.41849	9055.925
446.53742	9198.725
450.6534	9334.525
454.76644	9456.125
458.87653	9455.525
462.98368	9458.525
467.08789	9380.125
471.18916	9263.725
475.2875	9122.225
479.38291	9019.825
483.4754	8919.525
487.56496	8847.725
491.6516	8841.725
495.73531	8840.225
499.81612	8864.525
503.89401	8918.625
507.96899	9059.525
512.04106	9160.425
516.11023	9356.925
520.1765	9493.225
524.23987	9456.125
528.30034	9325.625
532.35792	9164.525
536.41261	8994.225
540.46441	8826.225
544.51333	8727.725
548.55936	8717.125
552.60252	8825.125
556.64279	8988.825
560.6802	9039.325
564.71473	9114.025
568.7464	9356.825
572.7752	9488.825
576.80114	9262.825
580.82422	9008.225
584.84444	8857.225
588.86181	8819.725
592.87633	8848.625
596.888	8926.125
600.89682	9214.125
604.9028	10114.025
608.90594	12555.025
612.90624	15848.025
616.90371	15492.425
620.89834	11463.325
624.89015	9499.925
628.87913	9202.125
632.86528	9302.525
636.84862	9503.225
640.82913	9440.725
644.80683	9091.925
648.78172	8808.925
652.75379	8726.325
656.72306	8957.325
660.68952	9272.025
664.65319	9173.425
668.61405	8774.625
672.57211	8604.425
676.52738	8585.125
680.47986	8583.625
684.42955	8550.825
688.37646	8503.925
692.32058	8534.325
696.26192	8573.325
700.20048	8636.325
704.13626	8665.525
708.06928	8666.325
711.99952	8613.125
715.927	8623.025
719.85171	8624.925
723.77365	8647.025
727.69284	8625.125
731.60928	8577.125
735.52295	8536.425
739.43388	8554.425
743.34206	8590.225
747.24749	8571.125
751.15017	8589.725
755.05012	8696.225
758.94733	8974.125
762.8418	9645.625
766.73354	10921.525
770.62254	12407.925
774.50882	13421.425
778.39237	12991.325
782.27321	11457.325
786.15132	9986.925
790.02671	9150.425
793.89938	8770.725
797.76935	8612.525
801.6366	8541.725
805.50115	8560.025
809.36299	8590.225
813.22213	8610.025
817.07857	8580.325
820.93231	8535.925
824.78336	8491.125
828.63172	8487.225
832.47738	8438.625
836.32036	8423.125
840.16066	8373.725
843.99827	8328.625
847.8332	8311.825
851.66546	8327.825
855.49504	8334.325
859.32195	8314.425
863.1462	8270.325
866.96777	8281.525
870.78668	8288.225
874.60293	8315.625
878.41652	8372.925
882.22745	8431.625
886.03573	8500.925
889.84136	8503.325
893.64433	8436.825
897.44466	8375.425
901.24235	8335.825
905.0374	8274.225
908.8298	8214.325
912.61957	8169.525
916.40671	8183.425
920.19121	8210.025
923.97308	8239.325
927.75233	8268.825
931.52895	8341.925
935.30295	8332.525
939.07433	8183.825
942.84309	8040.225
946.60924	7912.825
950.37278	7853.325
954.13371	7797.925
957.89203	7772.325
961.64774	7741.625
965.40086	7742.425
969.15137	7704.425
972.89929	7695.525
976.64461	7691.425
980.38733	7668.525
984.12747	7692.025
987.86502	7676.425
991.59999	7714.225
995.33237	7759.425
999.06217	7814.425
1002.78939	7892.225
1006.51404	8027.525
1010.23611	8169.225
1013.95561	8281.525
1017.67255	8270.125
1021.38692	8211.825
1025.09872	8130.825
1028.80796	8047.525
1032.51465	8032.625
1036.21877	8031.525
1039.92035	8041.725
1043.61937	8070.825
1047.31584	8071.225
1051.00976	8065.825
1054.70114	8082.225
1058.38998	8075.025
1062.07627	8093.225
1065.76003	8120.425
1069.44126	8157.025
1073.11995	8211.225
1076.79611	8268.825
1080.46974	8373.225
1084.14085	8472.425
1087.80943	8657.725
1091.47549	8733.725
1095.13903	8626.725
1098.80005	8410.225
1102.45857	8222.625
1106.11456	8162.825
1109.76805	8218.425
1113.41903	8394.325
1117.06751	8608.125
1120.71348	8916.225
1124.35696	9222.925
1127.99793	9544.525
1131.63641	9620.025
1135.2724	9346.525
1138.90589	8971.925
1142.5369	8698.425
1146.16542	8485.425
1149.79145	8318.925
1153.415	8233.425
1157.03607	8203.825
1160.65467	8267.925
1164.27079	8441.925
1167.88443	8728.925
1171.49561	9217.125
1175.10432	10085.425
1178.71056	11305.925
1182.31434	12362.225
1185.91565	12664.225
1189.51451	12320.825
1193.11091	11531.025
1196.70485	10689.925
1200.29634	10144.625
1203.88538	9795.125
1207.47197	9383.625
1211.05612	8952.725
1214.63782	8687.825
1218.21708	8519.925
1221.79391	8452.125
1225.36829	8432.525
1228.94024	8411.225
1232.50976	8450.925
1236.07685	8486.925
1239.6415	8512.725
1243.20374	8558.625
1246.76355	8605.625
1250.32093	8671.525
1253.8759	8759.025
1257.42845	8938.925
1260.97859	9074.825
1264.52631	9276.725
1268.07163	9469.225
1271.61453	9622.525
1275.15503	9767.325
1278.69312	9766.025
1282.22882	9718.925
1285.76211	9773.425
1289.29301	10002.625
1292.82151	10273.225
1296.34761	10543.625
1299.87133	11030.025
1303.39266	11758.725
1306.9116	12979.025
1310.42815	14309.725
1313.94233	15150.225
1317.45412	14803.325
1320.96354	13754.725
1324.47058	12624.925
1327.97525	11585.725
1331.47754	10885.325
1334.97747	10622.225
1338.47502	10613.025
1341.97022	10845.925
1345.46305	11328.025
1348.95352	12134.925
1352.44163	13229.625
1355.92738	14722.425
1359.41078	16940.325
1362.89183	19286.025
1366.37053	19248.525
1369.84688	16495.025
1373.32088	13485.925
1376.79254	11488.925
1380.26186	10514.225
1383.72883	10023.325
1387.19347	9684.025
1390.65578	9312.825
1394.11575	9012.625
1397.57339	8747.925
1401.0287	8671.225
1404.48168	8633.325
1407.93234	8667.725
1411.38068	8675.925
1414.82669	8751.425
1418.27039	8756.325
1421.71177	8717.825
1425.15083	8624.425
1428.58758	8522.325
1432.02203	8519.125
1435.45416	8538.425
1438.88399	8579.925
1442.31151	8580.925
1445.73673	8599.525
1449.15965	8643.425
1452.58027	8620.725
1455.9986	8554.725
1459.41463	8516.225
1462.82837	8542.325
1466.23982	8674.425
1469.64898	8829.025
1473.05586	8948.425
1476.46045	9037.725
1479.86276	9208.325
1483.26279	9428.425
1486.66054	9677.025
1490.05602	9977.625
1493.44922	10439.625
1496.84016	11171.525
1500.22882	12330.225
1503.61521	13949.425
1506.99934	15839.325
1510.38121	17647.625
1513.76081	18349.925
1517.13816	17490.425
1520.51324	15355.625
1523.88607	13148.225
1527.25665	11576.625
1530.62498	10652.925
1533.99105	10174.125
1537.35488	9853.325
1540.71647	9689.825
1544.07581	9649.125
1547.4329	9684.525
1550.78776	9719.125
1554.14038	9779.825
1557.49077	9896.525
1560.83892	10032.625
1564.18484	10294.025
1567.52853	10613.925
1570.86999	10896.325
1574.20922	11131.225
1577.54624	11153.325
1580.88103	10675.625
1584.2136	9934.225
1587.54395	9384.825
1590.87208	9247.125
1594.19801	9466.325
1597.52172	9908.025
1600.84321	10139.425
1604.16251	9953.425
1607.47959	9555.225
1610.79447	9167.125
1614.10715	8782.725
1617.41763	8380.725
1620.7259	8124.625
1624.03199	7982.825
1627.33587	7956.225
1630.63757	8019.625
1633.93707	8188.125
1637.23439	8539.925
1640.52951	9065.625
1643.82246	9931.525
1647.11321	11152.025
1650.40179	12358.925
1653.68819	12519.025
1656.97241	11330.225
1660.25446	9771.725
1663.53433	8610.125
1666.81203	7903.925
1670.08756	7535.225
1673.36092	7277.925
1676.63211	7118.425
1679.90115	7014.025
1683.16801	6901.925
1686.43272	6853.325
1689.69527	6810.225
1692.95567	6785.225
1696.2139	6754.625
1699.46999	6736.025
1702.72392	6719.525
1705.97571	6691.625
1709.22535	6634.325
1712.47284	6637.825
1715.71819	6628.025
1718.96139	6621.925
1722.20246	6569.325
1725.44139	6539.525
1728.67818	6506.425
1731.91284	6469.125
1735.14537	6430.425
1738.37576	6423.625
1741.60403	6403.725
1744.83017	6370.325
1748.05418	6362.425
1751.27607	6347.525
1754.49584	6324.525
1757.71349	6329.725
1760.92903	6319.425
1764.14244	6309.925
1767.35375	6317.025
1770.56294	6280.025
1773.77002	6274.925
1776.97499	6264.325
1780.17785	6234.625
1783.37861	6228.625
1786.57727	6197.025
1789.77382	6173.025
1792.96828	6151.225
1796.16064	6156.325
1799.3509	6173.625
1802.53907	6153.925
1805.72514	6117.525
1808.90913	6095.625
1812.09102	6088.625
1815.27083	6074.325
1818.44856	6050.625
1821.6242	6045.325
1824.79776	6026.425
1827.96924	6014.625
1831.13864	6007.925
1834.30597	6018.825
1837.47122	6008.225
1840.6344	6007.425
1843.7955	5987.125
1846.95454	5980.325
1850.11151	5984.825
1853.26642	5970.525
1856.41926	5964.225
1859.57004	5967.825
1862.71876	5959.925
1865.86542	5954.525
1869.01003	5969.925
1872.15258	5937.925
1875.29308	5928.425
1878.43152	5921.125
1881.56792	5925.425
1884.70227	5900.825
1887.83457	5903.325
1890.96482	5904.825
1894.09304	5904.625
1897.21921	5898.925
1900.34335	5889.525
1903.46544	5876.025
1906.58551	5883.725
1909.70353	5869.125
1912.81953	5861.225
1915.93349	5853.725
1919.04543	5847.125
1922.15534	5802.525
1925.26322	5812.325
1928.36908	5807.925
1931.47292	5788.125
1934.57473	5768.025
1937.67453	5753.225
1940.77232	5740.725
1943.86808	5726.625
1946.96184	5711.825
1950.05358	5694.425
1953.14331	5686.225
1956.23103	5674.825
1959.31675	5647.825
1962.40046	5629.725
1965.48217	5623.025
1968.56188	5602.525
1971.63959	5603.925
1974.7153	5578.225
1977.78901	5557.825
1980.86073	5534.925
1983.93046	5527.725
1986.99819	5486.425
1990.06394	5471.925
1993.1277	5460.025
1996.18947	5445.225
1999.24925	5439.025
2002.30706	5412.525
2005.36288	5398.125
2008.41672	5384.725
2011.46859	5371.425
2014.51848	5342.025
2017.56639	5331.325
2020.61233	5304.825
2023.6563	5310.225
2026.6983	5297.325
2029.73833	5262.525
2032.7764	5242.025
2035.8125	5239.025
2038.84664	5221.825
2041.87881	5226.225
2044.90903	5217.725
2047.93729	5200.025
2050.96359	5210.625
2053.98794	5190.925
2057.01034	5177.625
2060.03078	5166.825
2063.04927	5167.525
2066.06582	5162.325
2069.08042	5156.925
2072.09307	5148.925
2075.10378	5164.825
2078.11255	5136.325
2081.11938	5136.425
2084.12426	5139.825
2087.12722	5122.525
2090.12824	5138.825
2093.12732	5136.525
2096.12447	5134.725
2099.11969	5126.825
2102.11299	5129.425
2105.10435	5127.325
2108.09379	5127.125
2111.08131	5138.125
2114.0669	5143.925
2117.05057	5122.825
2120.03233	5148.925
2123.01216	5142.025
2125.99008	5138.625
2128.96609	5148.425
2131.94018	5167.925
2134.91236	5163.925
2137.88263	5161.625
2140.851	5165.525
2143.81746	5170.425
2146.78201	5153.925
2149.74466	5164.025
2152.7054	5164.725
2155.66425	5147.325
2158.6212	5143.325
2161.57625	5139.125
2164.52941	5148.825
2167.48067	5141.325
2170.43004	5122.125
2173.37752	5126.525
2176.32311	5139.825
2179.26681	5128.625
2182.20863	5128.725
2185.14856	5119.225
2188.08661	5108.525
2191.02278	5112.225
2193.95707	5097.225
2196.88948	5093.925
2199.82001	5112.125
2202.74867	5077.725
2205.67545	5083.125
2208.60037	5076.025
2211.52341	5074.125
2214.44458	5053.025
2217.36388	5039.825
2220.28132	5033.025
2223.1969	5015.425
2226.11061	5020.825
2229.02246	4996.125
2231.93245	4985.425
2234.84058	4981.025
2237.74686	4971.525
2240.65128	4978.525
2243.55385	4973.025
2246.45456	4959.525
2249.35343	4938.725
2252.25044	4944.225
2255.14561	4941.725
2258.03893	4940.125
2260.93041	4941.725
2263.82004	4912.125
2266.70783	4923.025
2269.59378	4894.025
2272.4779	4901.225
2275.36017	4881.025
2278.24061	4880.725
2281.11922	4859.025
2283.996	4830.725
2286.87094	4853.125
2289.74405	4820.525
2292.61534	4809.525
2295.4848	4795.425
2298.35243	4810.925
2301.21824	4783.325
2304.08223	4782.525
2306.94439	4773.925
2309.80474	4784.525
2312.66327	4772.125
2315.51999	4765.625
2318.37489	4780.025
2321.22797	4751.725
2324.07925	4759.525
2326.92871	4743.125
2329.77637	4740.825
2332.62222	4732.825
2335.46626	4740.625
2338.3085	4723.325
2341.14893	4720.925
2343.98756	4700.225
2346.8244	4705.125
2349.65943	4705.025
2352.49267	4706.025
2355.32411	4704.425
2358.15376	4731.025
2360.98161	4710.325
2363.80768	4722.725
2366.63195	4705.725
2369.45444	4710.625
2372.27514	4719.425
2375.09405	4715.625
2377.91118	4684.125
2380.72652	4665.425
2383.54009	4677.025
2386.35187	4641.825
2389.16188	4632.025
2391.97011	4607.725
2394.77657	4608.125
2397.58125	4582.025
2400.38416	4591.025
2403.18529	4561.925
2405.98466	4559.825
2408.78226	4541.625
2411.57809	4521.325
2414.37216	4539.925
2417.16446	4531.225
2419.955	4533.725
2422.74378	4527.725
2425.5308	4502.625
2428.31606	4510.625
2431.09956	4508.525
2433.88131	4504.425
2436.6613	4493.625
2439.43954	4489.925
2442.21603	4482.825
2444.99077	4480.125
2447.76377	4482.025
2450.53501	4476.325
2453.30451	4488.025
2456.07226	4474.425
2458.83827	4459.025
2461.60254	4473.125
2464.36507	4465.425
2467.12586	4436.425
2469.88492	4443.125
2472.64224	4450.825
2475.39782	4444.225
2478.15167	4463.825
2480.90379	4458.525
2483.65417	4451.025
2486.40283	4443.725
2489.14976	4450.025
2491.89497	4451.525
2494.63845	4471.025
2497.3802	4453.325
2500.12024	4442.125
2502.85855	4436.225
2505.59514	4433.425
2508.33002	4418.325
2511.06318	4409.525
2513.79462	4378.725
2516.52435	4365.825
2519.25237	4360.325
2521.97867	4344.825
2524.70327	4319.825
2527.42616	4329.325
2530.14734	4317.125
2532.86681	4300.425
2535.58458	4291.625
2538.30065	4289.925
2541.01501	4289.825
2543.72768	4262.525
2546.43864	4280.025
2549.14791	4257.425
2551.85548	4276.425
2554.56136	4280.025
2557.26554	4263.225
2559.96803	4265.225
2562.66883	4259.025
2565.36794	4235.825
2568.06536	4233.125
2570.7611	4218.225
2573.45514	4220.325
2576.14751	4209.225
2578.83819	4208.725
2581.52719	4194.425
2584.21451	4174.525
2586.90015	4171.225
2589.58411	4146.025
2592.2664	4148.625
2594.94701	4145.525
2597.62594	4148.025
2600.30321	4116.125
2602.9788	4114.325
2605.65273	4114.725
2608.32498	4119.525
2610.99557	4105.025
2613.66449	4097.225
2616.33175	4090.025
2618.99734	4095.525
2621.66128	4087.625
2624.32355	4085.925
2626.98416	4077.725
2629.64311	4092.725
2632.30041	4091.225
2634.95605	4053.325
2637.61004	4047.225
2640.26238	4041.625
2642.91306	4033.525
2645.56209	4034.225
2648.20948	4011.125
2650.85521	4013.625
2653.4993	4035.325
2656.14175	4016.925
2658.78255	4019.525
2661.42171	4020.125
2664.05923	4031.025
2666.6951	4016.625
2669.32934	4019.725
2671.96194	4025.525
2674.59291	4029.725
2677.22224	4030.325
2679.84993	4036.225
2682.476	4042.425
2685.10043	4027.125
2687.72324	4012.325
2690.34441	4023.925
2692.96396	4016.525
2695.58188	4010.325
2698.19818	4004.325
2700.81285	4024.025
2703.4259	4011.625
2706.03733	4015.825
2708.64714	4020.625
2711.25533	4019.725
2713.86191	4012.225
2716.46687	4020.325
2719.07021	4015.325
2721.67194	4019.925
2724.27206	3989.625
2726.87057	4008.725
2729.46747	4011.325
2732.06276	3997.525
2734.65644	4010.625
2737.24852	3992.525
2739.83899	3979.325
2742.42786	3981.025
2745.01513	3979.625
2747.60079	3978.425
2750.18486	3973.625
2752.76733	3958.025
2755.3482	3955.125
2757.92747	3955.925
2760.50515	3953.425
2763.08123	3941.625
2765.65573	3937.225
2768.22863	3938.125
2770.79994	3924.525
2773.36967	3926.525
2775.9378	3916.625
2778.50435	3896.325
2781.06932	3908.025
2783.6327	3907.225
2786.1945	3904.825
2788.75471	3884.525
2791.31335	3870.225
2793.87041	3866.725
2796.42589	3864.525
2798.97979	3872.425
2801.53212	3853.525
2804.08288	3844.825
2806.63206	3849.525
2809.17967	3851.325
2811.72571	3843.325
2814.27018	3839.125
2816.81308	3822.425
2819.35442	3825.125
2821.89419	3826.525
2824.43239	3825.225
2826.96904	3818.425
2829.50412	3818.425
2832.03763	3832.025
2834.56959	3825.725
2837.1	3826.825
2839.62884	3836.025
2842.15613	3841.925
2844.68186	3859.925
2847.20604	3873.925
2849.72867	3886.525
2852.24974	3873.525
2854.76927	3879.525
2857.28724	3891.325
2859.80367	3868.625
2862.31855	3870.125
2864.83189	3853.225
2867.34368	3841.825
2869.85393	3868.325
2872.36264	3852.925
2874.8698	3861.325
2877.37543	3848.825
2879.87952	3854.325
2882.38207	3849.825
2884.88308	3850.025
2887.38256	3843.825
2889.88051	3834.525
2892.37692	3832.025
2894.8718	3838.125
2897.36515	3848.225
2899.85698	3822.425
2902.34727	3854.425
2904.83604	3833.325
2907.32328	3834.925
2909.809	3839.925
2912.29319	3842.725
2914.77587	3845.625
2917.25702	3829.125
2919.73665	3838.925
2922.21476	3833.625
2924.69136	3824.725
2927.16644	3834.025
2929.64	3828.725
2932.11205	3803.725
2934.58258	3797.525
2937.05161	3792.525
2939.51912	3799.225
2941.98513	3783.125
2944.44962	3768.125
2946.91261	3747.225
2949.37409	3742.725
2951.83407	3737.625
2954.29254	3726.825
2956.74951	3719.825
2959.20498	3723.325
2961.65895	3710.225
2964.11142	3714.125
2966.56239	3697.625
2969.01186	3708.225
2971.45984	3684.325
2973.90632	3691.325
2976.35131	3668.625
2978.7948	3672.125
2981.23681	3669.525
2983.67732	3650.725
2986.11635	3643.625
2988.55388	3637.425
2990.98993	3643.325
2993.4245	3640.325
2995.85758	3624.625
2998.28917	3623.725
3000.71928	3617.725
3003.14791	3592.825
3005.57506	3609.825
3008.00073	3601.625
3010.42493	3608.725
3012.84764	3600.825
3015.26888	3599.025
3017.68865	3586.125
3020.10694	3601.425
3022.52376	3577.125
3024.9391	3570.425
3027.35298	3582.225
3029.76539	3561.325
3032.17632	3547.525
3034.5858	3551.425
3036.9938	3549.325
3039.40034	3545.325
3041.80542	3545.025
3044.20903	3544.725
3046.61118	3536.825
3049.01187	3524.425
3051.4111	3538.825
3053.80888	3519.225
3056.20519	3521.825
3058.60005	3531.425
3060.99345	3528.825
3063.3854	3539.725
3065.7759	3518.525
3068.16494	3520.825
3070.55254	3499.625
3072.93868	3499.325
3075.32338	3495.925
3077.70662	3504.425
3080.08842	3484.725
3082.46878	3491.225
3084.84769	3497.625
3087.22515	3488.625
3089.60118	3483.325
3091.97576	3485.125
3094.3489	3483.725
3096.72061	3481.525
3099.09087	3476.725
3101.4597	3482.925
3103.82709	3493.325
3106.19305	3484.025
3108.55757	3496.125
3110.92066	3486.525
3113.28232	3477.325
3115.64255	3468.425
3118.00134	3464.125
3120.35871	3471.125
3122.71466	3463.625
3125.06917	3470.625
3127.42226	3462.225
3129.77393	3477.525
3132.12417	3461.225
3134.47299	3480.225
3136.82039	3499.725
3139.16636	3497.025
3141.51092	3499.725
3143.85406	3501.825
3146.19579	3513.625
3148.53609	3516.925
3150.87499	3515.725
3153.21246	3537.125
3155.54853	3533.225
3157.88318	3539.225
3160.21642	3549.225
3162.54826	3549.425
3164.87868	3543.825
3167.2077	3554.425
3169.5353	3549.725
3171.86151	3554.725
3174.18631	3553.925
3176.5097	3559.725
3178.83169	3551.625
3181.15228	3566.825
3183.47147	3564.525
3185.78926	3570.625
3188.10565	3562.325
3190.42065	3559.325
3192.73424	3576.025
3195.04645	3584.325
3197.35725	3590.025
3199.66667	3577.125
3201.97469	3590.425
3204.28132	3576.825
3206.58656	3590.525
3208.8904	3611.225
3211.19287	3603.525
3213.49394	3602.725
3215.79363	3606.325
3218.09193	3629.725
3220.38884	3617.025
3222.68438	3621.025
3224.97853	3613.625
3227.2713	3625.725
