Data from AgNPs_FTO_APTES_UA_200uM_R6G_10uM_NaF_0.1M_Addition_RamanShift__33__16-38-47-533.txt Node

Date: Fri Dec 17 16:38:47 GMT 2021
User: TCL
Spectrometer: QEP01345
Trigger mode: 4
Integration Time (sec): 7.000000E0
Scans to average: 10
Electric dark correction enabled: true
Nonlinearity correction enabled: false
Boxcar width: 0
XAxis mode: Raman Shifts
Number of Pixels in Spectrum: 1044
>>>>>Begin Spectral Data<<<<<
46.04893	-0.4
50.45542	0.7
54.85868	-0.3
59.25871	1.4
63.6555	43.6
68.04907	45.5
72.43941	49.2
76.82654	53.2
81.21044	54.2
85.59113	57
89.96862	58.6
94.34289	58.8
98.71396	61.8
103.08183	60.6
107.4465	65.6
111.80798	65.7
116.16626	70.7
120.52136	66.1
124.87327	72.6
129.222	73.7
133.56755	76.2
137.90993	85.5
142.24913	88.6
146.58517	99.9
150.91804	112
155.24774	127.6
159.57429	158.9
163.89768	201.8
168.21792	263.4
172.53501	348.6
176.84895	482.6
181.15975	668.6
185.46741	938.4
189.77193	1301.9
194.07331	1743.7
198.37157	2256.9
202.6667	2787.9
206.9587	3326.9
211.24758	3846.8
215.53334	4350.3
219.81599	4907.7
224.09553	5512.6
228.37195	6172.1
232.64527	6905.9
236.91549	7706.8
241.18261	8494.1
245.44663	9186.6
249.70755	9830.9
253.96539	10392
258.22014	10883.6
262.4718	11273.4
266.72039	11582.9
270.96589	11718.4
275.20832	11742.7
279.44768	11615.3
283.68397	11373.8
287.91719	11174.7
292.14735	11047.2
296.37445	11059.7
300.59849	11142.9
304.81948	11285.2
309.03742	11339.2
313.25231	11220.7
317.46415	10929.5
321.67296	10529
325.87872	10262
330.08145	10120.2
334.28114	10126.9
338.47781	10217.6
342.67145	10367.9
346.86207	10572.7
351.04966	10864
355.23424	11188.7
359.4158	11502.2
363.59435	11707.8
367.76989	11861.4
371.94243	11989.6
376.11196	12076.8
380.27849	12123.2
384.44203	12143.7
388.60257	12103.7
392.76012	12140.9
396.91468	12141.8
401.06626	12314.6
405.21485	12423.2
409.36047	12314.3
413.50311	12012.1
417.64277	11686.6
421.77947	11495.9
425.9132	11381.9
430.04396	11381.4
434.17176	11376.4
438.2966	11468.5
442.41849	11564.9
446.53742	11690.5
450.6534	11805.3
454.76644	11881.7
458.87653	11922.6
462.98368	11922.2
467.08789	11896.8
471.18916	11838.1
475.2875	11741.6
479.38291	11700.7
483.4754	11642.2
487.56496	11609.1
491.6516	11608.4
495.73531	11629.1
499.81612	11634.4
503.89401	11662
507.96899	11681.5
512.04106	11784.5
516.11023	11902.5
520.1765	11996.3
524.23987	11979.2
528.30034	11887.7
532.35792	11787.4
536.41261	11707.7
540.46441	11597.7
544.51333	11491.1
548.55936	11450.4
552.60252	11486.9
556.64279	11599.1
560.6802	11621.2
564.71473	11683.4
568.7464	11770.8
572.7752	11862.7
576.80114	11719.1
580.82422	11562.8
584.84444	11473
588.86181	11480.1
592.87633	11489.2
596.888	11587.8
600.89682	11754.9
604.9028	12329.6
608.90594	13995.5
612.90624	16169.2
616.90371	16003.4
620.89834	13319.4
624.89015	12033.6
628.87913	11853.4
632.86528	12022.8
636.84862	12246.2
640.82913	12185.2
644.80683	11896.9
648.78172	11559.2
652.75379	11429.4
656.72306	11505.9
660.68952	11688.2
664.65319	11600.2
668.61405	11338.8
672.57211	11188.4
676.52738	11180.8
680.47986	11175.3
684.42955	11150.4
688.37646	11112.8
692.32058	11090.9
696.26192	11110.9
700.20048	11146.4
704.13626	11163.3
708.06928	11144.3
711.99952	11132.4
715.927	11123.2
719.85171	11136.6
723.77365	11139.5
727.69284	11144.4
731.60928	11107.2
735.52295	11038.9
739.43388	11013.7
743.34206	11016.6
747.24749	11021.4
751.15017	11011.5
755.05012	11068.5
758.94733	11186.7
762.8418	11656.8
766.73354	12486.8
770.62254	13584.9
774.50882	14277.5
778.39237	13954.2
782.27321	12807.8
786.15132	11818.1
790.02671	11219.6
793.89938	10946.9
797.76935	10846.8
801.6366	10819.7
805.50115	10806.9
809.36299	10859.8
813.22213	10889.8
817.07857	10891.5
820.93231	10832.1
824.78336	10741.3
828.63172	10684.5
832.47738	10644.8
836.32036	10620.6
840.16066	10569.9
843.99827	10518.1
847.8332	10502
851.66546	10503.9
855.49504	10493.3
859.32195	10484.8
863.1462	10460.2
866.96777	10454.1
870.78668	10469.9
874.60293	10466
878.41652	10537.4
882.22745	10581
886.03573	10623.2
889.84136	10632.7
893.64433	10623.7
897.44466	10523
901.24235	10453.2
905.0374	10346.5
908.8298	10285.2
912.61957	10202.2
916.40671	10198.5
920.19121	10189.8
923.97308	10179.3
927.75233	10197.5
931.52895	10228.6
935.30295	10222.4
939.07433	10096.8
942.84309	9979.1
946.60924	9887.7
950.37278	9838.5
954.13371	9761.4
957.89203	9734
961.64774	9709.5
965.40086	9663.9
969.15137	9647.1
972.89929	9612.3
976.64461	9579.6
980.38733	9575.6
984.12747	9554.3
987.86502	9545.8
991.59999	9535.4
995.33237	9558.1
999.06217	9599.6
1002.78939	9680.6
1006.51404	9727.4
1010.23611	9841.3
1013.95561	9912
1017.67255	9896.8
1021.38692	9880
1025.09872	9793.8
1028.80796	9709.2
1032.51465	9702.9
1036.21877	9664.6
1039.92035	9652.1
1043.61937	9629.3
1047.31584	9612.8
1051.00976	9648.5
1054.70114	9636.6
1058.38998	9626.7
1062.07627	9664.1
1065.76003	9677.4
1069.44126	9728.3
1073.11995	9778.3
1076.79611	9800.7
1080.46974	9850
1084.14085	9872.5
1087.80943	9932.5
1091.47549	9998.6
1095.13903	9922.7
1098.80005	9756.6
1102.45857	9622.7
1106.11456	9585.5
1109.76805	9593.1
1113.41903	9702.7
1117.06751	9871.4
1120.71348	10111.8
1124.35696	10330.6
1127.99793	10591.5
1131.63641	10771.1
1135.2724	10647.3
1138.90589	10368.1
1142.5369	10114
1146.16542	9901.1
1149.79145	9681.6
1153.415	9525.7
1157.03607	9458.3
1160.65467	9475.6
1164.27079	9552.1
1167.88443	9748.6
1171.49561	10084.2
1175.10432	10662
1178.71056	11492.4
1182.31434	12270.1
1185.91565	12518.1
1189.51451	12243.4
1193.11091	11678.6
1196.70485	11107
1200.29634	10729.1
1203.88538	10520.3
1207.47197	10239.2
1211.05612	9945.6
1214.63782	9681.6
1218.21708	9551.5
1221.79391	9455.7
1225.36829	9385.4
1228.94024	9382.1
1232.50976	9350.5
1236.07685	9367.4
1239.6415	9368.9
1243.20374	9413.2
1246.76355	9432.2
1250.32093	9487.9
1253.8759	9541.8
1257.42845	9638.4
1260.97859	9736.3
1264.52631	9885.6
1268.07163	9995.4
1271.61453	10106.3
1275.15503	10169.9
1278.69312	10167.1
1282.22882	10130.4
1285.76211	10171.5
1289.29301	10300
1292.82151	10523.1
1296.34761	10741.7
1299.87133	11093.4
1303.39266	11646.5
1306.9116	12413.8
1310.42815	13355
1313.94233	13915.5
1317.45412	13683.7
1320.96354	12988.3
1324.47058	12202.8
1327.97525	11464.3
1331.47754	10917.9
1334.97747	10656
1338.47502	10544.2
1341.97022	10619.8
1345.46305	10881.1
1348.95352	11380.9
1352.44163	12164.9
1355.92738	13253.1
1359.41078	14816.8
1362.89183	16613.8
1366.37053	16899.2
1369.84688	15012.6
1373.32088	12731.4
1376.79254	11226.1
1380.26186	10450.9
1383.72883	10098.7
1387.19347	9827.8
1390.65578	9566.1
1394.11575	9295.4
1397.57339	9092.9
1401.0287	8992.6
1404.48168	8917
1407.93234	8852
1411.38068	8794.5
1414.82669	8764.6
1418.27039	8713.7
1421.71177	8706.3
1425.15083	8661.8
1428.58758	8590.6
1432.02203	8573.5
1435.45416	8587.9
1438.88399	8622.2
1442.31151	8610.7
1445.73673	8589.1
1449.15965	8609.1
1452.58027	8606
1455.9986	8567
1459.41463	8536.4
1462.82837	8547.6
1466.23982	8587.1
1469.64898	8693.2
1473.05586	8771.2
1476.46045	8877.5
1479.86276	8948.5
1483.26279	9107.1
1486.66054	9236.8
1490.05602	9432.6
1493.44922	9697.6
1496.84016	10156.5
1500.22882	10912.5
1503.61521	12035.8
1506.99934	13428.8
1510.38121	14745.7
1513.76081	15303
1517.13816	14731.4
1520.51324	13263.7
1523.88607	11739.9
1527.25665	10615.6
1530.62498	10011.1
1533.99105	9650.7
1537.35488	9443.9
1540.71647	9349.4
1544.07581	9259.7
1547.4329	9234.3
1550.78776	9280
1554.14038	9303.9
1557.49077	9406
1560.83892	9528.9
1564.18484	9691.7
1567.52853	9893.6
1570.86999	10115.1
1574.20922	10301.7
1577.54624	10324.1
1580.88103	10043.2
1584.2136	9536.3
1587.54395	9131.9
1590.87208	8953.9
1594.19801	9024.3
1597.52172	9305.9
1600.84321	9448.7
1604.16251	9322.4
1607.47959	9005.6
1610.79447	8753.1
1614.10715	8501.2
1617.41763	8254.7
1620.7259	8084.8
1624.03199	7973
1627.33587	7963
1630.63757	7987.6
1633.93707	8115.2
1637.23439	8345
1640.52951	8739.2
1643.82246	9355.8
1647.11321	10287.6
1650.40179	11155.6
1653.68819	11339.4
1656.97241	10570.5
1660.25446	9400.2
1663.53433	8570.7
1666.81203	8047.6
1670.08756	7714.7
1673.36092	7520.6
1676.63211	7389.7
1679.90115	7300.5
1683.16801	7235
1686.43272	7195.6
1689.69527	7134
1692.95567	7127.9
1696.2139	7127.8
1699.46999	7115.7
1702.72392	7076.1
1705.97571	7001.6
1709.22535	6912.7
1712.47284	6850.3
1715.71819	6817.5
1718.96139	6761.4
1722.20246	6734.7
1725.44139	6708.7
1728.67818	6638.9
1731.91284	6608.9
1735.14537	6553.3
1738.37576	6541
1741.60403	6506.1
1744.83017	6470.2
1748.05418	6474.1
1751.27607	6458.2
1754.49584	6447.5
1757.71349	6450.2
1760.92903	6433.2
1764.14244	6426.7
1767.35375	6406.5
1770.56294	6391
1773.77002	6374.7
1776.97499	6346.5
1780.17785	6319.6
1783.37861	6308.1
1786.57727	6291.7
1789.77382	6271.5
1792.96828	6261.2
1796.16064	6237.5
1799.3509	6212.9
1802.53907	6227.9
1805.72514	6171.2
1808.90913	6157.9
1812.09102	6129
1815.27083	6123
1818.44856	6110.5
1821.6242	6060.5
1824.79776	6088.3
1827.96924	6058.9
1831.13864	6053
1834.30597	6028.1
1837.47122	6022.7
1840.6344	6011.3
1843.7955	5997.5
1846.95454	6002
1850.11151	5961.9
1853.26642	5978
1856.41926	5960
1859.57004	5948.7
1862.71876	5941.9
1865.86542	5932.7
1869.01003	5913
1872.15258	5903.9
1875.29308	5894
1878.43152	5877.8
1881.56792	5897.2
1884.70227	5855.2
1887.83457	5863.4
1890.96482	5843.8
1894.09304	5836.5
1897.21921	5813.8
1900.34335	5812.4
1903.46544	5807.1
1906.58551	5774.7
1909.70353	5764.1
1912.81953	5756.1
1915.93349	5759.9
1919.04543	5740.8
1922.15534	5711.8
1925.26322	5708.9
1928.36908	5700.6
1931.47292	5671.5
1934.57473	5662
1937.67453	5625.2
1940.77232	5623.7
1943.86808	5609.3
1946.96184	5594
1950.05358	5569.5
1953.14331	5556.6
1956.23103	5551.4
1959.31675	5492.8
1962.40046	5488.7
1965.48217	5471.8
1968.56188	5464.1
1971.63959	5453.8
1974.7153	5419.2
1977.78901	5399.9
1980.86073	5379.5
1983.93046	5363.4
1986.99819	5337.9
1990.06394	5308
1993.1277	5301.6
1996.18947	5274.1
1999.24925	5248.9
2002.30706	5233.2
2005.36288	5223
2008.41672	5193.8
2011.46859	5198.3
2014.51848	5151.9
2017.56639	5131.6
2020.61233	5125.4
2023.6563	5099.7
2026.6983	5081.4
2029.73833	5071.4
2032.7764	5062
2035.8125	5048.9
2038.84664	5013.3
2041.87881	5019.9
2044.90903	5022.2
2047.93729	4981.6
2050.96359	4983.8
2053.98794	4975.6
2057.01034	4960.1
2060.03078	4957.7
2063.04927	4942.1
2066.06582	4938.6
2069.08042	4935.2
2072.09307	4909.2
2075.10378	4918.2
2078.11255	4902.5
2081.11938	4917
2084.12426	4890.9
2087.12722	4898.2
2090.12824	4882
2093.12732	4895.2
2096.12447	4886.8
2099.11969	4871.7
2102.11299	4872.5
2105.10435	4883.8
2108.09379	4884.2
2111.08131	4884.7
2114.0669	4868.9
2117.05057	4877.4
2120.03233	4874
2123.01216	4878.1
2125.99008	4884.4
2128.96609	4873.1
2131.94018	4887.3
2134.91236	4890
2137.88263	4883.7
2140.851	4888.5
2143.81746	4887.3
2146.78201	4869.2
2149.74466	4875.3
2152.7054	4862.5
2155.66425	4861.6
2158.6212	4842.8
2161.57625	4839.8
2164.52941	4843.7
2167.48067	4847.2
2170.43004	4836.9
2173.37752	4837.7
2176.32311	4824.6
2179.26681	4808.2
2182.20863	4810.5
2185.14856	4818.3
2188.08661	4789.3
2191.02278	4798.4
2193.95707	4786.7
2196.88948	4782.1
2199.82001	4784.2
2202.74867	4769.2
2205.67545	4760
2208.60037	4743.2
2211.52341	4727.8
2214.44458	4729.3
2217.36388	4704.2
2220.28132	4685.7
2223.1969	4671.2
2226.11061	4666.1
2229.02246	4668.5
2231.93245	4645.7
2234.84058	4638.1
2237.74686	4630.7
2240.65128	4630.6
2243.55385	4611.6
2246.45456	4604.4
2249.35343	4589
2252.25044	4584.1
2255.14561	4578.9
2258.03893	4580.6
2260.93041	4571.7
2263.82004	4554.3
2266.70783	4553.8
2269.59378	4525.8
2272.4779	4522.6
2275.36017	4498.6
2278.24061	4483.3
2281.11922	4486.1
2283.996	4456.9
2286.87094	4455.7
2289.74405	4425.7
2292.61534	4434.4
2295.4848	4432
2298.35243	4421.4
2301.21824	4403.8
2304.08223	4411.4
2306.94439	4392.6
2309.80474	4385.2
2312.66327	4394.1
2315.51999	4359.5
2318.37489	4376.7
2321.22797	4354.2
2324.07925	4347.3
2326.92871	4326.9
2329.77637	4336.5
2332.62222	4320.1
2335.46626	4312.2
2338.3085	4282
2341.14893	4285.5
2343.98756	4288
2346.8244	4277.1
2349.65943	4277.7
2352.49267	4272.8
2355.32411	4286.5
2358.15376	4273.7
2360.98161	4271.2
2363.80768	4261.1
2366.63195	4270.6
2369.45444	4266.4
2372.27514	4242.8
2375.09405	4251.6
2377.91118	4244.5
2380.72652	4231.5
2383.54009	4201.7
2386.35187	4200.6
2389.16188	4169.6
2391.97011	4162.3
2394.77657	4143.1
2397.58125	4122.7
2400.38416	4116.1
2403.18529	4127.2
2405.98466	4106.2
2408.78226	4077.8
2411.57809	4084.6
2414.37216	4076
2417.16446	4073.4
2419.955	4062.3
2422.74378	4051.6
2425.5308	4046.1
2428.31606	4038.3
2431.09956	4043.1
2433.88131	4034.8
2436.6613	4022.3
2439.43954	4025.4
2442.21603	4030.9
2444.99077	4010.1
2447.76377	4012.1
2450.53501	4001
2453.30451	4003.7
2456.07226	3977.6
2458.83827	3979.6
2461.60254	3969.7
2464.36507	3969.8
2467.12586	3978.6
2469.88492	3963.1
2472.64224	3946.2
2475.39782	3959.7
2478.15167	3944
2480.90379	3939.8
2483.65417	3943.7
2486.40283	3948.8
2489.14976	3939.3
2491.89497	3923
2494.63845	3933.8
2497.3802	3938.5
2500.12024	3900.8
2502.85855	3920
2505.59514	3898.5
2508.33002	3878
2511.06318	3882.5
2513.79462	3863.2
2516.52435	3845.6
2519.25237	3835.9
2521.97867	3832.2
2524.70327	3811.1
2527.42616	3787.1
2530.14734	3793.3
2532.86681	3783.1
2535.58458	3779
2538.30065	3764.2
2541.01501	3757.9
2543.72768	3746.9
2546.43864	3754
2549.14791	3745.2
2551.85548	3730.5
2554.56136	3721.3
2557.26554	3727.2
2559.96803	3719.6
2562.66883	3706.4
2565.36794	3704.9
2568.06536	3710.4
2570.7611	3689.3
2573.45514	3665.1
2576.14751	3657.7
2578.83819	3650.5
2581.52719	3645.4
2584.21451	3639.1
2586.90015	3619.8
2589.58411	3606.7
2592.2664	3610
2594.94701	3590.6
2597.62594	3584.1
2600.30321	3566.2
2602.9788	3562.4
2605.65273	3569.4
2608.32498	3546.1
2610.99557	3540.3
2613.66449	3534.7
2616.33175	3532.2
2618.99734	3528.7
2621.66128	3517.2
2624.32355	3506.4
2626.98416	3507.1
2629.64311	3515.4
2632.30041	3506.7
2634.95605	3493.6
2637.61004	3489.2
2640.26238	3462.3
2642.91306	3473.3
2645.56209	3461.8
2648.20948	3457.1
2650.85521	3462.3
2653.4993	3449
2656.14175	3445.4
2658.78255	3453.7
2661.42171	3435.8
2664.05923	3417.8
2666.6951	3442.7
2669.32934	3438
2671.96194	3420.7
2674.59291	3422.2
2677.22224	3426.9
2679.84993	3427.2
2682.476	3417.1
2685.10043	3428
2687.72324	3429.3
2690.34441	3412.2
2692.96396	3413
2695.58188	3420.7
2698.19818	3400.7
2700.81285	3398.5
2703.4259	3415.3
2706.03733	3426.2
2708.64714	3422.4
2711.25533	3414.3
2713.86191	3400.4
2716.46687	3387
2719.07021	3392.9
2721.67194	3393.3
2724.27206	3381.7
2726.87057	3378.9
2729.46747	3377
2732.06276	3366.2
2734.65644	3360.9
2737.24852	3357.7
2739.83899	3365.1
2742.42786	3352.3
2745.01513	3339.7
2747.60079	3330.3
2750.18486	3328.1
2752.76733	3325.7
2755.3482	3306.9
2757.92747	3322.4
2760.50515	3327.2
2763.08123	3311.1
2765.65573	3290.3
2768.22863	3303.2
2770.79994	3279.4
2773.36967	3294.8
2775.9378	3273.8
2778.50435	3270.7
2781.06932	3251.7
2783.6327	3258.7
2786.1945	3259.6
2788.75471	3237.8
2791.31335	3226
2793.87041	3226.1
2796.42589	3216.7
2798.97979	3208.5
2801.53212	3205
2804.08288	3189.7
2806.63206	3190.2
2809.17967	3182.9
2811.72571	3173
2814.27018	3171.4
2816.81308	3172.9
2819.35442	3163
2821.89419	3149.4
2824.43239	3170.1
2826.96904	3150.8
2829.50412	3158.2
2832.03763	3154.1
2834.56959	3150
2837.1	3142.4
2839.62884	3150.9
2842.15613	3152.3
2844.68186	3161.4
2847.20604	3159.1
2849.72867	3179.3
2852.24974	3169.2
2854.76927	3161.4
2857.28724	3168.6
2859.80367	3154.3
2862.31855	3148.6
2864.83189	3141.2
2867.34368	3138.2
2869.85393	3151.3
2872.36264	3142
2874.8698	3136.1
2877.37543	3142.6
2879.87952	3141.3
2882.38207	3134.6
2884.88308	3139.5
2887.38256	3130.4
2889.88051	3101.1
2892.37692	3120.8
2894.8718	3121.8
2897.36515	3121.5
2899.85698	3106.3
2902.34727	3115.8
2904.83604	3112.6
2907.32328	3122.3
2909.809	3112.4
2912.29319	3111.5
2914.77587	3114.7
2917.25702	3112.5
2919.73665	3120.1
2922.21476	3109.6
2924.69136	3109.3
2927.16644	3096.8
2929.64	3089.8
2932.11205	3087.9
2934.58258	3079.6
2937.05161	3077.1
2939.51912	3072.7
2941.98513	3072
2944.44962	3065.1
2946.91261	3052.3
2949.37409	3034.9
2951.83407	3033.5
2954.29254	3050.5
2956.74951	3029.5
2959.20498	3029.6
2961.65895	3026.1
2964.11142	3028
2966.56239	3011.8
2969.01186	3015.4
2971.45984	3000
2973.90632	3001.5
2976.35131	2990
2978.7948	2983.8
2981.23681	2981.5
2983.67732	2973.9
2986.11635	2958.3
2988.55388	2960.9
2990.98993	2961.1
2993.4245	2956
2995.85758	2958.1
2998.28917	2939.6
3000.71928	2926.9
3003.14791	2942
3005.57506	2926.3
3008.00073	2933
3010.42493	2923
3012.84764	2925
3015.26888	2921.5
3017.68865	2915.5
3020.10694	2908.6
3022.52376	2903.9
3024.9391	2911.5
3027.35298	2900.1
3029.76539	2886
3032.17632	2904.2
3034.5858	2875.1
3036.9938	2884.2
3039.40034	2872.9
3041.80542	2877.4
3044.20903	2876.5
3046.61118	2873.3
3049.01187	2876
3051.4111	2869
3053.80888	2850.1
3056.20519	2868.9
3058.60005	2880.7
3060.99345	2853.5
3063.3854	2863.3
3065.7759	2838.5
3068.16494	2845.3
3070.55254	2843.8
3072.93868	2835.3
3075.32338	2834.3
3077.70662	2830.7
3080.08842	2833.4
3082.46878	2843
3084.84769	2840.8
3087.22515	2850.8
3089.60118	2848.9
3091.97576	2851.9
3094.3489	2848.3
3096.72061	2860.1
3099.09087	2844.9
3101.4597	2850.1
3103.82709	2858
3106.19305	2866.4
3108.55757	2873
3110.92066	2855.3
3113.28232	2848.4
3115.64255	2852.4
3118.00134	2852.3
3120.35871	2850.9
3122.71466	2848.4
3125.06917	2842.6
3127.42226	2844.7
3129.77393	2845.2
3132.12417	2857.3
3134.47299	2865.2
3136.82039	2868.2
3139.16636	2882.2
3141.51092	2878.8
3143.85406	2874.6
3146.19579	2895.8
3148.53609	2891
3150.87499	2903.2
3153.21246	2909.5
3155.54853	2920.7
3157.88318	2925.3
3160.21642	2920.6
3162.54826	2932.2
3164.87868	2934.3
3167.2077	2946.5
3169.5353	2950.1
3171.86151	2933.4
3174.18631	2946
3176.5097	2952.5
3178.83169	2942.9
3181.15228	2949.2
3183.47147	2954.2
3185.78926	2979.3
3188.10565	2956.4
3190.42065	2948.8
3192.73424	2953.5
3195.04645	2962.9
3197.35725	2970
3199.66667	2969
3201.97469	2969.2
3204.28132	2977
3206.58656	2980.7
3208.8904	2994.1
3211.19287	3005.1
3213.49394	2999
3215.79363	3005
3218.09193	3018.3
3220.38884	3019
3222.68438	3021.9
3224.97853	3010.9
3227.2713	3004.9
3229.56269	3003.3
3231.8527	3002.4
3234.14133	2994.5
3236.42858	2986.5
3238.71446	2991.5
3240.99896	2975.4
3243.28209	2994
3245.56384	2980
3247.84423	2984.3
3250.12324	2988.9
3252.40088	2995.4
3254.67715	2982.5
3256.95205	2975
3259.22558	2969.3
3261.49775	2976.9
3263.76855	2974.3
3266.03799	2978.9
3268.30606	2956.6
3270.57277	2960.3
3272.83812	2957
3275.10211	2951
3277.36474	2945.5
3279.62601	2951.3
3281.88593	2938.7
3284.14448	2944.2
3286.40168	2943.7
3288.65753	2942.6
3290.91202	2935.7
3293.16516	2924.8
3295.41695	2913.8
3297.66738	2884.8
3299.91647	2893.6
3302.16421	2877.3
3304.4106	2864.9
3306.65564	2845.5
3308.89933	2827.4
3311.14169	2823.9
3313.38269	2813.2
3315.62236	2787.3
3317.86068	2762.3
3320.09766	2745.1
3322.3333	2723.3
3324.5676	2721.2
3326.80056	2685.2
3329.03219	2663.9
3331.26248	-0.1
3333.49143	-0.7
3335.71905	-0.1
