Data from AgNPs_FTO_APTES_UA_10uM_R6G_10uM_NaF_0.1M_Addition_RamanShift__9__13-20-27-308.txt Node

Date: Fri Dec 17 13:20:27 GMT 2021
User: TCL
Spectrometer: QEP01345
Trigger mode: 4
Integration Time (sec): 7.000000E0
Scans to average: 10
Electric dark correction enabled: true
Nonlinearity correction enabled: false
Boxcar width: 0
XAxis mode: Raman Shifts
Number of Pixels in Spectrum: 1044
>>>>>Begin Spectral Data<<<<<
46.04893	-0.1625
50.45542	-1.5625
54.85868	-1.5625
59.25871	-0.0625
63.6555	86.1375
68.04907	92.0375
72.43941	97.1375
76.82654	102.6375
81.21044	100.5375
85.59113	105.2375
89.96862	111.5375
94.34289	114.5375
98.71396	121.6375
103.08183	120.8375
107.4465	129.2375
111.80798	127.5375
116.16626	134.8375
120.52136	137.4375
124.87327	147.8375
129.222	155.1375
133.56755	160.5375
137.90993	179.9375
142.24913	195.7375
146.58517	216.6375
150.91804	249.2375
155.24774	300.9375
159.57429	377.0375
163.89768	479.1375
168.21792	639.1375
172.53501	861.9375
176.84895	1192.6375
181.15975	1694.6375
185.46741	2378.5375
189.77193	3273.6375
194.07331	4388.3375
198.37157	5695.0375
202.6667	7053.0375
206.9587	8366.2375
211.24758	9686.0375
215.53334	10999.6375
219.81599	12376.1375
224.09553	13892.5375
228.37195	15552.1375
232.64527	17396.9375
236.91549	19383.7375
241.18261	21386.3375
245.44663	23338.7375
249.70755	25119.0375
253.96539	26632.9375
258.22014	27868.9375
262.4718	28905.9375
266.72039	29626.7375
270.96589	29952.3375
275.20832	29932.2375
279.44768	29681.8375
283.68397	29314.7375
287.91719	28941.2375
292.14735	28651.3375
296.37445	28529.3375
300.59849	28459.8375
304.81948	28546.5375
309.03742	28503.4375
313.25231	28367.9375
317.46415	28040.3375
321.67296	27533.0375
325.87872	27142.1375
330.08145	27009.9375
334.28114	27085.6375
338.47781	27317.3375
342.67145	27656.6375
346.86207	28021.0375
351.04966	28579.0375
355.23424	29135.7375
359.4158	29594.1375
363.59435	30010.9375
367.76989	30329.8375
371.94243	30558.8375
376.11196	30685.2375
380.27849	30808.4375
384.44203	30947.2375
388.60257	31179.4375
392.76012	31409.0375
396.91468	31730.9375
401.06626	32097.6375
405.21485	32397.3375
409.36047	32351.3375
413.50311	31982.7375
417.64277	31718.7375
421.77947	31691.0375
425.9132	31803.4375
430.04396	31940.8375
434.17176	32064.0375
438.2966	32231.5375
442.41849	32515.8375
446.53742	32943.3375
450.6534	33405.4375
454.76644	33728.5375
458.87653	33963.0375
462.98368	34000.3375
467.08789	33893.7375
471.18916	33673.9375
475.2875	33399.3375
479.38291	33084.1375
483.4754	32867.5375
487.56496	32688.3375
491.6516	32582.0375
495.73531	32554.8375
499.81612	32584.9375
503.89401	32851.2375
507.96899	32968.7375
512.04106	33065.6375
516.11023	33082.5375
520.1765	32966.6375
524.23987	32846.7375
528.30034	32703.8375
532.35792	32501.8375
536.41261	32359.8375
540.46441	32143.0375
544.51333	32115.5375
548.55936	32258.4375
552.60252	32642.5375
556.64279	32952.6375
560.6802	33219.0375
564.71473	33304.3375
568.7464	33468.5375
572.7752	33747.3375
576.80114	34029.2375
580.82422	34478.2375
584.84444	35043.5375
588.86181	35547.6375
592.87633	35891.5375
596.888	35775.1375
600.89682	35664.6375
604.9028	36498.7375
608.90594	39038.1375
612.90624	41657.4375
616.90371	40173.8375
620.89834	35660.7375
624.89015	33541.9375
628.87913	33215.1375
632.86528	33315.7375
636.84862	33497.9375
640.82913	33286.9375
644.80683	32839.1375
648.78172	32513.1375
652.75379	32443.0375
656.72306	32768.9375
660.68952	33215.0375
664.65319	33086.9375
668.61405	32816.7375
672.57211	32815.5375
676.52738	32935.4375
680.47986	32995.9375
684.42955	32774.8375
688.37646	32699.4375
692.32058	32869.5375
696.26192	33111.7375
700.20048	33453.2375
704.13626	33590.0375
708.06928	33511.9375
711.99952	33302.2375
715.927	33225.8375
719.85171	33313.8375
723.77365	33256.5375
727.69284	32992.9375
731.60928	32674.6375
735.52295	32603.3375
739.43388	32521.2375
743.34206	32558.3375
747.24749	32712.5375
751.15017	32803.7375
755.05012	33048.3375
758.94733	33569.6375
762.8418	34533.0375
766.73354	36167.9375
770.62254	37796.7375
774.50882	38453.2375
778.39237	37738.5375
782.27321	36259.2375
786.15132	34769.5375
790.02671	33835.3375
793.89938	33265.7375
797.76935	33028.5375
801.6366	32829.1375
805.50115	32821.6375
809.36299	32715.2375
813.22213	32545.6375
817.07857	32424.1375
820.93231	32340.5375
824.78336	32279.8375
828.63172	32285.4375
832.47738	32285.4375
836.32036	32268.9375
840.16066	32227.3375
843.99827	32247.2375
847.8332	32240.4375
851.66546	32279.1375
855.49504	32313.5375
859.32195	32334.8375
863.1462	32318.8375
866.96777	32333.8375
870.78668	32338.0375
874.60293	32458.4375
878.41652	32532.1375
882.22745	32611.8375
886.03573	32666.2375
889.84136	32809.8375
893.64433	32653.2375
897.44466	32557.2375
901.24235	32533.9375
905.0374	32391.0375
908.8298	32418.3375
912.61957	32382.5375
916.40671	32477.9375
920.19121	32622.8375
923.97308	32736.4375
927.75233	32823.1375
931.52895	32751.0375
935.30295	32576.2375
939.07433	32267.3375
942.84309	31981.4375
946.60924	31871.0375
950.37278	31807.4375
954.13371	31776.5375
957.89203	31734.4375
961.64774	31684.2375
965.40086	31624.4375
969.15137	31622.6375
972.89929	31530.7375
976.64461	31575.8375
980.38733	31581.7375
984.12747	31648.6375
987.86502	31713.7375
991.59999	31855.2375
995.33237	32059.7375
999.06217	32300.2375
1002.78939	32655.2375
1006.51404	33054.6375
1010.23611	33447.8375
1013.95561	33702.9375
1017.67255	33776.8375
1021.38692	33633.1375
1025.09872	33341.5375
1028.80796	33111.2375
1032.51465	33023.5375
1036.21877	33057.4375
1039.92035	33157.0375
1043.61937	33185.7375
1047.31584	33186.2375
1051.00976	33138.6375
1054.70114	33228.8375
1058.38998	33367.7375
1062.07627	33668.0375
1065.76003	33984.5375
1069.44126	34406.6375
1073.11995	34840.6375
1076.79611	35343.2375
1080.46974	35591.7375
1084.14085	35589.6375
1087.80943	35627.0375
1091.47549	35697.8375
1095.13903	35574.6375
1098.80005	35340.1375
1102.45857	34894.0375
1106.11456	34546.3375
1109.76805	34231.2375
1113.41903	34134.7375
1117.06751	34161.9375
1120.71348	34305.4375
1124.35696	34556.6375
1127.99793	34802.4375
1131.63641	34972.1375
1135.2724	34748.6375
1138.90589	34589.8375
1142.5369	34480.0375
1146.16542	34384.8375
1149.79145	34364.4375
1153.415	34331.7375
1157.03607	34357.0375
1160.65467	34712.4375
1164.27079	35339.9375
1167.88443	36347.4375
1171.49561	37473.8375
1175.10432	39002.4375
1178.71056	40902.2375
1182.31434	42864.9375
1185.91565	44185.5375
1189.51451	44783.3375
1193.11091	44562.8375
1196.70485	43629.4375
1200.29634	42399.6375
1203.88538	41218.3375
1207.47197	40289.4375
1211.05612	39498.0375
1214.63782	38780.3375
1218.21708	38103.7375
1221.79391	37543.1375
1225.36829	37188.4375
1228.94024	36978.9375
1232.50976	36933.3375
1236.07685	36835.1375
1239.6415	36855.6375
1243.20374	36918.0375
1246.76355	37030.0375
1250.32093	37347.6375
1253.8759	37720.9375
1257.42845	38421.3375
1260.97859	39248.4375
1264.52631	40012.4375
1268.07163	40777.5375
1271.61453	41388.8375
1275.15503	41942.3375
1278.69312	42325.2375
1282.22882	42644.4375
1285.76211	42974.2375
1289.29301	43494.3375
1292.82151	44218.2375
1296.34761	45113.3375
1299.87133	46285.5375
1303.39266	47747.2375
1306.9116	49349.6375
1310.42815	50961.1375
1313.94233	51889.5375
1317.45412	51787.4375
1320.96354	51152.7375
1324.47058	50622.2375
1327.97525	50086.6375
1331.47754	49918.2375
1334.97747	49971.1375
1338.47502	50328.4375
1341.97022	50845.3375
1345.46305	51396.1375
1348.95352	52041.3375
1352.44163	52533.4375
1355.92738	52941.3375
1359.41078	53741.6375
1362.89183	54466.1375
1366.37053	53404.5375
1369.84688	50219.3375
1373.32088	46443.9375
1376.79254	43610.8375
1380.26186	42212.5375
1383.72883	41659.9375
1387.19347	41242.6375
1390.65578	40723.3375
1394.11575	40248.4375
1397.57339	40046.9375
1401.0287	40089.8375
1404.48168	40210.2375
1407.93234	40346.6375
1411.38068	40302.9375
1414.82669	40071.9375
1418.27039	39511.8375
1421.71177	38848.8375
1425.15083	38373.2375
1428.58758	38275.0375
1432.02203	38494.0375
1435.45416	38939.8375
1438.88399	39457.1375
1442.31151	39710.6375
1445.73673	39827.9375
1449.15965	39794.1375
1452.58027	39792.1375
1455.9986	39770.2375
1459.41463	39911.0375
1462.82837	40428.0375
1466.23982	40942.1375
1469.64898	41488.1375
1473.05586	41777.3375
1476.46045	41911.2375
1479.86276	41829.9375
1483.26279	41828.3375
1486.66054	41989.8375
1490.05602	42285.7375
1493.44922	42775.9375
1496.84016	43456.3375
1500.22882	44568.8375
1503.61521	46037.4375
1506.99934	47687.6375
1510.38121	48848.8375
1513.76081	48859.6375
1517.13816	47620.9375
1520.51324	45776.2375
1523.88607	44122.5375
1527.25665	43063.8375
1530.62498	42537.0375
1533.99105	42230.2375
1537.35488	41932.0375
1540.71647	41551.8375
1544.07581	41123.0375
1547.4329	40735.3375
1550.78776	40368.7375
1554.14038	40060.7375
1557.49077	39987.5375
1560.83892	39911.6375
1564.18484	39954.5375
1567.52853	40120.9375
1570.86999	40412.9375
1574.20922	40805.7375
1577.54624	41139.8375
1580.88103	41035.6375
1584.2136	40733.0375
1587.54395	40669.6375
1590.87208	41173.3375
1594.19801	42313.3375
1597.52172	43712.3375
1600.84321	44411.3375
1604.16251	43781.9375
1607.47959	42373.8375
1610.79447	40601.6375
1614.10715	38616.4375
1617.41763	36795.2375
1620.7259	35364.5375
1624.03199	34569.7375
1627.33587	34421.0375
1630.63757	34767.1375
1633.93707	35835.1375
1637.23439	37650.1375
1640.52951	40243.8375
1643.82246	43287.4375
1647.11321	45590.2375
1650.40179	45985.3375
1653.68819	44002.3375
1656.97241	40433.6375
1660.25446	36897.8375
1663.53433	34296.1375
1666.81203	32636.1375
1670.08756	31562.1375
1673.36092	30905.6375
1676.63211	30456.5375
1679.90115	30159.2375
1683.16801	29834.1375
1686.43272	29655.9375
1689.69527	29501.6375
1692.95567	29383.1375
1696.2139	29315.5375
1699.46999	29286.2375
1702.72392	29253.1375
1705.97571	29183.5375
1709.22535	29163.5375
1712.47284	29128.4375
1715.71819	29104.6375
1718.96139	29078.7375
1722.20246	28990.5375
1725.44139	28945.8375
1728.67818	28819.0375
1731.91284	28694.9375
1735.14537	28581.5375
1738.37576	28520.4375
1741.60403	28381.9375
1744.83017	28330.5375
1748.05418	28320.3375
1751.27607	28264.1375
1754.49584	28237.5375
1757.71349	28191.5375
1760.92903	28169.5375
1764.14244	28157.2375
1767.35375	28147.6375
1770.56294	28119.2375
1773.77002	28080.6375
1776.97499	28065.0375
1780.17785	27972.6375
1783.37861	27968.4375
1786.57727	27930.2375
1789.77382	27886.0375
1792.96828	27844.6375
1796.16064	27813.0375
1799.3509	27757.5375
1802.53907	27776.0375
1805.72514	27654.2375
1808.90913	27631.4375
1812.09102	27574.6375
1815.27083	27558.7375
1818.44856	27502.8375
1821.6242	27452.9375
1824.79776	27465.3375
1827.96924	27441.7375
1831.13864	27429.2375
1834.30597	27491.9375
1837.47122	27461.5375
1840.6344	27446.7375
1843.7955	27446.3375
1846.95454	27420.0375
1850.11151	27412.0375
1853.26642	27383.3375
1856.41926	27379.7375
1859.57004	27322.9375
1862.71876	27299.0375
1865.86542	27278.7375
1869.01003	27234.1375
1872.15258	27177.4375
1875.29308	27184.1375
1878.43152	27101.4375
1881.56792	27086.0375
1884.70227	27081.6375
1887.83457	27048.3375
1890.96482	27006.9375
1894.09304	26999.9375
1897.21921	26908.1375
1900.34335	26919.5375
1903.46544	26923.0375
1906.58551	26816.0375
1909.70353	26757.6375
1912.81953	26739.7375
1915.93349	26687.3375
1919.04543	26609.3375
1922.15534	26610.6375
1925.26322	26558.3375
1928.36908	26466.2375
1931.47292	26472.6375
1934.57473	26366.2375
1937.67453	26272.8375
1940.77232	26236.6375
1943.86808	26153.7375
1946.96184	26133.9375
1950.05358	26072.3375
1953.14331	25997.6375
1956.23103	25891.1375
1959.31675	25894.3375
1962.40046	25797.8375
1965.48217	25738.1375
1968.56188	25655.8375
1971.63959	25580.3375
1974.7153	25530.7375
1977.78901	25415.0375
1980.86073	25362.8375
1983.93046	25278.0375
1986.99819	25193.3375
1990.06394	25156.8375
1993.1277	25067.4375
1996.18947	24982.5375
1999.24925	24913.3375
2002.30706	24852.3375
2005.36288	24796.1375
2008.41672	24747.7375
2011.46859	24652.5375
2014.51848	24619.7375
2017.56639	24543.7375
2020.61233	24486.1375
2023.6563	24380.4375
2026.6983	24369.8375
2029.73833	24306.4375
2032.7764	24267.1375
2035.8125	24192.1375
2038.84664	24117.1375
2041.87881	24098.0375
2044.90903	24071.4375
2047.93729	24006.0375
2050.96359	23966.2375
2053.98794	23949.7375
2057.01034	23874.2375
2060.03078	23926.0375
2063.04927	23901.4375
2066.06582	23900.6375
2069.08042	23926.5375
2072.09307	23889.1375
2075.10378	23843.5375
2078.11255	23809.3375
2081.11938	23800.8375
2084.12426	23782.9375
2087.12722	23814.7375
2090.12824	23824.2375
2093.12732	23814.8375
2096.12447	23877.7375
2099.11969	23824.3375
2102.11299	23825.6375
2105.10435	23867.6375
2108.09379	23888.4375
2111.08131	23906.7375
2114.0669	23902.2375
2117.05057	23933.2375
2120.03233	23923.4375
2123.01216	23939.8375
2125.99008	23972.2375
2128.96609	23971.2375
2131.94018	24026.2375
2134.91236	24047.3375
2137.88263	24068.5375
2140.851	24035.6375
2143.81746	24090.8375
2146.78201	24102.0375
2149.74466	24074.1375
2152.7054	24068.5375
2155.66425	24048.3375
2158.6212	24090.6375
2161.57625	24061.8375
2164.52941	24065.7375
2167.48067	24049.0375
2170.43004	24067.8375
2173.37752	24037.9375
2176.32311	24027.3375
2179.26681	24032.7375
2182.20863	24017.4375
2185.14856	24042.1375
2188.08661	24010.6375
2191.02278	23987.5375
2193.95707	23951.3375
2196.88948	23969.2375
2199.82001	24003.5375
2202.74867	23962.5375
2205.67545	23947.8375
2208.60037	23894.8375
2211.52341	23846.4375
2214.44458	23829.9375
2217.36388	23754.3375
2220.28132	23726.8375
2223.1969	23689.5375
2226.11061	23629.2375
2229.02246	23584.6375
2231.93245	23576.3375
2234.84058	23514.0375
2237.74686	23444.0375
2240.65128	23441.9375
2243.55385	23439.8375
2246.45456	23422.0375
2249.35343	23374.0375
2252.25044	23325.1375
2255.14561	23298.0375
2258.03893	23267.9375
2260.93041	23277.4375
2263.82004	23155.5375
2266.70783	23155.5375
2269.59378	23084.8375
2272.4779	23059.6375
2275.36017	23001.3375
2278.24061	23003.1375
2281.11922	22925.2375
2283.996	22892.6375
2286.87094	22834.3375
2289.74405	22822.2375
2292.61534	22788.8375
2295.4848	22783.3375
2298.35243	22759.4375
2301.21824	22725.2375
2304.08223	22738.9375
2306.94439	22702.5375
2309.80474	22694.8375
2312.66327	22699.2375
2315.51999	22669.1375
2318.37489	22650.4375
2321.22797	22602.0375
2324.07925	22623.5375
2326.92871	22546.4375
2329.77637	22496.8375
2332.62222	22465.2375
2335.46626	22414.8375
2338.3085	22396.0375
2341.14893	22414.3375
2343.98756	22390.9375
2346.8244	22374.0375
2349.65943	22314.3375
2352.49267	22356.2375
2355.32411	22353.1375
2358.15376	22306.3375
2360.98161	22271.4375
2363.80768	22290.6375
2366.63195	22287.2375
2369.45444	22209.5375
2372.27514	22234.3375
2375.09405	22190.2375
2377.91118	22146.6375
2380.72652	22087.5375
2383.54009	22057.8375
2386.35187	22028.5375
2389.16188	22005.6375
2391.97011	21900.3375
2394.77657	21920.9375
2397.58125	21885.7375
2400.38416	21800.6375
2403.18529	21785.1375
2405.98466	21792.3375
2408.78226	21710.5375
2411.57809	21699.0375
2414.37216	21707.4375
2417.16446	21698.4375
2419.955	21610.9375
2422.74378	21608.2375
2425.5308	21644.0375
2428.31606	21558.2375
2431.09956	21564.9375
2433.88131	21552.5375
2436.6613	21540.0375
2439.43954	21530.9375
2442.21603	21525.3375
2444.99077	21459.8375
2447.76377	21485.9375
2450.53501	21424.9375
2453.30451	21462.5375
2456.07226	21405.3375
2458.83827	21381.3375
2461.60254	21354.2375
2464.36507	21357.0375
2467.12586	21371.7375
2469.88492	21321.5375
2472.64224	21309.2375
2475.39782	21292.9375
2478.15167	21293.0375
2480.90379	21229.4375
2483.65417	21251.9375
2486.40283	21212.8375
2489.14976	21239.7375
2491.89497	21218.0375
2494.63845	21207.9375
2497.3802	21187.8375
2500.12024	21143.4375
2502.85855	21145.0375
2505.59514	21117.9375
2508.33002	21143.2375
2511.06318	21080.2375
2513.79462	21061.0375
2516.52435	21064.9375
2519.25237	21018.3375
2521.97867	21066.8375
2524.70327	21027.0375
2527.42616	20968.6375
2530.14734	20969.6375
2532.86681	20917.4375
2535.58458	20889.9375
2538.30065	20885.2375
2541.01501	20851.5375
2543.72768	20782.2375
2546.43864	20789.1375
2549.14791	20756.0375
2551.85548	20697.2375
2554.56136	20671.4375
2557.26554	20654.9375
2559.96803	20618.5375
2562.66883	20597.9375
2565.36794	20583.3375
2568.06536	20559.1375
2570.7611	20541.3375
2573.45514	20468.3375
2576.14751	20446.5375
2578.83819	20405.5375
2581.52719	20371.5375
2584.21451	20339.3375
2586.90015	20375.1375
2589.58411	20276.2375
2592.2664	20261.3375
2594.94701	20237.3375
2597.62594	20209.8375
2600.30321	20150.4375
2602.9788	20163.5375
2605.65273	20089.7375
2608.32498	20092.4375
2610.99557	20052.1375
2613.66449	20034.8375
2616.33175	20007.4375
2618.99734	20002.1375
2621.66128	19958.8375
2624.32355	19947.5375
2626.98416	19886.3375
2629.64311	19908.5375
2632.30041	19879.1375
2634.95605	19864.7375
2637.61004	19807.4375
2640.26238	19795.5375
2642.91306	19773.9375
2645.56209	19796.8375
2648.20948	19797.8375
2650.85521	19747.6375
2653.4993	19746.6375
2656.14175	19749.9375
2658.78255	19754.8375
2661.42171	19760.1375
2664.05923	19753.6375
2666.6951	19727.8375
2669.32934	19743.5375
2671.96194	19747.3375
2674.59291	19753.2375
2677.22224	19710.6375
2679.84993	19758.1375
2682.476	19746.7375
2685.10043	19755.0375
2687.72324	19684.4375
2690.34441	19710.3375
2692.96396	19662.0375
2695.58188	19754.4375
2698.19818	19725.9375
2700.81285	19689.1375
2703.4259	19728.2375
2706.03733	19751.5375
2708.64714	19739.5375
2711.25533	19740.1375
2713.86191	19709.2375
2716.46687	19746.7375
2719.07021	19737.7375
2721.67194	19726.3375
2724.27206	19659.7375
2726.87057	19717.3375
2729.46747	19709.7375
2732.06276	19681.6375
2734.65644	19681.4375
2737.24852	19667.8375
2739.83899	19640.7375
2742.42786	19657.2375
2745.01513	19590.9375
2747.60079	19589.5375
2750.18486	19578.1375
2752.76733	19551.6375
2755.3482	19555.1375
2757.92747	19569.3375
2760.50515	19492.7375
2763.08123	19489.9375
2765.65573	19433.5375
2768.22863	19422.9375
2770.79994	19411.3375
2773.36967	19368.1375
2775.9378	19327.9375
2778.50435	19340.5375
2781.06932	19285.5375
2783.6327	19286.1375
2786.1945	19254.7375
2788.75471	19235.5375
2791.31335	19200.1375
2793.87041	19146.6375
2796.42589	19066.5375
2798.97979	19095.7375
2801.53212	19032.8375
2804.08288	19026.7375
2806.63206	18959.2375
2809.17967	18954.0375
2811.72571	18909.6375
2814.27018	18907.8375
2816.81308	18870.4375
2819.35442	18813.2375
2821.89419	18744.4375
2824.43239	18764.4375
2826.96904	18733.4375
2829.50412	18724.7375
2832.03763	18668.5375
2834.56959	18663.5375
2837.1	18630.5375
2839.62884	18654.3375
2842.15613	18616.2375
2844.68186	18592.7375
2847.20604	18596.6375
2849.72867	18635.0375
2852.24974	18582.6375
2854.76927	18589.5375
2857.28724	18508.9375
2859.80367	18531.4375
2862.31855	18497.5375
2864.83189	18470.4375
2867.34368	18464.1375
2869.85393	18475.8375
2872.36264	18415.6375
2874.8698	18472.2375
2877.37543	18450.0375
2879.87952	18451.1375
2882.38207	18462.4375
2884.88308	18443.8375
2887.38256	18457.2375
2889.88051	18460.9375
2892.37692	18448.8375
2894.8718	18415.2375
2897.36515	18447.3375
2899.85698	18418.4375
2902.34727	18473.7375
2904.83604	18456.8375
2907.32328	18510.7375
2909.809	18466.6375
2912.29319	18483.5375
2914.77587	18463.1375
2917.25702	18451.6375
2919.73665	18377.0375
2922.21476	18431.2375
2924.69136	18385.1375
2927.16644	18381.7375
2929.64	18374.5375
2932.11205	18365.0375
2934.58258	18291.2375
2937.05161	18322.7375
2939.51912	18336.2375
2941.98513	18337.7375
2944.44962	18258.2375
2946.91261	18178.0375
2949.37409	18219.7375
2951.83407	18222.9375
2954.29254	18225.5375
2956.74951	18162.6375
2959.20498	18116.7375
2961.65895	18109.5375
2964.11142	18084.1375
2966.56239	18082.8375
2969.01186	18088.5375
2971.45984	17990.3375
2973.90632	18012.8375
2976.35131	17964.0375
2978.7948	17957.5375
2981.23681	17883.4375
2983.67732	17861.4375
2986.11635	17813.3375
2988.55388	17768.1375
2990.98993	17766.6375
2993.4245	17703.2375
2995.85758	17702.9375
2998.28917	17626.2375
3000.71928	17631.0375
3003.14791	17582.4375
3005.57506	17553.2375
3008.00073	17530.0375
3010.42493	17527.0375
3012.84764	17488.5375
3015.26888	17494.3375
3017.68865	17438.9375
3020.10694	17446.5375
3022.52376	17375.1375
