Data from AgNPs_FTO_APTES_UA_5uM_R6G_10uM_NaF_0.1M_Addition_RamanShift__24__12-53-37-275.txt Node

Date: Fri Dec 17 12:53:37 GMT 2021
User: TCL
Spectrometer: QEP01345
Trigger mode: 4
Integration Time (sec): 7.000000E0
Scans to average: 10
Electric dark correction enabled: true
Nonlinearity correction enabled: false
Boxcar width: 0
XAxis mode: Raman Shifts
Number of Pixels in Spectrum: 1044
>>>>>Begin Spectral Data<<<<<
46.04893	-0.0875
50.45542	-1.5875
54.85868	-1.7875
59.25871	0.8125
63.6555	109.7125
68.04907	114.7125
72.43941	119.6125
76.82654	129.9125
81.21044	131.2125
85.59113	139.5125
89.96862	140.2125
94.34289	147.1125
98.71396	153.0125
103.08183	154.1125
107.4465	156.2125
111.80798	163.8125
116.16626	168.6125
120.52136	171.2125
124.87327	182.4125
129.222	184.5125
133.56755	199.0125
137.90993	210.3125
142.24913	222.4125
146.58517	245.7125
150.91804	289.7125
155.24774	329.6125
159.57429	412.8125
163.89768	525.1125
168.21792	680.9125
172.53501	918.3125
176.84895	1266.2125
181.15975	1767.4125
185.46741	2469.0125
189.77193	3405.5125
194.07331	4547.8125
198.37157	5852.5125
202.6667	7250.4125
206.9587	8617.3125
211.24758	9964.4125
215.53334	11308.2125
219.81599	12790.4125
224.09553	14438.6125
228.37195	16254.7125
232.64527	18246.0125
236.91549	20360.6125
241.18261	22455.6125
245.44663	24332.0125
249.70755	25946.0125
253.96539	27405.8125
258.22014	28577.6125
262.4718	29673.6125
266.72039	30510.9125
270.96589	31003.1125
275.20832	31150.9125
279.44768	30964.1125
283.68397	30647.4125
287.91719	30371.9125
292.14735	30229.0125
296.37445	30369.7125
300.59849	30719.0125
304.81948	31206.7125
309.03742	31547.3125
313.25231	31410.0125
317.46415	30497.4125
321.67296	29223.4125
325.87872	28141.6125
330.08145	27684.3125
334.28114	27737.1125
338.47781	28069.3125
342.67145	28615.1125
346.86207	29354.2125
351.04966	30396.6125
355.23424	31519.4125
359.4158	32546.6125
363.59435	33139.9125
367.76989	33399.3125
371.94243	33582.6125
376.11196	33664.7125
380.27849	33709.7125
384.44203	33732.2125
388.60257	33740.5125
392.76012	33834.7125
396.91468	34252.7125
401.06626	34939.5125
405.21485	35505.3125
409.36047	35356.6125
413.50311	34502.3125
417.64277	33783.8125
421.77947	33417.7125
425.9132	33403.6125
430.04396	33523.9125
434.17176	33776.0125
438.2966	34095.4125
442.41849	34645.7125
446.53742	35427.9125
450.6534	36289.6125
454.76644	37040.0125
458.87653	37374.6125
462.98368	37338.8125
467.08789	36897.8125
471.18916	36252.3125
475.2875	35446.4125
479.38291	34837.5125
483.4754	34394.8125
487.56496	34013.6125
491.6516	33702.8125
495.73531	33572.4125
499.81612	33515.1125
503.89401	33720.3125
507.96899	33902.7125
512.04106	34091.1125
516.11023	34262.7125
520.1765	34421.8125
524.23987	34280.6125
528.30034	33961.7125
532.35792	33553.1125
536.41261	33066.7125
540.46441	32735.1125
544.51333	32584.9125
548.55936	32851.9125
552.60252	33398.3125
556.64279	33945.9125
560.6802	34246.0125
564.71473	34434.0125
568.7464	35112.6125
572.7752	35718.9125
576.80114	35709.8125
580.82422	35589.8125
584.84444	35656.1125
588.86181	35690.7125
592.87633	35800.0125
596.888	36242.8125
600.89682	37152.0125
604.9028	39744.0125
608.90594	45686.4125
612.90624	52363.5125
616.90371	50047.3125
620.89834	40311.5125
624.89015	35763.6125
628.87913	34974.4125
632.86528	34909.1125
636.84862	34901.9125
640.82913	34457.4125
644.80683	33545.6125
648.78172	32933.6125
652.75379	33022.8125
656.72306	33733.4125
660.68952	34653.7125
664.65319	34525.1125
668.61405	33675.5125
672.57211	33347.4125
676.52738	33360.0125
680.47986	33343.0125
684.42955	33258.6125
688.37646	33184.4125
692.32058	33379.9125
696.26192	33687.8125
700.20048	33997.3125
704.13626	34264.2125
708.06928	34181.9125
711.99952	33919.5125
715.927	33740.7125
719.85171	33741.0125
723.77365	33606.1125
727.69284	33384.0125
731.60928	33168.1125
735.52295	33126.2125
739.43388	33244.3125
743.34206	33435.0125
747.24749	33590.9125
751.15017	33965.4125
755.05012	34492.2125
758.94733	35528.6125
762.8418	37600.0125
766.73354	40934.4125
770.62254	44335.9125
774.50882	45721.7125
778.39237	43820.3125
782.27321	40077.4125
786.15132	36789.4125
790.02671	34870.9125
793.89938	34002.6125
797.76935	33682.5125
801.6366	33498.6125
805.50115	33400.4125
809.36299	33212.6125
813.22213	33020.2125
817.07857	33002.2125
820.93231	33014.9125
824.78336	33066.2125
828.63172	33224.8125
832.47738	33254.5125
836.32036	33311.1125
840.16066	33316.8125
843.99827	33350.4125
847.8332	33345.1125
851.66546	33185.4125
855.49504	33205.1125
859.32195	33147.0125
863.1462	33005.0125
866.96777	32881.2125
870.78668	32847.0125
874.60293	32932.1125
878.41652	32946.9125
882.22745	33075.5125
886.03573	33186.7125
889.84136	33124.1125
893.64433	33046.7125
897.44466	32908.5125
901.24235	32861.3125
905.0374	32815.2125
908.8298	32838.1125
912.61957	32887.3125
916.40671	33064.7125
920.19121	33435.7125
923.97308	33713.1125
927.75233	33996.5125
931.52895	34057.0125
935.30295	33774.2125
939.07433	33181.7125
942.84309	32734.9125
946.60924	32531.4125
950.37278	32382.7125
954.13371	32224.6125
957.89203	32040.9125
961.64774	31905.0125
965.40086	31839.4125
969.15137	31715.8125
972.89929	31659.9125
976.64461	31640.8125
980.38733	31722.7125
984.12747	31907.9125
987.86502	32149.6125
991.59999	32508.9125
995.33237	33109.6125
999.06217	33984.5125
1002.78939	35127.8125
1006.51404	35981.7125
1010.23611	36609.3125
1013.95561	36982.7125
1017.67255	36957.0125
1021.38692	36569.0125
1025.09872	36280.3125
1028.80796	36603.9125
1032.51465	37470.1125
1036.21877	38249.4125
1039.92035	38295.0125
1043.61937	37813.5125
1047.31584	36838.0125
1051.00976	35829.7125
1054.70114	35284.6125
1058.38998	35109.6125
1062.07627	35218.2125
1065.76003	35361.1125
1069.44126	35532.3125
1073.11995	35828.9125
1076.79611	36091.4125
1080.46974	36405.6125
1084.14085	36755.9125
1087.80943	37157.2125
1091.47549	37281.3125
1095.13903	36917.1125
1098.80005	36251.7125
1102.45857	35631.6125
1106.11456	35313.1125
1109.76805	35342.9125
1113.41903	35694.2125
1117.06751	36137.1125
1120.71348	36737.4125
1124.35696	37291.4125
1127.99793	37873.1125
1131.63641	37951.7125
1135.2724	37359.0125
1138.90589	36721.0125
1142.5369	36267.2125
1146.16542	35928.6125
1149.79145	35780.0125
1153.415	35899.7125
1157.03607	36198.4125
1160.65467	36744.5125
1164.27079	37730.0125
1167.88443	39164.3125
1171.49561	41221.8125
1175.10432	44238.1125
1178.71056	48344.9125
1182.31434	52068.0125
1185.91565	54006.7125
1189.51451	54072.8125
1193.11091	52167.3125
1196.70485	49235.3125
1200.29634	46719.5125
1203.88538	44764.8125
1207.47197	43104.1125
1211.05612	41730.8125
1214.63782	41058.1125
1218.21708	40970.0125
1221.79391	41216.4125
1225.36829	41515.0125
1228.94024	41721.1125
1232.50976	41778.6125
1236.07685	41843.7125
1239.6415	41783.0125
1243.20374	41614.1125
1246.76355	41745.1125
1250.32093	42165.3125
1253.8759	43052.6125
1257.42845	44173.9125
1260.97859	45230.1125
1264.52631	46025.0125
1268.07163	46886.3125
1271.61453	47943.9125
1275.15503	49048.0125
1278.69312	50198.9125
1282.22882	51042.3125
1285.76211	51853.5125
1289.29301	52686.0125
1292.82151	53605.7125
1296.34761	54551.9125
1299.87133	56232.2125
1303.39266	58949.7125
1306.9116	62970.1125
1310.42815	67567.4125
1313.94233	70870.4125
1317.45412	71192.3125
1320.96354	69397.7125
1324.47058	66915.1125
1327.97525	64405.4125
1331.47754	62864.1125
1334.97747	62463.3125
1338.47502	62942.0125
1341.97022	63724.3125
1345.46305	64110.8125
1348.95352	64293.5125
1352.44163	64859.9125
1355.92738	66975.2125
1359.41078	71489.3125
1362.89183	76109.9125
1366.37053	74830.6125
1369.84688	67372.3125
1373.32088	59504.4125
1376.79254	54398.2125
1380.26186	51921.0125
1383.72883	50755.3125
1387.19347	49639.1125
1390.65578	48535.8125
1394.11575	47939.1125
1397.57339	47991.3125
1401.0287	48592.5125
1404.48168	49607.7125
1407.93234	50922.9125
1411.38068	51953.6125
1414.82669	52121.7125
1418.27039	51281.9125
1421.71177	49891.8125
1425.15083	48646.7125
1428.58758	47866.9125
1432.02203	47712.5125
1435.45416	47795.3125
1438.88399	48056.6125
1442.31151	48243.2125
1445.73673	48537.6125
1449.15965	48761.3125
1452.58027	48788.9125
1455.9986	48561.0125
1459.41463	48455.7125
1462.82837	48830.5125
1466.23982	49615.3125
1469.64898	50551.7125
1473.05586	51315.6125
1476.46045	51786.0125
1479.86276	52229.4125
1483.26279	52882.2125
1486.66054	53697.4125
1490.05602	54544.4125
1493.44922	55643.7125
1496.84016	56849.2125
1500.22882	58425.8125
1503.61521	60653.0125
1506.99934	63654.3125
1510.38121	66817.6125
1513.76081	68510.4125
1517.13816	67012.9125
1520.51324	63024.0125
1523.88607	58682.3125
1527.25665	55429.0125
1530.62498	53409.4125
1533.99105	52192.3125
1537.35488	51390.3125
1540.71647	50959.1125
1544.07581	50614.1125
1547.4329	50313.2125
1550.78776	50036.3125
1554.14038	49919.1125
1557.49077	50028.9125
1560.83892	50317.5125
1564.18484	50559.1125
1567.52853	50648.9125
1570.86999	50582.7125
1574.20922	50709.5125
1577.54624	50736.6125
1580.88103	50062.0125
1584.2136	49331.1125
1587.54395	49680.6125
1590.87208	51481.1125
1594.19801	54294.6125
1597.52172	57438.1125
1600.84321	58713.7125
1604.16251	57019.6125
1607.47959	53671.9125
1610.79447	50048.9125
1614.10715	46608.2125
1617.41763	43929.2125
1620.7259	42149.2125
1624.03199	41325.5125
1627.33587	41431.1125
1630.63757	42415.2125
1633.93707	44319.1125
1637.23439	47008.4125
1640.52951	50073.8125
1643.82246	53133.2125
1647.11321	55702.8125
1650.40179	56618.9125
1653.68819	54477.8125
1656.97241	49275.4125
1660.25446	43785.8125
1663.53433	39743.8125
1666.81203	37215.0125
1670.08756	35577.3125
1673.36092	34585.1125
1676.63211	33897.5125
1679.90115	33441.0125
1683.16801	33069.8125
1686.43272	32776.9125
1689.69527	32575.2125
1692.95567	32486.4125
1696.2139	32334.5125
1699.46999	32287.3125
1702.72392	32249.9125
1705.97571	32209.9125
1709.22535	32178.7125
1712.47284	32201.3125
1715.71819	32237.8125
1718.96139	32178.0125
1722.20246	32123.8125
1725.44139	32057.8125
1728.67818	31856.2125
1731.91284	31712.3125
1735.14537	31570.4125
1738.37576	31452.3125
1741.60403	31347.9125
1744.83017	31263.7125
1748.05418	31190.4125
1751.27607	31184.9125
1754.49584	31119.2125
1757.71349	31100.2125
1760.92903	31103.1125
1764.14244	31068.2125
1767.35375	31096.7125
1770.56294	31084.9125
1773.77002	31072.0125
1776.97499	30988.0125
1780.17785	30948.3125
1783.37861	30959.0125
1786.57727	30918.5125
1789.77382	30851.1125
1792.96828	30796.7125
1796.16064	30860.2125
1799.3509	30783.0125
1802.53907	30798.2125
1805.72514	30688.4125
1808.90913	30665.9125
1812.09102	30613.6125
1815.27083	30539.4125
1818.44856	30581.2125
1821.6242	30532.6125
1824.79776	30517.7125
1827.96924	30474.3125
1831.13864	30439.5125
1834.30597	30493.7125
1837.47122	30492.8125
1840.6344	30472.1125
1843.7955	30521.6125
1846.95454	30497.0125
1850.11151	30492.5125
1853.26642	30482.4125
1856.41926	30558.8125
1859.57004	30566.4125
1862.71876	30557.6125
1865.86542	30595.5125
1869.01003	30572.6125
1872.15258	30602.5125
1875.29308	30654.4125
1878.43152	30679.4125
1881.56792	30706.3125
1884.70227	30724.1125
1887.83457	30764.7125
1890.96482	30759.4125
1894.09304	30746.9125
1897.21921	30764.9125
1900.34335	30764.3125
1903.46544	30788.7125
1906.58551	30813.4125
1909.70353	30834.3125
1912.81953	30829.1125
1915.93349	30733.3125
1919.04543	30762.5125
1922.15534	30698.9125
1925.26322	30663.0125
1928.36908	30575.6125
1931.47292	30449.9125
1934.57473	30332.2125
1937.67453	30134.2125
1940.77232	30039.7125
1943.86808	29936.6125
1946.96184	29852.1125
1950.05358	29720.4125
1953.14331	29608.3125
1956.23103	29482.7125
1959.31675	29399.3125
1962.40046	29295.9125
1965.48217	29187.2125
1968.56188	29140.2125
1971.63959	29050.5125
1974.7153	28939.2125
1977.78901	28860.3125
1980.86073	28747.2125
1983.93046	28664.3125
1986.99819	28574.9125
1990.06394	28513.4125
1993.1277	28439.1125
1996.18947	28328.4125
1999.24925	28288.5125
2002.30706	28207.2125
2005.36288	28066.6125
2008.41672	28066.3125
2011.46859	27981.8125
2014.51848	27957.1125
2017.56639	27846.6125
2020.61233	27823.7125
2023.6563	27741.8125
2026.6983	27683.9125
2029.73833	27619.3125
2032.7764	27570.5125
2035.8125	27519.4125
2038.84664	27481.2125
2041.87881	27474.3125
2044.90903	27426.4125
2047.93729	27383.9125
2050.96359	27363.5125
2053.98794	27321.2125
2057.01034	27283.5125
2060.03078	27277.0125
2063.04927	27207.8125
2066.06582	27198.6125
2069.08042	27209.6125
2072.09307	27182.7125
2075.10378	27124.8125
2078.11255	27120.0125
2081.11938	27090.6125
2084.12426	27073.7125
2087.12722	27039.5125
2090.12824	27070.7125
2093.12732	27026.2125
2096.12447	27061.6125
2099.11969	27053.8125
2102.11299	27089.0125
2105.10435	27040.7125
2108.09379	27102.4125
2111.08131	27121.0125
2114.0669	27126.1125
2117.05057	27124.3125
2120.03233	27150.3125
2123.01216	27200.2125
2125.99008	27199.4125
2128.96609	27236.6125
2131.94018	27259.4125
2134.91236	27239.7125
2137.88263	27318.2125
2140.851	27303.2125
2143.81746	27335.9125
2146.78201	27348.3125
2149.74466	27360.0125
2152.7054	27361.5125
2155.66425	27339.2125
2158.6212	27337.2125
2161.57625	27362.1125
2164.52941	27324.1125
2167.48067	27338.5125
2170.43004	27275.0125
2173.37752	27314.8125
2176.32311	27308.6125
2179.26681	27314.3125
2182.20863	27273.6125
2185.14856	27344.8125
2188.08661	27314.9125
2191.02278	27332.7125
2193.95707	27283.9125
2196.88948	27323.7125
2199.82001	27364.1125
2202.74867	27305.4125
2205.67545	27306.9125
2208.60037	27276.5125
2211.52341	27257.5125
2214.44458	27247.6125
2217.36388	27185.1125
2220.28132	27151.8125
2223.1969	27103.3125
2226.11061	27069.5125
2229.02246	27032.0125
2231.93245	26980.3125
2234.84058	26915.2125
2237.74686	26905.1125
2240.65128	26853.8125
2243.55385	26842.5125
2246.45456	26768.5125
2249.35343	26753.9125
2252.25044	26684.8125
2255.14561	26674.7125
2258.03893	26669.0125
2260.93041	26604.5125
2263.82004	26600.8125
2266.70783	26522.7125
2269.59378	26451.9125
2272.4779	26403.0125
2275.36017	26360.3125
2278.24061	26335.6125
2281.11922	26249.6125
2283.996	26182.7125
2286.87094	26179.5125
2289.74405	26163.6125
2292.61534	26131.9125
2295.4848	26147.0125
2298.35243	26104.9125
2301.21824	26088.7125
2304.08223	26166.6125
2306.94439	26122.2125
2309.80474	26126.5125
2312.66327	26152.4125
2315.51999	26168.8125
2318.37489	26149.7125
2321.22797	26086.4125
2324.07925	26117.2125
2326.92871	26105.7125
2329.77637	26063.0125
2332.62222	26030.0125
2335.46626	26022.5125
2338.3085	26022.5125
2341.14893	26035.8125
2343.98756	26072.8125
2346.8244	26035.7125
2349.65943	26020.1125
2352.49267	26002.1125
2355.32411	26035.2125
2358.15376	25990.7125
2360.98161	26000.5125
2363.80768	25919.1125
2366.63195	25901.3125
2369.45444	25859.3125
2372.27514	25803.4125
2375.09405	25793.9125
2377.91118	25725.3125
2380.72652	25648.3125
2383.54009	25550.7125
2386.35187	25527.8125
2389.16188	25492.1125
2391.97011	25494.4125
2394.77657	25454.6125
2397.58125	25319.0125
2400.38416	25342.7125
2403.18529	25309.5125
2405.98466	25258.6125
2408.78226	25208.5125
2411.57809	25169.1125
2414.37216	25115.1125
2417.16446	25094.6125
2419.955	25083.4125
2422.74378	25058.3125
2425.5308	25013.4125
2428.31606	25013.5125
2431.09956	24973.9125
2433.88131	24967.5125
2436.6613	24956.5125
2439.43954	24918.0125
2442.21603	24958.1125
2444.99077	24913.1125
2447.76377	24934.2125
2450.53501	24916.6125
2453.30451	24910.6125
2456.07226	24889.0125
2458.83827	24843.2125
2461.60254	24822.7125
2464.36507	24835.2125
2467.12586	24823.5125
2469.88492	24840.2125
2472.64224	24847.0125
2475.39782	24841.9125
2478.15167	24848.7125
2480.90379	24864.7125
2483.65417	24858.4125
2486.40283	24851.1125
2489.14976	24900.4125
2491.89497	24866.4125
2494.63845	24946.7125
2497.3802	24872.5125
2500.12024	24901.0125
2502.85855	24883.8125
2505.59514	24844.4125
2508.33002	24849.3125
2511.06318	24826.5125
2513.79462	24733.8125
2516.52435	24769.8125
2519.25237	24753.2125
2521.97867	24691.0125
2524.70327	24663.1125
2527.42616	24634.4125
2530.14734	24648.2125
2532.86681	24625.5125
2535.58458	24590.8125
2538.30065	24560.3125
2541.01501	24550.0125
2543.72768	24518.0125
2546.43864	24484.2125
2549.14791	24472.2125
2551.85548	24453.8125
2554.56136	24403.1125
2557.26554	24422.6125
2559.96803	24402.1125
2562.66883	24362.9125
2565.36794	24354.4125
2568.06536	24343.3125
2570.7611	24289.7125
2573.45514	24257.0125
2576.14751	24250.5125
2578.83819	24263.0125
2581.52719	24218.5125
2584.21451	24178.7125
2586.90015	24217.3125
2589.58411	24181.5125
2592.2664	24175.8125
2594.94701	24144.6125
2597.62594	24132.2125
2600.30321	24094.5125
2602.9788	24120.0125
2605.65273	24078.8125
2608.32498	24058.2125
2610.99557	24082.7125
2613.66449	24050.9125
2616.33175	24016.6125
2618.99734	24064.0125
2621.66128	24068.6125
2624.32355	24035.3125
2626.98416	24067.8125
2629.64311	24065.7125
2632.30041	24067.2125
2634.95605	24024.5125
2637.61004	24008.5125
2640.26238	23990.5125
2642.91306	23952.6125
2645.56209	23939.5125
2648.20948	23900.0125
2650.85521	23871.1125
2653.4993	23850.1125
2656.14175	23850.7125
2658.78255	23855.6125
2661.42171	23853.7125
2664.05923	23877.6125
2666.6951	23912.3125
2669.32934	23925.4125
2671.96194	23952.0125
2674.59291	23969.3125
2677.22224	23925.7125
2679.84993	23964.6125
2682.476	23918.5125
2685.10043	23967.2125
2687.72324	23897.6125
2690.34441	23919.2125
2692.96396	23897.3125
2695.58188	23894.1125
2698.19818	23895.2125
2700.81285	23895.4125
2703.4259	23842.9125
2706.03733	23904.6125
2708.64714	23884.2125
2711.25533	23934.2125
2713.86191	23933.5125
2716.46687	23941.2125
2719.07021	23859.5125
2721.67194	23931.9125
2724.27206	23881.5125
2726.87057	23902.8125
2729.46747	23916.5125
2732.06276	23916.9125
2734.65644	23927.4125
2737.24852	23947.3125
2739.83899	23894.5125
2742.42786	23912.2125
2745.01513	23878.9125
2747.60079	23860.5125
2750.18486	23865.5125
2752.76733	23916.1125
2755.3482	23871.4125
2757.92747	23877.7125
2760.50515	23820.3125
2763.08123	23808.3125
2765.65573	23745.6125
2768.22863	23754.1125
2770.79994	23745.0125
2773.36967	23713.6125
2775.9378	23737.9125
2778.50435	23663.0125
2781.06932	23681.1125
2783.6327	23646.0125
2786.1945	23638.5125
2788.75471	23631.7125
2791.31335	23546.1125
2793.87041	23509.8125
2796.42589	23459.5125
2798.97979	23468.8125
2801.53212	23406.9125
2804.08288	23411.7125
2806.63206	23320.4125
2809.17967	23330.2125
2811.72571	23302.1125
2814.27018	23329.4125
2816.81308	23305.8125
2819.35442	23232.4125
2821.89419	23192.5125
2824.43239	23228.9125
2826.96904	23225.2125
2829.50412	23220.9125
2832.03763	23152.8125
2834.56959	23165.3125
2837.1	23121.7125
2839.62884	23112.5125
2842.15613	23102.3125
2844.68186	23124.6125
2847.20604	23105.9125
2849.72867	23150.1125
2852.24974	23116.5125
2854.76927	23091.2125
2857.28724	23049.1125
2859.80367	23024.1125
2862.31855	22981.3125
2864.83189	22960.4125
2867.34368	22914.3125
2869.85393	22923.4125
2872.36264	22925.9125
2874.8698	22925.2125
2877.37543	22952.9125
2879.87952	22933.0125
2882.38207	22938.5125
2884.88308	22938.8125
2887.38256	22960.0125
2889.88051	22956.9125
2892.37692	22928.1125
2894.8718	22948.6125
2897.36515	22946.1125
2899.85698	22961.5125
2902.34727	22978.3125
2904.83604	22994.9125
2907.32328	23053.3125
2909.809	23007.7125
2912.29319	23015.8125
2914.77587	23010.6125
2917.25702	23028.0125
2919.73665	23011.7125
2922.21476	22998.9125
2924.69136	22940.5125
2927.16644	22947.6125
2929.64	22905.7125
2932.11205	22875.7125
2934.58258	22794.8125
2937.05161	22818.7125
2939.51912	22833.9125
2941.98513	22802.9125
2944.44962	22736.4125
2946.91261	22712.3125
2949.37409	22757.2125
2951.83407	22737.7125
2954.29254	22734.4125
2956.74951	22665.0125
2959.20498	22643.0125
2961.65895	22602.3125
2964.11142	22615.6125
2966.56239	22522.6125
2969.01186	22511.9125
2971.45984	22402.0125
2973.90632	22412.4125
2976.35131	22371.5125
2978.7948	22344.1125
2981.23681	22275.9125
2983.67732	22213.4125
2986.11635	22172.1125
2988.55388	22156.3125
2990.98993	22123.4125
2993.4245	22049.7125
2995.85758	22031.0125
2998.28917	21952.1125
3000.71928	21961.9125
3003.14791	21895.8125
3005.57506	21896.9125
3008.00073	21824.5125
3010.42493	21848.2125
3012.84764	21815.7125
3015.26888	21780.5125
3017.68865	21745.0125
3020.10694	21733.3125
3022.52376	21657.8125
