Data from AgNPs_FTO_APTES_UA_1uM_R6G_10uM_NaF_0.1M_Addition_RamanShift__19__11-26-07-177.txt Node

Date: Fri Dec 17 11:26:07 GMT 2021
User: TCL
Spectrometer: QEP01345
Trigger mode: 4
Integration Time (sec): 7.000000E0
Scans to average: 10
Electric dark correction enabled: true
Nonlinearity correction enabled: false
Boxcar width: 0
XAxis mode: Raman Shifts
Number of Pixels in Spectrum: 1044
>>>>>Begin Spectral Data<<<<<
46.04893	0.0125
50.45542	-0.2875
54.85868	-0.3875
59.25871	0.5125
63.6555	91.0125
68.04907	97.7125
72.43941	98.9125
76.82654	108.0125
81.21044	111.5125
85.59113	115.4125
89.96862	118.7125
94.34289	122.5125
98.71396	129.2125
103.08183	135.2125
107.4465	138.5125
111.80798	140.5125
116.16626	142.0125
120.52136	143.5125
124.87327	152.8125
129.222	160.2125
133.56755	169.1125
137.90993	180.0125
142.24913	192.8125
146.58517	207.7125
150.91804	239.0125
155.24774	281.0125
159.57429	347.9125
163.89768	444.5125
168.21792	570.7125
172.53501	766.8125
176.84895	1066.2125
181.15975	1477.6125
185.46741	2058.4125
189.77193	2831.7125
194.07331	3779.9125
198.37157	4864.9125
202.6667	5991.8125
206.9587	7125.6125
211.24758	8265.8125
215.53334	9392.6125
219.81599	10613.4125
224.09553	11952.0125
228.37195	13444.1125
232.64527	15126.0125
236.91549	16808.2125
241.18261	18508.1125
245.44663	19987.7125
249.70755	21314.1125
253.96539	22383.5125
258.22014	23385.1125
262.4718	24154.8125
266.72039	24683.4125
270.96589	24955.1125
275.20832	24974.2125
279.44768	24722.9125
283.68397	24397.7125
287.91719	24108.3125
292.14735	23896.2125
296.37445	23896.0125
300.59849	24132.8125
304.81948	24314.9125
309.03742	24403.8125
313.25231	24220.3125
317.46415	23587.3125
321.67296	22793.0125
325.87872	22107.7125
330.08145	21771.6125
334.28114	21736.8125
338.47781	21899.6125
342.67145	22239.3125
346.86207	22712.8125
351.04966	23340.7125
355.23424	24029.3125
359.4158	24623.2125
363.59435	24993.2125
367.76989	25244.9125
371.94243	25352.6125
376.11196	25399.1125
380.27849	25455.2125
384.44203	25533.8125
388.60257	25596.9125
392.76012	25748.5125
396.91468	26016.4125
401.06626	26461.1125
405.21485	26779.7125
409.36047	26543.6125
413.50311	25978.4125
417.64277	25433.7125
421.77947	25187.3125
425.9132	25105.4125
430.04396	25185.1125
434.17176	25314.2125
438.2966	25549.4125
442.41849	25961.7125
446.53742	26595.3125
450.6534	27270.0125
454.76644	27813.4125
458.87653	28046.1125
462.98368	27975.2125
467.08789	27703.3125
471.18916	27285.8125
475.2875	26863.3125
479.38291	26667.8125
483.4754	26466.8125
487.56496	26218.7125
491.6516	25987.6125
495.73531	25705.9125
499.81612	25549.7125
503.89401	25701.9125
507.96899	25806.4125
512.04106	25893.4125
516.11023	25954.5125
520.1765	25949.1125
524.23987	25911.7125
528.30034	25669.8125
532.35792	25346.8125
536.41261	24957.6125
540.46441	24551.1125
544.51333	24402.4125
548.55936	24601.1125
552.60252	25068.4125
556.64279	25562.8125
560.6802	25814.5125
564.71473	26012.0125
568.7464	26411.9125
572.7752	26850.9125
576.80114	27019.5125
580.82422	27266.7125
584.84444	27587.5125
588.86181	27836.3125
592.87633	28191.9125
596.888	28550.7125
600.89682	29033.1125
604.9028	30613.5125
608.90594	34312.0125
612.90624	38258.4125
616.90371	36106.9125
620.89834	29448.0125
624.89015	26431.4125
628.87913	25982.1125
632.86528	26008.7125
636.84862	25855.2125
640.82913	25425.1125
644.80683	24737.7125
648.78172	24140.9125
652.75379	23988.4125
656.72306	24379.8125
660.68952	24902.9125
664.65319	24819.3125
668.61405	24205.1125
672.57211	24040.1125
676.52738	24087.0125
680.47986	24074.8125
684.42955	23906.6125
688.37646	23809.7125
692.32058	23950.6125
696.26192	24209.8125
700.20048	24521.9125
704.13626	24666.1125
708.06928	24595.7125
711.99952	24379.6125
715.927	24332.2125
719.85171	24383.2125
723.77365	24330.1125
727.69284	24036.3125
731.60928	23767.5125
735.52295	23649.8125
739.43388	23661.4125
743.34206	23804.0125
747.24749	23843.7125
751.15017	24022.8125
755.05012	24386.5125
758.94733	25097.1125
762.8418	26532.1125
766.73354	28901.3125
770.62254	31341.5125
774.50882	32278.2125
778.39237	30865.0125
782.27321	28334.3125
786.15132	26181.5125
790.02671	24858.8125
793.89938	24257.9125
797.76935	23996.9125
801.6366	23914.5125
805.50115	23786.7125
809.36299	23660.5125
813.22213	23424.7125
817.07857	23310.9125
820.93231	23281.4125
824.78336	23232.9125
828.63172	23174.6125
832.47738	23184.6125
836.32036	23235.8125
840.16066	23354.3125
843.99827	23425.5125
847.8332	23374.1125
851.66546	23253.6125
855.49504	23204.2125
859.32195	23182.7125
863.1462	23097.6125
866.96777	23019.9125
870.78668	22967.8125
874.60293	22996.2125
878.41652	23011.8125
882.22745	23104.2125
886.03573	23226.8125
889.84136	23233.3125
893.64433	23116.0125
897.44466	23024.8125
901.24235	23021.2125
905.0374	22903.9125
908.8298	22912.6125
912.61957	22906.6125
916.40671	23055.1125
920.19121	23384.9125
923.97308	23791.9125
927.75233	23998.4125
931.52895	24094.2125
935.30295	23862.8125
939.07433	23281.5125
942.84309	22858.7125
946.60924	22612.4125
950.37278	22511.0125
954.13371	22391.5125
957.89203	22254.4125
961.64774	22171.8125
965.40086	22096.0125
969.15137	22071.1125
972.89929	22000.3125
976.64461	21992.5125
980.38733	22042.3125
984.12747	22130.4125
987.86502	22286.9125
991.59999	22627.9125
995.33237	23091.8125
999.06217	23848.9125
1002.78939	24689.2125
1006.51404	25241.3125
1010.23611	25541.5125
1013.95561	25686.7125
1017.67255	25613.6125
1021.38692	25254.3125
1025.09872	25036.2125
1028.80796	25302.5125
1032.51465	26144.8125
1036.21877	26924.8125
1039.92035	27001.8125
1043.61937	26570.7125
1047.31584	25821.5125
1051.00976	25061.4125
1054.70114	24683.0125
1058.38998	24670.8125
1062.07627	24765.2125
1065.76003	24983.2125
1069.44126	25284.8125
1073.11995	25719.3125
1076.79611	26203.2125
1080.46974	26467.3125
1084.14085	26597.1125
1087.80943	26772.1125
1091.47549	26821.3125
1095.13903	26533.8125
1098.80005	25977.4125
1102.45857	25394.3125
1106.11456	24918.5125
1109.76805	24794.1125
1113.41903	24841.7125
1117.06751	25040.0125
1120.71348	25333.7125
1124.35696	25657.4125
1127.99793	26022.5125
1131.63641	26246.1125
1135.2724	25975.3125
1138.90589	25650.4125
1142.5369	25422.9125
1146.16542	25206.0125
1149.79145	25175.8125
1153.415	25242.2125
1157.03607	25502.0125
1160.65467	26028.8125
1164.27079	26859.6125
1167.88443	28228.1125
1171.49561	30050.1125
1175.10432	32714.7125
1178.71056	36032.8125
1182.31434	39240.4125
1185.91565	40966.5125
1189.51451	40846.2125
1193.11091	39355.3125
1196.70485	37124.6125
1200.29634	35095.7125
1203.88538	33568.0125
1207.47197	32355.3125
1211.05612	31427.5125
1214.63782	30786.0125
1218.21708	30520.0125
1221.79391	30426.8125
1225.36829	30534.7125
1228.94024	30351.7125
1232.50976	29973.9125
1236.07685	29576.0125
1239.6415	29259.7125
1243.20374	29227.9125
1246.76355	29311.2125
1250.32093	29727.7125
1253.8759	30358.4125
1257.42845	31248.0125
1260.97859	32258.5125
1264.52631	33277.9125
1268.07163	34312.4125
1271.61453	35419.0125
1275.15503	36594.1125
1278.69312	37654.5125
1282.22882	38369.2125
1285.76211	38949.3125
1289.29301	39507.2125
1292.82151	40250.6125
1296.34761	41482.2125
1299.87133	43290.8125
1303.39266	45990.9125
1306.9116	49443.5125
1310.42815	53298.5125
1313.94233	55681.4125
1317.45412	55937.9125
1320.96354	54510.9125
1324.47058	52824.8125
1327.97525	51146.7125
1331.47754	49776.3125
1334.97747	48973.6125
1338.47502	48579.3125
1341.97022	48262.6125
1345.46305	47979.8125
1348.95352	47573.1125
1352.44163	47709.1125
1355.92738	49084.3125
1359.41078	52036.1125
1362.89183	55162.9125
1366.37053	54669.5125
1369.84688	49840.1125
1373.32088	44069.8125
1376.79254	40008.9125
1380.26186	38088.9125
1383.72883	37478.6125
1387.19347	37040.3125
1390.65578	36421.8125
1394.11575	36014.3125
1397.57339	36077.8125
1401.0287	36499.1125
1404.48168	36939.8125
1407.93234	37130.8125
1411.38068	36849.2125
1414.82669	36091.6125
1418.27039	35013.6125
1421.71177	33954.5125
1425.15083	33100.0125
1428.58758	32600.6125
1432.02203	32694.3125
1435.45416	33165.5125
1438.88399	33875.7125
1442.31151	34423.4125
1445.73673	34900.4125
1449.15965	35288.5125
1452.58027	35544.1125
1455.9986	35666.6125
1459.41463	35966.8125
1462.82837	36562.4125
1466.23982	37297.7125
1469.64898	38000.4125
1473.05586	38361.8125
1476.46045	38321.2125
1479.86276	38117.3125
1483.26279	37806.3125
1486.66054	37661.1125
1490.05602	37809.6125
1493.44922	38219.6125
1496.84016	38821.7125
1500.22882	39983.5125
1503.61521	41857.8125
1506.99934	44179.5125
1510.38121	46228.9125
1513.76081	46963.8125
1517.13816	45565.5125
1520.51324	42776.9125
1523.88607	39999.1125
1527.25665	38077.6125
1530.62498	37101.9125
1533.99105	36603.2125
1537.35488	36237.5125
1540.71647	35922.7125
1544.07581	35541.3125
1547.4329	35091.8125
1550.78776	34752.5125
1554.14038	34531.7125
1557.49077	34490.9125
1560.83892	34512.5125
1564.18484	34747.2125
1567.52853	35062.6125
1570.86999	35516.4125
1574.20922	36185.1125
1577.54624	36752.0125
1580.88103	36795.6125
1584.2136	36513.4125
1587.54395	36786.9125
1590.87208	37858.5125
1594.19801	39742.0125
1597.52172	41965.5125
1600.84321	42691.5125
1604.16251	40860.2125
1607.47959	37829.0125
1610.79447	34745.9125
1614.10715	31980.2125
1617.41763	29653.3125
1620.7259	28111.3125
1624.03199	27366.2125
1627.33587	27422.2125
1630.63757	28244.7125
1633.93707	29943.3125
1637.23439	32515.0125
1640.52951	35958.4125
1643.82246	39726.9125
1647.11321	42688.0125
1650.40179	43348.3125
1653.68819	40848.2125
1656.97241	36121.4125
1660.25446	31135.0125
1663.53433	27434.2125
1666.81203	25037.6125
1670.08756	23549.0125
1673.36092	22579.8125
1676.63211	21971.2125
1679.90115	21539.5125
1683.16801	21211.4125
1686.43272	20994.7125
1689.69527	20794.3125
1692.95567	20655.3125
1696.2139	20570.7125
1699.46999	20488.7125
1702.72392	20436.1125
1705.97571	20410.4125
1709.22535	20327.8125
1712.47284	20347.4125
1715.71819	20324.7125
1718.96139	20265.4125
1722.20246	20185.3125
1725.44139	20142.4125
1728.67818	20008.9125
1731.91284	19893.5125
1735.14537	19815.1125
1738.37576	19694.2125
1741.60403	19658.3125
1744.83017	19575.2125
1748.05418	19520.6125
1751.27607	19473.4125
1754.49584	19485.3125
1757.71349	19444.9125
1760.92903	19389.0125
1764.14244	19431.5125
1767.35375	19377.2125
1770.56294	19342.6125
1773.77002	19295.5125
1776.97499	19273.9125
1780.17785	19227.4125
1783.37861	19240.0125
1786.57727	19195.0125
1789.77382	19174.4125
1792.96828	19170.4125
1796.16064	19160.4125
1799.3509	19120.0125
1802.53907	19066.8125
1805.72514	19049.1125
1808.90913	18964.9125
1812.09102	18949.2125
1815.27083	18905.2125
1818.44856	18854.7125
1821.6242	18848.9125
1824.79776	18832.9125
1827.96924	18838.1125
1831.13864	18837.2125
1834.30597	18846.3125
1837.47122	18863.6125
1840.6344	18871.0125
1843.7955	18896.0125
1846.95454	18895.8125
1850.11151	18899.3125
1853.26642	18903.0125
1856.41926	18877.3125
1859.57004	18906.7125
1862.71876	18863.4125
1865.86542	18873.4125
1869.01003	18864.2125
1872.15258	18876.5125
1875.29308	18874.8125
1878.43152	18883.9125
1881.56792	18888.3125
1884.70227	18901.1125
1887.83457	18900.3125
1890.96482	18867.4125
1894.09304	18860.4125
1897.21921	18868.0125
1900.34335	18858.0125
1903.46544	18835.7125
1906.58551	18850.1125
1909.70353	18804.2125
1912.81953	18777.1125
1915.93349	18693.2125
1919.04543	18619.1125
1922.15534	18598.1125
1925.26322	18510.2125
1928.36908	18469.1125
1931.47292	18434.6125
1934.57473	18383.7125
1937.67453	18296.9125
1940.77232	18243.9125
1943.86808	18212.1125
1946.96184	18127.1125
1950.05358	18035.4125
1953.14331	17973.0125
1956.23103	17940.7125
1959.31675	17887.4125
1962.40046	17827.5125
1965.48217	17772.3125
1968.56188	17764.9125
1971.63959	17705.2125
1974.7153	17655.3125
1977.78901	17573.7125
1980.86073	17501.2125
1983.93046	17451.6125
1986.99819	17402.7125
1990.06394	17369.9125
1993.1277	17297.7125
1996.18947	17275.5125
1999.24925	17229.2125
2002.30706	17133.6125
2005.36288	17101.3125
2008.41672	17073.2125
2011.46859	17002.7125
2014.51848	16952.2125
2017.56639	16961.6125
2020.61233	16918.7125
2023.6563	16890.4125
2026.6983	16887.4125
2029.73833	16874.9125
2032.7764	16821.9125
2035.8125	16764.8125
2038.84664	16780.0125
2041.87881	16788.0125
2044.90903	16765.1125
2047.93729	16707.9125
2050.96359	16698.8125
2053.98794	16669.6125
2057.01034	16667.7125
2060.03078	16678.2125
2063.04927	16650.3125
2066.06582	16621.6125
2069.08042	16594.2125
2072.09307	16583.8125
2075.10378	16583.4125
2078.11255	16551.5125
2081.11938	16580.8125
2084.12426	16540.5125
2087.12722	16530.5125
2090.12824	16540.7125
2093.12732	16583.7125
2096.12447	16557.2125
2099.11969	16536.2125
2102.11299	16558.0125
2105.10435	16531.5125
2108.09379	16569.4125
2111.08131	16604.5125
2114.0669	16608.0125
2117.05057	16610.9125
2120.03233	16640.3125
2123.01216	16652.8125
2125.99008	16657.1125
2128.96609	16658.6125
2131.94018	16705.4125
2134.91236	16704.3125
2137.88263	16699.5125
2140.851	16706.0125
2143.81746	16744.8125
2146.78201	16748.0125
2149.74466	16749.0125
2152.7054	16765.3125
2155.66425	16736.8125
2158.6212	16765.5125
2161.57625	16776.2125
2164.52941	16737.1125
2167.48067	16718.5125
2170.43004	16757.2125
2173.37752	16744.8125
2176.32311	16730.8125
2179.26681	16735.9125
2182.20863	16741.5125
2185.14856	16748.9125
2188.08661	16780.0125
2191.02278	16770.1125
2193.95707	16745.5125
2196.88948	16758.6125
2199.82001	16755.8125
2202.74867	16754.9125
2205.67545	16747.1125
2208.60037	16753.1125
2211.52341	16726.0125
2214.44458	16701.2125
2217.36388	16692.5125
2220.28132	16684.5125
2223.1969	16654.9125
2226.11061	16627.6125
2229.02246	16591.4125
2231.93245	16535.8125
2234.84058	16513.2125
2237.74686	16494.8125
2240.65128	16471.3125
2243.55385	16464.2125
2246.45456	16444.1125
2249.35343	16438.5125
2252.25044	16399.9125
2255.14561	16402.1125
2258.03893	16392.7125
2260.93041	16320.2125
2263.82004	16321.2125
2266.70783	16289.2125
2269.59378	16270.9125
2272.4779	16199.7125
2275.36017	16163.1125
2278.24061	16153.8125
2281.11922	16132.6125
2283.996	16137.6125
2286.87094	16120.8125
2289.74405	16058.2125
2292.61534	16064.5125
2295.4848	16013.8125
2298.35243	16038.1125
2301.21824	16053.3125
2304.08223	16021.0125
2306.94439	16023.6125
2309.80474	16081.8125
2312.66327	16097.9125
2315.51999	16084.8125
2318.37489	16063.3125
2321.22797	16071.2125
2324.07925	16098.5125
2326.92871	16034.8125
2329.77637	16063.2125
2332.62222	16017.1125
2335.46626	16021.4125
2338.3085	16037.1125
2341.14893	16034.0125
2343.98756	16037.9125
2346.8244	16047.9125
2349.65943	16079.2125
2352.49267	16046.1125
2355.32411	16047.8125
2358.15376	16024.4125
2360.98161	16014.0125
2363.80768	16018.9125
2366.63195	16008.2125
2369.45444	15956.9125
2372.27514	15943.0125
2375.09405	15898.0125
2377.91118	15915.7125
2380.72652	15871.4125
2383.54009	15795.9125
2386.35187	15791.0125
2389.16188	15726.9125
2391.97011	15709.7125
2394.77657	15694.3125
2397.58125	15681.4125
2400.38416	15646.9125
2403.18529	15634.0125
2405.98466	15593.8125
2408.78226	15573.6125
2411.57809	15570.7125
2414.37216	15539.3125
2417.16446	15496.8125
2419.955	15468.0125
2422.74378	15499.5125
2425.5308	15456.2125
2428.31606	15447.9125
2431.09956	15461.5125
2433.88131	15421.5125
2436.6613	15444.4125
2439.43954	15421.0125
2442.21603	15441.5125
2444.99077	15425.3125
2447.76377	15404.0125
2450.53501	15400.7125
2453.30451	15403.9125
2456.07226	15416.7125
2458.83827	15399.0125
2461.60254	15401.6125
2464.36507	15423.9125
2467.12586	15408.8125
2469.88492	15386.1125
2472.64224	15389.5125
2475.39782	15410.4125
2478.15167	15403.5125
2480.90379	15438.7125
2483.65417	15452.6125
2486.40283	15422.1125
2489.14976	15468.1125
2491.89497	15464.0125
2494.63845	15454.0125
2497.3802	15437.3125
2500.12024	15451.5125
2502.85855	15447.7125
2505.59514	15442.7125
2508.33002	15428.2125
2511.06318	15377.3125
2513.79462	15361.7125
2516.52435	15352.4125
2519.25237	15321.8125
2521.97867	15318.7125
2524.70327	15323.5125
2527.42616	15261.6125
2530.14734	15302.5125
2532.86681	15272.3125
2535.58458	15282.9125
2538.30065	15298.1125
2541.01501	15240.1125
2543.72768	15279.4125
2546.43864	15266.4125
2549.14791	15261.4125
2551.85548	15232.0125
2554.56136	15260.1125
2557.26554	15219.9125
2559.96803	15217.0125
2562.66883	15173.3125
2565.36794	15188.0125
2568.06536	15184.8125
2570.7611	15145.0125
2573.45514	15160.9125
2576.14751	15122.8125
2578.83819	15108.4125
2581.52719	15094.1125
2584.21451	15127.6125
2586.90015	15115.9125
2589.58411	15085.6125
2592.2664	15094.8125
2594.94701	15061.1125
2597.62594	15062.4125
2600.30321	15033.8125
2602.9788	15029.2125
2605.65273	15029.6125
2608.32498	15001.6125
2610.99557	14985.5125
2613.66449	15018.4125
2616.33175	15019.2125
2618.99734	14996.2125
2621.66128	14999.8125
2624.32355	15006.8125
2626.98416	15010.5125
2629.64311	15001.2125
2632.30041	15009.2125
2634.95605	15006.6125
2637.61004	14981.6125
2640.26238	14964.5125
2642.91306	14967.8125
2645.56209	14944.2125
2648.20948	14908.7125
2650.85521	14885.1125
2653.4993	14896.2125
2656.14175	14908.9125
2658.78255	14911.2125
2661.42171	14873.4125
2664.05923	14936.0125
2666.6951	14927.4125
2669.32934	14927.9125
2671.96194	14920.5125
2674.59291	14909.3125
2677.22224	14927.9125
2679.84993	14927.7125
2682.476	14928.2125
2685.10043	14906.3125
2687.72324	14867.2125
2690.34441	14867.5125
2692.96396	14818.4125
2695.58188	14832.7125
2698.19818	14832.2125
2700.81285	14847.2125
2703.4259	14837.8125
2706.03733	14815.1125
2708.64714	14846.4125
2711.25533	14834.4125
2713.86191	14846.7125
2716.46687	14881.7125
2719.07021	14888.9125
2721.67194	14892.5125
2724.27206	14895.5125
2726.87057	14863.3125
2729.46747	14895.2125
2732.06276	14920.8125
2734.65644	14874.5125
2737.24852	14890.0125
2739.83899	14848.4125
2742.42786	14880.7125
2745.01513	14873.9125
2747.60079	14864.2125
2750.18486	14837.6125
2752.76733	14857.9125
2755.3482	14867.1125
2757.92747	14810.7125
2760.50515	14828.2125
2763.08123	14836.7125
2765.65573	14810.1125
2768.22863	14821.7125
2770.79994	14783.3125
2773.36967	14817.4125
2775.9378	14794.9125
2778.50435	14790.2125
2781.06932	14814.3125
2783.6327	14795.8125
2786.1945	14752.4125
2788.75471	14751.8125
2791.31335	14730.2125
2793.87041	14719.9125
2796.42589	14671.7125
2798.97979	14663.1125
2801.53212	14601.2125
2804.08288	14581.2125
2806.63206	14554.3125
2809.17967	14574.7125
2811.72571	14501.4125
2814.27018	14528.8125
2816.81308	14511.7125
2819.35442	14516.7125
2821.89419	14467.6125
2824.43239	14455.3125
2826.96904	14446.6125
2829.50412	14434.7125
2832.03763	14412.3125
2834.56959	14426.5125
2837.1	14398.4125
2839.62884	14383.5125
2842.15613	14421.3125
2844.68186	14443.0125
2847.20604	14438.7125
2849.72867	14442.1125
2852.24974	14437.5125
2854.76927	14446.0125
2857.28724	14432.0125
2859.80367	14412.9125
2862.31855	14392.1125
2864.83189	14446.3125
2867.34368	14434.5125
2869.85393	14406.7125
2872.36264	14423.6125
2874.8698	14476.4125
2877.37543	14447.3125
2879.87952	14448.3125
2882.38207	14474.3125
2884.88308	14501.3125
2887.38256	14491.7125
2889.88051	14487.7125
2892.37692	14528.1125
2894.8718	14541.7125
2897.36515	14545.3125
2899.85698	14523.5125
2902.34727	14564.5125
2904.83604	14600.4125
2907.32328	14630.0125
2909.809	14632.8125
2912.29319	14619.9125
2914.77587	14634.3125
2917.25702	14600.7125
2919.73665	14624.3125
2922.21476	14620.8125
2924.69136	14563.9125
2927.16644	14612.1125
2929.64	14564.3125
2932.11205	14560.0125
2934.58258	14499.7125
2937.05161	14518.1125
2939.51912	14470.0125
2941.98513	14460.3125
2944.44962	14427.7125
2946.91261	14360.1125
2949.37409	14381.2125
2951.83407	14351.9125
2954.29254	14312.8125
2956.74951	14296.5125
2959.20498	14298.2125
2961.65895	14280.2125
2964.11142	14247.1125
2966.56239	14194.1125
2969.01186	14183.3125
2971.45984	14130.9125
2973.90632	14139.2125
2976.35131	14060.9125
2978.7948	14039.7125
2981.23681	14021.5125
2983.67732	13974.3125
2986.11635	13956.2125
2988.55388	13899.8125
2990.98993	13845.7125
2993.4245	13836.8125
2995.85758	13822.3125
2998.28917	13812.8125
3000.71928	13783.5125
3003.14791	13740.3125
3005.57506	13737.1125
3008.00073	13673.4125
3010.42493	13695.8125
3012.84764	13657.8125
3015.26888	13669.7125
3017.68865	13597.1125
3020.10694	13656.9125
3022.52376	13589.9125
3024.9391	13578.2125
