Data from AgNPs_FTO_APTES_UA_2uM_R6G_10uM_NaF_0.1M_Addition_RamanShift__11__11-56-27-211.txt Node

Date: Fri Dec 17 11:56:27 GMT 2021
User: TCL
Spectrometer: QEP01345
Trigger mode: 4
Integration Time (sec): 7.000000E0
Scans to average: 10
Electric dark correction enabled: true
Nonlinearity correction enabled: false
Boxcar width: 0
XAxis mode: Raman Shifts
Number of Pixels in Spectrum: 1044
>>>>>Begin Spectral Data<<<<<
46.04893	0.275
50.45542	0.175
54.85868	-2.325
59.25871	-0.625
63.6555	112.175
68.04907	116.875
72.43941	121.175
76.82654	130.975
81.21044	133.975
85.59113	138.075
89.96862	141.675
94.34289	150.175
98.71396	154.975
103.08183	159.775
107.4465	163.775
111.80798	164.975
116.16626	170.775
120.52136	173.575
124.87327	182.875
129.222	194.575
133.56755	203.675
137.90993	220.975
142.24913	238.175
146.58517	260.075
150.91804	305.175
155.24774	361.575
159.57429	441.275
163.89768	563.375
168.21792	743.275
172.53501	997.075
176.84895	1370.775
181.15975	1931.875
185.46741	2712.575
189.77193	3731.875
194.07331	5010.675
198.37157	6462.475
202.6667	8000.775
206.9587	9515.875
211.24758	10988.175
215.53334	12486.975
219.81599	14007.375
224.09553	15726.875
228.37195	17631.375
232.64527	19712.375
236.91549	21976.575
241.18261	24256.475
245.44663	26462.375
249.70755	28567.075
253.96539	30351.275
258.22014	31797.275
262.4718	32922.175
266.72039	33707.975
270.96589	34113.575
275.20832	34087.775
279.44768	33792.375
283.68397	33369.075
287.91719	32892.575
292.14735	32569.875
296.37445	32334.975
300.59849	32181.275
304.81948	32111.775
309.03742	32026.975
313.25231	31876.575
317.46415	31644.175
321.67296	31244.975
325.87872	30892.675
330.08145	30768.875
334.28114	30813.775
338.47781	31064.375
342.67145	31352.775
346.86207	31763.475
351.04966	32237.875
355.23424	32712.875
359.4158	33151.975
363.59435	33563.575
367.76989	33810.975
371.94243	34007.775
376.11196	34121.575
380.27849	34256.975
384.44203	34431.275
388.60257	34662.875
392.76012	34995.275
396.91468	35506.075
401.06626	35988.775
405.21485	36350.675
409.36047	36315.875
413.50311	36113.075
417.64277	35975.375
421.77947	36071.775
425.9132	36332.875
430.04396	36521.975
434.17176	36660.875
438.2966	36852.575
442.41849	37143.675
446.53742	37658.175
450.6534	38223.675
454.76644	38643.575
458.87653	38816.875
462.98368	38923.175
467.08789	38785.375
471.18916	38554.175
475.2875	38180.075
479.38291	37881.075
483.4754	37695.375
487.56496	37479.675
491.6516	37281.575
495.73531	37061.975
499.81612	37000.775
503.89401	37232.075
507.96899	37427.675
512.04106	37530.275
516.11023	37453.575
520.1765	37275.975
524.23987	37029.875
528.30034	36789.275
532.35792	36548.575
536.41261	36341.275
540.46441	36173.075
544.51333	36200.375
548.55936	36459.875
552.60252	36935.675
556.64279	37310.475
560.6802	37643.075
564.71473	37784.975
568.7464	38130.475
572.7752	38729.875
576.80114	39508.075
580.82422	40480.375
584.84444	41482.175
588.86181	42434.775
592.87633	43182.075
596.888	43110.975
600.89682	42348.775
604.9028	42547.375
608.90594	44429.775
612.90624	46080.475
616.90371	44096.375
620.89834	39867.975
624.89015	37981.075
628.87913	37686.575
632.86528	37883.575
636.84862	37931.175
640.82913	37528.475
644.80683	36909.575
648.78172	36509.775
652.75379	36454.075
656.72306	36764.475
660.68952	37117.375
664.65319	37081.275
668.61405	36785.275
672.57211	36801.975
676.52738	36923.875
680.47986	36849.775
684.42955	36721.975
688.37646	36638.075
692.32058	36800.575
696.26192	37124.275
700.20048	37465.375
704.13626	37704.975
708.06928	37656.075
711.99952	37547.975
715.927	37459.875
719.85171	37443.575
723.77365	37361.775
727.69284	37025.075
731.60928	36677.675
735.52295	36509.675
739.43388	36460.675
743.34206	36559.575
747.24749	36697.675
751.15017	36918.875
755.05012	37295.375
758.94733	37922.275
762.8418	39005.075
766.73354	40664.575
770.62254	42157.175
774.50882	42479.575
778.39237	41428.575
782.27321	39781.075
786.15132	38471.775
790.02671	37585.975
793.89938	37077.075
797.76935	36830.475
801.6366	36690.275
805.50115	36593.375
809.36299	36523.175
813.22213	36299.075
817.07857	36197.075
820.93231	36101.175
824.78336	36073.975
828.63172	36016.275
832.47738	35933.875
836.32036	35913.875
840.16066	35954.575
843.99827	35941.175
847.8332	35935.775
851.66546	35979.175
855.49504	36086.675
859.32195	36131.375
863.1462	36124.875
866.96777	36119.075
870.78668	36158.775
874.60293	36247.075
878.41652	36312.975
882.22745	36387.775
886.03573	36550.175
889.84136	36574.475
893.64433	36535.875
897.44466	36463.175
901.24235	36435.375
905.0374	36371.075
908.8298	36439.175
912.61957	36513.675
916.40671	36648.375
920.19121	36916.075
923.97308	37086.275
927.75233	37120.975
931.52895	36910.875
935.30295	36563.575
939.07433	36205.375
942.84309	35944.975
946.60924	35711.675
950.37278	35660.175
954.13371	35608.275
957.89203	35545.575
961.64774	35482.875
965.40086	35446.575
969.15137	35390.375
972.89929	35325.675
976.64461	35246.075
980.38733	35247.175
984.12747	35216.875
987.86502	35361.575
991.59999	35487.875
995.33237	35663.875
999.06217	35984.375
1002.78939	36450.275
1006.51404	36996.075
1010.23611	37569.775
1013.95561	37868.675
1017.67255	37920.975
1021.38692	37656.575
1025.09872	37245.875
1028.80796	36905.575
1032.51465	36717.375
1036.21877	36727.375
1039.92035	36768.275
1043.61937	36853.175
1047.31584	36972.775
1051.00976	37061.175
1054.70114	37136.375
1058.38998	37348.775
1062.07627	37667.875
1065.76003	38066.875
1069.44126	38425.975
1073.11995	38963.675
1076.79611	39443.775
1080.46974	39713.275
1084.14085	39752.175
1087.80943	39894.975
1091.47549	40123.875
1095.13903	40188.175
1098.80005	39945.375
1102.45857	39372.275
1106.11456	38781.075
1109.76805	38362.475
1113.41903	38262.575
1117.06751	38205.275
1120.71348	38279.675
1124.35696	38478.975
1127.99793	38693.975
1131.63641	38850.975
1135.2724	38847.575
1138.90589	38850.375
1142.5369	38826.175
1146.16542	38980.475
1149.79145	39123.875
1153.415	39226.875
1157.03607	39418.075
1160.65467	39976.075
1164.27079	40916.275
1167.88443	42179.575
1171.49561	43686.975
1175.10432	45309.775
1178.71056	47313.475
1182.31434	49337.575
1185.91565	50923.275
1189.51451	51635.875
1193.11091	51597.775
1196.70485	50741.475
1200.29634	49369.575
1203.88538	48098.975
1207.47197	47286.175
1211.05612	46651.875
1214.63782	46029.075
1218.21708	45205.375
1221.79391	44404.175
1225.36829	43775.775
1228.94024	43369.475
1232.50976	43239.275
1236.07685	43095.875
1239.6415	42991.075
1243.20374	43059.275
1246.76355	43256.375
1250.32093	43713.975
1253.8759	44307.275
1257.42845	45149.475
1260.97859	46113.175
1264.52631	47020.475
1268.07163	47921.575
1271.61453	48770.375
1275.15503	49562.375
1278.69312	50394.975
1282.22882	51002.675
1285.76211	51791.175
1289.29301	52694.875
1292.82151	53781.975
1296.34761	55083.675
1299.87133	56736.675
1303.39266	58367.275
1306.9116	60119.675
1310.42815	61507.975
1313.94233	62299.675
1317.45412	62421.275
1320.96354	62110.975
1324.47058	62131.075
1327.97525	62259.175
1331.47754	62511.375
1334.97747	62765.675
1338.47502	63208.475
1341.97022	63621.675
1345.46305	63890.375
1348.95352	63753.975
1352.44163	63509.875
1355.92738	63213.075
1359.41078	63241.075
1362.89183	63397.475
1366.37053	62224.675
1369.84688	59160.675
1373.32088	55311.775
1376.79254	52345.375
1380.26186	50877.275
1383.72883	50398.775
1387.19347	50197.875
1390.65578	49790.675
1394.11575	49450.875
1397.57339	49466.675
1401.0287	49739.375
1404.48168	50067.875
1407.93234	50081.775
1411.38068	49818.675
1414.82669	49055.075
1418.27039	48032.375
1421.71177	46926.175
1425.15083	46048.275
1428.58758	45761.475
1432.02203	46042.575
1435.45416	46699.675
1438.88399	47488.275
1442.31151	48120.875
1445.73673	48334.575
1449.15965	48481.175
1452.58027	48569.075
1455.9986	48621.675
1459.41463	48992.075
1462.82837	49599.075
1466.23982	50394.775
1469.64898	50883.675
1473.05586	51271.775
1476.46045	51324.675
1479.86276	51123.375
1483.26279	50930.775
1486.66054	50758.375
1490.05602	50960.475
1493.44922	51368.575
1496.84016	51980.075
1500.22882	52807.675
1503.61521	53986.575
1506.99934	54904.275
1510.38121	55622.575
1513.76081	55602.575
1517.13816	54847.075
1520.51324	53717.375
1523.88607	52887.775
1527.25665	52465.375
1530.62498	52287.475
1533.99105	52100.575
1537.35488	51566.575
1540.71647	50887.175
1544.07581	50068.875
1547.4329	49260.875
1550.78776	48581.975
1554.14038	48086.475
1557.49077	47825.875
1560.83892	47752.875
1564.18484	47708.475
1567.52853	47675.075
1570.86999	47811.375
1574.20922	48330.075
1577.54624	48867.175
1580.88103	49029.775
1584.2136	49275.675
1587.54395	49877.975
1590.87208	51144.075
1594.19801	52917.075
1597.52172	54615.375
1600.84321	55092.075
1604.16251	53688.175
1607.47959	51254.375
1610.79447	48595.375
1614.10715	45914.075
1617.41763	43561.675
1620.7259	41772.575
1624.03199	40806.975
1627.33587	40665.575
1630.63757	41291.475
1633.93707	42961.775
1637.23439	45634.675
1640.52951	49465.275
1643.82246	53651.275
1647.11321	56686.375
1650.40179	56773.675
1653.68819	53734.875
1656.97241	48790.875
1660.25446	44063.775
1663.53433	40566.875
1666.81203	38204.575
1670.08756	36660.175
1673.36092	35742.375
1676.63211	35086.075
1679.90115	34570.875
1683.16801	34239.275
1686.43272	33965.675
1689.69527	33773.575
1692.95567	33536.675
1696.2139	33480.675
1699.46999	33358.975
1702.72392	33284.975
1705.97571	33235.075
1709.22535	33241.875
1712.47284	33214.075
1715.71819	33196.175
1718.96139	33136.475
1722.20246	33019.575
1725.44139	32926.275
1728.67818	32745.075
1731.91284	32652.175
1735.14537	32507.275
1738.37576	32400.475
1741.60403	32283.875
1744.83017	32166.275
1748.05418	32154.575
1751.27607	32091.475
1754.49584	32031.575
1757.71349	32031.675
1760.92903	31950.075
1764.14244	31988.875
1767.35375	31951.475
1770.56294	31920.975
1773.77002	31924.175
1776.97499	31849.875
1780.17785	31762.075
1783.37861	31798.075
1786.57727	31765.375
1789.77382	31686.275
1792.96828	31585.475
1796.16064	31579.275
1799.3509	31472.875
1802.53907	31518.475
1805.72514	31406.975
1808.90913	31351.675
1812.09102	31289.975
1815.27083	31239.775
1818.44856	31219.075
1821.6242	31221.975
1824.79776	31178.675
1827.96924	31159.575
1831.13864	31157.775
1834.30597	31185.375
1837.47122	31212.475
1840.6344	31199.475
1843.7955	31203.675
1846.95454	31190.075
1850.11151	31192.975
1853.26642	31121.575
1856.41926	31121.275
1859.57004	31139.875
1862.71876	31042.075
1865.86542	31013.875
1869.01003	30966.575
1872.15258	30943.475
1875.29308	30919.475
1878.43152	30882.175
1881.56792	30799.075
1884.70227	30789.275
1887.83457	30782.875
1890.96482	30757.975
1894.09304	30652.575
1897.21921	30652.375
1900.34335	30541.875
1903.46544	30540.875
1906.58551	30489.875
1909.70353	30432.275
1912.81953	30423.275
1915.93349	30318.475
1919.04543	30254.675
1922.15534	30211.075
1925.26322	30175.775
1928.36908	30143.475
1931.47292	30049.475
1934.57473	29974.375
1937.67453	29904.575
1940.77232	29796.275
1943.86808	29730.075
1946.96184	29708.775
1950.05358	29613.575
1953.14331	29537.675
1956.23103	29508.775
1959.31675	29376.475
1962.40046	29313.375
1965.48217	29229.975
1968.56188	29173.275
1971.63959	29088.875
1974.7153	29029.075
1977.78901	28898.375
1980.86073	28813.075
1983.93046	28756.075
1986.99819	28630.775
1990.06394	28571.475
1993.1277	28492.675
1996.18947	28391.975
1999.24925	28329.375
2002.30706	28241.775
2005.36288	28118.475
2008.41672	28059.975
2011.46859	28050.875
2014.51848	27925.575
2017.56639	27825.275
2020.61233	27757.375
2023.6563	27716.875
2026.6983	27667.475
2029.73833	27633.575
2032.7764	27541.075
2035.8125	27481.375
2038.84664	27469.175
2041.87881	27408.675
2044.90903	27395.775
2047.93729	27319.075
2050.96359	27308.375
2053.98794	27253.975
2057.01034	27218.775
2060.03078	27202.475
2063.04927	27219.575
2066.06582	27197.975
2069.08042	27204.275
2072.09307	27175.675
2075.10378	27137.275
2078.11255	27103.975
2081.11938	27120.175
2084.12426	27072.375
2087.12722	27083.575
2090.12824	27074.275
2093.12732	27120.675
2096.12447	27162.175
2099.11969	27126.775
2102.11299	27120.875
2105.10435	27106.975
2108.09379	27116.775
2111.08131	27140.875
2114.0669	27176.875
2117.05057	27189.675
2120.03233	27189.075
2123.01216	27212.175
2125.99008	27268.275
2128.96609	27214.775
2131.94018	27327.275
2134.91236	27315.375
2137.88263	27293.675
2140.851	27282.175
2143.81746	27331.975
2146.78201	27341.275
2149.74466	27328.775
2152.7054	27277.675
2155.66425	27315.475
2158.6212	27313.275
2161.57625	27282.075
2164.52941	27302.975
2167.48067	27262.075
2170.43004	27287.375
2173.37752	27299.775
2176.32311	27285.075
2179.26681	27255.575
2182.20863	27234.875
2185.14856	27227.375
2188.08661	27215.775
2191.02278	27210.775
2193.95707	27201.275
2196.88948	27199.075
2199.82001	27205.775
2202.74867	27155.775
2205.67545	27127.375
2208.60037	27142.175
2211.52341	27069.175
2214.44458	27006.375
2217.36388	26903.075
2220.28132	26914.275
2223.1969	26840.275
2226.11061	26799.575
2229.02246	26729.075
2231.93245	26714.175
2234.84058	26700.275
2237.74686	26630.875
2240.65128	26647.675
2243.55385	26587.075
2246.45456	26542.775
2249.35343	26533.775
2252.25044	26490.575
2255.14561	26426.375
2258.03893	26382.775
2260.93041	26320.675
2263.82004	26308.575
2266.70783	26255.275
2269.59378	26192.575
2272.4779	26141.875
2275.36017	26030.975
2278.24061	26068.275
2281.11922	25960.175
2283.996	25928.375
2286.87094	25903.575
2289.74405	25859.475
2292.61534	25792.875
2295.4848	25799.675
2298.35243	25760.975
2301.21824	25743.175
2304.08223	25776.475
2306.94439	25732.275
2309.80474	25692.675
2312.66327	25647.775
2315.51999	25629.975
2318.37489	25634.675
2321.22797	25607.775
2324.07925	25593.075
2326.92871	25546.375
2329.77637	25489.475
2332.62222	25503.575
2335.46626	25422.175
2338.3085	25355.875
2341.14893	25401.075
2343.98756	25396.775
2346.8244	25392.175
2349.65943	25299.375
2352.49267	25336.075
2355.32411	25269.275
2358.15376	25244.275
2360.98161	25240.875
2363.80768	25211.375
2366.63195	25214.475
2369.45444	25177.075
2372.27514	25144.475
2375.09405	25124.375
2377.91118	25087.575
2380.72652	25022.775
2383.54009	24981.475
2386.35187	24937.575
2389.16188	24917.275
2391.97011	24855.975
2394.77657	24803.175
2397.58125	24760.275
2400.38416	24760.875
2403.18529	24723.775
2405.98466	24692.875
2408.78226	24633.775
2411.57809	24624.875
2414.37216	24609.375
2417.16446	24600.575
2419.955	24541.375
2422.74378	24536.975
2425.5308	24494.975
2428.31606	24499.075
2431.09956	24454.575
2433.88131	24377.775
2436.6613	24422.275
2439.43954	24431.375
2442.21603	24383.675
2444.99077	24390.875
2447.76377	24372.875
2450.53501	24317.675
2453.30451	24380.175
2456.07226	24291.675
2458.83827	24306.975
2461.60254	24248.975
2464.36507	24260.375
2467.12586	24226.075
2469.88492	24160.275
2472.64224	24191.775
2475.39782	24150.275
2478.15167	24160.175
2480.90379	24133.575
2483.65417	24112.075
2486.40283	24102.175
2489.14976	24137.375
2491.89497	24059.075
2494.63845	24077.575
2497.3802	24056.575
2500.12024	24047.775
2502.85855	24045.175
2505.59514	23982.975
2508.33002	23982.975
2511.06318	23934.875
2513.79462	23940.475
2516.52435	23925.975
2519.25237	23883.675
2521.97867	23919.275
2524.70327	23870.875
2527.42616	23811.675
2530.14734	23831.375
2532.86681	23806.175
2535.58458	23782.575
2538.30065	23796.775
2541.01501	23703.775
2543.72768	23678.275
2546.43864	23653.775
2549.14791	23585.975
2551.85548	23542.075
2554.56136	23567.475
2557.26554	23487.775
2559.96803	23473.075
2562.66883	23440.975
2565.36794	23407.075
2568.06536	23428.075
2570.7611	23362.675
2573.45514	23269.075
2576.14751	23311.275
2578.83819	23199.875
2581.52719	23240.975
2584.21451	23183.975
2586.90015	23173.575
2589.58411	23113.475
2592.2664	23092.875
2594.94701	23050.575
2597.62594	23025.275
2600.30321	22979.275
2602.9788	22979.875
2605.65273	22922.375
2608.32498	22924.975
2610.99557	22868.975
2613.66449	22868.675
2616.33175	22857.975
2618.99734	22839.475
2621.66128	22795.875
2624.32355	22763.175
2626.98416	22733.575
2629.64311	22701.575
2632.30041	22701.075
2634.95605	22698.275
2637.61004	22638.775
2640.26238	22645.175
2642.91306	22625.875
2645.56209	22599.275
2648.20948	22640.475
2650.85521	22573.175
2653.4993	22579.175
2656.14175	22584.875
2658.78255	22590.575
2661.42171	22582.575
2664.05923	22558.775
2666.6951	22601.775
2669.32934	22576.675
2671.96194	22582.275
2674.59291	22570.975
2677.22224	22578.975
2679.84993	22586.875
2682.476	22596.675
2685.10043	22597.775
2687.72324	22561.775
2690.34441	22584.975
2692.96396	22538.375
2695.58188	22552.875
2698.19818	22530.175
2700.81285	22532.275
2703.4259	22515.375
2706.03733	22560.075
2708.64714	22544.375
2711.25533	22537.175
2713.86191	22515.775
2716.46687	22558.175
2719.07021	22505.575
2721.67194	22549.775
2724.27206	22493.975
2726.87057	22527.375
2729.46747	22521.475
2732.06276	22546.675
2734.65644	22458.375
2737.24852	22501.775
2739.83899	22488.775
2742.42786	22485.275
2745.01513	22446.875
2747.60079	22446.375
2750.18486	22438.475
2752.76733	22409.775
2755.3482	22362.775
2757.92747	22346.775
2760.50515	22348.875
2763.08123	22293.175
2765.65573	22255.975
2768.22863	22252.775
2770.79994	22230.975
2773.36967	22225.175
2775.9378	22217.275
2778.50435	22143.675
2781.06932	22118.775
2783.6327	22114.275
2786.1945	22056.875
2788.75471	22055.275
2791.31335	22042.675
2793.87041	21940.575
2796.42589	21881.875
2798.97979	21898.275
2801.53212	21841.975
2804.08288	21801.775
2806.63206	21751.575
2809.17967	21697.175
2811.72571	21651.575
2814.27018	21664.575
2816.81308	21576.175
2819.35442	21565.275
2821.89419	21519.575
2824.43239	21477.575
2826.96904	21437.375
2829.50412	21434.675
2832.03763	21385.675
2834.56959	21359.375
2837.1	21303.075
2839.62884	21338.675
2842.15613	21263.875
2844.68186	21295.375
2847.20604	21281.175
2849.72867	21278.975
2852.24974	21280.275
2854.76927	21233.975
2857.28724	21191.375
2859.80367	21169.175
2862.31855	21134.775
2864.83189	21147.375
2867.34368	21086.175
2869.85393	21091.275
2872.36264	21079.875
2874.8698	21075.775
2877.37543	21062.375
2879.87952	21057.575
2882.38207	21074.875
2884.88308	21077.075
2887.38256	21054.975
2889.88051	21051.375
2892.37692	21075.775
2894.8718	21064.075
2897.36515	21069.275
2899.85698	21035.475
2902.34727	21108.875
2904.83604	21090.275
2907.32328	21116.675
2909.809	21021.175
2912.29319	21097.975
2914.77587	21061.675
2917.25702	21054.775
2919.73665	21066.475
2922.21476	21051.875
2924.69136	21000.975
2927.16644	21018.875
2929.64	20976.075
2932.11205	20944.775
2934.58258	20863.975
2937.05161	20937.375
2939.51912	20929.775
2941.98513	20862.275
2944.44962	20868.575
2946.91261	20806.675
2949.37409	20817.775
2951.83407	20780.575
2954.29254	20781.475
2956.74951	20781.275
2959.20498	20739.175
2961.65895	20680.975
2964.11142	20705.975
2966.56239	20604.475
2969.01186	20612.475
2971.45984	20564.075
2973.90632	20538.275
2976.35131	20539.675
2978.7948	20514.275
2981.23681	20407.475
2983.67732	20419.975
2986.11635	20339.075
2988.55388	20314.175
2990.98993	20244.475
2993.4245	20218.375
2995.85758	20181.575
2998.28917	20147.175
3000.71928	20058.675
3003.14791	20058.175
3005.57506	20070.975
3008.00073	19993.275
3010.42493	19982.675
3012.84764	19944.975
3015.26888	19943.975
3017.68865	19918.875
3020.10694	19865.075
3022.52376	19796.675
3024.9391	19763.175
3027.35298	19733.775
3029.76539	19686.275
3032.17632	19680.375
3034.5858	19641.275
3036.9938	19586.375
3039.40034	19614.075
3041.80542	19593.775
3044.20903	19527.975
3046.61118	19508.775
3049.01187	19481.575
3051.4111	19442.775
3053.80888	19397.775
3056.20519	19391.975
3058.60005	19283.375
3060.99345	19270.875
3063.3854	19252.375
3065.7759	19205.775
3068.16494	19173.775
3070.55254	19092.875
3072.93868	19081.675
3075.32338	19016.775
3077.70662	19011.875
3080.08842	18975.975
3082.46878	18938.775
3084.84769	18919.375
3087.22515	18911.375
3089.60118	18833.875
3091.97576	18850.275
3094.3489	18828.275
3096.72061	18865.875
3099.09087	18859.475
3101.4597	18808.775
3103.82709	18795.975
3106.19305	18777.275
3108.55757	18727.675
3110.92066	18664.275
3113.28232	18667.075
3115.64255	18579.675
3118.00134	18582.575
3120.35871	18510.175
3122.71466	18471.075
3125.06917	18447.775
3127.42226	18372.175
