Data from AgNPs_FTO_APTES_UA_0uM_R6G_10uM_NaF_0.1M_Addition_RamanShift__37__10-39-27-123.txt Node

Date: Fri Dec 17 10:39:27 GMT 2021
User: TCL
Spectrometer: QEP01345
Trigger mode: 4
Integration Time (sec): 7.000000E0
Scans to average: 10
Electric dark correction enabled: true
Nonlinearity correction enabled: false
Boxcar width: 0
XAxis mode: Raman Shifts
Number of Pixels in Spectrum: 1044
>>>>>Begin Spectral Data<<<<<
46.04893	-2.1875
50.45542	-0.6875
54.85868	-1.5875
59.25871	0.5125
63.6555	85.0125
68.04907	85.2125
72.43941	87.1125
76.82654	95.2125
81.21044	95.0125
85.59113	100.4125
89.96862	106.7125
94.34289	106.3125
98.71396	111.1125
103.08183	114.2125
107.4465	118.3125
111.80798	117.3125
116.16626	125.3125
120.52136	125.9125
124.87327	134.2125
129.222	147.1125
133.56755	152.3125
137.90993	167.6125
142.24913	183.2125
146.58517	203.1125
150.91804	242.7125
155.24774	286.4125
159.57429	357.6125
163.89768	459.4125
168.21792	612.6125
172.53501	828.2125
176.84895	1151.3125
181.15975	1605.4125
185.46741	2269.1125
189.77193	3139.0125
194.07331	4200.7125
198.37157	5416.2125
202.6667	6692.6125
206.9587	7989.5125
211.24758	9238.7125
215.53334	10504.9125
219.81599	11794.1125
224.09553	13238.6125
228.37195	14839.5125
232.64527	16608.0125
236.91549	18490.3125
241.18261	20400.0125
245.44663	22227.9125
249.70755	23831.2125
253.96539	25187.3125
258.22014	26310.6125
262.4718	27194.8125
266.72039	27736.1125
270.96589	27985.1125
275.20832	27873.1125
279.44768	27685.0125
283.68397	27304.1125
287.91719	27014.8125
292.14735	26767.4125
296.37445	26582.4125
300.59849	26561.6125
304.81948	26586.3125
309.03742	26640.4125
313.25231	26613.6125
317.46415	26388.9125
321.67296	25979.5125
325.87872	25689.4125
330.08145	25508.5125
334.28114	25506.6125
338.47781	25678.1125
342.67145	25942.4125
346.86207	26298.6125
351.04966	26722.4125
355.23424	27107.3125
359.4158	27441.4125
363.59435	27718.0125
367.76989	27911.8125
371.94243	27995.8125
376.11196	28043.5125
380.27849	28068.5125
384.44203	28203.9125
388.60257	28383.3125
392.76012	28704.9125
396.91468	29108.3125
401.06626	29546.8125
405.21485	29846.9125
409.36047	29798.9125
413.50311	29644.8125
417.64277	29555.4125
421.77947	29716.7125
425.9132	29910.8125
430.04396	30098.5125
434.17176	30219.5125
438.2966	30312.4125
442.41849	30545.7125
446.53742	31112.5125
450.6534	31670.3125
454.76644	31996.6125
458.87653	32155.3125
462.98368	32084.9125
467.08789	31827.2125
471.18916	31583.8125
475.2875	31188.7125
479.38291	30848.7125
483.4754	30663.8125
487.56496	30474.4125
491.6516	30310.1125
495.73531	30150.1125
499.81612	30094.0125
503.89401	30199.9125
507.96899	30405.3125
512.04106	30433.5125
516.11023	30328.7125
520.1765	30144.0125
524.23987	29983.7125
528.30034	29776.8125
532.35792	29607.7125
536.41261	29349.1125
540.46441	29166.9125
544.51333	29202.1125
548.55936	29441.3125
552.60252	29850.1125
556.64279	30318.9125
560.6802	30633.0125
564.71473	30898.1125
568.7464	31298.8125
572.7752	32058.3125
576.80114	32976.4125
580.82422	34057.9125
584.84444	35302.7125
588.86181	36616.9125
592.87633	37868.8125
596.888	37835.6125
600.89682	36515.2125
604.9028	35887.1125
608.90594	37068.2125
612.90624	38501.4125
616.90371	36657.2125
620.89834	32750.3125
624.89015	30984.6125
628.87913	30755.9125
632.86528	30935.4125
636.84862	30896.9125
640.82913	30360.4125
644.80683	29745.8125
648.78172	29319.4125
652.75379	29292.8125
656.72306	29509.4125
660.68952	29898.9125
664.65319	29800.8125
668.61405	29506.8125
672.57211	29495.5125
676.52738	29578.6125
680.47986	29540.2125
684.42955	29336.9125
688.37646	29263.8125
692.32058	29384.7125
696.26192	29728.6125
700.20048	30050.5125
704.13626	30308.0125
708.06928	30386.6125
711.99952	30319.4125
715.927	30241.8125
719.85171	30181.3125
723.77365	30058.1125
727.69284	29729.2125
731.60928	29323.4125
735.52295	29189.7125
739.43388	29172.0125
743.34206	29296.2125
747.24749	29465.4125
751.15017	29726.9125
755.05012	30134.7125
758.94733	30775.1125
762.8418	31900.0125
766.73354	33502.8125
770.62254	34960.7125
774.50882	35078.9125
778.39237	33862.6125
782.27321	32326.9125
786.15132	31108.3125
790.02671	30292.8125
793.89938	29746.6125
797.76935	29536.6125
801.6366	29383.1125
805.50115	29272.4125
809.36299	29167.3125
813.22213	29013.1125
817.07857	28956.4125
820.93231	28885.6125
824.78336	28847.9125
828.63172	28756.2125
832.47738	28732.4125
836.32036	28698.5125
840.16066	28698.8125
843.99827	28682.4125
847.8332	28691.1125
851.66546	28759.0125
855.49504	28815.8125
859.32195	28879.8125
863.1462	28868.4125
866.96777	28791.8125
870.78668	28811.6125
874.60293	28899.4125
878.41652	28974.2125
882.22745	29080.4125
886.03573	29219.1125
889.84136	29238.4125
893.64433	29191.9125
897.44466	29177.2125
901.24235	29200.8125
905.0374	29163.3125
908.8298	29210.7125
912.61957	29278.8125
916.40671	29459.9125
920.19121	29711.1125
923.97308	30023.9125
927.75233	30043.2125
931.52895	29793.7125
935.30295	29397.4125
939.07433	28928.9125
942.84309	28611.5125
946.60924	28435.0125
950.37278	28289.1125
954.13371	28229.0125
957.89203	28206.1125
961.64774	28195.1125
965.40086	28111.2125
969.15137	28058.9125
972.89929	27953.7125
976.64461	27940.3125
980.38733	27850.9125
984.12747	27870.5125
987.86502	27921.4125
991.59999	28040.5125
995.33237	28197.1125
999.06217	28484.4125
1002.78939	28870.5125
1006.51404	29404.0125
1010.23611	29887.2125
1013.95561	30177.2125
1017.67255	30245.5125
1021.38692	29991.5125
1025.09872	29572.9125
1028.80796	29161.5125
1032.51465	28956.1125
1036.21877	28938.2125
1039.92035	29016.0125
1043.61937	29141.7125
1047.31584	29218.5125
1051.00976	29330.1125
1054.70114	29453.0125
1058.38998	29604.7125
1062.07627	29781.6125
1065.76003	30145.8125
1069.44126	30516.7125
1073.11995	30952.9125
1076.79611	31446.9125
1080.46974	31617.6125
1084.14085	31731.5125
1087.80943	31915.8125
1091.47549	32195.3125
1095.13903	32236.1125
1098.80005	31955.9125
1102.45857	31351.0125
1106.11456	30756.0125
1109.76805	30416.2125
1113.41903	30277.3125
1117.06751	30332.1125
1120.71348	30496.2125
1124.35696	30702.0125
1127.99793	30921.2125
1131.63641	31099.2125
1135.2724	31018.8125
1138.90589	30951.6125
1142.5369	31050.3125
1146.16542	31188.1125
1149.79145	31354.9125
1153.415	31543.8125
1157.03607	31779.1125
1160.65467	32257.1125
1164.27079	33243.3125
1167.88443	34437.8125
1171.49561	35849.6125
1175.10432	37498.5125
1178.71056	39526.4125
1182.31434	41451.0125
1185.91565	42564.2125
1189.51451	42794.3125
1193.11091	42456.7125
1196.70485	41439.3125
1200.29634	40211.2125
1203.88538	39112.3125
1207.47197	38530.1125
1211.05612	38108.3125
1214.63782	37639.2125
1218.21708	36912.7125
1221.79391	36049.4125
1225.36829	35485.6125
1228.94024	35170.0125
1232.50976	34990.0125
1236.07685	34806.7125
1239.6415	34627.4125
1243.20374	34585.1125
1246.76355	34685.1125
1250.32093	34907.4125
1253.8759	35445.1125
1257.42845	36193.0125
1260.97859	37082.5125
1264.52631	37979.3125
1268.07163	38888.0125
1271.61453	39752.2125
1275.15503	40576.6125
1278.69312	41458.9125
1282.22882	42392.6125
1285.76211	43402.1125
1289.29301	44621.6125
1292.82151	45905.4125
1296.34761	47388.4125
1299.87133	49251.9125
1303.39266	51118.7125
1306.9116	52899.2125
1310.42815	54279.2125
1313.94233	55026.3125
1317.45412	54852.7125
1320.96354	54200.4125
1324.47058	53872.8125
1327.97525	53845.3125
1331.47754	53887.2125
1334.97747	53869.6125
1338.47502	53807.7125
1341.97022	53835.5125
1345.46305	53816.2125
1348.95352	53603.6125
1352.44163	53302.3125
1355.92738	53417.2125
1359.41078	54123.6125
1362.89183	54738.1125
1366.37053	54071.0125
1369.84688	51251.4125
1373.32088	47206.5125
1376.79254	44131.8125
1380.26186	42777.1125
1383.72883	42422.5125
1387.19347	42158.4125
1390.65578	41693.3125
1394.11575	41332.5125
1397.57339	41439.0125
1401.0287	41784.3125
1404.48168	42159.1125
1407.93234	42122.5125
1411.38068	41610.6125
1414.82669	40718.5125
1418.27039	39553.2125
1421.71177	38405.3125
1425.15083	37616.0125
1428.58758	37337.2125
1432.02203	37682.2125
1435.45416	38379.6125
1438.88399	39158.0125
1442.31151	39693.7125
1445.73673	39951.0125
1449.15965	40081.9125
1452.58027	40191.8125
1455.9986	40269.8125
1459.41463	40574.4125
1462.82837	41150.6125
1466.23982	41790.2125
1469.64898	42344.6125
1473.05586	42580.4125
1476.46045	42712.1125
1479.86276	42636.9125
1483.26279	42544.8125
1486.66054	42559.6125
1490.05602	42834.0125
1493.44922	43357.2125
1496.84016	44116.6125
1500.22882	44970.0125
1503.61521	46023.5125
1506.99934	46960.2125
1510.38121	47469.5125
1513.76081	47322.9125
1517.13816	46617.6125
1520.51324	45588.1125
1523.88607	44879.2125
1527.25665	44566.9125
1530.62498	44440.5125
1533.99105	44129.8125
1537.35488	43466.5125
1540.71647	42533.0125
1544.07581	41486.0125
1547.4329	40515.1125
1550.78776	39799.8125
1554.14038	39250.9125
1557.49077	39082.6125
1560.83892	39002.5125
1564.18484	39070.5125
1567.52853	39161.6125
1570.86999	39412.3125
1574.20922	39826.6125
1577.54624	40233.7125
1580.88103	40215.2125
1584.2136	40424.3125
1587.54395	41189.1125
1590.87208	42660.3125
1594.19801	44540.3125
1597.52172	46228.6125
1600.84321	46574.8125
1604.16251	44982.2125
1607.47959	42383.4125
1610.79447	39658.9125
1614.10715	37095.9125
1617.41763	34965.9125
1620.7259	33443.2125
1624.03199	32643.4125
1627.33587	32617.6125
1630.63757	33277.9125
1633.93707	34965.3125
1637.23439	37727.2125
1640.52951	41907.6125
1643.82246	46818.5125
1647.11321	50635.9125
1650.40179	51106.2125
1653.68819	47886.0125
1656.97241	42430.0125
1660.25446	37308.8125
1663.53433	33395.2125
1666.81203	30952.4125
1670.08756	29406.4125
1673.36092	28460.9125
1676.63211	27809.9125
1679.90115	27376.8125
1683.16801	27052.8125
1686.43272	26763.3125
1689.69527	26546.4125
1692.95567	26364.0125
1696.2139	26260.1125
1699.46999	26192.6125
1702.72392	26159.8125
1705.97571	26114.2125
1709.22535	26065.8125
1712.47284	26018.4125
1715.71819	26003.0125
1718.96139	25930.1125
1722.20246	25850.9125
1725.44139	25718.4125
1728.67818	25602.4125
1731.91284	25479.8125
1735.14537	25378.0125
1738.37576	25298.5125
1741.60403	25195.9125
1744.83017	25130.4125
1748.05418	25085.7125
1751.27607	25021.9125
1754.49584	24979.8125
1757.71349	24976.9125
1760.92903	24946.2125
1764.14244	24900.4125
1767.35375	24909.9125
1770.56294	24848.5125
1773.77002	24810.9125
1776.97499	24761.1125
1780.17785	24724.8125
1783.37861	24707.4125
1786.57727	24687.4125
1789.77382	24626.0125
1792.96828	24588.3125
1796.16064	24552.3125
1799.3509	24498.2125
1802.53907	24460.8125
1805.72514	24415.2125
1808.90913	24307.0125
1812.09102	24254.3125
1815.27083	24227.7125
1818.44856	24181.5125
1821.6242	24165.5125
1824.79776	24190.8125
1827.96924	24144.2125
1831.13864	24145.0125
1834.30597	24152.0125
1837.47122	24164.7125
1840.6344	24124.1125
1843.7955	24192.1125
1846.95454	24168.7125
1850.11151	24147.4125
1853.26642	24164.0125
1856.41926	24158.4125
1859.57004	24142.7125
1862.71876	24097.6125
1865.86542	24079.1125
1869.01003	24087.9125
1872.15258	24046.6125
1875.29308	24044.6125
1878.43152	23973.5125
1881.56792	23939.5125
1884.70227	23897.5125
1887.83457	23861.0125
1890.96482	23846.3125
1894.09304	23761.2125
1897.21921	23729.9125
1900.34335	23720.8125
1903.46544	23671.5125
1906.58551	23699.3125
1909.70353	23642.4125
1912.81953	23612.1125
1915.93349	23518.7125
1919.04543	23440.7125
1922.15534	23391.5125
1925.26322	23326.4125
1928.36908	23252.1125
1931.47292	23241.4125
1934.57473	23136.0125
1937.67453	23076.3125
1940.77232	23048.4125
1943.86808	22942.7125
1946.96184	22884.7125
1950.05358	22867.9125
1953.14331	22744.8125
1956.23103	22693.9125
1959.31675	22629.2125
1962.40046	22523.2125
1965.48217	22471.4125
1968.56188	22453.2125
1971.63959	22356.4125
1974.7153	22316.2125
1977.78901	22229.5125
1980.86073	22137.9125
1983.93046	22048.4125
1986.99819	22000.6125
1990.06394	21906.0125
1993.1277	21864.6125
1996.18947	21786.4125
1999.24925	21733.5125
2002.30706	21648.9125
2005.36288	21565.2125
2008.41672	21553.5125
2011.46859	21479.1125
2014.51848	21403.5125
2017.56639	21367.2125
2020.61233	21320.4125
2023.6563	21259.7125
2026.6983	21202.1125
2029.73833	21158.6125
2032.7764	21125.8125
2035.8125	21119.4125
2038.84664	21013.9125
2041.87881	21009.8125
2044.90903	20970.4125
2047.93729	20909.6125
2050.96359	20888.7125
2053.98794	20866.3125
2057.01034	20845.7125
2060.03078	20793.9125
2063.04927	20757.9125
2066.06582	20777.8125
2069.08042	20770.1125
2072.09307	20748.0125
2075.10378	20714.1125
2078.11255	20670.3125
2081.11938	20717.4125
2084.12426	20727.6125
2087.12722	20678.9125
2090.12824	20704.8125
2093.12732	20713.6125
2096.12447	20671.5125
2099.11969	20707.1125
2102.11299	20722.4125
2105.10435	20712.7125
2108.09379	20675.9125
2111.08131	20667.0125
2114.0669	20738.1125
2117.05057	20705.0125
2120.03233	20723.5125
2123.01216	20720.0125
2125.99008	20758.3125
2128.96609	20767.4125
2131.94018	20792.9125
2134.91236	20801.4125
2137.88263	20762.7125
2140.851	20749.5125
2143.81746	20784.8125
2146.78201	20757.8125
2149.74466	20777.7125
2152.7054	20815.9125
2155.66425	20759.4125
2158.6212	20762.5125
2161.57625	20779.1125
2164.52941	20762.8125
2167.48067	20751.5125
2170.43004	20808.9125
2173.37752	20752.3125
2176.32311	20705.0125
2179.26681	20712.0125
2182.20863	20710.3125
2185.14856	20699.4125
2188.08661	20682.6125
2191.02278	20701.4125
2193.95707	20688.2125
2196.88948	20701.4125
2199.82001	20642.6125
2202.74867	20556.4125
2205.67545	20611.3125
2208.60037	20567.2125
2211.52341	20521.3125
2214.44458	20458.1125
2217.36388	20410.3125
2220.28132	20411.9125
2223.1969	20362.5125
2226.11061	20353.6125
2229.02246	20303.0125
2231.93245	20235.7125
2234.84058	20231.6125
2237.74686	20214.4125
2240.65128	20227.6125
2243.55385	20169.1125
2246.45456	20172.7125
2249.35343	20098.2125
2252.25044	20055.4125
2255.14561	20020.8125
2258.03893	20004.3125
2260.93041	19966.0125
2263.82004	19867.2125
2266.70783	19842.3125
2269.59378	19787.4125
2272.4779	19767.9125
2275.36017	19701.2125
2278.24061	19676.7125
2281.11922	19652.1125
2283.996	19649.6125
2286.87094	19601.1125
2289.74405	19530.9125
2292.61534	19511.2125
2295.4848	19484.1125
2298.35243	19454.0125
2301.21824	19436.1125
2304.08223	19437.9125
2306.94439	19438.0125
2309.80474	19410.4125
2312.66327	19393.5125
2315.51999	19338.8125
2318.37489	19328.7125
2321.22797	19285.2125
2324.07925	19303.4125
2326.92871	19219.4125
2329.77637	19274.0125
2332.62222	19192.1125
2335.46626	19189.7125
2338.3085	19158.8125
2341.14893	19127.8125
2343.98756	19136.9125
2346.8244	19123.2125
2349.65943	19095.4125
2352.49267	19066.1125
2355.32411	19053.7125
2358.15376	19059.6125
2360.98161	19024.4125
2363.80768	19023.8125
2366.63195	19020.2125
2369.45444	18983.0125
2372.27514	18953.9125
2375.09405	18926.7125
2377.91118	18892.3125
2380.72652	18856.0125
2383.54009	18841.1125
2386.35187	18809.9125
2389.16188	18782.8125
2391.97011	18711.7125
2394.77657	18685.6125
2397.58125	18643.2125
2400.38416	18621.1125
2403.18529	18607.3125
2405.98466	18582.5125
2408.78226	18533.9125
2411.57809	18517.6125
2414.37216	18520.2125
2417.16446	18505.1125
2419.955	18452.1125
2422.74378	18459.5125
2425.5308	18431.3125
2428.31606	18421.9125
2431.09956	18378.4125
2433.88131	18356.8125
2436.6613	18373.6125
2439.43954	18335.4125
2442.21603	18332.5125
2444.99077	18317.7125
2447.76377	18316.8125
2450.53501	18292.5125
2453.30451	18274.0125
2456.07226	18262.7125
2458.83827	18239.4125
2461.60254	18227.7125
2464.36507	18187.6125
2467.12586	18167.1125
2469.88492	18160.7125
2472.64224	18164.2125
2475.39782	18141.8125
2478.15167	18099.2125
2480.90379	18139.1125
2483.65417	18113.9125
2486.40283	18082.9125
2489.14976	18051.5125
2491.89497	18030.8125
2494.63845	18064.0125
2497.3802	18060.9125
2500.12024	18043.5125
2502.85855	18047.0125
2505.59514	18027.0125
2508.33002	18000.0125
2511.06318	17965.3125
2513.79462	17961.3125
2516.52435	17948.3125
2519.25237	17944.4125
2521.97867	17909.6125
2524.70327	17884.6125
2527.42616	17857.9125
2530.14734	17855.2125
2532.86681	17806.6125
2535.58458	17800.2125
2538.30065	17788.9125
2541.01501	17777.6125
2543.72768	17726.7125
2546.43864	17725.5125
2549.14791	17675.8125
2551.85548	17694.0125
2554.56136	17671.2125
2557.26554	17633.5125
2559.96803	17615.8125
2562.66883	17593.8125
2565.36794	17591.3125
2568.06536	17557.7125
2570.7611	17514.2125
2573.45514	17508.3125
2576.14751	17476.0125
2578.83819	17414.3125
2581.52719	17416.4125
2584.21451	17397.2125
2586.90015	17387.8125
2589.58411	17345.0125
2592.2664	17295.6125
2594.94701	17302.9125
2597.62594	17306.7125
2600.30321	17269.9125
2602.9788	17230.9125
2605.65273	17175.3125
2608.32498	17168.3125
2610.99557	17176.9125
2613.66449	17142.6125
2616.33175	17154.8125
2618.99734	17087.7125
2621.66128	17087.8125
2624.32355	17069.1125
2626.98416	17048.8125
2629.64311	17030.1125
2632.30041	17022.1125
2634.95605	17011.2125
2637.61004	16992.9125
2640.26238	16971.8125
2642.91306	17007.4125
2645.56209	16912.0125
2648.20948	16950.7125
2650.85521	16891.8125
2653.4993	16909.4125
2656.14175	16930.5125
2658.78255	16958.0125
2661.42171	16913.7125
2664.05923	16910.1125
2666.6951	16939.7125
2669.32934	16937.0125
2671.96194	16956.6125
2674.59291	16945.5125
2677.22224	16933.8125
2679.84993	16956.3125
2682.476	16887.7125
2685.10043	16910.1125
2687.72324	16891.7125
2690.34441	16927.4125
2692.96396	16904.5125
2695.58188	16901.6125
2698.19818	16868.3125
2700.81285	16904.7125
2703.4259	16911.6125
2706.03733	16908.0125
2708.64714	16893.8125
2711.25533	16899.9125
2713.86191	16903.5125
2716.46687	16879.2125
2719.07021	16881.0125
2721.67194	16909.0125
2724.27206	16866.6125
2726.87057	16888.6125
2729.46747	16859.0125
2732.06276	16879.6125
2734.65644	16858.1125
2737.24852	16865.7125
2739.83899	16820.2125
2742.42786	16850.6125
2745.01513	16804.5125
2747.60079	16817.3125
2750.18486	16767.3125
2752.76733	16783.3125
2755.3482	16747.1125
2757.92747	16774.8125
2760.50515	16766.3125
2763.08123	16744.4125
2765.65573	16716.7125
2768.22863	16709.4125
2770.79994	16692.5125
2773.36967	16686.3125
2775.9378	16656.8125
2778.50435	16618.6125
2781.06932	16598.9125
2783.6327	16575.7125
2786.1945	16567.7125
2788.75471	16551.3125
2791.31335	16495.6125
2793.87041	16485.5125
2796.42589	16417.2125
2798.97979	16422.8125
2801.53212	16363.6125
2804.08288	16354.7125
2806.63206	16315.3125
2809.17967	16286.6125
2811.72571	16259.6125
2814.27018	16216.0125
2816.81308	16192.1125
2819.35442	16217.2125
2821.89419	16164.1125
2824.43239	16140.4125
2826.96904	16077.3125
2829.50412	16030.4125
2832.03763	16039.5125
2834.56959	15991.3125
2837.1	15972.5125
2839.62884	15976.1125
2842.15613	15958.9125
2844.68186	15961.7125
2847.20604	15937.1125
2849.72867	15958.5125
2852.24974	15887.4125
2854.76927	15909.8125
2857.28724	15906.5125
2859.80367	15859.5125
2862.31855	15872.3125
2864.83189	15814.6125
2867.34368	15796.5125
2869.85393	15778.0125
2872.36264	15770.0125
2874.8698	15763.2125
2877.37543	15760.8125
2879.87952	15762.5125
2882.38207	15784.4125
2884.88308	15730.2125
2887.38256	15731.9125
2889.88051	15741.3125
2892.37692	15725.6125
2894.8718	15720.8125
2897.36515	15737.6125
2899.85698	15743.8125
2902.34727	15740.9125
2904.83604	15730.2125
2907.32328	15738.6125
2909.809	15747.5125
2912.29319	15759.4125
2914.77587	15733.5125
2917.25702	15703.8125
2919.73665	15709.2125
2922.21476	15723.7125
2924.69136	15686.2125
2927.16644	15688.5125
2929.64	15664.1125
2932.11205	15651.8125
2934.58258	15595.7125
2937.05161	15653.8125
2939.51912	15649.4125
2941.98513	15588.8125
2944.44962	15577.0125
2946.91261	15523.7125
2949.37409	15548.8125
2951.83407	15531.8125
2954.29254	15516.6125
2956.74951	15492.7125
2959.20498	15499.5125
2961.65895	15473.9125
2964.11142	15447.1125
2966.56239	15386.5125
2969.01186	15430.9125
2971.45984	15362.6125
2973.90632	15362.8125
2976.35131	15308.1125
2978.7948	15272.8125
2981.23681	15215.0125
2983.67732	15224.8125
2986.11635	15166.8125
2988.55388	15118.2125
2990.98993	15064.6125
2993.4245	15049.4125
2995.85758	15033.8125
2998.28917	14985.1125
3000.71928	14963.6125
3003.14791	14937.2125
3005.57506	14944.4125
3008.00073	14876.2125
3010.42493	14841.7125
3012.84764	14829.8125
3015.26888	14838.4125
3017.68865	14756.3125
3020.10694	14760.5125
3022.52376	14711.7125
3024.9391	14666.0125
