Data from AgNPs_FTO_APTES_UA_10uM_R6G_10uM_NaF_0.1M_Addition_RamanShift__8__13-19-17-306.txt Node

Date: Fri Dec 17 13:19:17 GMT 2021
User: TCL
Spectrometer: QEP01345
Trigger mode: 4
Integration Time (sec): 7.000000E0
Scans to average: 10
Electric dark correction enabled: true
Nonlinearity correction enabled: false
Boxcar width: 0
XAxis mode: Raman Shifts
Number of Pixels in Spectrum: 1044
>>>>>Begin Spectral Data<<<<<
46.04893	-1.0625
50.45542	-1.1625
54.85868	-1.1625
59.25871	0.1375
63.6555	93.6375
68.04907	94.8375
72.43941	100.6375
76.82654	108.1375
81.21044	108.6375
85.59113	112.3375
89.96862	118.7375
94.34289	119.3375
98.71396	125.3375
103.08183	126.1375
107.4465	129.9375
111.80798	130.8375
116.16626	139.8375
120.52136	140.0375
124.87327	151.6375
129.222	159.3375
133.56755	172.4375
137.90993	186.4375
142.24913	206.5375
146.58517	226.4375
150.91804	267.6375
155.24774	312.1375
159.57429	391.2375
163.89768	501.3375
168.21792	665.0375
172.53501	902.9375
176.84895	1260.0375
181.15975	1766.8375
185.46741	2486.8375
189.77193	3440.7375
194.07331	4624.4375
198.37157	5961.3375
202.6667	7398.9375
206.9587	8796.6375
211.24758	10180.9375
215.53334	11544.6375
219.81599	12966.1375
224.09553	14549.7375
228.37195	16302.2375
232.64527	18217.9375
236.91549	20299.1375
241.18261	22484.5375
245.44663	24503.3375
249.70755	26343.6375
253.96539	27944.8375
258.22014	29294.9375
262.4718	30340.4375
266.72039	31002.6375
270.96589	31415.0375
275.20832	31439.1375
279.44768	31147.8375
283.68397	30733.6375
287.91719	30366.1375
292.14735	30116.2375
296.37445	29902.8375
300.59849	29857.1375
304.81948	29906.4375
309.03742	29864.5375
313.25231	29739.3375
317.46415	29368.4375
321.67296	28907.5375
325.87872	28522.2375
330.08145	28325.8375
334.28114	28450.6375
338.47781	28675.2375
342.67145	29077.9375
346.86207	29534.5375
351.04966	30015.2375
355.23424	30560.9375
359.4158	31100.1375
363.59435	31520.6375
367.76989	31855.6375
371.94243	32074.8375
376.11196	32213.7375
380.27849	32332.6375
384.44203	32502.2375
388.60257	32777.2375
392.76012	33009.0375
396.91468	33354.3375
401.06626	33747.1375
405.21485	34039.4375
409.36047	34003.8375
413.50311	33666.7375
417.64277	33419.8375
421.77947	33370.2375
425.9132	33538.1375
430.04396	33678.8375
434.17176	33791.5375
438.2966	34006.1375
442.41849	34278.1375
446.53742	34677.1375
450.6534	35221.1375
454.76644	35630.9375
458.87653	35845.5375
462.98368	35893.2375
467.08789	35757.7375
471.18916	35530.5375
475.2875	35108.9375
479.38291	34837.2375
483.4754	34612.6375
487.56496	34450.0375
491.6516	34276.2375
495.73531	34212.6375
499.81612	34314.5375
503.89401	34568.3375
507.96899	34747.3375
512.04106	34792.6375
516.11023	34794.7375
520.1765	34692.6375
524.23987	34561.9375
528.30034	34420.5375
532.35792	34267.4375
536.41261	34062.5375
540.46441	33835.6375
544.51333	33718.5375
548.55936	33938.8375
552.60252	34257.9375
556.64279	34614.5375
560.6802	34913.4375
564.71473	35044.9375
568.7464	35144.6375
572.7752	35504.6375
576.80114	35855.3375
580.82422	36342.9375
584.84444	36981.1375
588.86181	37601.6375
592.87633	38054.5375
596.888	37963.5375
600.89682	37687.3375
604.9028	38440.1375
608.90594	40994.6375
612.90624	43769.7375
616.90371	42263.1375
620.89834	37594.5375
624.89015	35294.8375
628.87913	34926.4375
632.86528	35097.6375
636.84862	35229.4375
640.82913	35020.7375
644.80683	34581.3375
648.78172	34210.9375
652.75379	34131.4375
656.72306	34426.7375
660.68952	34926.5375
664.65319	34815.9375
668.61405	34472.4375
672.57211	34501.8375
676.52738	34705.6375
680.47986	34680.9375
684.42955	34570.2375
688.37646	34429.9375
692.32058	34581.6375
696.26192	34932.2375
700.20048	35254.4375
704.13626	35356.3375
708.06928	35342.5375
711.99952	35076.9375
715.927	35014.8375
719.85171	35112.7375
723.77365	35060.3375
727.69284	34782.1375
731.60928	34446.1375
735.52295	34317.2375
739.43388	34250.3375
743.34206	34332.5375
747.24749	34417.6375
751.15017	34577.1375
755.05012	34850.4375
758.94733	35371.4375
762.8418	36392.4375
766.73354	38034.0375
770.62254	39709.7375
774.50882	40417.5375
778.39237	39601.9375
782.27321	38092.6375
786.15132	36612.4375
790.02671	35617.1375
793.89938	35110.3375
797.76935	34843.3375
801.6366	34652.2375
805.50115	34607.5375
809.36299	34466.6375
813.22213	34315.2375
817.07857	34179.3375
820.93231	34091.4375
824.78336	34015.3375
828.63172	34044.0375
832.47738	33998.6375
836.32036	34039.6375
840.16066	34000.3375
843.99827	33982.8375
847.8332	34024.2375
851.66546	34010.3375
855.49504	34031.4375
859.32195	34119.1375
863.1462	34102.9375
866.96777	34094.5375
870.78668	34143.1375
874.60293	34232.7375
878.41652	34239.1375
882.22745	34351.1375
886.03573	34509.3375
889.84136	34554.5375
893.64433	34490.2375
897.44466	34355.0375
901.24235	34249.3375
905.0374	34177.1375
908.8298	34148.8375
912.61957	34098.7375
916.40671	34205.3375
920.19121	34359.5375
923.97308	34482.7375
927.75233	34636.9375
931.52895	34586.2375
935.30295	34339.2375
939.07433	34001.6375
942.84309	33767.6375
946.60924	33639.2375
950.37278	33580.4375
954.13371	33532.9375
957.89203	33416.3375
961.64774	33412.5375
965.40086	33351.7375
969.15137	33341.8375
972.89929	33288.5375
976.64461	33293.7375
980.38733	33357.9375
984.12747	33387.9375
987.86502	33491.4375
991.59999	33649.6375
995.33237	33831.7375
999.06217	34149.6375
1002.78939	34563.8375
1006.51404	34968.9375
1010.23611	35441.5375
1013.95561	35682.7375
1017.67255	35720.5375
1021.38692	35550.0375
1025.09872	35292.0375
1028.80796	35023.3375
1032.51465	34946.9375
1036.21877	35048.1375
1039.92035	35083.2375
1043.61937	35131.2375
1047.31584	35090.9375
1051.00976	35065.1375
1054.70114	35097.9375
1058.38998	35203.1375
1062.07627	35511.1375
1065.76003	35926.9375
1069.44126	36265.3375
1073.11995	36824.2375
1076.79611	37353.0375
1080.46974	37578.6375
1084.14085	37601.6375
1087.80943	37687.2375
1091.47549	37718.4375
1095.13903	37606.2375
1098.80005	37339.0375
1102.45857	36903.0375
1106.11456	36496.0375
1109.76805	36208.0375
1113.41903	36083.5375
1117.06751	36072.4375
1120.71348	36226.3375
1124.35696	36492.9375
1127.99793	36758.3375
1131.63641	36922.1375
1135.2724	36715.0375
1138.90589	36562.1375
1142.5369	36409.8375
1146.16542	36397.7375
1149.79145	36359.1375
1153.415	36298.8375
1157.03607	36323.7375
1160.65467	36666.5375
1164.27079	37464.8375
1167.88443	38431.3375
1171.49561	39697.3375
1175.10432	41247.0375
1178.71056	43242.2375
1182.31434	45345.4375
1185.91565	46728.9375
1189.51451	47292.8375
1193.11091	47073.0375
1196.70485	46067.1375
1200.29634	44823.7375
1203.88538	43615.2375
1207.47197	42629.8375
1211.05612	41834.8375
1214.63782	41128.5375
1218.21708	40428.6375
1221.79391	39832.8375
1225.36829	39437.9375
1228.94024	39226.4375
1232.50976	39095.3375
1236.07685	39032.0375
1239.6415	39008.9375
1243.20374	39031.3375
1246.76355	39226.0375
1250.32093	39531.9375
1253.8759	40029.3375
1257.42845	40753.6375
1260.97859	41565.0375
1264.52631	42412.0375
1268.07163	43228.2375
1271.61453	43984.6375
1275.15503	44518.4375
1278.69312	45017.8375
1282.22882	45367.1375
1285.76211	45717.1375
1289.29301	46219.6375
1292.82151	47032.3375
1296.34761	48041.1375
1299.87133	49354.7375
1303.39266	50915.8375
1306.9116	52688.5375
1310.42815	54373.8375
1313.94233	55429.2375
1317.45412	55289.1375
1320.96354	54567.6375
1324.47058	53916.0375
1327.97525	53439.1375
1331.47754	53179.4375
1334.97747	53212.4375
1338.47502	53563.4375
1341.97022	54020.0375
1345.46305	54562.5375
1348.95352	55184.4375
1352.44163	55569.0375
1355.92738	56059.4375
1359.41078	56825.2375
1362.89183	57595.0375
1366.37053	56593.6375
1369.84688	53191.6375
1373.32088	49187.2375
1376.79254	46285.8375
1380.26186	44787.0375
1383.72883	44225.1375
1387.19347	43853.0375
1390.65578	43295.7375
1394.11575	42896.3375
1397.57339	42708.2375
1401.0287	42742.1375
1404.48168	42896.4375
1407.93234	43044.5375
1411.38068	43053.1375
1414.82669	42719.3375
1418.27039	42124.9375
1421.71177	41395.3375
1425.15083	40881.1375
1428.58758	40789.0375
1432.02203	41056.9375
1435.45416	41624.7375
1438.88399	42158.7375
1442.31151	42504.8375
1445.73673	42555.2375
1449.15965	42532.7375
1452.58027	42478.4375
1455.9986	42419.7375
1459.41463	42688.6375
1462.82837	43135.5375
1466.23982	43780.4375
1469.64898	44265.7375
1473.05586	44646.5375
1476.46045	44731.8375
1479.86276	44623.5375
1483.26279	44549.9375
1486.66054	44680.5375
1490.05602	44998.7375
1493.44922	45487.1375
1496.84016	46158.4375
1500.22882	47191.2375
1503.61521	48662.4375
1506.99934	50243.3375
1510.38121	51434.7375
1513.76081	51442.3375
1517.13816	50221.0375
1520.51324	48426.2375
1523.88607	46682.3375
1527.25665	45548.2375
1530.62498	45043.3375
1533.99105	44762.1375
1537.35488	44471.9375
1540.71647	44105.0375
1544.07581	43632.6375
1547.4329	43224.7375
1550.78776	42857.0375
1554.14038	42542.9375
1557.49077	42353.0375
1560.83892	42318.4375
1564.18484	42414.2375
1567.52853	42480.5375
1570.86999	42696.1375
1574.20922	43228.8375
1577.54624	43578.6375
1580.88103	43493.0375
1584.2136	43229.8375
1587.54395	43308.7375
1590.87208	43974.6375
1594.19801	45213.0375
1597.52172	46775.6375
1600.84321	47522.9375
1604.16251	46836.5375
1607.47959	45190.9375
1610.79447	43234.8375
1614.10715	41040.3375
1617.41763	39014.5375
1620.7259	37557.9375
1624.03199	36752.5375
1627.33587	36558.4375
1630.63757	36960.1375
1633.93707	38179.3375
1637.23439	40171.5375
1640.52951	43060.4375
1643.82246	46364.6375
1647.11321	48792.6375
1650.40179	49224.5375
1653.68819	46940.6375
1656.97241	43010.0375
1660.25446	39151.2375
1663.53433	36383.1375
1666.81203	34611.1375
1670.08756	33484.2375
1673.36092	32787.9375
1676.63211	32333.3375
1679.90115	31968.9375
1683.16801	31724.6375
1686.43272	31493.4375
1689.69527	31356.3375
1692.95567	31209.0375
1696.2139	31119.7375
1699.46999	31087.7375
1702.72392	30988.1375
1705.97571	31005.2375
1709.22535	30988.6375
1712.47284	30939.0375
1715.71819	30928.3375
1718.96139	30879.1375
1722.20246	30795.4375
1725.44139	30696.1375
1728.67818	30607.3375
1731.91284	30494.7375
1735.14537	30365.2375
1738.37576	30292.2375
1741.60403	30182.0375
1744.83017	30087.5375
1748.05418	30097.3375
1751.27607	30025.6375
1754.49584	29977.3375
1757.71349	29988.5375
1760.92903	29942.0375
1764.14244	29934.3375
1767.35375	29914.9375
1770.56294	29868.8375
1773.77002	29841.0375
1776.97499	29810.4375
1780.17785	29738.5375
1783.37861	29713.1375
1786.57727	29695.9375
1789.77382	29603.8375
1792.96828	29580.2375
1796.16064	29563.0375
1799.3509	29521.2375
1802.53907	29492.0375
1805.72514	29426.2375
1808.90913	29333.6375
1812.09102	29301.1375
1815.27083	29294.0375
1818.44856	29220.3375
1821.6242	29205.3375
1824.79776	29176.5375
1827.96924	29194.9375
1831.13864	29191.4375
1834.30597	29175.3375
1837.47122	29193.4375
1840.6344	29152.6375
1843.7955	29170.4375
1846.95454	29159.8375
1850.11151	29167.7375
1853.26642	29123.6375
1856.41926	29142.5375
1859.57004	29138.4375
1862.71876	29043.3375
1865.86542	29042.6375
1869.01003	28956.9375
1872.15258	28947.5375
1875.29308	28930.5375
1878.43152	28847.4375
1881.56792	28788.2375
1884.70227	28817.2375
1887.83457	28796.0375
1890.96482	28745.5375
1894.09304	28701.9375
1897.21921	28629.4375
1900.34335	28646.6375
1903.46544	28593.8375
1906.58551	28534.3375
1909.70353	28469.7375
1912.81953	28432.9375
1915.93349	28393.5375
1919.04543	28348.9375
1922.15534	28267.5375
1925.26322	28216.8375
1928.36908	28215.8375
1931.47292	28103.1375
1934.57473	28079.6375
1937.67453	28027.5375
1940.77232	27942.8375
1943.86808	27889.1375
1946.96184	27825.4375
1950.05358	27709.3375
1953.14331	27668.5375
1956.23103	27611.6375
1959.31675	27538.5375
1962.40046	27467.7375
1965.48217	27394.7375
1968.56188	27326.2375
1971.63959	27261.0375
1974.7153	27136.8375
1977.78901	27064.8375
1980.86073	26990.7375
1983.93046	26914.4375
1986.99819	26841.2375
1990.06394	26750.1375
1993.1277	26698.0375
1996.18947	26599.2375
1999.24925	26524.0375
2002.30706	26479.0375
2005.36288	26394.8375
2008.41672	26348.4375
2011.46859	26284.5375
2014.51848	26215.1375
2017.56639	26159.4375
2020.61233	26055.6375
2023.6563	26015.3375
2026.6983	25981.9375
2029.73833	25934.1375
2032.7764	25831.8375
2035.8125	25799.6375
2038.84664	25746.6375
2041.87881	25695.8375
2044.90903	25682.3375
2047.93729	25607.8375
2050.96359	25549.9375
2053.98794	25530.3375
2057.01034	25502.5375
2060.03078	25475.1375
2063.04927	25499.3375
2066.06582	25513.7375
2069.08042	25495.5375
2072.09307	25478.9375
2075.10378	25389.0375
2078.11255	25423.8375
2081.11938	25398.7375
2084.12426	25388.8375
2087.12722	25396.9375
2090.12824	25342.4375
2093.12732	25420.0375
2096.12447	25449.8375
2099.11969	25402.2375
2102.11299	25390.5375
2105.10435	25447.3375
2108.09379	25468.2375
2111.08131	25477.1375
2114.0669	25500.7375
2117.05057	25507.1375
2120.03233	25500.7375
2123.01216	25571.9375
2125.99008	25583.1375
2128.96609	25613.1375
2131.94018	25619.9375
2134.91236	25604.5375
2137.88263	25668.8375
2140.851	25648.0375
2143.81746	25716.1375
2146.78201	25677.4375
2149.74466	25719.5375
2152.7054	25659.1375
2155.66425	25707.3375
2158.6212	25673.6375
2161.57625	25681.1375
2164.52941	25677.9375
2167.48067	25649.4375
2170.43004	25667.4375
2173.37752	25651.0375
2176.32311	25648.7375
2179.26681	25636.2375
2182.20863	25620.0375
2185.14856	25640.0375
2188.08661	25619.6375
2191.02278	25597.2375
2193.95707	25572.1375
2196.88948	25565.2375
2199.82001	25593.9375
2202.74867	25553.7375
2205.67545	25521.3375
2208.60037	25515.8375
2211.52341	25510.6375
2214.44458	25432.3375
2217.36388	25377.5375
2220.28132	25363.1375
2223.1969	25315.8375
2226.11061	25222.3375
2229.02246	25195.4375
2231.93245	25193.4375
2234.84058	25087.8375
2237.74686	25055.4375
2240.65128	25052.9375
2243.55385	25053.0375
2246.45456	24995.6375
2249.35343	24966.5375
2252.25044	24934.1375
2255.14561	24906.9375
2258.03893	24876.6375
2260.93041	24840.7375
2263.82004	24716.9375
2266.70783	24721.5375
2269.59378	24659.4375
2272.4779	24615.2375
2275.36017	24585.1375
2278.24061	24553.3375
2281.11922	24509.6375
2283.996	24434.5375
2286.87094	24416.8375
2289.74405	24382.9375
2292.61534	24381.4375
2295.4848	24306.7375
2298.35243	24314.0375
2301.21824	24307.2375
2304.08223	24286.6375
2306.94439	24245.8375
2309.80474	24244.0375
2312.66327	24267.2375
2315.51999	24214.9375
2318.37489	24215.4375
2321.22797	24170.9375
2324.07925	24142.8375
2326.92871	24086.5375
2329.77637	24033.5375
2332.62222	23992.8375
2335.46626	24004.8375
2338.3085	23940.6375
2341.14893	23935.4375
2343.98756	23914.3375
2346.8244	23898.8375
2349.65943	23868.9375
2352.49267	23887.5375
2355.32411	23879.7375
2358.15376	23830.5375
2360.98161	23826.0375
2363.80768	23819.3375
2366.63195	23768.0375
2369.45444	23743.5375
2372.27514	23749.6375
2375.09405	23695.8375
2377.91118	23656.1375
2380.72652	23596.0375
2383.54009	23550.7375
2386.35187	23520.1375
2389.16188	23499.2375
2391.97011	23450.1375
2394.77657	23390.6375
2397.58125	23393.4375
2400.38416	23342.4375
2403.18529	23303.8375
2405.98466	23246.3375
2408.78226	23202.9375
2411.57809	23196.3375
2414.37216	23188.7375
2417.16446	23191.0375
2419.955	23167.1375
2422.74378	23136.0375
2425.5308	23128.5375
2428.31606	23079.8375
2431.09956	23085.2375
2433.88131	23031.7375
2436.6613	23019.2375
2439.43954	22987.7375
2442.21603	22998.6375
2444.99077	22956.4375
2447.76377	22981.6375
2450.53501	22953.0375
2453.30451	22907.4375
2456.07226	22889.3375
2458.83827	22893.1375
2461.60254	22856.9375
2464.36507	22834.1375
2467.12586	22841.2375
2469.88492	22826.5375
2472.64224	22764.3375
2475.39782	22765.7375
2478.15167	22758.5375
2480.90379	22708.7375
2483.65417	22737.3375
2486.40283	22747.5375
2489.14976	22707.6375
2491.89497	22690.1375
2494.63845	22679.8375
2497.3802	22665.6375
2500.12024	22645.9375
2502.85855	22644.3375
2505.59514	22602.1375
2508.33002	22620.5375
2511.06318	22578.4375
2513.79462	22561.2375
2516.52435	22525.8375
2519.25237	22529.2375
2521.97867	22502.6375
2524.70327	22488.9375
2527.42616	22438.9375
2530.14734	22416.3375
2532.86681	22398.2375
2535.58458	22366.7375
2538.30065	22352.8375
2541.01501	22330.9375
2543.72768	22246.7375
2546.43864	22270.3375
2549.14791	22218.2375
2551.85548	22191.7375
2554.56136	22150.8375
2557.26554	22145.4375
2559.96803	22087.0375
2562.66883	22089.7375
2565.36794	22038.8375
2568.06536	22009.6375
2570.7611	21975.4375
2573.45514	21923.9375
2576.14751	21957.8375
2578.83819	21901.5375
2581.52719	21827.3375
2584.21451	21788.0375
2586.90015	21783.4375
2589.58411	21762.0375
2592.2664	21753.2375
2594.94701	21658.2375
2597.62594	21670.6375
2600.30321	21572.6375
2602.9788	21604.8375
2605.65273	21544.5375
2608.32498	21551.4375
2610.99557	21525.4375
2613.66449	21510.1375
2616.33175	21432.2375
2618.99734	21438.5375
2621.66128	21395.3375
2624.32355	21355.2375
2626.98416	21367.5375
2629.64311	21328.2375
2632.30041	21359.7375
2634.95605	21285.4375
2637.61004	21236.2375
2640.26238	21215.3375
2642.91306	21250.0375
2645.56209	21222.9375
2648.20948	21202.6375
2650.85521	21201.3375
2653.4993	21175.1375
2656.14175	21180.8375
2658.78255	21200.7375
2661.42171	21193.7375
2664.05923	21230.9375
2666.6951	21164.0375
2669.32934	21197.8375
2671.96194	21144.4375
2674.59291	21198.8375
2677.22224	21154.3375
2679.84993	21187.3375
2682.476	21185.0375
2685.10043	21166.7375
2687.72324	21110.5375
2690.34441	21144.6375
2692.96396	21121.2375
2695.58188	21163.0375
2698.19818	21120.6375
2700.81285	21143.5375
2703.4259	21162.7375
2706.03733	21199.9375
2708.64714	21190.3375
2711.25533	21179.8375
2713.86191	21187.2375
2716.46687	21195.3375
2719.07021	21137.1375
2721.67194	21141.9375
2724.27206	21085.5375
2726.87057	21160.0375
2729.46747	21148.6375
2732.06276	21122.8375
2734.65644	21123.0375
2737.24852	21138.7375
2739.83899	21049.3375
2742.42786	21080.0375
2745.01513	21049.5375
2747.60079	21034.0375
2750.18486	21026.4375
2752.76733	21047.1375
2755.3482	20965.9375
2757.92747	20974.8375
2760.50515	20947.2375
2763.08123	20946.3375
2765.65573	20922.8375
2768.22863	20894.3375
2770.79994	20855.6375
2773.36967	20828.5375
2775.9378	20795.1375
2778.50435	20734.0375
2781.06932	20734.5375
2783.6327	20704.3375
2786.1945	20671.1375
2788.75471	20689.3375
2791.31335	20610.3375
2793.87041	20558.2375
2796.42589	20478.0375
2798.97979	20488.1375
2801.53212	20442.8375
2804.08288	20404.8375
2806.63206	20349.6375
2809.17967	20341.4375
2811.72571	20280.9375
2814.27018	20277.5375
2816.81308	20263.7375
2819.35442	20177.3375
2821.89419	20132.0375
2824.43239	20146.9375
2826.96904	20121.3375
2829.50412	20124.8375
2832.03763	20040.6375
2834.56959	20045.4375
2837.1	20001.7375
2839.62884	20013.6375
2842.15613	19957.2375
2844.68186	19997.1375
2847.20604	19987.2375
2849.72867	19984.6375
2852.24974	19950.8375
2854.76927	19955.3375
2857.28724	19904.2375
2859.80367	19889.3375
2862.31855	19857.1375
2864.83189	19838.6375
2867.34368	19801.5375
2869.85393	19821.1375
2872.36264	19788.3375
2874.8698	19802.2375
2877.37543	19802.9375
2879.87952	19829.5375
2882.38207	19811.3375
2884.88308	19810.9375
2887.38256	19846.9375
2889.88051	19829.3375
2892.37692	19814.1375
2894.8718	19804.1375
2897.36515	19814.7375
2899.85698	19787.0375
2902.34727	19823.2375
2904.83604	19857.5375
2907.32328	19860.4375
2909.809	19819.6375
2912.29319	19823.3375
2914.77587	19843.0375
2917.25702	19824.5375
2919.73665	19743.8375
2922.21476	19798.9375
2924.69136	19765.9375
2927.16644	19776.8375
2929.64	19714.0375
2932.11205	19704.7375
2934.58258	19662.9375
2937.05161	19660.6375
2939.51912	19678.5375
2941.98513	19672.4375
2944.44962	19636.9375
2946.91261	19549.0375
2949.37409	19602.9375
2951.83407	19584.3375
2954.29254	19542.1375
2956.74951	19508.1375
2959.20498	19500.0375
2961.65895	19454.2375
2964.11142	19459.9375
2966.56239	19376.1375
2969.01186	19393.6375
2971.45984	19351.5375
2973.90632	19348.9375
2976.35131	19303.1375
2978.7948	19273.1375
2981.23681	19226.6375
2983.67732	19174.6375
2986.11635	19139.5375
2988.55388	19113.1375
2990.98993	19071.5375
2993.4245	19055.7375
2995.85758	18982.4375
2998.28917	18963.5375
3000.71928	18909.4375
3003.14791	18930.6375
3005.57506	18888.2375
3008.00073	18847.2375
3010.42493	18833.7375
3012.84764	18799.5375
3015.26888	18780.3375
3017.68865	18738.4375
3020.10694	18727.9375
3022.52376	18690.1375
