Data from AgNPs_FTO_APTES_UA_0uM_R6G_10uM_NaF_0.1M_Addition_RamanShift__15__10-12-37-092.txt Node

Date: Fri Dec 17 10:12:37 GMT 2021
User: TCL
Spectrometer: QEP01345
Trigger mode: 4
Integration Time (sec): 7.000000E0
Scans to average: 10
Electric dark correction enabled: true
Nonlinearity correction enabled: false
Boxcar width: 0
XAxis mode: Raman Shifts
Number of Pixels in Spectrum: 1044
>>>>>Begin Spectral Data<<<<<
46.04893	0.35
50.45542	-0.35
54.85868	-0.15
59.25871	0.05
63.6555	36.25
68.04907	36.65
72.43941	38.45
76.82654	43.75
81.21044	43.55
85.59113	47.05
89.96862	49.75
94.34289	52.05
98.71396	52.45
103.08183	52.35
107.4465	54.65
111.80798	55.35
116.16626	56.85
120.52136	53.65
124.87327	60.65
129.222	61.15
133.56755	62.65
137.90993	63.85
142.24913	72.85
146.58517	74.25
150.91804	85.45
155.24774	99.15
159.57429	116.85
163.89768	146.15
168.21792	191.15
172.53501	250.65
176.84895	333.65
181.15975	465.75
185.46741	643.05
189.77193	892.35
194.07331	1194.15
198.37157	1532.25
202.6667	1882.25
206.9587	2247.15
211.24758	2605.55
215.53334	2957.95
219.81599	3325.15
224.09553	3749.35
228.37195	4226.95
232.64527	4729.85
236.91549	5252.05
241.18261	5739.25
245.44663	6154.65
249.70755	6512.75
253.96539	6807.35
258.22014	7070.75
262.4718	7285.05
266.72039	7440.55
270.96589	7490.75
275.20832	7468.95
279.44768	7326.35
283.68397	7193.25
287.91719	7065.85
292.14735	7016.45
296.37445	7045.45
300.59849	7206.15
304.81948	7412.75
309.03742	7592.85
313.25231	7623.25
317.46415	7465.05
321.67296	7151.15
325.87872	6866.55
330.08145	6739.75
334.28114	6733.65
338.47781	6779.15
342.67145	6890.25
346.86207	7065.15
351.04966	7309.75
355.23424	7613.05
359.4158	7855.05
363.59435	7992.25
367.76989	8055.15
371.94243	8065.45
376.11196	8062.45
380.27849	8007.65
384.44203	7974.35
388.60257	7939.85
392.76012	7907.15
396.91468	7937.15
401.06626	8050.45
405.21485	8144.05
409.36047	8051.05
413.50311	7781.85
417.64277	7546.45
421.77947	7372.75
425.9132	7349.35
430.04396	7364.25
434.17176	7440.45
438.2966	7582.95
442.41849	7792.55
446.53742	8088.95
450.6534	8321.55
454.76644	8460.45
458.87653	8392.75
462.98368	8209.55
467.08789	7973.35
471.18916	7807.15
475.2875	7613.35
479.38291	7459.35
483.4754	7362.95
487.56496	7301.65
491.6516	7272.85
495.73531	7248.05
499.81612	7266.35
503.89401	7318.05
507.96899	7395.55
512.04106	7487.35
516.11023	7596.65
520.1765	7684.15
524.23987	7698.05
528.30034	7656.55
532.35792	7594.75
536.41261	7484.45
540.46441	7314.35
544.51333	7237.85
548.55936	7248.25
552.60252	7327.45
556.64279	7499.55
560.6802	7593.65
564.71473	7650.55
568.7464	7763.45
572.7752	7857.85
576.80114	7697.15
580.82422	7501.25
584.84444	7538.35
588.86181	7786.65
592.87633	8211.15
596.888	8528.95
600.89682	8508.35
604.9028	8753.85
608.90594	10121.75
612.90624	12128.85
616.90371	11930.25
620.89834	9183.55
624.89015	7709.85
628.87913	7402.35
632.86528	7372.35
636.84862	7384.25
640.82913	7304.35
644.80683	7100.95
648.78172	6972.85
652.75379	6965.15
656.72306	7158.15
660.68952	7379.85
664.65319	7334.15
668.61405	7085.15
672.57211	6948.85
676.52738	6941.45
680.47986	6934.25
684.42955	6891.65
688.37646	6856.85
692.32058	6854.95
696.26192	6922.25
700.20048	6989.85
704.13626	7040.25
708.06928	7014.85
711.99952	6987.75
715.927	6958.95
719.85171	7007.45
723.77365	7007.75
727.69284	6965.05
731.60928	6924.05
735.52295	6935.25
739.43388	6970.65
743.34206	7012.25
747.24749	7019.75
751.15017	6997.75
755.05012	7064.25
758.94733	7261.95
762.8418	7738.75
766.73354	8636.15
770.62254	9697.55
774.50882	10246.75
778.39237	9862.35
782.27321	8865.05
786.15132	7904.35
790.02671	7292.75
793.89938	7032.65
797.76935	6909.15
801.6366	6836.45
805.50115	6796.45
809.36299	6755.45
813.22213	6707.35
817.07857	6695.75
820.93231	6698.45
824.78336	6681.25
828.63172	6691.85
832.47738	6711.95
836.32036	6730.75
840.16066	6715.95
843.99827	6734.95
847.8332	6691.55
851.66546	6692.85
855.49504	6683.45
859.32195	6673.55
863.1462	6653.85
866.96777	6621.25
870.78668	6619.05
874.60293	6611.35
878.41652	6614.65
882.22745	6649.55
886.03573	6667.55
889.84136	6674.55
893.64433	6640.95
897.44466	6617.65
901.24235	6624.55
905.0374	6618.75
908.8298	6645.05
912.61957	6646.05
916.40671	6691.05
920.19121	6767.85
923.97308	6866.45
927.75233	6953.15
931.52895	6984.65
935.30295	6915.25
939.07433	6724.85
942.84309	6581.35
946.60924	6467.85
950.37278	6390.25
954.13371	6339.45
957.89203	6282.95
961.64774	6256.15
965.40086	6225.45
969.15137	6187.55
972.89929	6188.75
976.64461	6171.05
980.38733	6158.75
984.12747	6173.15
987.86502	6202.05
991.59999	6249.75
995.33237	6325.75
999.06217	6477.55
1002.78939	6616.85
1006.51404	6712.45
1010.23611	6713.45
1013.95561	6759.45
1017.67255	6756.85
1021.38692	6666.35
1025.09872	6548.25
1028.80796	6510.35
1032.51465	6576.75
1036.21877	6679.95
1039.92035	6719.45
1043.61937	6702.55
1047.31584	6643.35
1051.00976	6602.65
1054.70114	6557.25
1058.38998	6528.65
1062.07627	6503.85
1065.76003	6466.35
1069.44126	6449.25
1073.11995	6432.65
1076.79611	6495.85
1080.46974	6553.35
1084.14085	6672.65
1087.80943	6804.75
1091.47549	6845.15
1095.13903	6753.15
1098.80005	6579.55
1102.45857	6403.55
1106.11456	6362.85
1109.76805	6382.05
1113.41903	6490.05
1117.06751	6607.75
1120.71348	6812.65
1124.35696	6987.15
1127.99793	7150.85
1131.63641	7185.15
1135.2724	6943.65
1138.90589	6664.45
1142.5369	6477.15
1146.16542	6395.65
1149.79145	6322.45
1153.415	6300.65
1157.03607	6294.45
1160.65467	6368.55
1164.27079	6555.75
1167.88443	6876.85
1171.49561	7386.85
1175.10432	8232.65
1178.71056	9340.75
1182.31434	10233.15
1185.91565	10490.75
1189.51451	10138.65
1193.11091	9446.85
1196.70485	8705.55
1200.29634	8159.45
1203.88538	7706.15
1207.47197	7278.45
1211.05612	6932.65
1214.63782	6786.25
1218.21708	6811.65
1221.79391	6919.95
1225.36829	7027.15
1228.94024	6972.25
1232.50976	6809.35
1236.07685	6634.35
1239.6415	6556.05
1243.20374	6512.05
1246.76355	6522.25
1250.32093	6591.75
1253.8759	6691.65
1257.42845	6869.85
1260.97859	7049.55
1264.52631	7250.45
1268.07163	7467.65
1271.61453	7642.05
1275.15503	7797.15
1278.69312	7928.05
1282.22882	8008.45
1285.76211	8168.55
1289.29301	8443.25
1292.82151	8767.65
1296.34761	9118.75
1299.87133	9565.05
1303.39266	10261.45
1306.9116	11277.95
1310.42815	12568.55
1313.94233	13486.05
1317.45412	13395.95
1320.96354	12461.85
1324.47058	11237.45
1327.97525	10169.75
1331.47754	9407.05
1334.97747	9093.95
1338.47502	9015.85
1341.97022	9065.05
1345.46305	9220.75
1348.95352	9690.05
1352.44163	10579.45
1355.92738	11818.25
1359.41078	13553.05
1362.89183	15374.05
1366.37053	15631.75
1369.84688	13602.55
1373.32088	11081.45
1376.79254	9370.85
1380.26186	8579.95
1383.72883	8241.35
1387.19347	8015.25
1390.65578	7724.15
1394.11575	7518.75
1397.57339	7453.25
1401.0287	7490.05
1404.48168	7567.55
1407.93234	7564.05
1411.38068	7569.95
1414.82669	7509.15
1418.27039	7391.55
1421.71177	7235.05
1425.15083	7111.75
1428.58758	7039.35
1432.02203	7092.85
1435.45416	7200.15
1438.88399	7328.05
1442.31151	7358.05
1445.73673	7390.95
1449.15965	7395.05
1452.58027	7353.95
1455.9986	7194.05
1459.41463	7077.05
1462.82837	7090.35
1466.23982	7214.05
1469.64898	7402.15
1473.05586	7560.25
1476.46045	7656.35
1479.86276	7742.65
1483.26279	7832.55
1486.66054	7900.65
1490.05602	8044.35
1493.44922	8223.05
1496.84016	8493.65
1500.22882	9033.75
1503.61521	9861.65
1506.99934	10962.45
1510.38121	12151.25
1513.76081	12800.35
1517.13816	12389.05
1520.51324	11042.15
1523.88607	9624.25
1527.25665	8629.45
1530.62498	8135.35
1533.99105	7883.35
1537.35488	7677.25
1540.71647	7535.75
1544.07581	7386.95
1547.4329	7277.45
1550.78776	7193.55
1554.14038	7130.85
1557.49077	7147.65
1560.83892	7203.25
1564.18484	7330.75
1567.52853	7529.85
1570.86999	7773.35
1574.20922	7943.25
1577.54624	7977.45
1580.88103	7711.45
1584.2136	7244.85
1587.54395	7007.25
1590.87208	7112.85
1594.19801	7570.55
1597.52172	8270.75
1600.84321	8744.65
1604.16251	8593.85
1607.47959	7969.35
1610.79447	7209.25
1614.10715	6556.35
1617.41763	6066.55
1620.7259	5796.95
1624.03199	5676.35
1627.33587	5665.45
1630.63757	5781.25
1633.93707	6030.35
1637.23439	6487.25
1640.52951	7194.65
1643.82246	8224.65
1647.11321	9357.65
1650.40179	10080.25
1653.68819	9752.75
1656.97241	8423.05
1660.25446	7000.45
1663.53433	5989.65
1666.81203	5452.25
1670.08756	5106.15
1673.36092	4922.65
1676.63211	4781.75
1679.90115	4695.15
1683.16801	4635.55
1686.43272	4577.75
1689.69527	4540.25
1692.95567	4489.75
1696.2139	4492.15
1699.46999	4450.25
1702.72392	4425.45
1705.97571	4429.15
1709.22535	4424.25
1712.47284	4422.75
1715.71819	4412.55
1718.96139	4406.55
1722.20246	4392.85
1725.44139	4381.55
1728.67818	4335.25
1731.91284	4310.05
1735.14537	4285.35
1738.37576	4259.75
1741.60403	4228.55
1744.83017	4215.55
1748.05418	4202.05
1751.27607	4184.35
1754.49584	4165.55
1757.71349	4160.55
1760.92903	4156.95
1764.14244	4144.15
1767.35375	4119.65
1770.56294	4106.05
1773.77002	4100.45
1776.97499	4090.75
1780.17785	4077.95
1783.37861	4088.55
1786.57727	4065.75
1789.77382	4054.35
1792.96828	4055.55
1796.16064	4028.15
1799.3509	4040.35
1802.53907	4022.85
1805.72514	4009.55
1808.90913	3980.85
1812.09102	3967.75
1815.27083	3953.75
1818.44856	3936.05
1821.6242	3938.75
1824.79776	3922.65
1827.96924	3915.35
1831.13864	3915.15
1834.30597	3904.15
1837.47122	3890.95
1840.6344	3888.75
1843.7955	3893.55
1846.95454	3866.05
1850.11151	3876.45
1853.26642	3857.35
1856.41926	3884.35
1859.57004	3855.15
1862.71876	3855.15
1865.86542	3840.95
1869.01003	3855.45
1872.15258	3838.25
1875.29308	3846.15
1878.43152	3835.85
1881.56792	3830.65
1884.70227	3815.05
1887.83457	3826.25
1890.96482	3808.65
1894.09304	3808.25
1897.21921	3800.85
1900.34335	3795.45
1903.46544	3806.75
1906.58551	3806.05
1909.70353	3795.65
1912.81953	3796.35
1915.93349	3783.85
1919.04543	3769.85
1922.15534	3759.15
1925.26322	3744.45
1928.36908	3734.75
1931.47292	3734.15
1934.57473	3704.75
1937.67453	3702.35
1940.77232	3682.85
1943.86808	3666.55
1946.96184	3639.75
1950.05358	3648.35
1953.14331	3614.15
1956.23103	3597.55
1959.31675	3594.95
1962.40046	3580.25
1965.48217	3573.85
1968.56188	3563.65
1971.63959	3553.65
1974.7153	3538.85
1977.78901	3529.15
1980.86073	3505.85
1983.93046	3502.05
1986.99819	3488.15
1990.06394	3475.95
1993.1277	3466.45
1996.18947	3444.35
1999.24925	3440.75
2002.30706	3430.85
2005.36288	3407.65
2008.41672	3404.55
2011.46859	3385.35
2014.51848	3376.45
2017.56639	3353.95
2020.61233	3338.95
2023.6563	3347.15
2026.6983	3325.45
2029.73833	3321.35
2032.7764	3325.95
2035.8125	3313.85
2038.84664	3303.85
2041.87881	3285.75
2044.90903	3280.65
2047.93729	3273.65
2050.96359	3272.05
2053.98794	3274.05
2057.01034	3259.55
2060.03078	3261.85
2063.04927	3246.25
2066.06582	3245.85
2069.08042	3236.45
2072.09307	3241.15
2075.10378	3227.85
2078.11255	3217.25
2081.11938	3219.25
2084.12426	3220.95
2087.12722	3222.55
2090.12824	3209.95
2093.12732	3209.35
2096.12447	3217.55
2099.11969	3203.65
2102.11299	3208.05
2105.10435	3220.75
2108.09379	3208.65
2111.08131	3201.45
2114.0669	3208.95
2117.05057	3200.25
2120.03233	3217.35
2123.01216	3217.95
2125.99008	3203.75
2128.96609	3209.85
2131.94018	3233.15
2134.91236	3206.95
2137.88263	3204.35
2140.851	3201.05
2143.81746	3195.95
2146.78201	3197.85
2149.74466	3205.05
2152.7054	3194.35
2155.66425	3203.05
2158.6212	3196.15
2161.57625	3180.05
2164.52941	3190.65
2167.48067	3183.75
2170.43004	3183.15
2173.37752	3191.95
2176.32311	3167.65
2179.26681	3176.55
2182.20863	3168.85
2185.14856	3169.95
2188.08661	3176.95
2191.02278	3165.75
2193.95707	3168.55
2196.88948	3169.85
2199.82001	3157.65
2202.74867	3158.05
2205.67545	3143.25
2208.60037	3160.55
2211.52341	3130.75
2214.44458	3133.95
2217.36388	3121.05
2220.28132	3107.85
2223.1969	3102.95
2226.11061	3093.95
2229.02246	3083.65
2231.93245	3082.45
2234.84058	3071.05
2237.74686	3072.05
2240.65128	3074.95
2243.55385	3057.35
2246.45456	3053.15
2249.35343	3042.45
2252.25044	3028.55
2255.14561	3032.35
2258.03893	3034.45
2260.93041	3017.85
2263.82004	3019.45
2266.70783	3007.95
2269.59378	3012.75
2272.4779	2995.25
2275.36017	2982.45
2278.24061	2983.85
2281.11922	2969.75
2283.996	2965.55
2286.87094	2971.75
2289.74405	2952.35
2292.61534	2947.85
2295.4848	2941.95
2298.35243	2939.85
2301.21824	2922.15
2304.08223	2921.75
2306.94439	2922.25
2309.80474	2915.65
2312.66327	2917.05
2315.51999	2918.05
2318.37489	2926.35
2321.22797	2902.25
2324.07925	2908.55
2326.92871	2907.35
2329.77637	2901.45
2332.62222	2895.25
2335.46626	2895.85
2338.3085	2881.65
2341.14893	2882.95
2343.98756	2883.65
2346.8244	2888.85
2349.65943	2887.95
2352.49267	2875.85
2355.32411	2881.45
2358.15376	2880.15
2360.98161	2884.85
2363.80768	2879.75
2366.63195	2887.45
2369.45444	2875.35
2372.27514	2877.45
2375.09405	2872.55
2377.91118	2860.75
2380.72652	2845.25
2383.54009	2841.05
2386.35187	2816.15
2389.16188	2819.65
2391.97011	2804.35
2394.77657	2804.75
2397.58125	2783.35
2400.38416	2770.95
2403.18529	2763.95
2405.98466	2760.25
2408.78226	2763.25
2411.57809	2746.65
2414.37216	2739.75
2417.16446	2748.15
2419.955	2734.35
2422.74378	2740.05
2425.5308	2720.95
2428.31606	2717.95
2431.09956	2720.55
2433.88131	2726.35
2436.6613	2715.85
2439.43954	2710.25
2442.21603	2706.15
2444.99077	2709.85
2447.76377	2713.85
2450.53501	2715.95
2453.30451	2712.85
2456.07226	2689.55
2458.83827	2699.15
2461.60254	2702.15
2464.36507	2705.35
2467.12586	2690.95
2469.88492	2687.85
2472.64224	2691.05
2475.39782	2683.05
2478.15167	2682.45
2480.90379	2678.15
2483.65417	2685.25
2486.40283	2691.65
2489.14976	2691.25
2491.89497	2682.55
2494.63845	2689.65
2497.3802	2679.35
2500.12024	2678.15
2502.85855	2680.25
2505.59514	2679.45
2508.33002	2665.45
2511.06318	2656.15
2513.79462	2646.35
2516.52435	2628.45
2519.25237	2626.55
2521.97867	2625.85
2524.70327	2616.25
2527.42616	2602.65
2530.14734	2597.95
2532.86681	2609.15
2535.58458	2608.45
2538.30065	2601.85
2541.01501	2580.55
2543.72768	2591.55
2546.43864	2587.25
2549.14791	2576.85
2551.85548	2576.95
2554.56136	2575.45
2557.26554	2575.45
2559.96803	2558.85
2562.66883	2575.85
2565.36794	2555.75
2568.06536	2561.05
2570.7611	2567.45
2573.45514	2537.85
2576.14751	2549.15
2578.83819	2541.45
2581.52719	2536.05
2584.21451	2531.95
2586.90015	2535.35
2589.58411	2534.45
2592.2664	2527.35
2594.94701	2516.35
2597.62594	2518.65
2600.30321	2520.25
2602.9788	2519.25
2605.65273	2507.55
2608.32498	2498.45
2610.99557	2509.25
2613.66449	2506.85
2616.33175	2494.95
2618.99734	2497.15
2621.66128	2494.45
2624.32355	2492.95
2626.98416	2496.55
2629.64311	2493.45
2632.30041	2485.85
2634.95605	2504.85
2637.61004	2481.05
2640.26238	2476.05
2642.91306	2467.65
2645.56209	2454.05
2648.20948	2457.45
2650.85521	2452.45
2653.4993	2453.55
2656.14175	2459.75
2658.78255	2457.35
2661.42171	2458.25
2664.05923	2453.85
2666.6951	2448.75
2669.32934	2454.75
2671.96194	2461.65
2674.59291	2462.65
2677.22224	2460.45
2679.84993	2453.35
2682.476	2451.75
2685.10043	2443.75
2687.72324	2447.95
2690.34441	2448.95
2692.96396	2452.55
2695.58188	2466.25
2698.19818	2440.15
2700.81285	2441.95
2703.4259	2441.45
2706.03733	2427.65
2708.64714	2429.15
2711.25533	2445.05
2713.86191	2445.85
2716.46687	2453.15
2719.07021	2460.95
2721.67194	2462.65
2724.27206	2466.35
2726.87057	2478.85
2729.46747	2468.25
2732.06276	2478.55
2734.65644	2468.95
2737.24852	2466.45
2739.83899	2468.35
2742.42786	2471.65
2745.01513	2478.55
2747.60079	2482.45
2750.18486	2478.65
2752.76733	2477.95
2755.3482	2467.05
2757.92747	2487.15
2760.50515	2483.15
2763.08123	2472.55
2765.65573	2474.55
2768.22863	2487.05
2770.79994	2480.15
2773.36967	2492.25
2775.9378	2487.05
2778.50435	2490.25
2781.06932	2487.25
2783.6327	2487.75
2786.1945	2483.65
2788.75471	2479.65
2791.31335	2480.55
2793.87041	2496.75
2796.42589	2476.65
2798.97979	2496.65
2801.53212	2491.95
2804.08288	2503.25
2806.63206	2487.15
2809.17967	2481.75
2811.72571	2492.65
2814.27018	2489.65
2816.81308	2496.25
2819.35442	2492.55
2821.89419	2480.95
2824.43239	2510.05
2826.96904	2493.35
2829.50412	2490.35
2832.03763	2506.45
2834.56959	2501.85
2837.1	2503.85
2839.62884	2522.35
2842.15613	2532.85
2844.68186	2565.45
2847.20604	2591.35
2849.72867	2615.25
2852.24974	2635.35
2854.76927	2637.85
2857.28724	2634.65
2859.80367	2657.45
2862.31855	2663.15
2864.83189	2660.85
2867.34368	2670.85
2869.85393	2684.95
2872.36264	2694.45
2874.8698	2707.55
2877.37543	2698.45
2879.87952	2709.25
2882.38207	2709.05
2884.88308	2712.25
2887.38256	2716.45
2889.88051	2722.75
2892.37692	2721.05
2894.8718	2706.15
2897.36515	2717.75
2899.85698	2721.55
2902.34727	2731.35
2904.83604	2713.85
2907.32328	2706.65
2909.809	2708.25
2912.29319	2729.05
2914.77587	2716.35
2917.25702	2712.05
2919.73665	2708.15
2922.21476	2708.75
2924.69136	2707.35
2927.16644	2696.85
2929.64	2686.05
2932.11205	2671.95
2934.58258	2659.65
2937.05161	2637.65
2939.51912	2620.45
2941.98513	2589.95
2944.44962	2573.05
2946.91261	2528.05
2949.37409	2507.55
2951.83407	2487.15
2954.29254	2480.05
2956.74951	2443.55
2959.20498	2449.45
2961.65895	2423.85
2964.11142	2399.55
2966.56239	2382.25
2969.01186	2368.75
2971.45984	2343.55
2973.90632	2345.25
2976.35131	2326.65
2978.7948	2309.75
2981.23681	2286.95
2983.67732	2274.15
2986.11635	2268.45
2988.55388	2256.15
2990.98993	2251.35
2993.4245	2234.85
2995.85758	2228.25
2998.28917	2230.95
3000.71928	2215.45
3003.14791	2210.35
3005.57506	2219.25
3008.00073	2207.75
3010.42493	2201.65
3012.84764	2195.35
3015.26888	2208.05
3017.68865	2190.65
3020.10694	2196.45
3022.52376	2189.35
3024.9391	2177.95
3027.35298	2175.35
3029.76539	2164.55
3032.17632	2162.05
3034.5858	2176.85
3036.9938	2163.55
3039.40034	2157.85
3041.80542	2164.15
3044.20903	2167.35
3046.61118	2158.55
3049.01187	2153.25
3051.4111	2146.55
3053.80888	2141.05
3056.20519	2152.05
3058.60005	2150.75
3060.99345	2155.65
3063.3854	2154.55
3065.7759	2145.05
3068.16494	2147.55
3070.55254	2140.05
3072.93868	2147.85
3075.32338	2138.65
3077.70662	2139.35
3080.08842	2140.05
3082.46878	2141.55
3084.84769	2133.45
3087.22515	2138.65
3089.60118	2144.85
3091.97576	2141.85
3094.3489	2143.55
3096.72061	2144.15
3099.09087	2150.15
3101.4597	2136.75
3103.82709	2153.35
3106.19305	2149.75
3108.55757	2152.95
3110.92066	2142.65
3113.28232	2154.15
3115.64255	2148.35
3118.00134	2153.95
3120.35871	2164.05
3122.71466	2164.85
3125.06917	2170.35
3127.42226	2160.25
3129.77393	2162.75
3132.12417	2165.95
3134.47299	2178.75
3136.82039	2187.45
3139.16636	2188.45
3141.51092	2192.75
3143.85406	2214.95
3146.19579	2199.45
3148.53609	2207.05
3150.87499	2212.05
3153.21246	2223.05
3155.54853	2229.15
3157.88318	2223.75
3160.21642	2237.65
3162.54826	2239.15
3164.87868	2245.15
3167.2077	2249.35
3169.5353	2254.45
3171.86151	2255.05
3174.18631	2264.95
3176.5097	2261.25
3178.83169	2260.85
3181.15228	2259.45
3183.47147	2261.05
3185.78926	2272.85
3188.10565	2274.35
3190.42065	2292.25
3192.73424	2282.05
3195.04645	2300.65
3197.35725	2295.15
3199.66667	2300.05
3201.97469	2305.65
3204.28132	2307.95
3206.58656	2315.05
3208.8904	2299.85
3211.19287	2318.55
3213.49394	2319.65
3215.79363	2315.55
3218.09193	2336.95
3220.38884	2331.15
3222.68438	2324.95
3224.97853	2323.45
3227.2713	2323.05
3229.56269	2325.45
3231.8527	2330.75
3234.14133	2330.05
3236.42858	2321.95
3238.71446	2334.35
3240.99896	2332.85
3243.28209	2330.25
3245.56384	2335.75
3247.84423	2337.25
3250.12324	2340.15
3252.40088	2348.65
3254.67715	2347.55
3256.95205	2350.05
3259.22558	2333.85
3261.49775	2353.25
3263.76855	2338.35
3266.03799	2339.55
3268.30606	2341.85
3270.57277	2331.75
3272.83812	2335.75
3275.10211	2336.85
3277.36474	2337.45
3279.62601	2332.15
3281.88593	2331.95
3284.14448	2332.65
3286.40168	2327.85
3288.65753	2325.75
3290.91202	2324.05
3293.16516	2326.55
3295.41695	2322.65
3297.66738	2297.85
3299.91647	2283.35
3302.16421	2266.45
3304.4106	2259.35
3306.65564	2244.65
3308.89933	2229.55
3311.14169	2237.05
3313.38269	2211.75
3315.62236	2201.45
3317.86068	2183.65
3320.09766	2163.25
3322.3333	2143.55
3324.5676	2145.55
3326.80056	2114.45
3329.03219	2102.85
3331.26248	0.45
3333.49143	-0.15
3335.71905	-0.35
