Data from AgNPs_FTO_APTES_UA_10uM_R6G_10uM_NaF_0.1M_Addition_RamanShift__13__13-25-07-313.txt Node

Date: Fri Dec 17 13:25:07 GMT 2021
User: TCL
Spectrometer: QEP01345
Trigger mode: 4
Integration Time (sec): 7.000000E0
Scans to average: 10
Electric dark correction enabled: true
Nonlinearity correction enabled: false
Boxcar width: 0
XAxis mode: Raman Shifts
Number of Pixels in Spectrum: 1044
>>>>>Begin Spectral Data<<<<<
46.04893	-0.875
50.45542	-0.575
54.85868	-1.375
59.25871	0.725
63.6555	92.325
68.04907	92.625
72.43941	97.925
76.82654	103.825
81.21044	104.125
85.59113	107.025
89.96862	113.625
94.34289	115.125
98.71396	122.825
103.08183	122.025
107.4465	127.925
111.80798	129.325
116.16626	140.025
120.52136	140.325
124.87327	148.325
129.222	157.225
133.56755	166.725
137.90993	179.925
142.24913	197.725
146.58517	221.625
150.91804	260.525
155.24774	305.425
159.57429	383.125
163.89768	496.225
168.21792	652.525
172.53501	890.125
176.84895	1228.725
181.15975	1745.025
185.46741	2448.025
189.77193	3388.525
194.07331	4558.525
198.37157	5916.825
202.6667	7324.225
206.9587	8745.725
211.24758	10151.825
215.53334	11517.425
219.81599	12928.625
224.09553	14524.325
228.37195	16244.825
232.64527	18200.125
236.91549	20283.525
241.18261	22443.325
245.44663	24514.925
249.70755	26408.725
253.96539	28105.425
258.22014	29366.225
262.4718	30448.825
266.72039	31123.225
270.96589	31399.325
275.20832	31406.425
279.44768	31131.125
283.68397	30676.125
287.91719	30246.025
292.14735	29892.925
296.37445	29651.525
300.59849	29510.525
304.81948	29451.025
309.03742	29326.825
313.25231	29176.825
317.46415	28827.325
321.67296	28405.525
325.87872	28063.225
330.08145	27935.525
334.28114	28081.825
338.47781	28311.025
342.67145	28650.525
346.86207	29012.825
351.04966	29507.925
355.23424	29980.025
359.4158	30437.725
363.59435	30831.925
367.76989	31135.725
371.94243	31366.025
376.11196	31554.125
380.27849	31698.825
384.44203	31845.825
388.60257	32062.525
392.76012	32314.225
396.91468	32643.525
401.06626	32975.725
405.21485	33213.125
409.36047	33208.525
413.50311	32851.325
417.64277	32657.325
421.77947	32548.525
425.9132	32599.425
430.04396	32807.525
434.17176	32943.425
438.2966	33124.825
442.41849	33404.325
446.53742	33764.125
450.6534	34078.425
454.76644	34390.325
458.87653	34599.725
462.98368	34709.325
467.08789	34691.025
471.18916	34604.025
475.2875	34427.425
479.38291	34149.825
483.4754	34003.525
487.56496	33900.925
491.6516	33776.125
495.73531	33696.425
499.81612	33732.125
503.89401	33841.825
507.96899	34040.625
512.04106	34167.725
516.11023	34234.225
520.1765	34156.425
524.23987	34111.125
528.30034	33913.225
532.35792	33784.225
536.41261	33686.425
540.46441	33505.125
544.51333	33491.425
548.55936	33705.925
552.60252	33956.825
556.64279	34250.225
560.6802	34487.725
564.71473	34600.425
568.7464	34688.025
572.7752	34940.725
576.80114	35136.825
580.82422	35477.025
584.84444	35784.425
588.86181	36048.425
592.87633	36190.625
596.888	36239.625
600.89682	36261.725
604.9028	37095.425
608.90594	39320.925
612.90624	41774.425
616.90371	40636.925
620.89834	36804.425
624.89015	34868.125
628.87913	34522.725
632.86528	34655.525
636.84862	34837.625
640.82913	34712.525
644.80683	34311.025
648.78172	33909.425
652.75379	33818.925
656.72306	34123.025
660.68952	34501.425
664.65319	34500.325
668.61405	34195.225
672.57211	34217.525
676.52738	34296.925
680.47986	34318.825
684.42955	34241.625
688.37646	34215.925
692.32058	34270.425
696.26192	34476.525
700.20048	34701.125
704.13626	34844.325
708.06928	34797.725
711.99952	34690.125
715.927	34660.225
719.85171	34593.225
723.77365	34531.325
727.69284	34333.025
731.60928	34137.825
735.52295	34009.225
739.43388	33982.325
743.34206	34065.425
747.24749	34156.425
751.15017	34239.225
755.05012	34432.125
758.94733	34844.225
762.8418	35718.825
766.73354	37157.825
770.62254	38635.125
774.50882	39221.625
778.39237	38656.025
782.27321	37346.525
786.15132	35997.325
790.02671	35140.025
793.89938	34619.525
797.76935	34391.525
801.6366	34238.925
805.50115	34145.125
809.36299	33998.525
813.22213	33915.525
817.07857	33844.625
820.93231	33742.025
824.78336	33824.425
828.63172	33835.125
832.47738	33825.125
836.32036	33785.225
840.16066	33774.025
843.99827	33810.625
847.8332	33779.525
851.66546	33811.625
855.49504	33823.825
859.32195	33889.525
863.1462	33921.025
866.96777	33897.925
870.78668	33960.925
874.60293	34060.925
878.41652	33987.325
882.22745	34075.425
886.03573	34176.325
889.84136	34237.325
893.64433	34209.825
897.44466	34158.425
901.24235	34160.125
905.0374	34123.325
908.8298	34089.525
912.61957	34085.025
916.40671	34197.425
920.19121	34301.725
923.97308	34380.425
927.75233	34378.425
931.52895	34347.925
935.30295	34170.825
939.07433	33880.125
942.84309	33654.625
946.60924	33547.625
950.37278	33400.225
954.13371	33324.725
957.89203	33200.625
961.64774	33190.325
965.40086	33178.925
969.15137	33090.525
972.89929	33002.925
976.64461	33010.125
980.38733	32980.125
984.12747	32978.725
987.86502	33052.925
991.59999	33109.125
995.33237	33232.525
999.06217	33431.225
1002.78939	33697.425
1006.51404	34080.525
1010.23611	34382.325
1013.95561	34589.825
1017.67255	34584.925
1021.38692	34468.925
1025.09872	34255.325
1028.80796	34023.125
1032.51465	33878.025
1036.21877	33902.125
1039.92035	33932.325
1043.61937	34039.825
1047.31584	34114.525
1051.00976	34211.125
1054.70114	34303.325
1058.38998	34405.825
1062.07627	34630.525
1065.76003	34945.725
1069.44126	35229.725
1073.11995	35624.025
1076.79611	35989.525
1080.46974	36154.225
1084.14085	36128.725
1087.80943	36147.425
1091.47549	36183.225
1095.13903	36111.325
1098.80005	36005.625
1102.45857	35667.425
1106.11456	35471.125
1109.76805	35202.625
1113.41903	35045.025
1117.06751	35025.925
1120.71348	35166.925
1124.35696	35362.525
1127.99793	35565.225
1131.63641	35745.825
1135.2724	35518.225
1138.90589	35319.425
1142.5369	35226.125
1146.16542	35093.625
1149.79145	35061.925
1153.415	35037.625
1157.03607	35048.125
1160.65467	35287.325
1164.27079	35783.925
1167.88443	36557.425
1171.49561	37538.125
1175.10432	38774.225
1178.71056	40372.225
1182.31434	42054.925
1185.91565	43188.825
1189.51451	43680.625
1193.11091	43640.725
1196.70485	42925.825
1200.29634	41844.125
1203.88538	40845.725
1207.47197	39868.525
1211.05612	39050.625
1214.63782	38419.725
1218.21708	37910.125
1221.79391	37435.525
1225.36829	37141.125
1228.94024	36988.425
1232.50976	36999.925
1236.07685	36979.025
1239.6415	37065.925
1243.20374	37121.525
1246.76355	37229.525
1250.32093	37418.825
1253.8759	37680.325
1257.42845	38207.625
1260.97859	38788.625
1264.52631	39335.625
1268.07163	39841.325
1271.61453	40342.625
1275.15503	40772.925
1278.69312	41185.425
1282.22882	41412.525
1285.76211	41689.625
1289.29301	42118.125
1292.82151	42619.625
1296.34761	43317.225
1299.87133	44124.025
1303.39266	45115.325
1306.9116	46376.425
1310.42815	47585.725
1313.94233	48329.225
1317.45412	48355.825
1320.96354	47927.725
1324.47058	47646.325
1327.97525	47255.025
1331.47754	46984.425
1334.97747	47002.525
1338.47502	47275.425
1341.97022	47938.825
1345.46305	48791.425
1348.95352	49625.325
1352.44163	50132.525
1355.92738	50392.025
1359.41078	50782.125
1362.89183	51191.125
1366.37053	50275.925
1369.84688	47623.025
1373.32088	44497.925
1376.79254	42233.425
1380.26186	40990.125
1383.72883	40392.925
1387.19347	39861.525
1390.65578	39371.425
1394.11575	38929.625
1397.57339	38672.525
1401.0287	38579.825
1404.48168	38485.525
1407.93234	38534.125
1411.38068	38466.025
1414.82669	38231.325
1418.27039	37846.925
1421.71177	37357.925
1425.15083	37020.525
1428.58758	36821.925
1432.02203	36864.825
1435.45416	37083.725
1438.88399	37316.325
1442.31151	37476.225
1445.73673	37552.325
1449.15965	37632.725
1452.58027	37794.425
1455.9986	37865.125
1459.41463	38078.125
1462.82837	38507.225
1466.23982	38925.825
1469.64898	39380.025
1473.05586	39629.425
1476.46045	39797.625
1479.86276	39794.425
1483.26279	39897.825
1486.66054	39954.525
1490.05602	40244.825
1493.44922	40741.225
1496.84016	41567.825
1500.22882	42815.125
1503.61521	44429.025
1506.99934	46030.425
1510.38121	47084.325
1513.76081	47062.925
1517.13816	45926.925
1520.51324	44332.125
1523.88607	42823.925
1527.25665	41790.025
1530.62498	41223.325
1533.99105	40869.225
1537.35488	40543.925
1540.71647	40157.825
1544.07581	39777.425
1547.4329	39431.825
1550.78776	39186.725
1554.14038	38976.025
1557.49077	38900.425
1560.83892	38945.925
1564.18484	39116.425
1567.52853	39356.625
1570.86999	39590.725
1574.20922	39905.125
1577.54624	40104.725
1580.88103	39875.425
1584.2136	39426.725
1587.54395	39190.525
1590.87208	39374.025
1594.19801	40003.025
1597.52172	40917.625
1600.84321	41347.925
1604.16251	40956.925
1607.47959	39990.525
1610.79447	38764.125
1614.10715	37400.825
1617.41763	35970.125
1620.7259	34881.125
1624.03199	34258.525
1627.33587	34012.725
1630.63757	34227.225
1633.93707	34958.325
1637.23439	36218.225
1640.52951	38033.225
1643.82246	40229.825
1647.11321	42016.925
1650.40179	42627.525
1653.68819	41494.025
1656.97241	38975.125
1660.25446	36160.225
1663.53433	34069.725
1666.81203	32675.425
1670.08756	31710.325
1673.36092	31144.325
1676.63211	30741.325
1679.90115	30459.025
1683.16801	30216.825
1686.43272	30015.125
1689.69527	29886.725
1692.95567	29787.825
1696.2139	29708.125
1699.46999	29668.525
1702.72392	29623.225
1705.97571	29578.925
1709.22535	29566.825
1712.47284	29503.825
1715.71819	29508.725
1718.96139	29486.925
1722.20246	29404.625
1725.44139	29315.925
1728.67818	29218.625
1731.91284	29131.425
1735.14537	29039.025
1738.37576	28899.025
1741.60403	28806.225
1744.83017	28737.525
1748.05418	28676.725
1751.27607	28641.725
1754.49584	28576.525
1757.71349	28604.125
1760.92903	28528.125
1764.14244	28547.625
1767.35375	28540.125
1770.56294	28495.025
1773.77002	28488.125
1776.97499	28427.825
1780.17785	28337.025
1783.37861	28297.625
1786.57727	28314.425
1789.77382	28200.125
1792.96828	28210.625
1796.16064	28152.825
1799.3509	28134.825
1802.53907	28051.225
1805.72514	27954.825
1808.90913	27922.725
1812.09102	27903.125
1815.27083	27855.025
1818.44856	27806.525
1821.6242	27758.725
1824.79776	27740.025
1827.96924	27728.125
1831.13864	27700.225
1834.30597	27727.125
1837.47122	27721.625
1840.6344	27735.725
1843.7955	27688.225
1846.95454	27712.725
1850.11151	27694.925
1853.26642	27634.325
1856.41926	27621.125
1859.57004	27639.825
1862.71876	27542.425
1865.86542	27524.925
1869.01003	27516.625
1872.15258	27442.925
1875.29308	27419.125
1878.43152	27348.025
1881.56792	27330.725
1884.70227	27285.725
1887.83457	27286.425
1890.96482	27196.225
1894.09304	27188.325
1897.21921	27098.125
1900.34335	27074.225
1903.46544	27032.525
1906.58551	26999.725
1909.70353	26959.925
1912.81953	26911.225
1915.93349	26859.025
1919.04543	26780.725
1922.15534	26713.625
1925.26322	26689.825
1928.36908	26627.125
1931.47292	26609.125
1934.57473	26535.425
1937.67453	26430.525
1940.77232	26390.825
1943.86808	26352.625
1946.96184	26283.025
1950.05358	26187.425
1953.14331	26122.225
1956.23103	26019.425
1959.31675	25941.625
1962.40046	25911.425
1965.48217	25797.025
1968.56188	25742.025
1971.63959	25656.625
1974.7153	25576.625
1977.78901	25476.025
1980.86073	25423.825
1983.93046	25328.525
1986.99819	25246.225
1990.06394	25206.625
1993.1277	25093.825
1996.18947	24998.525
1999.24925	24950.525
2002.30706	24902.725
2005.36288	24792.625
2008.41672	24740.725
2011.46859	24711.725
2014.51848	24601.425
2017.56639	24546.025
2020.61233	24452.625
2023.6563	24458.525
2026.6983	24363.825
2029.73833	24338.125
2032.7764	24237.825
2035.8125	24165.325
2038.84664	24144.325
2041.87881	24081.725
2044.90903	24029.825
2047.93729	23927.325
2050.96359	23925.425
2053.98794	23884.525
2057.01034	23898.125
2060.03078	23855.225
2063.04927	23840.525
2066.06582	23832.625
2069.08042	23842.925
2072.09307	23815.525
2075.10378	23771.625
2078.11255	23745.125
2081.11938	23744.925
2084.12426	23712.125
2087.12722	23694.525
2090.12824	23723.425
2093.12732	23712.825
2096.12447	23754.825
2099.11969	23746.125
2102.11299	23730.125
2105.10435	23734.525
2108.09379	23759.125
2111.08131	23761.825
2114.0669	23795.525
2117.05057	23806.925
2120.03233	23756.125
2123.01216	23825.825
2125.99008	23846.525
2128.96609	23864.225
2131.94018	23852.425
2134.91236	23881.325
2137.88263	23858.025
2140.851	23848.025
2143.81746	23931.325
2146.78201	23939.825
2149.74466	23862.425
2152.7054	23892.625
2155.66425	23905.425
2158.6212	23870.325
2161.57625	23865.025
2164.52941	23865.425
2167.48067	23822.525
2170.43004	23815.625
2173.37752	23821.225
2176.32311	23781.525
2179.26681	23777.925
2182.20863	23750.125
2185.14856	23768.425
2188.08661	23733.625
2191.02278	23751.025
2193.95707	23741.525
2196.88948	23718.225
2199.82001	23721.525
2202.74867	23665.925
2205.67545	23639.525
2208.60037	23618.825
2211.52341	23544.725
2214.44458	23502.725
2217.36388	23459.325
2220.28132	23410.325
2223.1969	23346.825
2226.11061	23327.325
2229.02246	23279.125
2231.93245	23246.825
2234.84058	23177.925
2237.74686	23158.025
2240.65128	23131.125
2243.55385	23075.025
2246.45456	23050.925
2249.35343	23026.825
2252.25044	22973.325
2255.14561	22917.425
2258.03893	22916.325
2260.93041	22888.925
2263.82004	22845.625
2266.70783	22789.325
2269.59378	22730.925
2272.4779	22684.025
2275.36017	22613.825
2278.24061	22589.425
2281.11922	22500.325
2283.996	22436.325
2286.87094	22455.525
2289.74405	22394.725
2292.61534	22378.125
2295.4848	22343.625
2298.35243	22319.825
2301.21824	22291.725
2304.08223	22266.425
2306.94439	22254.925
2309.80474	22217.725
2312.66327	22205.025
2315.51999	22190.625
2318.37489	22153.025
2321.22797	22101.625
2324.07925	22082.025
2326.92871	22055.225
2329.77637	21987.325
2332.62222	21962.725
2335.46626	21909.225
2338.3085	21860.725
2341.14893	21871.925
2343.98756	21822.525
2346.8244	21788.125
2349.65943	21770.425
2352.49267	21780.425
2355.32411	21790.725
2358.15376	21715.525
2360.98161	21714.425
2363.80768	21712.425
2366.63195	21672.025
2369.45444	21641.625
2372.27514	21629.725
2375.09405	21640.125
2377.91118	21575.725
2380.72652	21536.825
2383.54009	21485.825
2386.35187	21444.925
2389.16188	21397.925
2391.97011	21333.625
2394.77657	21305.025
2397.58125	21284.225
2400.38416	21217.925
2403.18529	21146.525
2405.98466	21189.925
2408.78226	21105.925
2411.57809	21083.825
2414.37216	21084.325
2417.16446	21061.625
2419.955	20959.625
2422.74378	20967.025
2425.5308	20968.425
2428.31606	20975.625
2431.09956	20923.325
2433.88131	20847.525
2436.6613	20852.325
2439.43954	20892.525
2442.21603	20854.725
2444.99077	20846.225
2447.76377	20799.425
2450.53501	20779.025
2453.30451	20734.825
2456.07226	20767.925
2458.83827	20702.925
2461.60254	20652.125
2464.36507	20662.725
2467.12586	20652.825
2469.88492	20599.725
2472.64224	20589.825
2475.39782	20559.125
2478.15167	20530.525
2480.90379	20515.425
2483.65417	20524.925
2486.40283	20457.525
2489.14976	20507.525
2491.89497	20421.025
2494.63845	20436.425
2497.3802	20397.825
2500.12024	20374.925
2502.85855	20388.225
2505.59514	20354.225
2508.33002	20336.425
2511.06318	20296.925
2513.79462	20275.825
2516.52435	20242.525
2519.25237	20205.225
2521.97867	20211.725
2524.70327	20197.125
2527.42616	20127.425
2530.14734	20125.425
2532.86681	20086.225
2535.58458	20060.925
2538.30065	20017.825
2541.01501	20012.225
2543.72768	19922.425
2546.43864	19921.225
2549.14791	19870.625
2551.85548	19870.325
2554.56136	19762.625
2557.26554	19745.725
2559.96803	19751.225
2562.66883	19709.925
2565.36794	19676.625
2568.06536	19634.125
2570.7611	19635.425
2573.45514	19570.425
2576.14751	19560.525
2578.83819	19501.825
2581.52719	19492.925
2584.21451	19447.325
2586.90015	19397.425
2589.58411	19363.125
2592.2664	19354.825
2594.94701	19299.925
2597.62594	19271.425
2600.30321	19169.825
2602.9788	19174.325
2605.65273	19156.225
2608.32498	19123.525
2610.99557	19129.525
2613.66449	19096.325
2616.33175	19042.225
2618.99734	19037.125
2621.66128	19002.525
2624.32355	18948.025
2626.98416	18932.725
2629.64311	18923.025
2632.30041	18885.825
2634.95605	18866.325
2637.61004	18782.125
2640.26238	18733.425
2642.91306	18761.925
2645.56209	18760.725
2648.20948	18762.325
2650.85521	18727.225
2653.4993	18732.825
2656.14175	18704.325
2658.78255	18711.125
2661.42171	18680.925
2664.05923	18690.625
2666.6951	18708.525
2669.32934	18659.125
2671.96194	18631.325
2674.59291	18668.825
2677.22224	18639.225
2679.84993	18658.725
2682.476	18623.725
2685.10043	18656.525
2687.72324	18629.825
2690.34441	18592.525
2692.96396	18579.125
2695.58188	18611.225
2698.19818	18586.125
2700.81285	18592.525
2703.4259	18576.925
2706.03733	18607.725
2708.64714	18635.325
2711.25533	18633.625
2713.86191	18608.425
2716.46687	18603.025
2719.07021	18549.325
2721.67194	18546.425
2724.27206	18528.225
2726.87057	18564.225
2729.46747	18556.725
2732.06276	18558.825
2734.65644	18510.825
2737.24852	18502.325
2739.83899	18458.025
2742.42786	18459.525
2745.01513	18445.825
2747.60079	18401.025
2750.18486	18394.125
2752.76733	18389.425
2755.3482	18353.125
2757.92747	18334.725
2760.50515	18294.925
2763.08123	18284.025
2765.65573	18222.425
2768.22863	18228.625
2770.79994	18188.325
2773.36967	18179.225
2775.9378	18112.825
2778.50435	18074.225
2781.06932	18071.525
2783.6327	18041.425
2786.1945	18012.225
2788.75471	17968.525
2791.31335	17913.425
2793.87041	17895.625
2796.42589	17849.825
2798.97979	17831.525
2801.53212	17757.725
2804.08288	17752.525
2806.63206	17656.325
2809.17967	17698.825
2811.72571	17639.925
2814.27018	17608.225
2816.81308	17589.225
2819.35442	17545.525
2821.89419	17479.125
2824.43239	17477.125
2826.96904	17453.525
2829.50412	17410.025
2832.03763	17381.525
2834.56959	17359.825
2837.1	17342.225
2839.62884	17305.625
2842.15613	17281.525
2844.68186	17346.625
2847.20604	17299.825
2849.72867	17321.225
2852.24974	17280.925
2854.76927	17250.425
2857.28724	17216.125
2859.80367	17204.525
2862.31855	17166.425
2864.83189	17167.125
2867.34368	17127.825
2869.85393	17124.225
2872.36264	17129.125
2874.8698	17081.625
2877.37543	17098.325
2879.87952	17084.825
2882.38207	17036.125
2884.88308	17071.225
2887.38256	17070.325
2889.88051	17058.225
2892.37692	17058.525
2894.8718	17049.525
2897.36515	17061.225
2899.85698	17051.125
2902.34727	17086.025
2904.83604	17062.825
2907.32328	17091.325
2909.809	17060.625
2912.29319	17055.225
2914.77587	17026.025
2917.25702	17035.525
2919.73665	17002.325
2922.21476	17001.525
2924.69136	16975.425
2927.16644	16999.125
2929.64	16954.225
2932.11205	16924.625
2934.58258	16850.525
2937.05161	16880.125
2939.51912	16872.425
2941.98513	16900.325
2944.44962	16848.825
2946.91261	16769.225
2949.37409	16830.725
2951.83407	16788.925
2954.29254	16780.725
2956.74951	16731.825
2959.20498	16720.825
2961.65895	16711.025
2964.11142	16701.225
2966.56239	16647.625
2969.01186	16639.825
2971.45984	16614.425
2973.90632	16587.925
2976.35131	16550.425
2978.7948	16515.925
2981.23681	16464.725
2983.67732	16449.825
2986.11635	16374.825
2988.55388	16333.525
2990.98993	16336.625
2993.4245	16291.425
2995.85758	16269.625
2998.28917	16236.825
3000.71928	16212.825
3003.14791	16164.025
3005.57506	16141.625
3008.00073	16111.625
3010.42493	16105.325
3012.84764	16077.925
3015.26888	16034.425
3017.68865	16022.125
3020.10694	16022.625
3022.52376	15972.325
3024.9391	15958.825
3027.35298	15933.125
3029.76539	15870.125
3032.17632	15838.525
3034.5858	15807.225
3036.9938	15829.525
3039.40034	15763.025
3041.80542	15754.625
3044.20903	15715.425
3046.61118	15698.625
3049.01187	15653.125
3051.4111	15649.325
3053.80888	15603.425
3056.20519	15588.425
3058.60005	15530.625
3060.99345	15542.425
3063.3854	15510.425
3065.7759	15474.625
3068.16494	15420.425
3070.55254	15386.925
3072.93868	15365.325
3075.32338	15329.125
3077.70662	15319.325
3080.08842	15281.825
3082.46878	15277.125
3084.84769	15260.125
3087.22515	15251.825
3089.60118	15221.225
3091.97576	15213.525
3094.3489	15188.025
3096.72061	15161.625
3099.09087	15159.825
3101.4597	15169.225
3103.82709	15138.925
3106.19305	15149.625
3108.55757	15109.725
3110.92066	15078.225
3113.28232	15038.125
3115.64255	14973.825
3118.00134	14965.925
3120.35871	14939.325
3122.71466	14854.025
3125.06917	14866.025
3127.42226	14832.725
