Data from AgNPs_FTO_APTES_UA_200uM_R6G_10uM_NaF_0.1M_Addition_RamanShift__14__16-16-37-508.txt Node

Date: Fri Dec 17 16:16:37 GMT 2021
User: TCL
Spectrometer: QEP01345
Trigger mode: 4
Integration Time (sec): 7.000000E0
Scans to average: 10
Electric dark correction enabled: true
Nonlinearity correction enabled: false
Boxcar width: 0
XAxis mode: Raman Shifts
Number of Pixels in Spectrum: 1044
>>>>>Begin Spectral Data<<<<<
46.04893	-0.075
50.45542	0.825
54.85868	-1.275
59.25871	0.125
63.6555	46.825
68.04907	49.925
72.43941	49.525
76.82654	56.425
81.21044	55.825
85.59113	57.725
89.96862	64.125
94.34289	63.825
98.71396	65.725
103.08183	67.125
107.4465	70.925
111.80798	68.925
116.16626	71.125
120.52136	72.625
124.87327	80.725
129.222	81.425
133.56755	83.725
137.90993	92.225
142.24913	96.325
146.58517	104.525
150.91804	119.225
155.24774	138.725
159.57429	169.725
163.89768	213.725
168.21792	284.325
172.53501	378.725
176.84895	522.725
181.15975	732.325
185.46741	1027.225
189.77193	1435.825
194.07331	1920.825
198.37157	2480.125
202.6667	3076.325
206.9587	3657.125
211.24758	4243.225
215.53334	4827.025
219.81599	5415.825
224.09553	6084.725
228.37195	6819.925
232.64527	7630.725
236.91549	8497.325
241.18261	9408.925
245.44663	10273.325
249.70755	11021.225
253.96539	11677.425
258.22014	12226.225
262.4718	12624.525
266.72039	12913.625
270.96589	13010.825
275.20832	12973.725
279.44768	12799.125
283.68397	12565.225
287.91719	12336.625
292.14735	12143.325
296.37445	12061.125
300.59849	12052.525
304.81948	12070.925
309.03742	12063.725
313.25231	11953.625
317.46415	11777.025
321.67296	11537.825
325.87872	11351.925
330.08145	11292.225
334.28114	11321.125
338.47781	11462.525
342.67145	11581.425
346.86207	11756.825
351.04966	11981.425
355.23424	12230.425
359.4158	12487.425
363.59435	12663.125
367.76989	12832.725
371.94243	12981.525
376.11196	13091.525
380.27849	13202.025
384.44203	13262.425
388.60257	13323.025
392.76012	13381.025
396.91468	13503.125
401.06626	13661.825
405.21485	13781.925
409.36047	13743.125
413.50311	13583.025
417.64277	13366.425
421.77947	13235.825
425.9132	13180.225
430.04396	13157.825
434.17176	13188.925
438.2966	13257.425
442.41849	13359.325
446.53742	13455.225
450.6534	13603.925
454.76644	13701.525
458.87653	13776.725
462.98368	13837.025
467.08789	13844.125
471.18916	13802.025
475.2875	13780.625
479.38291	13682.925
483.4754	13644.725
487.56496	13584.625
491.6516	13621.025
495.73531	13611.825
499.81612	13619.025
503.89401	13694.425
507.96899	13758.625
512.04106	13838.725
516.11023	13911.725
520.1765	13929.625
524.23987	13894.025
528.30034	13819.825
532.35792	13737.525
536.41261	13660.325
540.46441	13627.625
544.51333	13546.425
548.55936	13601.825
552.60252	13671.625
556.64279	13784.425
560.6802	13864.625
564.71473	13898.925
568.7464	13914.225
572.7752	13941.125
576.80114	13867.025
580.82422	13835.825
584.84444	13900.725
588.86181	13942.425
592.87633	13940.325
596.888	13989.925
600.89682	14107.525
604.9028	14660.425
608.90594	15972.125
612.90624	17543.025
616.90371	17248.425
620.89834	15219.725
624.89015	14206.325
628.87913	13992.825
632.86528	14084.725
636.84862	14223.225
640.82913	14224.825
644.80683	14040.125
648.78172	13899.925
652.75379	13847.125
656.72306	13982.225
660.68952	14194.625
664.65319	14181.225
668.61405	14082.825
672.57211	14077.125
676.52738	14073.925
680.47986	14035.425
684.42955	13977.425
688.37646	13906.925
692.32058	13946.425
696.26192	14037.525
700.20048	14072.325
704.13626	14106.725
708.06928	14069.225
711.99952	14002.225
715.927	13949.525
719.85171	13905.125
723.77365	13878.725
727.69284	13862.625
731.60928	13804.025
735.52295	13791.125
739.43388	13771.025
743.34206	13806.725
747.24749	13811.425
751.15017	13841.925
755.05012	13903.725
758.94733	14044.225
762.8418	14407.925
766.73354	15101.625
770.62254	15924.525
774.50882	16510.825
778.39237	16255.925
782.27321	15427.425
786.15132	14670.025
790.02671	14160.025
793.89938	13894.025
797.76935	13799.525
801.6366	13740.125
805.50115	13700.125
809.36299	13672.225
813.22213	13670.025
817.07857	13642.825
820.93231	13618.625
824.78336	13593.325
828.63172	13585.225
832.47738	13544.325
836.32036	13550.925
840.16066	13505.125
843.99827	13515.725
847.8332	13518.425
851.66546	13474.925
855.49504	13519.625
859.32195	13517.825
863.1462	13511.725
866.96777	13511.825
870.78668	13498.925
874.60293	13518.625
878.41652	13505.625
882.22745	13538.625
886.03573	13583.925
889.84136	13606.525
893.64433	13569.525
897.44466	13545.025
901.24235	13529.225
905.0374	13497.425
908.8298	13453.025
912.61957	13448.125
916.40671	13437.725
920.19121	13436.825
923.97308	13434.725
927.75233	13459.525
931.52895	13489.625
935.30295	13459.625
939.07433	13357.025
942.84309	13260.925
946.60924	13177.225
950.37278	13118.325
954.13371	13077.725
957.89203	13034.525
961.64774	13050.725
965.40086	13011.225
969.15137	12965.025
972.89929	12933.625
976.64461	12936.125
980.38733	12923.325
984.12747	12927.225
987.86502	12924.025
991.59999	12934.325
995.33237	12947.025
999.06217	13029.225
1002.78939	13041.925
1006.51404	13098.625
1010.23611	13205.025
1013.95561	13226.825
1017.67255	13236.925
1021.38692	13256.925
1025.09872	13200.725
1028.80796	13176.425
1032.51465	13119.625
1036.21877	13105.025
1039.92035	13130.225
1043.61937	13136.525
1047.31584	13191.325
1051.00976	13217.225
1054.70114	13245.725
1058.38998	13269.225
1062.07627	13291.325
1065.76003	13342.325
1069.44126	13416.625
1073.11995	13529.725
1076.79611	13650.625
1080.46974	13702.425
1084.14085	13703.225
1087.80943	13705.225
1091.47549	13737.525
1095.13903	13744.125
1098.80005	13691.925
1102.45857	13591.025
1106.11456	13537.025
1109.76805	13495.625
1113.41903	13493.825
1117.06751	13594.025
1120.71348	13731.725
1124.35696	13850.325
1127.99793	13969.625
1131.63641	14068.425
1135.2724	13947.825
1138.90589	13754.425
1142.5369	13612.025
1146.16542	13491.925
1149.79145	13378.125
1153.415	13303.025
1157.03607	13277.425
1160.65467	13305.225
1164.27079	13438.325
1167.88443	13641.725
1171.49561	13937.925
1175.10432	14423.325
1178.71056	15148.125
1182.31434	15764.625
1185.91565	16043.425
1189.51451	15992.025
1193.11091	15704.525
1196.70485	15333.325
1200.29634	15013.825
1203.88538	14696.925
1207.47197	14311.625
1211.05612	13965.025
1214.63782	13752.125
1218.21708	13619.225
1221.79391	13550.625
1225.36829	13474.825
1228.94024	13491.525
1232.50976	13510.025
1236.07685	13541.425
1239.6415	13528.525
1243.20374	13572.225
1246.76355	13608.025
1250.32093	13648.725
1253.8759	13710.225
1257.42845	13835.925
1260.97859	13969.225
1264.52631	14125.725
1268.07163	14269.325
1271.61453	14365.925
1275.15503	14446.925
1278.69312	14490.225
1282.22882	14510.225
1285.76211	14569.825
1289.29301	14671.325
1292.82151	14834.125
1296.34761	15032.225
1299.87133	15324.625
1303.39266	15763.325
1306.9116	16361.025
1310.42815	17051.525
1313.94233	17380.525
1317.45412	17282.325
1320.96354	16859.625
1324.47058	16414.425
1327.97525	15967.325
1331.47754	15568.525
1334.97747	15366.425
1338.47502	15299.025
1341.97022	15471.425
1345.46305	15820.625
1348.95352	16337.725
1352.44163	16932.425
1355.92738	17648.925
1359.41078	18570.225
1362.89183	19606.725
1366.37053	19632.925
1369.84688	18205.725
1373.32088	16500.925
1376.79254	15369.725
1380.26186	14705.525
1383.72883	14290.425
1387.19347	14027.525
1390.65578	13756.325
1394.11575	13540.925
1397.57339	13301.425
1401.0287	13158.325
1404.48168	13057.925
1407.93234	12995.625
1411.38068	12969.425
1414.82669	12981.725
1418.27039	12923.625
1421.71177	12891.225
1425.15083	12777.725
1428.58758	12691.225
1432.02203	12626.825
1435.45416	12616.325
1438.88399	12629.525
1442.31151	12625.025
1445.73673	12578.325
1449.15965	12620.025
1452.58027	12606.125
1455.9986	12630.125
1459.41463	12653.925
1462.82837	12721.225
1466.23982	12832.625
1469.64898	12982.625
1473.05586	13125.625
1476.46045	13234.925
1479.86276	13332.125
1483.26279	13440.825
1486.66054	13603.625
1490.05602	13774.625
1493.44922	14113.325
1496.84016	14601.525
1500.22882	15432.125
1503.61521	16524.225
1506.99934	17660.325
1510.38121	18531.325
1513.76081	18665.525
1517.13816	17969.525
1520.51324	16762.425
1523.88607	15632.425
1527.25665	14840.225
1530.62498	14361.725
1533.99105	14073.625
1537.35488	13877.125
1540.71647	13753.525
1544.07581	13689.225
1547.4329	13669.825
1550.78776	13662.825
1554.14038	13728.225
1557.49077	13742.925
1560.83892	13863.525
1564.18484	14005.925
1567.52853	14178.025
1570.86999	14373.025
1574.20922	14493.825
1577.54624	14511.125
1580.88103	14272.925
1584.2136	13861.925
1587.54395	13545.825
1590.87208	13380.725
1594.19801	13436.425
1597.52172	13656.125
1600.84321	13835.125
1604.16251	13776.325
1607.47959	13579.225
1610.79447	13371.025
1614.10715	13087.325
1617.41763	12755.725
1620.7259	12504.825
1624.03199	12376.525
1627.33587	12280.525
1630.63757	12252.625
1633.93707	12318.125
1637.23439	12541.125
1640.52951	12859.525
1643.82246	13435.725
1647.11321	14189.025
1650.40179	14832.425
1653.68819	14907.925
1656.97241	14296.725
1660.25446	13404.425
1663.53433	12695.125
1666.81203	12216.525
1670.08756	11892.125
1673.36092	11693.325
1676.63211	11526.425
1679.90115	11411.425
1683.16801	11334.425
1686.43272	11273.225
1689.69527	11215.525
1692.95567	11165.725
1696.2139	11131.925
1699.46999	11105.025
1702.72392	11078.025
1705.97571	11029.925
1709.22535	10989.325
1712.47284	10983.525
1715.71819	10975.225
1718.96139	10919.225
1722.20246	10886.825
1725.44139	10832.625
1728.67818	10783.825
1731.91284	10733.825
1735.14537	10692.725
1738.37576	10634.325
1741.60403	10578.825
1744.83017	10569.625
1748.05418	10534.625
1751.27607	10530.225
1754.49584	10486.225
1757.71349	10486.625
1760.92903	10441.925
1764.14244	10438.825
1767.35375	10448.625
1770.56294	10425.625
1773.77002	10399.125
1776.97499	10360.125
1780.17785	10334.625
1783.37861	10295.125
1786.57727	10270.525
1789.77382	10259.025
1792.96828	10225.425
1796.16064	10195.625
1799.3509	10176.425
1802.53907	10144.525
1805.72514	10118.925
1808.90913	10091.325
1812.09102	10073.925
1815.27083	10041.725
1818.44856	10029.925
1821.6242	10005.325
1824.79776	9976.725
1827.96924	9962.925
1831.13864	9949.725
1834.30597	9936.325
1837.47122	9904.125
1840.6344	9902.425
1843.7955	9897.225
1846.95454	9864.725
1850.11151	9871.025
1853.26642	9862.325
1856.41926	9833.525
1859.57004	9846.025
1862.71876	9838.925
1865.86542	9781.225
1869.01003	9781.425
1872.15258	9796.925
1875.29308	9783.625
1878.43152	9747.825
1881.56792	9738.525
1884.70227	9723.325
1887.83457	9702.825
1890.96482	9700.825
1894.09304	9670.025
1897.21921	9649.625
1900.34335	9651.425
1903.46544	9627.725
1906.58551	9610.125
1909.70353	9581.125
1912.81953	9560.625
1915.93349	9557.825
1919.04543	9550.025
1922.15534	9510.925
1925.26322	9509.625
1928.36908	9493.625
1931.47292	9463.625
1934.57473	9426.525
1937.67453	9385.125
1940.77232	9358.725
1943.86808	9366.125
1946.96184	9320.025
1950.05358	9312.825
1953.14331	9288.625
1956.23103	9260.425
1959.31675	9229.025
1962.40046	9199.525
1965.48217	9155.725
1968.56188	9141.425
1971.63959	9108.125
1974.7153	9059.325
1977.78901	9041.625
1980.86073	9009.925
1983.93046	8987.525
1986.99819	8940.225
1990.06394	8909.625
1993.1277	8878.525
1996.18947	8852.925
1999.24925	8846.025
2002.30706	8811.525
2005.36288	8762.925
2008.41672	8756.725
2011.46859	8733.325
2014.51848	8702.625
2017.56639	8671.225
2020.61233	8649.225
2023.6563	8591.825
2026.6983	8594.625
2029.73833	8579.325
2032.7764	8531.625
2035.8125	8520.625
2038.84664	8487.025
2041.87881	8462.625
2044.90903	8462.825
2047.93729	8413.425
2050.96359	8421.525
2053.98794	8404.125
2057.01034	8385.625
2060.03078	8378.925
2063.04927	8357.425
2066.06582	8369.425
2069.08042	8347.625
2072.09307	8328.925
2075.10378	8337.125
2078.11255	8316.725
2081.11938	8323.225
2084.12426	8302.225
2087.12722	8289.825
2090.12824	8282.725
2093.12732	8291.225
2096.12447	8294.325
2099.11969	8289.525
2102.11299	8288.725
2105.10435	8277.225
2108.09379	8283.325
2111.08131	8292.125
2114.0669	8287.725
2117.05057	8292.125
2120.03233	8305.225
2123.01216	8331.725
2125.99008	8308.925
2128.96609	8312.225
2131.94018	8312.525
2134.91236	8330.625
2137.88263	8325.225
2140.851	8324.725
2143.81746	8313.125
2146.78201	8301.725
2149.74466	8302.625
2152.7054	8299.825
2155.66425	8293.925
2158.6212	8289.425
2161.57625	8285.825
2164.52941	8296.325
2167.48067	8277.125
2170.43004	8272.225
2173.37752	8274.225
2176.32311	8265.025
2179.26681	8235.525
2182.20863	8249.725
2185.14856	8234.325
2188.08661	8213.225
2191.02278	8218.725
2193.95707	8206.225
2196.88948	8213.425
2199.82001	8209.625
2202.74867	8185.325
2205.67545	8159.925
2208.60037	8180.725
2211.52341	8140.225
2214.44458	8146.325
2217.36388	8098.225
2220.28132	8082.825
2223.1969	8068.525
2226.11061	8058.425
2229.02246	8030.625
2231.93245	8014.325
2234.84058	7984.025
2237.74686	7976.425
2240.65128	7976.725
2243.55385	7959.325
2246.45456	7965.525
2249.35343	7931.625
2252.25044	7915.525
2255.14561	7909.325
2258.03893	7896.225
2260.93041	7889.025
2263.82004	7857.925
2266.70783	7838.425
2269.59378	7811.825
2272.4779	7804.525
2275.36017	7784.625
2278.24061	7756.125
2281.11922	7740.725
2283.996	7728.725
2286.87094	7700.125
2289.74405	7671.025
2292.61534	7668.425
2295.4848	7667.925
2298.35243	7647.125
2301.21824	7633.525
2304.08223	7634.325
2306.94439	7637.625
2309.80474	7609.325
2312.66327	7592.825
2315.51999	7584.025
2318.37489	7596.725
2321.22797	7562.025
2324.07925	7537.525
2326.92871	7531.825
2329.77637	7526.825
2332.62222	7500.025
2335.46626	7483.325
2338.3085	7470.725
2341.14893	7448.525
2343.98756	7443.125
2346.8244	7439.025
2349.65943	7422.625
2352.49267	7416.025
2355.32411	7426.325
2358.15376	7411.925
2360.98161	7397.325
2363.80768	7406.425
2366.63195	7389.025
2369.45444	7379.625
2372.27514	7376.425
2375.09405	7350.625
2377.91118	7350.825
2380.72652	7311.725
2383.54009	7324.725
2386.35187	7292.725
2389.16188	7279.625
2391.97011	7255.725
2394.77657	7227.125
2397.58125	7221.925
2400.38416	7201.325
2403.18529	7176.325
2405.98466	7169.425
2408.78226	7166.625
2411.57809	7146.225
2414.37216	7119.125
2417.16446	7127.925
2419.955	7114.225
2422.74378	7093.925
2425.5308	7087.825
2428.31606	7106.225
2431.09956	7088.525
2433.88131	7070.825
2436.6613	7056.025
2439.43954	7071.325
2442.21603	7032.825
2444.99077	7019.725
2447.76377	7029.625
2450.53501	7025.325
2453.30451	7019.025
2456.07226	6997.425
2458.83827	6979.825
2461.60254	6971.925
2464.36507	6971.925
2467.12586	6955.325
2469.88492	6940.425
2472.64224	6942.325
2475.39782	6935.025
2478.15167	6935.125
2480.90379	6920.025
2483.65417	6901.525
2486.40283	6899.625
2489.14976	6880.125
2491.89497	6877.025
2494.63845	6899.125
2497.3802	6876.125
2500.12024	6848.325
2502.85855	6843.125
2505.59514	6835.325
2508.33002	6813.525
2511.06318	6817.125
2513.79462	6803.625
2516.52435	6777.425
2519.25237	6765.325
2521.97867	6747.625
2524.70327	6739.625
2527.42616	6700.125
2530.14734	6716.625
2532.86681	6703.525
2535.58458	6675.525
2538.30065	6666.325
2541.01501	6657.025
2543.72768	6635.725
2546.43864	6626.625
2549.14791	6616.425
2551.85548	6593.625
2554.56136	6581.525
2557.26554	6572.125
2559.96803	6546.325
2562.66883	6560.825
2565.36794	6537.625
2568.06536	6525.425
2570.7611	6538.425
2573.45514	6521.425
2576.14751	6470.625
2578.83819	6487.825
2581.52719	6460.325
2584.21451	6448.125
2586.90015	6435.025
2589.58411	6407.525
2592.2664	6403.825
2594.94701	6371.225
2597.62594	6356.725
2600.30321	6335.125
2602.9788	6338.525
2605.65273	6324.925
2608.32498	6317.725
2610.99557	6291.025
2613.66449	6286.825
2616.33175	6275.725
2618.99734	6274.125
2621.66128	6241.925
2624.32355	6244.325
2626.98416	6221.525
2629.64311	6218.925
2632.30041	6222.725
2634.95605	6228.825
2637.61004	6200.425
2640.26238	6179.225
2642.91306	6178.925
2645.56209	6177.825
2648.20948	6155.225
2650.85521	6131.625
2653.4993	6147.925
2656.14175	6121.925
2658.78255	6150.625
2661.42171	6134.125
2664.05923	6139.125
2666.6951	6103.025
2669.32934	6099.125
2671.96194	6104.025
2674.59291	6116.525
2677.22224	6110.925
2679.84993	6092.425
2682.476	6098.225
2685.10043	6101.725
2687.72324	6087.925
2690.34441	6072.625
2692.96396	6088.425
2695.58188	6088.025
2698.19818	6065.425
2700.81285	6067.025
2703.4259	6094.025
2706.03733	6103.825
2708.64714	6077.725
2711.25533	6083.025
2713.86191	6090.225
2716.46687	6062.325
2719.07021	6065.925
2721.67194	6051.725
2724.27206	6039.825
2726.87057	6031.925
2729.46747	6042.025
2732.06276	6022.925
2734.65644	6010.825
2737.24852	6005.425
2739.83899	5990.925
2742.42786	5998.825
2745.01513	5972.825
2747.60079	5992.025
2750.18486	5984.525
2752.76733	5971.225
2755.3482	5944.225
2757.92747	5932.925
2760.50515	5953.625
2763.08123	5907.625
2765.65573	5904.525
2768.22863	5905.725
2770.79994	5881.825
2773.36967	5901.125
2775.9378	5873.325
2778.50435	5862.825
2781.06932	5835.725
2783.6327	5848.725
2786.1945	5821.325
2788.75471	5814.125
2791.31335	5809.025
2793.87041	5800.725
2796.42589	5777.125
2798.97979	5757.825
2801.53212	5737.725
2804.08288	5723.825
2806.63206	5711.125
2809.17967	5696.025
2811.72571	5685.525
2814.27018	5686.725
2816.81308	5666.825
2819.35442	5636.925
2821.89419	5648.725
2824.43239	5640.825
2826.96904	5628.125
2829.50412	5638.825
2832.03763	5607.425
2834.56959	5610.525
2837.1	5619.025
2839.62884	5613.725
2842.15613	5607.325
2844.68186	5603.325
2847.20604	5598.425
2849.72867	5598.925
2852.24974	5590.325
2854.76927	5573.225
2857.28724	5565.025
2859.80367	5560.525
2862.31855	5560.525
2864.83189	5544.825
2867.34368	5534.725
2869.85393	5544.825
2872.36264	5551.525
2874.8698	5549.125
2877.37543	5536.025
2879.87952	5539.225
2882.38207	5533.425
2884.88308	5518.925
2887.38256	5525.325
2889.88051	5500.725
2892.37692	5501.525
2894.8718	5498.125
2897.36515	5496.825
2899.85698	5503.725
2902.34727	5499.325
2904.83604	5494.625
2907.32328	5503.225
2909.809	5495.425
2912.29319	5488.725
2914.77587	5484.125
2917.25702	5481.925
2919.73665	5470.025
2922.21476	5483.225
2924.69136	5463.125
2927.16644	5475.725
2929.64	5462.625
2932.11205	5451.525
2934.58258	5438.225
2937.05161	5444.525
2939.51912	5443.725
2941.98513	5443.325
2944.44962	5427.925
2946.91261	5409.425
2949.37409	5399.825
2951.83407	5395.825
2954.29254	5411.225
2956.74951	5402.325
2959.20498	5390.125
2961.65895	5372.625
2964.11142	5363.725
2966.56239	5383.725
2969.01186	5388.825
2971.45984	5366.525
2973.90632	5335.425
2976.35131	5323.125
2978.7948	5331.725
2981.23681	5311.625
2983.67732	5307.725
2986.11635	5275.225
2988.55388	5265.525
2990.98993	5271.625
2993.4245	5257.625
2995.85758	5240.725
2998.28917	5242.025
3000.71928	5241.625
3003.14791	5207.925
3005.57506	5211.225
3008.00073	5218.425
3010.42493	5209.425
3012.84764	5200.625
3015.26888	5194.625
3017.68865	5172.325
3020.10694	5178.025
3022.52376	5165.125
3024.9391	5154.925
3027.35298	5151.725
3029.76539	5142.225
3032.17632	5121.025
3034.5858	5110.425
3036.9938	5105.225
3039.40034	5110.625
3041.80542	5100.825
3044.20903	5082.625
3046.61118	5113.425
3049.01187	5064.725
3051.4111	5070.325
3053.80888	5047.925
3056.20519	5082.825
3058.60005	5056.925
3060.99345	5035.625
3063.3854	5036.525
3065.7759	5017.525
3068.16494	5034.825
3070.55254	5007.625
3072.93868	4994.025
3075.32338	4994.925
3077.70662	4997.025
3080.08842	4983.025
3082.46878	4976.225
3084.84769	4977.925
3087.22515	4994.225
3089.60118	4976.225
3091.97576	4997.025
3094.3489	4986.525
3096.72061	4972.625
3099.09087	4982.925
3101.4597	5005.625
3103.82709	4984.425
3106.19305	4974.225
3108.55757	4971.125
3110.92066	4956.625
3113.28232	4963.125
3115.64255	4956.625
3118.00134	4942.425
3120.35871	4941.525
3122.71466	4930.925
3125.06917	4946.825
3127.42226	4910.925
3129.77393	4928.425
3132.12417	4922.825
3134.47299	4936.925
3136.82039	4942.825
3139.16636	4945.125
3141.51092	4946.825
3143.85406	4943.525
3146.19579	4970.025
3148.53609	4970.425
3150.87499	4965.525
3153.21246	4967.225
3155.54853	4994.925
3157.88318	4983.925
3160.21642	4990.725
3162.54826	4976.525
3164.87868	4999.425
3167.2077	4990.225
3169.5353	4975.925
3171.86151	4988.025
3174.18631	4978.325
3176.5097	4970.925
3178.83169	4976.725
3181.15228	4978.525
3183.47147	4980.625
3185.78926	4981.125
