Data from AgNPs_FTO_APTES_UA_10uM_R6G_10uM_NaF_0.1M_Addition_RamanShift__14__13-26-17-317.txt Node

Date: Fri Dec 17 13:26:17 GMT 2021
User: TCL
Spectrometer: QEP01345
Trigger mode: 4
Integration Time (sec): 7.000000E0
Scans to average: 10
Electric dark correction enabled: true
Nonlinearity correction enabled: false
Boxcar width: 0
XAxis mode: Raman Shifts
Number of Pixels in Spectrum: 1044
>>>>>Begin Spectral Data<<<<<
46.04893	-0.5625
50.45542	-0.8625
54.85868	-1.0625
59.25871	0.5375
63.6555	94.4375
68.04907	97.5375
72.43941	99.5375
76.82654	104.4375
81.21044	108.6375
85.59113	108.5375
89.96862	118.7375
94.34289	118.0375
98.71396	124.3375
103.08183	125.3375
107.4465	129.6375
111.80798	134.5375
116.16626	138.5375
120.52136	142.9375
124.87327	149.5375
129.222	156.7375
133.56755	166.4375
137.90993	184.3375
142.24913	203.6375
146.58517	227.7375
150.91804	269.1375
155.24774	315.8375
159.57429	399.4375
163.89768	512.5375
168.21792	677.8375
172.53501	917.9375
176.84895	1277.4375
181.15975	1802.7375
185.46741	2533.4375
189.77193	3498.3375
194.07331	4699.2375
198.37157	6098.1375
202.6667	7563.8375
206.9587	8998.5375
211.24758	10432.7375
215.53334	11862.4375
219.81599	13320.4375
224.09553	14951.5375
228.37195	16732.0375
232.64527	18724.7375
236.91549	20839.2375
241.18261	23093.4375
245.44663	25203.6375
249.70755	27142.6375
253.96539	28826.7375
258.22014	30153.7375
262.4718	31265.0375
266.72039	31982.2375
270.96589	32301.4375
275.20832	32305.3375
279.44768	32009.8375
283.68397	31556.2375
287.91719	31118.5375
292.14735	30757.9375
296.37445	30586.3375
300.59849	30408.1375
304.81948	30425.6375
309.03742	30323.3375
313.25231	30144.1375
317.46415	29743.9375
321.67296	29310.3375
325.87872	28921.8375
330.08145	28757.5375
334.28114	28822.4375
338.47781	29134.0375
342.67145	29487.4375
346.86207	29913.3375
351.04966	30400.4375
355.23424	30975.4375
359.4158	31454.5375
363.59435	31894.0375
367.76989	32240.2375
371.94243	32449.7375
376.11196	32629.7375
380.27849	32823.5375
384.44203	32943.7375
388.60257	33175.5375
392.76012	33378.8375
396.91468	33722.6375
401.06626	34015.9375
405.21485	34344.9375
409.36047	34269.5375
413.50311	33927.5375
417.64277	33592.3375
421.77947	33467.9375
425.9132	33567.2375
430.04396	33795.0375
434.17176	33902.4375
438.2966	34057.2375
442.41849	34337.7375
446.53742	34715.6375
450.6534	35112.0375
454.76644	35424.8375
458.87653	35702.8375
462.98368	35762.0375
467.08789	35743.6375
471.18916	35661.3375
475.2875	35376.2375
479.38291	35170.7375
483.4754	34984.4375
487.56496	34882.3375
491.6516	34802.2375
495.73531	34710.3375
499.81612	34662.2375
503.89401	34894.7375
507.96899	35005.1375
512.04106	35172.8375
516.11023	35317.4375
520.1765	35271.0375
524.23987	35142.5375
528.30034	34959.3375
532.35792	34843.2375
536.41261	34730.0375
540.46441	34533.5375
544.51333	34522.1375
548.55936	34639.2375
552.60252	34958.7375
556.64279	35340.1375
560.6802	35549.4375
564.71473	35652.5375
568.7464	35797.5375
572.7752	36014.9375
576.80114	36126.5375
580.82422	36441.1375
584.84444	36700.8375
588.86181	36908.5375
592.87633	37049.2375
596.888	37065.7375
600.89682	37198.9375
604.9028	38253.4375
608.90594	40784.0375
612.90624	43531.9375
616.90371	42315.5375
620.89834	38048.8375
624.89015	35968.1375
628.87913	35555.3375
632.86528	35672.0375
636.84862	35889.7375
640.82913	35705.5375
644.80683	35317.0375
648.78172	34912.0375
652.75379	34912.3375
656.72306	35170.2375
660.68952	35629.0375
664.65319	35563.6375
668.61405	35256.7375
672.57211	35241.1375
676.52738	35359.7375
680.47986	35379.8375
684.42955	35244.9375
688.37646	35248.2375
692.32058	35322.0375
696.26192	35537.8375
700.20048	35798.9375
704.13626	35920.9375
708.06928	35927.8375
711.99952	35783.3375
715.927	35675.8375
719.85171	35729.5375
723.77365	35646.8375
727.69284	35440.8375
731.60928	35239.8375
735.52295	35078.9375
739.43388	35103.0375
743.34206	35119.8375
747.24749	35207.4375
751.15017	35290.1375
755.05012	35540.6375
758.94733	35975.6375
762.8418	36922.7375
766.73354	38472.6375
770.62254	40124.6375
774.50882	40815.0375
778.39237	40171.6375
782.27321	38714.6375
786.15132	37287.5375
790.02671	36270.7375
793.89938	35784.0375
797.76935	35470.6375
801.6366	35336.0375
805.50115	35215.0375
809.36299	35104.1375
813.22213	34982.3375
817.07857	34922.4375
820.93231	34878.2375
824.78336	34924.6375
828.63172	34976.2375
832.47738	34916.3375
836.32036	34909.5375
840.16066	34890.8375
843.99827	34906.5375
847.8332	34872.6375
851.66546	34888.8375
855.49504	34924.4375
859.32195	34979.8375
863.1462	35018.1375
866.96777	35019.7375
870.78668	35049.8375
874.60293	35110.6375
878.41652	35120.7375
882.22745	35250.4375
886.03573	35359.0375
889.84136	35345.7375
893.64433	35302.8375
897.44466	35254.1375
901.24235	35208.1375
905.0374	35211.2375
908.8298	35224.5375
912.61957	35215.7375
916.40671	35251.6375
920.19121	35403.0375
923.97308	35417.1375
927.75233	35480.2375
931.52895	35431.7375
935.30295	35314.2375
939.07433	35037.4375
942.84309	34746.4375
946.60924	34568.4375
950.37278	34470.1375
954.13371	34401.5375
957.89203	34273.4375
961.64774	34282.7375
965.40086	34205.0375
969.15137	34104.5375
972.89929	34127.5375
976.64461	34091.9375
980.38733	34083.3375
984.12747	34126.2375
987.86502	34145.7375
991.59999	34203.6375
995.33237	34321.0375
999.06217	34576.4375
1002.78939	34858.8375
1006.51404	35211.8375
1010.23611	35507.0375
1013.95561	35718.9375
1017.67255	35740.0375
1021.38692	35609.3375
1025.09872	35422.0375
1028.80796	35165.0375
1032.51465	35059.2375
1036.21877	35135.3375
1039.92035	35154.4375
1043.61937	35207.5375
1047.31584	35272.4375
1051.00976	35325.3375
1054.70114	35456.0375
1058.38998	35604.1375
1062.07627	35832.5375
1065.76003	36074.8375
1069.44126	36403.6375
1073.11995	36798.1375
1076.79611	37179.5375
1080.46974	37381.8375
1084.14085	37369.7375
1087.80943	37434.9375
1091.47549	37480.0375
1095.13903	37429.8375
1098.80005	37182.7375
1102.45857	36873.0375
1106.11456	36616.6375
1109.76805	36434.8375
1113.41903	36290.2375
1117.06751	36329.6375
1120.71348	36449.4375
1124.35696	36681.7375
1127.99793	36873.8375
1131.63641	37038.2375
1135.2724	36808.8375
1138.90589	36595.7375
1142.5369	36464.0375
1146.16542	36347.7375
1149.79145	36256.5375
1153.415	36181.3375
1157.03607	36216.8375
1160.65467	36470.3375
1164.27079	37012.8375
1167.88443	37789.9375
1171.49561	38802.2375
1175.10432	40138.0375
1178.71056	41921.8375
1182.31434	43682.4375
1185.91565	44841.4375
1189.51451	45338.4375
1193.11091	45151.1375
1196.70485	44290.1375
1200.29634	43238.3375
1203.88538	42151.7375
1207.47197	41123.1375
1211.05612	40278.0375
1214.63782	39581.0375
1218.21708	39059.4375
1221.79391	38622.6375
1225.36829	38313.1375
1228.94024	38207.4375
1232.50976	38177.8375
1236.07685	38224.8375
1239.6415	38237.8375
1243.20374	38340.2375
1246.76355	38440.4375
1250.32093	38676.5375
1253.8759	38943.9375
1257.42845	39431.6375
1260.97859	40055.0375
1264.52631	40622.9375
1268.07163	41164.4375
1271.61453	41731.1375
1275.15503	42161.5375
1278.69312	42504.3375
1282.22882	42739.0375
1285.76211	43040.9375
1289.29301	43412.5375
1292.82151	44008.6375
1296.34761	44680.1375
1299.87133	45531.5375
1303.39266	46614.2375
1306.9116	48003.3375
1310.42815	49424.2375
1313.94233	50243.4375
1317.45412	50255.1375
1320.96354	49815.7375
1324.47058	49351.9375
1327.97525	48821.0375
1331.47754	48442.5375
1334.97747	48397.5375
1338.47502	48723.9375
1341.97022	49375.9375
1345.46305	50273.8375
1348.95352	51137.3375
1352.44163	51750.9375
1355.92738	52117.5375
1359.41078	52731.4375
1362.89183	53444.9375
1366.37053	52474.7375
1369.84688	49508.5375
1373.32088	46116.3375
1376.79254	43695.9375
1380.26186	42338.5375
1383.72883	41751.0375
1387.19347	41232.1375
1390.65578	40625.6375
1394.11575	40144.5375
1397.57339	39839.1375
1401.0287	39756.0375
1404.48168	39715.2375
1407.93234	39738.9375
1411.38068	39659.2375
1414.82669	39478.0375
1418.27039	39081.6375
1421.71177	38635.2375
1425.15083	38282.3375
1428.58758	38133.5375
1432.02203	38135.1375
1435.45416	38308.5375
1438.88399	38585.7375
1442.31151	38782.8375
1445.73673	38832.5375
1449.15965	38914.8375
1452.58027	39000.0375
1455.9986	39180.1375
1459.41463	39321.6375
1462.82837	39712.3375
1466.23982	40174.9375
1469.64898	40554.8375
1473.05586	40905.9375
1476.46045	41069.8375
1479.86276	41126.4375
1483.26279	41170.1375
1486.66054	41348.3375
1490.05602	41640.0375
1493.44922	42180.2375
1496.84016	43093.9375
1500.22882	44434.7375
1503.61521	46215.7375
1506.99934	48042.7375
1510.38121	49385.6375
1513.76081	49434.8375
1517.13816	48155.3375
1520.51324	46171.5375
1523.88607	44393.5375
1527.25665	43215.3375
1530.62498	42502.6375
1533.99105	42103.0375
1537.35488	41783.2375
1540.71647	41395.7375
1544.07581	41040.8375
1547.4329	40727.6375
1550.78776	40460.9375
1554.14038	40316.5375
1557.49077	40229.4375
1560.83892	40378.8375
1564.18484	40533.5375
1567.52853	40759.5375
1570.86999	41041.9375
1574.20922	41424.0375
1577.54624	41562.9375
1580.88103	41320.2375
1584.2136	40807.9375
1587.54395	40441.3375
1590.87208	40639.0375
1594.19801	41227.1375
1597.52172	42267.9375
1600.84321	42712.9375
1604.16251	42278.7375
1607.47959	41340.2375
1610.79447	40112.3375
1614.10715	38715.7375
1617.41763	37217.9375
1620.7259	36122.1375
1624.03199	35438.5375
1627.33587	35235.5375
1630.63757	35470.6375
1633.93707	36162.7375
1637.23439	37475.7375
1640.52951	39306.7375
1643.82246	41573.7375
1647.11321	43531.2375
1650.40179	44275.3375
1653.68819	43129.5375
1656.97241	40511.2375
1660.25446	37589.9375
1663.53433	35360.4375
1666.81203	33889.9375
1670.08756	32927.7375
1673.36092	32269.7375
1676.63211	31911.9375
1679.90115	31540.6375
1683.16801	31329.3375
1686.43272	31160.6375
1689.69527	31042.8375
1692.95567	30916.9375
1696.2139	30837.3375
1699.46999	30792.8375
1702.72392	30703.4375
1705.97571	30706.6375
1709.22535	30635.0375
1712.47284	30625.8375
1715.71819	30616.1375
1718.96139	30528.8375
1722.20246	30504.6375
1725.44139	30442.3375
1728.67818	30344.0375
1731.91284	30203.9375
1735.14537	30091.0375
1738.37576	29996.7375
1741.60403	29900.0375
1744.83017	29798.7375
1748.05418	29805.4375
1751.27607	29736.8375
1754.49584	29690.2375
1757.71349	29662.0375
1760.92903	29642.9375
1764.14244	29621.0375
1767.35375	29634.1375
1770.56294	29562.0375
1773.77002	29565.1375
1776.97499	29498.6375
1780.17785	29417.5375
1783.37861	29413.3375
1786.57727	29360.0375
1789.77382	29343.5375
1792.96828	29313.9375
1796.16064	29201.0375
1799.3509	29203.8375
1802.53907	29129.3375
1805.72514	29034.2375
1808.90913	29000.6375
1812.09102	28987.4375
1815.27083	28908.2375
1818.44856	28872.5375
1821.6242	28857.9375
1824.79776	28832.5375
1827.96924	28807.5375
1831.13864	28782.4375
1834.30597	28803.8375
1837.47122	28811.2375
1840.6344	28746.5375
1843.7955	28737.8375
1846.95454	28748.5375
1850.11151	28720.6375
1853.26642	28675.0375
1856.41926	28707.4375
1859.57004	28648.0375
1862.71876	28610.1375
1865.86542	28605.3375
1869.01003	28546.6375
1872.15258	28464.4375
1875.29308	28440.9375
1878.43152	28383.5375
1881.56792	28379.5375
1884.70227	28322.8375
1887.83457	28318.1375
1890.96482	28267.2375
1894.09304	28184.4375
1897.21921	28165.8375
1900.34335	28156.5375
1903.46544	28076.1375
1906.58551	28032.0375
1909.70353	28002.9375
1912.81953	27950.6375
1915.93349	27889.2375
1919.04543	27837.3375
1922.15534	27771.8375
1925.26322	27718.8375
1928.36908	27655.1375
1931.47292	27621.5375
1934.57473	27555.5375
1937.67453	27411.0375
1940.77232	27416.7375
1943.86808	27336.9375
1946.96184	27272.3375
1950.05358	27180.4375
1953.14331	27116.1375
1956.23103	27052.6375
1959.31675	26978.8375
1962.40046	26900.8375
1965.48217	26829.0375
1968.56188	26717.6375
1971.63959	26622.4375
1974.7153	26560.5375
1977.78901	26474.1375
1980.86073	26418.8375
1983.93046	26302.7375
1986.99819	26262.0375
1990.06394	26170.7375
1993.1277	26086.9375
1996.18947	25966.6375
1999.24925	25907.6375
2002.30706	25827.2375
2005.36288	25766.0375
2008.41672	25726.5375
2011.46859	25633.0375
2014.51848	25612.2375
2017.56639	25526.8375
2020.61233	25433.2375
2023.6563	25375.4375
2026.6983	25304.0375
2029.73833	25249.8375
2032.7764	25176.2375
2035.8125	25078.7375
2038.84664	25043.0375
2041.87881	25011.7375
2044.90903	24950.6375
2047.93729	24897.3375
2050.96359	24873.2375
2053.98794	24813.1375
2057.01034	24800.4375
2060.03078	24800.9375
2063.04927	24765.4375
2066.06582	24726.9375
2069.08042	24774.0375
2072.09307	24752.2375
2075.10378	24696.5375
2078.11255	24680.4375
2081.11938	24685.3375
2084.12426	24650.5375
2087.12722	24679.9375
2090.12824	24640.1375
2093.12732	24645.3375
2096.12447	24648.2375
2099.11969	24657.2375
2102.11299	24637.3375
2105.10435	24655.5375
2108.09379	24651.1375
2111.08131	24678.9375
2114.0669	24687.2375
2117.05057	24707.8375
2120.03233	24715.7375
2123.01216	24763.3375
2125.99008	24788.7375
2128.96609	24790.9375
2131.94018	24812.0375
2134.91236	24840.0375
2137.88263	24795.4375
2140.851	24800.0375
2143.81746	24857.0375
2146.78201	24819.2375
2149.74466	24826.4375
2152.7054	24817.1375
2155.66425	24791.0375
2158.6212	24813.8375
2161.57625	24789.4375
2164.52941	24792.0375
2167.48067	24754.7375
2170.43004	24739.0375
2173.37752	24726.2375
2176.32311	24713.3375
2179.26681	24708.1375
2182.20863	24699.7375
2185.14856	24702.2375
2188.08661	24649.1375
2191.02278	24683.4375
2193.95707	24614.0375
2196.88948	24634.2375
2199.82001	24639.1375
2202.74867	24605.7375
2205.67545	24557.0375
2208.60037	24525.3375
2211.52341	24468.3375
2214.44458	24476.8375
2217.36388	24358.2375
2220.28132	24338.3375
2223.1969	24292.1375
2226.11061	24248.4375
2229.02246	24209.4375
2231.93245	24167.6375
2234.84058	24067.8375
2237.74686	24074.6375
2240.65128	24025.6375
2243.55385	23990.2375
2246.45456	23945.7375
2249.35343	23935.0375
2252.25044	23860.7375
2255.14561	23863.0375
2258.03893	23831.3375
2260.93041	23806.1375
2263.82004	23730.2375
2266.70783	23678.1375
2269.59378	23622.2375
2272.4779	23620.0375
2275.36017	23511.8375
2278.24061	23482.8375
2281.11922	23419.7375
2283.996	23381.0375
2286.87094	23330.5375
2289.74405	23285.2375
2292.61534	23260.3375
2295.4848	23220.6375
2298.35243	23182.4375
2301.21824	23172.3375
2304.08223	23156.9375
2306.94439	23109.1375
2309.80474	23115.4375
2312.66327	23115.9375
2315.51999	23093.6375
2318.37489	23050.2375
2321.22797	22971.8375
2324.07925	22960.9375
2326.92871	22910.7375
2329.77637	22889.7375
2332.62222	22767.4375
2335.46626	22801.3375
2338.3085	22746.7375
2341.14893	22727.4375
2343.98756	22745.0375
2346.8244	22691.3375
2349.65943	22660.3375
2352.49267	22643.5375
2355.32411	22643.1375
2358.15376	22595.2375
2360.98161	22587.7375
2363.80768	22565.2375
2366.63195	22564.6375
2369.45444	22491.8375
2372.27514	22480.7375
2375.09405	22536.5375
2377.91118	22423.2375
2380.72652	22345.0375
2383.54009	22290.1375
2386.35187	22293.0375
2389.16188	22246.3375
2391.97011	22218.0375
2394.77657	22161.5375
2397.58125	22116.4375
2400.38416	22061.6375
2403.18529	21996.3375
2405.98466	21991.9375
2408.78226	21943.3375
2411.57809	21905.8375
2414.37216	21903.0375
2417.16446	21898.3375
2419.955	21864.7375
2422.74378	21821.1375
2425.5308	21794.3375
2428.31606	21765.2375
2431.09956	21772.7375
2433.88131	21718.0375
2436.6613	21712.3375
2439.43954	21672.2375
2442.21603	21667.6375
2444.99077	21627.7375
2447.76377	21611.3375
2450.53501	21593.9375
2453.30451	21574.2375
2456.07226	21524.7375
2458.83827	21484.0375
2461.60254	21472.2375
2464.36507	21459.9375
2467.12586	21429.0375
2469.88492	21437.8375
2472.64224	21407.4375
2475.39782	21383.4375
2478.15167	21356.0375
2480.90379	21297.9375
2483.65417	21313.7375
2486.40283	21300.6375
2489.14976	21308.2375
2491.89497	21209.8375
2494.63845	21247.4375
2497.3802	21216.9375
2500.12024	21204.1375
2502.85855	21159.7375
2505.59514	21156.9375
2508.33002	21158.5375
2511.06318	21084.3375
2513.79462	21085.9375
2516.52435	21049.3375
2519.25237	21040.7375
2521.97867	20992.7375
2524.70327	20961.2375
2527.42616	20927.8375
2530.14734	20896.5375
2532.86681	20877.9375
2535.58458	20879.5375
2538.30065	20813.2375
2541.01501	20777.6375
2543.72768	20728.5375
2546.43864	20703.5375
2549.14791	20688.0375
2551.85548	20594.2375
2554.56136	20564.5375
2557.26554	20577.8375
2559.96803	20531.9375
2562.66883	20471.6375
2565.36794	20433.5375
2568.06536	20456.2375
2570.7611	20416.7375
2573.45514	20349.7375
2576.14751	20290.8375
2578.83819	20297.1375
2581.52719	20213.9375
2584.21451	20179.3375
2586.90015	20169.2375
2589.58411	20165.4375
2592.2664	20134.3375
2594.94701	20039.0375
2597.62594	20019.8375
2600.30321	19964.7375
2602.9788	19916.9375
2605.65273	19870.7375
2608.32498	19867.1375
2610.99557	19842.4375
2613.66449	19848.2375
2616.33175	19756.3375
2618.99734	19775.7375
2621.66128	19722.3375
2624.32355	19708.3375
2626.98416	19659.5375
2629.64311	19637.1375
2632.30041	19649.3375
2634.95605	19599.6375
2637.61004	19561.0375
2640.26238	19528.2375
2642.91306	19514.5375
2645.56209	19517.4375
2648.20948	19491.2375
2650.85521	19421.3375
2653.4993	19472.2375
2656.14175	19420.9375
2658.78255	19443.3375
2661.42171	19411.7375
2664.05923	19454.6375
2666.6951	19410.5375
2669.32934	19388.6375
2671.96194	19390.5375
2674.59291	19408.0375
2677.22224	19366.2375
2679.84993	19374.4375
2682.476	19389.0375
2685.10043	19397.3375
2687.72324	19309.0375
2690.34441	19331.1375
2692.96396	19326.8375
2695.58188	19340.5375
2698.19818	19314.8375
2700.81285	19299.0375
2703.4259	19328.2375
2706.03733	19349.8375
2708.64714	19346.6375
2711.25533	19373.1375
2713.86191	19331.0375
2716.46687	19339.4375
2719.07021	19294.3375
2721.67194	19275.6375
2724.27206	19243.3375
2726.87057	19290.2375
2729.46747	19273.8375
2732.06276	19243.0375
2734.65644	19225.9375
2737.24852	19235.3375
2739.83899	19185.2375
2742.42786	19195.6375
2745.01513	19111.3375
2747.60079	19095.1375
2750.18486	19126.3375
2752.76733	19088.9375
2755.3482	19027.7375
2757.92747	19034.4375
2760.50515	19041.6375
2763.08123	18984.7375
2765.65573	18944.7375
2768.22863	18906.5375
2770.79994	18893.9375
2773.36967	18860.8375
2775.9378	18824.6375
2778.50435	18795.6375
2781.06932	18753.5375
2783.6327	18742.0375
2786.1945	18708.0375
2788.75471	18690.8375
2791.31335	18631.4375
2793.87041	18571.1375
2796.42589	18528.2375
2798.97979	18494.3375
2801.53212	18454.5375
2804.08288	18451.9375
2806.63206	18375.5375
2809.17967	18339.1375
2811.72571	18315.8375
2814.27018	18314.5375
2816.81308	18273.1375
2819.35442	18241.8375
2821.89419	18175.6375
2824.43239	18137.6375
2826.96904	18131.6375
2829.50412	18116.0375
2832.03763	18067.1375
2834.56959	18040.9375
2837.1	18016.5375
2839.62884	18020.1375
2842.15613	17995.6375
2844.68186	17989.0375
2847.20604	17988.0375
2849.72867	17980.3375
2852.24974	17936.9375
2854.76927	17948.4375
2857.28724	17900.2375
2859.80367	17856.5375
2862.31855	17821.3375
2864.83189	17822.5375
2867.34368	17764.8375
2869.85393	17772.8375
2872.36264	17765.8375
2874.8698	17760.4375
2877.37543	17751.7375
2879.87952	17766.1375
2882.38207	17726.9375
2884.88308	17754.4375
2887.38256	17734.6375
2889.88051	17740.1375
2892.37692	17715.2375
2894.8718	17704.2375
2897.36515	17704.2375
2899.85698	17721.7375
2902.34727	17734.6375
2904.83604	17740.8375
2907.32328	17751.0375
2909.809	17732.0375
2912.29319	17724.6375
2914.77587	17688.4375
2917.25702	17713.3375
2919.73665	17674.9375
2922.21476	17679.1375
2924.69136	17639.7375
2927.16644	17655.4375
2929.64	17625.0375
2932.11205	17589.2375
2934.58258	17543.2375
2937.05161	17545.4375
2939.51912	17543.0375
2941.98513	17507.2375
2944.44962	17489.0375
2946.91261	17429.3375
2949.37409	17441.2375
2951.83407	17443.8375
2954.29254	17424.4375
2956.74951	17415.6375
2959.20498	17400.8375
2961.65895	17346.5375
2964.11142	17357.8375
2966.56239	17293.5375
2969.01186	17287.8375
2971.45984	17239.9375
2973.90632	17257.8375
2976.35131	17215.7375
2978.7948	17186.2375
2981.23681	17129.5375
2983.67732	17065.8375
2986.11635	17050.0375
2988.55388	16984.4375
2990.98993	16989.9375
2993.4245	16959.2375
2995.85758	16946.5375
2998.28917	16879.0375
3000.71928	16829.4375
3003.14791	16821.0375
3005.57506	16817.2375
3008.00073	16736.7375
3010.42493	16742.4375
3012.84764	16707.0375
3015.26888	16715.3375
3017.68865	16637.8375
3020.10694	16675.7375
3022.52376	16637.8375
