Data from AgNPs_FTO_APTES_UA_5uM_R6G_10uM_NaF_0.1M_Addition_RamanShift__19__12-47-47-270.txt Node

Date: Fri Dec 17 12:47:47 GMT 2021
User: TCL
Spectrometer: QEP01345
Trigger mode: 4
Integration Time (sec): 7.000000E0
Scans to average: 10
Electric dark correction enabled: true
Nonlinearity correction enabled: false
Boxcar width: 0
XAxis mode: Raman Shifts
Number of Pixels in Spectrum: 1044
>>>>>Begin Spectral Data<<<<<
46.04893	-0.7125
50.45542	-0.0125
54.85868	-3.0125
59.25871	-0.4125
63.6555	119.9875
68.04907	122.8875
72.43941	128.6875
76.82654	135.6875
81.21044	140.1875
85.59113	141.6875
89.96862	145.6875
94.34289	152.2875
98.71396	161.4875
103.08183	162.5875
107.4465	166.7875
111.80798	173.0875
116.16626	177.3875
120.52136	181.1875
124.87327	193.1875
129.222	194.8875
133.56755	209.2875
137.90993	230.1875
142.24913	249.7875
146.58517	273.6875
150.91804	316.3875
155.24774	373.1875
159.57429	464.3875
163.89768	594.1875
168.21792	778.3875
172.53501	1066.4875
176.84895	1471.0875
181.15975	2050.6875
185.46741	2876.5875
189.77193	3964.2875
194.07331	5302.6875
198.37157	6827.0875
202.6667	8437.5875
206.9587	10012.8875
211.24758	11552.6875
215.53334	13085.1875
219.81599	14735.0875
224.09553	16500.7875
228.37195	18598.3875
232.64527	20852.8875
236.91549	23244.4875
241.18261	25651.9875
245.44663	27857.0875
249.70755	29840.7875
253.96539	31567.1875
258.22014	33005.5875
262.4718	34217.4875
266.72039	35098.0875
270.96589	35633.6875
275.20832	35745.0875
279.44768	35551.9875
283.68397	35174.4875
287.91719	34864.6875
292.14735	34615.1875
296.37445	34624.5875
300.59849	34677.6875
304.81948	34857.6875
309.03742	34874.0875
313.25231	34558.1875
317.46415	33835.1875
321.67296	32904.6875
325.87872	32072.9875
330.08145	31677.8875
334.28114	31630.9875
338.47781	32001.0875
342.67145	32434.3875
346.86207	33028.7875
351.04966	33769.0875
355.23424	34632.2875
359.4158	35382.6875
363.59435	35929.1875
367.76989	36262.6875
371.94243	36422.4875
376.11196	36616.8875
380.27849	36792.7875
384.44203	36941.0875
388.60257	37117.8875
392.76012	37384.2875
396.91468	37849.2875
401.06626	38429.3875
405.21485	38915.3875
409.36047	38838.1875
413.50311	38245.2875
417.64277	37689.2875
421.77947	37595.6875
425.9132	37588.5875
430.04396	37793.6875
434.17176	38015.0875
438.2966	38292.3875
442.41849	38838.5875
446.53742	39644.5875
450.6534	40607.1875
454.76644	41370.8875
458.87653	41806.6875
462.98368	41724.2875
467.08789	41299.0875
471.18916	40645.0875
475.2875	39982.8875
479.38291	39396.4875
483.4754	38914.5875
487.56496	38504.0875
491.6516	38070.2875
495.73531	37806.6875
499.81612	37796.8875
503.89401	38104.5875
507.96899	38254.0875
512.04106	38301.3875
516.11023	38306.6875
520.1765	38199.0875
524.23987	38027.6875
528.30034	37670.2875
532.35792	37291.5875
536.41261	36774.6875
540.46441	36389.6875
544.51333	36321.3875
548.55936	36677.8875
552.60252	37305.3875
556.64279	37933.1875
560.6802	38318.1875
564.71473	38467.3875
568.7464	38886.3875
572.7752	39566.8875
576.80114	40005.0875
580.82422	40462.7875
584.84444	40882.3875
588.86181	41128.2875
592.87633	41413.9875
596.888	41770.0875
600.89682	42388.5875
604.9028	44433.5875
608.90594	49026.0875
612.90624	53600.2875
616.90371	50720.7875
620.89834	42661.6875
624.89015	39076.4875
628.87913	38558.2875
632.86528	38474.6875
636.84862	38320.3875
640.82913	37703.6875
644.80683	36805.7875
648.78172	36060.1875
652.75379	35989.0875
656.72306	36512.2875
660.68952	37216.7875
664.65319	37055.0875
668.61405	36373.3875
672.57211	36173.3875
676.52738	36220.4875
680.47986	36244.8875
684.42955	36055.1875
688.37646	36044.2875
692.32058	36223.2875
696.26192	36568.4875
700.20048	36990.3875
704.13626	37215.7875
708.06928	37051.3875
711.99952	36718.4875
715.927	36639.7875
719.85171	36576.2875
723.77365	36478.8875
727.69284	36099.6875
731.60928	35779.8875
735.52295	35665.3875
739.43388	35684.6875
743.34206	35900.7875
747.24749	36064.6875
751.15017	36344.5875
755.05012	36889.4875
758.94733	37931.6875
762.8418	39776.3875
766.73354	42670.2875
770.62254	45618.8875
774.50882	46503.1875
778.39237	44567.1875
782.27321	41351.6875
786.15132	38656.8875
790.02671	37083.7875
793.89938	36338.9875
797.76935	36018.1875
801.6366	35970.4875
805.50115	35836.2875
809.36299	35639.5875
813.22213	35356.6875
817.07857	35184.6875
820.93231	35028.2875
824.78336	34991.6875
828.63172	34996.5875
832.47738	35058.7875
836.32036	35094.4875
840.16066	35252.3875
843.99827	35378.1875
847.8332	35307.1875
851.66546	35169.3875
855.49504	35084.3875
859.32195	35066.9875
863.1462	34916.3875
866.96777	34787.1875
870.78668	34727.1875
874.60293	34763.9875
878.41652	34805.5875
882.22745	34874.7875
886.03573	35021.4875
889.84136	35000.4875
893.64433	34864.4875
897.44466	34695.0875
901.24235	34577.6875
905.0374	34471.3875
908.8298	34401.2875
912.61957	34450.4875
916.40671	34743.3875
920.19121	35124.6875
923.97308	35621.5875
927.75233	35731.6875
931.52895	35742.8875
935.30295	35372.6875
939.07433	34758.0875
942.84309	34298.2875
946.60924	34138.5875
950.37278	34041.5875
954.13371	33888.8875
957.89203	33662.9875
961.64774	33529.3875
965.40086	33438.1875
969.15137	33367.5875
972.89929	33259.1875
976.64461	33287.5875
980.38733	33330.6875
984.12747	33584.8875
987.86502	33920.0875
991.59999	34446.3875
995.33237	35082.2875
999.06217	36215.8875
1002.78939	37461.3875
1006.51404	38212.1875
1010.23611	38710.9875
1013.95561	38939.6875
1017.67255	38897.5875
1021.38692	38434.3875
1025.09872	38184.2875
1028.80796	38502.5875
1032.51465	39642.9875
1036.21877	40709.3875
1039.92035	40840.5875
1043.61937	40244.3875
1047.31584	39088.5875
1051.00976	37904.6875
1054.70114	37296.0875
1058.38998	37148.8875
1062.07627	37371.2875
1065.76003	37598.6875
1069.44126	37920.2875
1073.11995	38412.6875
1076.79611	38902.3875
1080.46974	39243.0875
1084.14085	39495.2875
1087.80943	39725.4875
1091.47549	39882.8875
1095.13903	39614.8875
1098.80005	38975.3875
1102.45857	38254.7875
1106.11456	37789.6875
1109.76805	37743.4875
1113.41903	37886.1875
1117.06751	38206.2875
1120.71348	38573.9875
1124.35696	38894.9875
1127.99793	39321.5875
1131.63641	39524.5875
1135.2724	39230.4875
1138.90589	38851.7875
1142.5369	38580.6875
1146.16542	38442.5875
1149.79145	38460.3875
1153.415	38575.3875
1157.03607	38948.3875
1160.65467	39698.1875
1164.27079	41064.6875
1167.88443	42922.2875
1171.49561	45404.0875
1175.10432	48727.3875
1178.71056	52899.9875
1182.31434	56955.1875
1185.91565	59411.9875
1189.51451	59698.4875
1193.11091	58029.2875
1196.70485	55218.7875
1200.29634	52479.6875
1203.88538	50307.3875
1207.47197	48553.6875
1211.05612	47280.8875
1214.63782	46361.0875
1218.21708	46032.4875
1221.79391	46067.1875
1225.36829	46277.3875
1228.94024	46102.6875
1232.50976	45723.0875
1236.07685	45386.1875
1239.6415	45068.9875
1243.20374	44952.9875
1246.76355	45138.6875
1250.32093	45626.9875
1253.8759	46651.8875
1257.42845	47901.2875
1260.97859	49189.4875
1264.52631	50455.0875
1268.07163	51719.8875
1271.61453	53183.9875
1275.15503	54822.7875
1278.69312	56378.9875
1282.22882	57489.7875
1285.76211	58267.9875
1289.29301	58941.9875
1292.82151	59894.2875
1296.34761	61390.2875
1299.87133	63762.1875
1303.39266	67181.2875
1306.9116	71554.8875
1310.42815	76091.8875
1313.94233	79195.6875
1317.45412	79586.3875
1320.96354	78242.6875
1324.47058	76434.9875
1327.97525	74629.7875
1331.47754	73422.0875
1334.97747	73121.4875
1338.47502	73485.2875
1341.97022	73902.4875
1345.46305	73734.1875
1348.95352	73017.0875
1352.44163	72483.3875
1355.92738	73439.6875
1359.41078	76485.3875
1362.89183	79511.7875
1366.37053	77935.2875
1369.84688	71578.1875
1373.32088	64302.1875
1376.79254	59194.3875
1380.26186	56810.1875
1383.72883	56109.5875
1387.19347	55357.9875
1390.65578	54499.0875
1394.11575	54010.9875
1397.57339	54200.3875
1401.0287	55058.4875
1404.48168	56115.4875
1407.93234	57071.2875
1411.38068	57480.3875
1414.82669	56990.1875
1418.27039	55652.4875
1421.71177	53862.2875
1425.15083	52262.8875
1428.58758	51418.4875
1432.02203	51362.3875
1435.45416	51937.3875
1438.88399	52786.0875
1442.31151	53480.3875
1445.73673	54043.7875
1449.15965	54497.1875
1452.58027	54706.1875
1455.9986	54682.3875
1459.41463	54967.3875
1462.82837	55761.0875
1466.23982	56928.5875
1469.64898	57996.0875
1473.05586	58841.1875
1476.46045	59046.8875
1479.86276	58980.1875
1483.26279	58734.0875
1486.66054	58818.9875
1490.05602	59134.1875
1493.44922	59623.8875
1496.84016	60173.5875
1500.22882	61104.1875
1503.61521	62657.8875
1506.99934	64891.6875
1510.38121	67004.9875
1513.76081	67822.2875
1517.13816	66331.8875
1520.51324	63361.0875
1523.88607	60350.4875
1527.25665	58367.8875
1530.62498	57224.7875
1533.99105	56730.3875
1537.35488	56350.7875
1540.71647	55952.3875
1544.07581	55504.3875
1547.4329	54931.5875
1550.78776	54421.8875
1554.14038	53973.1875
1557.49077	53775.3875
1560.83892	53706.2875
1564.18484	53631.2875
1567.52853	53569.7875
1570.86999	53736.3875
1574.20922	54177.5875
1577.54624	54637.6875
1580.88103	54656.1875
1584.2136	54546.0875
1587.54395	55324.1875
1590.87208	57419.5875
1594.19801	60631.1875
1597.52172	64065.1875
1600.84321	65392.8875
1604.16251	63292.1875
1607.47959	59296.8875
1610.79447	54989.2875
1614.10715	50859.0875
1617.41763	47362.0875
1620.7259	44907.5875
1624.03199	43617.1875
1627.33587	43553.7875
1630.63757	44705.6875
1633.93707	47086.9875
1637.23439	50646.7875
1640.52951	55095.9875
1643.82246	59600.1875
1647.11321	62659.2875
1650.40179	62727.1875
1653.68819	59036.3875
1656.97241	52667.4875
1660.25446	46369.1875
1663.53433	41645.5875
1666.81203	38586.4875
1670.08756	36612.4875
1673.36092	35375.5875
1676.63211	34543.6875
1679.90115	33976.8875
1683.16801	33460.9875
1686.43272	33156.0875
1689.69527	32874.7875
1692.95567	32735.0875
1696.2139	32577.3875
1699.46999	32474.9875
1702.72392	32376.9875
1705.97571	32358.4875
1709.22535	32291.4875
1712.47284	32272.0875
1715.71819	32244.4875
1718.96139	32152.7875
1722.20246	32081.6875
1725.44139	31954.4875
1728.67818	31761.4875
1731.91284	31578.8875
1735.14537	31442.7875
1738.37576	31305.5875
1741.60403	31209.5875
1744.83017	31096.8875
1748.05418	31066.7875
1751.27607	30999.5875
1754.49584	30915.0875
1757.71349	30842.9875
1760.92903	30904.6875
1764.14244	30892.5875
1767.35375	30906.6875
1770.56294	30833.0875
1773.77002	30777.6875
1776.97499	30757.0875
1780.17785	30678.9875
1783.37861	30699.2875
1786.57727	30652.2875
1789.77382	30580.9875
1792.96828	30553.4875
1796.16064	30524.7875
1799.3509	30476.6875
1802.53907	30445.4875
1805.72514	30371.8875
1808.90913	30299.3875
1812.09102	30253.4875
1815.27083	30198.7875
1818.44856	30199.4875
1821.6242	30122.8875
1824.79776	30145.5875
1827.96924	30122.9875
1831.13864	30113.5875
1834.30597	30142.8875
1837.47122	30200.2875
1840.6344	30216.1875
1843.7955	30221.5875
1846.95454	30257.3875
1850.11151	30195.7875
1853.26642	30207.6875
1856.41926	30258.5875
1859.57004	30270.2875
1862.71876	30279.4875
1865.86542	30219.2875
1869.01003	30245.9875
1872.15258	30232.6875
1875.29308	30262.8875
1878.43152	30261.9875
1881.56792	30302.4875
1884.70227	30313.1875
1887.83457	30298.9875
1890.96482	30331.7875
1894.09304	30271.3875
1897.21921	30273.7875
1900.34335	30251.9875
1903.46544	30293.7875
1906.58551	30282.2875
1909.70353	30212.2875
1912.81953	30168.3875
1915.93349	30099.6875
1919.04543	30037.8875
1922.15534	29969.5875
1925.26322	29900.1875
1928.36908	29790.3875
1931.47292	29727.5875
1934.57473	29591.3875
1937.67453	29481.8875
1940.77232	29362.0875
1943.86808	29240.3875
1946.96184	29151.5875
1950.05358	29068.6875
1953.14331	28964.2875
1956.23103	28889.0875
1959.31675	28765.4875
1962.40046	28689.4875
1965.48217	28600.9875
1968.56188	28528.2875
1971.63959	28469.4875
1974.7153	28396.1875
1977.78901	28270.4875
1980.86073	28174.9875
1983.93046	28109.9875
1986.99819	28013.1875
1990.06394	27948.3875
1993.1277	27849.9875
1996.18947	27782.6875
1999.24925	27718.0875
2002.30706	27629.0875
2005.36288	27527.9875
2008.41672	27483.6875
2011.46859	27445.0875
2014.51848	27357.4875
2017.56639	27319.4875
2020.61233	27286.1875
2023.6563	27180.6875
2026.6983	27187.0875
2029.73833	27092.6875
2032.7764	27028.5875
2035.8125	27011.0875
2038.84664	26989.6875
2041.87881	26966.6875
2044.90903	26956.7875
2047.93729	26854.1875
2050.96359	26834.1875
2053.98794	26798.1875
2057.01034	26828.0875
2060.03078	26782.8875
2063.04927	26710.8875
2066.06582	26742.5875
2069.08042	26729.5875
2072.09307	26701.4875
2075.10378	26659.5875
2078.11255	26605.7875
2081.11938	26644.2875
2084.12426	26570.1875
2087.12722	26575.0875
2090.12824	26569.6875
2093.12732	26562.7875
2096.12447	26596.5875
2099.11969	26576.3875
2102.11299	26591.6875
2105.10435	26600.3875
2108.09379	26622.6875
2111.08131	26672.7875
2114.0669	26655.0875
2117.05057	26714.9875
2120.03233	26713.0875
2123.01216	26692.2875
2125.99008	26775.5875
2128.96609	26769.9875
2131.94018	26794.5875
2134.91236	26812.4875
2137.88263	26845.8875
2140.851	26856.8875
2143.81746	26851.4875
2146.78201	26879.2875
2149.74466	26915.6875
2152.7054	26880.0875
2155.66425	26906.3875
2158.6212	26892.3875
2161.57625	26884.1875
2164.52941	26895.4875
2167.48067	26878.0875
2170.43004	26889.3875
2173.37752	26848.1875
2176.32311	26879.3875
2179.26681	26880.8875
2182.20863	26865.5875
2185.14856	26916.0875
2188.08661	26918.2875
2191.02278	26932.0875
2193.95707	26906.6875
2196.88948	26888.9875
2199.82001	26935.1875
2202.74867	26896.2875
2205.67545	26884.2875
2208.60037	26914.6875
2211.52341	26874.7875
2214.44458	26836.3875
2217.36388	26801.7875
2220.28132	26787.2875
2223.1969	26717.7875
2226.11061	26689.2875
2229.02246	26636.8875
2231.93245	26609.7875
2234.84058	26559.3875
2237.74686	26487.1875
2240.65128	26479.6875
2243.55385	26406.0875
2246.45456	26392.2875
2249.35343	26372.5875
2252.25044	26336.0875
2255.14561	26282.9875
2258.03893	26289.4875
2260.93041	26223.9875
2263.82004	26170.3875
2266.70783	26101.0875
2269.59378	26092.9875
2272.4779	25988.9875
2275.36017	25956.5875
2278.24061	25948.2875
2281.11922	25871.6875
2283.996	25825.2875
2286.87094	25845.6875
2289.74405	25805.1875
2292.61534	25789.2875
2295.4848	25811.5875
2298.35243	25796.7875
2301.21824	25776.0875
2304.08223	25813.2875
2306.94439	25800.3875
2309.80474	25834.2875
2312.66327	25858.3875
2315.51999	25862.4875
2318.37489	25867.1875
2321.22797	25844.3875
2324.07925	25869.0875
2326.92871	25824.0875
2329.77637	25784.1875
2332.62222	25740.5875
2335.46626	25764.0875
2338.3085	25729.4875
2341.14893	25781.6875
2343.98756	25767.6875
2346.8244	25786.2875
2349.65943	25827.4875
2352.49267	25780.6875
2355.32411	25810.7875
2358.15376	25741.0875
2360.98161	25734.3875
2363.80768	25683.1875
2366.63195	25629.0875
2369.45444	25575.9875
2372.27514	25545.8875
2375.09405	25484.7875
2377.91118	25464.3875
2380.72652	25380.9875
2383.54009	25332.5875
2386.35187	25293.5875
2389.16188	25239.3875
2391.97011	25243.8875
2394.77657	25214.5875
2397.58125	25146.7875
2400.38416	25147.2875
2403.18529	25066.9875
2405.98466	25073.5875
2408.78226	24986.2875
2411.57809	24966.2875
2414.37216	24892.3875
2417.16446	24910.0875
2419.955	24891.6875
2422.74378	24851.1875
2425.5308	24843.1875
2428.31606	24801.9875
2431.09956	24825.3875
2433.88131	24771.1875
2436.6613	24796.4875
2439.43954	24782.5875
2442.21603	24762.8875
2444.99077	24739.4875
2447.76377	24750.6875
2450.53501	24754.9875
2453.30451	24745.8875
2456.07226	24736.9875
2458.83827	24708.0875
2461.60254	24718.0875
2464.36507	24709.7875
2467.12586	24691.2875
2469.88492	24714.8875
2472.64224	24739.8875
2475.39782	24749.1875
2478.15167	24726.5875
2480.90379	24753.3875
2483.65417	24749.5875
2486.40283	24730.7875
2489.14976	24774.4875
2491.89497	24773.0875
2494.63845	24795.3875
2497.3802	24785.7875
2500.12024	24754.5875
2502.85855	24766.5875
2505.59514	24773.6875
2508.33002	24753.6875
2511.06318	24683.4875
2513.79462	24664.9875
2516.52435	24649.9875
2519.25237	24641.0875
2521.97867	24669.9875
2524.70327	24630.5875
2527.42616	24595.2875
2530.14734	24598.7875
2532.86681	24583.9875
2535.58458	24569.7875
2538.30065	24584.4875
2541.01501	24553.2875
2543.72768	24480.0875
2546.43864	24506.3875
2549.14791	24478.3875
2551.85548	24438.8875
2554.56136	24439.5875
2557.26554	24433.2875
2559.96803	24430.6875
2562.66883	24402.6875
2565.36794	24417.0875
2568.06536	24402.9875
2570.7611	24331.8875
2573.45514	24303.6875
2576.14751	24293.3875
2578.83819	24291.8875
2581.52719	24274.5875
2584.21451	24245.5875
2586.90015	24260.5875
2589.58411	24221.0875
2592.2664	24275.5875
2594.94701	24229.6875
2597.62594	24214.1875
2600.30321	24151.7875
2602.9788	24180.5875
2605.65273	24144.9875
2608.32498	24188.2875
2610.99557	24147.6875
2613.66449	24159.7875
2616.33175	24157.7875
2618.99734	24175.7875
2621.66128	24147.3875
2624.32355	24180.4875
2626.98416	24181.5875
2629.64311	24178.3875
2632.30041	24196.0875
2634.95605	24137.0875
2637.61004	24131.0875
2640.26238	24064.1875
2642.91306	24063.0875
2645.56209	24075.0875
2648.20948	24101.2875
2650.85521	24037.8875
2653.4993	24032.0875
2656.14175	24002.8875
2658.78255	24032.4875
2661.42171	24007.2875
2664.05923	24057.9875
2666.6951	24064.3875
2669.32934	24085.9875
2671.96194	24103.3875
2674.59291	24104.6875
2677.22224	24128.8875
2679.84993	24128.3875
2682.476	24074.4875
2685.10043	24079.3875
2687.72324	24041.7875
2690.34441	24043.0875
2692.96396	24038.9875
2695.58188	24003.0875
2698.19818	23991.4875
2700.81285	24020.4875
2703.4259	23999.8875
2706.03733	24023.0875
2708.64714	24029.8875
2711.25533	24078.8875
2713.86191	24050.4875
2716.46687	24112.4875
2719.07021	24030.9875
2721.67194	24090.5875
2724.27206	24010.2875
2726.87057	24105.1875
2729.46747	24070.9875
2732.06276	24099.3875
2734.65644	24082.7875
2737.24852	24078.1875
2739.83899	24033.6875
2742.42786	24117.3875
2745.01513	24059.8875
2747.60079	24096.4875
2750.18486	24068.5875
2752.76733	24066.0875
2755.3482	24060.5875
2757.92747	24068.1875
2760.50515	23978.1875
2763.08123	23994.5875
2765.65573	23960.2875
2768.22863	23995.6875
2770.79994	23973.5875
2773.36967	23965.6875
2775.9378	23946.1875
2778.50435	23942.2875
2781.06932	23886.7875
2783.6327	23903.3875
2786.1945	23887.6875
2788.75471	23905.2875
2791.31335	23813.1875
2793.87041	23754.8875
2796.42589	23671.7875
2798.97979	23671.4875
2801.53212	23660.6875
2804.08288	23632.8875
2806.63206	23548.0875
2809.17967	23536.4875
2811.72571	23503.0875
2814.27018	23499.9875
2816.81308	23510.8875
2819.35442	23491.0875
2821.89419	23448.7875
2824.43239	23421.5875
2826.96904	23384.4875
2829.50412	23430.4875
2832.03763	23374.6875
2834.56959	23335.8875
2837.1	23251.2875
2839.62884	23288.8875
2842.15613	23288.2875
2844.68186	23311.0875
2847.20604	23245.9875
2849.72867	23288.6875
2852.24974	23250.6875
2854.76927	23245.0875
2857.28724	23175.5875
2859.80367	23190.1875
2862.31855	23169.8875
2864.83189	23163.5875
2867.34368	23115.7875
2869.85393	23128.5875
2872.36264	23123.1875
2874.8698	23122.6875
2877.37543	23153.4875
2879.87952	23174.9875
2882.38207	23162.4875
2884.88308	23148.6875
2887.38256	23183.2875
2889.88051	23160.6875
2892.37692	23168.9875
2894.8718	23146.8875
2897.36515	23184.7875
2899.85698	23166.2875
2902.34727	23255.7875
2904.83604	23271.9875
2907.32328	23322.5875
2909.809	23297.5875
2912.29319	23351.6875
2914.77587	23293.3875
2917.25702	23310.2875
2919.73665	23267.6875
2922.21476	23274.3875
2924.69136	23276.3875
2927.16644	23259.6875
2929.64	23236.1875
2932.11205	23133.0875
2934.58258	23096.7875
2937.05161	23127.5875
2939.51912	23154.1875
2941.98513	23106.8875
2944.44962	23080.6875
2946.91261	22977.9875
2949.37409	23099.3875
2951.83407	23046.3875
2954.29254	23037.5875
2956.74951	23017.7875
2959.20498	22985.7875
2961.65895	22945.7875
2964.11142	22937.6875
2966.56239	22894.0875
2969.01186	22844.0875
2971.45984	22798.7875
2973.90632	22777.9875
2976.35131	22752.2875
2978.7948	22687.8875
2981.23681	22602.1875
2983.67732	22573.9875
2986.11635	22528.5875
2988.55388	22527.7875
2990.98993	22457.3875
2993.4245	22423.6875
2995.85758	22396.8875
2998.28917	22327.1875
3000.71928	22322.8875
3003.14791	22262.9875
3005.57506	22265.1875
3008.00073	22213.9875
3010.42493	22162.3875
3012.84764	22135.3875
3015.26888	22166.0875
3017.68865	22132.2875
3020.10694	22084.0875
3022.52376	22014.5875
