Data from AgNPs_FTO_APTES_UA_0uM_R6G_10uM_NaF_0.1M_Addition_RamanShift__8__10-04-27-083.txt Node

Date: Fri Dec 17 10:04:27 GMT 2021
User: TCL
Spectrometer: QEP01345
Trigger mode: 4
Integration Time (sec): 7.000000E0
Scans to average: 10
Electric dark correction enabled: true
Nonlinearity correction enabled: false
Boxcar width: 0
XAxis mode: Raman Shifts
Number of Pixels in Spectrum: 1044
>>>>>Begin Spectral Data<<<<<
46.04893	-0.45
50.45542	0.15
54.85868	-1.25
59.25871	1.65
63.6555	29.55
68.04907	29.55
72.43941	33.15
76.82654	35.05
81.21044	37.25
85.59113	36.65
89.96862	43.95
94.34289	42.15
98.71396	44.25
103.08183	44.95
107.4465	44.25
111.80798	46.75
116.16626	45.75
120.52136	41.15
124.87327	47.55
129.222	50.35
133.56755	49.25
137.90993	54.05
142.24913	54.15
146.58517	55.05
150.91804	60.25
155.24774	72.95
159.57429	85.65
163.89768	102.65
168.21792	128.35
172.53501	163.45
176.84895	219.55
181.15975	295.95
185.46741	410.65
189.77193	566.05
194.07331	759.35
198.37157	992.35
202.6667	1242.75
206.9587	1499.65
211.24758	1734.05
215.53334	2004.25
219.81599	2272.05
224.09553	2578.25
228.37195	2901.15
232.64527	3287.25
236.91549	3672.85
241.18261	4044.95
245.44663	4427.75
249.70755	4728.35
253.96539	4998.85
258.22014	5167.95
262.4718	5276.15
266.72039	5272.95
270.96589	5167.95
275.20832	5009.15
279.44768	4803.55
283.68397	4565.75
287.91719	4333.45
292.14735	4145.55
296.37445	4013.55
300.59849	3942.75
304.81948	3905.45
309.03742	3874.15
313.25231	3828.25
317.46415	3749.25
321.67296	3623.55
325.87872	3521.35
330.08145	3454.65
334.28114	3429.55
338.47781	3444.75
342.67145	3453.75
346.86207	3462.65
351.04966	3523.25
355.23424	3563.05
359.4158	3594.15
363.59435	3636.05
367.76989	3606.35
371.94243	3596.35
376.11196	3553.05
380.27849	3525.15
384.44203	3502.75
388.60257	3477.85
392.76012	3451.45
396.91468	3478.95
401.06626	3494.55
405.21485	3518.25
409.36047	3496.65
413.50311	3440.85
417.64277	3368.05
421.77947	3336.25
425.9132	3329.95
430.04396	3338.75
434.17176	3359.05
438.2966	3402.15
442.41849	3472.75
446.53742	3535.85
450.6534	3600.85
454.76644	3609.35
458.87653	3572.65
462.98368	3515.15
467.08789	3447.55
471.18916	3408.85
475.2875	3360.45
479.38291	3303.65
483.4754	3282.95
487.56496	3257.55
491.6516	3246.85
495.73531	3243.55
499.81612	3238.05
503.89401	3268.25
507.96899	3287.85
512.04106	3320.85
516.11023	3367.35
520.1765	3412.15
524.23987	3470.85
528.30034	3527.35
532.35792	3587.75
536.41261	3613.85
540.46441	3634.95
544.51333	3681.85
548.55936	3729.35
552.60252	3792.45
556.64279	3916.95
560.6802	3977.55
564.71473	4042.55
568.7464	4064.05
572.7752	4049.25
576.80114	3936.35
580.82422	3785.55
584.84444	3661.35
588.86181	3650.85
592.87633	3738.85
596.888	3808.15
600.89682	3797.95
604.9028	3878.95
608.90594	4353.55
612.90624	5070.35
616.90371	5215.35
620.89834	4593.85
624.89015	4206.15
628.87913	4001.75
632.86528	3784.75
636.84862	3597.05
640.82913	3422.55
644.80683	3278.15
648.78172	3203.15
652.75379	3191.55
656.72306	3235.35
660.68952	3311.55
664.65319	3295.65
668.61405	3245.75
672.57211	3244.85
676.52738	3266.25
680.47986	3281.75
684.42955	3310.65
688.37646	3314.05
692.32058	3314.45
696.26192	3326.05
700.20048	3338.25
704.13626	3339.25
708.06928	3334.15
711.99952	3315.15
715.927	3305.85
719.85171	3294.75
723.77365	3302.85
727.69284	3281.45
731.60928	3279.75
735.52295	3265.65
739.43388	3277.05
743.34206	3297.55
747.24749	3296.15
751.15017	3280.05
755.05012	3311.35
758.94733	3363.05
762.8418	3519.25
766.73354	3772.95
770.62254	4060.15
774.50882	4216.45
778.39237	4146.95
782.27321	3879.25
786.15132	3613.15
790.02671	3434.15
793.89938	3349.25
797.76935	3332.85
801.6366	3331.95
805.50115	3320.35
809.36299	3323.25
813.22213	3318.15
817.07857	3317.35
820.93231	3312.65
824.78336	3320.55
828.63172	3353.25
832.47738	3356.95
836.32036	3346.85
840.16066	3359.65
843.99827	3370.05
847.8332	3367.15
851.66546	3385.95
855.49504	3400.25
859.32195	3415.95
863.1462	3455.55
866.96777	3475.15
870.78668	3509.85
874.60293	3549.15
878.41652	3583.75
882.22745	3652.65
886.03573	3726.35
889.84136	3820.35
893.64433	3928.45
897.44466	4060.65
901.24235	4244.55
905.0374	4451.35
908.8298	4662.55
912.61957	4827.35
916.40671	4975.65
920.19121	5016.45
923.97308	5044.55
927.75233	5029.75
931.52895	4979.75
935.30295	4866.65
939.07433	4721.75
942.84309	4580.95
946.60924	4453.95
950.37278	4358.65
954.13371	4257.25
957.89203	4188.95
961.64774	4134.25
965.40086	4082.15
969.15137	4028.95
972.89929	4005.25
976.64461	3973.05
980.38733	3945.05
984.12747	3927.35
987.86502	3911.75
991.59999	3905.95
995.33237	3917.05
999.06217	3943.25
1002.78939	3971.15
1006.51404	3987.75
1010.23611	4032.85
1013.95561	4073.75
1017.67255	4075.85
1021.38692	4089.45
1025.09872	4086.55
1028.80796	4090.35
1032.51465	4121.35
1036.21877	4150.65
1039.92035	4202.65
1043.61937	4266.85
1047.31584	4308.45
1051.00976	4341.25
1054.70114	4326.85
1058.38998	4266.15
1062.07627	4192.35
1065.76003	4087.85
1069.44126	3985.05
1073.11995	3905.75
1076.79611	3828.55
1080.46974	3777.95
1084.14085	3741.75
1087.80943	3728.45
1091.47549	3685.15
1095.13903	3624.95
1098.80005	3534.95
1102.45857	3463.15
1106.11456	3424.45
1109.76805	3402.05
1113.41903	3413.85
1117.06751	3428.45
1120.71348	3462.25
1124.35696	3509.75
1127.99793	3564.75
1131.63641	3577.95
1135.2724	3498.05
1138.90589	3423.55
1142.5369	3348.35
1146.16542	3321.45
1149.79145	3289.65
1153.415	3280.65
1157.03607	3285.75
1160.65467	3282.15
1164.27079	3359.85
1167.88443	3442.55
1171.49561	3581.95
1175.10432	3811.55
1178.71056	4122.65
1182.31434	4368.75
1185.91565	4443.55
1189.51451	4347.65
1193.11091	4180.75
1196.70485	3969.35
1200.29634	3828.15
1203.88538	3685.55
1207.47197	3550.55
1211.05612	3429.05
1214.63782	3368.25
1218.21708	3365.95
1221.79391	3378.75
1225.36829	3420.85
1228.94024	3439.65
1232.50976	3415.35
1236.07685	3381.05
1239.6415	3366.45
1243.20374	3364.35
1246.76355	3384.15
1250.32093	3386.75
1253.8759	3438.05
1257.42845	3466.85
1260.97859	3525.25
1264.52631	3602.15
1268.07163	3657.25
1271.61453	3703.15
1275.15503	3751.15
1278.69312	3786.05
1282.22882	3799.95
1285.76211	3874.05
1289.29301	3975.55
1292.82151	4069.75
1296.34761	4182.05
1299.87133	4329.15
1303.39266	4496.95
1306.9116	4747.65
1310.42815	5091.35
1313.94233	5330.35
1317.45412	5308.15
1320.96354	5042.15
1324.47058	4717.35
1327.97525	4421.75
1331.47754	4216.25
1334.97747	4107.75
1338.47502	4088.25
1341.97022	4108.95
1345.46305	4174.25
1348.95352	4339.45
1352.44163	4646.05
1355.92738	5034.05
1359.41078	5542.75
1362.89183	6074.55
1366.37053	6160.35
1369.84688	5595.25
1373.32088	4885.55
1376.79254	4415.15
1380.26186	4204.25
1383.72883	4120.05
1387.19347	4043.65
1390.65578	3968.05
1394.11575	3906.45
1397.57339	3877.85
1401.0287	3874.35
1404.48168	3861.15
1407.93234	3848.95
1411.38068	3824.15
1414.82669	3806.55
1418.27039	3790.85
1421.71177	3772.45
1425.15083	3723.55
1428.58758	3712.25
1432.02203	3688.15
1435.45416	3732.05
1438.88399	3729.35
1442.31151	3726.75
1445.73673	3704.75
1449.15965	3682.05
1452.58027	3666.05
1455.9986	3619.35
1459.41463	3584.75
1462.82837	3589.85
1466.23982	3593.25
1469.64898	3638.95
1473.05586	3684.15
1476.46045	3719.25
1479.86276	3743.25
1483.26279	3786.65
1486.66054	3811.15
1490.05602	3855.75
1493.44922	3920.05
1496.84016	4030.55
1500.22882	4218.55
1503.61521	4491.05
1506.99934	4820.75
1510.38121	5167.15
1513.76081	5341.75
1517.13816	5200.45
1520.51324	4813.75
1523.88607	4394.75
1527.25665	4105.55
1530.62498	3930.75
1533.99105	3836.75
1537.35488	3769.45
1540.71647	3703.55
1544.07581	3659.65
1547.4329	3629.35
1550.78776	3608.95
1554.14038	3598.75
1557.49077	3607.05
1560.83892	3619.65
1564.18484	3653.65
1567.52853	3694.25
1570.86999	3770.75
1574.20922	3821.45
1577.54624	3832.75
1580.88103	3702.95
1584.2136	3580.45
1587.54395	3462.55
1590.87208	3454.45
1594.19801	3529.05
1597.52172	3665.05
1600.84321	3761.05
1604.16251	3735.85
1607.47959	3594.55
1610.79447	3448.05
1614.10715	3306.15
1617.41763	3184.55
1620.7259	3128.15
1624.03199	3088.95
1627.33587	3076.05
1630.63757	3098.25
1633.93707	3140.75
1637.23439	3242.45
1640.52951	3403.85
1643.82246	3689.25
1647.11321	4019.15
1650.40179	4213.15
1653.68819	4126.85
1656.97241	3767.45
1660.25446	3367.05
1663.53433	3072.65
1666.81203	2906.35
1670.08756	2823.35
1673.36092	2754.65
1676.63211	2713.15
1679.90115	2674.15
1683.16801	2661.65
1686.43272	2635.15
1689.69527	2609.95
1692.95567	2587.05
1696.2139	2573.85
1699.46999	2549.35
1702.72392	2538.35
1705.97571	2528.25
1709.22535	2537.05
1712.47284	2542.05
1715.71819	2552.75
1718.96139	2550.35
1722.20246	2542.05
1725.44139	2532.25
1728.67818	2527.15
1731.91284	2510.65
1735.14537	2493.05
1738.37576	2484.05
1741.60403	2485.55
1744.83017	2476.85
1748.05418	2469.85
1751.27607	2457.15
1754.49584	2447.15
1757.71349	2431.25
1760.92903	2424.45
1764.14244	2437.35
1767.35375	2432.35
1770.56294	2418.45
1773.77002	2421.15
1776.97499	2408.05
1780.17785	2407.75
1783.37861	2413.45
1786.57727	2430.15
1789.77382	2408.95
1792.96828	2416.75
1796.16064	2402.75
1799.3509	2399.25
1802.53907	2396.45
1805.72514	2379.65
1808.90913	2378.25
1812.09102	2382.45
1815.27083	2366.55
1818.44856	2355.85
1821.6242	2360.35
1824.79776	2359.75
1827.96924	2360.45
1831.13864	2353.45
1834.30597	2348.25
1837.47122	2346.35
1840.6344	2357.85
1843.7955	2356.95
1846.95454	2342.75
1850.11151	2337.45
1853.26642	2340.15
1856.41926	2346.15
1859.57004	2342.85
1862.71876	2339.75
1865.86542	2335.65
1869.01003	2333.85
1872.15258	2327.05
1875.29308	2323.45
1878.43152	2327.85
1881.56792	2319.55
1884.70227	2315.95
1887.83457	2316.55
1890.96482	2316.15
1894.09304	2309.45
1897.21921	2298.45
1900.34335	2306.45
1903.46544	2290.45
1906.58551	2297.55
1909.70353	2301.35
1912.81953	2291.55
1915.93349	2294.65
1919.04543	2295.25
1922.15534	2285.75
1925.26322	2283.95
1928.36908	2275.75
1931.47292	2269.75
1934.57473	2262.35
1937.67453	2269.25
1940.77232	2261.65
1943.86808	2245.95
1946.96184	2241.05
1950.05358	2240.05
1953.14331	2238.05
1956.23103	2233.05
1959.31675	2208.95
1962.40046	2210.75
1965.48217	2215.65
1968.56188	2193.75
1971.63959	2188.25
1974.7153	2174.65
1977.78901	2169.75
1980.86073	2165.15
1983.93046	2163.95
1986.99819	2155.35
1990.06394	2146.55
1993.1277	2145.75
1996.18947	2136.75
1999.24925	2142.25
2002.30706	2115.55
2005.36288	2116.95
2008.41672	2113.25
2011.46859	2100.85
2014.51848	2099.45
2017.56639	2095.95
2020.61233	2093.05
2023.6563	2093.95
2026.6983	2093.05
2029.73833	2091.35
2032.7764	2085.95
2035.8125	2079.85
2038.84664	2081.25
2041.87881	2089.15
2044.90903	2085.35
2047.93729	2080.85
2050.96359	2086.85
2053.98794	2079.95
2057.01034	2089.85
2060.03078	2084.65
2063.04927	2080.95
2066.06582	2078.05
2069.08042	2082.25
2072.09307	2089.45
2075.10378	2086.05
2078.11255	2081.45
2081.11938	2088.35
2084.12426	2082.55
2087.12722	2075.15
2090.12824	2075.35
2093.12732	2074.95
2096.12447	2087.65
2099.11969	2069.35
2102.11299	2067.65
2105.10435	2068.35
2108.09379	2067.15
2111.08131	2051.35
2114.0669	2051.05
2117.05057	2051.65
2120.03233	2051.25
2123.01216	2041.95
2125.99008	2048.95
2128.96609	2035.85
2131.94018	2038.65
2134.91236	2043.05
2137.88263	2037.85
2140.851	2041.45
2143.81746	2030.55
2146.78201	2032.65
2149.74466	2040.55
2152.7054	2023.85
2155.66425	2031.15
2158.6212	2031.75
2161.57625	2029.55
2164.52941	2027.05
2167.48067	2022.25
2170.43004	2021.75
2173.37752	2018.85
2176.32311	2025.05
2179.26681	2025.85
2182.20863	2016.05
2185.14856	2021.25
2188.08661	2024.15
2191.02278	2006.95
2193.95707	2009.95
2196.88948	2010.55
2199.82001	2007.15
2202.74867	2011.85
2205.67545	2008.35
2208.60037	2006.45
2211.52341	2001.45
2214.44458	2002.05
2217.36388	1987.95
2220.28132	1989.65
2223.1969	1985.95
2226.11061	1983.25
2229.02246	1970.45
2231.93245	1963.85
2234.84058	1973.45
2237.74686	1969.55
2240.65128	1965.25
2243.55385	1968.05
2246.45456	1961.25
2249.35343	1962.15
2252.25044	1954.75
2255.14561	1951.65
2258.03893	1948.15
2260.93041	1937.95
2263.82004	1932.45
2266.70783	1936.55
2269.59378	1928.45
2272.4779	1924.45
2275.36017	1917.05
2278.24061	1909.25
2281.11922	1911.95
2283.996	1906.35
2286.87094	1906.05
2289.74405	1898.05
2292.61534	1890.25
2295.4848	1894.65
2298.35243	1886.15
2301.21824	1878.55
2304.08223	1880.55
2306.94439	1878.45
2309.80474	1876.15
2312.66327	1880.75
2315.51999	1875.55
2318.37489	1865.75
2321.22797	1861.15
2324.07925	1874.85
2326.92871	1870.45
2329.77637	1862.25
2332.62222	1859.35
2335.46626	1853.45
2338.3085	1850.65
2341.14893	1837.85
2343.98756	1838.15
2346.8244	1840.95
2349.65943	1841.75
2352.49267	1839.45
2355.32411	1830.25
2358.15376	1842.65
2360.98161	1833.05
2363.80768	1838.75
2366.63195	1843.45
2369.45444	1833.55
2372.27514	1829.95
2375.09405	1824.35
2377.91118	1827.75
2380.72652	1834.85
2383.54009	1816.35
2386.35187	1813.85
2389.16188	1798.75
2391.97011	1805.25
2394.77657	1804.45
2397.58125	1784.05
2400.38416	1783.65
2403.18529	1778.95
2405.98466	1783.85
2408.78226	1781.75
2411.57809	1776.75
2414.37216	1778.45
2417.16446	1769.45
2419.955	1766.05
2422.74378	1769.05
2425.5308	1764.15
2428.31606	1757.05
2431.09956	1761.45
2433.88131	1756.45
2436.6613	1750.05
2439.43954	1760.35
2442.21603	1751.35
2444.99077	1745.45
2447.76377	1754.45
2450.53501	1749.65
2453.30451	1751.85
2456.07226	1742.25
2458.83827	1745.15
2461.60254	1740.35
2464.36507	1738.95
2467.12586	1736.15
2469.88492	1735.65
2472.64224	1738.35
2475.39782	1729.05
2478.15167	1723.35
2480.90379	1725.35
2483.65417	1732.85
2486.40283	1731.55
2489.14976	1719.05
2491.89497	1723.15
2494.63845	1713.45
2497.3802	1727.15
2500.12024	1712.35
2502.85855	1723.25
2505.59514	1723.45
2508.33002	1703.05
2511.06318	1710.25
2513.79462	1710.35
2516.52435	1698.55
2519.25237	1701.15
2521.97867	1687.55
2524.70327	1692.25
2527.42616	1681.95
2530.14734	1682.25
2532.86681	1684.25
2535.58458	1685.15
2538.30065	1682.25
2541.01501	1675.05
2543.72768	1670.45
2546.43864	1672.25
2549.14791	1669.05
2551.85548	1675.05
2554.56136	1658.95
2557.26554	1659.95
2559.96803	1657.05
2562.66883	1658.05
2565.36794	1659.35
2568.06536	1656.55
2570.7611	1646.85
2573.45514	1645.55
2576.14751	1638.35
2578.83819	1640.45
2581.52719	1639.15
2584.21451	1644.15
2586.90015	1631.55
2589.58411	1633.65
2592.2664	1628.55
2594.94701	1619.15
2597.62594	1622.55
2600.30321	1624.45
2602.9788	1611.35
2605.65273	1597.45
2608.32498	1615.95
2610.99557	1612.05
2613.66449	1605.95
2616.33175	1604.75
2618.99734	1600.05
2621.66128	1603.25
2624.32355	1596.55
2626.98416	1594.55
2629.64311	1594.35
2632.30041	1596.75
2634.95605	1599.85
2637.61004	1584.85
2640.26238	1591.75
2642.91306	1590.35
2645.56209	1579.65
2648.20948	1580.95
2650.85521	1576.65
2653.4993	1584.65
2656.14175	1585.45
2658.78255	1585.75
2661.42171	1590.55
2664.05923	1575.35
2666.6951	1581.55
2669.32934	1582.15
2671.96194	1588.25
2674.59291	1582.95
2677.22224	1586.65
2679.84993	1586.75
2682.476	1584.45
2685.10043	1593.85
2687.72324	1574.65
2690.34441	1587.45
2692.96396	1587.45
2695.58188	1590.25
2698.19818	1587.85
2700.81285	1584.15
2703.4259	1573.35
2706.03733	1543.05
2708.64714	1569.55
2711.25533	1588.45
2713.86191	1585.95
2716.46687	1579.05
2719.07021	1601.35
2721.67194	1602.35
2724.27206	1603.95
2726.87057	1607.35
2729.46747	1619.25
2732.06276	1611.75
2734.65644	1605.05
2737.24852	1608.25
2739.83899	1608.45
2742.42786	1604.25
2745.01513	1603.45
2747.60079	1612.05
2750.18486	1604.05
2752.76733	1609.55
2755.3482	1612.15
2757.92747	1628.95
2760.50515	1619.55
2763.08123	1615.45
2765.65573	1615.45
2768.22863	1612.75
2770.79994	1607.65
2773.36967	1613.05
2775.9378	1613.15
2778.50435	1620.45
2781.06932	1609.65
2783.6327	1617.35
2786.1945	1615.25
2788.75471	1607.35
2791.31335	1604.95
2793.87041	1608.25
2796.42589	1598.05
2798.97979	1609.25
2801.53212	1610.85
2804.08288	1600.35
2806.63206	1594.55
2809.17967	1598.65
2811.72571	1608.85
2814.27018	1615.05
2816.81308	1596.65
2819.35442	1600.25
2821.89419	1590.75
2824.43239	1606.55
2826.96904	1597.35
2829.50412	1594.25
2832.03763	1598.55
2834.56959	1597.85
2837.1	1601.65
2839.62884	1604.55
2842.15613	1614.15
2844.68186	1629.05
2847.20604	1625.25
2849.72867	1638.75
2852.24974	1649.75
2854.76927	1648.65
2857.28724	1635.55
2859.80367	1659.15
2862.31855	1660.75
2864.83189	1678.55
2867.34368	1679.05
2869.85393	1681.25
2872.36264	1677.05
2874.8698	1703.55
2877.37543	1695.45
2879.87952	1704.45
2882.38207	1710.95
2884.88308	1715.75
2887.38256	1721.95
2889.88051	1729.95
2892.37692	1725.25
2894.8718	1729.25
2897.36515	1735.85
2899.85698	1736.95
2902.34727	1738.75
2904.83604	1749.35
2907.32328	1776.75
2909.809	1846.05
2912.29319	1758.35
2914.77587	1751.35
2917.25702	1755.85
2919.73665	1750.05
2922.21476	1757.25
2924.69136	1749.85
2927.16644	1738.25
2929.64	1736.75
2932.11205	1746.75
2934.58258	1725.45
2937.05161	1718.05
2939.51912	1712.05
2941.98513	1696.45
2944.44962	1682.95
2946.91261	1669.05
2949.37409	1658.65
2951.83407	1641.45
2954.29254	1629.95
2956.74951	1611.85
2959.20498	1605.15
2961.65895	1591.85
2964.11142	1586.35
2966.56239	1573.55
2969.01186	1561.45
2971.45984	1551.55
2973.90632	1555.55
2976.35131	1531.45
2978.7948	1521.85
2981.23681	1511.55
2983.67732	1508.05
2986.11635	1507.15
2988.55388	1488.55
2990.98993	1487.35
2993.4245	1479.35
2995.85758	1474.45
2998.28917	1483.85
3000.71928	1465.25
3003.14791	1465.55
3005.57506	1473.25
3008.00073	1473.65
3010.42493	1463.55
3012.84764	1458.35
3015.26888	1459.85
3017.68865	1453.55
3020.10694	1457.95
3022.52376	1444.25
3024.9391	1443.45
3027.35298	1445.15
3029.76539	1456.95
3032.17632	1447.95
3034.5858	1440.45
3036.9938	1435.65
3039.40034	1438.65
3041.80542	1428.05
3044.20903	1449.95
3046.61118	1435.55
3049.01187	1427.75
3051.4111	1448.85
3053.80888	1435.15
3056.20519	1435.25
3058.60005	1433.35
3060.99345	1438.25
3063.3854	1436.75
3065.7759	1434.75
3068.16494	1432.85
3070.55254	1434.35
3072.93868	1438.95
3075.32338	1436.25
3077.70662	1438.75
3080.08842	1443.15
3082.46878	1449.65
3084.84769	1445.35
3087.22515	1452.55
3089.60118	1443.55
3091.97576	1451.05
3094.3489	1460.25
3096.72061	1450.25
3099.09087	1456.75
3101.4597	1459.35
3103.82709	1470.95
3106.19305	1467.95
3108.55757	1475.15
3110.92066	1472.55
3113.28232	1471.55
3115.64255	1480.75
3118.00134	1481.25
3120.35871	1490.45
3122.71466	1488.55
3125.06917	1488.95
3127.42226	1495.85
3129.77393	1491.95
3132.12417	1503.55
3134.47299	1515.45
3136.82039	1513.25
3139.16636	1528.55
3141.51092	1539.85
3143.85406	1533.45
3146.19579	1540.05
3148.53609	1541.45
3150.87499	1556.65
3153.21246	1559.95
3155.54853	1561.45
3157.88318	1565.55
3160.21642	1563.65
3162.54826	1570.25
3164.87868	1573.45
3167.2077	1583.75
3169.5353	1592.55
3171.86151	1594.65
3174.18631	1597.65
3176.5097	1596.65
3178.83169	1599.45
3181.15228	1605.35
3183.47147	1607.55
3185.78926	1612.75
3188.10565	1619.75
3190.42065	1623.05
3192.73424	1633.15
3195.04645	1638.85
3197.35725	1632.45
3199.66667	1636.85
3201.97469	1643.45
3204.28132	1651.95
3206.58656	1654.05
3208.8904	1656.35
3211.19287	1655.25
3213.49394	1659.85
3215.79363	1662.45
3218.09193	1676.65
3220.38884	1662.65
3222.68438	1658.75
3224.97853	1665.55
3227.2713	1665.65
3229.56269	1668.35
3231.8527	1677.45
3234.14133	1670.45
3236.42858	1661.65
3238.71446	1681.35
3240.99896	1672.85
3243.28209	1680.95
3245.56384	1683.15
3247.84423	1682.65
3250.12324	1683.85
3252.40088	1682.25
3254.67715	1691.75
3256.95205	1687.85
3259.22558	1682.25
3261.49775	1690.55
3263.76855	1672.65
3266.03799	1685.55
3268.30606	1682.65
3270.57277	1682.25
3272.83812	1681.95
3275.10211	1675.35
3277.36474	1676.95
3279.62601	1683.35
3281.88593	1674.35
3284.14448	1673.85
3286.40168	1675.65
3288.65753	1676.35
3290.91202	1673.55
3293.16516	1664.15
3295.41695	1654.15
3297.66738	1650.55
3299.91647	1642.35
3302.16421	1637.75
3304.4106	1629.75
3306.65564	1615.85
3308.89933	1607.15
3311.14169	1593.85
3313.38269	1573.25
3315.62236	1584.25
3317.86068	1574.65
3320.09766	1551.75
3322.3333	1545.35
3324.5676	1543.05
3326.80056	1508.85
3329.03219	1503.75
3331.26248	1.25
3333.49143	-0.05
3335.71905	-0.75
