Data from AgNPs_FTO_APTES_UA_1uM_R6G_10uM_NaF_0.1M_Addition_RamanShift__8__11-13-17-162.txt Node

Date: Fri Dec 17 11:13:17 GMT 2021
User: TCL
Spectrometer: QEP01345
Trigger mode: 4
Integration Time (sec): 7.000000E0
Scans to average: 10
Electric dark correction enabled: true
Nonlinearity correction enabled: false
Boxcar width: 0
XAxis mode: Raman Shifts
Number of Pixels in Spectrum: 1044
>>>>>Begin Spectral Data<<<<<
46.04893	-0.8
50.45542	0.5
54.85868	-1.3
59.25871	-0.6
63.6555	102.2
68.04907	104.4
72.43941	108.7
76.82654	116.8
81.21044	120.1
85.59113	126.6
89.96862	129.5
94.34289	138
98.71396	140.2
103.08183	144.2
107.4465	148.8
111.80798	143.9
116.16626	152.3
120.52136	154.5
124.87327	160
129.222	168.7
133.56755	177.7
137.90993	191.8
142.24913	206
146.58517	227.9
150.91804	258.2
155.24774	305.9
159.57429	379.7
163.89768	476.3
168.21792	627
172.53501	838.8
176.84895	1145.8
181.15975	1608.8
185.46741	2243.1
189.77193	3094.3
194.07331	4133.6
198.37157	5332.6
202.6667	6580.2
206.9587	7840.8
211.24758	9071.4
215.53334	10320.4
219.81599	11643.8
224.09553	13082.8
228.37195	14681.7
232.64527	16421
236.91549	18308.4
241.18261	20201.2
245.44663	21985.8
249.70755	23649.6
253.96539	24996
258.22014	26173.2
262.4718	27066.3
266.72039	27699.5
270.96589	27940.7
275.20832	27918.1
279.44768	27612.3
283.68397	27260.4
287.91719	26854.1
292.14735	26605.5
296.37445	26453.9
300.59849	26412
304.81948	26393.5
309.03742	26471.2
313.25231	26281
317.46415	25977.6
321.67296	25533.7
325.87872	25203.5
330.08145	25058
334.28114	25119.5
338.47781	25262.4
342.67145	25514.2
346.86207	25893.4
351.04966	26349.4
355.23424	26836.8
359.4158	27292.6
363.59435	27639.7
367.76989	27902.5
371.94243	28071.2
376.11196	28164.9
380.27849	28197.8
384.44203	28294.4
388.60257	28502.4
392.76012	28764.7
396.91468	29141
401.06626	29503.8
405.21485	29779.1
409.36047	29762.6
413.50311	29464.8
417.64277	29294
421.77947	29318.5
425.9132	29487.5
430.04396	29604.4
434.17176	29644.4
438.2966	29806.8
442.41849	30073.6
446.53742	30619.6
450.6534	31125.1
454.76644	31540.7
458.87653	31685.4
462.98368	31761.2
467.08789	31503.5
471.18916	31243.6
475.2875	30878.5
479.38291	30644.1
483.4754	30523.7
487.56496	30387
491.6516	30233.2
495.73531	30040.6
499.81612	29981.8
503.89401	30168.2
507.96899	30248.6
512.04106	30283.3
516.11023	30268
520.1765	30075.6
524.23987	29838.5
528.30034	29664.8
532.35792	29453.2
536.41261	29249.6
540.46441	29057.6
544.51333	28977.3
548.55936	29163.2
552.60252	29491.4
556.64279	29904.2
560.6802	30188
564.71473	30430.2
568.7464	30719.5
572.7752	31208.3
576.80114	31645.7
580.82422	32303.9
584.84444	33192.3
588.86181	34167
592.87633	34914.4
596.888	34794
600.89682	34175.8
604.9028	34608.9
608.90594	36815.4
612.90624	39052.9
616.90371	37318
620.89834	32728.1
624.89015	30578.6
628.87913	30192.6
632.86528	30281
636.84862	30307
640.82913	29937.4
644.80683	29421.4
648.78172	29086.9
652.75379	29087.1
656.72306	29350
660.68952	29762
664.65319	29672.3
668.61405	29352.2
672.57211	29360
676.52738	29535.1
680.47986	29495.3
684.42955	29278.4
688.37646	29228.8
692.32058	29380.2
696.26192	29720.7
700.20048	30097.6
704.13626	30317.1
708.06928	30200
711.99952	30086.4
715.927	30026.8
719.85171	30106.2
723.77365	30050.2
727.69284	29780.1
731.60928	29408.4
735.52295	29270.9
739.43388	29237
743.34206	29385.4
747.24749	29500.3
751.15017	29668.6
755.05012	29965.6
758.94733	30526.6
762.8418	31509.5
766.73354	33036.9
770.62254	34519.6
774.50882	34951.4
778.39237	33994.2
782.27321	32483.8
786.15132	31203.2
790.02671	30362.6
793.89938	29867.4
797.76935	29667.6
801.6366	29556.7
805.50115	29483.1
809.36299	29394
813.22213	29226.1
817.07857	29118.8
820.93231	28996.6
824.78336	28899.7
828.63172	28828.5
832.47738	28844
836.32036	28820.1
840.16066	28870
843.99827	28869.8
847.8332	28841.8
851.66546	28842.7
855.49504	28883.8
859.32195	28934.9
863.1462	28968.2
866.96777	28906.7
870.78668	28974.5
874.60293	29038.6
878.41652	29057.6
882.22745	29228.7
886.03573	29371.9
889.84136	29416.7
893.64433	29393.7
897.44466	29328.1
901.24235	29295.1
905.0374	29285.3
908.8298	29265.2
912.61957	29273.4
916.40671	29443.6
920.19121	29718.9
923.97308	29942.8
927.75233	30085.9
931.52895	29978.6
935.30295	29661.4
939.07433	29247.2
942.84309	28900.2
946.60924	28726.6
950.37278	28637.2
954.13371	28569.7
957.89203	28474.4
961.64774	28485.2
965.40086	28409.4
969.15137	28355.4
972.89929	28307.1
976.64461	28278
980.38733	28282.6
984.12747	28322.4
987.86502	28380.1
991.59999	28523
995.33237	28694.7
999.06217	29032.5
1002.78939	29511.4
1006.51404	29987.5
1010.23611	30489.9
1013.95561	30728.6
1017.67255	30741.4
1021.38692	30480.6
1025.09872	30200.8
1028.80796	29937.3
1032.51465	29911.5
1036.21877	30005.6
1039.92035	30144.3
1043.61937	30141.1
1047.31584	30091.5
1051.00976	30030.1
1054.70114	30069.8
1058.38998	30164.1
1062.07627	30363.1
1065.76003	30707.1
1069.44126	31029.6
1073.11995	31480.7
1076.79611	31929.7
1080.46974	32164.9
1084.14085	32312.2
1087.80943	32449.1
1091.47549	32605.3
1095.13903	32558.8
1098.80005	32276.2
1102.45857	31711.4
1106.11456	31246.8
1109.76805	30941.1
1113.41903	30822.8
1117.06751	30789.1
1120.71348	30945.4
1124.35696	31097.2
1127.99793	31328.8
1131.63641	31474.7
1135.2724	31401.2
1138.90589	31256.6
1142.5369	31265.8
1146.16542	31226.3
1149.79145	31318.7
1153.415	31407.3
1157.03607	31649.2
1160.65467	32160
1164.27079	33060
1167.88443	34272.9
1171.49561	35631.1
1175.10432	37282.8
1178.71056	39407.1
1182.31434	41550.4
1185.91565	42864.1
1189.51451	43248.1
1193.11091	42765.7
1196.70485	41640.6
1200.29634	40252.6
1203.88538	39135.6
1207.47197	38400.5
1211.05612	37842.1
1214.63782	37262.6
1218.21708	36560.7
1221.79391	35876.4
1225.36829	35371.4
1228.94024	35083.8
1232.50976	34850
1236.07685	34641.1
1239.6415	34580.9
1243.20374	34619.9
1246.76355	34788.5
1250.32093	35095.9
1253.8759	35654
1257.42845	36463.4
1260.97859	37373.7
1264.52631	38352.9
1268.07163	39286.1
1271.61453	40174.1
1275.15503	40922.4
1278.69312	41658.3
1282.22882	42161.1
1285.76211	42794.9
1289.29301	43643.9
1292.82151	44697.6
1296.34761	46015.8
1299.87133	47666.9
1303.39266	49503.6
1306.9116	51313.5
1310.42815	52999.9
1313.94233	53880.1
1317.45412	53883.9
1320.96354	53331.4
1324.47058	52901.2
1327.97525	52732.8
1331.47754	52692.3
1334.97747	52630.4
1338.47502	52558.9
1341.97022	52239.4
1345.46305	51887.3
1348.95352	51503.8
1352.44163	51400.2
1355.92738	51775.2
1359.41078	52873.6
1362.89183	54098.8
1366.37053	53616.6
1369.84688	50529.8
1373.32088	46504.1
1376.79254	43364.6
1380.26186	41902.2
1383.72883	41654.1
1387.19347	41505.3
1390.65578	41060.5
1394.11575	40756.2
1397.57339	40755.2
1401.0287	41015.3
1404.48168	41307.5
1407.93234	41429.4
1411.38068	41214.8
1414.82669	40546.3
1418.27039	39576.4
1421.71177	38575.9
1425.15083	37933.5
1428.58758	37693.7
1432.02203	38033.3
1435.45416	38770
1438.88399	39532
1442.31151	40011.5
1445.73673	40237.6
1449.15965	40192.3
1452.58027	40184.4
1455.9986	40009.9
1459.41463	40193.4
1462.82837	40664.7
1466.23982	41281.6
1469.64898	41780.1
1473.05586	42024
1476.46045	42082.6
1479.86276	41952.3
1483.26279	41789.4
1486.66054	41733.5
1490.05602	42022.8
1493.44922	42429
1496.84016	42851.7
1500.22882	43500.5
1503.61521	44504.3
1506.99934	45579.8
1510.38121	46423.9
1513.76081	46464.2
1517.13816	45664.1
1520.51324	44299.5
1523.88607	43059.8
1527.25665	42325.7
1530.62498	42081.4
1533.99105	41749.4
1537.35488	41318.3
1540.71647	40651.2
1544.07581	39909.1
1547.4329	39367.8
1550.78776	38873.7
1554.14038	38580.9
1557.49077	38464.8
1560.83892	38466.8
1564.18484	38434.4
1567.52853	38562.4
1570.86999	38760.9
1574.20922	39240.2
1577.54624	39760.1
1580.88103	40055.5
1584.2136	40250.1
1587.54395	41026.6
1590.87208	42374.5
1594.19801	43984.2
1597.52172	45641.3
1600.84321	45936
1604.16251	44358.2
1607.47959	41809.4
1610.79447	39214.6
1614.10715	36682.4
1617.41763	34628.1
1620.7259	33218.3
1624.03199	32522.9
1627.33587	32562.5
1630.63757	33284.6
1633.93707	34833.7
1637.23439	37348.2
1640.52951	40998.8
1643.82246	44994.5
1647.11321	47980.3
1650.40179	48097.8
1653.68819	45107.1
1656.97241	40318.4
1660.25446	35800.5
1663.53433	32559.7
1666.81203	30498.9
1670.08756	29233.8
1673.36092	28440
1676.63211	27869.4
1679.90115	27515.8
1683.16801	27189
1686.43272	26989.7
1689.69527	26817.5
1692.95567	26721.4
1696.2139	26615.3
1699.46999	26525.1
1702.72392	26487.9
1705.97571	26430.8
1709.22535	26387.5
1712.47284	26369.4
1715.71819	26387.8
1718.96139	26347.1
1722.20246	26304.5
1725.44139	26211.2
1728.67818	26107.7
1731.91284	25999.3
1735.14537	25836.4
1738.37576	25772.2
1741.60403	25699.4
1744.83017	25608.4
1748.05418	25590.7
1751.27607	25533.9
1754.49584	25510.3
1757.71349	25491.7
1760.92903	25484.2
1764.14244	25428
1767.35375	25420.5
1770.56294	25359.9
1773.77002	25331.2
1776.97499	25273.2
1780.17785	25273.2
1783.37861	25292
1786.57727	25241.4
1789.77382	25253
1792.96828	25187.6
1796.16064	25144.1
1799.3509	25092.4
1802.53907	25052.1
1805.72514	25021.5
1808.90913	24905.1
1812.09102	24910.5
1815.27083	24837.8
1818.44856	24839.1
1821.6242	24854
1824.79776	24802.5
1827.96924	24829.5
1831.13864	24836.4
1834.30597	24827.3
1837.47122	24855.1
1840.6344	24853.3
1843.7955	24925.7
1846.95454	24889.8
1850.11151	24841.5
1853.26642	24832.6
1856.41926	24842.5
1859.57004	24812.6
1862.71876	24757.8
1865.86542	24751.4
1869.01003	24689.8
1872.15258	24692.2
1875.29308	24682.7
1878.43152	24603.5
1881.56792	24615.2
1884.70227	24528.1
1887.83457	24551.2
1890.96482	24499.8
1894.09304	24446.1
1897.21921	24406.2
1900.34335	24374
1903.46544	24321.1
1906.58551	24327.4
1909.70353	24271.2
1912.81953	24254.7
1915.93349	24177.3
1919.04543	24054.3
1922.15534	24065.1
1925.26322	24027.6
1928.36908	24004.6
1931.47292	23911.9
1934.57473	23862.2
1937.67453	23805.3
1940.77232	23763
1943.86808	23686.6
1946.96184	23658
1950.05358	23604.4
1953.14331	23510.8
1956.23103	23481
1959.31675	23399.2
1962.40046	23359.8
1965.48217	23287.5
1968.56188	23255.1
1971.63959	23200
1974.7153	23081.8
1977.78901	23001.6
1980.86073	22951.1
1983.93046	22868.9
1986.99819	22787.1
1990.06394	22760.4
1993.1277	22718.4
1996.18947	22601.9
1999.24925	22586.2
2002.30706	22499.5
2005.36288	22422
2008.41672	22390.1
2011.46859	22325.6
2014.51848	22303.1
2017.56639	22198.2
2020.61233	22133.6
2023.6563	22160
2026.6983	22086.1
2029.73833	22026.7
2032.7764	21994.7
2035.8125	21945.8
2038.84664	21915.8
2041.87881	21913
2044.90903	21856.8
2047.93729	21812
2050.96359	21797.1
2053.98794	21741.9
2057.01034	21765.8
2060.03078	21734
2063.04927	21657.3
2066.06582	21699.4
2069.08042	21691.6
2072.09307	21647.6
2075.10378	21596
2078.11255	21636.2
2081.11938	21622.6
2084.12426	21643.6
2087.12722	21612.3
2090.12824	21620.5
2093.12732	21642.4
2096.12447	21647.8
2099.11969	21641.7
2102.11299	21642.1
2105.10435	21658.7
2108.09379	21661.3
2111.08131	21710.2
2114.0669	21692.4
2117.05057	21694.9
2120.03233	21711.3
2123.01216	21747.2
2125.99008	21755.2
2128.96609	21786.5
2131.94018	21780.4
2134.91236	21808.4
2137.88263	21803.6
2140.851	21844.9
2143.81746	21844.7
2146.78201	21828
2149.74466	21855
2152.7054	21864.2
2155.66425	21852.2
2158.6212	21888.2
2161.57625	21846
2164.52941	21845.6
2167.48067	21810
2170.43004	21844.6
2173.37752	21837.9
2176.32311	21823.6
2179.26681	21795.8
2182.20863	21805.9
2185.14856	21816.1
2188.08661	21821.2
2191.02278	21788.3
2193.95707	21785.4
2196.88948	21793.5
2199.82001	21770
2202.74867	21745.2
2205.67545	21747.8
2208.60037	21712.4
2211.52341	21652.1
2214.44458	21642.9
2217.36388	21583.3
2220.28132	21561.6
2223.1969	21498.9
2226.11061	21542.2
2229.02246	21468.5
2231.93245	21399.1
2234.84058	21389.5
2237.74686	21367.9
2240.65128	21336.3
2243.55385	21323.2
2246.45456	21279.3
2249.35343	21329.9
2252.25044	21231
2255.14561	21205
2258.03893	21193.9
2260.93041	21131.8
2263.82004	21090.8
2266.70783	21087.5
2269.59378	21045.8
2272.4779	21000.7
2275.36017	20928.9
2278.24061	20918.9
2281.11922	20857.3
2283.996	20864.5
2286.87094	20788.1
2289.74405	20756.6
2292.61534	20750.5
2295.4848	20726.1
2298.35243	20718
2301.21824	20700.2
2304.08223	20734
2306.94439	20672.4
2309.80474	20675.9
2312.66327	20668.8
2315.51999	20660.1
2318.37489	20618.1
2321.22797	20589.8
2324.07925	20601.6
2326.92871	20557.5
2329.77637	20533.6
2332.62222	20492.7
2335.46626	20467.3
2338.3085	20449.8
2341.14893	20422.2
2343.98756	20450.1
2346.8244	20437.5
2349.65943	20436.5
2352.49267	20369.9
2355.32411	20371.2
2358.15376	20302.6
2360.98161	20337.6
2363.80768	20333.9
2366.63195	20297.2
2369.45444	20288.3
2372.27514	20264.1
2375.09405	20229.4
2377.91118	20248.4
2380.72652	20192.1
2383.54009	20173
2386.35187	20131.2
2389.16188	20067.4
2391.97011	20045
2394.77657	20034.4
2397.58125	19960.2
2400.38416	19957.4
2403.18529	19934.3
2405.98466	19912.1
2408.78226	19835.4
2411.57809	19833.8
2414.37216	19805.1
2417.16446	19800.2
2419.955	19789.4
2422.74378	19771.2
2425.5308	19760.6
2428.31606	19746.6
2431.09956	19732
2433.88131	19694.5
2436.6613	19684.2
2439.43954	19685.3
2442.21603	19669.4
2444.99077	19664.5
2447.76377	19636.3
2450.53501	19639.4
2453.30451	19616.9
2456.07226	19624.8
2458.83827	19598.1
2461.60254	19591.5
2464.36507	19571.2
2467.12586	19558
2469.88492	19550.8
2472.64224	19502.6
2475.39782	19498.4
2478.15167	19508.6
2480.90379	19496
2483.65417	19510.5
2486.40283	19461.6
2489.14976	19452
2491.89497	19453.1
2494.63845	19451.7
2497.3802	19432
2500.12024	19422.2
2502.85855	19409.2
2505.59514	19398.2
2508.33002	19417.1
2511.06318	19378.4
2513.79462	19375.4
2516.52435	19341.7
2519.25237	19330.2
2521.97867	19306.3
2524.70327	19279.2
2527.42616	19288.7
2530.14734	19285.2
2532.86681	19242.1
2535.58458	19228.9
2538.30065	19177.7
2541.01501	19165.3
2543.72768	19138.2
2546.43864	19121.2
2549.14791	19108.4
2551.85548	19104.9
2554.56136	19078.9
2557.26554	19069.5
2559.96803	19009.6
2562.66883	18999.6
2565.36794	18973.1
2568.06536	18958.5
2570.7611	18943.1
2573.45514	18886.5
2576.14751	18881.2
2578.83819	18849.5
2581.52719	18842.3
2584.21451	18868
2586.90015	18797.8
2589.58411	18768.6
2592.2664	18763.3
2594.94701	18677.8
2597.62594	18689.1
2600.30321	18670.8
2602.9788	18615.1
2605.65273	18604
2608.32498	18597.6
2610.99557	18597.3
2613.66449	18568.5
2616.33175	18526.9
2618.99734	18504.4
2621.66128	18497.2
2624.32355	18455.1
2626.98416	18463.2
2629.64311	18423.3
2632.30041	18421.1
2634.95605	18396.2
2637.61004	18407.5
2640.26238	18378.2
2642.91306	18369.9
2645.56209	18317.3
2648.20948	18322.4
2650.85521	18336.4
2653.4993	18346.3
2656.14175	18344.7
2658.78255	18321
2661.42171	18305
2664.05923	18331.6
2666.6951	18310.2
2669.32934	18334.6
2671.96194	18370.1
2674.59291	18345.1
2677.22224	18348.5
2679.84993	18355.1
2682.476	18336.4
2685.10043	18312.3
2687.72324	18291.5
2690.34441	18324
2692.96396	18308.1
2695.58188	18301.3
2698.19818	18303.7
2700.81285	18331.8
2703.4259	18283.3
2706.03733	18268.6
2708.64714	18321.4
2711.25533	18336.8
2713.86191	18309.4
2716.46687	18336.8
2719.07021	18308.5
2721.67194	18342.2
2724.27206	18302.1
2726.87057	18347.8
2729.46747	18336.5
2732.06276	18330.1
2734.65644	18313.3
2737.24852	18299.4
2739.83899	18260.2
2742.42786	18315.4
2745.01513	18293.8
2747.60079	18288
2750.18486	18242.5
2752.76733	18255.7
2755.3482	18229.8
2757.92747	18236.3
2760.50515	18271.7
2763.08123	18209
2765.65573	18200.5
2768.22863	18175.2
2770.79994	18186.7
2773.36967	18125.3
2775.9378	18151.4
2778.50435	18076.4
2781.06932	18097.8
2783.6327	18046.3
2786.1945	18054.5
2788.75471	18028.1
2791.31335	17987.1
2793.87041	17958.8
2796.42589	17913.8
2798.97979	17888.9
2801.53212	17857.4
2804.08288	17813.1
2806.63206	17755.7
2809.17967	17773.6
2811.72571	17708.7
2814.27018	17714.7
2816.81308	17683.3
2819.35442	17701.2
2821.89419	17658.7
2824.43239	17620.9
2826.96904	17586.6
2829.50412	17577.3
2832.03763	17529.7
2834.56959	17514.7
2837.1	17494.7
2839.62884	17486.7
2842.15613	17499.9
2844.68186	17536.8
2847.20604	17519.8
2849.72867	17514.7
2852.24974	17485.7
2854.76927	17449.8
2857.28724	17471.8
2859.80367	17467
2862.31855	17445.3
2864.83189	17417.9
2867.34368	17421.7
2869.85393	17400.3
2872.36264	17413.5
2874.8698	17440.9
2877.37543	17448.4
2879.87952	17445.8
2882.38207	17456.7
2884.88308	17456.9
2887.38256	17475.2
2889.88051	17484.4
2892.37692	17507.2
2894.8718	17506.6
2897.36515	17508.1
2899.85698	17470.9
2902.34727	17534.2
2904.83604	17513.5
2907.32328	17566.6
2909.809	17547
2912.29319	17537.3
2914.77587	17526.5
2917.25702	17523.9
2919.73665	17507.5
2922.21476	17511.9
2924.69136	17464.8
2927.16644	17500.8
2929.64	17444.1
2932.11205	17467.7
2934.58258	17387
2937.05161	17454.4
2939.51912	17405.8
2941.98513	17398.6
2944.44962	17364.5
2946.91261	17267.1
2949.37409	17285
2951.83407	17240.6
2954.29254	17225.2
2956.74951	17182.4
2959.20498	17146.2
2961.65895	17130.1
2964.11142	17111.4
2966.56239	17061.6
2969.01186	17058.2
2971.45984	16999.9
2973.90632	16964.3
2976.35131	16954.1
2978.7948	16931.5
2981.23681	16878.2
2983.67732	16863.5
2986.11635	16802.3
2988.55388	16767.5
2990.98993	16710.9
2993.4245	16675.3
2995.85758	16640.5
2998.28917	16620.9
3000.71928	16598.7
3003.14791	16542.6
3005.57506	16534.3
3008.00073	16481.3
3010.42493	16461.6
3012.84764	16440.8
3015.26888	16417
3017.68865	16388.2
3020.10694	16389.5
3022.52376	16325.7
3024.9391	16325.5
3027.35298	16281
3029.76539	16269.8
3032.17632	16240.2
3034.5858	16207.1
3036.9938	16208.5
3039.40034	16150.9
3041.80542	16141.1
3044.20903	16110.5
3046.61118	16105.2
3049.01187	16061.7
3051.4111	16048.3
3053.80888	16014.6
3056.20519	15982.8
3058.60005	15917.2
3060.99345	15921.4
3063.3854	15886.8
3065.7759	15847.6
3068.16494	15830.7
3070.55254	15809.2
3072.93868	15770.2
3075.32338	15701.9
3077.70662	15697.1
3080.08842	15678.7
3082.46878	15650
3084.84769	15663.8
3087.22515	15645
3089.60118	15613.3
3091.97576	15607
3094.3489	15598.2
3096.72061	15587.4
3099.09087	15570.8
3101.4597	15565.2
3103.82709	15568.7
3106.19305	15499.8
3108.55757	15533.6
3110.92066	15493.3
3113.28232	15446.7
3115.64255	15400.6
3118.00134	15376.7
3120.35871	15358.7
3122.71466	15339.8
3125.06917	15293
3127.42226	15283.2
3129.77393	15303.1
3132.12417	15268.7
3134.47299	15280.6
3136.82039	15230
3139.16636	15263.8
3141.51092	15265.8
3143.85406	15268.6
3146.19579	15272.3
3148.53609	15246.1
3150.87499	15241.6
3153.21246	15279.1
3155.54853	15281
3157.88318	15227
3160.21642	15262.9
3162.54826	15247.2
3164.87868	15221.4
3167.2077	15177.8
3169.5353	15206.5
3171.86151	15196.6
3174.18631	15167.3
3176.5097	15160.8
3178.83169	15098.8
3181.15228	15141.1
3183.47147	15093.3
3185.78926	15080.7
3188.10565	15080.3
3190.42065	15087
3192.73424	15072.1
3195.04645	15084.9
3197.35725	15067.9
3199.66667	15062.7
3201.97469	15064.6
3204.28132	15013.5
3206.58656	15079.5
3208.8904	15030.3
3211.19287	15037.8
3213.49394	15012.3
3215.79363	15006.1
3218.09193	15016.3
3220.38884	14985.5
3222.68438	14987.3
3224.97853	14964.5
3227.2713	14977
3229.56269	14949.3
3231.8527	14948.8
3234.14133	14912.8
3236.42858	14912.3
3238.71446	14893.4
3240.99896	14888.8
3243.28209	14874.7
3245.56384	14857.6
3247.84423	14853.9
3250.12324	14831.1
3252.40088	14828.1
3254.67715	14787.1
3256.95205	14789.2
3259.22558	14770.7
3261.49775	14704
3263.76855	14715.8
3266.03799	14676
3268.30606	14702.8
3270.57277	14647.9
3272.83812	14652.4
3275.10211	14613.8
3277.36474	14577.4
3279.62601	14585.7
3281.88593	14588.5
3284.14448	14580.9
3286.40168	14544.1
3288.65753	14532.5
3290.91202	14508.2
3293.16516	14445.1
3295.41695	14413.8
3297.66738	14327.8
3299.91647	14254.8
3302.16421	14195.6
3304.4106	14163.7
3306.65564	14036.7
3308.89933	13971.4
3311.14169	13908.3
3313.38269	13758
3315.62236	13713.8
3317.86068	13553.6
3320.09766	13437.1
3322.3333	13331.1
3324.5676	13311.8
3326.80056	13119.1
3329.03219	13019.5
3331.26248	2.1
3333.49143	1.9
3335.71905	-0.1
