Data from AgNPs_FTO_APTES_UA_10uM_R6G_10uM_NaF_0.1M_Addition_RamanShift__2__13-12-17-298.txt Node

Date: Fri Dec 17 13:12:17 GMT 2021
User: TCL
Spectrometer: QEP01345
Trigger mode: 4
Integration Time (sec): 7.000000E0
Scans to average: 10
Electric dark correction enabled: true
Nonlinearity correction enabled: false
Boxcar width: 0
XAxis mode: Raman Shifts
Number of Pixels in Spectrum: 1044
>>>>>Begin Spectral Data<<<<<
46.04893	-1.2625
50.45542	-0.1625
54.85868	-1.3625
59.25871	0.6375
63.6555	100.6375
68.04907	105.2375
72.43941	108.9375
76.82654	117.5375
81.21044	118.1375
85.59113	120.8375
89.96862	125.3375
94.34289	130.9375
98.71396	132.9375
103.08183	138.1375
107.4465	143.4375
111.80798	146.6375
116.16626	147.3375
120.52136	149.2375
124.87327	158.7375
129.222	169.3375
133.56755	181.4375
137.90993	195.6375
142.24913	217.6375
146.58517	242.5375
150.91804	282.2375
155.24774	331.1375
159.57429	415.7375
163.89768	532.5375
168.21792	708.1375
172.53501	965.0375
176.84895	1345.2375
181.15975	1879.9375
185.46741	2648.4375
189.77193	3650.5375
194.07331	4898.5375
198.37157	6343.4375
202.6667	7847.9375
206.9587	9346.6375
211.24758	10775.8375
215.53334	12256.0375
219.81599	13811.4375
224.09553	15477.5375
228.37195	17366.3375
232.64527	19453.5375
236.91549	21686.2375
241.18261	23927.8375
245.44663	26083.6375
249.70755	28027.5375
253.96539	29657.0375
258.22014	30999.3375
262.4718	32118.2375
266.72039	32877.2375
270.96589	33252.7375
275.20832	33221.8375
279.44768	32899.2375
283.68397	32484.9375
287.91719	31999.8375
292.14735	31702.7375
296.37445	31554.1375
300.59849	31572.4375
304.81948	31634.6375
309.03742	31639.2375
313.25231	31471.1375
317.46415	31039.9375
321.67296	30491.0375
325.87872	30079.7375
330.08145	29943.9375
334.28114	30035.7375
338.47781	30303.3375
342.67145	30724.8375
346.86207	31204.4375
351.04966	31879.1375
355.23424	32516.7375
359.4158	33128.6375
363.59435	33680.4375
367.76989	34063.4375
371.94243	34355.6375
376.11196	34531.0375
380.27849	34677.7375
384.44203	34888.8375
388.60257	35125.8375
392.76012	35374.5375
396.91468	35727.6375
401.06626	36123.9375
405.21485	36450.6375
409.36047	36399.2375
413.50311	35998.9375
417.64277	35649.5375
421.77947	35568.6375
425.9132	35665.8375
430.04396	35793.2375
434.17176	35931.7375
438.2966	36182.8375
442.41849	36503.6375
446.53742	37207.4375
450.6534	37956.8375
454.76644	38506.2375
458.87653	38748.5375
462.98368	38707.4375
467.08789	38405.5375
471.18916	37936.4375
475.2875	37419.5375
479.38291	37021.8375
483.4754	36751.3375
487.56496	36550.9375
491.6516	36488.9375
495.73531	36487.4375
499.81612	36643.2375
503.89401	36973.9375
507.96899	37033.0375
512.04106	37092.6375
516.11023	37058.9375
520.1765	37025.9375
524.23987	36948.6375
528.30034	36809.3375
532.35792	36563.3375
536.41261	36318.2375
540.46441	36024.9375
544.51333	35925.4375
548.55936	35971.6375
552.60252	36354.6375
556.64279	36772.6375
560.6802	37040.3375
564.71473	37147.7375
568.7464	37353.1375
572.7752	37714.1375
576.80114	38037.4375
580.82422	38534.4375
584.84444	39298.0375
588.86181	40127.2375
592.87633	40614.2375
596.888	40608.1375
600.89682	40462.0375
604.9028	41577.3375
608.90594	44938.0375
612.90624	48452.1375
616.90371	46580.0375
620.89834	40901.6375
624.89015	38294.8375
628.87913	37863.9375
632.86528	37867.3375
636.84862	37922.6375
640.82913	37518.8375
644.80683	36940.0375
648.78172	36509.1375
652.75379	36452.5375
656.72306	36789.2375
660.68952	37314.1375
664.65319	37246.2375
668.61405	36807.4375
672.57211	36861.3375
676.52738	37068.8375
680.47986	37031.5375
684.42955	36777.1375
688.37646	36689.3375
692.32058	36944.3375
696.26192	37411.9375
700.20048	37864.9375
704.13626	38040.8375
708.06928	37801.7375
711.99952	37495.3375
715.927	37394.2375
719.85171	37506.2375
723.77365	37529.5375
727.69284	37141.7375
731.60928	36795.5375
735.52295	36622.9375
739.43388	36682.5375
743.34206	36735.9375
747.24749	36929.8375
751.15017	37016.6375
755.05012	37341.8375
758.94733	37903.9375
762.8418	39050.2375
766.73354	40852.2375
770.62254	42824.6375
774.50882	43755.4375
778.39237	43112.6375
782.27321	41334.7375
786.15132	39564.0375
790.02671	38409.8375
793.89938	37832.6375
797.76935	37615.8375
801.6366	37459.9375
805.50115	37427.7375
809.36299	37202.3375
813.22213	36977.0375
817.07857	36757.4375
820.93231	36634.1375
824.78336	36609.4375
828.63172	36666.3375
832.47738	36703.2375
836.32036	36797.5375
840.16066	36908.0375
843.99827	37056.0375
847.8332	36979.0375
851.66546	36916.2375
855.49504	36883.0375
859.32195	36938.7375
863.1462	36913.9375
866.96777	36886.3375
870.78668	36900.7375
874.60293	36924.0375
878.41652	37027.7375
882.22745	37151.4375
886.03573	37342.8375
889.84136	37441.8375
893.64433	37279.9375
897.44466	37130.5375
901.24235	37001.3375
905.0374	36862.1375
908.8298	36769.8375
912.61957	36796.4375
916.40671	36889.5375
920.19121	37119.6375
923.97308	37407.3375
927.75233	37669.3375
931.52895	37792.4375
935.30295	37628.7375
939.07433	37159.0375
942.84309	36839.1375
946.60924	36715.6375
950.37278	36663.7375
954.13371	36506.9375
957.89203	36376.3375
961.64774	36273.9375
965.40086	36240.8375
969.15137	36243.0375
972.89929	36302.2375
976.64461	36444.1375
980.38733	36563.7375
984.12747	36723.3375
987.86502	36972.6375
991.59999	37275.0375
995.33237	37720.5375
999.06217	38443.7375
1002.78939	39286.8375
1006.51404	39753.4375
1010.23611	40120.0375
1013.95561	40379.1375
1017.67255	40396.4375
1021.38692	40089.8375
1025.09872	39815.1375
1028.80796	40000.7375
1032.51465	40822.6375
1036.21877	41666.3375
1039.92035	41876.9375
1043.61937	41622.1375
1047.31584	40851.0375
1051.00976	39964.0375
1054.70114	39491.9375
1058.38998	39433.2375
1062.07627	39674.8375
1065.76003	39937.9375
1069.44126	40281.1375
1073.11995	40850.1375
1076.79611	41512.4375
1080.46974	41871.6375
1084.14085	41927.0375
1087.80943	42020.3375
1091.47549	42008.8375
1095.13903	41844.9375
1098.80005	41388.3375
1102.45857	40843.1375
1106.11456	40440.3375
1109.76805	40213.3375
1113.41903	40186.0375
1117.06751	40189.6375
1120.71348	40259.9375
1124.35696	40505.6375
1127.99793	40834.1375
1131.63641	41055.2375
1135.2724	40845.4375
1138.90589	40550.6375
1142.5369	40308.4375
1146.16542	40171.5375
1149.79145	40046.6375
1153.415	39976.7375
1157.03607	40043.0375
1160.65467	40510.5375
1164.27079	41391.0375
1167.88443	42666.4375
1171.49561	44247.5375
1175.10432	46166.8375
1178.71056	48823.5375
1182.31434	51523.4375
1185.91565	53244.1375
1189.51451	53695.8375
1193.11091	52956.1375
1196.70485	51417.2375
1200.29634	49794.8375
1203.88538	48556.4375
1207.47197	47602.0375
1211.05612	46693.2375
1214.63782	45823.9375
1218.21708	45199.8375
1221.79391	44682.9375
1225.36829	44461.8375
1228.94024	44143.6375
1232.50976	43761.2375
1236.07685	43397.3375
1239.6415	43268.2375
1243.20374	43263.1375
1246.76355	43659.9375
1250.32093	44243.1375
1253.8759	44890.3375
1257.42845	45890.1375
1260.97859	46928.6375
1264.52631	48006.6375
1268.07163	49310.0375
1271.61453	50715.3375
1275.15503	51949.8375
1278.69312	52795.8375
1282.22882	53126.1375
1285.76211	53182.7375
1289.29301	53563.8375
1292.82151	54290.6375
1296.34761	55547.9375
1299.87133	57445.9375
1303.39266	59985.1375
1306.9116	62948.0375
1310.42815	65540.4375
1313.94233	66799.1375
1317.45412	66332.6375
1320.96354	64755.8375
1324.47058	63328.4375
1327.97525	61993.4375
1331.47754	61070.2375
1334.97747	60669.2375
1338.47502	60597.0375
1341.97022	60620.6375
1345.46305	60752.3375
1348.95352	61061.1375
1352.44163	61702.4375
1355.92738	62953.9375
1359.41078	64914.9375
1362.89183	66635.5375
1366.37053	65451.7375
1369.84688	61066.7375
1373.32088	55972.5375
1376.79254	52377.4375
1380.26186	50600.3375
1383.72883	49922.3375
1387.19347	49519.1375
1390.65578	48842.3375
1394.11575	48273.3375
1397.57339	48040.3375
1401.0287	48141.6375
1404.48168	48367.6375
1407.93234	48635.9375
1411.38068	48740.4375
1414.82669	48489.0375
1418.27039	47787.4375
1421.71177	47081.7375
1425.15083	46558.5375
1428.58758	46568.3375
1432.02203	47140.0375
1435.45416	47950.2375
1438.88399	48757.8375
1442.31151	49093.9375
1445.73673	49098.4375
1449.15965	49022.7375
1452.58027	48865.8375
1455.9986	48669.5375
1459.41463	48846.1375
1462.82837	49591.2375
1466.23982	50471.2375
1469.64898	51102.5375
1473.05586	51536.8375
1476.46045	51675.8375
1479.86276	51549.1375
1483.26279	51346.1375
1486.66054	51403.1375
1490.05602	51755.5375
1493.44922	52239.0375
1496.84016	52814.4375
1500.22882	53706.1375
1503.61521	55140.6375
1506.99934	56820.3375
1510.38121	58120.3375
1513.76081	58248.4375
1517.13816	56756.2375
1520.51324	54402.7375
1523.88607	52198.7375
1527.25665	50727.0375
1530.62498	50105.8375
1533.99105	49786.9375
1537.35488	49510.3375
1540.71647	49180.7375
1544.07581	48760.6375
1547.4329	48493.7375
1550.78776	48202.3375
1554.14038	48029.6375
1557.49077	47929.7375
1560.83892	47867.9375
1564.18484	47891.0375
1567.52853	48173.0375
1570.86999	48491.1375
1574.20922	48935.5375
1577.54624	49265.0375
1580.88103	49215.2375
1584.2136	49169.6375
1587.54395	49603.1375
1590.87208	51054.8375
1594.19801	53223.3375
1597.52172	55406.3375
1600.84321	56243.2375
1604.16251	55022.3375
1607.47959	52283.3375
1610.79447	49279.7375
1614.10715	46384.2375
1617.41763	43937.5375
1620.7259	42354.4375
1624.03199	41661.1375
1627.33587	41705.3375
1630.63757	42447.1375
1633.93707	43982.4375
1637.23439	46352.6375
1640.52951	49750.9375
1643.82246	53653.3375
1647.11321	56442.2375
1650.40179	56535.4375
1653.68819	53635.5375
1656.97241	48807.6375
1660.25446	44279.2375
1663.53433	41119.4375
1666.81203	39169.9375
1670.08756	37967.9375
1673.36092	37174.2375
1676.63211	36663.1375
1679.90115	36348.6375
1683.16801	36044.9375
1686.43272	35828.9375
1689.69527	35677.0375
1692.95567	35572.8375
1696.2139	35476.1375
1699.46999	35455.6375
1702.72392	35416.3375
1705.97571	35356.1375
1709.22535	35332.1375
1712.47284	35313.6375
1715.71819	35339.8375
1718.96139	35306.9375
1722.20246	35227.0375
1725.44139	35136.0375
1728.67818	35018.8375
1731.91284	34925.1375
1735.14537	34792.1375
1738.37576	34675.5375
1741.60403	34602.7375
1744.83017	34471.5375
1748.05418	34498.2375
1751.27607	34422.9375
1754.49584	34347.6375
1757.71349	34323.3375
1760.92903	34382.2375
1764.14244	34370.3375
1767.35375	34356.0375
1770.56294	34292.8375
1773.77002	34287.1375
1776.97499	34247.8375
1780.17785	34234.3375
1783.37861	34208.2375
1786.57727	34146.6375
1789.77382	34112.2375
1792.96828	34061.0375
1796.16064	34025.0375
1799.3509	34006.3375
1802.53907	33983.4375
1805.72514	33812.8375
1808.90913	33817.5375
1812.09102	33780.5375
1815.27083	33779.5375
1818.44856	33727.9375
1821.6242	33681.9375
1824.79776	33643.1375
1827.96924	33644.2375
1831.13864	33640.0375
1834.30597	33684.5375
1837.47122	33669.5375
1840.6344	33717.5375
1843.7955	33689.5375
1846.95454	33680.0375
1850.11151	33670.0375
1853.26642	33686.0375
1856.41926	33663.4375
1859.57004	33646.9375
1862.71876	33617.4375
1865.86542	33607.3375
1869.01003	33549.7375
1872.15258	33498.1375
1875.29308	33524.1375
1878.43152	33554.6375
1881.56792	33468.0375
1884.70227	33459.1375
1887.83457	33444.6375
1890.96482	33400.7375
1894.09304	33361.2375
1897.21921	33330.9375
1900.34335	33321.4375
1903.46544	33282.5375
1906.58551	33224.3375
1909.70353	33172.2375
1912.81953	33117.7375
1915.93349	33065.6375
1919.04543	33054.4375
1922.15534	32996.3375
1925.26322	32931.8375
1928.36908	32878.9375
1931.47292	32837.7375
1934.57473	32793.4375
1937.67453	32663.1375
1940.77232	32624.3375
1943.86808	32505.9375
1946.96184	32474.7375
1950.05358	32401.3375
1953.14331	32317.2375
1956.23103	32192.2375
1959.31675	32149.1375
1962.40046	32081.4375
1965.48217	32001.7375
1968.56188	31949.6375
1971.63959	31887.7375
1974.7153	31757.0375
1977.78901	31686.2375
1980.86073	31612.1375
1983.93046	31510.6375
1986.99819	31442.8375
1990.06394	31372.5375
1993.1277	31274.5375
1996.18947	31154.8375
1999.24925	31132.1375
2002.30706	31007.7375
2005.36288	30955.1375
2008.41672	30884.5375
2011.46859	30804.3375
2014.51848	30768.1375
2017.56639	30668.6375
2020.61233	30596.0375
2023.6563	30551.5375
2026.6983	30523.3375
2029.73833	30429.9375
2032.7764	30430.0375
2035.8125	30337.8375
2038.84664	30301.5375
2041.87881	30306.4375
2044.90903	30248.7375
2047.93729	30177.0375
2050.96359	30136.4375
2053.98794	30097.4375
2057.01034	30113.1375
2060.03078	30090.8375
2063.04927	30051.5375
2066.06582	30051.0375
2069.08042	30051.4375
2072.09307	30044.7375
2075.10378	30005.2375
2078.11255	29977.6375
2081.11938	30049.4375
2084.12426	29963.5375
2087.12722	29987.1375
2090.12824	30024.9375
2093.12732	30018.8375
2096.12447	30037.4375
2099.11969	30043.3375
2102.11299	30040.0375
2105.10435	30084.3375
2108.09379	30101.7375
2111.08131	30094.5375
2114.0669	30145.6375
2117.05057	30175.4375
2120.03233	30205.7375
2123.01216	30264.2375
2125.99008	30260.6375
2128.96609	30280.4375
2131.94018	30329.9375
2134.91236	30372.1375
2137.88263	30385.2375
2140.851	30385.1375
2143.81746	30469.7375
2146.78201	30499.7375
2149.74466	30477.6375
2152.7054	30529.7375
2155.66425	30487.8375
2158.6212	30544.4375
2161.57625	30502.0375
2164.52941	30522.3375
2167.48067	30451.6375
2170.43004	30504.4375
2173.37752	30470.5375
2176.32311	30483.4375
2179.26681	30543.1375
2182.20863	30472.5375
2185.14856	30570.7375
2188.08661	30506.9375
2191.02278	30574.3375
2193.95707	30481.0375
2196.88948	30504.6375
2199.82001	30538.7375
2202.74867	30505.1375
2205.67545	30491.3375
2208.60037	30446.0375
2211.52341	30452.7375
2214.44458	30425.7375
2217.36388	30364.4375
2220.28132	30348.1375
2223.1969	30287.9375
2226.11061	30266.3375
2229.02246	30212.0375
2231.93245	30158.7375
2234.84058	30084.5375
2237.74686	30062.4375
2240.65128	30057.1375
2243.55385	29996.9375
2246.45456	29959.9375
2249.35343	29951.2375
2252.25044	29885.2375
2255.14561	29846.6375
2258.03893	29875.8375
2260.93041	29767.1375
2263.82004	29757.9375
2266.70783	29699.5375
2269.59378	29624.1375
2272.4779	29632.3375
2275.36017	29519.4375
2278.24061	29528.8375
2281.11922	29423.6375
2283.996	29418.7375
2286.87094	29382.6375
2289.74405	29365.8375
2292.61534	29333.5375
2295.4848	29348.3375
2298.35243	29329.9375
2301.21824	29306.6375
2304.08223	29330.6375
2306.94439	29362.9375
2309.80474	29368.8375
2312.66327	29348.7375
2315.51999	29317.7375
2318.37489	29347.4375
2321.22797	29287.3375
2324.07925	29243.0375
2326.92871	29241.9375
2329.77637	29182.2375
2332.62222	29158.2375
2335.46626	29111.8375
2338.3085	29116.3375
2341.14893	29112.3375
2343.98756	29113.7375
2346.8244	29115.4375
2349.65943	29083.6375
2352.49267	29079.0375
2355.32411	29022.8375
2358.15376	29004.6375
2360.98161	28968.0375
2363.80768	28963.0375
2366.63195	28938.5375
2369.45444	28838.7375
2372.27514	28848.4375
2375.09405	28881.0375
2377.91118	28801.2375
2380.72652	28734.3375
2383.54009	28678.2375
2386.35187	28656.2375
2389.16188	28629.2375
2391.97011	28600.8375
2394.77657	28550.1375
2397.58125	28472.3375
2400.38416	28448.5375
2403.18529	28415.3375
2405.98466	28371.6375
2408.78226	28309.5375
2411.57809	28329.9375
2414.37216	28286.7375
2417.16446	28269.0375
2419.955	28209.7375
2422.74378	28228.5375
2425.5308	28177.8375
2428.31606	28179.9375
2431.09956	28151.6375
2433.88131	28120.5375
2436.6613	28088.1375
2439.43954	28092.2375
2442.21603	28112.6375
2444.99077	28075.5375
2447.76377	28081.9375
2450.53501	28044.9375
2453.30451	28037.9375
2456.07226	28056.8375
2458.83827	28024.0375
2461.60254	28007.4375
2464.36507	28005.4375
2467.12586	28006.9375
2469.88492	27952.6375
2472.64224	27970.1375
2475.39782	27960.5375
2478.15167	27956.3375
2480.90379	27935.9375
2483.65417	27955.2375
2486.40283	27942.6375
2489.14976	27969.2375
2491.89497	27910.3375
2494.63845	27948.9375
2497.3802	27869.8375
2500.12024	27915.7375
2502.85855	27850.5375
2505.59514	27847.1375
2508.33002	27856.1375
2511.06318	27840.1375
2513.79462	27823.7375
2516.52435	27774.0375
2519.25237	27773.8375
2521.97867	27757.1375
2524.70327	27740.7375
2527.42616	27713.7375
2530.14734	27668.8375
2532.86681	27705.4375
2535.58458	27679.0375
2538.30065	27625.5375
2541.01501	27621.9375
2543.72768	27518.9375
2546.43864	27546.7375
2549.14791	27531.2375
2551.85548	27472.5375
2554.56136	27360.6375
2557.26554	27426.6375
2559.96803	27388.5375
2562.66883	27373.1375
2565.36794	27343.4375
2568.06536	27373.7375
2570.7611	27306.0375
2573.45514	27270.4375
2576.14751	27287.4375
2578.83819	27257.2375
2581.52719	27225.1375
2584.21451	27170.6375
2586.90015	27197.4375
2589.58411	27121.5375
2592.2664	27104.4375
2594.94701	27027.9375
2597.62594	27068.3375
2600.30321	26979.1375
2602.9788	26916.8375
2605.65273	26891.7375
2608.32498	26911.2375
2610.99557	26913.2375
2613.66449	26903.2375
2616.33175	26845.5375
2618.99734	26836.4375
2621.66128	26813.6375
2624.32355	26774.4375
2626.98416	26770.7375
2629.64311	26754.5375
2632.30041	26790.7375
2634.95605	26709.3375
2637.61004	26703.1375
2640.26238	26584.6375
2642.91306	26615.0375
2645.56209	26619.4375
2648.20948	26567.7375
2650.85521	26542.2375
2653.4993	26564.2375
2656.14175	26525.2375
2658.78255	26587.4375
2661.42171	26598.4375
2664.05923	26616.9375
2666.6951	26594.6375
2669.32934	26606.3375
2671.96194	26595.4375
2674.59291	26626.5375
2677.22224	26597.7375
2679.84993	26599.4375
2682.476	26595.9375
2685.10043	26594.2375
2687.72324	26509.3375
2690.34441	26578.7375
2692.96396	26522.1375
2695.58188	26558.2375
2698.19818	26543.9375
2700.81285	26567.2375
2703.4259	26589.3375
2706.03733	26611.5375
2708.64714	26628.7375
2711.25533	26628.8375
2713.86191	26610.2375
2716.46687	26643.8375
2719.07021	26630.2375
2721.67194	26640.4375
2724.27206	26575.8375
2726.87057	26647.9375
2729.46747	26662.3375
2732.06276	26633.6375
2734.65644	26623.4375
2737.24852	26614.3375
2739.83899	26545.8375
2742.42786	26600.6375
2745.01513	26574.0375
2747.60079	26530.7375
2750.18486	26558.1375
2752.76733	26565.2375
2755.3482	26526.8375
2757.92747	26527.0375
2760.50515	26484.7375
2763.08123	26494.6375
2765.65573	26439.0375
2768.22863	26425.0375
2770.79994	26411.7375
2773.36967	26405.3375
2775.9378	26360.3375
2778.50435	26329.0375
2781.06932	26296.4375
2783.6327	26276.3375
2786.1945	26256.5375
2788.75471	26214.9375
2791.31335	26136.2375
2793.87041	26124.9375
2796.42589	26051.4375
2798.97979	26051.3375
2801.53212	25989.8375
2804.08288	25951.7375
2806.63206	25868.4375
2809.17967	25861.4375
2811.72571	25858.4375
2814.27018	25808.7375
2816.81308	25792.3375
2819.35442	25752.4375
2821.89419	25666.1375
2824.43239	25687.4375
2826.96904	25642.0375
2829.50412	25621.0375
2832.03763	25588.2375
2834.56959	25552.9375
2837.1	25515.3375
2839.62884	25531.0375
2842.15613	25481.9375
2844.68186	25499.2375
2847.20604	25497.5375
2849.72867	25547.3375
2852.24974	25482.7375
2854.76927	25472.3375
2857.28724	25436.0375
2859.80367	25446.3375
2862.31855	25405.4375
2864.83189	25410.9375
2867.34368	25344.6375
2869.85393	25388.6375
2872.36264	25353.0375
2874.8698	25381.0375
2877.37543	25404.5375
2879.87952	25402.9375
2882.38207	25415.9375
2884.88308	25404.2375
2887.38256	25442.8375
2889.88051	25439.3375
2892.37692	25434.6375
2894.8718	25399.7375
2897.36515	25438.2375
2899.85698	25434.0375
2902.34727	25519.0375
2904.83604	25517.4375
2907.32328	25515.5375
2909.809	25524.5375
2912.29319	25558.0375
2914.77587	25537.7375
2917.25702	25521.1375
2919.73665	25494.2375
2922.21476	25500.2375
2924.69136	25472.9375
2927.16644	25462.8375
2929.64	25430.3375
2932.11205	25407.8375
2934.58258	25332.2375
2937.05161	25348.7375
2939.51912	25378.6375
2941.98513	25391.0375
2944.44962	25332.0375
2946.91261	25288.7375
2949.37409	25276.4375
2951.83407	25326.6375
2954.29254	25254.5375
2956.74951	25203.3375
2959.20498	25177.9375
2961.65895	25181.4375
2964.11142	25176.5375
2966.56239	25121.3375
2969.01186	25066.4375
2971.45984	25026.1375
2973.90632	25038.3375
2976.35131	24956.7375
2978.7948	24928.0375
2981.23681	24906.9375
2983.67732	24836.7375
2986.11635	24805.5375
2988.55388	24728.9375
2990.98993	24702.2375
2993.4245	24688.3375
2995.85758	24598.9375
2998.28917	24604.1375
3000.71928	24552.3375
3003.14791	24548.4375
3005.57506	24503.6375
3008.00073	24456.8375
3010.42493	24457.1375
3012.84764	24428.3375
3015.26888	24379.3375
3017.68865	24386.1375
3020.10694	24366.8375
3022.52376	24328.8375
