Data from AgNPs_FTO_APTES_UA_20uM_R6G_10uM_NaF_0.1M_Addition_RamanShift__4__14-00-07-353.txt Node

Date: Fri Dec 17 14:00:07 GMT 2021
User: TCL
Spectrometer: QEP01345
Trigger mode: 4
Integration Time (sec): 7.000000E0
Scans to average: 10
Electric dark correction enabled: true
Nonlinearity correction enabled: false
Boxcar width: 0
XAxis mode: Raman Shifts
Number of Pixels in Spectrum: 1044
>>>>>Begin Spectral Data<<<<<
46.04893	-0.125
50.45542	-0.825
54.85868	-0.325
59.25871	0.275
63.6555	80.275
68.04907	82.575
72.43941	83.275
76.82654	91.875
81.21044	92.675
85.59113	94.075
89.96862	98.375
94.34289	102.875
98.71396	106.675
103.08183	108.875
107.4465	113.175
111.80798	113.475
116.16626	118.675
120.52136	120.075
124.87327	129.575
129.222	137.575
133.56755	138.075
137.90993	155.875
142.24913	170.075
146.58517	186.475
150.91804	221.175
155.24774	259.375
159.57429	322.975
163.89768	413.275
168.21792	541.975
172.53501	745.975
176.84895	1027.775
181.15975	1449.075
185.46741	2022.475
189.77193	2804.775
194.07331	3762.275
198.37157	4849.375
202.6667	6015.775
206.9587	7127.775
211.24758	8247.875
215.53334	9374.175
219.81599	10552.475
224.09553	11853.775
228.37195	13269.275
232.64527	14859.575
236.91549	16525.275
241.18261	18222.975
245.44663	19813.375
249.70755	21227.675
253.96539	22438.875
258.22014	23469.075
262.4718	24365.375
266.72039	24890.275
270.96589	25191.575
275.20832	25161.675
279.44768	24917.375
283.68397	24580.975
287.91719	24278.075
292.14735	24083.875
296.37445	24030.675
300.59849	24106.875
304.81948	24230.475
309.03742	24328.975
313.25231	24233.975
317.46415	23854.875
321.67296	23407.875
325.87872	23008.775
330.08145	22789.375
334.28114	22848.675
338.47781	23036.275
342.67145	23305.275
346.86207	23691.375
351.04966	24209.275
355.23424	24702.475
359.4158	25169.775
363.59435	25568.975
367.76989	25812.075
371.94243	25981.075
376.11196	26116.075
380.27849	26176.475
384.44203	26340.175
388.60257	26487.775
392.76012	26708.675
396.91468	26945.675
401.06626	27267.475
405.21485	27583.175
409.36047	27530.575
413.50311	27256.575
417.64277	26934.075
421.77947	26916.175
425.9132	26949.675
430.04396	27034.775
434.17176	27078.675
438.2966	27246.675
442.41849	27549.475
446.53742	28052.275
450.6534	28614.875
454.76644	29061.975
458.87653	29220.875
462.98368	29138.875
467.08789	28860.775
471.18916	28579.975
475.2875	28152.875
479.38291	27791.275
483.4754	27537.875
487.56496	27297.475
491.6516	27140.275
495.73531	27150.875
499.81612	27214.775
503.89401	27445.575
507.96899	27514.275
512.04106	27580.975
516.11023	27588.775
520.1765	27485.875
524.23987	27391.675
528.30034	27263.975
532.35792	27069.975
536.41261	26870.375
540.46441	26607.875
544.51333	26502.575
548.55936	26633.775
552.60252	26950.075
556.64279	27320.775
560.6802	27587.875
564.71473	27671.975
568.7464	27875.575
572.7752	28259.975
576.80114	28585.875
580.82422	29031.775
584.84444	29723.675
588.86181	30464.775
592.87633	30884.375
596.888	30789.175
600.89682	30416.075
604.9028	31091.075
608.90594	33587.175
612.90624	36310.275
616.90371	34736.175
620.89834	30105.975
624.89015	27983.575
628.87913	27630.275
632.86528	27703.275
636.84862	27746.675
640.82913	27462.475
644.80683	26962.975
648.78172	26592.475
652.75379	26563.675
656.72306	26841.875
660.68952	27222.675
664.65319	27161.675
668.61405	26831.175
672.57211	26733.975
676.52738	26885.475
680.47986	26826.675
684.42955	26702.275
688.37646	26644.375
692.32058	26821.875
696.26192	27106.175
700.20048	27399.275
704.13626	27486.375
708.06928	27342.175
711.99952	27160.475
715.927	27163.875
719.85171	27315.875
723.77365	27259.575
727.69284	26975.375
731.60928	26711.275
735.52295	26537.675
739.43388	26578.775
743.34206	26635.175
747.24749	26752.075
751.15017	26872.175
755.05012	27154.475
758.94733	27639.275
762.8418	28640.575
766.73354	30212.075
770.62254	31857.675
774.50882	32537.075
778.39237	31706.175
782.27321	30041.875
786.15132	28485.375
790.02671	27587.275
793.89938	27114.475
797.76935	26939.475
801.6366	26845.675
805.50115	26803.775
809.36299	26666.775
813.22213	26505.075
817.07857	26358.675
820.93231	26242.575
824.78336	26195.175
828.63172	26225.375
832.47738	26202.175
836.32036	26201.475
840.16066	26297.075
843.99827	26296.875
847.8332	26265.775
851.66546	26262.975
855.49504	26218.775
859.32195	26249.075
863.1462	26218.675
866.96777	26212.975
870.78668	26228.975
874.60293	26234.775
878.41652	26265.275
882.22745	26356.475
886.03573	26506.975
889.84136	26521.475
893.64433	26409.375
897.44466	26249.975
901.24235	26171.375
905.0374	26044.975
908.8298	25979.975
912.61957	26030.975
916.40671	26113.175
920.19121	26256.175
923.97308	26512.375
927.75233	26554.075
931.52895	26581.775
935.30295	26412.075
939.07433	26106.675
942.84309	25896.375
946.60924	25769.175
950.37278	25663.475
954.13371	25636.775
957.89203	25534.275
961.64774	25484.775
965.40086	25467.775
969.15137	25483.475
972.89929	25434.375
976.64461	25459.375
980.38733	25491.275
984.12747	25575.675
987.86502	25718.475
991.59999	25914.275
995.33237	26209.175
999.06217	26662.675
1002.78939	27148.675
1006.51404	27562.775
1010.23611	27873.175
1013.95561	28051.875
1017.67255	28066.975
1021.38692	27851.175
1025.09872	27644.275
1028.80796	27593.175
1032.51465	27880.475
1036.21877	28303.175
1039.92035	28478.675
1043.61937	28385.775
1047.31584	28051.175
1051.00976	27625.175
1054.70114	27415.375
1058.38998	27367.375
1062.07627	27503.175
1065.76003	27682.475
1069.44126	27940.675
1073.11995	28312.675
1076.79611	28692.375
1080.46974	28937.875
1084.14085	29104.375
1087.80943	29191.775
1091.47549	29298.775
1095.13903	29144.375
1098.80005	28851.475
1102.45857	28419.175
1106.11456	28100.075
1109.76805	27937.575
1113.41903	27957.375
1117.06751	28044.475
1120.71348	28237.675
1124.35696	28502.875
1127.99793	28728.875
1131.63641	28884.575
1135.2724	28709.675
1138.90589	28477.975
1142.5369	28336.875
1146.16542	28285.075
1149.79145	28266.675
1153.415	28258.575
1157.03607	28364.175
1160.65467	28807.875
1164.27079	29533.075
1167.88443	30544.875
1171.49561	31772.975
1175.10432	33409.975
1178.71056	35440.375
1182.31434	37535.075
1185.91565	38804.675
1189.51451	38938.375
1193.11091	38204.675
1196.70485	36966.775
1200.29634	35716.275
1203.88538	34633.775
1207.47197	33864.075
1211.05612	33194.875
1214.63782	32585.775
1218.21708	32082.875
1221.79391	31748.075
1225.36829	31506.675
1228.94024	31335.775
1232.50976	31079.675
1236.07685	30801.675
1239.6415	30655.575
1243.20374	30670.575
1246.76355	30882.375
1250.32093	31242.175
1253.8759	31786.975
1257.42845	32484.375
1260.97859	33172.575
1264.52631	33957.875
1268.07163	34776.975
1271.61453	35632.475
1275.15503	36387.175
1278.69312	37016.875
1282.22882	37406.175
1285.76211	37746.375
1289.29301	38279.975
1292.82151	39046.575
1296.34761	40145.775
1299.87133	41689.275
1303.39266	43662.375
1306.9116	45932.575
1310.42815	47981.875
1313.94233	49023.575
1317.45412	48644.675
1320.96354	47468.975
1324.47058	46313.875
1327.97525	45436.275
1331.47754	44852.775
1334.97747	44605.475
1338.47502	44601.875
1341.97022	44554.775
1345.46305	44473.375
1348.95352	44628.175
1352.44163	45152.975
1355.92738	46170.675
1359.41078	47992.075
1362.89183	49668.075
1366.37053	48932.175
1369.84688	45332.975
1373.32088	41114.275
1376.79254	38065.575
1380.26186	36674.375
1383.72883	36173.275
1387.19347	35848.275
1390.65578	35326.275
1394.11575	34904.375
1397.57339	34804.475
1401.0287	35012.975
1404.48168	35283.275
1407.93234	35471.075
1411.38068	35533.475
1414.82669	35186.075
1418.27039	34531.575
1421.71177	33827.675
1425.15083	33256.275
1428.58758	33047.575
1432.02203	33329.575
1435.45416	33983.075
1438.88399	34557.875
1442.31151	34918.175
1445.73673	35028.075
1449.15965	35018.775
1452.58027	34922.475
1455.9986	34819.975
1459.41463	34968.075
1462.82837	35399.375
1466.23982	36011.475
1469.64898	36591.875
1473.05586	36922.775
1476.46045	37111.175
1479.86276	37009.275
1483.26279	36934.775
1486.66054	37055.775
1490.05602	37408.175
1493.44922	37832.775
1496.84016	38418.875
1500.22882	39294.175
1503.61521	40689.475
1506.99934	42273.275
1510.38121	43492.675
1513.76081	43558.875
1517.13816	42277.675
1520.51324	40203.375
1523.88607	38354.175
1527.25665	37322.275
1530.62498	36728.775
1533.99105	36537.075
1537.35488	36288.075
1540.71647	35943.175
1544.07581	35476.575
1547.4329	35097.475
1550.78776	34759.375
1554.14038	34487.575
1557.49077	34341.375
1560.83892	34231.275
1564.18484	34264.875
1567.52853	34441.275
1570.86999	34768.275
1574.20922	35116.975
1577.54624	35371.175
1580.88103	35221.675
1584.2136	35008.675
1587.54395	35319.175
1590.87208	36385.975
1594.19801	37997.975
1597.52172	39776.275
1600.84321	40544.475
1604.16251	39616.175
1607.47959	37609.575
1610.79447	35359.275
1614.10715	33161.375
1617.41763	31286.375
1620.7259	30006.775
1624.03199	29320.075
1627.33587	29259.775
1630.63757	29734.375
1633.93707	30928.175
1637.23439	32846.075
1640.52951	35660.275
1643.82246	38921.975
1647.11321	41580.775
1650.40179	42061.975
1653.68819	39813.875
1656.97241	35894.575
1660.25446	32018.375
1663.53433	29230.575
1666.81203	27477.475
1670.08756	26396.175
1673.36092	25753.275
1676.63211	25306.175
1679.90115	24959.175
1683.16801	24693.275
1686.43272	24545.975
1689.69527	24412.075
1692.95567	24274.275
1696.2139	24226.075
1699.46999	24155.175
1702.72392	24088.175
1705.97571	24069.975
1709.22535	24012.475
1712.47284	23990.675
1715.71819	23961.575
1718.96139	23937.675
1722.20246	23875.275
1725.44139	23829.775
1728.67818	23748.475
1731.91284	23597.875
1735.14537	23534.375
1738.37576	23451.675
1741.60403	23381.175
1744.83017	23280.675
1748.05418	23251.675
1751.27607	23213.075
1754.49584	23188.575
1757.71349	23171.575
1760.92903	23152.275
1764.14244	23162.875
1767.35375	23179.875
1770.56294	23136.075
1773.77002	23115.075
1776.97499	23075.775
1780.17785	23038.275
1783.37861	23062.875
1786.57727	23000.175
1789.77382	22918.375
1792.96828	22892.075
1796.16064	22874.675
1799.3509	22848.175
1802.53907	22794.275
1805.72514	22757.575
1808.90913	22713.875
1812.09102	22693.075
1815.27083	22670.975
1818.44856	22624.575
1821.6242	22587.175
1824.79776	22540.475
1827.96924	22532.775
1831.13864	22533.675
1834.30597	22557.675
1837.47122	22551.075
1840.6344	22537.175
1843.7955	22554.075
1846.95454	22526.975
1850.11151	22508.975
1853.26642	22484.275
1856.41926	22493.775
1859.57004	22490.975
1862.71876	22436.475
1865.86542	22419.675
1869.01003	22395.675
1872.15258	22349.075
1875.29308	22363.775
1878.43152	22336.875
1881.56792	22333.875
1884.70227	22307.275
1887.83457	22284.275
1890.96482	22263.975
1894.09304	22237.675
1897.21921	22222.375
1900.34335	22209.275
1903.46544	22197.375
1906.58551	22167.575
1909.70353	22111.975
1912.81953	22096.475
1915.93349	22049.275
1919.04543	22022.675
1922.15534	21995.775
1925.26322	21931.675
1928.36908	21907.275
1931.47292	21883.575
1934.57473	21834.575
1937.67453	21810.775
1940.77232	21736.175
1943.86808	21669.175
1946.96184	21655.475
1950.05358	21562.175
1953.14331	21516.875
1956.23103	21447.275
1959.31675	21411.175
1962.40046	21364.775
1965.48217	21290.175
1968.56188	21258.675
1971.63959	21194.675
1974.7153	21152.475
1977.78901	21078.275
1980.86073	21024.375
1983.93046	20965.075
1986.99819	20933.375
1990.06394	20877.575
1993.1277	20784.475
1996.18947	20702.675
1999.24925	20653.475
2002.30706	20619.175
2005.36288	20569.475
2008.41672	20532.975
2011.46859	20470.775
2014.51848	20432.375
2017.56639	20371.775
2020.61233	20314.175
2023.6563	20290.775
2026.6983	20242.575
2029.73833	20225.175
2032.7764	20179.575
2035.8125	20134.575
2038.84664	20106.175
2041.87881	20096.375
2044.90903	20054.075
2047.93729	20001.875
2050.96359	19979.075
2053.98794	19974.675
2057.01034	19936.075
2060.03078	19962.475
2063.04927	19907.375
2066.06582	19913.575
2069.08042	19918.375
2072.09307	19872.675
2075.10378	19878.775
2078.11255	19844.475
2081.11938	19871.075
2084.12426	19846.975
2087.12722	19810.375
2090.12824	19853.975
2093.12732	19838.375
2096.12447	19876.275
2099.11969	19888.675
2102.11299	19839.975
2105.10435	19840.775
2108.09379	19891.275
2111.08131	19893.775
2114.0669	19921.575
2117.05057	19922.875
2120.03233	19918.675
2123.01216	19951.675
2125.99008	19979.475
2128.96609	19982.375
2131.94018	20037.075
2134.91236	20045.375
2137.88263	20038.575
2140.851	20060.575
2143.81746	20106.775
2146.78201	20102.175
2149.74466	20118.375
2152.7054	20134.375
2155.66425	20102.975
2158.6212	20088.375
2161.57625	20079.075
2164.52941	20160.575
2167.48067	20113.175
2170.43004	20069.575
2173.37752	20066.175
2176.32311	20075.075
2179.26681	20097.475
2182.20863	20064.775
2185.14856	20082.675
2188.08661	20081.175
2191.02278	20087.075
2193.95707	20045.575
2196.88948	20099.675
2199.82001	20107.175
2202.74867	20024.475
2205.67545	20008.675
2208.60037	20019.575
2211.52341	19967.275
2214.44458	19992.775
2217.36388	19939.275
2220.28132	19919.475
2223.1969	19868.375
2226.11061	19848.075
2229.02246	19812.975
2231.93245	19809.275
2234.84058	19739.575
2237.74686	19715.575
2240.65128	19708.475
2243.55385	19682.175
2246.45456	19672.575
2249.35343	19657.075
2252.25044	19592.475
2255.14561	19566.775
2258.03893	19578.575
2260.93041	19565.875
2263.82004	19500.575
2266.70783	19434.675
2269.59378	19387.975
2272.4779	19367.675
2275.36017	19325.475
2278.24061	19347.775
2281.11922	19292.975
2283.996	19215.675
2286.87094	19239.275
2289.74405	19205.475
2292.61534	19196.975
2295.4848	19175.975
2298.35243	19187.975
2301.21824	19166.575
2304.08223	19211.475
2306.94439	19162.975
2309.80474	19158.175
2312.66327	19179.775
2315.51999	19142.875
2318.37489	19152.975
2321.22797	19111.075
2324.07925	19095.375
2326.92871	19093.975
2329.77637	19071.575
2332.62222	19040.575
2335.46626	19001.775
2338.3085	19000.575
2341.14893	18995.375
2343.98756	18935.775
2346.8244	18957.975
2349.65943	18949.675
2352.49267	18914.475
2355.32411	18963.075
2358.15376	18926.475
2360.98161	18914.175
2363.80768	18885.675
2366.63195	18871.775
2369.45444	18850.375
2372.27514	18803.775
2375.09405	18819.775
2377.91118	18759.275
2380.72652	18731.875
2383.54009	18714.775
2386.35187	18680.875
2389.16188	18680.975
2391.97011	18603.975
2394.77657	18589.075
2397.58125	18572.475
2400.38416	18545.775
2403.18529	18515.975
2405.98466	18493.175
2408.78226	18444.675
2411.57809	18436.275
2414.37216	18426.775
2417.16446	18425.175
2419.955	18370.175
2422.74378	18365.975
2425.5308	18355.375
2428.31606	18318.475
2431.09956	18325.575
2433.88131	18287.575
2436.6613	18290.875
2439.43954	18330.175
2442.21603	18278.475
2444.99077	18270.275
2447.76377	18286.475
2450.53501	18252.575
2453.30451	18264.575
2456.07226	18247.075
2458.83827	18195.175
2461.60254	18218.275
2464.36507	18218.675
2467.12586	18217.775
2469.88492	18212.775
2472.64224	18206.475
2475.39782	18202.975
2478.15167	18202.375
2480.90379	18167.875
2483.65417	18182.875
2486.40283	18190.175
2489.14976	18170.975
2491.89497	18169.875
2494.63845	18173.775
2497.3802	18164.275
2500.12024	18149.975
2502.85855	18113.975
2505.59514	18082.175
2508.33002	18108.575
2511.06318	18126.275
2513.79462	18060.775
2516.52435	18064.375
2519.25237	18030.575
2521.97867	18036.875
2524.70327	17982.175
2527.42616	17976.475
2530.14734	17991.375
2532.86681	17932.475
2535.58458	17970.575
2538.30065	17955.875
2541.01501	17924.975
2543.72768	17869.275
2546.43864	17892.575
2549.14791	17861.675
2551.85548	17841.975
2554.56136	17807.975
2557.26554	17790.475
2559.96803	17794.075
2562.66883	17760.175
2565.36794	17734.775
2568.06536	17725.175
2570.7611	17728.075
2573.45514	17713.875
2576.14751	17687.075
2578.83819	17660.275
2581.52719	17628.275
2584.21451	17633.275
2586.90015	17592.975
2589.58411	17559.675
2592.2664	17571.375
2594.94701	17509.975
2597.62594	17515.275
2600.30321	17469.275
2602.9788	17461.075
2605.65273	17441.375
2608.32498	17448.675
2610.99557	17440.675
2613.66449	17436.075
2616.33175	17394.975
2618.99734	17370.475
2621.66128	17367.775
2624.32355	17360.275
2626.98416	17347.075
2629.64311	17339.975
2632.30041	17336.475
2634.95605	17313.275
2637.61004	17246.675
2640.26238	17249.475
2642.91306	17262.575
2645.56209	17261.175
2648.20948	17233.175
2650.85521	17218.075
2653.4993	17243.775
2656.14175	17201.775
2658.78255	17239.975
2661.42171	17244.475
2664.05923	17236.875
2666.6951	17254.875
2669.32934	17216.075
2671.96194	17241.975
2674.59291	17247.675
2677.22224	17218.775
2679.84993	17225.675
2682.476	17222.075
2685.10043	17213.375
2687.72324	17226.075
2690.34441	17207.175
2692.96396	17188.875
2695.58188	17192.775
2698.19818	17190.775
2700.81285	17217.375
2703.4259	17223.775
2706.03733	17237.575
2708.64714	17258.875
2711.25533	17252.875
2713.86191	17256.175
2716.46687	17272.875
2719.07021	17261.475
2721.67194	17255.875
2724.27206	17219.075
2726.87057	17231.175
2729.46747	17237.475
2732.06276	17261.875
2734.65644	17246.775
2737.24852	17237.375
2739.83899	17210.175
2742.42786	17253.975
2745.01513	17210.975
2747.60079	17179.375
2750.18486	17178.675
2752.76733	17175.875
2755.3482	17162.875
2757.92747	17191.275
2760.50515	17135.675
2763.08123	17114.775
2765.65573	17103.175
2768.22863	17087.275
2770.79994	17090.775
2773.36967	17074.175
2775.9378	17030.475
2778.50435	17014.575
2781.06932	16996.775
2783.6327	17006.975
2786.1945	16994.075
2788.75471	16961.175
2791.31335	16917.975
2793.87041	16860.675
2796.42589	16832.675
2798.97979	16853.375
2801.53212	16786.775
2804.08288	16795.075
2806.63206	16735.275
2809.17967	16726.775
2811.72571	16686.875
2814.27018	16712.675
2816.81308	16675.275
2819.35442	16626.175
2821.89419	16592.575
2824.43239	16587.275
2826.96904	16569.275
2829.50412	16576.675
2832.03763	16538.575
2834.56959	16510.475
2837.1	16502.775
2839.62884	16486.175
2842.15613	16493.375
2844.68186	16479.275
2847.20604	16495.775
2849.72867	16474.575
2852.24974	16468.875
2854.76927	16453.175
2857.28724	16424.175
2859.80367	16408.775
2862.31855	16388.075
2864.83189	16403.775
2867.34368	16369.375
2869.85393	16370.775
2872.36264	16387.075
2874.8698	16382.175
2877.37543	16360.275
2879.87952	16384.275
2882.38207	16389.175
2884.88308	16388.275
2887.38256	16365.075
2889.88051	16368.075
2892.37692	16386.375
2894.8718	16357.875
2897.36515	16411.575
2899.85698	16391.375
2902.34727	16405.675
2904.83604	16413.375
2907.32328	16442.575
2909.809	16434.275
2912.29319	16449.075
2914.77587	16415.675
2917.25702	16424.975
2919.73665	16386.475
2922.21476	16411.375
2924.69136	16371.175
2927.16644	16419.875
2929.64	16373.075
2932.11205	16358.875
2934.58258	16301.575
2937.05161	16307.075
2939.51912	16305.275
2941.98513	16300.075
2944.44962	16273.875
2946.91261	16242.275
2949.37409	16296.175
2951.83407	16259.675
2954.29254	16231.875
2956.74951	16241.375
2959.20498	16233.875
2961.65895	16193.775
2964.11142	16235.175
2966.56239	16165.375
2969.01186	16172.375
2971.45984	16117.375
2973.90632	16103.175
2976.35131	16062.975
2978.7948	16063.975
2981.23681	16015.475
2983.67732	15986.175
2986.11635	15968.075
2988.55388	15914.575
2990.98993	15915.175
2993.4245	15897.475
2995.85758	15840.775
2998.28917	15803.575
3000.71928	15782.375
3003.14791	15793.575
3005.57506	15774.575
3008.00073	15714.775
3010.42493	15731.275
3012.84764	15708.275
3015.26888	15743.975
3017.68865	15675.375
3020.10694	15673.075
3022.52376	15623.775
3024.9391	15592.575
3027.35298	15580.175
3029.76539	15555.175
3032.17632	15548.475
3034.5858	15509.975
3036.9938	15508.775
3039.40034	15482.475
3041.80542	15482.975
3044.20903	15448.875
3046.61118	15451.375
3049.01187	15402.975
3051.4111	15393.875
3053.80888	15348.675
3056.20519	15312.675
3058.60005	15309.775
3060.99345	15326.875
3063.3854	15284.775
3065.7759	15238.375
3068.16494	15218.775
3070.55254	15148.475
3072.93868	15162.875
3075.32338	15111.775
3077.70662	15130.675
3080.08842	15099.375
3082.46878	15087.175
3084.84769	15043.975
3087.22515	15070.375
3089.60118	15059.675
3091.97576	15038.375
3094.3489	15024.475
3096.72061	15008.375
3099.09087	15014.575
3101.4597	14997.175
3103.82709	14976.175
3106.19305	14998.075
3108.55757	14962.075
3110.92066	14923.675
3113.28232	14906.575
3115.64255	14879.775
3118.00134	14852.075
3120.35871	14832.975
3122.71466	14801.475
3125.06917	14789.075
3127.42226	14741.475
