Data from AgNPs_FTO_APTES_UA_20uM_R6G_10uM_NaF_0.1M_Addition_RamanShift__16__14-14-07-369.txt Node

Date: Fri Dec 17 14:14:07 GMT 2021
User: TCL
Spectrometer: QEP01345
Trigger mode: 4
Integration Time (sec): 7.000000E0
Scans to average: 10
Electric dark correction enabled: true
Nonlinearity correction enabled: false
Boxcar width: 0
XAxis mode: Raman Shifts
Number of Pixels in Spectrum: 1044
>>>>>Begin Spectral Data<<<<<
46.04893	-0.1
50.45542	-0.6
54.85868	-2
59.25871	-0.2
63.6555	73.8
68.04907	76.4
72.43941	81.8
76.82654	85.2
81.21044	87.3
85.59113	88.6
89.96862	93.8
94.34289	98.2
98.71396	98.9
103.08183	101.8
107.4465	109.2
111.80798	109.2
116.16626	115.2
120.52136	114.3
124.87327	120.3
129.222	129.7
133.56755	135.7
137.90993	147.8
142.24913	163.7
146.58517	176.8
150.91804	211.9
155.24774	245.2
159.57429	311
163.89768	393.5
168.21792	516.7
172.53501	712.1
176.84895	978.3
181.15975	1378.3
185.46741	1952.2
189.77193	2680.1
194.07331	3597.9
198.37157	4652.4
202.6667	5746.3
206.9587	6828
211.24758	7883.2
215.53334	8938.6
219.81599	10066.8
224.09553	11332.3
228.37195	12691.5
232.64527	14190.5
236.91549	15866.6
241.18261	17502.7
245.44663	19035.7
249.70755	20400.3
253.96539	21556.5
258.22014	22517.7
262.4718	23368.6
266.72039	23960.7
270.96589	24225.8
275.20832	24310.6
279.44768	24051.6
283.68397	23716.9
287.91719	23439.4
292.14735	23301.1
296.37445	23299.5
300.59849	23356.9
304.81948	23510.9
309.03742	23518.9
313.25231	23313.6
317.46415	22824.7
321.67296	22221.1
325.87872	21734.3
330.08145	21531.4
334.28114	21522.6
338.47781	21689
342.67145	22011.5
346.86207	22419.5
351.04966	22887.5
355.23424	23431.8
359.4158	23929
363.59435	24297
367.76989	24553
371.94243	24741.6
376.11196	24846.3
380.27849	24962.6
384.44203	25110.9
388.60257	25251.2
392.76012	25368.7
396.91468	25578.1
401.06626	25905.2
405.21485	26190.1
409.36047	26077.4
413.50311	25621.5
417.64277	25246.2
421.77947	25049.2
425.9132	25021.4
430.04396	25087.6
434.17176	25140.8
438.2966	25344.9
442.41849	25642.8
446.53742	26095.1
450.6534	26613
454.76644	27080.4
458.87653	27246
462.98368	27207.5
467.08789	27038.9
471.18916	26725.6
475.2875	26444
479.38291	26149.4
483.4754	25939.9
487.56496	25702.9
491.6516	25477.7
495.73531	25394
499.81612	25364.4
503.89401	25519.2
507.96899	25675.6
512.04106	25786.1
516.11023	25789.2
520.1765	25820.9
524.23987	25708.5
528.30034	25559.6
532.35792	25394.3
536.41261	25138.1
540.46441	24889.8
544.51333	24834.2
548.55936	24982.5
552.60252	25260.1
556.64279	25622.1
560.6802	25828.5
564.71473	25930
568.7464	26100
572.7752	26447.3
576.80114	26583.8
580.82422	26780
584.84444	27039.3
588.86181	27193.3
592.87633	27367.7
596.888	27431.9
600.89682	27678
604.9028	28882.7
608.90594	31775
612.90624	34900.5
616.90371	33416.2
620.89834	28379.6
624.89015	26045.2
628.87913	25673.3
632.86528	25777.9
636.84862	25767.9
640.82913	25548.8
644.80683	25066.4
648.78172	24578.5
652.75379	24532.7
656.72306	24793.6
660.68952	25210.8
664.65319	25094.1
668.61405	24725.2
672.57211	24611.9
676.52738	24683.9
680.47986	24678.3
684.42955	24594.5
688.37646	24474
692.32058	24572.9
696.26192	24737
700.20048	24924.9
704.13626	24997.4
708.06928	24954.6
711.99952	24816.9
715.927	24735
719.85171	24781.3
723.77365	24720.8
727.69284	24590
731.60928	24397.5
735.52295	24316.8
739.43388	24337
743.34206	24430.5
747.24749	24465.8
751.15017	24550.3
755.05012	24738.5
758.94733	25273.6
762.8418	26350.4
766.73354	28097.1
770.62254	30060
774.50882	30947.6
778.39237	29979.5
782.27321	27965.4
786.15132	26189.1
790.02671	25095.1
793.89938	24536.3
797.76935	24332
801.6366	24242.5
805.50115	24225.8
809.36299	24100.8
813.22213	23892.2
817.07857	23785.3
820.93231	23738.3
824.78336	23661.5
828.63172	23698.2
832.47738	23659.4
836.32036	23688.2
840.16066	23725.8
843.99827	23769.2
847.8332	23710.5
851.66546	23656.1
855.49504	23634.4
859.32195	23656.8
863.1462	23653.8
866.96777	23604.3
870.78668	23589.4
874.60293	23595.9
878.41652	23618.6
882.22745	23651.3
886.03573	23697.9
889.84136	23734.1
893.64433	23681.7
897.44466	23552.7
901.24235	23457
905.0374	23341.8
908.8298	23292.5
912.61957	23247.9
916.40671	23346.6
920.19121	23511.5
923.97308	23672.3
927.75233	23793.8
931.52895	23806.1
935.30295	23649.3
939.07433	23336
942.84309	23041.5
946.60924	22928.1
950.37278	22855.3
954.13371	22748.1
957.89203	22636.4
961.64774	22577.2
965.40086	22531.7
969.15137	22444.3
972.89929	22420.7
976.64461	22409
980.38733	22426.8
984.12747	22514.3
987.86502	22651
991.59999	22839
995.33237	23125.3
999.06217	23573.6
1002.78939	24057.9
1006.51404	24403.3
1010.23611	24571
1013.95561	24751.2
1017.67255	24765
1021.38692	24612.8
1025.09872	24413.6
1028.80796	24434.2
1032.51465	24823.3
1036.21877	25196.6
1039.92035	25285
1043.61937	25051
1047.31584	24708.6
1051.00976	24356.2
1054.70114	24176.6
1058.38998	24161.1
1062.07627	24309.4
1065.76003	24397.2
1069.44126	24584
1073.11995	24859.7
1076.79611	25121.9
1080.46974	25301.3
1084.14085	25425.7
1087.80943	25578.3
1091.47549	25701.4
1095.13903	25631.3
1098.80005	25305
1102.45857	24958.9
1106.11456	24689.3
1109.76805	24626.8
1113.41903	24721.6
1117.06751	24874.3
1120.71348	25129
1124.35696	25400.3
1127.99793	25659.7
1131.63641	25880.4
1135.2724	25687.1
1138.90589	25389
1142.5369	25161.1
1146.16542	24987.2
1149.79145	24885.3
1153.415	24871.3
1157.03607	25036.4
1160.65467	25398
1164.27079	26062.6
1167.88443	27045.6
1171.49561	28283
1175.10432	29979
1178.71056	32216.6
1182.31434	34379.8
1185.91565	35531.3
1189.51451	35608.2
1193.11091	34650.3
1196.70485	33231.3
1200.29634	31860.5
1203.88538	30768.9
1207.47197	29715.5
1211.05612	28971.9
1214.63782	28427.3
1218.21708	28136.8
1221.79391	28034.8
1225.36829	28038.6
1228.94024	27906.6
1232.50976	27632.8
1236.07685	27425.5
1239.6415	27307.7
1243.20374	27319
1246.76355	27447.1
1250.32093	27767.3
1253.8759	28224.8
1257.42845	28820.1
1260.97859	29465
1264.52631	30051.5
1268.07163	30805.1
1271.61453	31545.4
1275.15503	32276.3
1278.69312	32967.9
1282.22882	33402.6
1285.76211	33765.2
1289.29301	34123.9
1292.82151	34727.8
1296.34761	35563.3
1299.87133	36848.3
1303.39266	38515.2
1306.9116	40737.2
1310.42815	43046.6
1313.94233	44459.5
1317.45412	44466.7
1320.96354	43464.1
1324.47058	42367.1
1327.97525	41261.9
1331.47754	40427.2
1334.97747	40147.1
1338.47502	40215.1
1341.97022	40431.7
1345.46305	40607
1348.95352	40812.3
1352.44163	41186
1355.92738	42161.7
1359.41078	44082
1362.89183	45966.5
1366.37053	45266.2
1369.84688	41536.4
1373.32088	37215.5
1376.79254	34262.7
1380.26186	32780.2
1383.72883	32197.4
1387.19347	31777.8
1390.65578	31258
1394.11575	30823
1397.57339	30810.1
1401.0287	31019.1
1404.48168	31273.4
1407.93234	31462.9
1411.38068	31451.9
1414.82669	31156.3
1418.27039	30568.3
1421.71177	29868.4
1425.15083	29293.4
1428.58758	28997.2
1432.02203	29035.2
1435.45416	29417.9
1438.88399	29905.4
1442.31151	30280.9
1445.73673	30527.1
1449.15965	30783.7
1452.58027	30937.8
1455.9986	30999.1
1459.41463	31281.6
1462.82837	31710
1466.23982	32335.7
1469.64898	32812.3
1473.05586	33200
1476.46045	33315.2
1479.86276	33192.4
1483.26279	33033.9
1486.66054	33030.2
1490.05602	33180.8
1493.44922	33598.4
1496.84016	34158.8
1500.22882	35215.7
1503.61521	36901.2
1506.99934	38844
1510.38121	40442.1
1513.76081	40842.2
1517.13816	39512.7
1520.51324	37233.8
1523.88607	35085.7
1527.25665	33677.5
1530.62498	32909.5
1533.99105	32437.8
1537.35488	32182.5
1540.71647	31993.8
1544.07581	31720.2
1547.4329	31505.9
1550.78776	31255.3
1554.14038	31129.9
1557.49077	31021.7
1560.83892	31105.6
1564.18484	31139.2
1567.52853	31313
1570.86999	31608.8
1574.20922	31914.3
1577.54624	32017.3
1580.88103	31697.6
1584.2136	31221.1
1587.54395	31196.8
1590.87208	31835.7
1594.19801	33222.1
1597.52172	34855.2
1600.84321	35641.4
1604.16251	34936.9
1607.47959	33202.6
1610.79447	31310.2
1614.10715	29415.2
1617.41763	27732.5
1620.7259	26512.4
1624.03199	25829.1
1627.33587	25646.3
1630.63757	26059.7
1633.93707	27045.8
1637.23439	28707.4
1640.52951	31027.6
1643.82246	33677
1647.11321	35917.1
1650.40179	36631.9
1653.68819	35098.1
1656.97241	31852.2
1660.25446	28355.4
1663.53433	25717.1
1666.81203	24040.7
1670.08756	22929.7
1673.36092	22292.7
1676.63211	21793.6
1679.90115	21443.4
1683.16801	21199.4
1686.43272	20991.4
1689.69527	20855.6
1692.95567	20743.9
1696.2139	20668.5
1699.46999	20628.6
1702.72392	20559.7
1705.97571	20504.8
1709.22535	20476.9
1712.47284	20421.3
1715.71819	20421.1
1718.96139	20376.5
1722.20246	20305.6
1725.44139	20248.3
1728.67818	20141.2
1731.91284	20057.6
1735.14537	19927.5
1738.37576	19873.2
1741.60403	19820.7
1744.83017	19751.7
1748.05418	19697.5
1751.27607	19683.2
1754.49584	19646.4
1757.71349	19639.6
1760.92903	19623.8
1764.14244	19599.9
1767.35375	19590.4
1770.56294	19592.7
1773.77002	19531.9
1776.97499	19502.8
1780.17785	19436.7
1783.37861	19431.2
1786.57727	19457.9
1789.77382	19368
1792.96828	19334.4
1796.16064	19306.5
1799.3509	19280.4
1802.53907	19242.6
1805.72514	19195
1808.90913	19171.8
1812.09102	19110.7
1815.27083	19067.4
1818.44856	19051.6
1821.6242	19051.7
1824.79776	18967.7
1827.96924	18993.1
1831.13864	18966.6
1834.30597	18981.6
1837.47122	18972.3
1840.6344	18956.6
1843.7955	18954.9
1846.95454	18938
1850.11151	18923.2
1853.26642	18927.2
1856.41926	18930.1
1859.57004	18915
1862.71876	18874.8
1865.86542	18878.8
1869.01003	18840.3
1872.15258	18825.3
1875.29308	18808.2
1878.43152	18770.3
1881.56792	18787.3
1884.70227	18773.1
1887.83457	18757.3
1890.96482	18772.2
1894.09304	18714.2
1897.21921	18729
1900.34335	18697.1
1903.46544	18665.4
1906.58551	18632.4
1909.70353	18614.3
1912.81953	18585.9
1915.93349	18570.2
1919.04543	18490.9
1922.15534	18485.2
1925.26322	18439.4
1928.36908	18397.7
1931.47292	18365.3
1934.57473	18339.2
1937.67453	18268.3
1940.77232	18256.1
1943.86808	18177.3
1946.96184	18122.2
1950.05358	18068.1
1953.14331	18012.9
1956.23103	17994.5
1959.31675	17927
1962.40046	17897.4
1965.48217	17847.2
1968.56188	17799.4
1971.63959	17719.2
1974.7153	17709.9
1977.78901	17645.2
1980.86073	17574.3
1983.93046	17544.7
1986.99819	17474.8
1990.06394	17452.1
1993.1277	17346.2
1996.18947	17313.7
1999.24925	17290.6
2002.30706	17240.7
2005.36288	17183.3
2008.41672	17188.2
2011.46859	17117.3
2014.51848	17039.9
2017.56639	17036
2020.61233	16973.4
2023.6563	16909.5
2026.6983	16876.1
2029.73833	16847.1
2032.7764	16850.5
2035.8125	16773.7
2038.84664	16791.2
2041.87881	16742.2
2044.90903	16708.2
2047.93729	16686.4
2050.96359	16645.9
2053.98794	16635.5
2057.01034	16629.8
2060.03078	16624.5
2063.04927	16576.8
2066.06582	16588.3
2069.08042	16588.6
2072.09307	16575.3
2075.10378	16549.2
2078.11255	16521.5
2081.11938	16542.3
2084.12426	16520.3
2087.12722	16525.6
2090.12824	16492
2093.12732	16512.6
2096.12447	16539.7
2099.11969	16523.2
2102.11299	16533.9
2105.10435	16513.7
2108.09379	16547
2111.08131	16572.2
2114.0669	16570.6
2117.05057	16575
2120.03233	16583.6
2123.01216	16585.3
2125.99008	16608.3
2128.96609	16633.2
2131.94018	16628.8
2134.91236	16635.2
2137.88263	16674.2
2140.851	16666
2143.81746	16724.4
2146.78201	16712.4
2149.74466	16704.6
2152.7054	16688.9
2155.66425	16702.3
2158.6212	16698.7
2161.57625	16699
2164.52941	16677.4
2167.48067	16700.1
2170.43004	16670.8
2173.37752	16696.4
2176.32311	16655.3
2179.26681	16676.8
2182.20863	16652.5
2185.14856	16681.9
2188.08661	16628.4
2191.02278	16664.9
2193.95707	16647.7
2196.88948	16652.8
2199.82001	16651
2202.74867	16642.9
2205.67545	16635.1
2208.60037	16598.7
2211.52341	16581
2214.44458	16580.3
2217.36388	16523.6
2220.28132	16536.9
2223.1969	16493.8
2226.11061	16446.1
2229.02246	16426.3
2231.93245	16407.9
2234.84058	16379.4
2237.74686	16318.5
2240.65128	16341.6
2243.55385	16320.6
2246.45456	16276.7
2249.35343	16274
2252.25044	16200.3
2255.14561	16209.6
2258.03893	16198.1
2260.93041	16173.1
2263.82004	16129.5
2266.70783	16112.8
2269.59378	16068.1
2272.4779	16043.2
2275.36017	15998.4
2278.24061	15968.5
2281.11922	15955.6
2283.996	15898.7
2286.87094	15904.1
2289.74405	15877.1
2292.61534	15876.4
2295.4848	15834.6
2298.35243	15824.8
2301.21824	15822.9
2304.08223	15833.6
2306.94439	15827.4
2309.80474	15825.4
2312.66327	15855.8
2315.51999	15847.1
2318.37489	15811.3
2321.22797	15785.3
2324.07925	15783.3
2326.92871	15753.9
2329.77637	15743
2332.62222	15722.9
2335.46626	15705.4
2338.3085	15695.6
2341.14893	15713.1
2343.98756	15686.1
2346.8244	15678.8
2349.65943	15677.5
2352.49267	15689.8
2355.32411	15669.5
2358.15376	15651.5
2360.98161	15641.5
2363.80768	15644.5
2366.63195	15632.6
2369.45444	15571.8
2372.27514	15586.1
2375.09405	15541.2
2377.91118	15528.3
2380.72652	15470.5
2383.54009	15469.7
2386.35187	15415
2389.16188	15403.9
2391.97011	15368.6
2394.77657	15334.1
2397.58125	15328.1
2400.38416	15281.4
2403.18529	15272.1
2405.98466	15254.2
2408.78226	15209.3
2411.57809	15165.5
2414.37216	15166.1
2417.16446	15180.8
2419.955	15147.8
2422.74378	15116.8
2425.5308	15157.7
2428.31606	15106.4
2431.09956	15106.9
2433.88131	15095.6
2436.6613	15110.9
2439.43954	15054.2
2442.21603	15037.4
2444.99077	15039.4
2447.76377	15045.2
2450.53501	15024.2
2453.30451	15040.8
2456.07226	15006
2458.83827	15047.5
2461.60254	15008.7
2464.36507	15009.3
2467.12586	15006.4
2469.88492	14990.5
2472.64224	14989
2475.39782	14966.7
2478.15167	15011.2
2480.90379	14973.1
2483.65417	15004.6
2486.40283	14968.7
2489.14976	14970.3
2491.89497	14947.6
2494.63845	14969.9
2497.3802	14964.6
2500.12024	14935.6
2502.85855	14924.9
2505.59514	14930.6
2508.33002	14915.7
2511.06318	14884
2513.79462	14857.9
2516.52435	14836.5
2519.25237	14839.2
2521.97867	14803.2
2524.70327	14812.3
2527.42616	14783.1
2530.14734	14769
2532.86681	14773.4
2535.58458	14737.2
2538.30065	14728
2541.01501	14753.6
2543.72768	14709.1
2546.43864	14719.5
2549.14791	14700.3
2551.85548	14679.8
2554.56136	14636.2
2557.26554	14603.5
2559.96803	14606.9
2562.66883	14579
2565.36794	14601.7
2568.06536	14564.9
2570.7611	14565.1
2573.45514	14529.2
2576.14751	14543.1
2578.83819	14495.3
2581.52719	14503.2
2584.21451	14454.9
2586.90015	14473.4
2589.58411	14439.5
2592.2664	14423.7
2594.94701	14402.1
2597.62594	14380.3
2600.30321	14356.4
2602.9788	14362.6
2605.65273	14339.3
2608.32498	14306
2610.99557	14322.3
2613.66449	14297.2
2616.33175	14292.8
2618.99734	14289.3
2621.66128	14248.3
2624.32355	14265.3
2626.98416	14253.4
2629.64311	14268.5
2632.30041	14241.1
2634.95605	14243.8
2637.61004	14208.2
2640.26238	14199.8
2642.91306	14172.5
2645.56209	14179.1
2648.20948	14176.3
2650.85521	14151.3
2653.4993	14147
2656.14175	14145.3
2658.78255	14135.6
2661.42171	14159.3
2664.05923	14193.8
2666.6951	14169.1
2669.32934	14157.2
2671.96194	14172.7
2674.59291	14164.5
2677.22224	14172
2679.84993	14152.5
2682.476	14138.7
2685.10043	14163.5
2687.72324	14121.6
2690.34441	14139.6
2692.96396	14106.7
2695.58188	14136.8
2698.19818	14116.2
2700.81285	14104.9
2703.4259	14083.2
2706.03733	14139.4
2708.64714	14165.2
2711.25533	14134.4
2713.86191	14121.4
2716.46687	14153.6
2719.07021	14135.5
2721.67194	14128.2
2724.27206	14120.1
2726.87057	14132.5
2729.46747	14137.1
2732.06276	14142.9
2734.65644	14124
2737.24852	14116.7
2739.83899	14080.2
2742.42786	14103.9
2745.01513	14067.4
2747.60079	14091
2750.18486	14063.3
2752.76733	14041.7
2755.3482	14043.8
2757.92747	14062.1
2760.50515	14020
2763.08123	14010.1
2765.65573	14003.6
2768.22863	13991.2
2770.79994	13998.8
2773.36967	13996.1
2775.9378	13931.8
2778.50435	13941.6
2781.06932	13916.9
2783.6327	13933.5
2786.1945	13946.6
2788.75471	13869
2791.31335	13868.8
2793.87041	13827.7
2796.42589	13791.8
2798.97979	13799.6
2801.53212	13776.5
2804.08288	13744
2806.63206	13699.9
2809.17967	13671.4
2811.72571	13666
2814.27018	13656.3
2816.81308	13654.3
2819.35442	13612.9
2821.89419	13605.3
2824.43239	13595.3
2826.96904	13578.6
2829.50412	13562.1
2832.03763	13520.5
2834.56959	13543.6
2837.1	13536.2
2839.62884	13488.9
2842.15613	13502.6
2844.68186	13514.7
2847.20604	13479.5
2849.72867	13505.5
2852.24974	13466.1
2854.76927	13455.6
2857.28724	13441.4
2859.80367	13438.4
2862.31855	13399.1
2864.83189	13414.7
2867.34368	13396.9
2869.85393	13400.9
2872.36264	13405.1
2874.8698	13405.1
2877.37543	13384.8
2879.87952	13399
2882.38207	13409.6
2884.88308	13404.5
2887.38256	13396.7
2889.88051	13411.1
2892.37692	13394.3
2894.8718	13392.9
2897.36515	13392.6
2899.85698	13391.8
2902.34727	13430.3
2904.83604	13438.1
2907.32328	13455.5
2909.809	13434.7
2912.29319	13463
2914.77587	13440
2917.25702	13436
2919.73665	13426.8
2922.21476	13419.2
2924.69136	13422.3
2927.16644	13422.5
2929.64	13389.5
2932.11205	13353.7
2934.58258	13331.5
2937.05161	13334.4
2939.51912	13341.9
2941.98513	13338.6
2944.44962	13289.8
2946.91261	13267.2
2949.37409	13318.5
2951.83407	13259.8
2954.29254	13293.6
2956.74951	13263.3
2959.20498	13264.9
2961.65895	13207.4
2964.11142	13232.4
2966.56239	13209.6
2969.01186	13196.3
2971.45984	13171.8
2973.90632	13175.7
2976.35131	13112.5
2978.7948	13109.1
2981.23681	13069.7
2983.67732	13058.8
2986.11635	13021.7
2988.55388	12993.6
2990.98993	12985.7
2993.4245	12950.4
2995.85758	12926.7
2998.28917	12914.1
3000.71928	12883.6
3003.14791	12869.6
3005.57506	12859.1
3008.00073	12836.8
3010.42493	12818.2
3012.84764	12799.7
3015.26888	12817.6
3017.68865	12786.6
3020.10694	12771.5
3022.52376	12749.4
3024.9391	12737.2
3027.35298	12704.2
3029.76539	12693.8
3032.17632	12686.3
3034.5858	12653.6
3036.9938	12655.3
3039.40034	12635.9
3041.80542	12646.2
3044.20903	12580.9
3046.61118	12584
3049.01187	12564.5
3051.4111	12559.1
3053.80888	12531.3
3056.20519	12511
3058.60005	12482.1
3060.99345	12480
3063.3854	12479.5
3065.7759	12432.4
3068.16494	12408.2
3070.55254	12372.9
3072.93868	12368.4
3075.32338	12319.1
3077.70662	12329.3
3080.08842	12314.9
3082.46878	12299.8
3084.84769	12280.2
3087.22515	12258.3
3089.60118	12257.2
3091.97576	12273.7
3094.3489	12268
3096.72061	12245.7
3099.09087	12239
3101.4597	12223.2
3103.82709	12238.3
3106.19305	12198.5
3108.55757	12195.8
3110.92066	12166.1
3113.28232	12170.2
3115.64255	12126.7
3118.00134	12132.9
3120.35871	12094.7
3122.71466	12087.8
3125.06917	12045.4
3127.42226	12027.8
3129.77393	12033.3
3132.12417	12042.7
3134.47299	12037.8
3136.82039	12043.4
3139.16636	12045
3141.51092	12039.7
3143.85406	12034.8
3146.19579	12050.5
3148.53609	12055.7
3150.87499	12068.3
3153.21246	12067.6
3155.54853	12059.4
3157.88318	12047.2
3160.21642	12065
3162.54826	12059
3164.87868	12045.1
3167.2077	12047.6
3169.5353	12031.1
3171.86151	12021.6
3174.18631	12016.8
3176.5097	12005.4
3178.83169	11995.9
3181.15228	11992.4
3183.47147	11950.9
3185.78926	11994.7
3188.10565	11949.5
3190.42065	11985.5
3192.73424	11995.8
3195.04645	11924.9
3197.35725	11956.6
3199.66667	11956
3201.97469	11975.6
3204.28132	11977.4
3206.58656	11967.8
3208.8904	11991.3
3211.19287	11996.4
3213.49394	11986.7
3215.79363	11988.7
3218.09193	11985.1
3220.38884	11970
3222.68438	11975.2
3224.97853	11950.5
3227.2713	11941.7
3229.56269	11941.7
3231.8527	11941.8
3234.14133	11908
3236.42858	11869.9
3238.71446	11868.9
3240.99896	11862.6
3243.28209	11883.1
3245.56384	11832.5
3247.84423	11861
3250.12324	11855.9
3252.40088	11842.2
3254.67715	11836.9
3256.95205	11772
3259.22558	11816
3261.49775	11775.1
3263.76855	11762.1
3266.03799	11757.5
3268.30606	11751.5
3270.57277	11734.5
3272.83812	11701.3
3275.10211	11674.3
3277.36474	11678.9
3279.62601	11658.1
3281.88593	11648.4
3284.14448	11659.4
3286.40168	11644.8
3288.65753	11636.2
3290.91202	11586.5
3293.16516	11576.3
3295.41695	11548.3
3297.66738	11468.5
3299.91647	11418.1
3302.16421	11350.1
3304.4106	11319.6
3306.65564	11273.6
3308.89933	11232
3311.14169	11135.1
3313.38269	11068.2
3315.62236	11014.1
3317.86068	10914.2
3320.09766	10798.2
3322.3333	10719.5
3324.5676	10732.5
3326.80056	10547.5
3329.03219	10513.7
3331.26248	3
3333.49143	0
3335.71905	0.5
