Data from AgNPs_FTO_APTES_UA_10uM_R6G_10uM_NaF_0.1M_Addition_RamanShift__12__13-23-57-312.txt Node

Date: Fri Dec 17 13:23:57 GMT 2021
User: TCL
Spectrometer: QEP01345
Trigger mode: 4
Integration Time (sec): 7.000000E0
Scans to average: 10
Electric dark correction enabled: true
Nonlinearity correction enabled: false
Boxcar width: 0
XAxis mode: Raman Shifts
Number of Pixels in Spectrum: 1044
>>>>>Begin Spectral Data<<<<<
46.04893	0.3125
50.45542	-1.0875
54.85868	-1.9875
59.25871	0.1125
63.6555	88.6125
68.04907	92.8125
72.43941	93.4125
76.82654	100.9125
81.21044	100.3125
85.59113	104.2125
89.96862	112.9125
94.34289	116.3125
98.71396	119.9125
103.08183	123.5125
107.4465	128.8125
111.80798	126.2125
116.16626	135.8125
120.52136	136.9125
124.87327	143.3125
129.222	154.1125
133.56755	158.5125
137.90993	179.8125
142.24913	192.5125
146.58517	217.2125
150.91804	250.3125
155.24774	299.6125
159.57429	374.9125
163.89768	478.0125
168.21792	634.5125
172.53501	863.5125
176.84895	1200.7125
181.15975	1685.3125
185.46741	2370.5125
189.77193	3272.8125
194.07331	4423.5125
198.37157	5719.4125
202.6667	7102.3125
206.9587	8460.2125
211.24758	9781.0125
215.53334	11114.8125
219.81599	12507.0125
224.09553	14025.8125
228.37195	15686.5125
232.64527	17558.8125
236.91549	19565.6125
241.18261	21641.0125
245.44663	23658.7125
249.70755	25515.2125
253.96539	27039.0125
258.22014	28390.6125
262.4718	29384.9125
266.72039	30048.8125
270.96589	30361.0125
275.20832	30268.7125
279.44768	30052.5125
283.68397	29607.5125
287.91719	29213.1125
292.14735	28871.5125
296.37445	28627.2125
300.59849	28507.5125
304.81948	28496.3125
309.03742	28420.7125
313.25231	28234.7125
317.46415	27893.1125
321.67296	27472.0125
325.87872	27123.7125
330.08145	27014.1125
334.28114	27136.9125
338.47781	27352.2125
342.67145	27696.4125
346.86207	28081.0125
351.04966	28526.3125
355.23424	29004.3125
359.4158	29416.7125
363.59435	29869.6125
367.76989	30160.5125
371.94243	30316.4125
376.11196	30500.1125
380.27849	30640.2125
384.44203	30840.5125
388.60257	31007.5125
392.76012	31262.9125
396.91468	31517.6125
401.06626	31873.0125
405.21485	32084.4125
409.36047	32058.7125
413.50311	31809.1125
417.64277	31554.4125
421.77947	31460.0125
425.9132	31561.0125
430.04396	31769.1125
434.17176	31891.7125
438.2966	32062.3125
442.41849	32308.3125
446.53742	32648.3125
450.6534	33058.8125
454.76644	33349.4125
458.87653	33596.1125
462.98368	33643.2125
467.08789	33615.0125
471.18916	33526.4125
475.2875	33291.1125
479.38291	33051.7125
483.4754	32905.1125
487.56496	32779.1125
491.6516	32655.1125
495.73531	32537.0125
499.81612	32523.7125
503.89401	32764.1125
507.96899	32915.9125
512.04106	33028.9125
516.11023	33062.3125
520.1765	33038.5125
524.23987	32935.9125
528.30034	32778.3125
532.35792	32657.9125
536.41261	32500.5125
540.46441	32354.0125
544.51333	32307.9125
548.55936	32534.6125
552.60252	32762.4125
556.64279	33063.0125
560.6802	33311.9125
564.71473	33420.4125
568.7464	33517.7125
572.7752	33810.3125
576.80114	34050.2125
580.82422	34361.4125
584.84444	34719.8125
588.86181	35038.8125
592.87633	35238.7125
596.888	35230.1125
600.89682	35247.5125
604.9028	36014.3125
608.90594	38235.8125
612.90624	40627.5125
616.90371	39431.9125
620.89834	35521.8125
624.89015	33716.5125
628.87913	33336.1125
632.86528	33474.1125
636.84862	33639.2125
640.82913	33455.5125
644.80683	33070.5125
648.78172	32750.3125
652.75379	32664.2125
656.72306	32949.1125
660.68952	33296.2125
664.65319	33297.1125
668.61405	33045.2125
672.57211	33029.7125
676.52738	33110.6125
680.47986	33159.5125
684.42955	33038.6125
688.37646	32977.7125
692.32058	33092.7125
696.26192	33240.6125
700.20048	33515.4125
704.13626	33657.0125
708.06928	33634.5125
711.99952	33592.1125
715.927	33429.5125
719.85171	33393.9125
723.77365	33357.9125
727.69284	33205.0125
731.60928	32946.5125
735.52295	32829.9125
739.43388	32785.4125
743.34206	32852.6125
747.24749	32918.3125
751.15017	32997.2125
755.05012	33243.5125
758.94733	33683.1125
762.8418	34569.0125
766.73354	36006.0125
770.62254	37420.1125
774.50882	38065.2125
778.39237	37453.9125
782.27321	36097.2125
786.15132	34789.5125
790.02671	33901.5125
793.89938	33447.7125
797.76935	33181.1125
801.6366	33003.6125
805.50115	32907.3125
809.36299	32814.0125
813.22213	32718.2125
817.07857	32624.5125
820.93231	32609.4125
824.78336	32603.1125
828.63172	32617.3125
832.47738	32628.6125
836.32036	32625.9125
840.16066	32564.1125
843.99827	32584.8125
847.8332	32547.2125
851.66546	32602.0125
855.49504	32596.6125
859.32195	32631.0125
863.1462	32720.4125
866.96777	32730.4125
870.78668	32722.5125
874.60293	32786.6125
878.41652	32843.2125
882.22745	32926.8125
886.03573	33018.7125
889.84136	33050.2125
893.64433	33025.5125
897.44466	32948.9125
901.24235	32921.1125
905.0374	32875.8125
908.8298	32895.2125
912.61957	32901.8125
916.40671	32983.9125
920.19121	33119.8125
923.97308	33158.2125
927.75233	33231.4125
931.52895	33145.0125
935.30295	32981.1125
939.07433	32686.0125
942.84309	32429.6125
946.60924	32257.5125
950.37278	32182.9125
954.13371	32080.0125
957.89203	32060.8125
961.64774	32013.8125
965.40086	31972.7125
969.15137	31896.8125
972.89929	31865.4125
976.64461	31840.8125
980.38733	31780.3125
984.12747	31789.3125
987.86502	31854.4125
991.59999	31914.0125
995.33237	32073.0125
999.06217	32291.7125
1002.78939	32527.7125
1006.51404	32912.9125
1010.23611	33221.3125
1013.95561	33433.1125
1017.67255	33481.1125
1021.38692	33358.8125
1025.09872	33154.4125
1028.80796	32905.5125
1032.51465	32744.2125
1036.21877	32685.2125
1039.92035	32763.2125
1043.61937	32891.9125
1047.31584	32954.7125
1051.00976	33066.4125
1054.70114	33132.9125
1058.38998	33249.8125
1062.07627	33478.7125
1065.76003	33793.9125
1069.44126	34091.1125
1073.11995	34474.4125
1076.79611	34865.9125
1080.46974	35071.8125
1084.14085	34987.7125
1087.80943	35010.2125
1091.47549	35067.5125
1095.13903	35092.1125
1098.80005	34889.9125
1102.45857	34586.6125
1106.11456	34257.4125
1109.76805	34020.1125
1113.41903	33879.5125
1117.06751	33889.1125
1120.71348	34048.2125
1124.35696	34229.1125
1127.99793	34458.0125
1131.63641	34599.7125
1135.2724	34378.8125
1138.90589	34215.6125
1142.5369	34068.5125
1146.16542	34036.3125
1149.79145	33980.4125
1153.415	33963.0125
1157.03607	34005.5125
1160.65467	34260.2125
1164.27079	34755.8125
1167.88443	35494.4125
1171.49561	36512.0125
1175.10432	37759.6125
1178.71056	39364.4125
1182.31434	41027.3125
1185.91565	42192.5125
1189.51451	42752.5125
1193.11091	42589.7125
1196.70485	41893.4125
1200.29634	40831.4125
1203.88538	39813.7125
1207.47197	38868.6125
1211.05612	38081.7125
1214.63782	37478.2125
1218.21708	36883.8125
1221.79391	36446.1125
1225.36829	36150.3125
1228.94024	35995.4125
1232.50976	36014.7125
1236.07685	36008.7125
1239.6415	35993.3125
1243.20374	36031.8125
1246.76355	36153.0125
1250.32093	36370.0125
1253.8759	36668.0125
1257.42845	37210.0125
1260.97859	37821.1125
1264.52631	38369.9125
1268.07163	38958.9125
1271.61453	39474.4125
1275.15503	39889.6125
1278.69312	40285.4125
1282.22882	40512.3125
1285.76211	40869.9125
1289.29301	41266.2125
1292.82151	41799.9125
1296.34761	42436.6125
1299.87133	43333.3125
1303.39266	44380.8125
1306.9116	45617.0125
1310.42815	46893.4125
1313.94233	47681.7125
1317.45412	47632.8125
1320.96354	47194.1125
1324.47058	46829.2125
1327.97525	46404.6125
1331.47754	46194.9125
1334.97747	46225.8125
1338.47502	46567.8125
1341.97022	47221.9125
1345.46305	47953.1125
1348.95352	48832.9125
1352.44163	49306.1125
1355.92738	49584.6125
1359.41078	49959.7125
1362.89183	50430.9125
1366.37053	49522.2125
1369.84688	46827.3125
1373.32088	43749.4125
1376.79254	41369.8125
1380.26186	40147.9125
1383.72883	39507.1125
1387.19347	39060.1125
1390.65578	38551.0125
1394.11575	38139.4125
1397.57339	37937.6125
1401.0287	37836.1125
1404.48168	37810.8125
1407.93234	37835.3125
1411.38068	37725.9125
1414.82669	37547.2125
1418.27039	37034.8125
1421.71177	36598.0125
1425.15083	36162.6125
1428.58758	36048.8125
1432.02203	36111.5125
1435.45416	36333.8125
1438.88399	36656.5125
1442.31151	36855.2125
1445.73673	36918.9125
1449.15965	37023.6125
1452.58027	37125.1125
1455.9986	37188.1125
1459.41463	37410.3125
1462.82837	37887.3125
1466.23982	38288.1125
1469.64898	38737.5125
1473.05586	38985.8125
1476.46045	39121.2125
1479.86276	39144.4125
1483.26279	39212.4125
1486.66054	39257.8125
1490.05602	39558.9125
1493.44922	40040.0125
1496.84016	40888.2125
1500.22882	42083.1125
1503.61521	43651.2125
1506.99934	45148.8125
1510.38121	46271.2125
1513.76081	46226.1125
1517.13816	45090.3125
1520.51324	43500.2125
1523.88607	42030.8125
1527.25665	41024.3125
1530.62498	40477.8125
1533.99105	40117.0125
1537.35488	39818.7125
1540.71647	39433.3125
1544.07581	39035.0125
1547.4329	38697.8125
1550.78776	38440.9125
1554.14038	38226.4125
1557.49077	38117.1125
1560.83892	38154.3125
1564.18484	38310.7125
1567.52853	38524.9125
1570.86999	38758.2125
1574.20922	39063.2125
1577.54624	39286.2125
1580.88103	39073.8125
1584.2136	38685.2125
1587.54395	38389.6125
1590.87208	38673.7125
1594.19801	39339.3125
1597.52172	40313.2125
1600.84321	40830.6125
1604.16251	40380.7125
1607.47959	39330.5125
1610.79447	38104.1125
1614.10715	36662.9125
1617.41763	35202.1125
1620.7259	34068.1125
1624.03199	33337.2125
1627.33587	33189.2125
1630.63757	33399.9125
1633.93707	34171.6125
1637.23439	35447.8125
1640.52951	37420.7125
1643.82246	39667.8125
1647.11321	41533.8125
1650.40179	42109.8125
1653.68819	40853.7125
1656.97241	38244.5125
1660.25446	35354.9125
1663.53433	33236.8125
1666.81203	31792.0125
1670.08756	30898.4125
1673.36092	30227.3125
1676.63211	29841.7125
1679.90115	29589.2125
1683.16801	29322.0125
1686.43272	29188.0125
1689.69527	29051.4125
1692.95567	28918.7125
1696.2139	28847.7125
1699.46999	28786.0125
1702.72392	28763.9125
1705.97571	28693.0125
1709.22535	28674.4125
1712.47284	28664.3125
1715.71819	28650.5125
1718.96139	28595.3125
1722.20246	28530.1125
1725.44139	28497.5125
1728.67818	28378.3125
1731.91284	28286.9125
1735.14537	28153.1125
1738.37576	28056.8125
1741.60403	27942.1125
1744.83017	27900.1125
1748.05418	27857.6125
1751.27607	27798.3125
1754.49584	27758.7125
1757.71349	27728.6125
1760.92903	27716.5125
1764.14244	27719.7125
1767.35375	27700.5125
1770.56294	27709.4125
1773.77002	27623.9125
1776.97499	27570.8125
1780.17785	27537.2125
1783.37861	27540.8125
1786.57727	27446.6125
1789.77382	27385.2125
1792.96828	27386.4125
1796.16064	27338.3125
1799.3509	27307.5125
1802.53907	27267.7125
1805.72514	27182.7125
1808.90913	27136.0125
1812.09102	27100.3125
1815.27083	27035.6125
1818.44856	27026.1125
1821.6242	26979.5125
1824.79776	26976.8125
1827.96924	26955.4125
1831.13864	26946.7125
1834.30597	26966.6125
1837.47122	26916.2125
1840.6344	26899.5125
1843.7955	26901.2125
1846.95454	26920.9125
1850.11151	26902.8125
1853.26642	26855.6125
1856.41926	26798.1125
1859.57004	26843.7125
1862.71876	26777.4125
1865.86542	26755.0125
1869.01003	26698.9125
1872.15258	26681.5125
1875.29308	26648.0125
1878.43152	26555.6125
1881.56792	26570.9125
1884.70227	26525.9125
1887.83457	26504.1125
1890.96482	26448.1125
1894.09304	26365.4125
1897.21921	26349.1125
1900.34335	26316.8125
1903.46544	26286.0125
1906.58551	26258.9125
1909.70353	26200.1125
1912.81953	26157.6125
1915.93349	26104.1125
1919.04543	26040.9125
1922.15534	26046.6125
1925.26322	25930.5125
1928.36908	25920.9125
1931.47292	25877.6125
1934.57473	25828.8125
1937.67453	25725.0125
1940.77232	25684.3125
1943.86808	25577.5125
1946.96184	25539.6125
1950.05358	25464.8125
1953.14331	25368.2125
1956.23103	25303.6125
1959.31675	25275.4125
1962.40046	25148.6125
1965.48217	25078.8125
1968.56188	25039.6125
1971.63959	24950.9125
1974.7153	24874.9125
1977.78901	24799.4125
1980.86073	24742.8125
1983.93046	24661.8125
1986.99819	24567.8125
1990.06394	24501.9125
1993.1277	24428.0125
1996.18947	24346.7125
1999.24925	24297.3125
2002.30706	24232.4125
2005.36288	24152.8125
2008.41672	24075.7125
2011.46859	24028.1125
2014.51848	23936.1125
2017.56639	23882.6125
2020.61233	23819.7125
2023.6563	23764.8125
2026.6983	23709.5125
2029.73833	23668.3125
2032.7764	23578.4125
2035.8125	23510.9125
2038.84664	23455.7125
2041.87881	23393.4125
2044.90903	23436.1125
2047.93729	23362.5125
2050.96359	23323.2125
2053.98794	23250.3125
2057.01034	23237.8125
2060.03078	23256.0125
2063.04927	23176.5125
2066.06582	23181.2125
2069.08042	23227.5125
2072.09307	23181.8125
2075.10378	23147.5125
2078.11255	23153.6125
2081.11938	23148.1125
2084.12426	23129.8125
2087.12722	23107.0125
2090.12824	23087.1125
2093.12732	23115.5125
2096.12447	23154.5125
2099.11969	23122.3125
2102.11299	23109.0125
2105.10435	23104.7125
2108.09379	23169.1125
2111.08131	23150.4125
2114.0669	23169.8125
2117.05057	23186.2125
2120.03233	23168.0125
2123.01216	23237.6125
2125.99008	23254.0125
2128.96609	23245.5125
2131.94018	23259.4125
2134.91236	23318.4125
2137.88263	23290.9125
2140.851	23299.6125
2143.81746	23338.1125
2146.78201	23298.1125
2149.74466	23287.6125
2152.7054	23306.5125
2155.66425	23298.9125
2158.6212	23283.2125
2161.57625	23271.4125
2164.52941	23265.0125
2167.48067	23257.3125
2170.43004	23221.8125
2173.37752	23252.7125
2176.32311	23216.2125
2179.26681	23207.1125
2182.20863	23204.0125
2185.14856	23184.0125
2188.08661	23185.4125
2191.02278	23138.0125
2193.95707	23114.8125
2196.88948	23108.9125
2199.82001	23144.0125
2202.74867	23083.4125
2205.67545	23051.9125
2208.60037	23037.1125
2211.52341	22990.4125
2214.44458	22975.5125
2217.36388	22900.6125
2220.28132	22834.8125
2223.1969	22835.8125
2226.11061	22772.6125
2229.02246	22731.5125
2231.93245	22691.8125
2234.84058	22645.0125
2237.74686	22618.2125
2240.65128	22565.6125
2243.55385	22548.1125
2246.45456	22499.7125
2249.35343	22498.9125
2252.25044	22450.4125
2255.14561	22394.4125
2258.03893	22385.4125
2260.93041	22369.5125
2263.82004	22302.7125
2266.70783	22256.8125
2269.59378	22220.1125
2272.4779	22148.9125
2275.36017	22100.9125
2278.24061	22093.2125
2281.11922	21977.4125
2283.996	21988.0125
2286.87094	21969.1125
2289.74405	21882.2125
2292.61534	21851.6125
2295.4848	21853.1125
2298.35243	21804.9125
2301.21824	21800.0125
2304.08223	21747.3125
2306.94439	21750.2125
2309.80474	21744.3125
2312.66327	21725.2125
2315.51999	21676.8125
2318.37489	21675.4125
2321.22797	21620.0125
2324.07925	21581.3125
2326.92871	21544.9125
2329.77637	21500.9125
2332.62222	21448.1125
2335.46626	21396.8125
2338.3085	21371.0125
2341.14893	21381.4125
2343.98756	21373.9125
2346.8244	21346.7125
2349.65943	21336.9125
2352.49267	21314.7125
2355.32411	21333.0125
2358.15376	21264.5125
2360.98161	21265.1125
2363.80768	21205.4125
2366.63195	21219.3125
2369.45444	21194.6125
2372.27514	21157.6125
2375.09405	21120.6125
2377.91118	21095.5125
2380.72652	21066.2125
2383.54009	21030.6125
2386.35187	20998.3125
2389.16188	20932.2125
2391.97011	20861.3125
2394.77657	20823.1125
2397.58125	20784.1125
2400.38416	20784.8125
2403.18529	20728.9125
2405.98466	20687.3125
2408.78226	20653.9125
2411.57809	20649.4125
2414.37216	20618.5125
2417.16446	20575.1125
2419.955	20547.3125
2422.74378	20552.1125
2425.5308	20535.1125
2428.31606	20517.2125
2431.09956	20513.1125
2433.88131	20419.3125
2436.6613	20461.3125
2439.43954	20414.6125
2442.21603	20392.8125
2444.99077	20361.8125
2447.76377	20371.6125
2450.53501	20303.5125
2453.30451	20319.2125
2456.07226	20311.8125
2458.83827	20278.2125
2461.60254	20246.6125
2464.36507	20221.9125
2467.12586	20211.4125
2469.88492	20198.3125
2472.64224	20167.8125
2475.39782	20156.1125
2478.15167	20124.6125
2480.90379	20117.8125
2483.65417	20071.0125
2486.40283	20097.0125
2489.14976	20086.9125
2491.89497	20033.1125
2494.63845	20058.0125
2497.3802	20015.7125
2500.12024	19984.5125
2502.85855	19956.3125
2505.59514	19966.0125
2508.33002	19959.8125
2511.06318	19950.8125
2513.79462	19867.7125
2516.52435	19860.9125
2519.25237	19834.6125
2521.97867	19809.3125
2524.70327	19790.7125
2527.42616	19760.2125
2530.14734	19767.1125
2532.86681	19719.2125
2535.58458	19693.3125
2538.30065	19652.6125
2541.01501	19624.2125
2543.72768	19574.2125
2546.43864	19564.9125
2549.14791	19511.9125
2551.85548	19476.5125
2554.56136	19432.1125
2557.26554	19405.5125
2559.96803	19382.9125
2562.66883	19330.2125
2565.36794	19302.2125
2568.06536	19278.8125
2570.7611	19280.7125
2573.45514	19214.8125
2576.14751	19203.7125
2578.83819	19128.9125
2581.52719	19103.8125
2584.21451	19068.8125
2586.90015	19045.7125
2589.58411	19006.8125
2592.2664	18965.2125
2594.94701	18937.1125
2597.62594	18916.6125
2600.30321	18835.1125
2602.9788	18845.8125
2605.65273	18798.5125
2608.32498	18767.2125
2610.99557	18756.6125
2613.66449	18740.4125
2616.33175	18703.6125
2618.99734	18679.2125
2621.66128	18641.9125
2624.32355	18573.7125
2626.98416	18594.9125
2629.64311	18575.8125
2632.30041	18565.8125
2634.95605	18527.3125
2637.61004	18482.3125
2640.26238	18439.4125
2642.91306	18483.2125
2645.56209	18483.0125
2648.20948	18423.3125
2650.85521	18392.9125
2653.4993	18388.0125
2656.14175	18362.5125
2658.78255	18368.2125
2661.42171	18367.0125
2664.05923	18391.6125
2666.6951	18353.1125
2669.32934	18391.9125
2671.96194	18378.5125
2674.59291	18342.4125
2677.22224	18318.3125
2679.84993	18326.9125
2682.476	18330.3125
2685.10043	18367.4125
2687.72324	18325.4125
2690.34441	18316.5125
2692.96396	18282.2125
2695.58188	18299.7125
2698.19818	18270.6125
2700.81285	18286.6125
2703.4259	18307.4125
2706.03733	18327.0125
2708.64714	18332.7125
2711.25533	18314.9125
2713.86191	18295.2125
2716.46687	18279.6125
2719.07021	18268.7125
2721.67194	18251.1125
2724.27206	18255.5125
2726.87057	18255.1125
2729.46747	18244.4125
2732.06276	18240.6125
2734.65644	18212.8125
2737.24852	18216.5125
2739.83899	18160.4125
2742.42786	18160.3125
2745.01513	18148.0125
2747.60079	18143.7125
2750.18486	18099.9125
2752.76733	18087.3125
2755.3482	18068.6125
2757.92747	18050.2125
2760.50515	18018.8125
2763.08123	18008.1125
2765.65573	17959.1125
2768.22863	17941.7125
2770.79994	17894.2125
2773.36967	17918.2125
2775.9378	17848.8125
2778.50435	17830.9125
2781.06932	17797.1125
2783.6327	17785.2125
2786.1945	17753.5125
2788.75471	17726.1125
2791.31335	17655.2125
2793.87041	17650.3125
2796.42589	17539.4125
2798.97979	17529.5125
2801.53212	17505.5125
2804.08288	17496.5125
2806.63206	17403.9125
2809.17967	17409.5125
2811.72571	17372.5125
2814.27018	17383.1125
2816.81308	17318.3125
2819.35442	17295.3125
2821.89419	17230.8125
2824.43239	17206.8125
2826.96904	17192.4125
2829.50412	17191.8125
2832.03763	17127.7125
2834.56959	17115.0125
2837.1	17074.3125
2839.62884	17069.0125
2842.15613	17052.4125
2844.68186	17107.9125
2847.20604	17083.1125
2849.72867	17079.8125
2852.24974	17041.6125
2854.76927	17035.6125
2857.28724	16990.5125
2859.80367	16982.0125
2862.31855	16961.7125
2864.83189	16938.4125
2867.34368	16878.1125
2869.85393	16894.5125
2872.36264	16862.0125
2874.8698	16893.7125
2877.37543	16857.7125
2879.87952	16871.9125
2882.38207	16839.7125
2884.88308	16857.7125
2887.38256	16868.3125
2889.88051	16854.0125
2892.37692	16837.7125
2894.8718	16833.7125
2897.36515	16838.2125
2899.85698	16845.8125
2902.34727	16839.5125
2904.83604	16867.5125
2907.32328	16872.7125
2909.809	16836.7125
2912.29319	16874.9125
2914.77587	16825.3125
2917.25702	16851.0125
2919.73665	16804.3125
2922.21476	16808.6125
2924.69136	16750.6125
2927.16644	16755.0125
2929.64	16755.1125
2932.11205	16744.9125
2934.58258	16641.3125
2937.05161	16672.1125
2939.51912	16689.6125
2941.98513	16637.9125
2944.44962	16622.0125
2946.91261	16552.1125
2949.37409	16611.2125
2951.83407	16592.7125
2954.29254	16556.1125
2956.74951	16541.5125
2959.20498	16531.8125
2961.65895	16481.3125
2964.11142	16492.7125
2966.56239	16439.6125
2969.01186	16434.3125
2971.45984	16359.4125
2973.90632	16365.3125
2976.35131	16322.2125
2978.7948	16327.2125
2981.23681	16286.5125
2983.67732	16216.6125
2986.11635	16164.8125
2988.55388	16148.5125
2990.98993	16142.8125
2993.4245	16108.5125
2995.85758	16077.9125
2998.28917	16049.8125
3000.71928	16003.1125
3003.14791	15991.4125
3005.57506	15958.7125
3008.00073	15931.9125
3010.42493	15897.8125
3012.84764	15888.5125
3015.26888	15863.0125
3017.68865	15837.4125
3020.10694	15802.9125
3022.52376	15790.2125
3024.9391	15766.7125
