Data from AgNPs_FTO_APTES_UA_0uM_R6G_10uM_NaF_0.1M_Addition_RamanShift__44__10-47-37-131.txt Node

Date: Fri Dec 17 10:47:37 GMT 2021
User: TCL
Spectrometer: QEP01345
Trigger mode: 4
Integration Time (sec): 7.000000E0
Scans to average: 10
Electric dark correction enabled: true
Nonlinearity correction enabled: false
Boxcar width: 0
XAxis mode: Raman Shifts
Number of Pixels in Spectrum: 1044
>>>>>Begin Spectral Data<<<<<
46.04893	-1.9875
50.45542	0.5125
54.85868	-2.2875
59.25871	0.3125
63.6555	88.3125
68.04907	90.8125
72.43941	96.5125
76.82654	102.3125
81.21044	101.4125
85.59113	107.5125
89.96862	109.6125
94.34289	113.7125
98.71396	116.7125
103.08183	119.2125
107.4465	125.7125
111.80798	126.4125
116.16626	131.6125
120.52136	136.0125
124.87327	142.2125
129.222	148.5125
133.56755	165.6125
137.90993	177.2125
142.24913	190.0125
146.58517	215.8125
150.91804	249.6125
155.24774	294.8125
159.57429	371.7125
163.89768	478.3125
168.21792	631.0125
172.53501	856.9125
176.84895	1189.2125
181.15975	1673.1125
185.46741	2336.3125
189.77193	3230.5125
194.07331	4307.0125
198.37157	5559.7125
202.6667	6853.0125
206.9587	8163.5125
211.24758	9431.9125
215.53334	10712.3125
219.81599	12077.3125
224.09553	13643.4125
228.37195	15351.7125
232.64527	17209.6125
236.91549	19155.6125
241.18261	21080.5125
245.44663	22799.2125
249.70755	24349.0125
253.96539	25637.7125
258.22014	26776.7125
262.4718	27785.0125
266.72039	28475.3125
270.96589	28839.0125
275.20832	28912.4125
279.44768	28737.7125
283.68397	28403.9125
287.91719	28137.9125
292.14735	27957.1125
296.37445	27991.7125
300.59849	28271.0125
304.81948	28648.0125
309.03742	28875.4125
313.25231	28706.6125
317.46415	28030.0125
321.67296	27038.4125
325.87872	26197.7125
330.08145	25857.2125
334.28114	25808.6125
338.47781	26070.7125
342.67145	26494.2125
346.86207	27142.5125
351.04966	27926.4125
355.23424	28814.0125
359.4158	29613.9125
363.59435	30145.7125
367.76989	30418.4125
371.94243	30596.8125
376.11196	30683.0125
380.27849	30753.7125
384.44203	30825.8125
388.60257	30891.6125
392.76012	31048.6125
396.91468	31430.5125
401.06626	31987.7125
405.21485	32473.5125
409.36047	32385.8125
413.50311	31838.8125
417.64277	31264.6125
421.77947	31110.3125
425.9132	31102.0125
430.04396	31258.1125
434.17176	31491.3125
438.2966	31909.7125
442.41849	32441.7125
446.53742	33322.3125
450.6534	34400.4125
454.76644	35134.4125
458.87653	35451.7125
462.98368	35217.9125
467.08789	34666.4125
471.18916	33931.1125
475.2875	33225.1125
479.38291	32750.6125
483.4754	32355.1125
487.56496	32019.0125
491.6516	31698.2125
495.73531	31377.3125
499.81612	31280.2125
503.89401	31406.1125
507.96899	31478.4125
512.04106	31551.9125
516.11023	31590.2125
520.1765	31593.8125
524.23987	31470.6125
528.30034	31264.7125
532.35792	30894.8125
536.41261	30533.0125
540.46441	30087.7125
544.51333	29985.4125
548.55936	30222.0125
552.60252	30735.2125
556.64279	31331.9125
560.6802	31643.3125
564.71473	31884.1125
568.7464	32483.6125
572.7752	33136.9125
576.80114	33283.9125
580.82422	33423.6125
584.84444	33719.4125
588.86181	34122.9125
592.87633	34778.0125
596.888	35370.2125
600.89682	35997.0125
604.9028	37828.5125
608.90594	42468.5125
612.90624	47442.9125
616.90371	45070.8125
620.89834	36898.9125
624.89015	33205.1125
628.87913	32680.0125
632.86528	32457.9125
636.84862	32055.7125
640.82913	31444.9125
644.80683	30588.9125
648.78172	29994.0125
652.75379	29935.1125
656.72306	30522.7125
660.68952	31256.3125
664.65319	31136.9125
668.61405	30422.8125
672.57211	30166.6125
676.52738	30119.5125
680.47986	30086.6125
684.42955	29966.0125
688.37646	29962.9125
692.32058	30108.1125
696.26192	30374.9125
700.20048	30761.2125
704.13626	30980.3125
708.06928	30818.9125
711.99952	30472.5125
715.927	30449.4125
719.85171	30462.8125
723.77365	30402.4125
727.69284	30109.9125
731.60928	29842.4125
735.52295	29828.0125
739.43388	29912.8125
743.34206	30065.2125
747.24749	30286.6125
751.15017	30575.3125
755.05012	31041.6125
758.94733	31970.4125
762.8418	33654.0125
766.73354	36488.7125
770.62254	39408.7125
774.50882	40423.8125
778.39237	38652.3125
782.27321	35500.6125
786.15132	32856.6125
790.02671	31313.8125
793.89938	30630.1125
797.76935	30390.9125
801.6366	30278.4125
805.50115	30155.7125
809.36299	29981.5125
813.22213	29806.2125
817.07857	29734.6125
820.93231	29701.2125
824.78336	29662.1125
828.63172	29777.0125
832.47738	29834.9125
836.32036	30005.7125
840.16066	30141.1125
843.99827	30317.2125
847.8332	30209.2125
851.66546	29970.8125
855.49504	29940.4125
859.32195	29862.4125
863.1462	29728.0125
866.96777	29538.5125
870.78668	29438.6125
874.60293	29423.9125
878.41652	29467.4125
882.22745	29607.6125
886.03573	29695.1125
889.84136	29664.2125
893.64433	29534.5125
897.44466	29375.1125
901.24235	29332.2125
905.0374	29318.5125
908.8298	29278.1125
912.61957	29295.8125
916.40671	29577.5125
920.19121	29934.3125
923.97308	30467.8125
927.75233	30787.5125
931.52895	30843.3125
935.30295	30551.8125
939.07433	29896.6125
942.84309	29399.9125
946.60924	29252.1125
950.37278	29082.5125
954.13371	28803.6125
957.89203	28578.1125
961.64774	28523.9125
965.40086	28320.3125
969.15137	28232.6125
972.89929	28155.7125
976.64461	28183.3125
980.38733	28260.7125
984.12747	28416.1125
987.86502	28789.9125
991.59999	29298.6125
995.33237	30080.9125
999.06217	31330.6125
1002.78939	32636.8125
1006.51404	33423.1125
1010.23611	33727.3125
1013.95561	33878.8125
1017.67255	33762.3125
1021.38692	33391.5125
1025.09872	33246.6125
1028.80796	33940.3125
1032.51465	35546.9125
1036.21877	36888.8125
1039.92035	37048.7125
1043.61937	36136.7125
1047.31584	34685.7125
1051.00976	33099.8125
1054.70114	32108.2125
1058.38998	31761.4125
1062.07627	31657.4125
1065.76003	31656.2125
1069.44126	31801.7125
1073.11995	32109.2125
1076.79611	32465.4125
1080.46974	32726.5125
1084.14085	33036.4125
1087.80943	33502.5125
1091.47549	33627.4125
1095.13903	33332.6125
1098.80005	32701.8125
1102.45857	32086.3125
1106.11456	31834.3125
1109.76805	31818.9125
1113.41903	32131.4125
1117.06751	32477.8125
1120.71348	32890.1125
1124.35696	33273.6125
1127.99793	33681.5125
1131.63641	33819.7125
1135.2724	33351.7125
1138.90589	32836.7125
1142.5369	32515.6125
1146.16542	32255.8125
1149.79145	32221.4125
1153.415	32272.2125
1157.03607	32609.2125
1160.65467	33196.8125
1164.27079	34313.1125
1167.88443	35899.0125
1171.49561	38154.6125
1175.10432	41327.6125
1178.71056	45458.4125
1182.31434	49212.5125
1185.91565	51205.0125
1189.51451	50969.1125
1193.11091	48758.8125
1196.70485	45889.9125
1200.29634	43566.8125
1203.88538	41806.7125
1207.47197	40396.3125
1211.05612	39351.9125
1214.63782	38754.6125
1218.21708	38763.2125
1221.79391	38971.3125
1225.36829	39216.7125
1228.94024	38890.7125
1232.50976	38159.0125
1236.07685	37661.1125
1239.6415	37365.0125
1243.20374	37311.0125
1246.76355	37598.4125
1250.32093	38068.7125
1253.8759	39027.6125
1257.42845	40244.5125
1260.97859	41298.6125
1264.52631	42295.3125
1268.07163	43328.0125
1271.61453	44544.4125
1275.15503	45991.8125
1278.69312	47419.2125
1282.22882	48580.1125
1285.76211	49529.2125
1289.29301	50471.7125
1292.82151	51591.6125
1296.34761	53222.6125
1299.87133	55617.5125
1303.39266	59051.8125
1306.9116	63548.7125
1310.42815	68319.2125
1313.94233	71396.2125
1317.45412	71203.7125
1320.96354	68794.8125
1324.47058	65824.9125
1327.97525	63154.7125
1331.47754	61297.6125
1334.97747	60394.2125
1338.47502	60500.8125
1341.97022	60505.6125
1345.46305	60141.5125
1348.95352	59791.1125
1352.44163	60111.2125
1355.92738	62116.8125
1359.41078	66361.9125
1362.89183	70848.8125
1366.37053	70116.6125
1369.84688	63606.1125
1373.32088	55886.9125
1376.79254	50559.8125
1380.26186	47989.4125
1383.72883	47033.5125
1387.19347	46387.3125
1390.65578	45627.0125
1394.11575	45281.7125
1397.57339	45607.0125
1401.0287	46425.7125
1404.48168	47445.9125
1407.93234	48290.3125
1411.38068	48691.7125
1414.82669	48292.2125
1418.27039	46999.4125
1421.71177	45395.2125
1425.15083	43984.9125
1428.58758	43117.5125
1432.02203	43039.1125
1435.45416	43517.8125
1438.88399	44225.8125
1442.31151	44749.0125
1445.73673	45284.0125
1449.15965	45718.4125
1452.58027	45901.8125
1455.9986	45730.0125
1459.41463	45700.4125
1462.82837	46178.7125
1466.23982	47063.0125
1469.64898	48058.3125
1473.05586	48654.7125
1476.46045	49043.7125
1479.86276	49241.1125
1483.26279	49406.7125
1486.66054	49652.9125
1490.05602	50140.8125
1493.44922	50867.4125
1496.84016	51481.6125
1500.22882	52408.2125
1503.61521	53960.4125
1506.99934	56210.7125
1510.38121	58606.9125
1513.76081	59928.4125
1517.13816	58822.5125
1520.51324	55638.8125
1523.88607	52280.6125
1527.25665	49876.4125
1530.62498	48527.7125
1533.99105	47720.5125
1537.35488	47236.2125
1540.71647	46753.8125
1544.07581	46344.2125
1547.4329	45806.8125
1550.78776	45265.7125
1554.14038	44891.6125
1557.49077	44636.9125
1560.83892	44611.3125
1564.18484	44583.5125
1567.52853	44696.9125
1570.86999	44791.4125
1574.20922	45048.8125
1577.54624	45316.0125
1580.88103	45066.6125
1584.2136	44857.5125
1587.54395	45749.8125
1590.87208	48159.8125
1594.19801	51620.9125
1597.52172	55469.9125
1600.84321	56982.9125
1604.16251	54950.0125
1607.47959	50652.0125
1610.79447	45926.4125
1614.10715	41891.1125
1617.41763	38809.6125
1620.7259	36918.4125
1624.03199	36057.8125
1627.33587	36158.2125
1630.63757	37256.1125
1633.93707	39275.1125
1637.23439	42237.3125
1640.52951	45972.8125
1643.82246	50093.2125
1647.11321	53499.6125
1650.40179	54315.4125
1653.68819	51398.0125
1656.97241	45572.3125
1660.25446	39566.8125
1663.53433	35123.4125
1666.81203	32402.5125
1670.08756	30688.3125
1673.36092	29647.6125
1676.63211	29002.8125
1679.90115	28497.7125
1683.16801	28082.9125
1686.43272	27835.9125
1689.69527	27640.6125
1692.95567	27518.9125
1696.2139	27392.5125
1699.46999	27328.7125
1702.72392	27314.5125
1705.97571	27278.0125
1709.22535	27254.6125
1712.47284	27242.1125
1715.71819	27213.1125
1718.96139	27197.5125
1722.20246	27098.4125
1725.44139	26991.2125
1728.67818	26880.1125
1731.91284	26743.9125
1735.14537	26604.0125
1738.37576	26538.7125
1741.60403	26453.0125
1744.83017	26353.8125
1748.05418	26327.6125
1751.27607	26275.8125
1754.49584	26258.5125
1757.71349	26251.3125
1760.92903	26226.8125
1764.14244	26186.1125
1767.35375	26161.3125
1770.56294	26162.8125
1773.77002	26110.9125
1776.97499	26072.4125
1780.17785	26066.4125
1783.37861	26015.7125
1786.57727	26000.8125
1789.77382	25992.3125
1792.96828	25975.6125
1796.16064	25932.9125
1799.3509	25899.8125
1802.53907	25856.1125
1805.72514	25795.3125
1808.90913	25752.7125
1812.09102	25663.9125
1815.27083	25606.5125
1818.44856	25555.5125
1821.6242	25571.3125
1824.79776	25541.3125
1827.96924	25494.7125
1831.13864	25463.2125
1834.30597	25506.3125
1837.47122	25486.9125
1840.6344	25496.0125
1843.7955	25560.0125
1846.95454	25503.9125
1850.11151	25482.7125
1853.26642	25494.5125
1856.41926	25530.6125
1859.57004	25528.4125
1862.71876	25528.9125
1865.86542	25493.9125
1869.01003	25506.0125
1872.15258	25517.7125
1875.29308	25565.6125
1878.43152	25501.2125
1881.56792	25524.1125
1884.70227	25513.4125
1887.83457	25542.9125
1890.96482	25537.1125
1894.09304	25522.1125
1897.21921	25490.2125
1900.34335	25501.4125
1903.46544	25495.9125
1906.58551	25496.0125
1909.70353	25503.9125
1912.81953	25481.9125
1915.93349	25450.5125
1919.04543	25404.6125
1922.15534	25337.4125
1925.26322	25321.0125
1928.36908	25242.2125
1931.47292	25193.2125
1934.57473	25123.1125
1937.67453	25023.1125
1940.77232	24947.9125
1943.86808	24847.5125
1946.96184	24772.0125
1950.05358	24755.4125
1953.14331	24632.6125
1956.23103	24532.2125
1959.31675	24509.5125
1962.40046	24399.2125
1965.48217	24315.0125
1968.56188	24295.3125
1971.63959	24241.0125
1974.7153	24189.9125
1977.78901	24008.6125
1980.86073	23963.1125
1983.93046	23917.5125
1986.99819	23807.8125
1990.06394	23767.5125
1993.1277	23683.6125
1996.18947	23638.8125
1999.24925	23567.0125
2002.30706	23493.7125
2005.36288	23425.1125
2008.41672	23378.7125
2011.46859	23317.5125
2014.51848	23270.0125
2017.56639	23207.3125
2020.61233	23168.8125
2023.6563	23131.8125
2026.6983	23073.1125
2029.73833	23072.0125
2032.7764	23011.0125
2035.8125	23005.3125
2038.84664	22983.3125
2041.87881	22955.2125
2044.90903	22933.4125
2047.93729	22871.2125
2050.96359	22862.8125
2053.98794	22834.3125
2057.01034	22799.7125
2060.03078	22807.3125
2063.04927	22704.9125
2066.06582	22703.5125
2069.08042	22688.4125
2072.09307	22704.7125
2075.10378	22660.3125
2078.11255	22617.0125
2081.11938	22596.7125
2084.12426	22595.0125
2087.12722	22545.7125
2090.12824	22604.1125
2093.12732	22618.8125
2096.12447	22600.5125
2099.11969	22595.3125
2102.11299	22593.9125
2105.10435	22582.3125
2108.09379	22574.2125
2111.08131	22594.1125
2114.0669	22633.6125
2117.05057	22660.1125
2120.03233	22642.8125
2123.01216	22674.6125
2125.99008	22672.9125
2128.96609	22711.6125
2131.94018	22715.9125
2134.91236	22752.4125
2137.88263	22772.2125
2140.851	22742.6125
2143.81746	22764.7125
2146.78201	22789.2125
2149.74466	22803.3125
2152.7054	22782.7125
2155.66425	22768.1125
2158.6212	22781.5125
2161.57625	22799.0125
2164.52941	22798.5125
2167.48067	22766.8125
2170.43004	22804.7125
2173.37752	22802.6125
2176.32311	22753.6125
2179.26681	22812.0125
2182.20863	22811.4125
2185.14856	22810.3125
2188.08661	22797.2125
2191.02278	22805.1125
2193.95707	22814.7125
2196.88948	22822.4125
2199.82001	22828.4125
2202.74867	22803.6125
2205.67545	22837.3125
2208.60037	22847.3125
2211.52341	22805.2125
2214.44458	22782.9125
2217.36388	22753.9125
2220.28132	22769.0125
2223.1969	22713.7125
2226.11061	22696.4125
2229.02246	22661.6125
2231.93245	22576.8125
2234.84058	22548.2125
2237.74686	22474.4125
2240.65128	22466.1125
2243.55385	22473.6125
2246.45456	22421.2125
2249.35343	22395.0125
2252.25044	22379.7125
2255.14561	22290.9125
2258.03893	22317.2125
2260.93041	22255.3125
2263.82004	22180.4125
2266.70783	22153.9125
2269.59378	22095.4125
2272.4779	22066.3125
2275.36017	22018.0125
2278.24061	21984.8125
2281.11922	21952.4125
2283.996	21963.6125
2286.87094	21919.6125
2289.74405	21855.6125
2292.61534	21871.2125
2295.4848	21862.2125
2298.35243	21868.8125
2301.21824	21877.3125
2304.08223	21875.8125
2306.94439	21918.5125
2309.80474	21971.5125
2312.66327	21988.8125
2315.51999	21988.6125
2318.37489	22009.3125
2321.22797	21954.2125
2324.07925	21967.6125
2326.92871	21905.9125
2329.77637	21943.0125
2332.62222	21933.7125
2335.46626	21934.7125
2338.3085	21911.6125
2341.14893	21966.8125
2343.98756	21985.9125
2346.8244	21980.8125
2349.65943	21986.7125
2352.49267	21938.0125
2355.32411	21944.9125
2358.15376	21892.0125
2360.98161	21878.1125
2363.80768	21850.3125
2366.63195	21800.6125
2369.45444	21771.3125
2372.27514	21757.3125
2375.09405	21623.3125
2377.91118	21600.5125
2380.72652	21574.5125
2383.54009	21535.1125
2386.35187	21480.2125
2389.16188	21487.1125
2391.97011	21408.7125
2394.77657	21399.5125
2397.58125	21390.0125
2400.38416	21330.3125
2403.18529	21295.2125
2405.98466	21298.5125
2408.78226	21190.1125
2411.57809	21147.1125
2414.37216	21100.2125
2417.16446	21070.4125
2419.955	21059.9125
2422.74378	21042.5125
2425.5308	21006.7125
2428.31606	21006.7125
2431.09956	20949.7125
2433.88131	20944.0125
2436.6613	20956.8125
2439.43954	20940.9125
2442.21603	20933.6125
2444.99077	20927.3125
2447.76377	20926.4125
2450.53501	20907.0125
2453.30451	20942.7125
2456.07226	20868.6125
2458.83827	20854.7125
2461.60254	20870.8125
2464.36507	20900.3125
2467.12586	20868.0125
2469.88492	20855.6125
2472.64224	20855.2125
2475.39782	20863.9125
2478.15167	20824.8125
2480.90379	20887.2125
2483.65417	20933.9125
2486.40283	20933.9125
2489.14976	20925.1125
2491.89497	20943.5125
2494.63845	21011.7125
2497.3802	20946.2125
2500.12024	20933.7125
2502.85855	20966.9125
2505.59514	20904.4125
2508.33002	20914.7125
2511.06318	20861.7125
2513.79462	20876.4125
2516.52435	20820.6125
2519.25237	20811.4125
2521.97867	20795.3125
2524.70327	20762.5125
2527.42616	20756.4125
2530.14734	20733.6125
2532.86681	20666.5125
2535.58458	20719.1125
2538.30065	20724.0125
2541.01501	20681.2125
2543.72768	20649.5125
2546.43864	20658.4125
2549.14791	20639.8125
2551.85548	20651.3125
2554.56136	20645.4125
2557.26554	20659.6125
2559.96803	20586.3125
2562.66883	20583.7125
2565.36794	20534.6125
2568.06536	20590.8125
2570.7611	20531.7125
2573.45514	20546.2125
2576.14751	20490.2125
2578.83819	20489.0125
2581.52719	20540.3125
2584.21451	20514.2125
2586.90015	20518.5125
2589.58411	20493.6125
2592.2664	20497.1125
2594.94701	20488.8125
2597.62594	20476.6125
2600.30321	20454.6125
2602.9788	20453.3125
2605.65273	20394.3125
2608.32498	20394.8125
2610.99557	20439.9125
2613.66449	20399.6125
2616.33175	20391.7125
2618.99734	20408.3125
2621.66128	20448.9125
2624.32355	20411.9125
2626.98416	20444.6125
2629.64311	20416.0125
2632.30041	20451.5125
2634.95605	20452.5125
2637.61004	20393.0125
2640.26238	20368.8125
2642.91306	20316.2125
2645.56209	20292.9125
2648.20948	20242.5125
2650.85521	20220.6125
2653.4993	20219.0125
2656.14175	20185.8125
2658.78255	20210.1125
2661.42171	20202.0125
2664.05923	20204.4125
2666.6951	20238.0125
2669.32934	20245.6125
2671.96194	20301.2125
2674.59291	20293.6125
2677.22224	20286.1125
2679.84993	20300.7125
2682.476	20246.3125
2685.10043	20248.1125
2687.72324	20187.5125
2690.34441	20203.7125
2692.96396	20154.0125
2695.58188	20161.4125
2698.19818	20138.7125
2700.81285	20146.5125
2703.4259	20135.7125
2706.03733	20151.5125
2708.64714	20176.2125
2711.25533	20156.6125
2713.86191	20121.4125
2716.46687	20145.6125
2719.07021	20156.7125
2721.67194	20175.0125
2724.27206	20148.7125
2726.87057	20161.4125
2729.46747	20149.3125
2732.06276	20173.6125
2734.65644	20165.8125
2737.24852	20154.3125
2739.83899	20094.3125
2742.42786	20143.5125
2745.01513	20141.4125
2747.60079	20133.5125
2750.18486	20121.0125
2752.76733	20126.0125
2755.3482	20133.6125
2757.92747	20118.7125
2760.50515	20109.7125
2763.08123	20115.7125
2765.65573	20064.4125
2768.22863	20107.0125
2770.79994	20098.2125
2773.36967	20106.8125
2775.9378	20058.4125
2778.50435	20050.8125
2781.06932	20066.2125
2783.6327	20027.5125
2786.1945	20031.3125
2788.75471	19988.5125
2791.31335	19947.7125
2793.87041	19909.0125
2796.42589	19905.8125
2798.97979	19884.6125
2801.53212	19795.1125
2804.08288	19832.5125
2806.63206	19789.7125
2809.17967	19767.4125
2811.72571	19729.8125
2814.27018	19707.3125
2816.81308	19703.5125
2819.35442	19719.5125
2821.89419	19672.0125
2824.43239	19676.9125
2826.96904	19612.8125
2829.50412	19631.4125
2832.03763	19574.0125
2834.56959	19572.6125
2837.1	19554.3125
2839.62884	19536.5125
2842.15613	19559.1125
2844.68186	19574.8125
2847.20604	19592.0125
2849.72867	19557.9125
2852.24974	19569.2125
2854.76927	19536.6125
2857.28724	19544.9125
2859.80367	19522.7125
2862.31855	19454.0125
2864.83189	19475.2125
2867.34368	19471.4125
2869.85393	19475.4125
2872.36264	19462.1125
2874.8698	19492.4125
2877.37543	19483.9125
2879.87952	19467.8125
2882.38207	19485.7125
2884.88308	19470.9125
2887.38256	19501.4125
2889.88051	19480.4125
2892.37692	19509.4125
2894.8718	19509.0125
2897.36515	19505.7125
2899.85698	19543.1125
2902.34727	19556.9125
2904.83604	19535.4125
2907.32328	19594.6125
2909.809	19574.1125
2912.29319	19600.1125
2914.77587	19565.2125
2917.25702	19577.1125
2919.73665	19538.5125
2922.21476	19539.7125
2924.69136	19529.0125
2927.16644	19544.4125
2929.64	19457.0125
2932.11205	19454.3125
2934.58258	19394.3125
2937.05161	19427.5125
2939.51912	19408.3125
2941.98513	19369.7125
2944.44962	19333.3125
2946.91261	19263.0125
2949.37409	19275.4125
2951.83407	19284.8125
2954.29254	19285.5125
2956.74951	19257.7125
2959.20498	19236.6125
2961.65895	19245.8125
2964.11142	19184.3125
2966.56239	19108.0125
2969.01186	19109.3125
2971.45984	19040.4125
2973.90632	19064.4125
2976.35131	18980.1125
2978.7948	18907.2125
2981.23681	18900.7125
2983.67732	18861.9125
2986.11635	18790.8125
2988.55388	18749.4125
2990.98993	18707.4125
2993.4245	18685.5125
2995.85758	18634.4125
2998.28917	18624.3125
3000.71928	18616.4125
3003.14791	18571.9125
3005.57506	18545.0125
3008.00073	18485.9125
3010.42493	18488.1125
3012.84764	18449.4125
3015.26888	18420.1125
3017.68865	18382.2125
3020.10694	18376.4125
3022.52376	18319.3125
3024.9391	18296.6125
