Data from AgNPs_FTO_APTES_UA_5uM_R6G_10uM_NaF_0.1M_Addition_RamanShift__32__13-02-57-288.txt Node

Date: Fri Dec 17 13:02:57 GMT 2021
User: TCL
Spectrometer: QEP01345
Trigger mode: 4
Integration Time (sec): 7.000000E0
Scans to average: 10
Electric dark correction enabled: true
Nonlinearity correction enabled: false
Boxcar width: 0
XAxis mode: Raman Shifts
Number of Pixels in Spectrum: 1044
>>>>>Begin Spectral Data<<<<<
46.04893	-0.5375
50.45542	-0.3375
54.85868	-1.8375
59.25871	1.2625
63.6555	83.4625
68.04907	86.9625
72.43941	92.2625
76.82654	102.3625
81.21044	102.0625
85.59113	108.2625
89.96862	115.2625
94.34289	115.7625
98.71396	119.6625
103.08183	122.6625
107.4465	125.9625
111.80798	125.2625
116.16626	130.0625
120.52136	130.9625
124.87327	135.3625
129.222	137.7625
133.56755	139.0625
137.90993	148.8625
142.24913	160.5625
146.58517	172.3625
150.91804	187.9625
155.24774	220.4625
159.57429	259.1625
163.89768	325.3625
168.21792	416.9625
172.53501	558.8625
176.84895	750.1625
181.15975	1042.0625
185.46741	1449.2625
189.77193	1988.9625
194.07331	2660.9625
198.37157	3437.1625
202.6667	4241.3625
206.9587	5054.5625
211.24758	5824.6625
215.53334	6648.1625
219.81599	7493.7625
224.09553	8477.6625
228.37195	9547.4625
232.64527	10738.0625
236.91549	11934.3625
241.18261	13109.4625
245.44663	14175.0625
249.70755	15066.6625
253.96539	15877.8625
258.22014	16553.5625
262.4718	17178.0625
266.72039	17642.0625
270.96589	17890.4625
275.20832	17957.5625
279.44768	17768.1625
283.68397	17527.2625
287.91719	17270.9625
292.14735	17184.1625
296.37445	17268.9625
300.59849	17574.6625
304.81948	17984.4625
309.03742	18233.3625
313.25231	18236.0625
317.46415	17712.6625
321.67296	16911.3625
325.87872	16224.1625
330.08145	15978.2625
334.28114	15943.3625
338.47781	16167.8625
342.67145	16456.1625
346.86207	16906.8625
351.04966	17550.7625
355.23424	18251.5625
359.4158	18899.1625
363.59435	19276.7625
367.76989	19478.0625
371.94243	19559.8625
376.11196	19592.4625
380.27849	19643.5625
384.44203	19612.7625
388.60257	19554.7625
392.76012	19558.2625
396.91468	19716.8625
401.06626	20096.6625
405.21485	20390.0625
409.36047	20233.4625
413.50311	19661.5625
417.64277	19093.4625
421.77947	18804.5625
425.9132	18723.5625
430.04396	18780.0625
434.17176	18866.4625
438.2966	19155.8625
442.41849	19539.2625
446.53742	20081.9625
450.6534	20630.9625
454.76644	21061.4625
458.87653	21193.1625
462.98368	21079.0625
467.08789	20733.0625
471.18916	20358.9625
475.2875	19936.3625
479.38291	19603.0625
483.4754	19331.7625
487.56496	19124.2625
491.6516	18946.9625
495.73531	18884.0625
499.81612	18846.7625
503.89401	19002.8625
507.96899	19122.4625
512.04106	19221.6625
516.11023	19392.4625
520.1765	19498.4625
524.23987	19472.5625
528.30034	19319.9625
532.35792	19122.4625
536.41261	18847.6625
540.46441	18574.9625
544.51333	18473.4625
548.55936	18554.3625
552.60252	18838.6625
556.64279	19157.2625
560.6802	19360.1625
564.71473	19479.2625
568.7464	19865.0625
572.7752	20185.8625
576.80114	20042.5625
580.82422	19824.7625
584.84444	19836.5625
588.86181	20072.5625
592.87633	20435.1625
596.888	20853.1625
600.89682	21214.5625
604.9028	22601.1625
608.90594	26186.3625
612.90624	30613.2625
616.90371	29399.9625
620.89834	23117.5625
624.89015	20131.1625
628.87913	19554.9625
632.86528	19597.3625
636.84862	19699.9625
640.82913	19429.2625
644.80683	18917.1625
648.78172	18566.3625
652.75379	18605.8625
656.72306	19096.8625
660.68952	19699.4625
664.65319	19559.7625
668.61405	19005.2625
672.57211	18764.9625
676.52738	18802.2625
680.47986	18758.4625
684.42955	18671.3625
688.37646	18652.8625
692.32058	18763.0625
696.26192	18954.4625
700.20048	19177.0625
704.13626	19314.5625
708.06928	19227.1625
711.99952	19069.1625
715.927	19027.7625
719.85171	19103.2625
723.77365	19094.5625
727.69284	18925.3625
731.60928	18797.2625
735.52295	18775.5625
739.43388	18813.2625
743.34206	18934.1625
747.24749	18975.7625
751.15017	19092.8625
755.05012	19322.7625
758.94733	19873.5625
762.8418	21048.9625
766.73354	23010.4625
770.62254	25167.6625
774.50882	26307.2625
778.39237	25526.2625
782.27321	23322.4625
786.15132	21171.5625
790.02671	19887.2625
793.89938	19326.4625
797.76935	19130.5625
801.6366	19044.8625
805.50115	18962.8625
809.36299	18904.3625
813.22213	18807.6625
817.07857	18793.5625
820.93231	18758.7625
824.78336	18781.9625
828.63172	18872.9625
832.47738	18889.3625
836.32036	18879.6625
840.16066	18891.2625
843.99827	18899.0625
847.8332	18825.5625
851.66546	18795.3625
855.49504	18831.5625
859.32195	18804.1625
863.1462	18761.0625
866.96777	18691.2625
870.78668	18711.0625
874.60293	18744.6625
878.41652	18748.0625
882.22745	18838.6625
886.03573	18927.2625
889.84136	18897.9625
893.64433	18818.3625
897.44466	18727.7625
901.24235	18699.3625
905.0374	18668.0625
908.8298	18614.5625
912.61957	18640.1625
916.40671	18727.1625
920.19121	18846.4625
923.97308	18985.4625
927.75233	19163.7625
931.52895	19230.0625
935.30295	19068.6625
939.07433	18786.9625
942.84309	18509.6625
946.60924	18374.1625
950.37278	18309.0625
954.13371	18245.3625
957.89203	18162.6625
961.64774	18139.8625
965.40086	18093.0625
969.15137	18036.9625
972.89929	18019.5625
976.64461	18026.3625
980.38733	18121.0625
984.12747	18169.2625
987.86502	18338.5625
991.59999	18489.3625
995.33237	18745.3625
999.06217	19117.5625
1002.78939	19499.2625
1006.51404	19823.6625
1010.23611	20123.7625
1013.95561	20288.4625
1017.67255	20252.9625
1021.38692	20053.1625
1025.09872	19833.4625
1028.80796	19869.4625
1032.51465	20133.2625
1036.21877	20450.4625
1039.92035	20515.3625
1043.61937	20415.7625
1047.31584	20112.0625
1051.00976	19817.1625
1054.70114	19651.8625
1058.38998	19597.9625
1062.07627	19598.5625
1065.76003	19693.8625
1069.44126	19764.3625
1073.11995	19957.2625
1076.79611	20158.1625
1080.46974	20336.9625
1084.14085	20663.0625
1087.80943	20933.9625
1091.47549	21082.7625
1095.13903	20928.5625
1098.80005	20528.5625
1102.45857	20170.5625
1106.11456	20046.4625
1109.76805	20125.4625
1113.41903	20292.0625
1117.06751	20555.1625
1120.71348	20909.5625
1124.35696	21285.1625
1127.99793	21676.3625
1131.63641	21717.1625
1135.2724	21262.6625
1138.90589	20757.6625
1142.5369	20449.5625
1146.16542	20245.8625
1149.79145	20185.7625
1153.415	20149.7625
1157.03607	20304.6625
1160.65467	20610.7625
1164.27079	21114.6625
1167.88443	21854.3625
1171.49561	23038.3625
1175.10432	24821.3625
1178.71056	27231.9625
1182.31434	29324.9625
1185.91565	30247.9625
1189.51451	29925.7625
1193.11091	28606.4625
1196.70485	26935.1625
1200.29634	25588.8625
1203.88538	24631.4625
1207.47197	23747.0625
1211.05612	23010.3625
1214.63782	22577.6625
1218.21708	22505.5625
1221.79391	22555.7625
1225.36829	22736.8625
1228.94024	22740.0625
1232.50976	22651.6625
1236.07685	22628.7625
1239.6415	22581.2625
1243.20374	22612.5625
1246.76355	22755.5625
1250.32093	23029.7625
1253.8759	23414.6625
1257.42845	23938.5625
1260.97859	24448.2625
1264.52631	24965.1625
1268.07163	25448.0625
1271.61453	25956.0625
1275.15503	26409.6625
1278.69312	26797.8625
1282.22882	27055.8625
1285.76211	27481.8625
1289.29301	27998.5625
1292.82151	28578.3625
1296.34761	29316.1625
1299.87133	30333.8625
1303.39266	31951.4625
1306.9116	34295.2625
1310.42815	36985.8625
1313.94233	38745.6625
1317.45412	38568.9625
1320.96354	37208.8625
1324.47058	35366.2625
1327.97525	33677.1625
1331.47754	32616.3625
1334.97747	32255.2625
1338.47502	32270.7625
1341.97022	32424.7625
1345.46305	32666.1625
1348.95352	33254.0625
1352.44163	34482.2625
1355.92738	36521.2625
1359.41078	39752.2625
1362.89183	42991.6625
1366.37053	42500.4625
1369.84688	37952.5625
1373.32088	32849.5625
1376.79254	29531.1625
1380.26186	27970.8625
1383.72883	27356.3625
1387.19347	26874.6625
1390.65578	26103.0625
1394.11575	25566.5625
1397.57339	25410.0625
1401.0287	25611.6625
1404.48168	26009.0625
1407.93234	26498.8625
1411.38068	26842.7625
1414.82669	26862.3625
1418.27039	26476.0625
1421.71177	25886.4625
1425.15083	25332.4625
1428.58758	24951.6625
1432.02203	25025.8625
1435.45416	25272.8625
1438.88399	25538.4625
1442.31151	25686.4625
1445.73673	25824.9625
1449.15965	25955.4625
1452.58027	25988.8625
1455.9986	25703.0625
1459.41463	25605.3625
1462.82837	25778.4625
1466.23982	26184.7625
1469.64898	26738.5625
1473.05586	27190.4625
1476.46045	27483.9625
1479.86276	27756.9625
1483.26279	28023.2625
1486.66054	28378.3625
1490.05602	28779.4625
1493.44922	29346.8625
1496.84016	30119.2625
1500.22882	31340.5625
1503.61521	33163.0625
1506.99934	35396.5625
1510.38121	37535.8625
1513.76081	38516.4625
1517.13816	37346.0625
1520.51324	34480.8625
1523.88607	31553.5625
1527.25665	29498.4625
1530.62498	28320.4625
1533.99105	27653.1625
1537.35488	27273.5625
1540.71647	26952.7625
1544.07581	26736.8625
1547.4329	26562.6625
1550.78776	26384.5625
1554.14038	26198.8625
1557.49077	26197.6625
1560.83892	26332.1625
1564.18484	26541.3625
1567.52853	26892.4625
1570.86999	27273.4625
1574.20922	27559.4625
1577.54624	27649.4625
1580.88103	27124.6625
1584.2136	26416.1625
1587.54395	26294.1625
1590.87208	26968.4625
1594.19801	28366.8625
1597.52172	30122.3625
1600.84321	30989.9625
1604.16251	30211.5625
1607.47959	28504.6625
1610.79447	26527.3625
1614.10715	24720.7625
1617.41763	23249.8625
1620.7259	22367.0625
1624.03199	21972.3625
1627.33587	22037.4625
1630.63757	22455.3625
1633.93707	23361.2625
1637.23439	24699.4625
1640.52951	26563.1625
1643.82246	28847.5625
1647.11321	31045.5625
1650.40179	32131.1625
1653.68819	31012.0625
1656.97241	27776.8625
1660.25446	24371.2625
1663.53433	21932.6625
1666.81203	20480.7625
1670.08756	19602.4625
1673.36092	19070.8625
1676.63211	18719.9625
1679.90115	18499.9625
1683.16801	18311.7625
1686.43272	18164.7625
1689.69527	18086.9625
1692.95567	17985.9625
1696.2139	17959.7625
1699.46999	17957.5625
1702.72392	17904.2625
1705.97571	17913.6625
1709.22535	17920.9625
1712.47284	17867.8625
1715.71819	17893.9625
1718.96139	17893.3625
1722.20246	17849.1625
1725.44139	17814.9625
1728.67818	17697.5625
1731.91284	17616.1625
1735.14537	17546.0625
1738.37576	17475.1625
1741.60403	17403.2625
1744.83017	17372.9625
1748.05418	17351.3625
1751.27607	17312.1625
1754.49584	17272.7625
1757.71349	17281.4625
1760.92903	17256.6625
1764.14244	17292.4625
1767.35375	17299.0625
1770.56294	17258.4625
1773.77002	17236.5625
1776.97499	17214.4625
1780.17785	17172.8625
1783.37861	17171.9625
1786.57727	17140.1625
1789.77382	17100.4625
1792.96828	17117.8625
1796.16064	17082.2625
1799.3509	17078.5625
1802.53907	17068.2625
1805.72514	16997.1625
1808.90913	17002.9625
1812.09102	16951.9625
1815.27083	16902.9625
1818.44856	16891.4625
1821.6242	16892.0625
1824.79776	16860.2625
1827.96924	16824.0625
1831.13864	16859.2625
1834.30597	16841.2625
1837.47122	16853.1625
1840.6344	16816.4625
1843.7955	16840.0625
1846.95454	16836.0625
1850.11151	16833.3625
1853.26642	16827.0625
1856.41926	16845.6625
1859.57004	16844.4625
1862.71876	16795.4625
1865.86542	16812.5625
1869.01003	16805.5625
1872.15258	16811.3625
1875.29308	16813.2625
1878.43152	16828.0625
1881.56792	16834.2625
1884.70227	16825.3625
1887.83457	16836.4625
1890.96482	16830.8625
1894.09304	16806.1625
1897.21921	16816.0625
1900.34335	16807.0625
1903.46544	16802.4625
1906.58551	16797.8625
1909.70353	16813.3625
1912.81953	16788.6625
1915.93349	16773.1625
1919.04543	16751.7625
1922.15534	16705.3625
1925.26322	16687.1625
1928.36908	16678.2625
1931.47292	16646.0625
1934.57473	16554.5625
1937.67453	16525.4625
1940.77232	16472.4625
1943.86808	16407.7625
1946.96184	16358.7625
1950.05358	16350.1625
1953.14331	16273.5625
1956.23103	16215.8625
1959.31675	16199.9625
1962.40046	16121.3625
1965.48217	16089.1625
1968.56188	16053.5625
1971.63959	16047.9625
1974.7153	15962.2625
1977.78901	15932.1625
1980.86073	15882.9625
1983.93046	15838.8625
1986.99819	15789.5625
1990.06394	15758.4625
1993.1277	15717.1625
1996.18947	15639.7625
1999.24925	15631.3625
2002.30706	15578.8625
2005.36288	15515.0625
2008.41672	15519.1625
2011.46859	15476.5625
2014.51848	15449.5625
2017.56639	15377.4625
2020.61233	15369.4625
2023.6563	15306.8625
2026.6983	15302.2625
2029.73833	15256.5625
2032.7764	15213.4625
2035.8125	15211.2625
2038.84664	15198.0625
2041.87881	15169.5625
2044.90903	15145.5625
2047.93729	15131.8625
2050.96359	15092.3625
2053.98794	15070.7625
2057.01034	15091.2625
2060.03078	15080.9625
2063.04927	15051.8625
2066.06582	15027.6625
2069.08042	15049.2625
2072.09307	15031.4625
2075.10378	15029.8625
2078.11255	14989.9625
2081.11938	14998.6625
2084.12426	14972.0625
2087.12722	14971.2625
2090.12824	14987.9625
2093.12732	14971.5625
2096.12447	14999.6625
2099.11969	14984.0625
2102.11299	15013.2625
2105.10435	14998.6625
2108.09379	15026.4625
2111.08131	15027.0625
2114.0669	15028.1625
2117.05057	15067.4625
2120.03233	15077.9625
2123.01216	15089.1625
2125.99008	15075.9625
2128.96609	15125.7625
2131.94018	15129.1625
2134.91236	15122.3625
2137.88263	15125.1625
2140.851	15140.2625
2143.81746	15158.4625
2146.78201	15170.3625
2149.74466	15183.8625
2152.7054	15143.3625
2155.66425	15205.9625
2158.6212	15152.5625
2161.57625	15151.2625
2164.52941	15183.4625
2167.48067	15156.5625
2170.43004	15158.0625
2173.37752	15161.2625
2176.32311	15135.9625
2179.26681	15145.4625
2182.20863	15170.6625
2185.14856	15178.1625
2188.08661	15197.7625
2191.02278	15159.9625
2193.95707	15141.5625
2196.88948	15159.7625
2199.82001	15158.0625
2202.74867	15141.0625
2205.67545	15124.6625
2208.60037	15099.5625
2211.52341	15108.6625
2214.44458	15107.6625
2217.36388	15031.5625
2220.28132	15048.7625
2223.1969	15024.2625
2226.11061	14968.9625
2229.02246	14968.1625
2231.93245	14936.2625
2234.84058	14922.5625
2237.74686	14881.0625
2240.65128	14879.7625
2243.55385	14848.6625
2246.45456	14832.3625
2249.35343	14815.5625
2252.25044	14804.1625
2255.14561	14796.2625
2258.03893	14775.0625
2260.93041	14749.6625
2263.82004	14721.0625
2266.70783	14717.0625
2269.59378	14654.9625
2272.4779	14656.5625
2275.36017	14610.3625
2278.24061	14613.9625
2281.11922	14550.8625
2283.996	14514.7625
2286.87094	14511.0625
2289.74405	14483.8625
2292.61534	14495.6625
2295.4848	14470.9625
2298.35243	14447.7625
2301.21824	14475.4625
2304.08223	14462.8625
2306.94439	14451.1625
2309.80474	14443.0625
2312.66327	14454.3625
2315.51999	14448.4625
2318.37489	14465.0625
2321.22797	14426.5625
2324.07925	14430.5625
2326.92871	14396.0625
2329.77637	14377.5625
2332.62222	14378.7625
2335.46626	14350.3625
2338.3085	14348.0625
2341.14893	14344.5625
2343.98756	14345.4625
2346.8244	14336.1625
2349.65943	14355.8625
2352.49267	14329.2625
2355.32411	14307.1625
2358.15376	14327.3625
2360.98161	14298.0625
2363.80768	14280.6625
2366.63195	14294.0625
2369.45444	14282.9625
2372.27514	14219.8625
2375.09405	14258.7625
2377.91118	14208.0625
2380.72652	14142.4625
2383.54009	14141.7625
2386.35187	14119.8625
2389.16188	14056.9625
2391.97011	14053.8625
2394.77657	14023.5625
2397.58125	14024.4625
2400.38416	13977.5625
2403.18529	13962.3625
2405.98466	13956.6625
2408.78226	13893.0625
2411.57809	13887.6625
2414.37216	13881.8625
2417.16446	13873.4625
2419.955	13823.0625
2422.74378	13862.3625
2425.5308	13845.8625
2428.31606	13795.8625
2431.09956	13818.9625
2433.88131	13763.3625
2436.6613	13782.1625
2439.43954	13775.0625
2442.21603	13781.0625
2444.99077	13742.1625
2447.76377	13767.6625
2450.53501	13742.1625
2453.30451	13742.4625
2456.07226	13711.7625
2458.83827	13737.8625
2461.60254	13724.9625
2464.36507	13732.5625
2467.12586	13706.7625
2469.88492	13683.9625
2472.64224	13678.0625
2475.39782	13685.8625
2478.15167	13704.2625
2480.90379	13673.6625
2483.65417	13676.0625
2486.40283	13700.7625
2489.14976	13724.6625
2491.89497	13696.5625
2494.63845	13708.8625
2497.3802	13692.8625
2500.12024	13701.2625
2502.85855	13688.9625
2505.59514	13681.6625
2508.33002	13663.1625
2511.06318	13623.2625
2513.79462	13598.1625
2516.52435	13577.3625
2519.25237	13566.1625
2521.97867	13554.1625
2524.70327	13531.9625
2527.42616	13478.1625
2530.14734	13515.0625
2532.86681	13468.9625
2535.58458	13476.2625
2538.30065	13462.6625
2541.01501	13448.9625
2543.72768	13463.0625
2546.43864	13427.2625
2549.14791	13410.6625
2551.85548	13380.4625
2554.56136	13381.0625
2557.26554	13340.2625
2559.96803	13370.2625
2562.66883	13341.6625
2565.36794	13358.5625
2568.06536	13304.7625
2570.7611	13301.2625
2573.45514	13243.6625
2576.14751	13256.4625
2578.83819	13220.6625
2581.52719	13245.5625
2584.21451	13211.2625
2586.90015	13224.8625
2589.58411	13203.8625
2592.2664	13169.6625
2594.94701	13151.3625
2597.62594	13152.7625
2600.30321	13121.3625
2602.9788	13100.5625
2605.65273	13081.2625
2608.32498	13093.8625
2610.99557	13063.6625
2613.66449	13081.9625
2616.33175	13092.0625
2618.99734	13060.2625
2621.66128	13056.9625
2624.32355	13032.5625
2626.98416	13048.4625
2629.64311	13014.7625
2632.30041	13028.5625
2634.95605	12992.4625
2637.61004	12948.0625
2640.26238	12971.8625
2642.91306	12935.9625
2645.56209	12959.6625
2648.20948	12953.0625
2650.85521	12939.9625
2653.4993	12920.6625
2656.14175	12918.3625
2658.78255	12919.8625
2661.42171	12921.0625
2664.05923	12946.5625
2666.6951	12953.3625
2669.32934	12967.3625
2671.96194	12959.4625
2674.59291	12972.8625
2677.22224	12960.5625
2679.84993	12984.9625
2682.476	12965.1625
2685.10043	12968.3625
2687.72324	12911.8625
2690.34441	12938.5625
2692.96396	12955.7625
2695.58188	12939.5625
2698.19818	12916.9625
2700.81285	12956.3625
2703.4259	12918.3625
2706.03733	12955.2625
2708.64714	12923.1625
2711.25533	12952.4625
2713.86191	12945.2625
2716.46687	12958.1625
2719.07021	12991.1625
2721.67194	12962.5625
2724.27206	12937.6625
2726.87057	12976.5625
2729.46747	12974.1625
2732.06276	12973.3625
2734.65644	12961.6625
2737.24852	12928.1625
2739.83899	12945.7625
2742.42786	12943.4625
2745.01513	12919.0625
2747.60079	12922.3625
2750.18486	12903.4625
2752.76733	12900.5625
2755.3482	12885.3625
2757.92747	12894.9625
2760.50515	12860.7625
2763.08123	12836.2625
2765.65573	12842.0625
2768.22863	12837.0625
2770.79994	12812.8625
2773.36967	12809.6625
2775.9378	12831.9625
2778.50435	12776.9625
2781.06932	12758.5625
2783.6327	12763.0625
2786.1945	12741.1625
2788.75471	12742.0625
2791.31335	12739.4625
2793.87041	12705.1625
2796.42589	12671.4625
2798.97979	12657.7625
2801.53212	12631.3625
2804.08288	12652.2625
2806.63206	12552.7625
2809.17967	12591.7625
2811.72571	12580.6625
2814.27018	12589.5625
2816.81308	12588.3625
2819.35442	12561.5625
2821.89419	12510.5625
2824.43239	12530.3625
2826.96904	12521.2625
2829.50412	12526.8625
2832.03763	12515.5625
2834.56959	12523.7625
2837.1	12464.7625
2839.62884	12502.2625
2842.15613	12498.7625
2844.68186	12517.8625
2847.20604	12551.1625
2849.72867	12567.0625
2852.24974	12557.9625
2854.76927	12555.7625
2857.28724	12532.9625
2859.80367	12506.8625
2862.31855	12524.5625
2864.83189	12493.2625
2867.34368	12468.5625
2869.85393	12483.5625
2872.36264	12461.6625
2874.8698	12473.5625
2877.37543	12458.1625
2879.87952	12479.1625
2882.38207	12501.2625
2884.88308	12471.2625
2887.38256	12458.6625
2889.88051	12469.6625
2892.37692	12480.0625
2894.8718	12457.7625
2897.36515	12476.4625
2899.85698	12465.1625
2902.34727	12506.2625
2904.83604	12509.7625
2907.32328	12534.5625
2909.809	12509.8625
2912.29319	12524.4625
2914.77587	12476.9625
2917.25702	12476.4625
2919.73665	12494.2625
2922.21476	12485.5625
2924.69136	12476.1625
2927.16644	12452.4625
2929.64	12453.1625
2932.11205	12420.1625
2934.58258	12351.3625
2937.05161	12410.0625
2939.51912	12381.0625
2941.98513	12336.3625
2944.44962	12315.6625
2946.91261	12240.3625
2949.37409	12269.6625
2951.83407	12282.3625
2954.29254	12232.3625
2956.74951	12222.9625
2959.20498	12234.1625
2961.65895	12195.2625
2964.11142	12215.0625
2966.56239	12132.2625
2969.01186	12141.1625
2971.45984	12096.4625
2973.90632	12099.1625
2976.35131	12089.6625
2978.7948	12041.7625
2981.23681	12006.5625
2983.67732	12011.1625
2986.11635	11952.3625
2988.55388	11930.8625
2990.98993	11916.9625
2993.4245	11918.1625
2995.85758	11860.0625
2998.28917	11815.4625
3000.71928	11828.1625
3003.14791	11835.0625
3005.57506	11818.7625
3008.00073	11781.0625
3010.42493	11768.4625
3012.84764	11750.8625
3015.26888	11774.5625
3017.68865	11732.7625
3020.10694	11718.7625
3022.52376	11688.7625
3024.9391	11660.4625
