Data from AgNPs_FTO_APTES_UA_0uM_R6G_10uM_NaF_0.1M_Addition_RamanShift__50__10-54-37-140.txt Node

Date: Fri Dec 17 10:54:37 GMT 2021
User: TCL
Spectrometer: QEP01345
Trigger mode: 4
Integration Time (sec): 7.000000E0
Scans to average: 10
Electric dark correction enabled: true
Nonlinearity correction enabled: false
Boxcar width: 0
XAxis mode: Raman Shifts
Number of Pixels in Spectrum: 1044
>>>>>Begin Spectral Data<<<<<
46.04893	-0.4875
50.45542	0.3125
54.85868	-1.6875
59.25871	-0.0875
63.6555	74.5125
68.04907	74.5125
72.43941	76.7125
76.82654	83.7125
81.21044	83.1125
85.59113	88.8125
89.96862	91.1125
94.34289	94.4125
98.71396	98.2125
103.08183	98.1125
107.4465	103.6125
111.80798	102.4125
116.16626	106.8125
120.52136	107.9125
124.87327	116.2125
129.222	121.1125
133.56755	126.5125
137.90993	136.7125
142.24913	149.8125
146.58517	165.2125
150.91804	188.6125
155.24774	217.8125
159.57429	274.6125
163.89768	348.9125
168.21792	448.8125
172.53501	615.7125
176.84895	847.2125
181.15975	1184.2125
185.46741	1661.4125
189.77193	2287.8125
194.07331	3045.8125
198.37157	3931.4125
202.6667	4847.5125
206.9587	5753.3125
211.24758	6673.9125
215.53334	7603.7125
219.81599	8623.1125
224.09553	9752.7125
228.37195	11021.8125
232.64527	12422.6125
236.91549	13791.3125
241.18261	15144.0125
245.44663	16300.6125
249.70755	17320.6125
253.96539	18143.0125
258.22014	18944.4125
262.4718	19619.1125
266.72039	20118.1125
270.96589	20399.0125
275.20832	20426.0125
279.44768	20267.0125
283.68397	20117.6125
287.91719	19912.2125
292.14735	19847.2125
296.37445	20020.7125
300.59849	20426.4125
304.81948	20944.6125
309.03742	21318.6125
313.25231	21273.6125
317.46415	20595.0125
321.67296	19571.4125
325.87872	18664.3125
330.08145	18245.8125
334.28114	18224.0125
338.47781	18521.7125
342.67145	18937.9125
346.86207	19514.7125
351.04966	20368.1125
355.23424	21380.5125
359.4158	22150.2125
363.59435	22594.7125
367.76989	22769.3125
371.94243	22793.5125
376.11196	22757.6125
380.27849	22736.1125
384.44203	22650.0125
388.60257	22540.2125
392.76012	22602.8125
396.91468	22841.5125
401.06626	23391.3125
405.21485	23812.3125
409.36047	23688.0125
413.50311	23017.9125
417.64277	22410.6125
421.77947	22131.7125
425.9132	22059.3125
430.04396	22138.2125
434.17176	22298.0125
438.2966	22676.7125
442.41849	23221.6125
446.53742	23960.1125
450.6534	24815.4125
454.76644	25365.7125
458.87653	25595.2125
462.98368	25364.7125
467.08789	24904.3125
471.18916	24308.2125
475.2875	23685.2125
479.38291	23183.2125
483.4754	22868.2125
487.56496	22536.8125
491.6516	22293.7125
495.73531	22080.2125
499.81612	22047.4125
503.89401	22126.9125
507.96899	22278.5125
512.04106	22363.1125
516.11023	22574.1125
520.1765	22665.2125
524.23987	22643.1125
528.30034	22430.4125
532.35792	22107.7125
536.41261	21752.4125
540.46441	21359.4125
544.51333	21255.7125
548.55936	21420.4125
552.60252	21745.3125
556.64279	22242.7125
560.6802	22528.7125
564.71473	22864.3125
568.7464	23510.9125
572.7752	24123.3125
576.80114	23887.4125
580.82422	23562.7125
584.84444	23611.3125
588.86181	23825.6125
592.87633	24233.0125
596.888	24690.2125
600.89682	25326.7125
604.9028	27192.9125
608.90594	31776.2125
612.90624	37312.8125
616.90371	35630.9125
620.89834	27581.2125
624.89015	23795.5125
628.87913	23087.6125
632.86528	22994.0125
636.84862	22894.7125
640.82913	22477.1125
644.80683	21802.2125
648.78172	21322.6125
652.75379	21414.7125
656.72306	21985.4125
660.68952	22792.6125
664.65319	22713.9125
668.61405	22022.9125
672.57211	21647.6125
676.52738	21630.1125
680.47986	21633.4125
684.42955	21504.2125
688.37646	21514.5125
692.32058	21583.5125
696.26192	21767.8125
700.20048	22084.4125
704.13626	22254.2125
708.06928	22165.4125
711.99952	21962.6125
715.927	21903.4125
719.85171	21899.3125
723.77365	21868.2125
727.69284	21675.1125
731.60928	21474.1125
735.52295	21516.4125
739.43388	21606.8125
743.34206	21788.6125
747.24749	21955.3125
751.15017	22190.2125
755.05012	22581.5125
758.94733	23416.1125
762.8418	25014.8125
766.73354	27625.3125
770.62254	30412.9125
774.50882	31574.8125
778.39237	30166.0125
782.27321	27308.7125
786.15132	24595.7125
790.02671	23047.6125
793.89938	22312.6125
797.76935	22016.7125
801.6366	21886.4125
805.50115	21795.1125
809.36299	21678.5125
813.22213	21609.5125
817.07857	21563.6125
820.93231	21641.4125
824.78336	21665.7125
828.63172	21735.7125
832.47738	21863.2125
836.32036	21895.9125
840.16066	21921.0125
843.99827	21955.0125
847.8332	21854.6125
851.66546	21745.8125
855.49504	21741.5125
859.32195	21646.4125
863.1462	21593.9125
866.96777	21469.3125
870.78668	21440.2125
874.60293	21489.3125
878.41652	21559.8125
882.22745	21665.2125
886.03573	21737.1125
889.84136	21692.8125
893.64433	21563.0125
897.44466	21485.6125
901.24235	21516.9125
905.0374	21480.1125
908.8298	21454.8125
912.61957	21473.5125
916.40671	21610.4125
920.19121	21849.0125
923.97308	22187.2125
927.75233	22440.1125
931.52895	22537.2125
935.30295	22320.9125
939.07433	21818.6125
942.84309	21414.1125
946.60924	21267.6125
950.37278	21140.2125
954.13371	20979.8125
957.89203	20819.3125
961.64774	20786.0125
965.40086	20676.5125
969.15137	20607.2125
972.89929	20582.7125
976.64461	20554.4125
980.38733	20600.5125
984.12747	20755.1125
987.86502	20951.1125
991.59999	21254.8125
995.33237	21661.1125
999.06217	22354.4125
1002.78939	23255.6125
1006.51404	23927.6125
1010.23611	24305.3125
1013.95561	24604.0125
1017.67255	24541.6125
1021.38692	24267.7125
1025.09872	24002.5125
1028.80796	24233.5125
1032.51465	24914.0125
1036.21877	25591.1125
1039.92035	25664.5125
1043.61937	25219.8125
1047.31584	24472.7125
1051.00976	23663.0125
1054.70114	23190.5125
1058.38998	22988.8125
1062.07627	22940.5125
1065.76003	23022.0125
1069.44126	23125.8125
1073.11995	23375.9125
1076.79611	23561.3125
1080.46974	23770.5125
1084.14085	24099.7125
1087.80943	24490.8125
1091.47549	24618.1125
1095.13903	24322.0125
1098.80005	23770.7125
1102.45857	23252.2125
1106.11456	23000.5125
1109.76805	23075.2125
1113.41903	23364.9125
1117.06751	23755.8125
1120.71348	24271.9125
1124.35696	24779.8125
1127.99793	25290.3125
1131.63641	25371.7125
1135.2724	24755.2125
1138.90589	24181.1125
1142.5369	23782.4125
1146.16542	23527.2125
1149.79145	23455.3125
1153.415	23501.4125
1157.03607	23720.3125
1160.65467	24133.6125
1164.27079	24839.4125
1167.88443	25891.7125
1171.49561	27554.6125
1175.10432	30130.8125
1178.71056	33469.0125
1182.31434	36305.8125
1185.91565	37694.1125
1189.51451	37444.1125
1193.11091	35861.0125
1196.70485	33578.1125
1200.29634	31708.5125
1203.88538	30272.9125
1207.47197	28938.6125
1211.05612	27932.1125
1214.63782	27495.3125
1218.21708	27511.6125
1221.79391	27709.9125
1225.36829	27866.4125
1228.94024	27788.5125
1232.50976	27558.2125
1236.07685	27429.5125
1239.6415	27378.0125
1243.20374	27398.7125
1246.76355	27489.0125
1250.32093	27811.1125
1253.8759	28462.8125
1257.42845	29356.9125
1260.97859	30189.6125
1264.52631	30785.7125
1268.07163	31442.6125
1271.61453	32210.2125
1275.15503	32974.1125
1278.69312	33689.6125
1282.22882	34308.2125
1285.76211	35075.8125
1289.29301	35969.5125
1292.82151	36820.4125
1296.34761	37861.0125
1299.87133	39337.0125
1303.39266	41579.8125
1306.9116	44880.7125
1310.42815	48731.5125
1313.94233	51361.1125
1317.45412	51400.4125
1320.96354	49384.8125
1324.47058	46992.2125
1327.97525	44882.4125
1331.47754	43602.2125
1334.97747	43286.8125
1338.47502	43596.7125
1341.97022	44058.6125
1345.46305	44222.6125
1348.95352	44485.6125
1352.44163	45268.9125
1355.92738	47246.4125
1359.41078	51080.7125
1362.89183	55200.6125
1366.37053	54665.7125
1369.84688	48830.2125
1373.32088	42281.1125
1376.79254	37911.5125
1380.26186	35808.7125
1383.72883	34877.3125
1387.19347	34217.7125
1390.65578	33495.4125
1394.11575	33134.6125
1397.57339	33232.6125
1401.0287	33772.9125
1404.48168	34582.2125
1407.93234	35509.8125
1411.38068	36113.7125
1414.82669	36107.0125
1418.27039	35241.2125
1421.71177	34029.3125
1425.15083	33035.2125
1428.58758	32505.1125
1432.02203	32439.0125
1435.45416	32715.6125
1438.88399	32967.0125
1442.31151	33134.6125
1445.73673	33361.7125
1449.15965	33608.2125
1452.58027	33620.9125
1455.9986	33366.6125
1459.41463	33260.2125
1462.82837	33482.2125
1466.23982	33939.4125
1469.64898	34597.7125
1473.05586	34990.8125
1476.46045	35300.7125
1479.86276	35702.8125
1483.26279	36145.5125
1486.66054	36683.6125
1490.05602	37401.5125
1493.44922	38198.7125
1496.84016	39013.5125
1500.22882	40206.9125
1503.61521	41962.6125
1506.99934	44250.6125
1510.38121	46823.3125
1513.76081	48472.8125
1517.13816	47693.4125
1520.51324	44481.9125
1523.88607	40858.4125
1527.25665	38162.5125
1530.62498	36554.9125
1533.99105	35670.9125
1537.35488	35124.5125
1540.71647	34813.6125
1544.07581	34515.2125
1547.4329	34227.2125
1550.78776	33831.9125
1554.14038	33521.0125
1557.49077	33436.9125
1560.83892	33546.8125
1564.18484	33793.1125
1567.52853	33912.0125
1570.86999	34043.3125
1574.20922	34229.0125
1577.54624	34226.8125
1580.88103	33688.0125
1584.2136	33018.8125
1587.54395	33283.5125
1590.87208	34713.6125
1594.19801	37188.0125
1597.52172	40077.8125
1600.84321	41522.1125
1604.16251	40441.5125
1607.47959	37515.8125
1610.79447	34122.4125
1614.10715	31076.6125
1617.41763	28806.1125
1620.7259	27456.5125
1624.03199	26871.6125
1627.33587	26953.8125
1630.63757	27661.6125
1633.93707	29045.1125
1637.23439	31038.4125
1640.52951	33533.9125
1643.82246	36456.5125
1647.11321	39053.6125
1650.40179	40250.9125
1653.68819	38705.9125
1656.97241	34528.9125
1660.25446	29915.2125
1663.53433	26526.1125
1666.81203	24391.0125
1670.08756	23163.4125
1673.36092	22419.0125
1676.63211	21906.5125
1679.90115	21538.9125
1683.16801	21270.6125
1686.43272	21080.3125
1689.69527	20975.2125
1692.95567	20861.1125
1696.2139	20805.8125
1699.46999	20760.3125
1702.72392	20745.1125
1705.97571	20749.5125
1709.22535	20738.1125
1712.47284	20741.8125
1715.71819	20698.2125
1718.96139	20749.6125
1722.20246	20671.0125
1725.44139	20610.1125
1728.67818	20510.8125
1731.91284	20409.4125
1735.14537	20280.7125
1738.37576	20208.8125
1741.60403	20150.9125
1744.83017	20103.8125
1748.05418	20071.1125
1751.27607	20038.2125
1754.49584	20023.6125
1757.71349	20006.5125
1760.92903	20008.4125
1764.14244	19958.6125
1767.35375	19981.9125
1770.56294	19959.7125
1773.77002	19931.0125
1776.97499	19872.1125
1780.17785	19902.5125
1783.37861	19896.6125
1786.57727	19834.5125
1789.77382	19806.4125
1792.96828	19809.9125
1796.16064	19792.4125
1799.3509	19756.9125
1802.53907	19778.3125
1805.72514	19700.3125
1808.90913	19651.9125
1812.09102	19626.9125
1815.27083	19590.9125
1818.44856	19567.8125
1821.6242	19549.7125
1824.79776	19492.1125
1827.96924	19482.1125
1831.13864	19500.8125
1834.30597	19455.7125
1837.47122	19473.5125
1840.6344	19472.2125
1843.7955	19470.3125
1846.95454	19505.3125
1850.11151	19475.0125
1853.26642	19477.3125
1856.41926	19479.2125
1859.57004	19529.3125
1862.71876	19485.4125
1865.86542	19506.4125
1869.01003	19492.8125
1872.15258	19508.1125
1875.29308	19551.9125
1878.43152	19544.6125
1881.56792	19568.9125
1884.70227	19570.7125
1887.83457	19555.1125
1890.96482	19561.2125
1894.09304	19548.1125
1897.21921	19539.4125
1900.34335	19553.6125
1903.46544	19529.6125
1906.58551	19567.6125
1909.70353	19559.4125
1912.81953	19533.6125
1915.93349	19505.7125
1919.04543	19509.8125
1922.15534	19503.8125
1925.26322	19438.4125
1928.36908	19402.8125
1931.47292	19379.8125
1934.57473	19304.3125
1937.67453	19241.9125
1940.77232	19189.7125
1943.86808	19088.7125
1946.96184	19040.4125
1950.05358	19003.0125
1953.14331	18890.7125
1956.23103	18853.0125
1959.31675	18764.0125
1962.40046	18725.0125
1965.48217	18718.5125
1968.56188	18646.1125
1971.63959	18579.2125
1974.7153	18512.6125
1977.78901	18459.9125
1980.86073	18419.8125
1983.93046	18366.2125
1986.99819	18278.3125
1990.06394	18219.3125
1993.1277	18176.2125
1996.18947	18118.7125
1999.24925	18085.6125
2002.30706	18018.3125
2005.36288	17949.3125
2008.41672	17904.8125
2011.46859	17886.7125
2014.51848	17818.7125
2017.56639	17797.9125
2020.61233	17739.3125
2023.6563	17735.6125
2026.6983	17690.3125
2029.73833	17637.5125
2032.7764	17624.9125
2035.8125	17565.3125
2038.84664	17551.7125
2041.87881	17535.8125
2044.90903	17533.2125
2047.93729	17501.3125
2050.96359	17475.7125
2053.98794	17459.2125
2057.01034	17421.1125
2060.03078	17412.4125
2063.04927	17369.7125
2066.06582	17372.6125
2069.08042	17371.4125
2072.09307	17312.4125
2075.10378	17307.7125
2078.11255	17284.0125
2081.11938	17304.1125
2084.12426	17297.7125
2087.12722	17280.2125
2090.12824	17250.9125
2093.12732	17263.6125
2096.12447	17253.7125
2099.11969	17273.8125
2102.11299	17249.0125
2105.10435	17269.6125
2108.09379	17278.0125
2111.08131	17257.3125
2114.0669	17280.4125
2117.05057	17265.4125
2120.03233	17271.0125
2123.01216	17298.6125
2125.99008	17323.7125
2128.96609	17300.9125
2131.94018	17345.7125
2134.91236	17320.2125
2137.88263	17330.8125
2140.851	17355.4125
2143.81746	17380.7125
2146.78201	17381.2125
2149.74466	17350.9125
2152.7054	17384.4125
2155.66425	17387.4125
2158.6212	17345.3125
2161.57625	17381.3125
2164.52941	17363.8125
2167.48067	17357.7125
2170.43004	17353.3125
2173.37752	17352.3125
2176.32311	17328.2125
2179.26681	17325.8125
2182.20863	17359.0125
2185.14856	17354.4125
2188.08661	17353.0125
2191.02278	17370.9125
2193.95707	17349.7125
2196.88948	17370.5125
2199.82001	17372.8125
2202.74867	17321.0125
2205.67545	17352.7125
2208.60037	17325.1125
2211.52341	17322.1125
2214.44458	17279.4125
2217.36388	17244.3125
2220.28132	17264.3125
2223.1969	17195.1125
2226.11061	17174.9125
2229.02246	17130.9125
2231.93245	17109.2125
2234.84058	17088.9125
2237.74686	17054.8125
2240.65128	17042.7125
2243.55385	16987.9125
2246.45456	16984.9125
2249.35343	16977.5125
2252.25044	16968.0125
2255.14561	16922.6125
2258.03893	16917.2125
2260.93041	16878.3125
2263.82004	16846.3125
2266.70783	16810.5125
2269.59378	16780.1125
2272.4779	16712.7125
2275.36017	16704.2125
2278.24061	16688.3125
2281.11922	16611.1125
2283.996	16627.7125
2286.87094	16611.5125
2289.74405	16579.1125
2292.61534	16566.8125
2295.4848	16522.9125
2298.35243	16508.7125
2301.21824	16514.0125
2304.08223	16543.0125
2306.94439	16518.4125
2309.80474	16545.2125
2312.66327	16570.0125
2315.51999	16566.5125
2318.37489	16570.8125
2321.22797	16529.2125
2324.07925	16527.9125
2326.92871	16483.3125
2329.77637	16487.7125
2332.62222	16490.9125
2335.46626	16476.1125
2338.3085	16465.2125
2341.14893	16467.7125
2343.98756	16448.3125
2346.8244	16504.1125
2349.65943	16508.9125
2352.49267	16497.1125
2355.32411	16477.8125
2358.15376	16441.9125
2360.98161	16448.0125
2363.80768	16427.1125
2366.63195	16400.2125
2369.45444	16365.4125
2372.27514	16302.1125
2375.09405	16310.7125
2377.91118	16257.6125
2380.72652	16251.1125
2383.54009	16166.5125
2386.35187	16141.4125
2389.16188	16117.7125
2391.97011	16092.0125
2394.77657	16058.1125
2397.58125	16038.9125
2400.38416	16014.1125
2403.18529	15987.5125
2405.98466	15969.1125
2408.78226	15927.4125
2411.57809	15874.1125
2414.37216	15843.0125
2417.16446	15840.8125
2419.955	15795.3125
2422.74378	15808.3125
2425.5308	15766.6125
2428.31606	15738.6125
2431.09956	15743.4125
2433.88131	15737.6125
2436.6613	15722.2125
2439.43954	15703.8125
2442.21603	15702.5125
2444.99077	15660.1125
2447.76377	15657.6125
2450.53501	15670.1125
2453.30451	15659.4125
2456.07226	15658.7125
2458.83827	15654.3125
2461.60254	15643.1125
2464.36507	15614.5125
2467.12586	15623.1125
2469.88492	15580.9125
2472.64224	15600.1125
2475.39782	15590.4125
2478.15167	15614.7125
2480.90379	15657.1125
2483.65417	15618.5125
2486.40283	15620.1125
2489.14976	15666.3125
2491.89497	15658.4125
2494.63845	15692.7125
2497.3802	15665.0125
2500.12024	15644.7125
2502.85855	15681.0125
2505.59514	15652.4125
2508.33002	15594.9125
2511.06318	15592.4125
2513.79462	15566.1125
2516.52435	15547.1125
2519.25237	15548.7125
2521.97867	15508.7125
2524.70327	15494.2125
2527.42616	15440.0125
2530.14734	15450.0125
2532.86681	15420.6125
2535.58458	15406.5125
2538.30065	15427.7125
2541.01501	15434.6125
2543.72768	15368.3125
2546.43864	15367.9125
2549.14791	15347.9125
2551.85548	15360.3125
2554.56136	15330.0125
2557.26554	15310.7125
2559.96803	15325.3125
2562.66883	15328.7125
2565.36794	15283.8125
2568.06536	15277.2125
2570.7611	15260.3125
2573.45514	15238.3125
2576.14751	15240.6125
2578.83819	15203.4125
2581.52719	15229.7125
2584.21451	15209.5125
2586.90015	15216.5125
2589.58411	15185.5125
2592.2664	15175.8125
2594.94701	15151.1125
2597.62594	15156.5125
2600.30321	15150.7125
2602.9788	15134.7125
2605.65273	15111.4125
2608.32498	15124.0125
2610.99557	15141.2125
2613.66449	15113.2125
2616.33175	15066.0125
2618.99734	15108.7125
2621.66128	15083.1125
2624.32355	15090.2125
2626.98416	15086.0125
2629.64311	15100.4125
2632.30041	15102.6125
2634.95605	15091.2125
2637.61004	15050.8125
2640.26238	15031.1125
2642.91306	14989.0125
2645.56209	14998.3125
2648.20948	14944.1125
2650.85521	14951.6125
2653.4993	14948.7125
2656.14175	14927.2125
2658.78255	14951.6125
2661.42171	14952.0125
2664.05923	14952.3125
2666.6951	14966.4125
2669.32934	14998.3125
2671.96194	15001.5125
2674.59291	15000.6125
2677.22224	14991.2125
2679.84993	14994.7125
2682.476	14994.5125
2685.10043	14989.5125
2687.72324	14988.7125
2690.34441	14993.4125
2692.96396	14951.0125
2695.58188	14971.4125
2698.19818	14945.5125
2700.81285	14955.9125
2703.4259	14928.7125
2706.03733	14972.8125
2708.64714	14960.9125
2711.25533	14962.4125
2713.86191	14947.1125
2716.46687	14962.9125
2719.07021	14982.7125
2721.67194	14971.2125
2724.27206	14925.0125
2726.87057	14954.7125
2729.46747	14943.4125
2732.06276	14957.5125
2734.65644	14955.0125
2737.24852	14947.0125
2739.83899	14934.7125
2742.42786	14944.8125
2745.01513	14922.1125
2747.60079	14912.0125
2750.18486	14890.8125
2752.76733	14905.3125
2755.3482	14902.1125
2757.92747	14916.9125
2760.50515	14910.2125
2763.08123	14873.3125
2765.65573	14884.7125
2768.22863	14876.0125
2770.79994	14886.2125
2773.36967	14852.7125
2775.9378	14834.9125
2778.50435	14844.7125
2781.06932	14821.2125
2783.6327	14835.4125
2786.1945	14806.6125
2788.75471	14826.5125
2791.31335	14754.4125
2793.87041	14751.5125
2796.42589	14700.5125
2798.97979	14718.4125
2801.53212	14661.1125
2804.08288	14654.9125
2806.63206	14627.4125
2809.17967	14652.3125
2811.72571	14591.0125
2814.27018	14588.2125
2816.81308	14586.9125
2819.35442	14599.9125
2821.89419	14569.9125
2824.43239	14600.9125
2826.96904	14542.7125
2829.50412	14568.6125
2832.03763	14506.5125
2834.56959	14538.8125
2837.1	14523.1125
2839.62884	14522.9125
2842.15613	14538.3125
2844.68186	14599.8125
2847.20604	14594.3125
2849.72867	14632.0125
2852.24974	14616.2125
2854.76927	14616.8125
2857.28724	14598.0125
2859.80367	14600.1125
2862.31855	14535.0125
2864.83189	14546.6125
2867.34368	14497.8125
2869.85393	14479.4125
2872.36264	14490.5125
2874.8698	14502.7125
2877.37543	14440.7125
2879.87952	14477.9125
2882.38207	14474.1125
2884.88308	14445.9125
2887.38256	14473.2125
2889.88051	14494.3125
2892.37692	14490.8125
2894.8718	14490.0125
2897.36515	14508.2125
2899.85698	14484.5125
2902.34727	14485.3125
2904.83604	14482.7125
2907.32328	14495.0125
2909.809	14497.3125
2912.29319	14497.3125
2914.77587	14493.6125
2917.25702	14507.1125
2919.73665	14459.6125
2922.21476	14451.6125
2924.69136	14457.4125
2927.16644	14455.5125
2929.64	14409.2125
2932.11205	14399.5125
2934.58258	14356.7125
2937.05161	14367.7125
2939.51912	14378.2125
2941.98513	14316.5125
2944.44962	14293.8125
2946.91261	14209.6125
2949.37409	14206.7125
2951.83407	14179.7125
2954.29254	14174.0125
2956.74951	14139.2125
2959.20498	14125.6125
2961.65895	14110.3125
2964.11142	14085.7125
2966.56239	14034.6125
2969.01186	14021.6125
2971.45984	13974.0125
2973.90632	13951.2125
2976.35131	13919.2125
2978.7948	13881.8125
2981.23681	13853.0125
2983.67732	13820.0125
2986.11635	13786.6125
2988.55388	13719.1125
2990.98993	13698.3125
2993.4245	13687.0125
2995.85758	13636.7125
2998.28917	13628.0125
3000.71928	13603.0125
3003.14791	13581.8125
3005.57506	13555.1125
3008.00073	13535.1125
3010.42493	13520.2125
3012.84764	13493.6125
3015.26888	13470.6125
3017.68865	13459.2125
3020.10694	13419.3125
3022.52376	13392.1125
3024.9391	13348.2125
