Data from AgNPs_FTO_APTES_UA_50uM_R6G_10uM_NaF_0.1M_Addition_RamanShift__18__14-57-17-418.txt Node

Date: Fri Dec 17 14:57:17 GMT 2021
User: TCL
Spectrometer: QEP01345
Trigger mode: 4
Integration Time (sec): 7.000000E0
Scans to average: 10
Electric dark correction enabled: true
Nonlinearity correction enabled: false
Boxcar width: 0
XAxis mode: Raman Shifts
Number of Pixels in Spectrum: 1044
>>>>>Begin Spectral Data<<<<<
46.04893	0.075
50.45542	-1.825
54.85868	-2.225
59.25871	-0.725
63.6555	86.475
68.04907	94.175
72.43941	90.775
76.82654	102.175
81.21044	101.875
85.59113	108.875
89.96862	113.175
94.34289	117.575
98.71396	118.375
103.08183	121.075
107.4465	130.075
111.80798	129.275
116.16626	132.275
120.52136	136.275
124.87327	143.775
129.222	154.175
133.56755	159.575
137.90993	175.875
142.24913	192.875
146.58517	212.775
150.91804	244.075
155.24774	292.575
159.57429	360.975
163.89768	464.575
168.21792	609.475
172.53501	818.475
176.84895	1156.275
181.15975	1600.475
185.46741	2253.375
189.77193	3104.575
194.07331	4139.475
198.37157	5330.675
202.6667	6587.675
206.9587	7809.075
211.24758	9014.975
215.53334	10215.975
219.81599	11495.475
224.09553	12912.375
228.37195	14500.575
232.64527	16261.875
236.91549	18119.875
241.18261	19975.675
245.44663	21712.475
249.70755	23240.875
253.96539	24575.975
258.22014	25757.775
262.4718	26652.575
266.72039	27320.475
270.96589	27677.675
275.20832	27735.775
279.44768	27596.875
283.68397	27376.575
287.91719	27122.275
292.14735	27056.775
296.37445	27070.375
300.59849	27160.575
304.81948	27285.475
309.03742	27263.875
313.25231	26906.175
317.46415	26325.275
321.67296	25574.275
325.87872	24913.275
330.08145	24611.675
334.28114	24583.575
338.47781	24743.775
342.67145	25039.275
346.86207	25409.975
351.04966	25928.675
355.23424	26413.975
359.4158	26908.675
363.59435	27235.875
367.76989	27477.375
371.94243	27587.475
376.11196	27797.375
380.27849	27936.075
384.44203	28086.575
388.60257	28245.575
392.76012	28498.875
396.91468	28846.175
401.06626	29216.675
405.21485	29560.375
409.36047	29431.475
413.50311	28953.775
417.64277	28584.875
421.77947	28468.375
425.9132	28535.475
430.04396	28646.475
434.17176	28804.775
438.2966	29011.475
442.41849	29388.675
446.53742	30020.575
450.6534	30735.975
454.76644	31316.175
458.87653	31622.275
462.98368	31557.575
467.08789	31319.175
471.18916	30974.175
475.2875	30568.375
479.38291	30276.075
483.4754	29917.975
487.56496	29507.075
491.6516	29060.575
495.73531	28798.575
499.81612	28743.075
503.89401	28942.875
507.96899	29064.175
512.04106	29109.175
516.11023	29069.375
520.1765	28884.475
524.23987	28649.075
528.30034	28412.275
532.35792	28173.875
536.41261	27909.875
540.46441	27661.575
544.51333	27607.775
548.55936	27951.975
552.60252	28421.075
556.64279	29024.775
560.6802	29372.575
564.71473	29591.975
568.7464	29951.575
572.7752	30508.675
576.80114	30963.375
580.82422	31354.375
584.84444	31672.375
588.86181	31988.775
592.87633	32135.475
596.888	32309.375
600.89682	32512.575
604.9028	33683.775
608.90594	36628.875
612.90624	39428.475
616.90371	37203.375
620.89834	31440.375
624.89015	28836.875
628.87913	28476.575
632.86528	28584.975
636.84862	28652.975
640.82913	28352.575
644.80683	27709.475
648.78172	27135.475
652.75379	26959.975
656.72306	27273.475
660.68952	27712.975
664.65319	27556.175
668.61405	27054.075
672.57211	26982.175
676.52738	27025.075
680.47986	27043.775
684.42955	26901.075
688.37646	26814.875
692.32058	26900.275
696.26192	27127.475
700.20048	27398.975
704.13626	27547.675
708.06928	27478.275
711.99952	27346.275
715.927	27213.775
719.85171	27272.075
723.77365	27151.475
727.69284	26949.075
731.60928	26652.475
735.52295	26558.975
739.43388	26554.975
743.34206	26664.375
747.24749	26737.575
751.15017	26927.875
755.05012	27308.975
758.94733	28046.175
762.8418	29451.575
766.73354	31689.575
770.62254	33887.775
774.50882	34591.175
778.39237	33207.775
782.27321	30740.775
786.15132	28688.875
790.02671	27419.275
793.89938	26780.275
797.76935	26552.475
801.6366	26456.775
805.50115	26378.475
809.36299	26257.075
813.22213	26026.075
817.07857	25893.675
820.93231	25763.975
824.78336	25694.375
828.63172	25617.275
832.47738	25613.275
836.32036	25595.875
840.16066	25562.475
843.99827	25638.975
847.8332	25570.375
851.66546	25522.575
855.49504	25486.075
859.32195	25517.475
863.1462	25478.275
866.96777	25381.175
870.78668	25335.775
874.60293	25372.575
878.41652	25387.175
882.22745	25439.575
886.03573	25526.275
889.84136	25538.275
893.64433	25451.675
897.44466	25339.975
901.24235	25260.875
905.0374	25142.475
908.8298	25079.275
912.61957	25037.775
916.40671	25248.375
920.19121	25507.275
923.97308	25743.175
927.75233	25737.975
931.52895	25639.375
935.30295	25408.975
939.07433	24962.275
942.84309	24623.075
946.60924	24484.275
950.37278	24426.775
954.13371	24330.875
957.89203	24320.475
961.64774	24238.575
965.40086	24176.975
969.15137	24088.675
972.89929	24058.575
976.64461	24042.675
980.38733	24023.275
984.12747	24055.075
987.86502	24253.275
991.59999	24514.175
995.33237	24822.075
999.06217	25414.975
1002.78939	26052.975
1006.51404	26523.575
1010.23611	26860.575
1013.95561	27079.475
1017.67255	27134.075
1021.38692	26902.175
1025.09872	26597.475
1028.80796	26518.375
1032.51465	26788.975
1036.21877	27138.575
1039.92035	27228.675
1043.61937	27064.175
1047.31584	26729.975
1051.00976	26369.975
1054.70114	26236.875
1058.38998	26299.275
1062.07627	26494.875
1065.76003	26778.975
1069.44126	27056.675
1073.11995	27437.375
1076.79611	27826.975
1080.46974	28022.075
1084.14085	28157.475
1087.80943	28345.875
1091.47549	28573.875
1095.13903	28575.475
1098.80005	28274.375
1102.45857	27727.875
1106.11456	27273.475
1109.76805	27117.475
1113.41903	27182.675
1117.06751	27382.675
1120.71348	27663.875
1124.35696	27962.175
1127.99793	28357.375
1131.63641	28543.975
1135.2724	28453.275
1138.90589	28256.175
1142.5369	28137.875
1146.16542	28097.375
1149.79145	28185.875
1153.415	28375.575
1157.03607	28716.775
1160.65467	29426.175
1164.27079	30550.075
1167.88443	32013.875
1171.49561	33898.475
1175.10432	36290.175
1178.71056	39232.175
1182.31434	42042.775
1185.91565	43784.375
1189.51451	44213.975
1193.11091	43319.875
1196.70485	41622.075
1200.29634	39741.575
1203.88538	38108.575
1207.47197	36797.375
1211.05612	35626.575
1214.63782	34875.575
1218.21708	34347.175
1221.79391	34000.975
1225.36829	33926.875
1228.94024	33672.475
1232.50976	33334.875
1236.07685	33024.475
1239.6415	32884.875
1243.20374	32811.975
1246.76355	32964.275
1250.32093	33390.675
1253.8759	34047.175
1257.42845	34940.575
1260.97859	35937.175
1264.52631	36829.975
1268.07163	37811.675
1271.61453	38809.975
1275.15503	39773.175
1278.69312	40704.375
1282.22882	41562.675
1285.76211	42241.875
1289.29301	43098.175
1292.82151	44297.575
1296.34761	45785.175
1299.87133	47814.975
1303.39266	50281.675
1306.9116	53035.475
1310.42815	55797.575
1313.94233	57662.375
1317.45412	57950.975
1320.96354	57229.175
1324.47058	56457.975
1327.97525	55738.075
1331.47754	55207.475
1334.97747	55132.875
1338.47502	55467.975
1341.97022	55866.075
1345.46305	55896.875
1348.95352	55590.175
1352.44163	55137.675
1355.92738	55209.675
1359.41078	56588.275
1362.89183	58015.175
1366.37053	56877.275
1369.84688	52411.475
1373.32088	47336.475
1376.79254	43730.875
1380.26186	42079.675
1383.72883	41649.975
1387.19347	41398.975
1390.65578	40998.775
1394.11575	40733.275
1397.57339	40932.575
1401.0287	41437.375
1404.48168	42066.475
1407.93234	42438.375
1411.38068	42154.975
1414.82669	41306.175
1418.27039	39968.475
1421.71177	38580.175
1425.15083	37379.175
1428.58758	36740.675
1432.02203	36793.575
1435.45416	37372.475
1438.88399	38200.475
1442.31151	39037.875
1445.73673	39581.575
1449.15965	40116.075
1452.58027	40514.375
1455.9986	40802.875
1459.41463	41242.675
1462.82837	41877.375
1466.23982	42621.275
1469.64898	43297.975
1473.05586	43642.375
1476.46045	43642.475
1479.86276	43374.375
1483.26279	42990.975
1486.66054	42744.175
1490.05602	42796.375
1493.44922	43087.975
1496.84016	43611.375
1500.22882	44648.875
1503.61521	46243.275
1506.99934	48111.575
1510.38121	49694.575
1513.76081	50095.475
1517.13816	48919.675
1520.51324	46748.675
1523.88607	44697.975
1527.25665	43406.675
1530.62498	42802.175
1533.99105	42530.475
1537.35488	42298.375
1540.71647	41921.675
1544.07581	41332.675
1547.4329	40700.675
1550.78776	40142.375
1554.14038	39726.775
1557.49077	39512.275
1560.83892	39422.075
1564.18484	39385.475
1567.52853	39390.075
1570.86999	39602.875
1574.20922	39984.475
1577.54624	40405.675
1580.88103	40284.975
1584.2136	40043.275
1587.54395	40537.275
1590.87208	41878.375
1594.19801	43970.775
1597.52172	46300.475
1600.84321	47271.975
1604.16251	45986.975
1607.47959	43373.175
1610.79447	40325.375
1614.10715	37337.275
1617.41763	34670.375
1620.7259	32583.775
1624.03199	31446.675
1627.33587	31203.175
1630.63757	31793.675
1633.93707	33526.575
1637.23439	36374.175
1640.52951	40112.375
1643.82246	44258.675
1647.11321	47328.675
1650.40179	47750.875
1653.68819	44990.875
1656.97241	39934.275
1660.25446	34771.575
1663.53433	30796.175
1666.81203	28191.775
1670.08756	26512.075
1673.36092	25397.875
1676.63211	24645.775
1679.90115	24162.275
1683.16801	23705.075
1686.43272	23428.875
1689.69527	23183.075
1692.95567	23009.175
1696.2139	22881.775
1699.46999	22769.975
1702.72392	22687.875
1705.97571	22607.375
1709.22535	22506.275
1712.47284	22448.275
1715.71819	22404.175
1718.96139	22356.375
1722.20246	22227.175
1725.44139	22121.975
1728.67818	22043.775
1731.91284	21884.675
1735.14537	21767.275
1738.37576	21665.075
1741.60403	21559.975
1744.83017	21516.275
1748.05418	21458.075
1751.27607	21417.475
1754.49584	21359.475
1757.71349	21367.275
1760.92903	21298.875
1764.14244	21260.775
1767.35375	21290.675
1770.56294	21238.475
1773.77002	21192.375
1776.97499	21138.475
1780.17785	21124.275
1783.37861	21067.775
1786.57727	21056.675
1789.77382	21032.775
1792.96828	20969.875
1796.16064	20868.175
1799.3509	20889.475
1802.53907	20827.375
1805.72514	20784.475
1808.90913	20721.475
1812.09102	20723.475
1815.27083	20647.675
1818.44856	20610.375
1821.6242	20551.875
1824.79776	20577.575
1827.96924	20536.475
1831.13864	20522.775
1834.30597	20532.475
1837.47122	20528.275
1840.6344	20550.575
1843.7955	20523.575
1846.95454	20529.175
1850.11151	20528.475
1853.26642	20539.475
1856.41926	20543.875
1859.57004	20524.875
1862.71876	20461.475
1865.86542	20486.775
1869.01003	20474.675
1872.15258	20439.575
1875.29308	20401.875
1878.43152	20410.775
1881.56792	20389.075
1884.70227	20372.175
1887.83457	20365.575
1890.96482	20331.075
1894.09304	20300.075
1897.21921	20288.875
1900.34335	20276.575
1903.46544	20252.975
1906.58551	20273.675
1909.70353	20208.675
1912.81953	20185.775
1915.93349	20176.675
1919.04543	20082.675
1922.15534	20017.975
1925.26322	19981.775
1928.36908	19921.475
1931.47292	19908.775
1934.57473	19808.875
1937.67453	19796.375
1940.77232	19708.675
1943.86808	19644.275
1946.96184	19615.775
1950.05358	19535.075
1953.14331	19543.175
1956.23103	19477.275
1959.31675	19391.375
1962.40046	19362.975
1965.48217	19318.775
1968.56188	19239.375
1971.63959	19175.675
1974.7153	19121.875
1977.78901	19064.075
1980.86073	19015.875
1983.93046	18949.475
1986.99819	18923.875
1990.06394	18843.975
1993.1277	18786.375
1996.18947	18688.275
1999.24925	18699.375
2002.30706	18631.975
2005.36288	18544.875
2008.41672	18478.375
2011.46859	18468.575
2014.51848	18412.475
2017.56639	18363.675
2020.61233	18298.075
2023.6563	18293.775
2026.6983	18239.475
2029.73833	18203.275
2032.7764	18193.275
2035.8125	18157.675
2038.84664	18083.075
2041.87881	18085.375
2044.90903	18086.575
2047.93729	18033.775
2050.96359	18033.575
2053.98794	17963.875
2057.01034	17956.175
2060.03078	17966.775
2063.04927	17929.675
2066.06582	17948.175
2069.08042	17883.975
2072.09307	17914.375
2075.10378	17874.775
2078.11255	17864.875
2081.11938	17881.575
2084.12426	17850.275
2087.12722	17844.375
2090.12824	17795.375
2093.12732	17819.575
2096.12447	17847.675
2099.11969	17825.875
2102.11299	17837.175
2105.10435	17834.675
2108.09379	17834.075
2111.08131	17883.175
2114.0669	17867.375
2117.05057	17909.075
2120.03233	17909.475
2123.01216	17950.375
2125.99008	17945.875
2128.96609	17926.375
2131.94018	17952.075
2134.91236	17945.275
2137.88263	17964.975
2140.851	17973.975
2143.81746	18010.275
2146.78201	18008.375
2149.74466	18031.675
2152.7054	18035.875
2155.66425	18020.775
2158.6212	18003.075
2161.57625	18001.175
2164.52941	17999.175
2167.48067	17967.275
2170.43004	17975.175
2173.37752	17981.675
2176.32311	17991.175
2179.26681	17986.975
2182.20863	17977.375
2185.14856	17944.075
2188.08661	17967.675
2191.02278	17964.975
2193.95707	17946.975
2196.88948	17954.975
2199.82001	17941.375
2202.74867	17941.175
2205.67545	17914.375
2208.60037	17900.975
2211.52341	17874.175
2214.44458	17858.075
2217.36388	17829.975
2220.28132	17797.575
2223.1969	17804.975
2226.11061	17765.675
2229.02246	17706.075
2231.93245	17673.775
2234.84058	17631.075
2237.74686	17578.675
2240.65128	17607.575
2243.55385	17565.775
2246.45456	17537.975
2249.35343	17516.575
2252.25044	17505.675
2255.14561	17477.875
2258.03893	17469.175
2260.93041	17437.875
2263.82004	17400.675
2266.70783	17358.575
2269.59378	17304.475
2272.4779	17277.675
2275.36017	17207.175
2278.24061	17206.175
2281.11922	17189.775
2283.996	17154.475
2286.87094	17146.375
2289.74405	17092.275
2292.61534	17060.875
2295.4848	17057.375
2298.35243	17057.575
2301.21824	17061.975
2304.08223	17049.675
2306.94439	17038.275
2309.80474	17080.875
2312.66327	17072.975
2315.51999	17027.875
2318.37489	17050.175
2321.22797	17032.375
2324.07925	17013.775
2326.92871	17004.775
2329.77637	17011.075
2332.62222	16964.575
2335.46626	16938.075
2338.3085	16931.975
2341.14893	16938.575
2343.98756	16957.375
2346.8244	16945.375
2349.65943	16922.975
2352.49267	16909.975
2355.32411	16949.275
2358.15376	16934.875
2360.98161	16923.975
2363.80768	16903.375
2366.63195	16893.175
2369.45444	16870.575
2372.27514	16874.975
2375.09405	16843.375
2377.91118	16801.175
2380.72652	16750.775
2383.54009	16723.175
2386.35187	16705.175
2389.16188	16671.575
2391.97011	16607.475
2394.77657	16617.875
2397.58125	16573.775
2400.38416	16565.475
2403.18529	16534.975
2405.98466	16529.575
2408.78226	16491.075
2411.57809	16460.975
2414.37216	16459.075
2417.16446	16431.775
2419.955	16401.875
2422.74378	16415.075
2425.5308	16400.375
2428.31606	16385.275
2431.09956	16380.275
2433.88131	16376.375
2436.6613	16410.475
2439.43954	16363.475
2442.21603	16353.075
2444.99077	16325.975
2447.76377	16357.075
2450.53501	16347.675
2453.30451	16348.575
2456.07226	16307.775
2458.83827	16315.175
2461.60254	16293.975
2464.36507	16277.675
2467.12586	16281.475
2469.88492	16295.975
2472.64224	16288.775
2475.39782	16300.975
2478.15167	16283.475
2480.90379	16298.675
2483.65417	16320.575
2486.40283	16320.775
2489.14976	16311.075
2491.89497	16301.075
2494.63845	16310.675
2497.3802	16307.975
2500.12024	16302.675
2502.85855	16303.775
2505.59514	16318.675
2508.33002	16275.775
2511.06318	16272.275
2513.79462	16236.475
2516.52435	16262.375
2519.25237	16203.075
2521.97867	16199.675
2524.70327	16222.175
2527.42616	16199.275
2530.14734	16191.675
2532.86681	16178.475
2535.58458	16156.775
2538.30065	16136.475
2541.01501	16133.275
2543.72768	16086.575
2546.43864	16128.475
2549.14791	16080.675
2551.85548	16070.975
2554.56136	16053.075
2557.26554	16048.975
2559.96803	16026.475
2562.66883	15986.575
2565.36794	16012.675
2568.06536	15999.875
2570.7611	15982.075
2573.45514	15969.075
2576.14751	15959.175
2578.83819	15958.975
2581.52719	15916.875
2584.21451	15924.275
2586.90015	15921.575
2589.58411	15891.575
2592.2664	15881.675
2594.94701	15867.175
2597.62594	15867.575
2600.30321	15833.675
2602.9788	15869.275
2605.65273	15823.075
2608.32498	15795.475
2610.99557	15792.675
2613.66449	15823.875
2616.33175	15792.275
2618.99734	15807.475
2621.66128	15798.275
2624.32355	15788.675
2626.98416	15790.275
2629.64311	15763.775
2632.30041	15779.175
2634.95605	15766.875
2637.61004	15788.375
2640.26238	15746.275
2642.91306	15759.775
2645.56209	15747.575
2648.20948	15748.775
2650.85521	15728.775
2653.4993	15757.175
2656.14175	15711.075
2658.78255	15728.075
2661.42171	15755.275
2664.05923	15774.575
2666.6951	15751.175
2669.32934	15734.675
2671.96194	15769.975
2674.59291	15790.775
2677.22224	15762.875
2679.84993	15751.875
2682.476	15768.575
2685.10043	15764.375
2687.72324	15757.775
2690.34441	15752.375
2692.96396	15732.075
2695.58188	15753.775
2698.19818	15735.475
2700.81285	15753.875
2703.4259	15740.975
2706.03733	15745.375
2708.64714	15759.175
2711.25533	15753.875
2713.86191	15764.375
2716.46687	15819.975
2719.07021	15789.675
2721.67194	15801.475
2724.27206	15792.475
2726.87057	15780.075
2729.46747	15793.875
2732.06276	15776.875
2734.65644	15796.275
2737.24852	15774.075
2739.83899	15775.275
2742.42786	15768.075
2745.01513	15729.475
2747.60079	15736.775
2750.18486	15747.575
2752.76733	15741.075
2755.3482	15733.775
2757.92747	15768.475
2760.50515	15764.475
2763.08123	15728.075
2765.65573	15696.875
2768.22863	15688.075
2770.79994	15664.475
2773.36967	15713.875
2775.9378	15675.975
2778.50435	15677.875
2781.06932	15645.175
2783.6327	15672.275
2786.1945	15644.475
2788.75471	15641.675
2791.31335	15563.975
2793.87041	15562.975
2796.42589	15513.475
2798.97979	15539.375
2801.53212	15472.575
2804.08288	15492.475
2806.63206	15448.675
2809.17967	15447.475
2811.72571	15418.375
2814.27018	15416.975
2816.81308	15371.175
2819.35442	15365.575
2821.89419	15321.875
2824.43239	15328.775
2826.96904	15295.075
2829.50412	15316.175
2832.03763	15267.975
2834.56959	15287.575
2837.1	15242.575
2839.62884	15240.075
2842.15613	15224.975
2844.68186	15235.675
2847.20604	15230.375
2849.72867	15244.975
2852.24974	15216.175
2854.76927	15194.675
2857.28724	15195.975
2859.80367	15169.275
2862.31855	15116.875
2864.83189	15150.575
2867.34368	15118.175
2869.85393	15111.575
2872.36264	15126.275
2874.8698	15117.575
2877.37543	15135.675
2879.87952	15137.275
2882.38207	15093.475
2884.88308	15114.375
2887.38256	15119.775
2889.88051	15144.975
2892.37692	15132.375
2894.8718	15117.275
2897.36515	15158.875
2899.85698	15127.775
2902.34727	15195.475
2904.83604	15147.575
2907.32328	15179.475
2909.809	15166.775
2912.29319	15210.375
2914.77587	15236.075
2917.25702	15216.075
2919.73665	15200.675
2922.21476	15211.875
2924.69136	15168.375
2927.16644	15191.875
2929.64	15130.875
2932.11205	15120.675
2934.58258	15094.575
2937.05161	15104.875
2939.51912	15129.775
2941.98513	15072.575
2944.44962	15059.475
2946.91261	15005.475
2949.37409	15039.175
2951.83407	15013.575
2954.29254	15003.175
2956.74951	15005.675
2959.20498	15012.275
2961.65895	14957.775
2964.11142	14941.475
2966.56239	14899.075
2969.01186	14904.575
2971.45984	14859.575
2973.90632	14831.775
2976.35131	14802.975
2978.7948	14754.075
2981.23681	14735.775
2983.67732	14734.675
2986.11635	14674.575
2988.55388	14694.575
2990.98993	14665.875
2993.4245	14618.175
2995.85758	14574.875
2998.28917	14543.275
3000.71928	14543.875
3003.14791	14500.575
3005.57506	14493.675
3008.00073	14437.275
3010.42493	14432.575
3012.84764	14427.775
3015.26888	14421.675
3017.68865	14380.275
3020.10694	14367.375
3022.52376	14319.475
3024.9391	14329.375
3027.35298	14291.975
3029.76539	14243.375
3032.17632	14238.975
3034.5858	14208.675
3036.9938	14256.975
3039.40034	14219.775
3041.80542	14206.675
3044.20903	14166.475
3046.61118	14205.075
3049.01187	14115.075
3051.4111	14134.275
3053.80888	14065.275
3056.20519	14083.475
3058.60005	14051.475
3060.99345	14012.375
3063.3854	14024.975
3065.7759	13946.675
3068.16494	13941.775
3070.55254	13885.275
3072.93868	13899.875
3075.32338	13845.175
3077.70662	13836.175
3080.08842	13792.275
3082.46878	13788.775
3084.84769	13749.175
3087.22515	13766.175
3089.60118	13749.375
3091.97576	13739.675
3094.3489	13750.375
3096.72061	13729.775
3099.09087	13726.475
3101.4597	13671.175
3103.82709	13698.875
3106.19305	13654.175
3108.55757	13630.175
3110.92066	13595.975
3113.28232	13581.475
3115.64255	13555.175
3118.00134	13520.675
3120.35871	13501.275
3122.71466	13488.175
3125.06917	13456.675
3127.42226	13434.875
