Data from AgNPs_FTO_APTES_UA_2uM_R6G_10uM_NaF_0.1M_Addition_RamanShift__2__11-45-57-199.txt Node

Date: Fri Dec 17 11:45:57 GMT 2021
User: TCL
Spectrometer: QEP01345
Trigger mode: 4
Integration Time (sec): 7.000000E0
Scans to average: 10
Electric dark correction enabled: true
Nonlinearity correction enabled: false
Boxcar width: 0
XAxis mode: Raman Shifts
Number of Pixels in Spectrum: 1044
>>>>>Begin Spectral Data<<<<<
46.04893	-0.85
50.45542	0.45
54.85868	-2.35
59.25871	-0.35
63.6555	127.55
68.04907	136.65
72.43941	140.55
76.82654	151.05
81.21044	150.15
85.59113	155.75
89.96862	164.75
94.34289	167.55
98.71396	173.05
103.08183	174.15
107.4465	184.85
111.80798	189.45
116.16626	189.95
120.52136	196.75
124.87327	205.25
129.222	214.95
133.56755	227.85
137.90993	237.85
142.24913	263.35
146.58517	294.35
150.91804	339.75
155.24774	395.55
159.57429	489.65
163.89768	619.85
168.21792	808.35
172.53501	1095.55
176.84895	1522.55
181.15975	2122.15
185.46741	2970.95
189.77193	4096.95
194.07331	5475.85
198.37157	7063.15
202.6667	8720.15
206.9587	10411.95
211.24758	12010.05
215.53334	13672.85
219.81599	15392.25
224.09553	17300.55
228.37195	19417.15
232.64527	21718.05
236.91549	24116.75
241.18261	26630.15
245.44663	28946.65
249.70755	31071.05
253.96539	32943.55
258.22014	34400.45
262.4718	35713.65
266.72039	36568.65
270.96589	36989.95
275.20832	36956.85
279.44768	36619.15
283.68397	36134.75
287.91719	35657.95
292.14735	35342.15
296.37445	35147.15
300.59849	35093.25
304.81948	35222.65
309.03742	35172.85
313.25231	35086.55
317.46415	34770.05
321.67296	34301.65
325.87872	33860.25
330.08145	33693.65
334.28114	33741.25
338.47781	34059.75
342.67145	34416.05
346.86207	34917.75
351.04966	35529.25
355.23424	36271.45
359.4158	36858.75
363.59435	37396.45
367.76989	37843.95
371.94243	38096.85
376.11196	38278.95
380.27849	38468.75
384.44203	38796.85
388.60257	39047.95
392.76012	39404.85
396.91468	39782.65
401.06626	40363.75
405.21485	40831.25
409.36047	40843.95
413.50311	40579.05
417.64277	40403.15
421.77947	40435.25
425.9132	40595.25
430.04396	40823.55
434.17176	41010.75
438.2966	41255.15
442.41849	41829.35
446.53742	42730.05
450.6534	43784.45
454.76644	44474.75
458.87653	44834.85
462.98368	44732.65
467.08789	44216.65
471.18916	43556.25
475.2875	42858.15
479.38291	42314.95
483.4754	41942.25
487.56496	41675.05
491.6516	41489.55
495.73531	41450.15
499.81612	41528.85
503.89401	41870.95
507.96899	41933.25
512.04106	41816.15
516.11023	41691.75
520.1765	41562.95
524.23987	41437.65
528.30034	41291.75
532.35792	41017.55
536.41261	40688.15
540.46441	40307.15
544.51333	40141.45
548.55936	40379.75
552.60252	40836.75
556.64279	41417.95
560.6802	41889.15
564.71473	42073.05
568.7464	42315.75
572.7752	42875.85
576.80114	43464.25
580.82422	44212.95
584.84444	45321.45
588.86181	46545.95
592.87633	47585.75
596.888	47769.35
600.89682	47384.85
604.9028	48208.65
608.90594	51503.35
612.90624	54674.75
616.90371	52086.15
620.89834	46002.35
624.89015	43201.15
628.87913	42719.65
632.86528	42628.85
636.84862	42296.85
640.82913	41752.25
644.80683	41067.45
648.78172	40585.75
652.75379	40573.75
656.72306	41104.05
660.68952	41694.95
664.65319	41566.35
668.61405	41177.95
672.57211	41312.85
676.52738	41515.75
680.47986	41420.55
684.42955	41081.05
688.37646	40994.75
692.32058	41371.15
696.26192	42046.55
700.20048	42666.35
704.13626	42825.15
708.06928	42498.45
711.99952	42084.75
715.927	42091.75
719.85171	42298.05
723.77365	42280.05
727.69284	41821.15
731.60928	41286.35
735.52295	41097.35
739.43388	41155.15
743.34206	41319.05
747.24749	41452.65
751.15017	41678.55
755.05012	42100.75
758.94733	42890.75
762.8418	44160.35
766.73354	46183.15
770.62254	48117.75
774.50882	48718.75
778.39237	47585.25
782.27321	45542.45
786.15132	43831.65
790.02671	42678.65
793.89938	42147.35
797.76935	41930.85
801.6366	41932.95
805.50115	41829.65
809.36299	41690.55
813.22213	41420.65
817.07857	41198.55
820.93231	41019.65
824.78336	40954.55
828.63172	41024.05
832.47738	41042.95
836.32036	41225.25
840.16066	41407.35
843.99827	41560.45
847.8332	41501.05
851.66546	41350.05
855.49504	41326.65
859.32195	41404.95
863.1462	41294.75
866.96777	41233.75
870.78668	41147.15
874.60293	41230.95
878.41652	41345.35
882.22745	41511.95
886.03573	41776.15
889.84136	41805.05
893.64433	41630.15
897.44466	41433.45
901.24235	41206.85
905.0374	41154.95
908.8298	41133.85
912.61957	41156.15
916.40671	41403.55
920.19121	41721.35
923.97308	42228.75
927.75233	42497.85
931.52895	42493.25
935.30295	42194.45
939.07433	41789.65
942.84309	41457.25
946.60924	41289.45
950.37278	41255.85
954.13371	41172.35
957.89203	40902.45
961.64774	40789.95
965.40086	40837.25
969.15137	40843.05
972.89929	40834.35
976.64461	41018.75
980.38733	41251.55
984.12747	41444.65
987.86502	41740.55
991.59999	42146.35
995.33237	42753.85
999.06217	43756.35
1002.78939	44839.15
1006.51404	45735.05
1010.23611	46126.55
1013.95561	46399.65
1017.67255	46337.25
1021.38692	45834.75
1025.09872	45495.05
1028.80796	45848.95
1032.51465	47055.85
1036.21877	48212.25
1039.92035	48521.85
1043.61937	47985.95
1047.31584	46967.05
1051.00976	45824.25
1054.70114	45096.55
1058.38998	44957.45
1062.07627	45136.55
1065.76003	45326.95
1069.44126	45583.35
1073.11995	46166.85
1076.79611	46796.75
1080.46974	47165.95
1084.14085	47489.35
1087.80943	47700.65
1091.47549	47764.05
1095.13903	47492.85
1098.80005	46961.65
1102.45857	46359.45
1106.11456	45813.25
1109.76805	45629.85
1113.41903	45579.25
1117.06751	45580.45
1120.71348	45708.65
1124.35696	45851.55
1127.99793	46160.75
1131.63641	46302.65
1135.2724	46153.55
1138.90589	46035.75
1142.5369	45886.65
1146.16542	45931.95
1149.79145	45961.45
1153.415	46037.65
1157.03607	46334.45
1160.65467	47082.45
1164.27079	48382.35
1167.88443	50227.35
1171.49561	52216.05
1175.10432	54637.35
1178.71056	57896.85
1182.31434	61249.55
1185.91565	63324.95
1189.51451	63608.25
1193.11091	62385.45
1196.70485	60457.45
1200.29634	58511.15
1203.88538	57149.15
1207.47197	56140.05
1211.05612	55298.85
1214.63782	54398.75
1218.21708	53710.35
1221.79391	53196.95
1225.36829	52945.25
1228.94024	52473.35
1232.50976	51890.55
1236.07685	51331.15
1239.6415	51052.55
1243.20374	51144.45
1246.76355	51655.95
1250.32093	52398.05
1253.8759	53400.45
1257.42845	54579.25
1260.97859	55851.45
1264.52631	57246.95
1268.07163	58867.25
1271.61453	60480.25
1275.15503	62091.95
1278.69312	63392.75
1282.22882	64128.25
1285.76211	64746.95
1289.29301	65559.15
1292.82151	66809.25
1296.34761	68670.55
1299.87133	71403.55
1303.39266	74888.95
1306.9116	78668.25
1310.42815	81697.55
1313.94233	83198.85
1317.45412	82626.05
1320.96354	81096.75
1324.47058	79552.55
1327.97525	78371.85
1331.47754	77587.55
1334.97747	77141.75
1338.47502	76765.65
1341.97022	75909.35
1345.46305	74606.65
1348.95352	73733.05
1352.44163	73987.25
1355.92738	75740.75
1359.41078	78801.05
1362.89183	81248.65
1366.37053	80264.45
1369.84688	75265.25
1373.32088	68964.85
1376.79254	64324.65
1380.26186	62305.65
1383.72883	61913.15
1387.19347	61688.45
1390.65578	60888.35
1394.11575	60142.75
1397.57339	59984.65
1401.0287	60287.45
1404.48168	60922.95
1407.93234	61475.45
1411.38068	61592.75
1414.82669	61084.25
1418.27039	60086.25
1421.71177	58808.85
1425.15083	57695.65
1428.58758	57347.55
1432.02203	57894.95
1435.45416	59089.65
1438.88399	60270.65
1442.31151	61033.95
1445.73673	61197.65
1449.15965	61168.25
1452.58027	60900.55
1455.9986	60514.05
1459.41463	60458.25
1462.82837	61175.85
1466.23982	62254.75
1469.64898	63283.25
1473.05586	64133.65
1476.46045	64574.15
1479.86276	64538.35
1483.26279	64378.55
1486.66054	64369.75
1490.05602	64768.45
1493.44922	65136.15
1496.84016	65191.15
1500.22882	65519.35
1503.61521	66212.55
1506.99934	67229.15
1510.38121	68132.65
1513.76081	68149.85
1517.13816	66860.75
1520.51324	64662.75
1523.88607	62823.95
1527.25665	61834.95
1530.62498	61479.55
1533.99105	61383.65
1537.35488	61099.75
1540.71647	60595.55
1544.07581	59962.55
1547.4329	59280.15
1550.78776	58741.35
1554.14038	58287.95
1557.49077	57954.45
1560.83892	57715.05
1564.18484	57566.75
1567.52853	57519.85
1570.86999	57722.35
1574.20922	58268.85
1577.54624	58874.65
1580.88103	59213.85
1584.2136	59756.95
1587.54395	61321.75
1590.87208	64095.95
1594.19801	67641.85
1597.52172	70981.45
1600.84321	72008.45
1604.16251	69553.45
1607.47959	65098.45
1610.79447	60369.75
1614.10715	56090.65
1617.41763	52795.65
1620.7259	50752.75
1624.03199	49959.45
1627.33587	50272.05
1630.63757	51428.45
1633.93707	53752.45
1637.23439	57337.35
1640.52951	62301.95
1643.82246	67771.15
1647.11321	71484.35
1650.40179	71242.85
1653.68819	66528.65
1656.97241	59484.25
1660.25446	53172.95
1663.53433	48955.85
1666.81203	46243.05
1670.08756	44658.35
1673.36092	43577.25
1676.63211	42885.45
1679.90115	42406.25
1683.16801	42007.75
1686.43272	41794.15
1689.69527	41611.55
1692.95567	41389.75
1696.2139	41211.55
1699.46999	41204.05
1702.72392	41151.45
1705.97571	41139.45
1709.22535	41103.35
1712.47284	41093.45
1715.71819	41110.65
1718.96139	41048.25
1722.20246	40942.65
1725.44139	40911.45
1728.67818	40713.05
1731.91284	40570.15
1735.14537	40430.15
1738.37576	40328.15
1741.60403	40117.65
1744.83017	40046.65
1748.05418	39995.15
1751.27607	40018.05
1754.49584	39905.65
1757.71349	39902.15
1760.92903	39866.15
1764.14244	39881.25
1767.35375	39897.45
1770.56294	39937.15
1773.77002	39831.45
1776.97499	39839.35
1780.17785	39813.95
1783.37861	39808.65
1786.57727	39767.95
1789.77382	39690.55
1792.96828	39676.35
1796.16064	39622.55
1799.3509	39557.05
1802.53907	39541.15
1805.72514	39455.35
1808.90913	39377.45
1812.09102	39324.05
1815.27083	39291.85
1818.44856	39242.75
1821.6242	39226.25
1824.79776	39240.35
1827.96924	39217.85
1831.13864	39182.35
1834.30597	39321.35
1837.47122	39305.75
1840.6344	39309.05
1843.7955	39287.75
1846.95454	39316.45
1850.11151	39282.15
1853.26642	39258.85
1856.41926	39245.25
1859.57004	39264.35
1862.71876	39215.55
1865.86542	39222.25
1869.01003	39236.55
1872.15258	39186.75
1875.29308	39179.45
1878.43152	39189.95
1881.56792	39149.25
1884.70227	39159.75
1887.83457	39167.45
1890.96482	39116.05
1894.09304	39026.95
1897.21921	39007.75
1900.34335	39013.05
1903.46544	38961.35
1906.58551	38988.75
1909.70353	38909.65
1912.81953	38887.65
1915.93349	38774.15
1919.04543	38672.85
1922.15534	38692.85
1925.26322	38631.45
1928.36908	38531.45
1931.47292	38476.05
1934.57473	38435.25
1937.67453	38376.55
1940.77232	38360.85
1943.86808	38225.25
1946.96184	38135.75
1950.05358	38023.65
1953.14331	37972.75
1956.23103	37904.95
1959.31675	37798.95
1962.40046	37683.95
1965.48217	37638.45
1968.56188	37555.05
1971.63959	37471.15
1974.7153	37361.75
1977.78901	37272.55
1980.86073	37189.85
1983.93046	37080.45
1986.99819	36960.15
1990.06394	36882.05
1993.1277	36781.25
1996.18947	36644.75
1999.24925	36617.85
2002.30706	36526.85
2005.36288	36415.15
2008.41672	36375.75
2011.46859	36322.95
2014.51848	36177.75
2017.56639	36089.75
2020.61233	36086.65
2023.6563	35998.65
2026.6983	35926.15
2029.73833	35935.95
2032.7764	35825.25
2035.8125	35807.95
2038.84664	35795.75
2041.87881	35768.15
2044.90903	35723.55
2047.93729	35706.65
2050.96359	35671.85
2053.98794	35570.95
2057.01034	35590.15
2060.03078	35534.05
2063.04927	35538.45
2066.06582	35542.35
2069.08042	35507.35
2072.09307	35513.45
2075.10378	35486.55
2078.11255	35407.45
2081.11938	35455.65
2084.12426	35418.25
2087.12722	35390.45
2090.12824	35429.45
2093.12732	35418.35
2096.12447	35511.15
2099.11969	35496.75
2102.11299	35561.85
2105.10435	35529.35
2108.09379	35614.55
2111.08131	35672.55
2114.0669	35697.45
2117.05057	35727.75
2120.03233	35721.25
2123.01216	35788.55
2125.99008	35816.25
2128.96609	35832.05
2131.94018	35886.75
2134.91236	35919.95
2137.88263	36019.15
2140.851	36000.35
2143.81746	36055.95
2146.78201	36069.95
2149.74466	36142.25
2152.7054	36141.95
2155.66425	36132.25
2158.6212	36158.05
2161.57625	36152.55
2164.52941	36217.15
2167.48067	36170.85
2170.43004	36177.75
2173.37752	36203.65
2176.32311	36157.85
2179.26681	36177.45
2182.20863	36232.45
2185.14856	36235.85
2188.08661	36262.35
2191.02278	36269.35
2193.95707	36297.25
2196.88948	36296.25
2199.82001	36300.15
2202.74867	36257.95
2205.67545	36298.95
2208.60037	36280.45
2211.52341	36253.95
2214.44458	36132.55
2217.36388	36130.45
2220.28132	36083.05
2223.1969	36047.95
2226.11061	36023.85
2229.02246	35962.85
2231.93245	35957.15
2234.84058	35890.25
2237.74686	35845.45
2240.65128	35809.05
2243.55385	35733.85
2246.45456	35710.95
2249.35343	35640.35
2252.25044	35660.95
2255.14561	35572.15
2258.03893	35582.15
2260.93041	35568.05
2263.82004	35426.15
2266.70783	35408.65
2269.59378	35340.45
2272.4779	35275.25
2275.36017	35267.55
2278.24061	35198.75
2281.11922	35152.25
2283.996	35119.65
2286.87094	35088.35
2289.74405	35063.15
2292.61534	35091.25
2295.4848	35024.45
2298.35243	35087.95
2301.21824	35086.35
2304.08223	35149.25
2306.94439	35120.95
2309.80474	35104.65
2312.66327	35166.75
2315.51999	35100.25
2318.37489	35114.15
2321.22797	35114.75
2324.07925	35080.05
2326.92871	35042.05
2329.77637	34979.35
2332.62222	34986.05
2335.46626	34922.05
2338.3085	34942.15
2341.14893	34985.65
2343.98756	35023.05
2346.8244	35032.45
2349.65943	34972.05
2352.49267	34868.75
2355.32411	34915.75
2358.15376	34845.55
2360.98161	34819.15
2363.80768	34773.25
2366.63195	34751.85
2369.45444	34729.75
2372.27514	34665.85
2375.09405	34655.75
2377.91118	34573.05
2380.72652	34496.75
2383.54009	34549.05
2386.35187	34539.55
2389.16188	34457.75
2391.97011	34435.45
2394.77657	34379.95
2397.58125	34302.55
2400.38416	34298.55
2403.18529	34281.35
2405.98466	34253.75
2408.78226	34122.45
2411.57809	34133.05
2414.37216	34063.05
2417.16446	34109.85
2419.955	34069.35
2422.74378	34072.05
2425.5308	34013.65
2428.31606	34026.35
2431.09956	33937.35
2433.88131	33929.85
2436.6613	33977.45
2439.43954	33937.75
2442.21603	33957.25
2444.99077	33953.65
2447.76377	33966.95
2450.53501	33910.65
2453.30451	33889.95
2456.07226	33890.85
2458.83827	33932.25
2461.60254	33890.75
2464.36507	33884.75
2467.12586	33868.75
2469.88492	33851.35
2472.64224	33897.55
2475.39782	33826.25
2478.15167	33873.55
2480.90379	33855.25
2483.65417	33851.95
2486.40283	33894.85
2489.14976	33899.05
2491.89497	33885.95
2494.63845	33950.45
2497.3802	33856.05
2500.12024	33868.95
2502.85855	33887.65
2505.59514	33851.85
2508.33002	33842.95
2511.06318	33782.75
2513.79462	33740.05
2516.52435	33790.15
2519.25237	33818.65
2521.97867	33800.15
2524.70327	33765.25
2527.42616	33678.55
2530.14734	33707.15
2532.86681	33716.55
2535.58458	33681.95
2538.30065	33656.25
2541.01501	33604.25
2543.72768	33589.35
2546.43864	33529.15
2549.14791	33532.15
2551.85548	33525.45
2554.56136	33466.85
2557.26554	33473.65
2559.96803	33433.55
2562.66883	33360.85
2565.36794	33399.65
2568.06536	33414.95
2570.7611	33386.35
2573.45514	33324.45
2576.14751	33320.05
2578.83819	33320.65
2581.52719	33284.05
2584.21451	33247.35
2586.90015	33273.85
2589.58411	33199.65
2592.2664	33163.55
2594.94701	33108.25
2597.62594	33126.25
2600.30321	33040.15
2602.9788	33043.25
2605.65273	33042.85
2608.32498	33033.05
2610.99557	32994.55
2613.66449	33010.95
2616.33175	32996.05
2618.99734	32970.25
2621.66128	32957.85
2624.32355	32920.65
2626.98416	32906.95
2629.64311	32904.85
2632.30041	32950.55
2634.95605	32860.55
2637.61004	32844.35
2640.26238	32760.95
2642.91306	32782.65
2645.56209	32757.85
2648.20948	32739.45
2650.85521	32690.95
2653.4993	32773.45
2656.14175	32767.35
2658.78255	32824.95
2661.42171	32726.25
2664.05923	32798.45
2666.6951	32805.95
2669.32934	32847.25
2671.96194	32848.45
2674.59291	32798.85
2677.22224	32772.45
2679.84993	32857.95
2682.476	32820.25
2685.10043	32823.65
2687.72324	32839.45
2690.34441	32834.85
2692.96396	32815.45
2695.58188	32807.05
2698.19818	32788.45
2700.81285	32806.55
2703.4259	32815.75
2706.03733	32839.05
2708.64714	32854.05
2711.25533	32882.85
2713.86191	32848.65
2716.46687	32909.75
2719.07021	32878.75
2721.67194	32932.35
2724.27206	32897.75
2726.87057	32930.65
2729.46747	32949.65
2732.06276	32910.95
2734.65644	32953.35
2737.24852	32984.85
2739.83899	32920.35
2742.42786	32961.55
2745.01513	32933.45
2747.60079	32888.25
2750.18486	32916.05
2752.76733	32878.85
2755.3482	32844.55
2757.92747	32901.85
2760.50515	32831.75
2763.08123	32854.35
2765.65573	32822.35
2768.22863	32800.65
2770.79994	32769.45
2773.36967	32792.45
2775.9378	32808.95
2778.50435	32787.65
2781.06932	32712.05
2783.6327	32701.05
2786.1945	32697.35
2788.75471	32670.25
2791.31335	32621.75
2793.87041	32566.85
2796.42589	32492.95
2798.97979	32531.55
2801.53212	32382.65
2804.08288	32376.35
2806.63206	32299.75
2809.17967	32247.05
2811.72571	32187.45
2814.27018	32183.75
2816.81308	32120.35
2819.35442	32128.25
2821.89419	32017.05
2824.43239	32004.95
2826.96904	31987.75
2829.50412	32004.35
2832.03763	31925.45
2834.56959	31886.55
2837.1	31863.05
2839.62884	31892.35
2842.15613	31845.75
2844.68186	31868.45
2847.20604	31874.85
2849.72867	31860.45
2852.24974	31819.55
2854.76927	31745.75
2857.28724	31778.05
2859.80367	31741.75
2862.31855	31694.15
2864.83189	31742.55
2867.34368	31705.75
2869.85393	31747.35
2872.36264	31706.25
2874.8698	31711.85
2877.37543	31750.15
2879.87952	31719.25
2882.38207	31782.15
2884.88308	31826.45
2887.38256	31824.15
2889.88051	31886.55
2892.37692	31870.35
2894.8718	31818.85
2897.36515	31871.45
2899.85698	31902.15
2902.34727	31974.05
2904.83604	31979.65
2907.32328	32017.85
2909.809	31974.15
2912.29319	32010.05
2914.77587	32001.45
2917.25702	31995.45
2919.73665	31974.15
2922.21476	31971.45
2924.69136	31908.85
2927.16644	31939.95
2929.64	31862.25
2932.11205	31793.05
2934.58258	31728.75
2937.05161	31840.95
2939.51912	31885.25
2941.98513	31848.95
2944.44962	31778.45
2946.91261	31682.05
2949.37409	31767.85
2951.83407	31755.35
2954.29254	31711.35
2956.74951	31697.55
2959.20498	31657.55
2961.65895	31667.85
2964.11142	31585.75
2966.56239	31536.95
2969.01186	31582.95
2971.45984	31467.75
2973.90632	31427.25
2976.35131	31363.75
2978.7948	31361.45
2981.23681	31292.75
2983.67732	31273.05
2986.11635	31217.85
2988.55388	31157.35
2990.98993	31068.75
2993.4245	31048.85
2995.85758	31018.95
2998.28917	30988.95
3000.71928	30901.45
3003.14791	30905.55
3005.57506	30892.35
3008.00073	30830.45
3010.42493	30769.35
3012.84764	30735.05
3015.26888	30718.25
3017.68865	30688.85
3020.10694	30647.05
3022.52376	30594.45
3024.9391	30561.85
3027.35298	30511.25
3029.76539	30489.85
3032.17632	30449.35
3034.5858	30399.05
3036.9938	30417.85
3039.40034	30359.25
3041.80542	30347.35
3044.20903	30283.25
3046.61118	30268.85
3049.01187	30226.15
3051.4111	30241.65
3053.80888	30125.45
3056.20519	30141.15
3058.60005	30046.65
3060.99345	30063.65
3063.3854	29978.55
3065.7759	29918.75
3068.16494	29874.65
3070.55254	29772.35
3072.93868	29755.75
3075.32338	29695.95
3077.70662	29755.55
3080.08842	29603.95
3082.46878	29633.75
3084.84769	29564.55
3087.22515	29576.95
3089.60118	29583.25
3091.97576	29573.95
3094.3489	29582.55
3096.72061	29588.95
3099.09087	29587.65
3101.4597	29526.45
3103.82709	29510.25
3106.19305	29449.45
3108.55757	29470.15
3110.92066	29391.65
3113.28232	29365.75
3115.64255	29256.75
3118.00134	29232.75
3120.35871	29210.65
3122.71466	29152.95
3125.06917	29041.95
3127.42226	29019.75
3129.77393	29040.65
3132.12417	29030.05
3134.47299	29006.45
3136.82039	28989.15
3139.16636	29054.55
3141.51092	29030.85
3143.85406	29018.65
3146.19579	29034.25
3148.53609	29076.35
3150.87499	29035.25
3153.21246	29078.05
3155.54853	29052.65
3157.88318	29011.65
3160.21642	29032.35
3162.54826	29034.35
3164.87868	29014.05
3167.2077	28977.05
3169.5353	28980.15
3171.86151	28925.15
3174.18631	28968.15
3176.5097	28895.85
3178.83169	28848.55
3181.15228	28880.05
3183.47147	28816.15
3185.78926	28823.85
3188.10565	28728.75
3190.42065	28800.75
3192.73424	28769.35
3195.04645	28758.55
3197.35725	28737.45
3199.66667	28756.25
3201.97469	28801.15
3204.28132	28758.55
3206.58656	28830.95
3208.8904	28834.75
3211.19287	28821.15
3213.49394	28825.65
3215.79363	28793.25
3218.09193	28827.75
3220.38884	28767.85
3222.68438	28746.85
3224.97853	28706.25
3227.2713	28702.05
3229.56269	28666.95
3231.8527	28650.65
3234.14133	28583.55
3236.42858	28560.85
3238.71446	28549.55
