Data from AgNPs_FTO_APTES_UA_10uM_R6G_10uM_NaF_0.1M_Addition_RamanShift__33__13-48-27-340.txt Node

Date: Fri Dec 17 13:48:27 GMT 2021
User: TCL
Spectrometer: QEP01345
Trigger mode: 4
Integration Time (sec): 7.000000E0
Scans to average: 10
Electric dark correction enabled: true
Nonlinearity correction enabled: false
Boxcar width: 0
XAxis mode: Raman Shifts
Number of Pixels in Spectrum: 1044
>>>>>Begin Spectral Data<<<<<
46.04893	-0.575
50.45542	-0.475
54.85868	-2.575
59.25871	0.425
63.6555	72.225
68.04907	73.625
72.43941	78.525
76.82654	82.825
81.21044	85.925
85.59113	86.325
89.96862	93.825
94.34289	94.525
98.71396	97.325
103.08183	97.325
107.4465	103.425
111.80798	100.825
116.16626	106.325
120.52136	106.425
124.87327	111.525
129.222	116.425
133.56755	124.525
137.90993	129.725
142.24913	140.925
146.58517	157.025
150.91804	176.425
155.24774	210.225
159.57429	253.525
163.89768	322.725
168.21792	424.225
172.53501	570.925
176.84895	786.325
181.15975	1100.525
185.46741	1540.425
189.77193	2116.925
194.07331	2840.125
198.37157	3667.325
202.6667	4542.525
206.9587	5402.025
211.24758	6260.025
215.53334	7121.225
219.81599	8045.425
224.09553	9059.325
228.37195	10203.225
232.64527	11430.125
236.91549	12728.425
241.18261	14015.125
245.44663	15200.525
249.70755	16213.825
253.96539	17133.325
258.22014	17918.325
262.4718	18563.525
266.72039	19085.325
270.96589	19323.425
275.20832	19348.725
279.44768	19185.625
283.68397	18869.725
287.91719	18583.225
292.14735	18444.825
296.37445	18486.225
300.59849	18691.525
304.81948	18966.325
309.03742	19126.125
313.25231	19022.925
317.46415	18639.725
321.67296	17988.825
325.87872	17463.325
330.08145	17288.225
334.28114	17344.425
338.47781	17563.225
342.67145	17849.625
346.86207	18273.225
351.04966	18794.825
355.23424	19421.525
359.4158	20004.625
363.59435	20368.725
367.76989	20657.525
371.94243	20787.725
376.11196	20888.025
380.27849	20975.725
384.44203	21035.825
388.60257	21048.925
392.76012	21073.225
396.91468	21240.525
401.06626	21579.825
405.21485	21835.125
409.36047	21731.925
413.50311	21232.325
417.64277	20757.325
421.77947	20521.525
425.9132	20486.325
430.04396	20531.425
434.17176	20615.325
438.2966	20853.425
442.41849	21243.225
446.53742	21766.025
450.6534	22332.825
454.76644	22739.625
458.87653	22916.125
462.98368	22776.625
467.08789	22491.525
471.18916	22149.925
475.2875	21730.425
479.38291	21433.725
483.4754	21261.125
487.56496	21075.625
491.6516	20986.125
495.73531	20928.625
499.81612	20970.925
503.89401	21092.825
507.96899	21170.425
512.04106	21232.225
516.11023	21345.925
520.1765	21456.725
524.23987	21517.425
528.30034	21401.625
532.35792	21236.725
536.41261	20980.425
540.46441	20675.425
544.51333	20598.125
548.55936	20647.025
552.60252	20877.325
556.64279	21159.125
560.6802	21336.225
564.71473	21399.125
568.7464	21633.425
572.7752	21843.925
576.80114	21712.225
580.82422	21594.425
584.84444	21727.725
588.86181	22043.925
592.87633	22472.325
596.888	22864.425
600.89682	23173.125
604.9028	24349.825
608.90594	27530.625
612.90624	31292.825
616.90371	30260.925
620.89834	24879.325
624.89015	22394.825
628.87913	21961.925
632.86528	21935.625
636.84862	21923.425
640.82913	21660.025
644.80683	21150.625
648.78172	20820.125
652.75379	20862.525
656.72306	21268.625
660.68952	21800.525
664.65319	21712.425
668.61405	21275.925
672.57211	21145.525
676.52738	21199.125
680.47986	21114.125
684.42955	21027.725
688.37646	20975.625
692.32058	21130.125
696.26192	21411.025
700.20048	21641.825
704.13626	21719.625
708.06928	21554.025
711.99952	21387.125
715.927	21375.325
719.85171	21476.025
723.77365	21483.125
727.69284	21283.925
731.60928	21098.125
735.52295	21086.225
739.43388	21101.825
743.34206	21181.025
747.24749	21219.225
751.15017	21289.825
755.05012	21467.525
758.94733	21934.225
762.8418	22920.125
766.73354	24561.325
770.62254	26386.425
774.50882	27464.225
778.39237	26961.725
782.27321	25117.125
786.15132	23283.225
790.02671	22167.625
793.89938	21724.225
797.76935	21519.425
801.6366	21435.725
805.50115	21415.325
809.36299	21314.625
813.22213	21267.825
817.07857	21200.125
820.93231	21152.425
824.78336	21174.825
828.63172	21221.525
832.47738	21257.125
836.32036	21298.525
840.16066	21328.325
843.99827	21341.725
847.8332	21333.725
851.66546	21264.025
855.49504	21244.825
859.32195	21250.925
863.1462	21232.725
866.96777	21188.425
870.78668	21166.325
874.60293	21195.625
878.41652	21259.225
882.22745	21320.425
886.03573	21451.525
889.84136	21450.225
893.64433	21335.225
897.44466	21215.825
901.24235	21145.925
905.0374	21108.325
908.8298	21060.225
912.61957	21059.025
916.40671	21088.125
920.19121	21212.525
923.97308	21360.325
927.75233	21504.325
931.52895	21635.725
935.30295	21573.925
939.07433	21287.725
942.84309	20983.125
946.60924	20923.425
950.37278	20855.425
954.13371	20775.125
957.89203	20690.825
961.64774	20676.825
965.40086	20589.825
969.15137	20580.725
972.89929	20553.325
976.64461	20587.225
980.38733	20664.325
984.12747	20770.325
987.86502	20930.125
991.59999	21126.425
995.33237	21398.425
999.06217	21744.125
1002.78939	22133.725
1006.51404	22408.125
1010.23611	22551.325
1013.95561	22743.025
1017.67255	22728.625
1021.38692	22600.325
1025.09872	22451.625
1028.80796	22550.825
1032.51465	22946.725
1036.21877	23350.925
1039.92035	23393.425
1043.61937	23214.925
1047.31584	22856.025
1051.00976	22443.225
1054.70114	22244.225
1058.38998	22196.725
1062.07627	22230.625
1065.76003	22268.625
1069.44126	22317.125
1073.11995	22510.825
1076.79611	22793.225
1080.46974	22967.725
1084.14085	23215.025
1087.80943	23480.925
1091.47549	23567.425
1095.13903	23335.425
1098.80005	22949.725
1102.45857	22613.825
1106.11456	22538.325
1109.76805	22600.925
1113.41903	22774.225
1117.06751	22991.025
1120.71348	23323.025
1124.35696	23605.225
1127.99793	23892.025
1131.63641	23950.625
1135.2724	23588.225
1138.90589	23160.025
1142.5369	22877.225
1146.16542	22655.525
1149.79145	22509.425
1153.415	22479.225
1157.03607	22538.725
1160.65467	22764.025
1164.27079	23171.325
1167.88443	23845.825
1171.49561	24856.825
1175.10432	26435.225
1178.71056	28508.525
1182.31434	30520.225
1185.91565	31489.025
1189.51451	31340.525
1193.11091	30125.625
1196.70485	28576.525
1200.29634	27364.425
1203.88538	26493.325
1207.47197	25673.825
1211.05612	25012.325
1214.63782	24642.625
1218.21708	24538.525
1221.79391	24656.625
1225.36829	24779.225
1228.94024	24742.225
1232.50976	24586.425
1236.07685	24406.025
1239.6415	24323.025
1243.20374	24380.025
1246.76355	24540.125
1250.32093	24798.425
1253.8759	25146.425
1257.42845	25633.925
1260.97859	26116.625
1264.52631	26620.925
1268.07163	27170.525
1271.61453	27730.325
1275.15503	28172.025
1278.69312	28552.425
1282.22882	28879.525
1285.76211	29106.725
1289.29301	29514.025
1292.82151	30013.125
1296.34761	30662.825
1299.87133	31650.425
1303.39266	33164.925
1306.9116	35313.125
1310.42815	37696.725
1313.94233	39185.425
1317.45412	38845.125
1320.96354	37415.825
1324.47058	35618.425
1327.97525	34051.525
1331.47754	32980.425
1334.97747	32611.225
1338.47502	32611.925
1341.97022	32635.925
1345.46305	32811.925
1348.95352	33459.825
1352.44163	34735.825
1355.92738	36678.725
1359.41078	39556.325
1362.89183	42292.125
1366.37053	41922.025
1369.84688	37958.225
1373.32088	33517.025
1376.79254	30482.625
1380.26186	29060.825
1383.72883	28493.325
1387.19347	28041.025
1390.65578	27297.825
1394.11575	26734.225
1397.57339	26404.225
1401.0287	26455.425
1404.48168	26640.325
1407.93234	26911.325
1411.38068	27099.425
1414.82669	27186.425
1418.27039	26956.225
1421.71177	26573.425
1425.15083	26189.525
1428.58758	26052.825
1432.02203	26170.725
1435.45416	26433.025
1438.88399	26707.425
1442.31151	26789.925
1445.73673	26884.425
1449.15965	26899.525
1452.58027	26846.225
1455.9986	26580.225
1459.41463	26511.025
1462.82837	26721.725
1466.23982	27136.525
1469.64898	27648.025
1473.05586	28059.325
1476.46045	28386.025
1479.86276	28617.425
1483.26279	28892.125
1486.66054	29173.825
1490.05602	29608.125
1493.44922	30072.525
1496.84016	30719.325
1500.22882	31741.925
1503.61521	33304.125
1506.99934	35247.825
1510.38121	37041.025
1513.76081	37642.925
1517.13816	36431.425
1520.51324	33919.825
1523.88607	31402.325
1527.25665	29696.225
1530.62498	28782.025
1533.99105	28332.625
1537.35488	28031.925
1540.71647	27816.725
1544.07581	27668.125
1547.4329	27618.725
1550.78776	27416.725
1554.14038	27294.025
1557.49077	27302.225
1560.83892	27322.925
1564.18484	27460.425
1567.52853	27780.125
1570.86999	28175.525
1574.20922	28486.125
1577.54624	28567.725
1580.88103	28081.225
1584.2136	27478.325
1587.54395	27313.025
1590.87208	27967.925
1594.19801	29238.425
1597.52172	30791.125
1600.84321	31628.025
1604.16251	31083.225
1607.47959	29618.125
1610.79447	27819.125
1614.10715	26079.725
1617.41763	24784.625
1620.7259	24008.925
1624.03199	23673.225
1627.33587	23678.625
1630.63757	24005.925
1633.93707	24769.125
1637.23439	25935.625
1640.52951	27612.725
1643.82246	29720.025
1647.11321	31776.225
1650.40179	32744.625
1653.68819	31656.425
1656.97241	28767.425
1660.25446	25798.925
1663.53433	23750.125
1666.81203	22489.225
1670.08756	21805.625
1673.36092	21348.625
1676.63211	21021.625
1679.90115	20818.225
1683.16801	20636.525
1686.43272	20532.225
1689.69527	20453.725
1692.95567	20327.125
1696.2139	20317.325
1699.46999	20309.925
1702.72392	20298.325
1705.97571	20294.325
1709.22535	20272.825
1712.47284	20230.825
1715.71819	20248.425
1718.96139	20254.425
1722.20246	20185.825
1725.44139	20143.925
1728.67818	20019.525
1731.91284	19992.025
1735.14537	19923.025
1738.37576	19858.725
1741.60403	19783.825
1744.83017	19737.125
1748.05418	19723.625
1751.27607	19696.525
1754.49584	19663.725
1757.71349	19686.225
1760.92903	19674.625
1764.14244	19701.825
1767.35375	19682.325
1770.56294	19671.025
1773.77002	19669.325
1776.97499	19642.725
1780.17785	19568.825
1783.37861	19567.725
1786.57727	19574.725
1789.77382	19530.125
1792.96828	19502.725
1796.16064	19516.425
1799.3509	19469.525
1802.53907	19460.225
1805.72514	19386.925
1808.90913	19378.925
1812.09102	19347.625
1815.27083	19327.725
1818.44856	19282.425
1821.6242	19263.725
1824.79776	19237.825
1827.96924	19275.925
1831.13864	19236.425
1834.30597	19218.925
1837.47122	19225.725
1840.6344	19175.625
1843.7955	19188.825
1846.95454	19201.925
1850.11151	19188.425
1853.26642	19126.525
1856.41926	19152.125
1859.57004	19184.125
1862.71876	19164.125
1865.86542	19159.725
1869.01003	19152.025
1872.15258	19123.125
1875.29308	19149.925
1878.43152	19103.725
1881.56792	19124.825
1884.70227	19158.225
1887.83457	19139.725
1890.96482	19086.025
1894.09304	19095.025
1897.21921	19106.525
1900.34335	19101.725
1903.46544	19095.025
1906.58551	19044.125
1909.70353	19029.525
1912.81953	19057.325
1915.93349	19006.125
1919.04543	18950.425
1922.15534	18978.225
1925.26322	18930.825
1928.36908	18913.325
1931.47292	18886.025
1934.57473	18860.225
1937.67453	18806.925
1940.77232	18773.725
1943.86808	18697.725
1946.96184	18658.325
1950.05358	18610.425
1953.14331	18551.125
1956.23103	18500.525
1959.31675	18464.425
1962.40046	18447.725
1965.48217	18409.425
1968.56188	18326.825
1971.63959	18329.425
1974.7153	18253.125
1977.78901	18157.525
1980.86073	18150.825
1983.93046	18112.025
1986.99819	18058.925
1990.06394	18011.925
1993.1277	17977.025
1996.18947	17852.925
1999.24925	17859.925
2002.30706	17826.625
2005.36288	17776.725
2008.41672	17731.825
2011.46859	17692.225
2014.51848	17664.425
2017.56639	17593.725
2020.61233	17590.125
2023.6563	17533.325
2026.6983	17494.925
2029.73833	17487.025
2032.7764	17435.025
2035.8125	17408.825
2038.84664	17392.125
2041.87881	17372.425
2044.90903	17371.125
2047.93729	17336.125
2050.96359	17312.725
2053.98794	17274.625
2057.01034	17266.325
2060.03078	17269.925
2063.04927	17252.325
2066.06582	17280.525
2069.08042	17277.825
2072.09307	17262.525
2075.10378	17222.525
2078.11255	17232.325
2081.11938	17229.725
2084.12426	17176.025
2087.12722	17190.325
2090.12824	17191.625
2093.12732	17205.725
2096.12447	17238.725
2099.11969	17209.925
2102.11299	17236.925
2105.10435	17254.825
2108.09379	17259.525
2111.08131	17290.825
2114.0669	17270.525
2117.05057	17274.925
2120.03233	17310.325
2123.01216	17349.025
2125.99008	17350.525
2128.96609	17344.825
2131.94018	17358.425
2134.91236	17380.225
2137.88263	17456.225
2140.851	17427.625
2143.81746	17470.725
2146.78201	17467.425
2149.74466	17479.825
2152.7054	17463.425
2155.66425	17471.225
2158.6212	17456.225
2161.57625	17472.925
2164.52941	17475.225
2167.48067	17468.525
2170.43004	17445.825
2173.37752	17465.625
2176.32311	17458.725
2179.26681	17476.325
2182.20863	17458.525
2185.14856	17476.025
2188.08661	17457.325
2191.02278	17478.525
2193.95707	17436.125
2196.88948	17464.125
2199.82001	17457.225
2202.74867	17453.025
2205.67545	17422.125
2208.60037	17426.725
2211.52341	17390.825
2214.44458	17419.025
2217.36388	17356.825
2220.28132	17344.425
2223.1969	17270.125
2226.11061	17310.725
2229.02246	17260.525
2231.93245	17263.325
2234.84058	17178.725
2237.74686	17178.725
2240.65128	17165.025
2243.55385	17158.825
2246.45456	17119.625
2249.35343	17117.825
2252.25044	17098.325
2255.14561	17048.525
2258.03893	17055.425
2260.93041	17042.025
2263.82004	17032.325
2266.70783	16939.425
2269.59378	16922.925
2272.4779	16919.225
2275.36017	16891.425
2278.24061	16868.225
2281.11922	16829.725
2283.996	16785.625
2286.87094	16804.025
2289.74405	16738.325
2292.61534	16738.525
2295.4848	16726.325
2298.35243	16715.925
2301.21824	16690.125
2304.08223	16696.425
2306.94439	16696.525
2309.80474	16710.525
2312.66327	16728.025
2315.51999	16688.025
2318.37489	16691.425
2321.22797	16699.625
2324.07925	16675.225
2326.92871	16631.725
2329.77637	16618.025
2332.62222	16583.025
2335.46626	16556.425
2338.3085	16556.625
2341.14893	16538.825
2343.98756	16585.525
2346.8244	16557.125
2349.65943	16563.825
2352.49267	16559.225
2355.32411	16548.125
2358.15376	16536.125
2360.98161	16509.525
2363.80768	16507.425
2366.63195	16512.125
2369.45444	16481.425
2372.27514	16459.825
2375.09405	16447.125
2377.91118	16430.025
2380.72652	16364.025
2383.54009	16355.325
2386.35187	16314.425
2389.16188	16265.925
2391.97011	16244.925
2394.77657	16244.825
2397.58125	16217.325
2400.38416	16192.625
2403.18529	16150.125
2405.98466	16142.425
2408.78226	16084.225
2411.57809	16070.025
2414.37216	16063.025
2417.16446	16058.425
2419.955	16036.425
2422.74378	16017.325
2425.5308	16025.225
2428.31606	16004.225
2431.09956	16007.325
2433.88131	15958.225
2436.6613	15969.225
2439.43954	15979.725
2442.21603	15945.125
2444.99077	15946.425
2447.76377	15948.625
2450.53501	15916.625
2453.30451	15929.525
2456.07226	15899.625
2458.83827	15900.025
2461.60254	15871.025
2464.36507	15860.225
2467.12586	15852.925
2469.88492	15846.725
2472.64224	15857.925
2475.39782	15854.425
2478.15167	15859.425
2480.90379	15822.125
2483.65417	15825.525
2486.40283	15814.625
2489.14976	15854.625
2491.89497	15837.425
2494.63845	15873.425
2497.3802	15852.525
2500.12024	15816.925
2502.85855	15830.725
2505.59514	15815.825
2508.33002	15782.225
2511.06318	15793.925
2513.79462	15762.925
2516.52435	15691.925
2519.25237	15700.025
2521.97867	15702.825
2524.70327	15650.225
2527.42616	15637.725
2530.14734	15633.125
2532.86681	15621.125
2535.58458	15612.725
2538.30065	15608.425
2541.01501	15584.025
2543.72768	15540.725
2546.43864	15541.825
2549.14791	15534.225
2551.85548	15492.325
2554.56136	15466.225
2557.26554	15460.325
2559.96803	15453.225
2562.66883	15438.425
2565.36794	15432.725
2568.06536	15416.925
2570.7611	15386.625
2573.45514	15369.525
2576.14751	15347.525
2578.83819	15298.125
2581.52719	15299.825
2584.21451	15315.325
2586.90015	15276.325
2589.58411	15304.125
2592.2664	15257.325
2594.94701	15227.325
2597.62594	15215.925
2600.30321	15155.725
2602.9788	15156.625
2605.65273	15127.625
2608.32498	15148.425
2610.99557	15108.125
2613.66449	15136.325
2616.33175	15073.325
2618.99734	15078.825
2621.66128	15066.025
2624.32355	15064.325
2626.98416	15042.025
2629.64311	15041.825
2632.30041	15070.625
2634.95605	15037.225
2637.61004	14974.125
2640.26238	14985.925
2642.91306	14966.825
2645.56209	14939.025
2648.20948	14912.925
2650.85521	14886.325
2653.4993	14922.625
2656.14175	14898.425
2658.78255	14932.325
2661.42171	14915.225
2664.05923	14947.425
2666.6951	14935.425
2669.32934	14954.925
2671.96194	14934.325
2674.59291	14957.625
2677.22224	14950.825
2679.84993	14930.525
2682.476	14935.225
2685.10043	14967.825
2687.72324	14950.925
2690.34441	14911.625
2692.96396	14912.925
2695.58188	14923.725
2698.19818	14886.425
2700.81285	14909.025
2703.4259	14927.225
2706.03733	14960.725
2708.64714	14945.925
2711.25533	14968.625
2713.86191	14965.925
2716.46687	14994.825
2719.07021	14924.625
2721.67194	14950.525
2724.27206	14927.825
2726.87057	14975.225
2729.46747	14976.725
2732.06276	14935.025
2734.65644	14984.025
2737.24852	14925.925
2739.83899	14947.525
2742.42786	14927.225
2745.01513	14888.825
2747.60079	14901.425
2750.18486	14856.125
2752.76733	14896.125
2755.3482	14836.425
2757.92747	14844.025
2760.50515	14831.425
2763.08123	14813.125
2765.65573	14793.325
2768.22863	14793.525
2770.79994	14777.225
2773.36967	14764.825
2775.9378	14755.125
2778.50435	14727.325
2781.06932	14719.525
2783.6327	14711.625
2786.1945	14716.025
2788.75471	14700.225
2791.31335	14634.525
2793.87041	14628.525
2796.42589	14578.325
2798.97979	14576.525
2801.53212	14550.225
2804.08288	14528.825
2806.63206	14514.125
2809.17967	14495.325
2811.72571	14479.625
2814.27018	14483.525
2816.81308	14454.125
2819.35442	14435.525
2821.89419	14402.825
2824.43239	14403.525
2826.96904	14410.925
2829.50412	14411.325
2832.03763	14393.725
2834.56959	14358.125
2837.1	14358.825
2839.62884	14364.925
2842.15613	14351.225
2844.68186	14412.925
2847.20604	14402.025
2849.72867	14462.225
2852.24974	14437.725
2854.76927	14425.025
2857.28724	14407.825
2859.80367	14389.425
2862.31855	14376.425
2864.83189	14355.825
2867.34368	14332.025
2869.85393	14328.325
2872.36264	14321.725
2874.8698	14349.725
2877.37543	14334.625
2879.87952	14339.225
2882.38207	14358.125
2884.88308	14343.925
2887.38256	14344.825
2889.88051	14353.425
2892.37692	14352.025
2894.8718	14323.325
2897.36515	14359.125
2899.85698	14348.825
2902.34727	14425.325
2904.83604	14426.125
2907.32328	14434.925
2909.809	14418.425
2912.29319	14429.525
2914.77587	14405.925
2917.25702	14392.125
2919.73665	14403.325
2922.21476	14366.625
2924.69136	14359.025
2927.16644	14362.525
2929.64	14331.525
2932.11205	14307.525
2934.58258	14257.625
2937.05161	14310.025
2939.51912	14282.025
2941.98513	14257.525
2944.44962	14216.225
2946.91261	14183.325
2949.37409	14180.925
2951.83407	14174.725
2954.29254	14167.125
2956.74951	14136.825
2959.20498	14148.925
2961.65895	14115.225
2964.11142	14116.325
2966.56239	14078.025
2969.01186	14048.825
2971.45984	14042.825
2973.90632	14019.325
2976.35131	13988.125
2978.7948	13972.425
2981.23681	13927.625
2983.67732	13915.625
2986.11635	13863.825
2988.55388	13827.325
2990.98993	13825.625
2993.4245	13803.225
2995.85758	13810.425
2998.28917	13742.525
3000.71928	13744.825
3003.14791	13715.925
3005.57506	13717.125
3008.00073	13688.925
3010.42493	13710.525
3012.84764	13672.025
3015.26888	13639.525
3017.68865	13631.425
3020.10694	13621.825
3022.52376	13596.225
3024.9391	13609.625
3027.35298	13568.925
3029.76539	13540.525
3032.17632	13522.425
3034.5858	13498.325
3036.9938	13493.725
3039.40034	13463.625
3041.80542	13474.725
3044.20903	13446.225
3046.61118	13434.925
3049.01187	13420.425
3051.4111	13407.225
3053.80888	13360.625
3056.20519	13370.525
3058.60005	13375.125
3060.99345	13335.625
3063.3854	13322.725
3065.7759	13276.525
3068.16494	13259.025
3070.55254	13202.225
3072.93868	13226.425
3075.32338	13188.025
3077.70662	13188.725
3080.08842	13147.925
3082.46878	13135.125
3084.84769	13107.525
3087.22515	13124.725
3089.60118	13127.425
3091.97576	13089.225
3094.3489	13088.425
3096.72061	13078.325
3099.09087	13073.725
3101.4597	13061.025
3103.82709	13074.225
3106.19305	13053.725
3108.55757	13055.525
3110.92066	13013.325
3113.28232	13012.825
3115.64255	12982.225
3118.00134	12961.225
3120.35871	12934.125
3122.71466	12910.125
3125.06917	12875.925
3127.42226	12872.925
3129.77393	12893.825
