Data from AgNPs_FTO_APTES_UA_200uM_R6G_10uM_NaF_0.1M_Addition_RamanShift__5__16-06-07-496.txt Node

Date: Fri Dec 17 16:06:07 GMT 2021
User: TCL
Spectrometer: QEP01345
Trigger mode: 4
Integration Time (sec): 7.000000E0
Scans to average: 10
Electric dark correction enabled: true
Nonlinearity correction enabled: false
Boxcar width: 0
XAxis mode: Raman Shifts
Number of Pixels in Spectrum: 1044
>>>>>Begin Spectral Data<<<<<
46.04893	0.2875
50.45542	-0.0125
54.85868	-1.0125
59.25871	0.4875
63.6555	56.3875
68.04907	56.0875
72.43941	60.2875
76.82654	64.9875
81.21044	64.9875
85.59113	73.7875
89.96862	76.0875
94.34289	76.9875
98.71396	82.7875
103.08183	79.6875
107.4465	85.3875
111.80798	83.9875
116.16626	84.7875
120.52136	83.0875
124.87327	89.0875
129.222	92.4875
133.56755	94.8875
137.90993	98.9875
142.24913	103.5875
146.58517	108.1875
150.91804	120.9875
155.24774	141.1875
159.57429	168.5875
163.89768	206.6875
168.21792	264.9875
172.53501	345.2875
176.84895	477.2875
181.15975	661.7875
185.46741	915.4875
189.77193	1262.5875
194.07331	1688.9875
198.37157	2174.4875
202.6667	2691.4875
206.9587	3212.5875
211.24758	3719.8875
215.53334	4220.2875
219.81599	4745.2875
224.09553	5341.4875
228.37195	6002.2875
232.64527	6723.9875
236.91549	7501.6875
241.18261	8287.6875
245.44663	9023.7875
249.70755	9660.0875
253.96539	10225.9875
258.22014	10657.2875
262.4718	11058.1875
266.72039	11311.3875
270.96589	11447.7875
275.20832	11447.3875
279.44768	11310.1875
283.68397	11152.3875
287.91719	10933.3875
292.14735	10824.2875
296.37445	10788.1875
300.59849	10890.3875
304.81948	10953.3875
309.03742	10984.3875
313.25231	10873.9875
317.46415	10612.9875
321.67296	10313.4875
325.87872	10064.9875
330.08145	9979.9875
334.28114	10010.1875
338.47781	10093.6875
342.67145	10234.4875
346.86207	10443.9875
351.04966	10663.2875
355.23424	10940.0875
359.4158	11172.5875
363.59435	11367.8875
367.76989	11464.9875
371.94243	11581.5875
376.11196	11705.6875
380.27849	11760.1875
384.44203	11825.0875
388.60257	11841.5875
392.76012	11886.1875
396.91468	12002.8875
401.06626	12139.4875
405.21485	12249.5875
409.36047	12203.0875
413.50311	11987.4875
417.64277	11715.3875
421.77947	11543.0875
425.9132	11485.1875
430.04396	11442.1875
434.17176	11467.6875
438.2966	11537.7875
442.41849	11603.8875
446.53742	11691.1875
450.6534	11840.3875
454.76644	11952.5875
458.87653	12022.9875
462.98368	12009.8875
467.08789	12008.5875
471.18916	11969.1875
475.2875	11897.4875
479.38291	11795.6875
483.4754	11760.2875
487.56496	11709.1875
491.6516	11698.9875
495.73531	11716.6875
499.81612	11703.3875
503.89401	11748.4875
507.96899	11785.3875
512.04106	11831.4875
516.11023	11916.2875
520.1765	11944.7875
524.23987	11943.7875
528.30034	11844.7875
532.35792	11787.7875
536.41261	11707.0875
540.46441	11612.8875
544.51333	11575.4875
548.55936	11584.8875
552.60252	11677.2875
556.64279	11811.6875
560.6802	11858.5875
564.71473	11868.4875
568.7464	11933.2875
572.7752	12025.3875
576.80114	11989.5875
580.82422	11964.2875
584.84444	12052.5875
588.86181	12131.1875
592.87633	12077.7875
596.888	12050.5875
600.89682	12142.3875
604.9028	12706.9875
608.90594	14181.8875
612.90624	16021.0875
616.90371	15689.4875
620.89834	13322.6875
624.89015	12122.8875
628.87913	11991.6875
632.86528	12106.8875
636.84862	12324.5875
640.82913	12269.0875
644.80683	12004.3875
648.78172	11716.3875
652.75379	11599.0875
656.72306	11687.2875
660.68952	11859.5875
664.65319	11838.8875
668.61405	11610.0875
672.57211	11510.4875
676.52738	11487.9875
680.47986	11451.8875
684.42955	11403.2875
688.37646	11373.9875
692.32058	11379.7875
696.26192	11418.9875
700.20048	11476.4875
704.13626	11492.1875
708.06928	11493.1875
711.99952	11464.0875
715.927	11465.5875
719.85171	11453.5875
723.77365	11463.0875
727.69284	11431.6875
731.60928	11367.3875
735.52295	11346.2875
739.43388	11332.0875
743.34206	11339.9875
747.24749	11351.2875
751.15017	11382.6875
755.05012	11451.7875
758.94733	11624.5875
762.8418	12054.6875
766.73354	12884.3875
770.62254	13924.4875
774.50882	14521.8875
778.39237	14177.3875
782.27321	13076.8875
786.15132	12165.6875
790.02671	11607.5875
793.89938	11341.6875
797.76935	11211.6875
801.6366	11165.9875
805.50115	11164.6875
809.36299	11177.7875
813.22213	11178.9875
817.07857	11200.7875
820.93231	11154.8875
824.78336	11114.1875
828.63172	11063.4875
832.47738	11047.1875
836.32036	11025.0875
840.16066	11016.8875
843.99827	10978.8875
847.8332	10982.2875
851.66546	10963.4875
855.49504	10931.7875
859.32195	10929.1875
863.1462	10906.2875
866.96777	10897.8875
870.78668	10889.5875
874.60293	10937.6875
878.41652	10921.1875
882.22745	10947.7875
886.03573	11001.8875
889.84136	11039.8875
893.64433	11021.5875
897.44466	10953.7875
901.24235	10889.0875
905.0374	10850.4875
908.8298	10790.8875
912.61957	10765.0875
916.40671	10757.3875
920.19121	10768.7875
923.97308	10802.2875
927.75233	10830.7875
931.52895	10846.9875
935.30295	10840.8875
939.07433	10696.6875
942.84309	10559.1875
946.60924	10450.6875
950.37278	10408.1875
954.13371	10330.3875
957.89203	10306.8875
961.64774	10286.7875
965.40086	10279.1875
969.15137	10228.6875
972.89929	10227.4875
976.64461	10207.2875
980.38733	10196.3875
984.12747	10182.0875
987.86502	10185.3875
991.59999	10216.6875
995.33237	10246.5875
999.06217	10328.3875
1002.78939	10380.5875
1006.51404	10458.8875
1010.23611	10559.0875
1013.95561	10600.0875
1017.67255	10613.1875
1021.38692	10563.6875
1025.09872	10546.8875
1028.80796	10471.3875
1032.51465	10455.6875
1036.21877	10468.3875
1039.92035	10477.2875
1043.61937	10506.2875
1047.31584	10545.2875
1051.00976	10537.9875
1054.70114	10539.4875
1058.38998	10557.8875
1062.07627	10592.7875
1065.76003	10674.0875
1069.44126	10754.0875
1073.11995	10924.0875
1076.79611	11021.0875
1080.46974	11037.6875
1084.14085	11033.3875
1087.80943	11057.7875
1091.47549	11061.7875
1095.13903	11052.6875
1098.80005	10937.5875
1102.45857	10810.0875
1106.11456	10665.9875
1109.76805	10663.8875
1113.41903	10680.1875
1117.06751	10803.5875
1120.71348	10994.7875
1124.35696	11182.4875
1127.99793	11385.6875
1131.63641	11546.9875
1135.2724	11418.7875
1138.90589	11215.3875
1142.5369	10977.8875
1146.16542	10811.7875
1149.79145	10668.4875
1153.415	10562.6875
1157.03607	10554.3875
1160.65467	10604.6875
1164.27079	10741.9875
1167.88443	10976.2875
1171.49561	11369.2875
1175.10432	11997.1875
1178.71056	12806.5875
1182.31434	13563.9875
1185.91565	13858.7875
1189.51451	13711.4875
1193.11091	13277.8875
1196.70485	12785.2875
1200.29634	12344.8875
1203.88538	12028.4875
1207.47197	11675.7875
1211.05612	11299.6875
1214.63782	11072.4875
1218.21708	10910.1875
1221.79391	10819.1875
1225.36829	10780.7875
1228.94024	10774.6875
1232.50976	10805.4875
1236.07685	10839.7875
1239.6415	10843.4875
1243.20374	10857.4875
1246.76355	10942.9875
1250.32093	10985.7875
1253.8759	11059.5875
1257.42845	11203.7875
1260.97859	11329.9875
1264.52631	11542.3875
1268.07163	11664.2875
1271.61453	11834.1875
1275.15503	11971.4875
1278.69312	12069.7875
1282.22882	12088.9875
1285.76211	12191.9875
1289.29301	12351.0875
1292.82151	12554.6875
1296.34761	12812.1875
1299.87133	13149.4875
1303.39266	13701.7875
1306.9116	14437.3875
1310.42815	15236.5875
1313.94233	15654.8875
1317.45412	15509.0875
1320.96354	14977.5875
1324.47058	14413.9875
1327.97525	13901.2875
1331.47754	13431.9875
1334.97747	13148.5875
1338.47502	13065.8875
1341.97022	13145.1875
1345.46305	13364.2875
1348.95352	13788.2875
1352.44163	14404.3875
1355.92738	15295.8875
1359.41078	16592.4875
1362.89183	18038.6875
1366.37053	18203.3875
1369.84688	16536.5875
1373.32088	14506.6875
1376.79254	13145.0875
1380.26186	12335.7875
1383.72883	11890.4875
1387.19347	11619.4875
1390.65578	11311.6875
1394.11575	11034.4875
1397.57339	10805.9875
1401.0287	10665.6875
1404.48168	10607.6875
1407.93234	10550.8875
1411.38068	10538.3875
1414.82669	10526.8875
1418.27039	10511.4875
1421.71177	10490.5875
1425.15083	10423.2875
1428.58758	10328.4875
1432.02203	10261.7875
1435.45416	10277.4875
1438.88399	10293.3875
1442.31151	10320.6875
1445.73673	10319.0875
1449.15965	10339.3875
1452.58027	10349.8875
1455.9986	10320.5875
1459.41463	10349.6875
1462.82837	10424.2875
1466.23982	10560.2875
1469.64898	10708.1875
1473.05586	10888.9875
1476.46045	11003.8875
1479.86276	11118.9875
1483.26279	11263.0875
1486.66054	11455.1875
1490.05602	11654.1875
1493.44922	12006.4875
1496.84016	12597.8875
1500.22882	13515.9875
1503.61521	14786.1875
1506.99934	16196.3875
1510.38121	17362.8875
1513.76081	17678.5875
1517.13816	16929.0875
1520.51324	15436.1875
1523.88607	13978.8875
1527.25665	12978.9875
1530.62498	12362.3875
1533.99105	12037.0875
1537.35488	11771.7875
1540.71647	11614.4875
1544.07581	11530.4875
1547.4329	11434.0875
1550.78776	11391.7875
1554.14038	11405.2875
1557.49077	11501.1875
1560.83892	11583.1875
1564.18484	11763.7875
1567.52853	11962.8875
1570.86999	12203.2875
1574.20922	12379.6875
1577.54624	12416.9875
1580.88103	12139.0875
1584.2136	11677.0875
1587.54395	11312.8875
1590.87208	11116.8875
1594.19801	11195.9875
1597.52172	11468.0875
1600.84321	11675.1875
1604.16251	11545.2875
1607.47959	11285.1875
1610.79447	10988.1875
1614.10715	10666.1875
1617.41763	10332.5875
1620.7259	10085.2875
1624.03199	9891.2875
1627.33587	9823.4875
1630.63757	9843.4875
1633.93707	9982.1875
1637.23439	10251.1875
1640.52951	10698.5875
1643.82246	11367.9875
1647.11321	12287.1875
1650.40179	13119.3875
1653.68819	13279.6875
1656.97241	12507.0875
1660.25446	11401.2875
1663.53433	10491.8875
1666.81203	9887.1875
1670.08756	9545.8875
1673.36092	9291.8875
1676.63211	9132.6875
1679.90115	9014.0875
1683.16801	8923.9875
1686.43272	8837.0875
1689.69527	8804.2875
1692.95567	8765.4875
1696.2139	8766.2875
1699.46999	8742.6875
1702.72392	8732.4875
1705.97571	8698.5875
1709.22535	8642.1875
1712.47284	8574.5875
1715.71819	8555.5875
1718.96139	8489.1875
1722.20246	8466.2875
1725.44139	8387.5875
1728.67818	8337.6875
1731.91284	8295.0875
1735.14537	8252.4875
1738.37576	8217.1875
1741.60403	8206.5875
1744.83017	8177.2875
1748.05418	8162.2875
1751.27607	8141.6875
1754.49584	8141.4875
1757.71349	8121.5875
1760.92903	8098.4875
1764.14244	8107.0875
1767.35375	8082.8875
1770.56294	8085.4875
1773.77002	8064.3875
1776.97499	8048.7875
1780.17785	8036.0875
1783.37861	8029.4875
1786.57727	8007.7875
1789.77382	7993.4875
1792.96828	7981.2875
1796.16064	7967.0875
1799.3509	7935.1875
1802.53907	7922.9875
1805.72514	7883.4875
1808.90913	7860.3875
1812.09102	7862.0875
1815.27083	7840.4875
1818.44856	7815.3875
1821.6242	7806.2875
1824.79776	7786.1875
1827.96924	7772.0875
1831.13864	7759.8875
1834.30597	7752.3875
1837.47122	7766.2875
1840.6344	7742.7875
1843.7955	7754.7875
1846.95454	7749.7875
1850.11151	7710.2875
1853.26642	7699.7875
1856.41926	7717.8875
1859.57004	7697.2875
1862.71876	7690.9875
1865.86542	7663.6875
1869.01003	7665.2875
1872.15258	7647.3875
1875.29308	7652.4875
1878.43152	7629.7875
1881.56792	7640.4875
1884.70227	7631.6875
1887.83457	7581.6875
1890.96482	7601.3875
1894.09304	7578.2875
1897.21921	7577.4875
1900.34335	7578.5875
1903.46544	7562.1875
1906.58551	7564.9875
1909.70353	7531.3875
1912.81953	7517.5875
1915.93349	7501.3875
1919.04543	7498.8875
1922.15534	7491.1875
1925.26322	7478.2875
1928.36908	7473.3875
1931.47292	7449.1875
1934.57473	7412.3875
1937.67453	7384.6875
1940.77232	7384.2875
1943.86808	7361.5875
1946.96184	7339.3875
1950.05358	7344.1875
1953.14331	7316.6875
1956.23103	7314.1875
1959.31675	7272.9875
1962.40046	7256.0875
1965.48217	7234.4875
1968.56188	7199.9875
1971.63959	7196.7875
1974.7153	7164.9875
1977.78901	7136.2875
1980.86073	7110.4875
1983.93046	7095.4875
1986.99819	7084.1875
1990.06394	7036.9875
1993.1277	7026.0875
1996.18947	6995.6875
1999.24925	6993.6875
2002.30706	6960.6875
2005.36288	6916.0875
2008.41672	6907.2875
2011.46859	6892.0875
2014.51848	6870.4875
2017.56639	6853.6875
2020.61233	6825.6875
2023.6563	6816.9875
2026.6983	6813.2875
2029.73833	6761.9875
2032.7764	6759.8875
2035.8125	6748.6875
2038.84664	6740.9875
2041.87881	6747.0875
2044.90903	6727.9875
2047.93729	6698.2875
2050.96359	6713.5875
2053.98794	6673.7875
2057.01034	6672.4875
2060.03078	6659.7875
2063.04927	6645.1875
2066.06582	6648.0875
2069.08042	6642.5875
2072.09307	6647.6875
2075.10378	6649.0875
2078.11255	6609.0875
2081.11938	6639.1875
2084.12426	6625.9875
2087.12722	6629.8875
2090.12824	6616.7875
2093.12732	6622.4875
2096.12447	6629.8875
2099.11969	6628.3875
2102.11299	6625.5875
2105.10435	6626.0875
2108.09379	6601.2875
2111.08131	6636.1875
2114.0669	6625.7875
2117.05057	6643.2875
2120.03233	6644.6875
2123.01216	6640.4875
2125.99008	6651.8875
2128.96609	6639.6875
2131.94018	6667.9875
2134.91236	6678.9875
2137.88263	6678.2875
2140.851	6654.2875
2143.81746	6673.5875
2146.78201	6670.8875
2149.74466	6694.4875
2152.7054	6644.4875
2155.66425	6652.0875
2158.6212	6650.3875
2161.57625	6666.2875
2164.52941	6653.7875
2167.48067	6642.4875
2170.43004	6642.2875
2173.37752	6650.5875
2176.32311	6655.0875
2179.26681	6641.9875
2182.20863	6630.9875
2185.14856	6642.4875
2188.08661	6634.7875
2191.02278	6609.8875
2193.95707	6595.7875
2196.88948	6631.8875
2199.82001	6611.0875
2202.74867	6601.4875
2205.67545	6581.0875
2208.60037	6584.4875
2211.52341	6570.7875
2214.44458	6549.0875
2217.36388	6531.3875
2220.28132	6532.1875
2223.1969	6504.3875
2226.11061	6495.0875
2229.02246	6477.2875
2231.93245	6470.8875
2234.84058	6460.4875
2237.74686	6446.6875
2240.65128	6447.4875
2243.55385	6435.9875
2246.45456	6435.3875
2249.35343	6429.6875
2252.25044	6418.5875
2255.14561	6391.5875
2258.03893	6385.0875
2260.93041	6389.9875
2263.82004	6387.5875
2266.70783	6353.7875
2269.59378	6350.0875
2272.4779	6333.0875
2275.36017	6315.0875
2278.24061	6306.3875
2281.11922	6302.9875
2283.996	6291.6875
2286.87094	6286.9875
2289.74405	6255.6875
2292.61534	6244.7875
2295.4848	6230.9875
2298.35243	6228.4875
2301.21824	6221.2875
2304.08223	6227.9875
2306.94439	6229.9875
2309.80474	6220.1875
2312.66327	6199.5875
2315.51999	6213.2875
2318.37489	6194.6875
2321.22797	6184.1875
2324.07925	6176.3875
2326.92871	6159.3875
2329.77637	6150.9875
2332.62222	6134.3875
2335.46626	6141.2875
2338.3085	6139.3875
2341.14893	6105.5875
2343.98756	6104.5875
2346.8244	6105.8875
2349.65943	6091.4875
2352.49267	6097.5875
2355.32411	6089.5875
2358.15376	6099.3875
2360.98161	6105.6875
2363.80768	6102.3875
2366.63195	6088.4875
2369.45444	6082.0875
2372.27514	6072.3875
2375.09405	6063.6875
2377.91118	6058.6875
2380.72652	6054.0875
2383.54009	6032.4875
2386.35187	6032.8875
2389.16188	5999.9875
2391.97011	5964.2875
2394.77657	5963.7875
2397.58125	5963.3875
2400.38416	5944.6875
2403.18529	5939.7875
2405.98466	5929.6875
2408.78226	5913.0875
2411.57809	5906.1875
2414.37216	5907.4875
2417.16446	5905.9875
2419.955	5872.4875
2422.74378	5889.5875
2425.5308	5881.9875
2428.31606	5870.1875
2431.09956	5886.7875
2433.88131	5852.7875
2436.6613	5865.4875
2439.43954	5858.8875
2442.21603	5840.2875
2444.99077	5836.1875
2447.76377	5848.6875
2450.53501	5831.4875
2453.30451	5836.9875
2456.07226	5847.6875
2458.83827	5824.4875
2461.60254	5824.9875
2464.36507	5788.3875
2467.12586	5789.6875
2469.88492	5803.9875
2472.64224	5804.5875
2475.39782	5806.6875
2478.15167	5792.5875
2480.90379	5780.4875
2483.65417	5793.2875
2486.40283	5787.8875
2489.14976	5776.9875
2491.89497	5780.3875
2494.63845	5774.3875
2497.3802	5778.0875
2500.12024	5758.4875
2502.85855	5763.3875
2505.59514	5724.8875
2508.33002	5742.4875
2511.06318	5725.4875
2513.79462	5713.6875
2516.52435	5702.5875
2519.25237	5685.3875
2521.97867	5690.6875
2524.70327	5666.0875
2527.42616	5647.9875
2530.14734	5645.3875
2532.86681	5634.0875
2535.58458	5632.3875
2538.30065	5617.7875
2541.01501	5630.6875
2543.72768	5603.2875
2546.43864	5622.8875
2549.14791	5597.4875
2551.85548	5580.1875
2554.56136	5578.0875
2557.26554	5570.3875
2559.96803	5561.0875
2562.66883	5546.8875
2565.36794	5552.2875
2568.06536	5544.2875
2570.7611	5527.1875
2573.45514	5522.9875
2576.14751	5506.7875
2578.83819	5511.3875
2581.52719	5488.2875
2584.21451	5486.2875
2586.90015	5493.3875
2589.58411	5480.7875
2592.2664	5442.7875
2594.94701	5447.1875
2597.62594	5422.1875
2600.30321	5420.9875
2602.9788	5395.0875
2605.65273	5405.3875
2608.32498	5384.5875
2610.99557	5379.2875
2613.66449	5380.9875
2616.33175	5389.9875
2618.99734	5377.5875
2621.66128	5363.8875
2624.32355	5364.4875
2626.98416	5358.8875
2629.64311	5332.4875
2632.30041	5339.0875
2634.95605	5323.1875
2637.61004	5323.3875
2640.26238	5312.1875
2642.91306	5304.2875
2645.56209	5286.2875
2648.20948	5305.8875
2650.85521	5289.4875
2653.4993	5290.6875
2656.14175	5288.0875
2658.78255	5289.9875
2661.42171	5292.5875
2664.05923	5281.7875
2666.6951	5293.6875
2669.32934	5290.9875
2671.96194	5273.9875
2674.59291	5274.2875
2677.22224	5276.6875
2679.84993	5280.9875
2682.476	5271.9875
2685.10043	5285.4875
2687.72324	5283.8875
2690.34441	5290.9875
2692.96396	5282.8875
2695.58188	5284.4875
2698.19818	5277.8875
2700.81285	5259.7875
2703.4259	5287.9875
2706.03733	5296.5875
2708.64714	5263.6875
2711.25533	5281.6875
2713.86191	5276.6875
2716.46687	5286.0875
2719.07021	5280.2875
2721.67194	5264.7875
2724.27206	5268.5875
2726.87057	5273.1875
2729.46747	5275.2875
2732.06276	5255.4875
2734.65644	5260.0875
2737.24852	5259.8875
2739.83899	5235.0875
2742.42786	5231.6875
2745.01513	5233.9875
2747.60079	5224.1875
2750.18486	5229.6875
2752.76733	5233.2875
2755.3482	5219.5875
2757.92747	5236.9875
2760.50515	5219.2875
2763.08123	5200.8875
2765.65573	5188.8875
2768.22863	5187.3875
2770.79994	5172.7875
2773.36967	5174.3875
2775.9378	5169.6875
2778.50435	5160.4875
2781.06932	5158.5875
2783.6327	5157.6875
2786.1945	5144.8875
2788.75471	5130.5875
2791.31335	5109.7875
2793.87041	5111.5875
2796.42589	5095.9875
2798.97979	5081.9875
2801.53212	5077.8875
2804.08288	5072.9875
2806.63206	5070.8875
2809.17967	5040.4875
2811.72571	5044.6875
2814.27018	5036.8875
2816.81308	5031.9875
2819.35442	5018.3875
2821.89419	5020.7875
2824.43239	5014.5875
2826.96904	5021.0875
2829.50412	5014.7875
2832.03763	4999.8875
2834.56959	5016.7875
2837.1	4997.1875
2839.62884	5003.5875
2842.15613	4995.4875
2844.68186	5024.2875
2847.20604	5024.9875
2849.72867	5019.5875
2852.24974	5015.7875
2854.76927	5008.2875
2857.28724	4995.4875
2859.80367	5002.5875
2862.31855	4989.3875
2864.83189	4985.4875
2867.34368	4990.7875
2869.85393	4996.8875
2872.36264	4992.5875
2874.8698	4992.1875
2877.37543	4994.5875
2879.87952	4989.8875
2882.38207	4987.1875
2884.88308	4981.8875
2887.38256	4988.6875
2889.88051	4989.2875
2892.37692	4978.0875
2894.8718	4963.8875
2897.36515	4985.1875
2899.85698	4981.8875
2902.34727	4986.2875
2904.83604	4986.1875
2907.32328	4976.6875
2909.809	4973.7875
2912.29319	4993.6875
2914.77587	4984.5875
2917.25702	4986.2875
2919.73665	4987.9875
2922.21476	4994.1875
2924.69136	4990.6875
2927.16644	4984.0875
2929.64	4982.1875
2932.11205	4973.6875
2934.58258	4960.3875
2937.05161	4972.7875
2939.51912	4956.3875
2941.98513	4949.0875
2944.44962	4961.0875
2946.91261	4917.9875
2949.37409	4910.4875
2951.83407	4923.6875
2954.29254	4916.0875
2956.74951	4912.2875
2959.20498	4928.0875
2961.65895	4900.1875
2964.11142	4906.9875
2966.56239	4894.7875
2969.01186	4907.7875
2971.45984	4878.3875
2973.90632	4871.7875
2976.35131	4868.8875
2978.7948	4855.9875
2981.23681	4845.6875
2983.67732	4851.4875
2986.11635	4830.4875
2988.55388	4820.1875
2990.98993	4821.2875
2993.4245	4828.4875
2995.85758	4805.7875
2998.28917	4798.8875
3000.71928	4790.9875
3003.14791	4798.8875
3005.57506	4783.6875
3008.00073	4789.8875
3010.42493	4784.5875
3012.84764	4797.5875
3015.26888	4781.5875
3017.68865	4767.8875
3020.10694	4762.5875
3022.52376	4762.0875
3024.9391	4751.4875
3027.35298	4758.1875
3029.76539	4744.5875
3032.17632	4726.4875
3034.5858	4722.6875
3036.9938	4733.0875
3039.40034	4684.7875
3041.80542	4705.6875
3044.20903	4709.4875
3046.61118	4707.0875
3049.01187	4694.4875
3051.4111	4686.0875
3053.80888	4683.0875
3056.20519	4679.6875
3058.60005	4680.0875
3060.99345	4686.2875
3063.3854	4683.2875
3065.7759	4661.4875
3068.16494	4669.7875
3070.55254	4661.8875
3072.93868	4668.1875
3075.32338	4638.1875
3077.70662	4646.3875
3080.08842	4644.6875
3082.46878	4655.2875
