Data from AgNPs_FTO_APTES_UA_100uM_R6G_10uM_NaF_0.1M_Addition_RamanShift__27__15-48-37-476.txt Node

Date: Fri Dec 17 15:48:37 GMT 2021
User: TCL
Spectrometer: QEP01345
Trigger mode: 4
Integration Time (sec): 7.000000E0
Scans to average: 10
Electric dark correction enabled: true
Nonlinearity correction enabled: false
Boxcar width: 0
XAxis mode: Raman Shifts
Number of Pixels in Spectrum: 1044
>>>>>Begin Spectral Data<<<<<
46.04893	0.925
50.45542	0.725
54.85868	-1.175
59.25871	-0.475
63.6555	60.025
68.04907	62.425
72.43941	65.025
76.82654	70.925
81.21044	71.325
85.59113	77.025
89.96862	81.025
94.34289	84.725
98.71396	85.425
103.08183	86.525
107.4465	93.525
111.80798	91.025
116.16626	93.725
120.52136	92.425
124.87327	100.425
129.222	102.225
133.56755	108.025
137.90993	115.125
142.24913	125.925
146.58517	129.625
150.91804	152.025
155.24774	176.225
159.57429	220.525
163.89768	274.425
168.21792	363.625
172.53501	483.025
176.84895	665.925
181.15975	928.525
185.46741	1291.325
189.77193	1795.625
194.07331	2399.425
198.37157	3091.125
202.6667	3814.125
206.9587	4542.025
211.24758	5255.225
215.53334	5965.025
219.81599	6709.825
224.09553	7528.125
228.37195	8455.425
232.64527	9436.225
236.91549	10537.625
241.18261	11588.625
245.44663	12561.525
249.70755	13468.725
253.96539	14240.025
258.22014	14902.925
262.4718	15413.625
266.72039	15841.125
270.96589	16034.025
275.20832	16080.625
279.44768	15984.325
283.68397	15756.325
287.91719	15485.025
292.14735	15387.125
296.37445	15409.725
300.59849	15551.225
304.81948	15767.825
309.03742	15795.625
313.25231	15642.825
317.46415	15205.425
321.67296	14636.225
325.87872	14189.125
330.08145	14022.425
334.28114	14027.525
338.47781	14161.025
342.67145	14387.025
346.86207	14662.425
351.04966	15060.925
355.23424	15506.125
359.4158	15920.225
363.59435	16195.025
367.76989	16377.525
371.94243	16545.725
376.11196	16580.525
380.27849	16667.925
384.44203	16674.525
388.60257	16678.925
392.76012	16641.325
396.91468	16803.225
401.06626	16993.725
405.21485	17197.425
409.36047	17062.125
413.50311	16680.425
417.64277	16268.325
421.77947	16025.725
425.9132	15934.125
430.04396	15921.925
434.17176	15969.725
438.2966	16074.025
442.41849	16262.025
446.53742	16473.925
450.6534	16698.525
454.76644	16849.125
458.87653	16962.025
462.98368	16957.125
467.08789	16901.025
471.18916	16783.625
475.2875	16633.325
479.38291	16475.525
483.4754	16318.225
487.56496	16253.225
491.6516	16213.025
495.73531	16183.725
499.81612	16176.025
503.89401	16246.025
507.96899	16305.925
512.04106	16380.125
516.11023	16561.925
520.1765	16642.525
524.23987	16619.625
528.30034	16529.425
532.35792	16372.625
536.41261	16228.825
540.46441	16041.325
544.51333	15963.225
548.55936	16007.525
552.60252	16136.325
556.64279	16324.825
560.6802	16372.925
564.71473	16417.925
568.7464	16621.625
572.7752	16757.325
576.80114	16619.925
580.82422	16402.225
584.84444	16359.525
588.86181	16331.425
592.87633	16343.125
596.888	16445.325
600.89682	16751.825
604.9028	17641.725
608.90594	20024.625
612.90624	23022.125
616.90371	22492.725
620.89834	18570.725
624.89015	16685.825
628.87913	16360.525
632.86528	16483.925
636.84862	16653.225
640.82913	16569.225
644.80683	16191.025
648.78172	15854.525
652.75379	15771.025
656.72306	15972.125
660.68952	16323.325
664.65319	16222.025
668.61405	15877.625
672.57211	15738.525
676.52738	15762.725
680.47986	15730.625
684.42955	15656.425
688.37646	15618.325
692.32058	15588.025
696.26192	15657.525
700.20048	15741.925
704.13626	15782.625
708.06928	15784.725
711.99952	15710.025
715.927	15647.725
719.85171	15656.725
723.77365	15643.725
727.69284	15611.025
731.60928	15538.325
735.52295	15512.425
739.43388	15505.925
743.34206	15547.825
747.24749	15544.825
751.15017	15585.825
755.05012	15684.625
758.94733	15967.725
762.8418	16674.525
766.73354	17988.125
770.62254	19571.325
774.50882	20491.225
778.39237	19911.125
782.27321	18254.425
786.15132	16773.525
790.02671	15908.525
793.89938	15511.825
797.76935	15312.425
801.6366	15265.525
805.50115	15237.525
809.36299	15234.025
813.22213	15239.425
817.07857	15229.325
820.93231	15154.025
824.78336	15115.325
828.63172	15112.025
832.47738	15062.925
836.32036	15012.425
840.16066	14992.525
843.99827	14956.125
847.8332	14952.425
851.66546	14933.825
855.49504	14901.525
859.32195	14881.325
863.1462	14879.825
866.96777	14856.825
870.78668	14825.425
874.60293	14853.425
878.41652	14860.425
882.22745	14925.825
886.03573	14958.325
889.84136	14943.525
893.64433	14886.625
897.44466	14818.925
901.24235	14727.025
905.0374	14663.725
908.8298	14611.725
912.61957	14571.325
916.40671	14583.725
920.19121	14615.225
923.97308	14675.125
927.75233	14669.425
931.52895	14724.125
935.30295	14685.625
939.07433	14499.425
942.84309	14320.825
946.60924	14187.925
950.37278	14108.025
954.13371	14025.725
957.89203	13974.825
961.64774	13951.525
965.40086	13909.425
969.15137	13825.525
972.89929	13776.025
976.64461	13777.925
980.38733	13746.525
984.12747	13774.825
987.86502	13782.825
991.59999	13838.625
995.33237	13890.925
999.06217	13983.325
1002.78939	14160.625
1006.51404	14317.525
1010.23611	14488.425
1013.95561	14631.325
1017.67255	14637.825
1021.38692	14575.725
1025.09872	14469.725
1028.80796	14414.225
1032.51465	14456.525
1036.21877	14488.025
1039.92035	14514.325
1043.61937	14474.325
1047.31584	14413.525
1051.00976	14341.525
1054.70114	14280.525
1058.38998	14264.425
1062.07627	14351.625
1065.76003	14395.125
1069.44126	14463.225
1073.11995	14547.125
1076.79611	14626.925
1080.46974	14667.425
1084.14085	14701.525
1087.80943	14818.325
1091.47549	14919.725
1095.13903	14822.825
1098.80005	14580.325
1102.45857	14390.725
1106.11456	14268.225
1109.76805	14255.325
1113.41903	14425.325
1117.06751	14616.025
1120.71348	14914.425
1124.35696	15179.025
1127.99793	15464.925
1131.63641	15592.625
1135.2724	15387.325
1138.90589	15028.325
1142.5369	14749.525
1146.16542	14530.425
1149.79145	14308.625
1153.415	14251.425
1157.03607	14236.325
1160.65467	14349.525
1164.27079	14585.325
1167.88443	14967.525
1171.49561	15548.025
1175.10432	16498.625
1178.71056	17804.625
1182.31434	19041.825
1185.91565	19532.125
1189.51451	19320.025
1193.11091	18595.125
1196.70485	17688.825
1200.29634	16982.625
1203.88538	16464.425
1207.47197	15931.625
1211.05612	15410.825
1214.63782	15022.925
1218.21708	14822.625
1221.79391	14770.425
1225.36829	14708.625
1228.94024	14733.425
1232.50976	14714.425
1236.07685	14764.825
1239.6415	14785.725
1243.20374	14815.725
1246.76355	14879.525
1250.32093	14996.525
1253.8759	15170.325
1257.42845	15405.725
1260.97859	15632.425
1264.52631	15826.225
1268.07163	16066.025
1271.61453	16282.125
1275.15503	16523.425
1278.69312	16621.525
1282.22882	16669.825
1285.76211	16823.725
1289.29301	17074.125
1292.82151	17408.625
1296.34761	17840.925
1299.87133	18417.925
1303.39266	19314.525
1306.9116	20613.125
1310.42815	22045.225
1313.94233	22926.525
1317.45412	22734.725
1320.96354	21783.625
1324.47058	20732.825
1327.97525	19759.725
1331.47754	19043.225
1334.97747	18801.825
1338.47502	18810.825
1341.97022	19089.625
1345.46305	19504.925
1348.95352	20074.625
1352.44163	20898.925
1355.92738	22235.525
1359.41078	24239.925
1362.89183	26492.125
1366.37053	26519.025
1369.84688	23647.125
1373.32088	20380.225
1376.79254	18271.725
1380.26186	17192.325
1383.72883	16705.025
1387.19347	16360.025
1390.65578	15997.725
1394.11575	15658.825
1397.57339	15460.525
1401.0287	15383.125
1404.48168	15393.325
1407.93234	15446.025
1411.38068	15485.125
1414.82669	15465.925
1418.27039	15329.025
1421.71177	15148.825
1425.15083	14971.225
1428.58758	14791.325
1432.02203	14716.625
1435.45416	14742.625
1438.88399	14794.225
1442.31151	14834.425
1445.73673	14908.925
1449.15965	14981.525
1452.58027	15026.225
1455.9986	14977.725
1459.41463	14994.025
1462.82837	15094.025
1466.23982	15268.225
1469.64898	15510.725
1473.05586	15727.425
1476.46045	15821.225
1479.86276	15979.925
1483.26279	16140.425
1486.66054	16393.425
1490.05602	16647.825
1493.44922	17030.525
1496.84016	17727.825
1500.22882	18754.325
1503.61521	20286.325
1506.99934	22068.625
1510.38121	23824.125
1513.76081	24595.725
1517.13816	23810.525
1520.51324	21854.025
1523.88607	19702.225
1527.25665	18151.125
1530.62498	17273.525
1533.99105	16757.725
1537.35488	16466.625
1540.71647	16321.825
1544.07581	16192.725
1547.4329	16164.325
1550.78776	16174.625
1554.14038	16184.425
1557.49077	16304.525
1560.83892	16472.525
1564.18484	16677.525
1567.52853	16884.025
1570.86999	17134.225
1574.20922	17357.425
1577.54624	17356.425
1580.88103	16935.425
1584.2136	16253.225
1587.54395	15803.225
1590.87208	15752.525
1594.19801	16110.925
1597.52172	16737.925
1600.84321	17044.425
1604.16251	16779.425
1607.47959	16225.225
1610.79447	15559.525
1614.10715	14902.925
1617.41763	14285.425
1620.7259	13821.025
1624.03199	13555.925
1627.33587	13487.725
1630.63757	13582.125
1633.93707	13869.825
1637.23439	14412.525
1640.52951	15235.925
1643.82246	16267.925
1647.11321	17632.025
1650.40179	18740.025
1653.68819	18701.325
1656.97241	17254.825
1660.25446	15433.725
1663.53433	13990.025
1666.81203	13104.425
1670.08756	12587.025
1673.36092	12206.225
1676.63211	11967.725
1679.90115	11818.025
1683.16801	11684.325
1686.43272	11570.625
1689.69527	11474.525
1692.95567	11430.125
1696.2139	11390.925
1699.46999	11359.225
1702.72392	11285.025
1705.97571	11284.425
1709.22535	11224.425
1712.47284	11182.925
1715.71819	11160.425
1718.96139	11126.325
1722.20246	11088.925
1725.44139	11028.625
1728.67818	10989.625
1731.91284	10936.925
1735.14537	10883.225
1738.37576	10841.725
1741.60403	10802.225
1744.83017	10765.625
1748.05418	10748.325
1751.27607	10719.525
1754.49584	10714.725
1757.71349	10709.125
1760.92903	10688.425
1764.14244	10663.625
1767.35375	10647.025
1770.56294	10643.325
1773.77002	10656.925
1776.97499	10593.325
1780.17785	10553.825
1783.37861	10537.125
1786.57727	10547.825
1789.77382	10523.925
1792.96828	10476.425
1796.16064	10449.525
1799.3509	10478.925
1802.53907	10440.525
1805.72514	10381.825
1808.90913	10346.825
1812.09102	10312.425
1815.27083	10309.325
1818.44856	10299.225
1821.6242	10263.925
1824.79776	10228.825
1827.96924	10239.125
1831.13864	10198.825
1834.30597	10182.825
1837.47122	10205.925
1840.6344	10191.325
1843.7955	10167.225
1846.95454	10167.725
1850.11151	10159.425
1853.26642	10174.325
1856.41926	10165.925
1859.57004	10154.525
1862.71876	10138.625
1865.86542	10133.725
1869.01003	10102.225
1872.15258	10105.525
1875.29308	10098.625
1878.43152	10077.225
1881.56792	10051.825
1884.70227	10042.625
1887.83457	10047.725
1890.96482	10028.225
1894.09304	10006.625
1897.21921	9996.325
1900.34335	9989.525
1903.46544	10010.125
1906.58551	9991.425
1909.70353	9973.425
1912.81953	9951.025
1915.93349	9934.425
1919.04543	9919.225
1922.15534	9892.525
1925.26322	9873.225
1928.36908	9839.425
1931.47292	9831.425
1934.57473	9785.725
1937.67453	9770.125
1940.77232	9745.025
1943.86808	9731.625
1946.96184	9727.425
1950.05358	9669.525
1953.14331	9684.725
1956.23103	9630.325
1959.31675	9599.625
1962.40046	9554.525
1965.48217	9548.225
1968.56188	9500.025
1971.63959	9472.125
1974.7153	9428.225
1977.78901	9415.725
1980.86073	9385.625
1983.93046	9375.725
1986.99819	9342.125
1990.06394	9298.325
1993.1277	9266.125
1996.18947	9244.825
1999.24925	9224.025
2002.30706	9176.825
2005.36288	9158.225
2008.41672	9124.125
2011.46859	9112.925
2014.51848	9062.225
2017.56639	9056.725
2020.61233	9029.625
2023.6563	8991.425
2026.6983	8974.525
2029.73833	8958.725
2032.7764	8926.525
2035.8125	8918.825
2038.84664	8895.825
2041.87881	8887.525
2044.90903	8873.925
2047.93729	8832.925
2050.96359	8833.525
2053.98794	8822.825
2057.01034	8793.925
2060.03078	8782.925
2063.04927	8786.225
2066.06582	8789.225
2069.08042	8762.325
2072.09307	8749.825
2075.10378	8741.125
2078.11255	8739.925
2081.11938	8748.925
2084.12426	8723.325
2087.12722	8775.025
2090.12824	8718.625
2093.12732	8737.825
2096.12447	8748.625
2099.11969	8700.425
2102.11299	8710.925
2105.10435	8716.925
2108.09379	8709.725
2111.08131	8761.625
2114.0669	8746.025
2117.05057	8741.925
2120.03233	8747.725
2123.01216	8744.825
2125.99008	8762.825
2128.96609	8750.625
2131.94018	8783.425
2134.91236	8772.525
2137.88263	8771.125
2140.851	8773.325
2143.81746	8789.925
2146.78201	8791.625
2149.74466	8792.325
2152.7054	8788.225
2155.66425	8769.825
2158.6212	8762.725
2161.57625	8768.425
2164.52941	8748.425
2167.48067	8721.425
2170.43004	8749.025
2173.37752	8740.125
2176.32311	8737.325
2179.26681	8745.725
2182.20863	8730.325
2185.14856	8714.025
2188.08661	8728.325
2191.02278	8735.125
2193.95707	8718.025
2196.88948	8709.025
2199.82001	8700.725
2202.74867	8673.925
2205.67545	8671.525
2208.60037	8652.825
2211.52341	8638.525
2214.44458	8633.825
2217.36388	8620.925
2220.28132	8599.425
2223.1969	8597.825
2226.11061	8575.925
2229.02246	8559.725
2231.93245	8541.525
2234.84058	8525.425
2237.74686	8513.925
2240.65128	8503.625
2243.55385	8492.825
2246.45456	8474.825
2249.35343	8469.825
2252.25044	8445.925
2255.14561	8452.425
2258.03893	8462.825
2260.93041	8415.725
2263.82004	8410.225
2266.70783	8370.625
2269.59378	8364.925
2272.4779	8334.525
2275.36017	8324.225
2278.24061	8319.425
2281.11922	8278.225
2283.996	8285.825
2286.87094	8265.225
2289.74405	8239.625
2292.61534	8231.525
2295.4848	8234.825
2298.35243	8232.325
2301.21824	8219.425
2304.08223	8222.825
2306.94439	8197.725
2309.80474	8174.925
2312.66327	8200.725
2315.51999	8188.225
2318.37489	8175.225
2321.22797	8183.825
2324.07925	8154.525
2326.92871	8130.625
2329.77637	8153.125
2332.62222	8117.225
2335.46626	8103.525
2338.3085	8078.225
2341.14893	8085.325
2343.98756	8077.825
2346.8244	8072.025
2349.65943	8087.625
2352.49267	8080.725
2355.32411	8074.825
2358.15376	8063.425
2360.98161	8071.025
2363.80768	8079.025
2366.63195	8055.125
2369.45444	8041.325
2372.27514	8038.825
2375.09405	8031.025
2377.91118	8014.425
2380.72652	7985.125
2383.54009	7966.025
2386.35187	7969.625
2389.16188	7933.225
2391.97011	7905.425
2394.77657	7884.125
2397.58125	7875.625
2400.38416	7866.825
2403.18529	7839.625
2405.98466	7822.125
2408.78226	7828.925
2411.57809	7815.625
2414.37216	7796.225
2417.16446	7784.125
2419.955	7764.425
2422.74378	7781.425
2425.5308	7779.925
2428.31606	7751.025
2431.09956	7736.525
2433.88131	7729.825
2436.6613	7741.925
2439.43954	7716.825
2442.21603	7737.425
2444.99077	7699.625
2447.76377	7703.325
2450.53501	7711.125
2453.30451	7699.525
2456.07226	7678.425
2458.83827	7684.125
2461.60254	7665.625
2464.36507	7665.525
2467.12586	7658.225
2469.88492	7642.325
2472.64224	7661.425
2475.39782	7640.625
2478.15167	7656.925
2480.90379	7620.225
2483.65417	7652.125
2486.40283	7640.725
2489.14976	7662.325
2491.89497	7657.225
2494.63845	7656.925
2497.3802	7634.825
2500.12024	7635.725
2502.85855	7606.825
2505.59514	7610.125
2508.33002	7586.125
2511.06318	7574.925
2513.79462	7559.225
2516.52435	7543.025
2519.25237	7536.125
2521.97867	7518.625
2524.70327	7534.025
2527.42616	7491.725
2530.14734	7475.125
2532.86681	7468.925
2535.58458	7464.325
2538.30065	7453.925
2541.01501	7440.725
2543.72768	7408.325
2546.43864	7415.625
2549.14791	7410.025
2551.85548	7392.825
2554.56136	7387.725
2557.26554	7381.125
2559.96803	7364.525
2562.66883	7372.225
2565.36794	7371.325
2568.06536	7362.425
2570.7611	7353.825
2573.45514	7333.825
2576.14751	7318.625
2578.83819	7299.025
2581.52719	7290.325
2584.21451	7297.125
2586.90015	7258.925
2589.58411	7277.125
2592.2664	7258.525
2594.94701	7236.525
2597.62594	7218.925
2600.30321	7191.325
2602.9788	7201.925
2605.65273	7192.825
2608.32498	7171.625
2610.99557	7183.025
2613.66449	7161.825
2616.33175	7170.525
2618.99734	7152.425
2621.66128	7132.525
2624.32355	7150.325
2626.98416	7139.825
2629.64311	7142.825
2632.30041	7142.625
2634.95605	7107.525
2637.61004	7108.825
2640.26238	7081.025
2642.91306	7077.125
2645.56209	7078.525
2648.20948	7073.025
2650.85521	7053.325
2653.4993	7058.625
2656.14175	7049.025
2658.78255	7048.225
2661.42171	7041.925
2664.05923	7057.725
2666.6951	7056.625
2669.32934	7046.425
2671.96194	7070.225
2674.59291	7070.325
2677.22224	7067.025
2679.84993	7058.825
2682.476	7066.025
2685.10043	7076.825
2687.72324	7037.125
2690.34441	7055.325
2692.96396	7051.025
2695.58188	7037.225
2698.19818	7045.125
2700.81285	7038.825
2703.4259	7052.925
2706.03733	7066.625
2708.64714	7056.725
2711.25533	7057.325
2713.86191	7039.425
2716.46687	7046.225
2719.07021	7060.225
2721.67194	7045.325
2724.27206	7022.425
2726.87057	7041.825
2729.46747	7017.325
2732.06276	7016.025
2734.65644	7020.025
2737.24852	7024.425
2739.83899	7017.125
2742.42786	7026.125
2745.01513	6983.025
2747.60079	7000.525
2750.18486	6977.325
2752.76733	6998.925
2755.3482	6976.825
2757.92747	6988.925
2760.50515	6968.625
2763.08123	6980.225
2765.65573	6940.225
2768.22863	6956.025
2770.79994	6940.125
2773.36967	6925.825
2775.9378	6930.225
2778.50435	6922.925
2781.06932	6918.025
2783.6327	6898.225
2786.1945	6919.025
2788.75471	6886.425
2791.31335	6859.925
2793.87041	6858.525
2796.42589	6847.925
2798.97979	6835.725
2801.53212	6826.525
2804.08288	6833.225
2806.63206	6790.925
2809.17967	6773.825
2811.72571	6759.225
2814.27018	6776.125
2816.81308	6754.025
2819.35442	6746.925
2821.89419	6742.025
2824.43239	6743.325
2826.96904	6762.525
2829.50412	6735.925
2832.03763	6727.325
2834.56959	6727.725
2837.1	6720.925
2839.62884	6728.725
2842.15613	6716.125
2844.68186	6718.725
2847.20604	6738.925
2849.72867	6744.125
2852.24974	6727.925
2854.76927	6726.825
2857.28724	6719.125
2859.80367	6712.225
2862.31855	6686.325
2864.83189	6701.525
2867.34368	6680.825
2869.85393	6707.425
2872.36264	6694.525
2874.8698	6697.225
2877.37543	6684.225
2879.87952	6665.225
2882.38207	6700.025
2884.88308	6665.825
2887.38256	6682.925
2889.88051	6684.425
2892.37692	6660.325
2894.8718	6681.725
2897.36515	6688.225
2899.85698	6683.925
2902.34727	6698.525
2904.83604	6675.925
2907.32328	6665.225
2909.809	6689.025
2912.29319	6692.525
2914.77587	6677.525
2917.25702	6683.725
2919.73665	6668.725
2922.21476	6677.625
2924.69136	6662.325
2927.16644	6672.925
2929.64	6656.025
2932.11205	6648.025
2934.58258	6643.125
2937.05161	6637.525
2939.51912	6630.725
2941.98513	6603.225
2944.44962	6630.425
2946.91261	6584.825
2949.37409	6589.025
2951.83407	6600.625
2954.29254	6576.225
2956.74951	6577.025
2959.20498	6600.825
2961.65895	6572.625
2964.11142	6559.025
2966.56239	6554.425
2969.01186	6559.225
2971.45984	6527.825
2973.90632	6541.725
2976.35131	6509.425
2978.7948	6501.825
2981.23681	6492.825
2983.67732	6477.825
2986.11635	6446.325
2988.55388	6448.425
2990.98993	6457.825
2993.4245	6436.025
2995.85758	6434.325
2998.28917	6425.625
3000.71928	6403.425
3003.14791	6403.125
3005.57506	6396.325
3008.00073	6387.425
3010.42493	6369.225
3012.84764	6360.225
3015.26888	6361.625
3017.68865	6374.225
3020.10694	6365.325
3022.52376	6345.325
3024.9391	6340.325
3027.35298	6308.425
3029.76539	6299.225
3032.17632	6295.125
3034.5858	6277.125
3036.9938	6272.525
3039.40034	6270.125
3041.80542	6276.925
3044.20903	6261.725
3046.61118	6249.625
3049.01187	6238.725
3051.4111	6236.925
3053.80888	6208.525
3056.20519	6235.225
3058.60005	6209.225
3060.99345	6228.225
3063.3854	6192.425
3065.7759	6204.925
3068.16494	6179.625
3070.55254	6168.125
3072.93868	6158.025
3075.32338	6144.525
3077.70662	6161.825
3080.08842	6134.225
3082.46878	6135.825
3084.84769	6141.225
3087.22515	6132.625
3089.60118	6127.225
3091.97576	6129.425
3094.3489	6135.225
3096.72061	6121.225
3099.09087	6127.725
3101.4597	6134.325
3103.82709	6120.125
3106.19305	6128.225
3108.55757	6111.825
3110.92066	6101.025
3113.28232	6085.625
3115.64255	6076.925
3118.00134	6067.625
3120.35871	6081.225
3122.71466	6076.325
3125.06917	6050.125
3127.42226	6038.525
3129.77393	6065.025
3132.12417	6064.125
3134.47299	6058.125
3136.82039	6055.725
3139.16636	6076.425
3141.51092	6068.325
3143.85406	6064.725
3146.19579	6058.525
3148.53609	6091.025
3150.87499	6084.425
3153.21246	6099.725
3155.54853	6112.525
3157.88318	6101.925
3160.21642	6114.725
3162.54826	6120.025
3164.87868	6141.225
3167.2077	6112.325
3169.5353	6113.225
3171.86151	6108.525
3174.18631	6099.525
3176.5097	6110.025
3178.83169	6116.825
3181.15228	6118.825
3183.47147	6075.825
