Data from AgNPs_FTO_APTES_UA_200uM_R6G_10uM_NaF_0.1M_Addition_RamanShift__37__16-43-27-539.txt Node

Date: Fri Dec 17 16:43:27 GMT 2021
User: TCL
Spectrometer: QEP01345
Trigger mode: 4
Integration Time (sec): 7.000000E0
Scans to average: 10
Electric dark correction enabled: true
Nonlinearity correction enabled: false
Boxcar width: 0
XAxis mode: Raman Shifts
Number of Pixels in Spectrum: 1044
>>>>>Begin Spectral Data<<<<<
46.04893	-0.925
50.45542	0.775
54.85868	-1.725
59.25871	-0.125
63.6555	45.075
68.04907	44.775
72.43941	47.675
76.82654	51.675
81.21044	50.075
85.59113	55.275
89.96862	59.575
94.34289	60.275
98.71396	60.475
103.08183	60.675
107.4465	65.575
111.80798	63.075
116.16626	63.475
120.52136	64.575
124.87327	69.975
129.222	74.375
133.56755	71.675
137.90993	80.075
142.24913	83.875
146.58517	87.175
150.91804	104.275
155.24774	118.975
159.57429	146.975
163.89768	182.575
168.21792	238.475
172.53501	316.575
176.84895	433.975
181.15975	611.975
185.46741	850.375
189.77193	1175.175
194.07331	1579.875
198.37157	2042.775
202.6667	2528.375
206.9587	3003.775
211.24758	3485.675
215.53334	3956.475
219.81599	4434.575
224.09553	5002.675
228.37195	5597.775
232.64527	6261.975
236.91549	6993.875
241.18261	7705.075
245.44663	8405.075
249.70755	9019.375
253.96539	9551.775
258.22014	10005.175
262.4718	10373.175
266.72039	10616.475
270.96589	10760.075
275.20832	10804.275
279.44768	10680.675
283.68397	10508.075
287.91719	10303.775
292.14735	10199.275
296.37445	10139.275
300.59849	10193.475
304.81948	10263.075
309.03742	10224.575
313.25231	10124.575
317.46415	9943.675
321.67296	9662.575
325.87872	9492.175
330.08145	9458.775
334.28114	9467.975
338.47781	9569.075
342.67145	9661.675
346.86207	9823.875
351.04966	10034.675
355.23424	10259.575
359.4158	10480.475
363.59435	10674.875
367.76989	10802.675
371.94243	10923.775
376.11196	11060.275
380.27849	11134.075
384.44203	11215.575
388.60257	11249.275
392.76012	11254.075
396.91468	11329.775
401.06626	11431.875
405.21485	11521.475
409.36047	11467.875
413.50311	11271.075
417.64277	11053.675
421.77947	10942.275
425.9132	10944.675
430.04396	10901.275
434.17176	10964.475
438.2966	11017.675
442.41849	11116.175
446.53742	11212.775
450.6534	11331.575
454.76644	11412.875
458.87653	11460.175
462.98368	11487.575
467.08789	11465.575
471.18916	11432.375
475.2875	11381.575
479.38291	11337.175
483.4754	11276.175
487.56496	11277.575
491.6516	11260.275
495.73531	11273.775
499.81612	11291.575
503.89401	11306.975
507.96899	11348.875
512.04106	11396.775
516.11023	11471.175
520.1765	11524.775
524.23987	11517.775
528.30034	11449.575
532.35792	11418.175
536.41261	11337.175
540.46441	11255.375
544.51333	11183.975
548.55936	11194.675
552.60252	11236.375
556.64279	11328.575
560.6802	11391.075
564.71473	11386.075
568.7464	11421.975
572.7752	11459.675
576.80114	11420.975
580.82422	11354.875
584.84444	11351.875
588.86181	11392.275
592.87633	11411.775
596.888	11460.375
600.89682	11609.675
604.9028	12000.975
608.90594	13194.775
612.90624	14645.875
616.90371	14466.775
620.89834	12620.175
624.89015	11752.675
628.87913	11660.575
632.86528	11833.575
636.84862	12006.775
640.82913	11982.375
644.80683	11741.375
648.78172	11472.475
652.75379	11338.175
656.72306	11370.775
660.68952	11486.175
664.65319	11428.975
668.61405	11225.575
672.57211	11121.775
676.52738	11123.175
680.47986	11126.875
684.42955	11098.675
688.37646	11095.675
692.32058	11076.875
696.26192	11106.375
700.20048	11177.775
704.13626	11165.875
708.06928	11147.175
711.99952	11129.475
715.927	11118.975
719.85171	11111.775
723.77365	11145.075
727.69284	11122.275
731.60928	11092.975
735.52295	11032.475
739.43388	11036.075
743.34206	11015.875
747.24749	11028.675
751.15017	11006.075
755.05012	11054.775
758.94733	11178.375
762.8418	11461.175
766.73354	12093.975
770.62254	12882.375
774.50882	13409.675
778.39237	13161.375
782.27321	12300.375
786.15132	11574.775
790.02671	11154.275
793.89938	10972.175
797.76935	10881.075
801.6366	10859.575
805.50115	10879.975
809.36299	10879.975
813.22213	10912.175
817.07857	10942.875
820.93231	10864.375
824.78336	10823.675
828.63172	10759.175
832.47738	10714.575
836.32036	10716.175
840.16066	10674.175
843.99827	10674.075
847.8332	10687.075
851.66546	10659.475
855.49504	10646.375
859.32195	10646.675
863.1462	10656.175
866.96777	10643.375
870.78668	10659.975
874.60293	10656.775
878.41652	10659.375
882.22745	10714.575
886.03573	10792.575
889.84136	10790.875
893.64433	10741.775
897.44466	10686.875
901.24235	10635.575
905.0374	10575.975
908.8298	10481.675
912.61957	10447.975
916.40671	10463.475
920.19121	10445.675
923.97308	10449.475
927.75233	10459.175
931.52895	10482.175
935.30295	10469.175
939.07433	10363.375
942.84309	10264.675
946.60924	10189.675
950.37278	10139.475
954.13371	10087.775
957.89203	10046.875
961.64774	10044.775
965.40086	9997.275
969.15137	9964.175
972.89929	9964.375
976.64461	9951.875
980.38733	9949.075
984.12747	9931.275
987.86502	9942.175
991.59999	9984.675
995.33237	10015.575
999.06217	10091.075
1002.78939	10157.575
1006.51404	10184.275
1010.23611	10257.075
1013.95561	10310.275
1017.67255	10323.675
1021.38692	10288.075
1025.09872	10263.175
1028.80796	10207.675
1032.51465	10155.275
1036.21877	10177.175
1039.92035	10180.575
1043.61937	10180.175
1047.31584	10179.975
1051.00976	10167.775
1054.70114	10186.875
1058.38998	10161.775
1062.07627	10188.675
1065.76003	10234.975
1069.44126	10310.375
1073.11995	10411.975
1076.79611	10477.575
1080.46974	10490.375
1084.14085	10492.275
1087.80943	10484.775
1091.47549	10498.175
1095.13903	10475.875
1098.80005	10391.975
1102.45857	10274.475
1106.11456	10223.075
1109.76805	10207.975
1113.41903	10286.075
1117.06751	10391.975
1120.71348	10590.475
1124.35696	10766.775
1127.99793	10987.775
1131.63641	11147.575
1135.2724	11092.075
1138.90589	10894.175
1142.5369	10707.975
1146.16542	10520.175
1149.79145	10358.575
1153.415	10193.975
1157.03607	10138.275
1160.65467	10118.275
1164.27079	10222.975
1167.88443	10408.875
1171.49561	10693.875
1175.10432	11132.975
1178.71056	11767.675
1182.31434	12381.575
1185.91565	12588.375
1189.51451	12485.775
1193.11091	12128.375
1196.70485	11728.575
1200.29634	11479.675
1203.88538	11280.975
1207.47197	11034.275
1211.05612	10804.475
1214.63782	10611.175
1218.21708	10476.675
1221.79391	10350.675
1225.36829	10307.275
1228.94024	10267.575
1232.50976	10231.475
1236.07685	10245.275
1239.6415	10233.175
1243.20374	10238.475
1246.76355	10308.075
1250.32093	10355.475
1253.8759	10424.975
1257.42845	10541.375
1260.97859	10684.075
1264.52631	10784.575
1268.07163	10919.075
1271.61453	11033.875
1275.15503	11091.775
1278.69312	11106.475
1282.22882	11152.975
1285.76211	11181.775
1289.29301	11292.375
1292.82151	11486.475
1296.34761	11708.675
1299.87133	12001.775
1303.39266	12436.675
1306.9116	13013.975
1310.42815	13616.775
1313.94233	13915.775
1317.45412	13771.975
1320.96354	13336.475
1324.47058	12815.675
1327.97525	12369.475
1331.47754	11970.075
1334.97747	11775.775
1338.47502	11738.775
1341.97022	11864.875
1345.46305	12075.375
1348.95352	12466.075
1352.44163	12997.275
1355.92738	13691.775
1359.41078	14734.975
1362.89183	15938.075
1366.37053	16114.575
1369.84688	14723.575
1373.32088	13050.275
1376.79254	11946.875
1380.26186	11352.475
1383.72883	11039.775
1387.19347	10805.375
1390.65578	10567.975
1394.11575	10377.675
1397.57339	10195.675
1401.0287	10079.775
1404.48168	10016.875
1407.93234	9964.175
1411.38068	9915.375
1414.82669	9846.075
1418.27039	9805.475
1421.71177	9749.075
1425.15083	9687.975
1428.58758	9593.675
1432.02203	9591.875
1435.45416	9581.675
1438.88399	9614.475
1442.31151	9651.075
1445.73673	9654.575
1449.15965	9659.275
1452.58027	9663.275
1455.9986	9640.075
1459.41463	9654.875
1462.82837	9713.175
1466.23982	9762.375
1469.64898	9884.275
1473.05586	9979.375
1476.46045	10073.675
1479.86276	10122.775
1483.26279	10233.875
1486.66054	10315.675
1490.05602	10443.975
1493.44922	10657.575
1496.84016	11012.175
1500.22882	11630.575
1503.61521	12487.475
1506.99934	13495.275
1510.38121	14404.575
1513.76081	14715.375
1517.13816	14212.175
1520.51324	13172.275
1523.88607	12120.975
1527.25665	11393.075
1530.62498	10992.075
1533.99105	10765.275
1537.35488	10620.275
1540.71647	10542.775
1544.07581	10464.875
1547.4329	10476.875
1550.78776	10456.775
1554.14038	10461.575
1557.49077	10481.875
1560.83892	10582.675
1564.18484	10662.275
1567.52853	10820.075
1570.86999	10985.775
1574.20922	11107.175
1577.54624	11182.375
1580.88103	11006.475
1584.2136	10687.775
1587.54395	10418.975
1590.87208	10266.775
1594.19801	10335.275
1597.52172	10558.375
1600.84321	10665.175
1604.16251	10612.575
1607.47959	10374.275
1610.79447	10125.075
1614.10715	9851.575
1617.41763	9603.275
1620.7259	9398.775
1624.03199	9265.875
1627.33587	9237.075
1630.63757	9236.775
1633.93707	9352.775
1637.23439	9571.675
1640.52951	9934.275
1643.82246	10464.475
1647.11321	11139.875
1650.40179	11710.875
1653.68819	11771.775
1656.97241	11131.075
1660.25446	10303.775
1663.53433	9635.975
1666.81203	9244.775
1670.08756	8995.175
1673.36092	8825.975
1676.63211	8717.975
1679.90115	8632.375
1683.16801	8560.475
1686.43272	8529.975
1689.69527	8507.275
1692.95567	8466.375
1696.2139	8496.475
1699.46999	8504.075
1702.72392	8470.275
1705.97571	8424.875
1709.22535	8360.575
1712.47284	8259.675
1715.71819	8185.475
1718.96139	8130.975
1722.20246	8086.975
1725.44139	8020.875
1728.67818	7986.375
1731.91284	7939.275
1735.14537	7931.075
1738.37576	7875.275
1741.60403	7855.275
1744.83017	7842.275
1748.05418	7821.575
1751.27607	7820.575
1754.49584	7821.775
1757.71349	7805.075
1760.92903	7782.875
1764.14244	7771.275
1767.35375	7779.375
1770.56294	7773.975
1773.77002	7796.175
1776.97499	7753.075
1780.17785	7707.575
1783.37861	7703.275
1786.57727	7682.275
1789.77382	7684.875
1792.96828	7625.075
1796.16064	7639.575
1799.3509	7610.975
1802.53907	7610.475
1805.72514	7583.975
1808.90913	7572.975
1812.09102	7543.375
1815.27083	7518.775
1818.44856	7496.275
1821.6242	7486.375
1824.79776	7495.375
1827.96924	7458.875
1831.13864	7464.875
1834.30597	7463.375
1837.47122	7461.375
1840.6344	7434.775
1843.7955	7447.575
1846.95454	7417.475
1850.11151	7428.275
1853.26642	7432.275
1856.41926	7400.875
1859.57004	7402.275
1862.71876	7390.175
1865.86542	7392.875
1869.01003	7377.775
1872.15258	7369.975
1875.29308	7369.875
1878.43152	7333.175
1881.56792	7353.475
1884.70227	7339.375
1887.83457	7334.375
1890.96482	7304.575
1894.09304	7294.275
1897.21921	7290.175
1900.34335	7291.875
1903.46544	7272.075
1906.58551	7248.675
1909.70353	7265.275
1912.81953	7241.675
1915.93349	7235.675
1919.04543	7213.475
1922.15534	7206.275
1925.26322	7198.275
1928.36908	7191.675
1931.47292	7135.875
1934.57473	7140.875
1937.67453	7112.275
1940.77232	7097.075
1943.86808	7107.875
1946.96184	7082.775
1950.05358	7049.275
1953.14331	7064.975
1956.23103	7026.275
1959.31675	6995.375
1962.40046	6987.275
1965.48217	6961.175
1968.56188	6948.575
1971.63959	6939.175
1974.7153	6911.275
1977.78901	6872.875
1980.86073	6857.875
1983.93046	6848.475
1986.99819	6828.075
1990.06394	6795.775
1993.1277	6777.375
1996.18947	6767.175
1999.24925	6735.475
2002.30706	6715.875
2005.36288	6689.375
2008.41672	6669.375
2011.46859	6653.575
2014.51848	6637.975
2017.56639	6603.675
2020.61233	6590.775
2023.6563	6586.175
2026.6983	6562.975
2029.73833	6554.475
2032.7764	6531.475
2035.8125	6518.975
2038.84664	6506.675
2041.87881	6493.375
2044.90903	6479.275
2047.93729	6453.875
2050.96359	6477.075
2053.98794	6429.475
2057.01034	6433.975
2060.03078	6427.175
2063.04927	6429.475
2066.06582	6424.175
2069.08042	6413.675
2072.09307	6410.575
2075.10378	6396.775
2078.11255	6397.775
2081.11938	6408.075
2084.12426	6412.775
2087.12722	6381.975
2090.12824	6380.275
2093.12732	6379.475
2096.12447	6392.775
2099.11969	6394.375
2102.11299	6404.475
2105.10435	6372.575
2108.09379	6399.275
2111.08131	6399.075
2114.0669	6371.075
2117.05057	6403.875
2120.03233	6402.475
2123.01216	6414.675
2125.99008	6433.575
2128.96609	6421.775
2131.94018	6431.575
2134.91236	6432.375
2137.88263	6441.775
2140.851	6455.275
2143.81746	6446.975
2146.78201	6439.275
2149.74466	6443.475
2152.7054	6448.575
2155.66425	6441.875
2158.6212	6429.175
2161.57625	6437.175
2164.52941	6436.975
2167.48067	6418.775
2170.43004	6425.875
2173.37752	6402.975
2176.32311	6417.675
2179.26681	6421.675
2182.20863	6407.375
2185.14856	6415.475
2188.08661	6420.175
2191.02278	6409.675
2193.95707	6406.475
2196.88948	6407.075
2199.82001	6382.875
2202.74867	6389.375
2205.67545	6402.075
2208.60037	6358.675
2211.52341	6365.175
2214.44458	6351.975
2217.36388	6316.875
2220.28132	6304.075
2223.1969	6297.575
2226.11061	6303.375
2229.02246	6271.175
2231.93245	6265.775
2234.84058	6257.575
2237.74686	6256.775
2240.65128	6257.675
2243.55385	6249.375
2246.45456	6244.475
2249.35343	6234.675
2252.25044	6207.075
2255.14561	6214.375
2258.03893	6205.875
2260.93041	6205.675
2263.82004	6185.975
2266.70783	6178.275
2269.59378	6142.875
2272.4779	6133.975
2275.36017	6116.975
2278.24061	6115.675
2281.11922	6095.975
2283.996	6110.675
2286.87094	6082.475
2289.74405	6053.475
2292.61534	6061.275
2295.4848	6060.075
2298.35243	6039.375
2301.21824	6037.375
2304.08223	6037.375
2306.94439	6032.575
2309.80474	6030.475
2312.66327	6021.375
2315.51999	5996.375
2318.37489	6028.575
2321.22797	5994.175
2324.07925	5983.875
2326.92871	5959.175
2329.77637	5995.675
2332.62222	5969.075
2335.46626	5950.875
2338.3085	5944.375
2341.14893	5933.875
2343.98756	5923.975
2346.8244	5918.875
2349.65943	5913.275
2352.49267	5916.075
2355.32411	5907.475
2358.15376	5909.575
2360.98161	5899.975
2363.80768	5903.675
2366.63195	5890.975
2369.45444	5892.775
2372.27514	5902.475
2375.09405	5888.675
2377.91118	5874.675
2380.72652	5872.875
2383.54009	5828.375
2386.35187	5860.475
2389.16188	5801.775
2391.97011	5804.375
2394.77657	5783.775
2397.58125	5765.975
2400.38416	5763.375
2403.18529	5763.075
2405.98466	5747.375
2408.78226	5743.375
2411.57809	5739.175
2414.37216	5720.275
2417.16446	5731.475
2419.955	5699.375
2422.74378	5705.675
2425.5308	5695.175
2428.31606	5690.675
2431.09956	5692.375
2433.88131	5673.975
2436.6613	5673.375
2439.43954	5681.275
2442.21603	5659.075
2444.99077	5656.175
2447.76377	5666.675
2450.53501	5662.975
2453.30451	5654.275
2456.07226	5635.675
2458.83827	5633.475
2461.60254	5635.575
2464.36507	5632.575
2467.12586	5623.975
2469.88492	5611.875
2472.64224	5597.675
2475.39782	5609.275
2478.15167	5617.775
2480.90379	5602.475
2483.65417	5596.575
2486.40283	5597.875
2489.14976	5606.575
2491.89497	5583.475
2494.63845	5591.575
2497.3802	5578.675
2500.12024	5580.575
2502.85855	5578.775
2505.59514	5566.775
2508.33002	5561.175
2511.06318	5552.075
2513.79462	5522.375
2516.52435	5532.375
2519.25237	5513.475
2521.97867	5496.975
2524.70327	5493.175
2527.42616	5477.375
2530.14734	5477.275
2532.86681	5470.375
2535.58458	5448.475
2538.30065	5452.775
2541.01501	5451.575
2543.72768	5440.275
2546.43864	5409.975
2549.14791	5411.875
2551.85548	5399.975
2554.56136	5403.175
2557.26554	5396.175
2559.96803	5385.675
2562.66883	5372.975
2565.36794	5372.975
2568.06536	5362.775
2570.7611	5351.675
2573.45514	5334.975
2576.14751	5323.275
2578.83819	5321.775
2581.52719	5310.775
2584.21451	5314.475
2586.90015	5297.675
2589.58411	5303.475
2592.2664	5269.275
2594.94701	5259.075
2597.62594	5261.675
2600.30321	5248.875
2602.9788	5232.875
2605.65273	5224.975
2608.32498	5211.475
2610.99557	5201.775
2613.66449	5192.175
2616.33175	5196.475
2618.99734	5176.775
2621.66128	5188.875
2624.32355	5169.675
2626.98416	5190.775
2629.64311	5152.575
2632.30041	5164.975
2634.95605	5170.175
2637.61004	5144.075
2640.26238	5125.575
2642.91306	5114.975
2645.56209	5135.075
2648.20948	5138.775
2650.85521	5123.375
2653.4993	5122.875
2656.14175	5109.375
2658.78255	5121.375
2661.42171	5106.275
2664.05923	5083.075
2666.6951	5087.775
2669.32934	5109.775
2671.96194	5091.875
2674.59291	5089.575
2677.22224	5105.975
2679.84993	5096.575
2682.476	5079.475
2685.10043	5098.375
2687.72324	5087.075
2690.34441	5090.975
2692.96396	5085.475
2695.58188	5106.775
2698.19818	5087.275
2700.81285	5089.475
2703.4259	5107.675
2706.03733	5128.775
2708.64714	5103.975
2711.25533	5107.075
2713.86191	5096.775
2716.46687	5103.075
2719.07021	5104.275
2721.67194	5087.175
2724.27206	5072.675
2726.87057	5092.375
2729.46747	5061.775
2732.06276	5075.775
2734.65644	5062.175
2737.24852	5061.375
2739.83899	5051.675
2742.42786	5055.675
2745.01513	5059.675
2747.60079	5048.175
2750.18486	5054.875
2752.76733	5051.575
2755.3482	5032.975
2757.92747	5042.475
2760.50515	5021.075
2763.08123	5014.175
2765.65573	5004.175
2768.22863	5003.775
2770.79994	4989.975
2773.36967	4991.075
2775.9378	4985.775
2778.50435	4971.375
2781.06932	4976.475
2783.6327	4959.175
2786.1945	4958.275
2788.75471	4951.475
2791.31335	4938.275
2793.87041	4922.675
2796.42589	4901.175
2798.97979	4911.775
2801.53212	4879.475
2804.08288	4872.975
2806.63206	4864.575
2809.17967	4869.175
2811.72571	4863.775
2814.27018	4852.475
2816.81308	4847.575
2819.35442	4830.975
2821.89419	4847.275
2824.43239	4831.075
2826.96904	4826.375
2829.50412	4819.675
2832.03763	4820.975
2834.56959	4817.675
2837.1	4807.675
2839.62884	4821.475
2842.15613	4804.975
2844.68186	4821.975
2847.20604	4808.975
2849.72867	4819.275
2852.24974	4808.375
2854.76927	4804.675
2857.28724	4803.175
2859.80367	4793.275
2862.31855	4782.175
2864.83189	4792.475
2867.34368	4763.675
2869.85393	4778.975
2872.36264	4794.975
2874.8698	4789.175
2877.37543	4778.175
2879.87952	4785.275
2882.38207	4781.075
2884.88308	4769.475
2887.38256	4773.975
2889.88051	4769.675
2892.37692	4766.875
2894.8718	4762.175
2897.36515	4782.075
2899.85698	4759.575
2902.34727	4767.475
2904.83604	4751.175
2907.32328	4783.075
2909.809	4757.075
2912.29319	4788.775
2914.77587	4770.975
2917.25702	4777.375
2919.73665	4758.475
2922.21476	4755.875
2924.69136	4760.975
2927.16644	4751.075
2929.64	4769.675
2932.11205	4758.375
2934.58258	4735.575
2937.05161	4752.575
2939.51912	4742.775
2941.98513	4725.275
2944.44962	4729.375
2946.91261	4719.375
2949.37409	4727.375
2951.83407	4723.375
2954.29254	4722.775
2956.74951	4716.175
2959.20498	4715.275
2961.65895	4712.975
2964.11142	4704.875
2966.56239	4693.175
2969.01186	4701.375
2971.45984	4685.475
2973.90632	4678.875
2976.35131	4673.175
2978.7948	4674.475
2981.23681	4663.875
2983.67732	4665.475
2986.11635	4634.275
2988.55388	4628.275
2990.98993	4623.375
2993.4245	4635.275
2995.85758	4629.775
2998.28917	4621.875
3000.71928	4608.375
3003.14791	4595.075
3005.57506	4592.575
3008.00073	4590.175
3010.42493	4596.475
3012.84764	4588.475
3015.26888	4601.275
3017.68865	4587.475
3020.10694	4581.475
3022.52376	4582.775
3024.9391	4560.675
3027.35298	4549.475
3029.76539	4560.275
3032.17632	4541.275
3034.5858	4531.975
3036.9938	4540.475
3039.40034	4538.275
3041.80542	4533.675
3044.20903	4529.975
3046.61118	4524.475
3049.01187	4516.775
3051.4111	4520.875
3053.80888	4515.175
3056.20519	4502.575
3058.60005	4508.975
3060.99345	4492.575
3063.3854	4495.575
3065.7759	4491.475
3068.16494	4471.775
3070.55254	4467.575
3072.93868	4490.075
3075.32338	4469.275
3077.70662	4470.875
3080.08842	4459.575
3082.46878	4482.575
3084.84769	4468.675
3087.22515	4483.775
3089.60118	4478.975
3091.97576	4476.775
3094.3489	4479.275
3096.72061	4490.975
3099.09087	4478.775
3101.4597	4481.675
3103.82709	4488.875
3106.19305	4480.975
3108.55757	4492.475
3110.92066	4480.375
3113.28232	4463.175
3115.64255	4466.575
3118.00134	4469.875
3120.35871	4464.175
3122.71466	4469.775
3125.06917	4465.975
3127.42226	4456.175
3129.77393	4471.475
3132.12417	4467.175
3134.47299	4472.375
3136.82039	4486.875
3139.16636	4488.175
3141.51092	4499.475
3143.85406	4508.575
3146.19579	4509.675
3148.53609	4516.675
3150.87499	4510.875
3153.21246	4529.375
3155.54853	4541.975
3157.88318	4547.475
3160.21642	4540.675
3162.54826	4550.075
3164.87868	4549.175
3167.2077	4559.075
3169.5353	4567.475
3171.86151	4563.375
3174.18631	4555.875
3176.5097	4557.575
3178.83169	4544.375
3181.15228	4561.775
3183.47147	4559.375
3185.78926	4571.775
3188.10565	4563.275
3190.42065	4552.675
3192.73424	4559.175
3195.04645	4561.375
3197.35725	4563.875
