Data from AgNPs_FTO_APTES_UA_100uM_R6G_10uM_NaF_0.1M_Addition_RamanShift__30__15-52-07-480.txt Node

Date: Fri Dec 17 15:52:07 GMT 2021
User: TCL
Spectrometer: QEP01345
Trigger mode: 4
Integration Time (sec): 7.000000E0
Scans to average: 10
Electric dark correction enabled: true
Nonlinearity correction enabled: false
Boxcar width: 0
XAxis mode: Raman Shifts
Number of Pixels in Spectrum: 1044
>>>>>Begin Spectral Data<<<<<
46.04893	-0.2125
50.45542	-0.4125
54.85868	-0.7125
59.25871	0.8875
63.6555	44.2875
68.04907	47.7875
72.43941	51.6875
76.82654	57.2875
81.21044	55.1875
85.59113	58.8875
89.96862	62.0875
94.34289	68.2875
98.71396	67.5875
103.08183	67.1875
107.4465	72.7875
111.80798	69.1875
116.16626	73.3875
120.52136	72.4875
124.87327	72.5875
129.222	78.5875
133.56755	78.0875
137.90993	83.9875
142.24913	86.8875
146.58517	92.4875
150.91804	100.6875
155.24774	113.0875
159.57429	137.5875
163.89768	169.2875
168.21792	217.0875
172.53501	276.9875
176.84895	384.0875
181.15975	524.1875
185.46741	730.5875
189.77193	999.1875
194.07331	1338.9875
198.37157	1704.3875
202.6667	2111.2875
206.9587	2511.8875
211.24758	2912.8875
215.53334	3312.9875
219.81599	3745.1875
224.09553	4225.7875
228.37195	4774.6875
232.64527	5377.9875
236.91549	5988.7875
241.18261	6584.7875
245.44663	7094.1875
249.70755	7528.8875
253.96539	7868.6875
258.22014	8179.6875
262.4718	8457.4875
266.72039	8678.4875
270.96589	8755.6875
275.20832	8798.8875
279.44768	8716.6875
283.68397	8555.2875
287.91719	8428.4875
292.14735	8397.5875
296.37445	8502.5875
300.59849	8741.1875
304.81948	9016.4875
309.03742	9217.4875
313.25231	9155.3875
317.46415	8802.5875
321.67296	8255.1875
325.87872	7795.8875
330.08145	7620.3875
334.28114	7621.7875
338.47781	7710.8875
342.67145	7889.7875
346.86207	8168.7875
351.04966	8555.6875
355.23424	9012.1875
359.4158	9365.1875
363.59435	9571.5875
367.76989	9690.5875
371.94243	9775.0875
376.11196	9800.2875
380.27849	9803.4875
384.44203	9749.2875
388.60257	9647.9875
392.76012	9588.6875
396.91468	9630.1875
401.06626	9834.3875
405.21485	9994.2875
409.36047	9852.2875
413.50311	9435.1875
417.64277	9030.8875
421.77947	8777.5875
425.9132	8640.8875
430.04396	8615.1875
434.17176	8647.0875
438.2966	8726.3875
442.41849	8861.8875
446.53742	9042.3875
450.6534	9135.7875
454.76644	9256.9875
458.87653	9299.6875
462.98368	9275.5875
467.08789	9204.1875
471.18916	9094.2875
475.2875	8956.4875
479.38291	8848.1875
483.4754	8763.1875
487.56496	8701.6875
491.6516	8695.0875
495.73531	8696.5875
499.81612	8705.4875
503.89401	8772.1875
507.96899	8866.9875
512.04106	9022.5875
516.11023	9191.0875
520.1765	9283.7875
524.23987	9291.4875
528.30034	9161.3875
532.35792	9026.2875
536.41261	8866.8875
540.46441	8710.5875
544.51333	8598.6875
548.55936	8608.3875
552.60252	8721.6875
556.64279	8867.5875
560.6802	8922.6875
564.71473	9014.4875
568.7464	9180.5875
572.7752	9360.4875
576.80114	9168.2875
580.82422	8927.5875
584.84444	8828.9875
588.86181	8772.0875
592.87633	8795.8875
596.888	8862.5875
600.89682	9117.8875
604.9028	10001.3875
608.90594	12283.5875
612.90624	15305.8875
616.90371	15002.1875
620.89834	11266.4875
624.89015	9436.0875
628.87913	9153.7875
632.86528	9255.3875
636.84862	9429.6875
640.82913	9384.3875
644.80683	9045.9875
648.78172	8772.6875
652.75379	8724.4875
656.72306	8935.3875
660.68952	9220.6875
664.65319	9120.0875
668.61405	8794.2875
672.57211	8624.6875
676.52738	8581.9875
680.47986	8606.3875
684.42955	8549.7875
688.37646	8532.5875
692.32058	8540.4875
696.26192	8599.5875
700.20048	8668.2875
704.13626	8731.3875
708.06928	8732.0875
711.99952	8679.1875
715.927	8664.9875
719.85171	8679.1875
723.77365	8700.1875
727.69284	8666.9875
731.60928	8629.7875
735.52295	8581.9875
739.43388	8599.1875
743.34206	8628.1875
747.24749	8629.9875
751.15017	8676.2875
755.05012	8766.1875
758.94733	9041.8875
762.8418	9663.6875
766.73354	10855.6875
770.62254	12280.9875
774.50882	13148.9875
778.39237	12787.3875
782.27321	11348.6875
786.15132	9980.4875
790.02671	9180.9875
793.89938	8827.5875
797.76935	8704.2875
801.6366	8658.3875
805.50115	8625.6875
809.36299	8709.8875
813.22213	8703.1875
817.07857	8707.0875
820.93231	8632.6875
824.78336	8601.0875
828.63172	8559.8875
832.47738	8585.1875
836.32036	8538.3875
840.16066	8484.7875
843.99827	8478.2875
847.8332	8442.5875
851.66546	8471.4875
855.49504	8447.4875
859.32195	8434.8875
863.1462	8408.3875
866.96777	8423.9875
870.78668	8420.1875
874.60293	8466.2875
878.41652	8496.3875
882.22745	8588.0875
886.03573	8658.4875
889.84136	8620.4875
893.64433	8580.9875
897.44466	8517.1875
901.24235	8476.4875
905.0374	8433.6875
908.8298	8373.6875
912.61957	8341.8875
916.40671	8356.0875
920.19121	8367.0875
923.97308	8381.3875
927.75233	8441.6875
931.52895	8522.0875
935.30295	8472.2875
939.07433	8331.9875
942.84309	8182.6875
946.60924	8110.1875
950.37278	8041.2875
954.13371	7973.7875
957.89203	7980.2875
961.64774	7942.3875
965.40086	7927.3875
969.15137	7900.1875
972.89929	7891.6875
976.64461	7892.8875
980.38733	7890.0875
984.12747	7876.4875
987.86502	7900.5875
991.59999	7934.2875
995.33237	7964.8875
999.06217	8044.7875
1002.78939	8161.0875
1006.51404	8273.5875
1010.23611	8414.6875
1013.95561	8523.7875
1017.67255	8533.2875
1021.38692	8465.0875
1025.09872	8396.2875
1028.80796	8322.4875
1032.51465	8299.3875
1036.21877	8292.7875
1039.92035	8297.9875
1043.61937	8353.9875
1047.31584	8351.9875
1051.00976	8316.5875
1054.70114	8337.9875
1058.38998	8323.8875
1062.07627	8376.9875
1065.76003	8422.5875
1069.44126	8433.7875
1073.11995	8500.3875
1076.79611	8556.0875
1080.46974	8616.5875
1084.14085	8746.3875
1087.80943	8896.9875
1091.47549	8964.7875
1095.13903	8867.5875
1098.80005	8668.3875
1102.45857	8497.0875
1106.11456	8425.8875
1109.76805	8469.8875
1113.41903	8616.8875
1117.06751	8829.9875
1120.71348	9101.7875
1124.35696	9379.4875
1127.99793	9688.5875
1131.63641	9779.5875
1135.2724	9501.9875
1138.90589	9167.5875
1142.5369	8920.2875
1146.16542	8738.7875
1149.79145	8573.0875
1153.415	8476.5875
1157.03607	8481.5875
1160.65467	8571.7875
1164.27079	8706.2875
1167.88443	8979.7875
1171.49561	9461.7875
1175.10432	10267.3875
1178.71056	11437.6875
1182.31434	12415.2875
1185.91565	12686.3875
1189.51451	12382.9875
1193.11091	11699.2875
1196.70485	10903.6875
1200.29634	10398.5875
1203.88538	10073.8875
1207.47197	9675.8875
1211.05612	9277.0875
1214.63782	8980.4875
1218.21708	8843.6875
1221.79391	8748.2875
1225.36829	8730.6875
1228.94024	8779.6875
1232.50976	8782.4875
1236.07685	8827.2875
1239.6415	8886.8875
1243.20374	8893.0875
1246.76355	8971.1875
1250.32093	9051.4875
1253.8759	9128.3875
1257.42845	9273.4875
1260.97859	9444.8875
1264.52631	9597.5875
1268.07163	9777.6875
1271.61453	9959.7875
1275.15503	10089.4875
1278.69312	10091.0875
1282.22882	10073.7875
1285.76211	10149.8875
1289.29301	10347.0875
1292.82151	10605.8875
1296.34761	10867.1875
1299.87133	11294.8875
1303.39266	12017.7875
1306.9116	13144.6875
1310.42815	14405.0875
1313.94233	15168.1875
1317.45412	14856.8875
1320.96354	13872.6875
1324.47058	12834.0875
1327.97525	11869.7875
1331.47754	11268.0875
1334.97747	11061.1875
1338.47502	11104.4875
1341.97022	11373.8875
1345.46305	11852.4875
1348.95352	12559.3875
1352.44163	13557.5875
1355.92738	14889.4875
1359.41078	16899.2875
1362.89183	18997.1875
1366.37053	18878.3875
1369.84688	16300.8875
1373.32088	13570.2875
1376.79254	11769.5875
1380.26186	10823.4875
1383.72883	10386.2875
1387.19347	10059.4875
1390.65578	9716.7875
1394.11575	9407.2875
1397.57339	9208.3875
1401.0287	9106.7875
1404.48168	9119.6875
1407.93234	9140.7875
1411.38068	9208.6875
1414.82669	9289.9875
1418.27039	9248.5875
1421.71177	9189.0875
1425.15083	9109.6875
1428.58758	8983.5875
1432.02203	8983.4875
1435.45416	9032.9875
1438.88399	9040.1875
1442.31151	9031.4875
1445.73673	9070.8875
1449.15965	9102.4875
1452.58027	9079.0875
1455.9986	9015.3875
1459.41463	8965.3875
1462.82837	9046.3875
1466.23982	9142.8875
1469.64898	9306.4875
1473.05586	9437.5875
1476.46045	9560.0875
1479.86276	9719.6875
1483.26279	9919.2875
1486.66054	10177.8875
1490.05602	10488.4875
1493.44922	10925.0875
1496.84016	11636.0875
1500.22882	12724.8875
1503.61521	14226.6875
1506.99934	15962.9875
1510.38121	17559.2875
1513.76081	18202.7875
1517.13816	17322.6875
1520.51324	15370.0875
1523.88607	13333.4875
1527.25665	11892.7875
1530.62498	11070.3875
1533.99105	10624.6875
1537.35488	10338.5875
1540.71647	10207.0875
1544.07581	10183.7875
1547.4329	10211.9875
1550.78776	10263.8875
1554.14038	10290.2875
1557.49077	10374.5875
1560.83892	10512.7875
1564.18484	10725.5875
1567.52853	11011.0875
1570.86999	11293.1875
1574.20922	11493.4875
1577.54624	11503.7875
1580.88103	11061.8875
1584.2136	10368.6875
1587.54395	9885.1875
1590.87208	9769.8875
1594.19801	10019.1875
1597.52172	10464.8875
1600.84321	10725.2875
1604.16251	10524.7875
1607.47959	10156.1875
1610.79447	9764.9875
1614.10715	9316.3875
1617.41763	8957.3875
1620.7259	8677.2875
1624.03199	8534.6875
1627.33587	8519.0875
1630.63757	8592.9875
1633.93707	8768.2875
1637.23439	9100.5875
1640.52951	9607.5875
1643.82246	10427.1875
1647.11321	11552.5875
1650.40179	12608.7875
1653.68819	12708.9875
1656.97241	11586.3875
1660.25446	10109.2875
1663.53433	9041.3875
1666.81203	8385.8875
1670.08756	8013.2875
1673.36092	7789.5875
1676.63211	7624.6875
1679.90115	7520.3875
1683.16801	7412.1875
1686.43272	7367.0875
1689.69527	7324.3875
1692.95567	7271.4875
1696.2139	7259.8875
1699.46999	7255.4875
1702.72392	7233.8875
1705.97571	7211.3875
1709.22535	7176.8875
1712.47284	7154.6875
1715.71819	7147.6875
1718.96139	7125.1875
1722.20246	7127.3875
1725.44139	7093.5875
1728.67818	7050.6875
1731.91284	7008.9875
1735.14537	6971.2875
1738.37576	6957.9875
1741.60403	6917.7875
1744.83017	6913.4875
1748.05418	6891.5875
1751.27607	6893.1875
1754.49584	6873.5875
1757.71349	6865.2875
1760.92903	6874.1875
1764.14244	6854.3875
1767.35375	6855.8875
1770.56294	6844.7875
1773.77002	6835.8875
1776.97499	6804.6875
1780.17785	6790.6875
1783.37861	6769.6875
1786.57727	6731.0875
1789.77382	6728.8875
1792.96828	6731.3875
1796.16064	6712.8875
1799.3509	6727.5875
1802.53907	6694.2875
1805.72514	6686.9875
1808.90913	6660.8875
1812.09102	6641.6875
1815.27083	6635.2875
1818.44856	6617.1875
1821.6242	6607.5875
1824.79776	6593.0875
1827.96924	6586.0875
1831.13864	6573.6875
1834.30597	6586.6875
1837.47122	6563.8875
1840.6344	6565.4875
1843.7955	6560.5875
1846.95454	6544.2875
1850.11151	6559.0875
1853.26642	6557.4875
1856.41926	6558.8875
1859.57004	6557.4875
1862.71876	6542.8875
1865.86542	6520.7875
1869.01003	6520.8875
1872.15258	6524.1875
1875.29308	6509.2875
1878.43152	6507.8875
1881.56792	6501.7875
1884.70227	6499.2875
1887.83457	6486.8875
1890.96482	6481.2875
1894.09304	6481.0875
1897.21921	6463.9875
1900.34335	6456.3875
1903.46544	6469.9875
1906.58551	6456.0875
1909.70353	6440.1875
1912.81953	6449.3875
1915.93349	6438.3875
1919.04543	6423.4875
1922.15534	6425.1875
1925.26322	6396.1875
1928.36908	6396.6875
1931.47292	6370.7875
1934.57473	6358.9875
1937.67453	6333.5875
1940.77232	6329.4875
1943.86808	6314.4875
1946.96184	6294.2875
1950.05358	6271.8875
1953.14331	6276.2875
1956.23103	6241.1875
1959.31675	6247.0875
1962.40046	6238.4875
1965.48217	6198.3875
1968.56188	6180.9875
1971.63959	6153.6875
1974.7153	6152.9875
1977.78901	6132.7875
1980.86073	6107.2875
1983.93046	6081.8875
1986.99819	6065.0875
1990.06394	6053.8875
1993.1277	6043.4875
1996.18947	6017.8875
1999.24925	5998.3875
2002.30706	5988.1875
2005.36288	5967.8875
2008.41672	5937.1875
2011.46859	5916.5875
2014.51848	5912.2875
2017.56639	5871.3875
2020.61233	5871.7875
2023.6563	5850.2875
2026.6983	5853.0875
2029.73833	5843.7875
2032.7764	5822.6875
2035.8125	5802.3875
2038.84664	5779.8875
2041.87881	5800.8875
2044.90903	5774.7875
2047.93729	5758.9875
2050.96359	5764.7875
2053.98794	5729.9875
2057.01034	5744.4875
2060.03078	5738.1875
2063.04927	5742.6875
2066.06582	5721.2875
2069.08042	5721.2875
2072.09307	5726.4875
2075.10378	5711.7875
2078.11255	5718.7875
2081.11938	5710.1875
2084.12426	5717.5875
2087.12722	5710.0875
2090.12824	5685.0875
2093.12732	5701.3875
2096.12447	5699.4875
2099.11969	5702.6875
2102.11299	5695.3875
2105.10435	5701.7875
2108.09379	5703.2875
2111.08131	5705.7875
2114.0669	5693.0875
2117.05057	5714.0875
2120.03233	5740.2875
2123.01216	5725.6875
2125.99008	5726.1875
2128.96609	5723.9875
2131.94018	5743.3875
2134.91236	5741.5875
2137.88263	5740.5875
2140.851	5740.7875
2143.81746	5749.7875
2146.78201	5753.7875
2149.74466	5745.2875
2152.7054	5720.0875
2155.66425	5737.1875
2158.6212	5738.3875
2161.57625	5723.6875
2164.52941	5720.1875
2167.48067	5715.8875
2170.43004	5709.2875
2173.37752	5726.3875
2176.32311	5727.7875
2179.26681	5714.0875
2182.20863	5718.9875
2185.14856	5726.2875
2188.08661	5703.0875
2191.02278	5694.2875
2193.95707	5683.7875
2196.88948	5686.5875
2199.82001	5701.0875
2202.74867	5669.1875
2205.67545	5664.5875
2208.60037	5657.8875
2211.52341	5643.5875
2214.44458	5650.3875
2217.36388	5623.0875
2220.28132	5614.5875
2223.1969	5622.2875
2226.11061	5607.0875
2229.02246	5580.4875
2231.93245	5586.0875
2234.84058	5547.8875
2237.74686	5569.9875
2240.65128	5557.6875
2243.55385	5546.5875
2246.45456	5548.8875
2249.35343	5545.5875
2252.25044	5521.7875
2255.14561	5538.7875
2258.03893	5521.0875
2260.93041	5531.0875
2263.82004	5519.4875
2266.70783	5497.4875
2269.59378	5487.4875
2272.4779	5475.0875
2275.36017	5453.3875
2278.24061	5450.5875
2281.11922	5439.1875
2283.996	5430.3875
2286.87094	5428.3875
2289.74405	5422.2875
2292.61534	5399.8875
2295.4848	5383.5875
2298.35243	5384.0875
2301.21824	5393.5875
2304.08223	5380.8875
2306.94439	5373.7875
2309.80474	5357.2875
2312.66327	5358.3875
2315.51999	5345.9875
2318.37489	5348.7875
2321.22797	5328.2875
2324.07925	5327.0875
2326.92871	5331.8875
2329.77637	5322.6875
2332.62222	5315.9875
2335.46626	5307.6875
2338.3085	5289.4875
2341.14893	5281.1875
2343.98756	5286.4875
2346.8244	5295.3875
2349.65943	5280.5875
2352.49267	5279.2875
2355.32411	5274.8875
2358.15376	5294.6875
2360.98161	5297.6875
2363.80768	5300.7875
2366.63195	5282.9875
2369.45444	5288.3875
2372.27514	5280.8875
2375.09405	5276.4875
2377.91118	5270.4875
2380.72652	5248.0875
2383.54009	5246.1875
2386.35187	5221.9875
2389.16188	5191.5875
2391.97011	5175.2875
2394.77657	5159.2875
2397.58125	5155.0875
2400.38416	5144.1875
2403.18529	5138.8875
2405.98466	5118.8875
2408.78226	5114.8875
2411.57809	5107.1875
2414.37216	5101.9875
2417.16446	5102.3875
2419.955	5077.3875
2422.74378	5081.2875
2425.5308	5079.7875
2428.31606	5081.2875
2431.09956	5065.0875
2433.88131	5058.2875
2436.6613	5070.2875
2439.43954	5052.6875
2442.21603	5051.6875
2444.99077	5044.1875
2447.76377	5059.4875
2450.53501	5057.5875
2453.30451	5047.6875
2456.07226	5032.1875
2458.83827	5026.0875
2461.60254	5027.2875
2464.36507	5018.6875
2467.12586	5019.8875
2469.88492	5014.2875
2472.64224	5013.5875
2475.39782	5008.6875
2478.15167	5020.0875
2480.90379	5012.0875
2483.65417	5023.4875
2486.40283	5013.1875
2489.14976	5010.6875
2491.89497	5004.6875
2494.63845	5023.1875
2497.3802	5005.1875
2500.12024	5013.7875
2502.85855	4992.4875
2505.59514	4994.7875
2508.33002	4968.6875
2511.06318	4961.4875
2513.79462	4941.5875
2516.52435	4937.5875
2519.25237	4918.4875
2521.97867	4907.2875
2524.70327	4896.6875
2527.42616	4895.3875
2530.14734	4890.8875
2532.86681	4874.9875
2535.58458	4860.8875
2538.30065	4864.1875
2541.01501	4851.4875
2543.72768	4833.0875
2546.43864	4860.3875
2549.14791	4825.0875
2551.85548	4820.0875
2554.56136	4830.2875
2557.26554	4830.6875
2559.96803	4803.2875
2562.66883	4790.4875
2565.36794	4794.4875
2568.06536	4778.6875
2570.7611	4791.6875
2573.45514	4762.4875
2576.14751	4760.3875
2578.83819	4733.3875
2581.52719	4750.7875
2584.21451	4723.2875
2586.90015	4714.9875
2589.58411	4714.7875
2592.2664	4706.3875
2594.94701	4695.8875
2597.62594	4700.8875
2600.30321	4673.4875
2602.9788	4691.4875
2605.65273	4674.9875
2608.32498	4656.5875
2610.99557	4667.0875
2613.66449	4665.9875
2616.33175	4638.4875
2618.99734	4637.9875
2621.66128	4633.2875
2624.32355	4637.2875
2626.98416	4631.5875
2629.64311	4608.6875
2632.30041	4634.3875
2634.95605	4610.8875
2637.61004	4586.5875
2640.26238	4593.0875
2642.91306	4596.2875
2645.56209	4584.2875
2648.20948	4568.6875
2650.85521	4570.0875
2653.4993	4580.2875
2656.14175	4575.7875
2658.78255	4567.9875
2661.42171	4561.5875
2664.05923	4576.9875
2666.6951	4572.2875
2669.32934	4560.8875
2671.96194	4581.8875
2674.59291	4587.2875
2677.22224	4595.4875
2679.84993	4582.4875
2682.476	4563.1875
2685.10043	4584.1875
2687.72324	4564.5875
2690.34441	4577.9875
2692.96396	4571.8875
2695.58188	4591.8875
2698.19818	4574.2875
2700.81285	4571.2875
2703.4259	4570.5875
2706.03733	4592.4875
2708.64714	4575.9875
2711.25533	4589.9875
2713.86191	4575.9875
2716.46687	4582.2875
2719.07021	4574.7875
2721.67194	4563.3875
2724.27206	4570.2875
2726.87057	4564.2875
2729.46747	4565.0875
2732.06276	4536.4875
2734.65644	4543.7875
2737.24852	4556.6875
2739.83899	4544.0875
2742.42786	4546.7875
2745.01513	4534.2875
2747.60079	4547.4875
2750.18486	4526.9875
2752.76733	4532.6875
2755.3482	4509.2875
2757.92747	4519.7875
2760.50515	4503.5875
2763.08123	4505.6875
2765.65573	4485.4875
2768.22863	4503.7875
2770.79994	4477.2875
2773.36967	4490.3875
2775.9378	4478.4875
2778.50435	4456.0875
2781.06932	4457.7875
2783.6327	4456.8875
2786.1945	4454.3875
2788.75471	4439.6875
2791.31335	4424.5875
2793.87041	4423.6875
2796.42589	4415.0875
2798.97979	4417.4875
2801.53212	4401.3875
2804.08288	4405.3875
2806.63206	4388.8875
2809.17967	4383.6875
2811.72571	4401.8875
2814.27018	4392.5875
2816.81308	4375.9875
2819.35442	4394.4875
2821.89419	4373.6875
2824.43239	4387.6875
2826.96904	4380.3875
2829.50412	4384.5875
2832.03763	4379.8875
2834.56959	4380.0875
2837.1	4370.1875
2839.62884	4371.1875
2842.15613	4376.7875
2844.68186	4389.0875
2847.20604	4400.6875
2849.72867	4431.0875
2852.24974	4416.3875
2854.76927	4418.2875
2857.28724	4409.0875
2859.80367	4422.6875
2862.31855	4395.0875
2864.83189	4402.1875
2867.34368	4382.0875
2869.85393	4391.6875
2872.36264	4399.8875
2874.8698	4384.9875
2877.37543	4384.2875
2879.87952	4379.6875
2882.38207	4386.5875
2884.88308	4375.7875
2887.38256	4378.0875
2889.88051	4385.5875
2892.37692	4385.2875
2894.8718	4372.4875
2897.36515	4389.4875
2899.85698	4376.3875
2902.34727	4387.8875
2904.83604	4381.7875
2907.32328	4378.8875
2909.809	4367.5875
2912.29319	4372.8875
2914.77587	4397.1875
2917.25702	4371.9875
2919.73665	4383.7875
2922.21476	4374.8875
2924.69136	4374.3875
2927.16644	4359.9875
2929.64	4342.8875
2932.11205	4343.0875
2934.58258	4338.0875
2937.05161	4351.8875
2939.51912	4326.3875
2941.98513	4307.6875
2944.44962	4303.8875
2946.91261	4277.1875
2949.37409	4286.3875
2951.83407	4281.4875
2954.29254	4272.9875
2956.74951	4289.6875
2959.20498	4261.6875
2961.65895	4259.0875
2964.11142	4253.4875
2966.56239	4245.2875
2969.01186	4238.1875
2971.45984	4232.2875
2973.90632	4232.2875
2976.35131	4225.1875
2978.7948	4213.2875
2981.23681	4207.6875
2983.67732	4199.0875
2986.11635	4182.8875
2988.55388	4176.2875
2990.98993	4191.7875
2993.4245	4186.5875
2995.85758	4169.1875
2998.28917	4155.4875
3000.71928	4151.0875
3003.14791	4138.7875
3005.57506	4149.4875
3008.00073	4141.4875
3010.42493	4136.5875
3012.84764	4146.6875
3015.26888	4129.2875
3017.68865	4126.3875
3020.10694	4122.5875
3022.52376	4118.4875
3024.9391	4094.0875
3027.35298	4105.6875
3029.76539	4090.2875
3032.17632	4082.1875
3034.5858	4082.9875
3036.9938	4078.1875
3039.40034	4067.1875
3041.80542	4073.9875
3044.20903	4070.9875
3046.61118	4076.3875
3049.01187	4056.7875
3051.4111	4063.7875
3053.80888	4057.5875
3056.20519	4045.2875
3058.60005	4054.8875
3060.99345	4059.7875
3063.3854	4046.3875
3065.7759	4036.8875
3068.16494	4040.1875
3070.55254	4020.5875
3072.93868	4024.8875
3075.32338	3994.5875
3077.70662	4011.4875
3080.08842	4002.3875
3082.46878	4019.0875
3084.84769	3996.0875
3087.22515	4006.7875
3089.60118	4009.8875
3091.97576	3988.2875
3094.3489	4006.5875
3096.72061	4013.5875
3099.09087	4009.5875
3101.4597	3997.0875
3103.82709	4011.9875
3106.19305	4011.2875
3108.55757	4001.4875
3110.92066	3997.2875
3113.28232	3987.0875
3115.64255	3987.6875
