Data from AgNPs_FTO_APTES_UA_200uM_R6G_10uM_NaF_0.1M_Addition_RamanShift__23__16-27-07-520.txt Node

Date: Fri Dec 17 16:27:07 GMT 2021
User: TCL
Spectrometer: QEP01345
Trigger mode: 4
Integration Time (sec): 7.000000E0
Scans to average: 10
Electric dark correction enabled: true
Nonlinearity correction enabled: false
Boxcar width: 0
XAxis mode: Raman Shifts
Number of Pixels in Spectrum: 1044
>>>>>Begin Spectral Data<<<<<
46.04893	0.0625
50.45542	-0.4375
54.85868	0.0625
59.25871	0.4625
63.6555	47.2625
68.04907	48.8625
72.43941	54.2625
76.82654	56.6625
81.21044	54.6625
85.59113	59.4625
89.96862	63.7625
94.34289	64.9625
98.71396	67.3625
103.08183	68.0625
107.4465	69.8625
111.80798	72.1625
116.16626	73.2625
120.52136	75.4625
124.87327	79.3625
129.222	82.9625
133.56755	86.9625
137.90993	90.6625
142.24913	99.4625
146.58517	105.6625
150.91804	123.5625
155.24774	144.2625
159.57429	181.9625
163.89768	224.5625
168.21792	294.6625
172.53501	398.2625
176.84895	556.1625
181.15975	772.0625
185.46741	1085.2625
189.77193	1505.9625
194.07331	2015.0625
198.37157	2603.1625
202.6667	3217.5625
206.9587	3846.1625
211.24758	4447.2625
215.53334	5048.8625
219.81599	5680.2625
224.09553	6359.8625
228.37195	7126.0625
232.64527	7981.7625
236.91549	8873.2625
241.18261	9786.9625
245.44663	10697.6625
249.70755	11456.0625
253.96539	12136.4625
258.22014	12711.4625
262.4718	13196.1625
266.72039	13518.9625
270.96589	13658.4625
275.20832	13689.7625
279.44768	13536.9625
283.68397	13377.0625
287.91719	13153.3625
292.14735	13033.8625
296.37445	13007.4625
300.59849	13046.8625
304.81948	13142.5625
309.03742	13113.6625
313.25231	12991.0625
317.46415	12694.0625
321.67296	12329.4625
325.87872	12039.8625
330.08145	11964.7625
334.28114	11996.5625
338.47781	12076.3625
342.67145	12265.6625
346.86207	12473.3625
351.04966	12725.0625
355.23424	13034.9625
359.4158	13320.1625
363.59435	13531.1625
367.76989	13709.5625
371.94243	13839.0625
376.11196	13949.9625
380.27849	14038.9625
384.44203	14126.3625
388.60257	14152.8625
392.76012	14177.8625
396.91468	14285.9625
401.06626	14457.1625
405.21485	14547.8625
409.36047	14505.5625
413.50311	14251.5625
417.64277	13973.1625
421.77947	13811.3625
425.9132	13739.2625
430.04396	13743.6625
434.17176	13765.5625
438.2966	13856.9625
442.41849	13951.5625
446.53742	14083.5625
450.6534	14228.6625
454.76644	14394.4625
458.87653	14474.2625
462.98368	14495.9625
467.08789	14495.3625
471.18916	14418.7625
475.2875	14378.2625
479.38291	14348.2625
483.4754	14295.7625
487.56496	14207.8625
491.6516	14180.1625
495.73531	14173.4625
499.81612	14148.2625
503.89401	14221.8625
507.96899	14256.9625
512.04106	14336.0625
516.11023	14444.8625
520.1765	14512.9625
524.23987	14531.2625
528.30034	14468.9625
532.35792	14434.5625
536.41261	14356.5625
540.46441	14243.2625
544.51333	14134.8625
548.55936	14145.1625
552.60252	14187.6625
556.64279	14264.5625
560.6802	14277.3625
564.71473	14280.5625
568.7464	14317.6625
572.7752	14410.6625
576.80114	14338.8625
580.82422	14245.4625
584.84444	14238.6625
588.86181	14295.1625
592.87633	14283.6625
596.888	14348.2625
600.89682	14526.5625
604.9028	15183.3625
608.90594	16745.9625
612.90624	18714.3625
616.90371	18398.0625
620.89834	15817.4625
624.89015	14566.2625
628.87913	14428.7625
632.86528	14605.6625
636.84862	14817.0625
640.82913	14811.8625
644.80683	14465.6625
648.78172	14122.7625
652.75379	13968.4625
656.72306	14054.0625
660.68952	14234.5625
664.65319	14229.6625
668.61405	14082.7625
672.57211	14057.8625
676.52738	14076.7625
680.47986	14053.5625
684.42955	13957.1625
688.37646	13840.8625
692.32058	13783.8625
696.26192	13789.8625
700.20048	13824.3625
704.13626	13846.7625
708.06928	13867.3625
711.99952	13777.4625
715.927	13775.2625
719.85171	13757.4625
723.77365	13759.7625
727.69284	13739.4625
731.60928	13686.7625
735.52295	13673.1625
739.43388	13662.6625
743.34206	13674.0625
747.24749	13673.6625
751.15017	13655.3625
755.05012	13651.9625
758.94733	13846.5625
762.8418	14259.0625
766.73354	15174.2625
770.62254	16339.2625
774.50882	17122.5625
778.39237	16780.3625
782.27321	15564.1625
786.15132	14483.5625
790.02671	13828.3625
793.89938	13473.8625
797.76935	13394.6625
801.6366	13327.4625
805.50115	13306.3625
809.36299	13359.8625
813.22213	13301.5625
817.07857	13286.5625
820.93231	13246.0625
824.78336	13185.7625
828.63172	13137.1625
832.47738	13067.5625
836.32036	13036.7625
840.16066	13000.1625
843.99827	12947.9625
847.8332	12937.2625
851.66546	12953.6625
855.49504	12922.4625
859.32195	12923.3625
863.1462	12933.4625
866.96777	12950.2625
870.78668	12945.6625
874.60293	12959.4625
878.41652	12977.0625
882.22745	12985.8625
886.03573	13064.7625
889.84136	13108.1625
893.64433	13046.3625
897.44466	12913.0625
901.24235	12802.3625
905.0374	12732.3625
908.8298	12659.5625
912.61957	12585.1625
916.40671	12602.7625
920.19121	12586.1625
923.97308	12612.1625
927.75233	12652.2625
931.52895	12659.5625
935.30295	12614.2625
939.07433	12481.5625
942.84309	12358.8625
946.60924	12301.3625
950.37278	12235.5625
954.13371	12187.7625
957.89203	12151.3625
961.64774	12123.0625
965.40086	12047.6625
969.15137	11954.9625
972.89929	11941.8625
976.64461	11886.0625
980.38733	11861.6625
984.12747	11842.1625
987.86502	11863.6625
991.59999	11902.7625
995.33237	11926.9625
999.06217	11971.5625
1002.78939	12054.2625
1006.51404	12162.7625
1010.23611	12284.9625
1013.95561	12374.2625
1017.67255	12431.2625
1021.38692	12387.6625
1025.09872	12302.9625
1028.80796	12191.8625
1032.51465	12180.1625
1036.21877	12181.8625
1039.92035	12195.5625
1043.61937	12220.7625
1047.31584	12200.5625
1051.00976	12199.6625
1054.70114	12184.8625
1058.38998	12177.4625
1062.07627	12246.2625
1065.76003	12320.6625
1069.44126	12375.3625
1073.11995	12461.5625
1076.79611	12507.6625
1080.46974	12549.2625
1084.14085	12511.5625
1087.80943	12528.4625
1091.47549	12530.5625
1095.13903	12475.3625
1098.80005	12323.4625
1102.45857	12172.3625
1106.11456	12114.0625
1109.76805	12076.3625
1113.41903	12182.6625
1117.06751	12334.8625
1120.71348	12577.2625
1124.35696	12788.4625
1127.99793	13050.8625
1131.63641	13283.9625
1135.2724	13230.1625
1138.90589	12992.9625
1142.5369	12785.9625
1146.16542	12503.0625
1149.79145	12259.0625
1153.415	12084.8625
1157.03607	12047.4625
1160.65467	12099.3625
1164.27079	12214.0625
1167.88443	12492.7625
1171.49561	12914.1625
1175.10432	13513.5625
1178.71056	14389.1625
1182.31434	15172.3625
1185.91565	15494.0625
1189.51451	15409.8625
1193.11091	14990.1625
1196.70485	14386.1625
1200.29634	13928.4625
1203.88538	13577.1625
1207.47197	13157.3625
1211.05612	12751.2625
1214.63782	12468.4625
1218.21708	12295.6625
1221.79391	12194.6625
1225.36829	12161.9625
1228.94024	12158.4625
1232.50976	12133.2625
1236.07685	12163.3625
1239.6415	12169.8625
1243.20374	12181.0625
1246.76355	12247.4625
1250.32093	12299.2625
1253.8759	12403.2625
1257.42845	12569.6625
1260.97859	12724.1625
1264.52631	12919.3625
1268.07163	13081.6625
1271.61453	13276.5625
1275.15503	13439.0625
1278.69312	13543.8625
1282.22882	13621.0625
1285.76211	13743.8625
1289.29301	13905.3625
1292.82151	14182.3625
1296.34761	14488.4625
1299.87133	14954.0625
1303.39266	15485.0625
1306.9116	16287.6625
1310.42815	17091.2625
1313.94233	17606.4625
1317.45412	17443.5625
1320.96354	16785.8625
1324.47058	16091.6625
1327.97525	15500.5625
1331.47754	15000.3625
1334.97747	14751.9625
1338.47502	14691.7625
1341.97022	14834.1625
1345.46305	15135.1625
1348.95352	15640.8625
1352.44163	16412.4625
1355.92738	17415.8625
1359.41078	18789.3625
1362.89183	20230.2625
1366.37053	20234.3625
1369.84688	18264.4625
1373.32088	16054.4625
1376.79254	14532.1625
1380.26186	13747.1625
1383.72883	13304.4625
1387.19347	13018.1625
1390.65578	12749.4625
1394.11575	12496.9625
1397.57339	12284.1625
1401.0287	12192.2625
1404.48168	12149.1625
1407.93234	12112.1625
1411.38068	12072.1625
1414.82669	11992.0625
1418.27039	11903.8625
1421.71177	11821.5625
1425.15083	11699.6625
1428.58758	11599.6625
1432.02203	11557.5625
1435.45416	11562.1625
1438.88399	11623.6625
1442.31151	11655.2625
1445.73673	11673.1625
1449.15965	11770.4625
1452.58027	11798.4625
1455.9986	11830.6625
1459.41463	11938.2625
1462.82837	12019.9625
1466.23982	12103.7625
1469.64898	12241.3625
1473.05586	12329.5625
1476.46045	12418.1625
1479.86276	12470.7625
1483.26279	12617.2625
1486.66054	12720.6625
1490.05602	12880.5625
1493.44922	13166.7625
1496.84016	13608.8625
1500.22882	14387.5625
1503.61521	15437.4625
1506.99934	16708.7625
1510.38121	17836.8625
1513.76081	18316.9625
1517.13816	17733.7625
1520.51324	16303.3625
1523.88607	14948.5625
1527.25665	13954.2625
1530.62498	13328.7625
1533.99105	13016.9625
1537.35488	12802.1625
1540.71647	12674.9625
1544.07581	12568.5625
1547.4329	12548.5625
1550.78776	12505.1625
1554.14038	12560.0625
1557.49077	12658.2625
1560.83892	12818.3625
1564.18484	12981.9625
1567.52853	13198.6625
1570.86999	13348.0625
1574.20922	13523.4625
1577.54624	13521.6625
1580.88103	13265.9625
1584.2136	12820.4625
1587.54395	12448.8625
1590.87208	12280.8625
1594.19801	12406.3625
1597.52172	12752.8625
1600.84321	12924.7625
1604.16251	12789.4625
1607.47959	12467.2625
1610.79447	12102.6625
1614.10715	11682.7625
1617.41763	11298.8625
1620.7259	11020.3625
1624.03199	10835.4625
1627.33587	10772.9625
1630.63757	10835.0625
1633.93707	10997.5625
1637.23439	11322.6625
1640.52951	11799.3625
1643.82246	12520.8625
1647.11321	13480.5625
1650.40179	14271.9625
1653.68819	14325.1625
1656.97241	13448.3625
1660.25446	12231.3625
1663.53433	11261.4625
1666.81203	10667.2625
1670.08756	10301.0625
1673.36092	10023.0625
1676.63211	9842.6625
1679.90115	9705.0625
1683.16801	9620.4625
1686.43272	9554.3625
1689.69527	9484.4625
1692.95567	9441.3625
1696.2139	9443.1625
1699.46999	9393.8625
1702.72392	9327.9625
1705.97571	9258.6625
1709.22535	9194.0625
1712.47284	9139.0625
1715.71819	9142.7625
1718.96139	9076.9625
1722.20246	9010.0625
1725.44139	8956.5625
1728.67818	8919.5625
1731.91284	8899.6625
1735.14537	8820.5625
1738.37576	8797.8625
1741.60403	8757.0625
1744.83017	8717.2625
1748.05418	8709.1625
1751.27607	8686.0625
1754.49584	8665.3625
1757.71349	8667.9625
1760.92903	8647.2625
1764.14244	8638.5625
1767.35375	8634.4625
1770.56294	8625.6625
1773.77002	8618.0625
1776.97499	8584.3625
1780.17785	8546.2625
1783.37861	8510.8625
1786.57727	8499.6625
1789.77382	8461.2625
1792.96828	8470.0625
1796.16064	8436.5625
1799.3509	8403.0625
1802.53907	8407.9625
1805.72514	8364.9625
1808.90913	8341.0625
1812.09102	8329.6625
1815.27083	8310.2625
1818.44856	8289.9625
1821.6242	8250.9625
1824.79776	8243.0625
1827.96924	8224.1625
1831.13864	8206.7625
1834.30597	8195.3625
1837.47122	8185.9625
1840.6344	8174.4625
1843.7955	8177.3625
1846.95454	8171.9625
1850.11151	8159.9625
1853.26642	8136.1625
1856.41926	8138.3625
1859.57004	8125.0625
1862.71876	8094.2625
1865.86542	8107.3625
1869.01003	8095.0625
1872.15258	8064.4625
1875.29308	8071.2625
1878.43152	8046.3625
1881.56792	8043.9625
1884.70227	8036.9625
1887.83457	8027.0625
1890.96482	7997.8625
1894.09304	7987.8625
1897.21921	7966.2625
1900.34335	7962.2625
1903.46544	7952.6625
1906.58551	7939.1625
1909.70353	7911.4625
1912.81953	7923.7625
1915.93349	7907.0625
1919.04543	7877.6625
1922.15534	7865.5625
1925.26322	7873.5625
1928.36908	7862.5625
1931.47292	7813.6625
1934.57473	7805.0625
1937.67453	7774.0625
1940.77232	7748.7625
1943.86808	7731.3625
1946.96184	7709.4625
1950.05358	7693.1625
1953.14331	7682.2625
1956.23103	7655.1625
1959.31675	7616.5625
1962.40046	7605.2625
1965.48217	7591.6625
1968.56188	7567.8625
1971.63959	7547.4625
1974.7153	7502.7625
1977.78901	7486.2625
1980.86073	7474.7625
1983.93046	7443.1625
1986.99819	7395.7625
1990.06394	7385.1625
1993.1277	7371.9625
1996.18947	7309.7625
1999.24925	7320.9625
2002.30706	7283.5625
2005.36288	7256.1625
2008.41672	7226.9625
2011.46859	7226.6625
2014.51848	7195.9625
2017.56639	7163.6625
2020.61233	7152.4625
2023.6563	7134.9625
2026.6983	7107.8625
2029.73833	7102.1625
2032.7764	7069.6625
2035.8125	7047.4625
2038.84664	7030.2625
2041.87881	7025.1625
2044.90903	6994.3625
2047.93729	7006.5625
2050.96359	7007.3625
2053.98794	6985.4625
2057.01034	6948.7625
2060.03078	6938.6625
2063.04927	6932.6625
2066.06582	6926.2625
2069.08042	6914.4625
2072.09307	6937.1625
2075.10378	6895.1625
2078.11255	6901.0625
2081.11938	6910.6625
2084.12426	6907.9625
2087.12722	6896.4625
2090.12824	6891.7625
2093.12732	6892.7625
2096.12447	6899.7625
2099.11969	6878.6625
2102.11299	6868.0625
2105.10435	6863.0625
2108.09379	6886.2625
2111.08131	6866.7625
2114.0669	6884.2625
2117.05057	6890.2625
2120.03233	6901.5625
2123.01216	6893.6625
2125.99008	6889.1625
2128.96609	6910.2625
2131.94018	6919.2625
2134.91236	6913.6625
2137.88263	6916.2625
2140.851	6905.9625
2143.81746	6917.5625
2146.78201	6908.6625
2149.74466	6917.5625
2152.7054	6891.1625
2155.66425	6905.8625
2158.6212	6897.9625
2161.57625	6904.5625
2164.52941	6908.4625
2167.48067	6899.0625
2170.43004	6881.0625
2173.37752	6876.3625
2176.32311	6866.4625
2179.26681	6881.9625
2182.20863	6873.0625
2185.14856	6866.7625
2188.08661	6839.7625
2191.02278	6851.3625
2193.95707	6837.4625
2196.88948	6828.6625
2199.82001	6832.4625
2202.74867	6811.9625
2205.67545	6804.3625
2208.60037	6792.7625
2211.52341	6802.0625
2214.44458	6773.5625
2217.36388	6741.0625
2220.28132	6737.5625
2223.1969	6736.0625
2226.11061	6723.1625
2229.02246	6695.3625
2231.93245	6692.2625
2234.84058	6663.4625
2237.74686	6654.8625
2240.65128	6652.4625
2243.55385	6644.7625
2246.45456	6633.8625
2249.35343	6621.8625
2252.25044	6605.5625
2255.14561	6598.2625
2258.03893	6606.3625
2260.93041	6577.8625
2263.82004	6568.7625
2266.70783	6556.5625
2269.59378	6531.0625
2272.4779	6509.8625
2275.36017	6495.7625
2278.24061	6500.9625
2281.11922	6465.8625
2283.996	6457.7625
2286.87094	6434.8625
2289.74405	6417.9625
2292.61534	6428.4625
2295.4848	6404.2625
2298.35243	6394.6625
2301.21824	6404.2625
2304.08223	6382.8625
2306.94439	6372.2625
2309.80474	6371.6625
2312.66327	6368.5625
2315.51999	6353.6625
2318.37489	6367.6625
2321.22797	6344.2625
2324.07925	6350.2625
2326.92871	6329.5625
2329.77637	6314.6625
2332.62222	6311.2625
2335.46626	6303.3625
2338.3085	6294.8625
2341.14893	6268.1625
2343.98756	6253.1625
2346.8244	6271.7625
2349.65943	6246.3625
2352.49267	6245.7625
2355.32411	6244.5625
2358.15376	6240.6625
2360.98161	6246.7625
2363.80768	6260.6625
2366.63195	6225.2625
2369.45444	6226.7625
2372.27514	6229.1625
2375.09405	6233.8625
2377.91118	6212.3625
2380.72652	6194.8625
2383.54009	6171.1625
2386.35187	6166.4625
2389.16188	6141.2625
2391.97011	6109.6625
2394.77657	6089.3625
2397.58125	6094.1625
2400.38416	6086.7625
2403.18529	6069.9625
2405.98466	6055.3625
2408.78226	6045.1625
2411.57809	6044.5625
2414.37216	6044.7625
2417.16446	6023.1625
2419.955	6001.9625
2422.74378	6021.0625
2425.5308	6007.0625
2428.31606	5992.9625
2431.09956	5990.1625
2433.88131	5972.4625
2436.6613	5967.2625
2439.43954	5954.1625
2442.21603	5955.8625
2444.99077	5961.9625
2447.76377	5945.9625
2450.53501	5951.6625
2453.30451	5951.8625
2456.07226	5909.3625
2458.83827	5925.6625
2461.60254	5920.4625
2464.36507	5915.4625
2467.12586	5897.0625
2469.88492	5904.9625
2472.64224	5888.4625
2475.39782	5888.8625
2478.15167	5877.0625
2480.90379	5896.1625
2483.65417	5887.8625
2486.40283	5879.3625
2489.14976	5888.8625
2491.89497	5863.5625
2494.63845	5886.9625
2497.3802	5879.0625
2500.12024	5855.2625
2502.85855	5845.1625
2505.59514	5844.0625
2508.33002	5831.1625
2511.06318	5827.8625
2513.79462	5823.0625
2516.52435	5783.4625
2519.25237	5789.7625
2521.97867	5769.1625
2524.70327	5755.7625
2527.42616	5731.8625
2530.14734	5745.0625
2532.86681	5727.0625
2535.58458	5727.1625
2538.30065	5707.8625
2541.01501	5682.1625
2543.72768	5679.2625
2546.43864	5675.4625
2549.14791	5674.2625
2551.85548	5667.2625
2554.56136	5664.7625
2557.26554	5641.9625
2559.96803	5643.1625
2562.66883	5639.7625
2565.36794	5621.5625
2568.06536	5627.3625
2570.7611	5601.3625
2573.45514	5585.6625
2576.14751	5580.7625
2578.83819	5574.3625
2581.52719	5560.7625
2584.21451	5577.4625
2586.90015	5551.9625
2589.58411	5534.8625
2592.2664	5531.3625
2594.94701	5511.5625
2597.62594	5501.7625
2600.30321	5498.3625
2602.9788	5482.3625
2605.65273	5457.7625
2608.32498	5447.7625
2610.99557	5460.1625
2613.66449	5448.9625
2616.33175	5431.7625
2618.99734	5441.2625
2621.66128	5439.6625
2624.32355	5419.6625
2626.98416	5407.4625
2629.64311	5417.1625
2632.30041	5417.3625
2634.95605	5409.2625
2637.61004	5383.9625
2640.26238	5377.5625
2642.91306	5372.5625
2645.56209	5386.3625
2648.20948	5357.1625
2650.85521	5370.8625
2653.4993	5343.5625
2656.14175	5348.8625
2658.78255	5355.2625
2661.42171	5355.8625
2664.05923	5343.9625
2666.6951	5356.0625
2669.32934	5341.6625
2671.96194	5325.3625
2674.59291	5344.5625
2677.22224	5343.5625
2679.84993	5340.5625
2682.476	5336.1625
2685.10043	5342.2625
2687.72324	5336.9625
2690.34441	5340.8625
2692.96396	5332.9625
2695.58188	5331.3625
2698.19818	5303.7625
2700.81285	5324.8625
2703.4259	5344.5625
2706.03733	5336.9625
2708.64714	5337.4625
2711.25533	5337.0625
2713.86191	5320.1625
2716.46687	5336.8625
2719.07021	5322.4625
2721.67194	5325.9625
2724.27206	5303.3625
2726.87057	5318.0625
2729.46747	5313.4625
2732.06276	5299.0625
2734.65644	5299.1625
2737.24852	5302.1625
2739.83899	5310.8625
2742.42786	5277.6625
2745.01513	5264.5625
2747.60079	5276.9625
2750.18486	5270.9625
2752.76733	5267.2625
2755.3482	5234.5625
2757.92747	5255.6625
2760.50515	5259.4625
2763.08123	5240.9625
2765.65573	5226.3625
2768.22863	5231.0625
2770.79994	5206.3625
2773.36967	5226.2625
2775.9378	5211.3625
2778.50435	5198.1625
2781.06932	5173.7625
2783.6327	5187.0625
2786.1945	5174.6625
2788.75471	5160.3625
2791.31335	5162.1625
2793.87041	5135.7625
2796.42589	5137.2625
2798.97979	5138.8625
2801.53212	5100.7625
2804.08288	5111.2625
2806.63206	5087.5625
2809.17967	5070.0625
2811.72571	5065.4625
2814.27018	5066.7625
2816.81308	5055.2625
2819.35442	5046.5625
2821.89419	5043.7625
2824.43239	5040.4625
2826.96904	5037.8625
2829.50412	5033.6625
2832.03763	5025.4625
2834.56959	5042.2625
2837.1	5031.3625
2839.62884	5043.7625
2842.15613	5008.3625
2844.68186	5034.9625
2847.20604	5028.1625
2849.72867	5036.3625
2852.24974	5030.9625
2854.76927	5025.2625
2857.28724	5031.7625
2859.80367	5009.2625
2862.31855	5000.1625
2864.83189	4994.4625
2867.34368	5003.4625
2869.85393	4994.3625
2872.36264	5006.7625
2874.8698	5013.4625
2877.37543	4996.5625
2879.87952	4995.4625
2882.38207	4996.8625
2884.88308	4984.0625
2887.38256	4987.3625
2889.88051	4988.2625
2892.37692	4982.6625
2894.8718	4992.1625
2897.36515	4986.6625
2899.85698	4961.9625
2902.34727	4988.2625
2904.83604	4978.3625
2907.32328	4986.7625
2909.809	4960.6625
2912.29319	4989.2625
2914.77587	4997.1625
2917.25702	4988.0625
2919.73665	4982.3625
2922.21476	4973.4625
2924.69136	4978.3625
2927.16644	4970.2625
2929.64	4954.7625
2932.11205	4957.5625
2934.58258	4935.7625
2937.05161	4952.9625
2939.51912	4954.7625
2941.98513	4941.3625
2944.44962	4930.1625
2946.91261	4905.3625
2949.37409	4922.8625
2951.83407	4915.3625
2954.29254	4901.6625
2956.74951	4902.6625
2959.20498	4891.6625
2961.65895	4914.5625
2964.11142	4896.3625
2966.56239	4890.1625
2969.01186	4881.2625
2971.45984	4873.2625
2973.90632	4855.6625
2976.35131	4870.9625
2978.7948	4839.2625
2981.23681	4838.9625
2983.67732	4831.8625
2986.11635	4828.5625
2988.55388	4800.4625
2990.98993	4820.4625
2993.4245	4808.4625
2995.85758	4799.3625
2998.28917	4782.8625
3000.71928	4791.2625
3003.14791	4764.7625
3005.57506	4773.2625
3008.00073	4764.3625
3010.42493	4762.2625
3012.84764	4744.1625
3015.26888	4749.5625
3017.68865	4742.3625
3020.10694	4742.6625
3022.52376	4728.7625
3024.9391	4716.8625
3027.35298	4725.4625
3029.76539	4712.0625
3032.17632	4711.3625
3034.5858	4693.5625
3036.9938	4690.6625
3039.40034	4683.9625
3041.80542	4683.0625
3044.20903	4694.2625
3046.61118	4675.5625
3049.01187	4677.5625
3051.4111	4668.2625
3053.80888	4660.8625
3056.20519	4660.4625
3058.60005	4634.7625
3060.99345	4647.2625
3063.3854	4636.2625
3065.7759	4636.2625
3068.16494	4638.7625
3070.55254	4617.0625
3072.93868	4625.7625
3075.32338	4609.0625
3077.70662	4622.6625
3080.08842	4601.3625
3082.46878	4617.8625
