Data from AgNPs_FTO_APTES_UA_5uM_R6G_10uM_NaF_0.1M_Addition_RamanShift__17__12-45-27-267.txt Node

Date: Fri Dec 17 12:45:27 GMT 2021
User: TCL
Spectrometer: QEP01345
Trigger mode: 4
Integration Time (sec): 7.000000E0
Scans to average: 10
Electric dark correction enabled: true
Nonlinearity correction enabled: false
Boxcar width: 0
XAxis mode: Raman Shifts
Number of Pixels in Spectrum: 1044
>>>>>Begin Spectral Data<<<<<
46.04893	-0.775
50.45542	-1.175
54.85868	-1.475
59.25871	-0.575
63.6555	110.825
68.04907	112.025
72.43941	117.825
76.82654	127.125
81.21044	127.825
85.59113	134.725
89.96862	137.425
94.34289	145.125
98.71396	150.325
103.08183	152.725
107.4465	155.325
111.80798	162.725
116.16626	165.025
120.52136	169.825
124.87327	180.925
129.222	184.225
133.56755	197.525
137.90993	210.025
142.24913	227.025
146.58517	252.125
150.91804	297.425
155.24774	347.025
159.57429	432.625
163.89768	546.125
168.21792	721.125
172.53501	979.325
176.84895	1347.225
181.15975	1884.325
185.46741	2626.225
189.77193	3632.525
194.07331	4850.125
198.37157	6246.325
202.6667	7719.425
206.9587	9166.325
211.24758	10553.725
215.53334	11973.825
219.81599	13467.125
224.09553	15164.225
228.37195	17021.725
232.64527	19080.425
236.91549	21263.825
241.18261	23467.225
245.44663	25470.925
249.70755	27252.825
253.96539	28810.325
258.22014	30091.325
262.4718	31197.025
266.72039	31934.225
270.96589	32423.525
275.20832	32450.025
279.44768	32268.925
283.68397	31872.225
287.91719	31556.825
292.14735	31381.025
296.37445	31375.525
300.59849	31444.825
304.81948	31588.725
309.03742	31617.125
313.25231	31383.125
317.46415	30726.725
321.67296	29879.425
325.87872	29143.425
330.08145	28802.425
334.28114	28798.325
338.47781	29018.625
342.67145	29378.725
346.86207	29901.225
351.04966	30573.625
355.23424	31272.925
359.4158	31891.425
363.59435	32363.525
367.76989	32650.025
371.94243	32862.725
376.11196	32977.625
380.27849	33107.825
384.44203	33295.625
388.60257	33443.625
392.76012	33705.125
396.91468	34085.225
401.06626	34618.125
405.21485	35003.525
409.36047	34850.425
413.50311	34265.925
417.64277	33796.825
421.77947	33670.625
425.9132	33744.425
430.04396	33894.325
434.17176	33996.925
438.2966	34233.025
442.41849	34719.325
446.53742	35450.125
450.6534	36335.025
454.76644	36997.725
458.87653	37330.825
462.98368	37226.725
467.08789	36886.125
471.18916	36381.425
475.2875	35791.625
479.38291	35336.125
483.4754	34968.725
487.56496	34536.925
491.6516	34144.825
495.73531	33944.325
499.81612	33914.825
503.89401	34234.125
507.96899	34458.425
512.04106	34486.325
516.11023	34469.725
520.1765	34272.725
524.23987	34055.225
528.30034	33731.425
532.35792	33399.525
536.41261	32983.025
540.46441	32622.625
544.51333	32557.425
548.55936	32886.025
552.60252	33468.825
556.64279	34122.025
560.6802	34462.225
564.71473	34633.725
568.7464	35039.625
572.7752	35672.325
576.80114	36182.125
580.82422	36725.225
584.84444	37212.125
588.86181	37570.125
592.87633	37858.125
596.888	37999.225
600.89682	38326.425
604.9028	40012.825
608.90594	43901.725
612.90624	47656.725
616.90371	44979.925
620.89834	37848.725
624.89015	34677.825
628.87913	34246.025
632.86528	34290.025
636.84862	34090.525
640.82913	33578.425
644.80683	32785.625
648.78172	32195.125
652.75379	32038.125
656.72306	32493.925
660.68952	33081.325
664.65319	32892.625
668.61405	32305.625
672.57211	32155.225
676.52738	32197.825
680.47986	32146.725
684.42955	32040.425
688.37646	31958.525
692.32058	32134.825
696.26192	32478.225
700.20048	32843.225
704.13626	33079.925
708.06928	32924.625
711.99952	32673.325
715.927	32594.125
719.85171	32645.325
723.77365	32545.325
727.69284	32209.125
731.60928	31827.325
735.52295	31675.725
739.43388	31717.825
743.34206	31795.925
747.24749	31931.125
751.15017	32211.125
755.05012	32679.825
758.94733	33581.825
762.8418	35247.925
766.73354	37824.625
770.62254	40408.225
774.50882	41165.425
778.39237	39466.425
782.27321	36639.025
786.15132	34286.725
790.02671	32880.825
793.89938	32243.225
797.76935	31997.025
801.6366	31897.525
805.50115	31828.725
809.36299	31613.425
813.22213	31298.825
817.07857	31083.725
820.93231	31001.425
824.78336	30870.625
828.63172	30857.125
832.47738	30879.125
836.32036	30896.725
840.16066	30987.625
843.99827	31090.425
847.8332	31016.125
851.66546	30918.425
855.49504	30860.525
859.32195	30884.825
863.1462	30837.425
866.96777	30687.225
870.78668	30639.325
874.60293	30643.125
878.41652	30700.325
882.22745	30736.325
886.03573	30901.125
889.84136	30897.125
893.64433	30780.225
897.44466	30632.725
901.24235	30519.925
905.0374	30436.125
908.8298	30371.125
912.61957	30427.525
916.40671	30623.225
920.19121	30998.325
923.97308	31388.325
927.75233	31475.125
931.52895	31414.325
935.30295	31056.825
939.07433	30559.125
942.84309	30135.525
946.60924	29998.725
950.37278	29933.325
954.13371	29848.925
957.89203	29696.725
961.64774	29602.325
965.40086	29511.525
969.15137	29416.025
972.89929	29389.725
976.64461	29393.625
980.38733	29491.825
984.12747	29580.125
987.86502	29903.725
991.59999	30276.625
995.33237	30833.525
999.06217	31753.225
1002.78939	32687.625
1006.51404	33347.425
1010.23611	33765.225
1013.95561	33963.425
1017.67255	33871.125
1021.38692	33509.625
1025.09872	33190.625
1028.80796	33290.725
1032.51465	34112.725
1036.21877	34875.725
1039.92035	35040.525
1043.61937	34544.825
1047.31584	33825.025
1051.00976	32972.425
1054.70114	32609.925
1058.38998	32636.825
1062.07627	32826.525
1065.76003	33126.925
1069.44126	33458.725
1073.11995	33975.225
1076.79611	34485.525
1080.46974	34824.925
1084.14085	35042.725
1087.80943	35314.425
1091.47549	35437.225
1095.13903	35308.725
1098.80005	34755.725
1102.45857	34075.225
1106.11456	33639.425
1109.76805	33420.425
1113.41903	33518.925
1117.06751	33668.125
1120.71348	33985.925
1124.35696	34263.325
1127.99793	34624.925
1131.63641	34824.425
1135.2724	34693.425
1138.90589	34427.025
1142.5369	34260.425
1146.16542	34205.425
1149.79145	34216.225
1153.415	34418.525
1157.03607	34774.625
1160.65467	35536.725
1164.27079	36811.025
1167.88443	38652.925
1171.49561	40893.025
1175.10432	43885.325
1178.71056	47612.125
1182.31434	51161.225
1185.91565	53327.625
1189.51451	53557.425
1193.11091	52089.425
1196.70485	49641.625
1200.29634	47262.225
1203.88538	45456.325
1207.47197	44102.025
1211.05612	42963.725
1214.63782	42119.925
1218.21708	41607.725
1221.79391	41377.825
1225.36829	41323.425
1228.94024	41114.725
1232.50976	40680.825
1236.07685	40236.725
1239.6415	39917.625
1243.20374	39834.925
1246.76355	40018.825
1250.32093	40555.425
1253.8759	41456.725
1257.42845	42574.425
1260.97859	43782.825
1264.52631	44997.525
1268.07163	46357.225
1271.61453	47712.725
1275.15503	49118.025
1278.69312	50427.825
1282.22882	51394.625
1285.76211	52096.225
1289.29301	52712.625
1292.82151	53609.225
1296.34761	55198.825
1299.87133	57507.825
1303.39266	60662.725
1306.9116	64625.125
1310.42815	68559.625
1313.94233	71280.925
1317.45412	71577.125
1320.96354	70451.225
1324.47058	69053.325
1327.97525	67810.925
1331.47754	66862.925
1334.97747	66525.425
1338.47502	66772.725
1341.97022	66928.725
1345.46305	66673.425
1348.95352	65935.725
1352.44163	65401.525
1355.92738	66109.925
1359.41078	68464.425
1362.89183	70783.625
1366.37053	69443.125
1369.84688	63790.825
1373.32088	57379.925
1376.79254	52869.025
1380.26186	50844.125
1383.72883	50311.725
1387.19347	49822.225
1390.65578	49188.725
1394.11575	48660.725
1397.57339	48878.225
1401.0287	49522.425
1404.48168	50412.925
1407.93234	50964.425
1411.38068	50878.625
1414.82669	50075.925
1418.27039	48652.325
1421.71177	46995.425
1425.15083	45715.725
1428.58758	45051.125
1432.02203	45175.025
1435.45416	45944.625
1438.88399	46993.525
1442.31151	47901.925
1445.73673	48493.125
1449.15965	48869.325
1452.58027	49105.625
1455.9986	49188.925
1459.41463	49528.625
1462.82837	50452.625
1466.23982	51479.925
1469.64898	52517.925
1473.05586	53081.025
1476.46045	53171.025
1479.86276	52779.325
1483.26279	52297.825
1486.66054	51970.525
1490.05602	52018.725
1493.44922	52311.125
1496.84016	52715.825
1500.22882	53727.525
1503.61521	55451.925
1506.99934	57658.825
1510.38121	59475.825
1513.76081	60012.025
1517.13816	58490.325
1520.51324	55783.225
1523.88607	53235.225
1527.25665	51642.925
1530.62498	50832.125
1533.99105	50540.725
1537.35488	50321.125
1540.71647	49944.525
1544.07581	49432.825
1547.4329	48786.625
1550.78776	48204.125
1554.14038	47792.425
1557.49077	47582.725
1560.83892	47428.325
1564.18484	47357.825
1567.52853	47383.025
1570.86999	47746.725
1574.20922	48252.125
1577.54624	48755.325
1580.88103	48732.325
1584.2136	48684.825
1587.54395	49355.725
1590.87208	51210.125
1594.19801	53972.925
1597.52172	57014.425
1600.84321	58244.625
1604.16251	56342.225
1607.47959	52634.425
1610.79447	48720.425
1614.10715	44999.925
1617.41763	41762.625
1620.7259	39462.625
1624.03199	38262.525
1627.33587	38115.325
1630.63757	39093.825
1633.93707	41328.925
1637.23439	44839.425
1640.52951	49451.925
1643.82246	54352.025
1647.11321	57595.125
1650.40179	57782.925
1653.68819	54027.225
1656.97241	47863.825
1660.25446	41672.225
1663.53433	37110.025
1666.81203	34154.525
1670.08756	32253.625
1673.36092	31028.925
1676.63211	30200.125
1679.90115	29634.225
1683.16801	29197.325
1686.43272	28866.625
1689.69527	28657.625
1692.95567	28454.625
1696.2139	28331.025
1699.46999	28187.025
1702.72392	28107.425
1705.97571	28070.725
1709.22535	27994.925
1712.47284	27975.425
1715.71819	27925.525
1718.96139	27844.925
1722.20246	27752.125
1725.44139	27626.425
1728.67818	27470.425
1731.91284	27348.925
1735.14537	27201.325
1738.37576	27052.525
1741.60403	26946.625
1744.83017	26842.725
1748.05418	26816.725
1751.27607	26731.525
1754.49584	26658.825
1757.71349	26623.825
1760.92903	26620.725
1764.14244	26626.025
1767.35375	26690.625
1770.56294	26579.125
1773.77002	26557.125
1776.97499	26463.225
1780.17785	26414.425
1783.37861	26427.725
1786.57727	26373.325
1789.77382	26325.225
1792.96828	26270.625
1796.16064	26232.825
1799.3509	26229.925
1802.53907	26179.125
1805.72514	26080.025
1808.90913	26012.525
1812.09102	26000.025
1815.27083	25935.925
1818.44856	25955.425
1821.6242	25884.825
1824.79776	25902.925
1827.96924	25911.725
1831.13864	25870.025
1834.30597	25894.125
1837.47122	25938.125
1840.6344	25963.725
1843.7955	25965.925
1846.95454	25957.825
1850.11151	25950.925
1853.26642	25937.325
1856.41926	25990.525
1859.57004	25975.425
1862.71876	25953.325
1865.86542	25930.825
1869.01003	25907.725
1872.15258	25916.725
1875.29308	25913.225
1878.43152	25914.825
1881.56792	25893.025
1884.70227	25858.925
1887.83457	25909.525
1890.96482	25881.025
1894.09304	25892.825
1897.21921	25848.125
1900.34335	25780.825
1903.46544	25798.725
1906.58551	25751.325
1909.70353	25705.525
1912.81953	25665.025
1915.93349	25597.325
1919.04543	25592.225
1922.15534	25480.525
1925.26322	25399.425
1928.36908	25348.725
1931.47292	25262.225
1934.57473	25190.225
1937.67453	25043.725
1940.77232	24984.425
1943.86808	24977.425
1946.96184	24907.225
1950.05358	24812.325
1953.14331	24719.325
1956.23103	24643.325
1959.31675	24547.825
1962.40046	24510.725
1965.48217	24441.225
1968.56188	24354.625
1971.63959	24297.125
1974.7153	24225.225
1977.78901	24143.725
1980.86073	24055.725
1983.93046	23999.625
1986.99819	23936.425
1990.06394	23832.625
1993.1277	23781.425
1996.18947	23712.025
1999.24925	23666.925
2002.30706	23549.825
2005.36288	23473.925
2008.41672	23482.925
2011.46859	23397.525
2014.51848	23356.025
2017.56639	23311.525
2020.61233	23255.325
2023.6563	23197.725
2026.6983	23185.025
2029.73833	23118.725
2032.7764	23059.925
2035.8125	23042.425
2038.84664	22989.425
2041.87881	22980.825
2044.90903	22966.125
2047.93729	22950.725
2050.96359	22913.325
2053.98794	22859.425
2057.01034	22841.025
2060.03078	22852.925
2063.04927	22813.725
2066.06582	22816.825
2069.08042	22813.325
2072.09307	22743.625
2075.10378	22773.325
2078.11255	22712.425
2081.11938	22734.025
2084.12426	22726.025
2087.12722	22692.925
2090.12824	22661.325
2093.12732	22678.625
2096.12447	22739.825
2099.11969	22697.825
2102.11299	22691.525
2105.10435	22695.325
2108.09379	22766.925
2111.08131	22765.425
2114.0669	22785.525
2117.05057	22787.525
2120.03233	22826.625
2123.01216	22857.425
2125.99008	22869.025
2128.96609	22862.925
2131.94018	22894.625
2134.91236	22898.825
2137.88263	22922.425
2140.851	22925.725
2143.81746	22974.425
2146.78201	22968.825
2149.74466	22965.925
2152.7054	23013.025
2155.66425	22953.625
2158.6212	22952.725
2161.57625	22928.925
2164.52941	22944.225
2167.48067	22957.225
2170.43004	22960.625
2173.37752	22952.425
2176.32311	22954.325
2179.26681	22959.925
2182.20863	22930.225
2185.14856	22962.925
2188.08661	22979.025
2191.02278	22950.625
2193.95707	22962.425
2196.88948	22946.825
2199.82001	22983.225
2202.74867	22929.625
2205.67545	22966.725
2208.60037	22946.025
2211.52341	22928.325
2214.44458	22869.625
2217.36388	22827.125
2220.28132	22804.525
2223.1969	22806.225
2226.11061	22730.825
2229.02246	22705.325
2231.93245	22697.525
2234.84058	22627.025
2237.74686	22582.125
2240.65128	22596.525
2243.55385	22515.625
2246.45456	22467.025
2249.35343	22459.525
2252.25044	22422.925
2255.14561	22417.725
2258.03893	22393.625
2260.93041	22374.025
2263.82004	22320.925
2266.70783	22268.625
2269.59378	22215.825
2272.4779	22159.925
2275.36017	22102.525
2278.24061	22053.025
2281.11922	22034.625
2283.996	21997.525
2286.87094	22017.725
2289.74405	21934.025
2292.61534	21983.425
2295.4848	21961.425
2298.35243	21959.925
2301.21824	21940.525
2304.08223	21984.525
2306.94439	21968.025
2309.80474	21994.525
2312.66327	21984.325
2315.51999	22009.725
2318.37489	21999.025
2321.22797	22006.725
2324.07925	21994.925
2326.92871	21956.025
2329.77637	21935.125
2332.62222	21921.125
2335.46626	21929.025
2338.3085	21892.925
2341.14893	21922.925
2343.98756	21918.125
2346.8244	21893.025
2349.65943	21954.125
2352.49267	21928.525
2355.32411	21908.725
2358.15376	21889.825
2360.98161	21869.625
2363.80768	21838.825
2366.63195	21823.125
2369.45444	21789.025
2372.27514	21734.725
2375.09405	21726.825
2377.91118	21644.825
2380.72652	21629.925
2383.54009	21574.225
2386.35187	21536.625
2389.16188	21481.425
2391.97011	21457.925
2394.77657	21476.125
2397.58125	21396.425
2400.38416	21397.325
2403.18529	21353.325
2405.98466	21334.125
2408.78226	21290.325
2411.57809	21288.225
2414.37216	21216.325
2417.16446	21211.825
2419.955	21195.325
2422.74378	21172.525
2425.5308	21161.725
2428.31606	21151.325
2431.09956	21149.825
2433.88131	21111.225
2436.6613	21104.625
2439.43954	21104.925
2442.21603	21083.425
2444.99077	21086.525
2447.76377	21121.925
2450.53501	21074.125
2453.30451	21094.525
2456.07226	21104.025
2458.83827	21097.425
2461.60254	21034.825
2464.36507	21065.025
2467.12586	21077.225
2469.88492	21092.425
2472.64224	21088.325
2475.39782	21087.125
2478.15167	21092.125
2480.90379	21068.225
2483.65417	21087.825
2486.40283	21059.125
2489.14976	21113.225
2491.89497	21119.125
2494.63845	21136.725
2497.3802	21095.625
2500.12024	21084.025
2502.85855	21123.325
2505.59514	21073.825
2508.33002	21091.425
2511.06318	21031.925
2513.79462	21018.225
2516.52435	21021.725
2519.25237	21029.125
2521.97867	20983.925
2524.70327	20987.825
2527.42616	20946.725
2530.14734	20968.025
2532.86681	20942.325
2535.58458	20967.325
2538.30065	20953.925
2541.01501	20935.325
2543.72768	20852.625
2546.43864	20900.425
2549.14791	20827.325
2551.85548	20816.525
2554.56136	20781.325
2557.26554	20828.225
2559.96803	20814.325
2562.66883	20797.725
2565.36794	20769.925
2568.06536	20767.425
2570.7611	20745.525
2573.45514	20670.225
2576.14751	20707.825
2578.83819	20669.925
2581.52719	20706.225
2584.21451	20665.125
2586.90015	20679.825
2589.58411	20670.225
2592.2664	20637.925
2594.94701	20613.825
2597.62594	20597.325
2600.30321	20577.525
2602.9788	20562.725
2605.65273	20574.125
2608.32498	20566.225
2610.99557	20547.825
2613.66449	20571.725
2616.33175	20548.525
2618.99734	20535.725
2621.66128	20565.925
2624.32355	20526.925
2626.98416	20504.525
2629.64311	20562.125
2632.30041	20542.125
2634.95605	20524.125
2637.61004	20517.825
2640.26238	20479.725
2642.91306	20500.425
2645.56209	20482.625
2648.20948	20445.725
2650.85521	20459.725
2653.4993	20441.525
2656.14175	20400.625
2658.78255	20451.825
2661.42171	20448.425
2664.05923	20484.325
2666.6951	20465.125
2669.32934	20491.125
2671.96194	20522.425
2674.59291	20512.125
2677.22224	20474.525
2679.84993	20512.925
2682.476	20466.825
2685.10043	20467.725
2687.72324	20413.225
2690.34441	20452.525
2692.96396	20396.225
2695.58188	20422.325
2698.19818	20407.825
2700.81285	20408.625
2703.4259	20408.125
2706.03733	20417.425
2708.64714	20430.125
2711.25533	20427.225
2713.86191	20437.325
2716.46687	20453.525
2719.07021	20487.225
2721.67194	20517.225
2724.27206	20428.825
2726.87057	20498.125
2729.46747	20481.525
2732.06276	20512.125
2734.65644	20534.025
2737.24852	20515.025
2739.83899	20455.625
2742.42786	20492.325
2745.01513	20506.125
2747.60079	20473.625
2750.18486	20458.025
2752.76733	20458.025
2755.3482	20438.125
2757.92747	20431.425
2760.50515	20384.425
2763.08123	20429.025
2765.65573	20343.625
2768.22863	20371.525
2770.79994	20359.025
2773.36967	20378.825
2775.9378	20360.625
2778.50435	20350.525
2781.06932	20301.625
2783.6327	20284.325
2786.1945	20327.125
2788.75471	20304.925
2791.31335	20242.125
2793.87041	20212.525
2796.42589	20133.625
2798.97979	20133.125
2801.53212	20089.525
2804.08288	20073.725
2806.63206	20046.325
2809.17967	20023.625
2811.72571	20016.525
2814.27018	20009.325
2816.81308	19977.325
2819.35442	19934.325
2821.89419	19862.625
2824.43239	19897.925
2826.96904	19868.525
2829.50412	19872.425
2832.03763	19819.925
2834.56959	19789.125
2837.1	19753.825
2839.62884	19785.625
2842.15613	19748.025
2844.68186	19755.225
2847.20604	19744.325
2849.72867	19761.025
2852.24974	19734.025
2854.76927	19739.225
2857.28724	19661.725
2859.80367	19661.425
2862.31855	19660.125
2864.83189	19623.625
2867.34368	19615.325
2869.85393	19619.125
2872.36264	19616.125
2874.8698	19629.625
2877.37543	19638.625
2879.87952	19634.825
2882.38207	19668.525
2884.88308	19678.925
2887.38256	19676.125
2889.88051	19675.525
2892.37692	19663.625
2894.8718	19690.425
2897.36515	19699.825
2899.85698	19709.625
2902.34727	19757.625
2904.83604	19757.825
2907.32328	19814.625
2909.809	19789.125
2912.29319	19805.425
2914.77587	19810.125
2917.25702	19797.625
2919.73665	19770.425
2922.21476	19789.025
2924.69136	19769.625
2927.16644	19722.825
2929.64	19692.125
2932.11205	19700.525
2934.58258	19625.925
2937.05161	19643.325
2939.51912	19643.125
2941.98513	19626.125
2944.44962	19578.825
2946.91261	19525.825
2949.37409	19575.025
2951.83407	19566.025
2954.29254	19527.525
2956.74951	19495.825
2959.20498	19487.725
2961.65895	19494.125
2964.11142	19459.025
2966.56239	19405.125
2969.01186	19397.825
2971.45984	19334.725
2973.90632	19332.025
2976.35131	19288.425
2978.7948	19275.725
2981.23681	19195.625
2983.67732	19183.625
2986.11635	19136.825
2988.55388	19105.925
2990.98993	19055.125
2993.4245	19026.325
2995.85758	19018.325
2998.28917	18932.625
3000.71928	18914.625
3003.14791	18912.525
3005.57506	18884.825
3008.00073	18832.025
3010.42493	18843.525
3012.84764	18798.225
3015.26888	18796.125
3017.68865	18761.025
3020.10694	18733.625
3022.52376	18690.825
3024.9391	18669.025
3027.35298	18670.525
3029.76539	18634.025
3032.17632	18576.125
3034.5858	18571.125
3036.9938	18552.825
3039.40034	18532.125
3041.80542	18541.325
3044.20903	18478.325
3046.61118	18472.625
3049.01187	18429.525
3051.4111	18421.925
3053.80888	18427.425
3056.20519	18343.525
3058.60005	18334.625
3060.99345	18328.325
3063.3854	18294.725
3065.7759	18213.425
3068.16494	18201.625
3070.55254	18112.625
3072.93868	18078.325
3075.32338	18027.325
3077.70662	18037.725
3080.08842	17995.125
3082.46878	18006.125
3084.84769	17949.725
3087.22515	17981.825
3089.60118	17913.325
3091.97576	17896.525
3094.3489	17919.425
3096.72061	17879.725
3099.09087	17898.025
3101.4597	17864.625
3103.82709	17874.225
3106.19305	17855.325
3108.55757	17819.925
3110.92066	17745.525
3113.28232	17751.425
3115.64255	17709.425
3118.00134	17664.525
3120.35871	17647.325
3122.71466	17582.625
3125.06917	17569.425
3127.42226	17522.325
