Data from AgNPs_FTO_APTES_UA_2uM_R6G_10uM_NaF_0.1M_Addition_RamanShift__20__12-06-57-223.txt Node

Date: Fri Dec 17 12:06:57 GMT 2021
User: TCL
Spectrometer: QEP01345
Trigger mode: 4
Integration Time (sec): 7.000000E0
Scans to average: 10
Electric dark correction enabled: true
Nonlinearity correction enabled: false
Boxcar width: 0
XAxis mode: Raman Shifts
Number of Pixels in Spectrum: 1044
>>>>>Begin Spectral Data<<<<<
46.04893	-1.025
50.45542	-1.425
54.85868	-3.125
59.25871	0.475
63.6555	117.175
68.04907	122.875
72.43941	128.575
76.82654	136.575
81.21044	136.775
85.59113	143.775
89.96862	147.775
94.34289	155.875
98.71396	161.075
103.08183	166.375
107.4465	171.475
111.80798	172.775
116.16626	178.675
120.52136	182.875
124.87327	195.975
129.222	202.775
133.56755	213.875
137.90993	229.375
142.24913	246.475
146.58517	276.575
150.91804	320.275
155.24774	383.375
159.57429	473.375
163.89768	606.175
168.21792	796.275
172.53501	1074.775
176.84895	1498.775
181.15975	2081.875
185.46741	2935.775
189.77193	4036.475
194.07331	5411.075
198.37157	6958.375
202.6667	8627.775
206.9587	10219.975
211.24758	11802.875
215.53334	13396.475
219.81599	15116.675
224.09553	16977.775
228.37195	19059.975
232.64527	21406.375
236.91549	23801.975
241.18261	26210.275
245.44663	28485.175
249.70755	30512.575
253.96539	32210.075
258.22014	33655.575
262.4718	34910.075
266.72039	35854.375
270.96589	36337.975
275.20832	36448.875
279.44768	36169.475
283.68397	35768.475
287.91719	35329.475
292.14735	35101.575
296.37445	35096.975
300.59849	35217.175
304.81948	35504.075
309.03742	35540.475
313.25231	35252.175
317.46415	34484.675
321.67296	33452.075
325.87872	32574.175
330.08145	32235.175
334.28114	32225.375
338.47781	32563.075
342.67145	33059.375
346.86207	33664.475
351.04966	34530.175
355.23424	35557.975
359.4158	36412.275
363.59435	37018.375
367.76989	37350.875
371.94243	37576.175
376.11196	37718.275
380.27849	37849.175
384.44203	38014.675
388.60257	38180.175
392.76012	38356.475
396.91468	38830.075
401.06626	39511.975
405.21485	40019.575
409.36047	39916.975
413.50311	39233.075
417.64277	38658.975
421.77947	38382.975
425.9132	38447.475
430.04396	38627.175
434.17176	38800.475
438.2966	39137.075
442.41849	39760.875
446.53742	40621.375
450.6534	41653.175
454.76644	42444.875
458.87653	42820.575
462.98368	42781.875
467.08789	42335.575
471.18916	41650.375
475.2875	40908.875
479.38291	40337.375
483.4754	39942.775
487.56496	39566.175
491.6516	39132.075
495.73531	38841.975
499.81612	38835.175
503.89401	39025.175
507.96899	39215.375
512.04106	39270.175
516.11023	39350.275
520.1765	39258.775
524.23987	39112.875
528.30034	38788.775
532.35792	38371.075
536.41261	37906.875
540.46441	37428.375
544.51333	37324.975
548.55936	37636.075
552.60252	38245.375
556.64279	38834.775
560.6802	39192.275
564.71473	39329.075
568.7464	39826.075
572.7752	40466.175
576.80114	40676.575
580.82422	41001.075
584.84444	41303.175
588.86181	41537.475
592.87633	41896.875
596.888	42379.375
600.89682	43075.075
604.9028	45370.375
608.90594	50531.275
612.90624	55816.375
616.90371	52966.875
620.89834	44319.375
624.89015	40460.175
628.87913	39864.475
632.86528	39708.275
636.84862	39424.775
640.82913	38853.275
644.80683	37962.075
648.78172	37285.175
652.75379	37158.375
656.72306	37704.575
660.68952	38471.275
664.65319	38347.975
668.61405	37671.375
672.57211	37446.475
676.52738	37427.275
680.47986	37451.175
684.42955	37315.975
688.37646	37266.575
692.32058	37518.075
696.26192	37890.875
700.20048	38322.775
704.13626	38486.975
708.06928	38240.575
711.99952	37909.975
715.927	37762.575
719.85171	37783.175
723.77365	37667.375
727.69284	37307.875
731.60928	36920.475
735.52295	36886.175
739.43388	36937.375
743.34206	37127.275
747.24749	37232.275
751.15017	37573.875
755.05012	38081.875
758.94733	39146.175
762.8418	40984.875
766.73354	44066.075
770.62254	47273.975
774.50882	48317.975
778.39237	46411.375
782.27321	42936.175
786.15132	40064.975
790.02671	38414.875
793.89938	37614.675
797.76935	37324.875
801.6366	37240.675
805.50115	37065.475
809.36299	36869.575
813.22213	36602.575
817.07857	36508.175
820.93231	36364.375
824.78336	36372.775
828.63172	36432.475
832.47738	36440.875
836.32036	36545.375
840.16066	36695.075
843.99827	36832.575
847.8332	36767.675
851.66546	36560.875
855.49504	36498.675
859.32195	36473.875
863.1462	36336.575
866.96777	36175.075
870.78668	36121.975
874.60293	36115.375
878.41652	36186.275
882.22745	36274.875
886.03573	36385.675
889.84136	36400.775
893.64433	36255.775
897.44466	36097.875
901.24235	36006.975
905.0374	35898.875
908.8298	35823.675
912.61957	35868.475
916.40671	36110.075
920.19121	36559.475
923.97308	37030.375
927.75233	37263.875
931.52895	37265.475
935.30295	36951.775
939.07433	36330.275
942.84309	35877.075
946.60924	35647.475
950.37278	35518.775
954.13371	35329.775
957.89203	35090.075
961.64774	34912.575
965.40086	34825.575
969.15137	34754.575
972.89929	34671.075
976.64461	34660.275
980.38733	34745.775
984.12747	34938.975
987.86502	35333.475
991.59999	35859.475
995.33237	36565.175
999.06217	37740.175
1002.78939	39022.775
1006.51404	39846.575
1010.23611	40325.675
1013.95561	40589.775
1017.67255	40472.575
1021.38692	40082.575
1025.09872	39797.875
1028.80796	40318.275
1032.51465	41660.175
1036.21877	42839.275
1039.92035	43039.575
1043.61937	42292.775
1047.31584	40963.975
1051.00976	39685.075
1054.70114	38879.575
1058.38998	38739.875
1062.07627	38830.475
1065.76003	39016.375
1069.44126	39264.575
1073.11995	39719.275
1076.79611	40191.275
1080.46974	40540.375
1084.14085	40873.975
1087.80943	41191.975
1091.47549	41208.975
1095.13903	40857.575
1098.80005	40195.675
1102.45857	39514.075
1106.11456	39077.075
1109.76805	39025.575
1113.41903	39278.675
1117.06751	39563.175
1120.71348	39955.575
1124.35696	40377.975
1127.99793	40804.675
1131.63641	40968.675
1135.2724	40609.875
1138.90589	40087.275
1142.5369	39755.975
1146.16542	39534.475
1149.79145	39393.175
1153.415	39511.075
1157.03607	39808.075
1160.65467	40480.575
1164.27079	41677.375
1167.88443	43429.275
1171.49561	45885.175
1175.10432	49165.475
1178.71056	53480.075
1182.31434	57634.075
1185.91565	60122.275
1189.51451	60317.975
1193.11091	58456.875
1196.70485	55451.575
1200.29634	52676.775
1203.88538	50578.075
1207.47197	48804.275
1211.05612	47484.575
1214.63782	46640.375
1218.21708	46429.575
1221.79391	46609.975
1225.36829	46887.875
1228.94024	46807.975
1232.50976	46449.175
1236.07685	46113.975
1239.6415	45875.375
1243.20374	45780.075
1246.76355	45963.375
1250.32093	46511.275
1253.8759	47453.175
1257.42845	48758.875
1260.97859	49959.475
1264.52631	51064.375
1268.07163	52299.675
1271.61453	53718.175
1275.15503	55323.175
1278.69312	56758.775
1282.22882	57864.875
1285.76211	58736.975
1289.29301	59353.675
1292.82151	60210.675
1296.34761	61597.675
1299.87133	63850.275
1303.39266	67158.175
1306.9116	71658.075
1310.42815	76520.175
1313.94233	79782.675
1317.45412	80041.875
1320.96354	78238.775
1324.47058	75950.775
1327.97525	73820.075
1331.47754	72308.675
1334.97747	71836.575
1338.47502	72183.275
1341.97022	72633.775
1345.46305	72480.475
1348.95352	71943.875
1352.44163	71878.875
1355.92738	73229.075
1359.41078	76894.175
1362.89183	80700.275
1366.37053	79441.075
1369.84688	72589.775
1373.32088	65013.175
1376.79254	59705.275
1380.26186	57094.675
1383.72883	56149.875
1387.19347	55371.775
1390.65578	54424.575
1394.11575	53904.475
1397.57339	54046.075
1401.0287	54741.675
1404.48168	55731.475
1407.93234	56724.875
1411.38068	57290.475
1414.82669	57113.575
1418.27039	55927.675
1421.71177	54327.075
1425.15083	52869.775
1428.58758	52021.275
1432.02203	51948.075
1435.45416	52397.175
1438.88399	52967.675
1442.31151	53570.275
1445.73673	53924.675
1449.15965	54380.375
1452.58027	54631.175
1455.9986	54596.675
1459.41463	54757.575
1462.82837	55396.575
1466.23982	56476.775
1469.64898	57553.475
1473.05586	58330.275
1476.46045	58639.275
1479.86276	58689.875
1483.26279	58799.775
1486.66054	58998.875
1490.05602	59542.675
1493.44922	60207.275
1496.84016	60866.375
1500.22882	61968.375
1503.61521	63730.875
1506.99934	66225.875
1510.38121	68595.975
1513.76081	69558.375
1517.13816	67913.275
1520.51324	64581.875
1523.88607	61113.175
1527.25665	58717.975
1530.62498	57280.975
1533.99105	56569.575
1537.35488	56147.375
1540.71647	55746.575
1544.07581	55313.475
1547.4329	54869.475
1550.78776	54410.775
1554.14038	54116.575
1557.49077	53980.875
1560.83892	54023.875
1564.18484	53998.375
1567.52853	54064.275
1570.86999	54123.275
1574.20922	54564.475
1577.54624	55017.475
1580.88103	54811.375
1584.2136	54725.175
1587.54395	55323.375
1590.87208	57312.575
1594.19801	60472.275
1597.52172	63844.775
1600.84321	65192.875
1604.16251	63141.675
1607.47959	59156.075
1610.79447	54834.775
1614.10715	50834.075
1617.41763	47513.675
1620.7259	45264.275
1624.03199	44129.575
1627.33587	44209.775
1630.63757	45330.875
1633.93707	47642.375
1637.23439	50931.775
1640.52951	54928.175
1643.82246	59079.375
1647.11321	61948.975
1650.40179	62357.375
1653.68819	59063.375
1656.97241	52993.975
1660.25446	46801.775
1663.53433	42306.075
1666.81203	39381.175
1670.08756	37544.375
1673.36092	36402.375
1676.63211	35557.375
1679.90115	35031.275
1683.16801	34609.775
1686.43272	34312.175
1689.69527	34053.375
1692.95567	33849.575
1696.2139	33708.875
1699.46999	33627.275
1702.72392	33530.175
1705.97571	33494.575
1709.22535	33478.475
1712.47284	33507.575
1715.71819	33425.875
1718.96139	33430.075
1722.20246	33293.675
1725.44139	33186.175
1728.67818	32970.675
1731.91284	32794.475
1735.14537	32631.675
1738.37576	32566.775
1741.60403	32446.675
1744.83017	32339.775
1748.05418	32288.675
1751.27607	32283.775
1754.49584	32158.675
1757.71349	32177.375
1760.92903	32127.075
1764.14244	32134.575
1767.35375	32138.275
1770.56294	32107.675
1773.77002	32057.775
1776.97499	32021.075
1780.17785	31967.675
1783.37861	31955.175
1786.57727	31935.875
1789.77382	31827.675
1792.96828	31850.675
1796.16064	31792.975
1799.3509	31745.775
1802.53907	31767.475
1805.72514	31645.975
1808.90913	31584.575
1812.09102	31534.275
1815.27083	31482.975
1818.44856	31476.675
1821.6242	31384.875
1824.79776	31412.675
1827.96924	31361.175
1831.13864	31354.875
1834.30597	31439.675
1837.47122	31422.075
1840.6344	31443.775
1843.7955	31468.475
1846.95454	31454.075
1850.11151	31464.075
1853.26642	31478.775
1856.41926	31471.875
1859.57004	31481.675
1862.71876	31437.375
1865.86542	31476.575
1869.01003	31471.875
1872.15258	31467.875
1875.29308	31490.775
1878.43152	31527.175
1881.56792	31498.675
1884.70227	31537.875
1887.83457	31612.775
1890.96482	31592.675
1894.09304	31528.775
1897.21921	31552.875
1900.34335	31525.275
1903.46544	31538.375
1906.58551	31521.975
1909.70353	31505.575
1912.81953	31464.275
1915.93349	31413.675
1919.04543	31321.975
1922.15534	31281.775
1925.26322	31194.875
1928.36908	31097.575
1931.47292	31030.875
1934.57473	30892.975
1937.67453	30763.575
1940.77232	30675.875
1943.86808	30565.275
1946.96184	30481.675
1950.05358	30405.575
1953.14331	30264.475
1956.23103	30170.975
1959.31675	30120.575
1962.40046	29959.175
1965.48217	29949.375
1968.56188	29827.575
1971.63959	29809.875
1974.7153	29693.975
1977.78901	29589.575
1980.86073	29510.075
1983.93046	29431.975
1986.99819	29265.775
1990.06394	29233.575
1993.1277	29141.675
1996.18947	29014.475
1999.24925	28968.575
2002.30706	28923.175
2005.36288	28804.175
2008.41672	28757.375
2011.46859	28677.475
2014.51848	28594.575
2017.56639	28510.675
2020.61233	28447.075
2023.6563	28450.775
2026.6983	28382.275
2029.73833	28343.975
2032.7764	28254.375
2035.8125	28257.175
2038.84664	28231.075
2041.87881	28205.675
2044.90903	28166.275
2047.93729	28132.075
2050.96359	28083.975
2053.98794	28044.775
2057.01034	28013.475
2060.03078	27997.875
2063.04927	27955.375
2066.06582	27956.575
2069.08042	27951.875
2072.09307	27911.475
2075.10378	27870.675
2078.11255	27810.075
2081.11938	27848.775
2084.12426	27791.575
2087.12722	27761.875
2090.12824	27800.375
2093.12732	27846.575
2096.12447	27827.275
2099.11969	27815.775
2102.11299	27860.475
2105.10435	27835.475
2108.09379	27801.575
2111.08131	27924.875
2114.0669	27901.975
2117.05057	27970.075
2120.03233	27912.575
2123.01216	27975.275
2125.99008	27983.875
2128.96609	27975.675
2131.94018	28011.575
2134.91236	28055.475
2137.88263	28078.875
2140.851	28054.275
2143.81746	28097.675
2146.78201	28127.375
2149.74466	28151.475
2152.7054	28168.375
2155.66425	28143.475
2158.6212	28152.775
2161.57625	28151.375
2164.52941	28145.675
2167.48067	28128.975
2170.43004	28121.975
2173.37752	28153.275
2176.32311	28143.875
2179.26681	28117.775
2182.20863	28158.175
2185.14856	28161.975
2188.08661	28160.275
2191.02278	28157.975
2193.95707	28160.175
2196.88948	28171.975
2199.82001	28211.375
2202.74867	28139.675
2205.67545	28184.675
2208.60037	28172.075
2211.52341	28168.875
2214.44458	28110.475
2217.36388	28017.975
2220.28132	28047.175
2223.1969	27996.075
2226.11061	27969.075
2229.02246	27887.875
2231.93245	27881.075
2234.84058	27810.275
2237.74686	27774.675
2240.65128	27725.875
2243.55385	27680.575
2246.45456	27677.475
2249.35343	27602.975
2252.25044	27583.975
2255.14561	27533.375
2258.03893	27541.975
2260.93041	27522.275
2263.82004	27418.575
2266.70783	27407.975
2269.59378	27328.675
2272.4779	27247.075
2275.36017	27187.475
2278.24061	27185.775
2281.11922	27104.875
2283.996	27055.175
2286.87094	27039.575
2289.74405	27016.975
2292.61534	27011.675
2295.4848	27004.275
2298.35243	27036.075
2301.21824	27019.575
2304.08223	27086.875
2306.94439	27058.375
2309.80474	27107.875
2312.66327	27112.175
2315.51999	27126.475
2318.37489	27099.275
2321.22797	27081.675
2324.07925	27106.775
2326.92871	27039.775
2329.77637	27002.275
2332.62222	26999.375
2335.46626	26998.875
2338.3085	26971.475
2341.14893	27055.475
2343.98756	27042.275
2346.8244	27104.875
2349.65943	27044.875
2352.49267	27020.875
2355.32411	27029.275
2358.15376	26981.375
2360.98161	26949.275
2363.80768	26943.975
2366.63195	26907.575
2369.45444	26821.275
2372.27514	26771.975
2375.09405	26743.875
2377.91118	26661.475
2380.72652	26652.575
2383.54009	26554.775
2386.35187	26552.375
2389.16188	26491.275
2391.97011	26454.475
2394.77657	26420.575
2397.58125	26359.375
2400.38416	26383.675
2403.18529	26293.675
2405.98466	26255.175
2408.78226	26218.475
2411.57809	26201.475
2414.37216	26116.675
2417.16446	26084.075
2419.955	26053.175
2422.74378	26012.675
2425.5308	25975.575
2428.31606	25986.075
2431.09956	25971.875
2433.88131	25934.875
2436.6613	25958.375
2439.43954	25960.375
2442.21603	25918.575
2444.99077	25954.975
2447.76377	25963.475
2450.53501	25922.575
2453.30451	25912.175
2456.07226	25950.475
2458.83827	25920.275
2461.60254	25856.475
2464.36507	25886.275
2467.12586	25860.175
2469.88492	25882.175
2472.64224	25839.175
2475.39782	25839.475
2478.15167	25877.575
2480.90379	25866.875
2483.65417	25916.075
2486.40283	25884.375
2489.14976	25933.175
2491.89497	25989.175
2494.63845	25980.575
2497.3802	25979.675
2500.12024	25955.375
2502.85855	25927.975
2505.59514	25917.175
2508.33002	25916.975
2511.06318	25848.175
2513.79462	25823.175
2516.52435	25798.675
2519.25237	25818.075
2521.97867	25816.875
2524.70327	25748.075
2527.42616	25698.475
2530.14734	25758.675
2532.86681	25726.275
2535.58458	25681.575
2538.30065	25670.875
2541.01501	25677.475
2543.72768	25600.275
2546.43864	25590.175
2549.14791	25558.275
2551.85548	25539.675
2554.56136	25526.675
2557.26554	25503.775
2559.96803	25455.275
2562.66883	25462.575
2565.36794	25457.575
2568.06536	25454.475
2570.7611	25465.875
2573.45514	25401.475
2576.14751	25343.875
2578.83819	25368.375
2581.52719	25377.575
2584.21451	25372.475
2586.90015	25379.375
2589.58411	25364.975
2592.2664	25367.475
2594.94701	25300.575
2597.62594	25290.475
2600.30321	25272.875
2602.9788	25287.875
2605.65273	25230.975
2608.32498	25225.075
2610.99557	25250.875
2613.66449	25261.875
2616.33175	25230.775
2618.99734	25224.775
2621.66128	25256.475
2624.32355	25225.375
2626.98416	25268.475
2629.64311	25236.075
2632.30041	25276.175
2634.95605	25219.375
2637.61004	25208.275
2640.26238	25128.475
2642.91306	25118.375
2645.56209	25138.575
2648.20948	25084.575
2650.85521	25064.875
2653.4993	25061.075
2656.14175	25015.175
2658.78255	25053.875
2661.42171	25055.075
2664.05923	25090.975
2666.6951	25073.475
2669.32934	25101.075
2671.96194	25117.775
2674.59291	25140.175
2677.22224	25119.075
2679.84993	25142.275
2682.476	25116.775
2685.10043	25132.875
2687.72324	25070.775
2690.34441	25095.175
2692.96396	25083.675
2695.58188	25064.175
2698.19818	25040.075
2700.81285	25038.875
2703.4259	25002.275
2706.03733	24983.975
2708.64714	25050.675
2711.25533	25057.075
2713.86191	25027.775
2716.46687	25051.975
2719.07021	25039.375
2721.67194	25088.675
2724.27206	25046.275
2726.87057	25060.575
2729.46747	25048.575
2732.06276	25092.675
2734.65644	25095.875
2737.24852	25078.075
2739.83899	25078.475
2742.42786	25059.675
2745.01513	25051.375
2747.60079	25031.375
2750.18486	25016.175
2752.76733	25017.675
2755.3482	25028.375
2757.92747	25003.575
2760.50515	24997.975
2763.08123	25012.775
2765.65573	24934.875
2768.22863	24933.375
2770.79994	24939.975
2773.36967	24954.875
2775.9378	24901.975
2778.50435	24886.175
2781.06932	24842.875
2783.6327	24867.375
2786.1945	24854.875
2788.75471	24862.875
2791.31335	24774.475
2793.87041	24758.375
2796.42589	24674.775
2798.97979	24680.375
2801.53212	24633.075
2804.08288	24614.175
2806.63206	24541.975
2809.17967	24512.375
2811.72571	24468.775
2814.27018	24472.975
2816.81308	24456.175
2819.35442	24430.975
2821.89419	24383.975
2824.43239	24386.075
2826.96904	24377.675
2829.50412	24377.575
2832.03763	24297.875
2834.56959	24305.475
2837.1	24251.875
2839.62884	24299.975
2842.15613	24207.675
2844.68186	24240.475
2847.20604	24209.975
2849.72867	24231.275
2852.24974	24207.475
2854.76927	24175.675
2857.28724	24122.275
2859.80367	24118.375
2862.31855	24103.675
2864.83189	24115.175
2867.34368	24068.875
2869.85393	24090.475
2872.36264	24100.975
2874.8698	24111.175
2877.37543	24119.275
2879.87952	24125.675
2882.38207	24139.475
2884.88308	24143.675
2887.38256	24113.475
2889.88051	24150.675
2892.37692	24149.275
2894.8718	24166.075
2897.36515	24156.475
2899.85698	24175.175
2902.34727	24205.075
2904.83604	24220.475
2907.32328	24259.075
2909.809	24266.175
2912.29319	24298.575
2914.77587	24251.575
2917.25702	24323.975
2919.73665	24234.775
2922.21476	24258.375
2924.69136	24221.475
2927.16644	24228.675
2929.64	24148.675
2932.11205	24142.975
2934.58258	24013.275
2937.05161	24079.675
2939.51912	24099.075
2941.98513	24062.175
2944.44962	24037.375
2946.91261	23958.175
2949.37409	24013.875
2951.83407	23980.375
2954.29254	23964.175
2956.74951	23952.275
2959.20498	23916.075
2961.65895	23849.975
2964.11142	23858.975
2966.56239	23798.475
2969.01186	23783.175
2971.45984	23698.575
2973.90632	23683.975
2976.35131	23620.175
2978.7948	23594.475
2981.23681	23502.475
2983.67732	23489.675
2986.11635	23447.775
2988.55388	23386.975
2990.98993	23320.975
2993.4245	23336.575
2995.85758	23265.775
2998.28917	23203.375
3000.71928	23189.375
3003.14791	23190.775
3005.57506	23200.975
3008.00073	23090.075
3010.42493	23089.675
3012.84764	22996.775
3015.26888	23033.875
3017.68865	23004.275
3020.10694	22953.375
3022.52376	22899.375
3024.9391	22856.775
3027.35298	22785.375
3029.76539	22804.075
3032.17632	22750.375
3034.5858	22658.575
3036.9938	22684.375
3039.40034	22670.075
3041.80542	22695.475
3044.20903	22637.175
3046.61118	22623.775
3049.01187	22545.675
3051.4111	22542.275
3053.80888	22438.675
3056.20519	22448.875
3058.60005	22364.675
3060.99345	22379.975
3063.3854	22314.875
3065.7759	22279.375
3068.16494	22211.575
3070.55254	22115.975
3072.93868	22116.475
3075.32338	22052.075
3077.70662	22061.075
3080.08842	21976.075
3082.46878	21994.975
3084.84769	21929.575
3087.22515	21950.675
3089.60118	21907.275
3091.97576	21866.275
3094.3489	21893.075
3096.72061	21880.375
3099.09087	21873.275
3101.4597	21859.675
3103.82709	21825.075
3106.19305	21795.775
3108.55757	21785.275
3110.92066	21706.175
3113.28232	21710.775
3115.64255	21629.475
3118.00134	21592.975
3120.35871	21583.275
3122.71466	21523.575
3125.06917	21475.675
3127.42226	21407.575
