Data from AgNPs_FTO_APTES_UA_100uM_R6G_10uM_NaF_0.1M_Addition_RamanShift__26__15-47-27-475.txt Node

Date: Fri Dec 17 15:47:27 GMT 2021
User: TCL
Spectrometer: QEP01345
Trigger mode: 4
Integration Time (sec): 7.000000E0
Scans to average: 10
Electric dark correction enabled: true
Nonlinearity correction enabled: false
Boxcar width: 0
XAxis mode: Raman Shifts
Number of Pixels in Spectrum: 1044
>>>>>Begin Spectral Data<<<<<
46.04893	0.4875
50.45542	0.0875
54.85868	-0.2125
59.25871	1.0875
63.6555	63.9875
68.04907	62.6875
72.43941	66.3875
76.82654	77.3875
81.21044	74.3875
85.59113	78.3875
89.96862	86.6875
94.34289	87.0875
98.71396	86.7875
103.08183	89.4875
107.4465	94.8875
111.80798	92.1875
116.16626	96.6875
120.52136	98.2875
124.87327	103.6875
129.222	109.2875
133.56755	110.3875
137.90993	121.0875
142.24913	125.8875
146.58517	137.3875
150.91804	156.9875
155.24774	182.9875
159.57429	225.5875
163.89768	283.2875
168.21792	368.0875
172.53501	491.1875
176.84895	677.5875
181.15975	954.9875
185.46741	1340.1875
189.77193	1850.1875
194.07331	2472.5875
198.37157	3175.8875
202.6667	3932.8875
206.9587	4691.1875
211.24758	5414.6875
215.53334	6140.3875
219.81599	6916.8875
224.09553	7741.0875
228.37195	8688.3875
232.64527	9739.1875
236.91549	10842.3875
241.18261	11941.9875
245.44663	12961.6875
249.70755	13896.0875
253.96539	14681.0875
258.22014	15373.9875
262.4718	15923.8875
266.72039	16331.3875
270.96589	16532.1875
275.20832	16595.6875
279.44768	16441.6875
283.68397	16246.2875
287.91719	16011.1875
292.14735	15869.0875
296.37445	15897.7875
300.59849	16070.7875
304.81948	16236.3875
309.03742	16270.4875
313.25231	16135.4875
317.46415	15685.5875
321.67296	15108.5875
325.87872	14639.3875
330.08145	14472.5875
334.28114	14479.4875
338.47781	14615.7875
342.67145	14837.7875
346.86207	15134.9875
351.04966	15555.9875
355.23424	16006.3875
359.4158	16407.3875
363.59435	16692.5875
367.76989	16884.1875
371.94243	17058.4875
376.11196	17128.3875
380.27849	17191.9875
384.44203	17215.7875
388.60257	17197.6875
392.76012	17231.0875
396.91468	17321.3875
401.06626	17561.3875
405.21485	17759.9875
409.36047	17628.3875
413.50311	17263.5875
417.64277	16826.5875
421.77947	16584.0875
425.9132	16520.0875
430.04396	16487.0875
434.17176	16521.5875
438.2966	16689.5875
442.41849	16847.0875
446.53742	17061.3875
450.6534	17263.2875
454.76644	17458.3875
458.87653	17583.2875
462.98368	17588.0875
467.08789	17530.9875
471.18916	17381.8875
475.2875	17217.6875
479.38291	17088.2875
483.4754	16964.2875
487.56496	16846.0875
491.6516	16783.4875
495.73531	16769.5875
499.81612	16751.3875
503.89401	16850.7875
507.96899	16909.8875
512.04106	17019.7875
516.11023	17167.5875
520.1765	17276.2875
524.23987	17219.5875
528.30034	17101.1875
532.35792	16966.4875
536.41261	16797.6875
540.46441	16649.0875
544.51333	16558.0875
548.55936	16599.8875
552.60252	16748.4875
556.64279	16914.7875
560.6802	16988.0875
564.71473	17022.2875
568.7464	17191.4875
572.7752	17339.3875
576.80114	17209.3875
580.82422	17052.3875
584.84444	16979.9875
588.86181	16966.7875
592.87633	16966.1875
596.888	17101.2875
600.89682	17399.8875
604.9028	18349.0875
608.90594	20713.9875
612.90624	23779.3875
616.90371	23208.2875
620.89834	19209.2875
624.89015	17310.6875
628.87913	16989.1875
632.86528	17109.4875
636.84862	17260.3875
640.82913	17208.1875
644.80683	16800.2875
648.78172	16461.6875
652.75379	16380.6875
656.72306	16570.1875
660.68952	16894.3875
664.65319	16835.2875
668.61405	16510.9875
672.57211	16390.8875
676.52738	16372.6875
680.47986	16356.8875
684.42955	16304.5875
688.37646	16206.3875
692.32058	16223.8875
696.26192	16287.7875
700.20048	16361.2875
704.13626	16409.1875
708.06928	16386.2875
711.99952	16290.6875
715.927	16249.1875
719.85171	16271.8875
723.77365	16257.3875
727.69284	16187.4875
731.60928	16157.5875
735.52295	16097.2875
739.43388	16121.1875
743.34206	16145.3875
747.24749	16152.2875
751.15017	16197.3875
755.05012	16293.4875
758.94733	16578.3875
762.8418	17312.8875
766.73354	18672.0875
770.62254	20260.5875
774.50882	21187.5875
778.39237	20595.6875
782.27321	18946.4875
786.15132	17430.5875
790.02671	16516.4875
793.89938	16083.7875
797.76935	15929.0875
801.6366	15871.6875
805.50115	15852.2875
809.36299	15848.6875
813.22213	15811.4875
817.07857	15808.0875
820.93231	15767.3875
824.78336	15725.6875
828.63172	15685.0875
832.47738	15672.6875
836.32036	15659.5875
840.16066	15614.0875
843.99827	15581.5875
847.8332	15546.4875
851.66546	15536.9875
855.49504	15493.2875
859.32195	15448.3875
863.1462	15460.2875
866.96777	15419.5875
870.78668	15453.2875
874.60293	15448.2875
878.41652	15455.5875
882.22745	15537.9875
886.03573	15598.3875
889.84136	15559.8875
893.64433	15518.4875
897.44466	15415.9875
901.24235	15314.3875
905.0374	15280.5875
908.8298	15198.5875
912.61957	15191.9875
916.40671	15194.0875
920.19121	15225.3875
923.97308	15276.9875
927.75233	15307.9875
931.52895	15315.8875
935.30295	15293.0875
939.07433	15097.6875
942.84309	14902.4875
946.60924	14786.3875
950.37278	14743.5875
954.13371	14630.3875
957.89203	14608.4875
961.64774	14551.6875
965.40086	14475.9875
969.15137	14421.3875
972.89929	14399.0875
976.64461	14376.0875
980.38733	14325.5875
984.12747	14314.4875
987.86502	14368.6875
991.59999	14421.4875
995.33237	14512.5875
999.06217	14629.8875
1002.78939	14794.1875
1006.51404	14980.2875
1010.23611	15146.9875
1013.95561	15274.2875
1017.67255	15288.7875
1021.38692	15243.9875
1025.09872	15153.8875
1028.80796	15026.2875
1032.51465	15089.3875
1036.21877	15143.1875
1039.92035	15172.9875
1043.61937	15126.5875
1047.31584	15049.3875
1051.00976	15010.8875
1054.70114	14934.5875
1058.38998	14941.9875
1062.07627	14991.7875
1065.76003	15039.7875
1069.44126	15134.6875
1073.11995	15238.9875
1076.79611	15292.7875
1080.46974	15334.0875
1084.14085	15397.6875
1087.80943	15504.6875
1091.47549	15580.7875
1095.13903	15510.2875
1098.80005	15269.4875
1102.45857	15023.2875
1106.11456	14922.7875
1109.76805	14925.8875
1113.41903	15065.4875
1117.06751	15304.4875
1120.71348	15568.2875
1124.35696	15825.0875
1127.99793	16134.9875
1131.63641	16315.0875
1135.2724	16065.8875
1138.90589	15724.2875
1142.5369	15416.5875
1146.16542	15194.4875
1149.79145	14984.2875
1153.415	14916.7875
1157.03607	14915.2875
1160.65467	15035.3875
1164.27079	15280.3875
1167.88443	15669.7875
1171.49561	16278.4875
1175.10432	17260.8875
1178.71056	18634.0875
1182.31434	19847.3875
1185.91565	20388.8875
1189.51451	20184.1875
1193.11091	19466.9875
1196.70485	18536.7875
1200.29634	17810.6875
1203.88538	17247.8875
1207.47197	16675.3875
1211.05612	16141.1875
1214.63782	15753.6875
1218.21708	15576.6875
1221.79391	15504.8875
1225.36829	15461.4875
1228.94024	15463.3875
1232.50976	15464.2875
1236.07685	15483.0875
1239.6415	15505.5875
1243.20374	15572.8875
1246.76355	15647.5875
1250.32093	15749.4875
1253.8759	15945.7875
1257.42845	16175.9875
1260.97859	16397.5875
1264.52631	16594.8875
1268.07163	16893.5875
1271.61453	17131.8875
1275.15503	17344.1875
1278.69312	17478.2875
1282.22882	17554.8875
1285.76211	17677.6875
1289.29301	17968.6875
1292.82151	18345.2875
1296.34761	18739.7875
1299.87133	19342.2875
1303.39266	20287.4875
1306.9116	21598.7875
1310.42815	23090.6875
1313.94233	23958.3875
1317.45412	23781.3875
1320.96354	22837.5875
1324.47058	21745.7875
1327.97525	20757.8875
1331.47754	20054.4875
1334.97747	19788.5875
1338.47502	19845.5875
1341.97022	20182.4875
1345.46305	20583.3875
1348.95352	21146.4875
1352.44163	22003.9875
1355.92738	23323.4875
1359.41078	25317.7875
1362.89183	27599.4875
1366.37053	27581.0875
1369.84688	24606.9875
1373.32088	21336.6875
1376.79254	19195.9875
1380.26186	18048.4875
1383.72883	17558.6875
1387.19347	17188.1875
1390.65578	16821.8875
1394.11575	16461.2875
1397.57339	16255.3875
1401.0287	16204.5875
1404.48168	16216.9875
1407.93234	16303.8875
1411.38068	16332.7875
1414.82669	16301.3875
1418.27039	16181.2875
1421.71177	15995.7875
1425.15083	15770.9875
1428.58758	15557.7875
1432.02203	15491.1875
1435.45416	15573.6875
1438.88399	15607.4875
1442.31151	15678.3875
1445.73673	15719.7875
1449.15965	15802.3875
1452.58027	15838.9875
1455.9986	15837.7875
1459.41463	15869.1875
1462.82837	15937.4875
1466.23982	16160.8875
1469.64898	16401.1875
1473.05586	16605.4875
1476.46045	16738.0875
1479.86276	16857.0875
1483.26279	17059.7875
1486.66054	17294.0875
1490.05602	17583.0875
1493.44922	17994.7875
1496.84016	18647.0875
1500.22882	19736.5875
1503.61521	21297.9875
1506.99934	23094.5875
1510.38121	24872.0875
1513.76081	25613.4875
1517.13816	24805.3875
1520.51324	22796.8875
1523.88607	20607.1875
1527.25665	19054.8875
1530.62498	18156.7875
1533.99105	17672.8875
1537.35488	17365.0875
1540.71647	17193.7875
1544.07581	17089.6875
1547.4329	17029.7875
1550.78776	17032.5875
1554.14038	17066.4875
1557.49077	17171.0875
1560.83892	17377.3875
1564.18484	17589.5875
1567.52853	17812.1875
1570.86999	18065.7875
1574.20922	18215.2875
1577.54624	18252.5875
1580.88103	17830.1875
1584.2136	17123.3875
1587.54395	16689.5875
1590.87208	16643.6875
1594.19801	17015.6875
1597.52172	17644.3875
1600.84321	18014.6875
1604.16251	17702.4875
1607.47959	17085.7875
1610.79447	16473.8875
1614.10715	15743.6875
1617.41763	15097.3875
1620.7259	14622.4875
1624.03199	14351.4875
1627.33587	14283.1875
1630.63757	14378.5875
1633.93707	14678.8875
1637.23439	15257.8875
1640.52951	16057.2875
1643.82246	17160.2875
1647.11321	18574.4875
1650.40179	19646.3875
1653.68819	19601.6875
1656.97241	18098.7875
1660.25446	16204.3875
1663.53433	14776.4875
1666.81203	13847.2875
1670.08756	13320.8875
1673.36092	12944.5875
1676.63211	12680.5875
1679.90115	12516.5875
1683.16801	12387.6875
1686.43272	12234.3875
1689.69527	12149.8875
1692.95567	12110.7875
1696.2139	12071.7875
1699.46999	12022.9875
1702.72392	11985.5875
1705.97571	11939.2875
1709.22535	11872.9875
1712.47284	11860.9875
1715.71819	11811.4875
1718.96139	11798.4875
1722.20246	11768.7875
1725.44139	11703.8875
1728.67818	11654.8875
1731.91284	11569.9875
1735.14537	11552.6875
1738.37576	11476.5875
1741.60403	11448.1875
1744.83017	11411.1875
1748.05418	11386.2875
1751.27607	11360.3875
1754.49584	11368.6875
1757.71349	11359.4875
1760.92903	11329.8875
1764.14244	11334.8875
1767.35375	11328.6875
1770.56294	11284.8875
1773.77002	11290.0875
1776.97499	11240.0875
1780.17785	11233.2875
1783.37861	11203.0875
1786.57727	11184.6875
1789.77382	11147.7875
1792.96828	11127.3875
1796.16064	11097.2875
1799.3509	11078.3875
1802.53907	11072.2875
1805.72514	11055.9875
1808.90913	11010.5875
1812.09102	10985.8875
1815.27083	10958.1875
1818.44856	10946.7875
1821.6242	10917.4875
1824.79776	10882.8875
1827.96924	10870.2875
1831.13864	10855.4875
1834.30597	10844.1875
1837.47122	10828.5875
1840.6344	10847.4875
1843.7955	10822.6875
1846.95454	10806.7875
1850.11151	10804.1875
1853.26642	10794.0875
1856.41926	10806.0875
1859.57004	10801.1875
1862.71876	10766.6875
1865.86542	10776.4875
1869.01003	10772.0875
1872.15258	10759.3875
1875.29308	10739.0875
1878.43152	10723.3875
1881.56792	10722.8875
1884.70227	10671.0875
1887.83457	10680.9875
1890.96482	10655.7875
1894.09304	10659.4875
1897.21921	10657.9875
1900.34335	10641.5875
1903.46544	10629.3875
1906.58551	10602.1875
1909.70353	10594.4875
1912.81953	10600.6875
1915.93349	10573.5875
1919.04543	10548.6875
1922.15534	10527.8875
1925.26322	10522.4875
1928.36908	10498.5875
1931.47292	10447.6875
1934.57473	10428.6875
1937.67453	10399.3875
1940.77232	10373.8875
1943.86808	10357.2875
1946.96184	10348.0875
1950.05358	10322.6875
1953.14331	10289.8875
1956.23103	10253.4875
1959.31675	10211.6875
1962.40046	10195.2875
1965.48217	10169.9875
1968.56188	10134.5875
1971.63959	10094.5875
1974.7153	10060.3875
1977.78901	10018.7875
1980.86073	10012.1875
1983.93046	9959.1875
1986.99819	9959.8875
1990.06394	9911.7875
1993.1277	9869.6875
1996.18947	9823.3875
1999.24925	9821.1875
2002.30706	9800.6875
2005.36288	9748.5875
2008.41672	9729.1875
2011.46859	9720.2875
2014.51848	9680.1875
2017.56639	9635.9875
2020.61233	9614.5875
2023.6563	9592.3875
2026.6983	9577.9875
2029.73833	9546.2875
2032.7764	9539.0875
2035.8125	9522.8875
2038.84664	9492.0875
2041.87881	9472.0875
2044.90903	9462.4875
2047.93729	9439.3875
2050.96359	9438.6875
2053.98794	9421.8875
2057.01034	9378.3875
2060.03078	9390.2875
2063.04927	9380.0875
2066.06582	9364.7875
2069.08042	9356.7875
2072.09307	9350.7875
2075.10378	9327.1875
2078.11255	9329.8875
2081.11938	9337.0875
2084.12426	9324.2875
2087.12722	9324.3875
2090.12824	9322.4875
2093.12732	9313.6875
2096.12447	9330.8875
2099.11969	9294.7875
2102.11299	9313.8875
2105.10435	9327.3875
2108.09379	9329.8875
2111.08131	9344.3875
2114.0669	9330.7875
2117.05057	9337.3875
2120.03233	9328.8875
2123.01216	9335.2875
2125.99008	9366.0875
2128.96609	9375.6875
2131.94018	9360.9875
2134.91236	9383.2875
2137.88263	9381.2875
2140.851	9397.5875
2143.81746	9403.0875
2146.78201	9376.0875
2149.74466	9385.5875
2152.7054	9397.7875
2155.66425	9374.6875
2158.6212	9366.6875
2161.57625	9370.8875
2164.52941	9348.6875
2167.48067	9359.6875
2170.43004	9343.0875
2173.37752	9335.6875
2176.32311	9355.9875
2179.26681	9327.0875
2182.20863	9346.0875
2185.14856	9330.0875
2188.08661	9338.6875
2191.02278	9335.8875
2193.95707	9325.7875
2196.88948	9295.9875
2199.82001	9299.0875
2202.74867	9293.3875
2205.67545	9292.6875
2208.60037	9263.8875
2211.52341	9264.6875
2214.44458	9238.6875
2217.36388	9194.4875
2220.28132	9188.3875
2223.1969	9176.0875
2226.11061	9177.0875
2229.02246	9151.0875
2231.93245	9145.8875
2234.84058	9107.8875
2237.74686	9119.0875
2240.65128	9116.5875
2243.55385	9103.0875
2246.45456	9107.7875
2249.35343	9064.5875
2252.25044	9040.6875
2255.14561	9047.3875
2258.03893	9044.7875
2260.93041	9029.7875
2263.82004	9018.2875
2266.70783	8998.2875
2269.59378	8957.3875
2272.4779	8937.1875
2275.36017	8915.9875
2278.24061	8887.1875
2281.11922	8848.1875
2283.996	8875.4875
2286.87094	8842.4875
2289.74405	8817.4875
2292.61534	8828.3875
2295.4848	8809.5875
2298.35243	8802.8875
2301.21824	8785.3875
2304.08223	8782.8875
2306.94439	8775.4875
2309.80474	8749.7875
2312.66327	8806.4875
2315.51999	8756.7875
2318.37489	8766.3875
2321.22797	8757.0875
2324.07925	8746.4875
2326.92871	8738.4875
2329.77637	8711.3875
2332.62222	8706.5875
2335.46626	8685.9875
2338.3085	8680.0875
2341.14893	8672.5875
2343.98756	8670.2875
2346.8244	8650.6875
2349.65943	8666.1875
2352.49267	8649.3875
2355.32411	8657.0875
2358.15376	8656.1875
2360.98161	8657.9875
2363.80768	8638.0875
2366.63195	8650.7875
2369.45444	8630.4875
2372.27514	8609.0875
2375.09405	8623.0875
2377.91118	8604.9875
2380.72652	8562.9875
2383.54009	8559.0875
2386.35187	8538.0875
2389.16188	8511.2875
2391.97011	8482.6875
2394.77657	8447.3875
2397.58125	8437.6875
2400.38416	8434.4875
2403.18529	8415.7875
2405.98466	8426.0875
2408.78226	8386.8875
2411.57809	8381.8875
2414.37216	8363.0875
2417.16446	8357.4875
2419.955	8329.5875
2422.74378	8341.3875
2425.5308	8342.7875
2428.31606	8323.5875
2431.09956	8306.1875
2433.88131	8302.8875
2436.6613	8304.7875
2439.43954	8323.7875
2442.21603	8284.5875
2444.99077	8257.5875
2447.76377	8274.6875
2450.53501	8257.9875
2453.30451	8274.5875
2456.07226	8253.2875
2458.83827	8243.2875
2461.60254	8217.2875
2464.36507	8232.0875
2467.12586	8232.2875
2469.88492	8223.9875
2472.64224	8224.1875
2475.39782	8217.7875
2478.15167	8216.7875
2480.90379	8221.7875
2483.65417	8215.9875
2486.40283	8222.3875
2489.14976	8217.0875
2491.89497	8200.3875
2494.63845	8244.7875
2497.3802	8195.3875
2500.12024	8182.7875
2502.85855	8173.5875
2505.59514	8166.8875
2508.33002	8149.7875
2511.06318	8142.5875
2513.79462	8121.7875
2516.52435	8121.9875
2519.25237	8098.5875
2521.97867	8066.4875
2524.70327	8092.5875
2527.42616	8046.8875
2530.14734	8050.9875
2532.86681	8033.2875
2535.58458	8027.0875
2538.30065	8000.5875
2541.01501	7994.8875
2543.72768	8016.2875
2546.43864	7970.6875
2549.14791	7962.3875
2551.85548	7963.6875
2554.56136	7949.1875
2557.26554	7934.6875
2559.96803	7919.9875
2562.66883	7925.4875
2565.36794	7919.3875
2568.06536	7904.1875
2570.7611	7896.0875
2573.45514	7875.7875
2576.14751	7873.5875
2578.83819	7868.5875
2581.52719	7851.3875
2584.21451	7839.7875
2586.90015	7792.3875
2589.58411	7794.2875
2592.2664	7782.2875
2594.94701	7781.1875
2597.62594	7758.2875
2600.30321	7749.9875
2602.9788	7751.9875
2605.65273	7734.2875
2608.32498	7726.6875
2610.99557	7713.1875
2613.66449	7731.5875
2616.33175	7713.7875
2618.99734	7706.4875
2621.66128	7695.4875
2624.32355	7669.5875
2626.98416	7684.8875
2629.64311	7685.6875
2632.30041	7696.9875
2634.95605	7650.7875
2637.61004	7648.9875
2640.26238	7646.1875
2642.91306	7626.9875
2645.56209	7621.2875
2648.20948	7617.4875
2650.85521	7602.7875
2653.4993	7610.3875
2656.14175	7604.1875
2658.78255	7601.6875
2661.42171	7603.2875
2664.05923	7613.7875
2666.6951	7604.7875
2669.32934	7600.6875
2671.96194	7605.4875
2674.59291	7611.2875
2677.22224	7616.6875
2679.84993	7609.2875
2682.476	7601.9875
2685.10043	7591.8875
2687.72324	7595.5875
2690.34441	7599.7875
2692.96396	7606.7875
2695.58188	7614.0875
2698.19818	7593.7875
2700.81285	7587.0875
2703.4259	7589.1875
2706.03733	7610.1875
2708.64714	7591.0875
2711.25533	7598.0875
2713.86191	7577.6875
2716.46687	7602.1875
2719.07021	7608.0875
2721.67194	7608.3875
2724.27206	7582.4875
2726.87057	7582.7875
2729.46747	7580.0875
2732.06276	7568.6875
2734.65644	7568.4875
2737.24852	7571.1875
2739.83899	7554.2875
2742.42786	7588.9875
2745.01513	7556.5875
2747.60079	7535.4875
2750.18486	7544.2875
2752.76733	7542.6875
2755.3482	7548.7875
2757.92747	7529.5875
2760.50515	7511.4875
2763.08123	7503.4875
2765.65573	7489.7875
2768.22863	7480.7875
2770.79994	7470.8875
2773.36967	7478.9875
2775.9378	7472.2875
2778.50435	7474.7875
2781.06932	7451.1875
2783.6327	7456.0875
2786.1945	7439.0875
2788.75471	7408.6875
2791.31335	7395.3875
2793.87041	7401.1875
2796.42589	7366.0875
2798.97979	7371.1875
2801.53212	7341.5875
2804.08288	7354.1875
2806.63206	7325.3875
2809.17967	7326.6875
2811.72571	7312.8875
2814.27018	7307.5875
2816.81308	7309.9875
2819.35442	7275.3875
2821.89419	7271.1875
2824.43239	7268.5875
2826.96904	7269.8875
2829.50412	7280.8875
2832.03763	7246.2875
2834.56959	7277.6875
2837.1	7252.5875
2839.62884	7259.8875
2842.15613	7252.1875
2844.68186	7248.8875
2847.20604	7247.8875
2849.72867	7280.9875
2852.24974	7268.0875
2854.76927	7273.9875
2857.28724	7247.2875
2859.80367	7230.6875
2862.31855	7218.8875
2864.83189	7234.7875
2867.34368	7202.7875
2869.85393	7208.9875
2872.36264	7230.9875
2874.8698	7224.8875
2877.37543	7221.8875
2879.87952	7233.8875
2882.38207	7216.1875
2884.88308	7195.5875
2887.38256	7218.9875
2889.88051	7210.5875
2892.37692	7208.1875
2894.8718	7199.1875
2897.36515	7214.3875
2899.85698	7193.5875
2902.34727	7220.3875
2904.83604	7208.7875
2907.32328	7206.5875
2909.809	7200.0875
2912.29319	7211.2875
2914.77587	7207.7875
2917.25702	7216.1875
2919.73665	7210.2875
2922.21476	7212.1875
2924.69136	7191.4875
2927.16644	7194.3875
2929.64	7192.5875
2932.11205	7171.2875
2934.58258	7158.8875
2937.05161	7165.4875
2939.51912	7157.7875
2941.98513	7157.4875
2944.44962	7131.7875
2946.91261	7103.0875
2949.37409	7110.6875
2951.83407	7115.8875
2954.29254	7095.1875
2956.74951	7118.1875
2959.20498	7106.1875
2961.65895	7090.7875
2964.11142	7082.9875
2966.56239	7058.6875
2969.01186	7078.3875
2971.45984	7042.5875
2973.90632	7053.4875
2976.35131	7019.9875
2978.7948	7029.2875
2981.23681	7004.5875
2983.67732	7004.3875
2986.11635	6987.6875
2988.55388	6976.7875
2990.98993	6971.5875
2993.4245	6952.5875
2995.85758	6954.4875
2998.28917	6942.5875
3000.71928	6913.2875
3003.14791	6916.9875
3005.57506	6906.0875
3008.00073	6897.0875
3010.42493	6884.8875
3012.84764	6881.2875
3015.26888	6876.2875
3017.68865	6866.8875
3020.10694	6858.9875
3022.52376	6843.1875
3024.9391	6854.9875
3027.35298	6812.4875
3029.76539	6803.1875
3032.17632	6808.2875
3034.5858	6797.2875
3036.9938	6778.8875
3039.40034	6768.3875
3041.80542	6783.3875
3044.20903	6764.9875
3046.61118	6770.3875
3049.01187	6740.8875
3051.4111	6752.6875
3053.80888	6737.8875
3056.20519	6726.0875
3058.60005	6734.7875
3060.99345	6706.3875
3063.3854	6703.0875
3065.7759	6700.1875
3068.16494	6680.6875
3070.55254	6667.7875
