Data from AgNPs_FTO_APTES_UA_50uM_R6G_10uM_NaF_0.1M_Addition_RamanShift__28__15-08-57-431.txt Node

Date: Fri Dec 17 15:08:57 GMT 2021
User: TCL
Spectrometer: QEP01345
Trigger mode: 4
Integration Time (sec): 7.000000E0
Scans to average: 10
Electric dark correction enabled: true
Nonlinearity correction enabled: false
Boxcar width: 0
XAxis mode: Raman Shifts
Number of Pixels in Spectrum: 1044
>>>>>Begin Spectral Data<<<<<
46.04893	0.2
50.45542	-0.7
54.85868	-1.9
59.25871	1.1
63.6555	75.7
68.04907	80.6
72.43941	86.9
76.82654	88.6
81.21044	89
85.59113	96.7
89.96862	96.2
94.34289	102.3
98.71396	101.4
103.08183	105.7
107.4465	110
111.80798	110.9
116.16626	113.8
120.52136	116.8
124.87327	122.1
129.222	125.7
133.56755	133.2
137.90993	140.7
142.24913	151
146.58517	166.6
150.91804	193.2
155.24774	221.6
159.57429	270.7
163.89768	343.3
168.21792	444.7
172.53501	602.4
176.84895	833.5
181.15975	1154.3
185.46741	1618.3
189.77193	2232.7
194.07331	2985.4
198.37157	3838.6
202.6667	4729.7
206.9587	5622.8
211.24758	6512.4
215.53334	7392.4
219.81599	8354
224.09553	9420.5
228.37195	10620.9
232.64527	11963.2
236.91549	13332.6
241.18261	14689.3
245.44663	15913.6
249.70755	16985.4
253.96539	17933.3
258.22014	18727
262.4718	19412.9
266.72039	19901.7
270.96589	20235.6
275.20832	20320.2
279.44768	20270.2
283.68397	20084.3
287.91719	19904.8
292.14735	19879.1
296.37445	19966.3
300.59849	20245.5
304.81948	20558.3
309.03742	20758.7
313.25231	20577.6
317.46415	19960.3
321.67296	19156.6
325.87872	18450
330.08145	18110.1
334.28114	18122.1
338.47781	18322.1
342.67145	18682.9
346.86207	19171.1
351.04966	19826.5
355.23424	20540.9
359.4158	21109.8
363.59435	21482.6
367.76989	21676.3
371.94243	21801.9
376.11196	21874
380.27849	21944.4
384.44203	21948.7
388.60257	21914.1
392.76012	21971.4
396.91468	22234.1
401.06626	22686.4
405.21485	23032.3
409.36047	22970.2
413.50311	22425.6
417.64277	21861.5
421.77947	21605.3
425.9132	21546.8
430.04396	21633.6
434.17176	21754.6
438.2966	21954.1
442.41849	22285.1
446.53742	22774
450.6534	23322.9
454.76644	23695.3
458.87653	23898
462.98368	23859.2
467.08789	23667.8
471.18916	23327.5
475.2875	22900.1
479.38291	22610.4
483.4754	22346.6
487.56496	22111
491.6516	21912.5
495.73531	21819.4
499.81612	21818.9
503.89401	21961
507.96899	22050.4
512.04106	22159.1
516.11023	22313.3
520.1765	22385.5
524.23987	22345.8
528.30034	22112.1
532.35792	21884.3
536.41261	21595.9
540.46441	21411.1
544.51333	21315.8
548.55936	21444.3
552.60252	21806.2
556.64279	22168.2
560.6802	22408.9
564.71473	22554.5
568.7464	22935.5
572.7752	23398.5
576.80114	23301
580.82422	23231.7
584.84444	23248.2
588.86181	23327.7
592.87633	23455.8
596.888	23663.5
600.89682	24175.3
604.9028	25758.2
608.90594	29600.7
612.90624	34098.4
616.90371	32690.9
620.89834	26260.2
624.89015	23150.4
628.87913	22627.9
632.86528	22722.6
636.84862	22835.8
640.82913	22603.9
644.80683	22075.2
648.78172	21631.9
652.75379	21616.6
656.72306	22036
660.68952	22640.8
664.65319	22585.9
668.61405	22035.8
672.57211	21789.5
676.52738	21782.1
680.47986	21788.9
684.42955	21723.6
688.37646	21655
692.32058	21772.7
696.26192	21964
700.20048	22178.8
704.13626	22324.5
708.06928	22296.1
711.99952	22148.4
715.927	22060.1
719.85171	22053.6
723.77365	22026.4
727.69284	21850.8
731.60928	21744.6
735.52295	21732.4
739.43388	21743.7
743.34206	21855.3
747.24749	21981.9
751.15017	22130.7
755.05012	22513.6
758.94733	23178.7
762.8418	24569.6
766.73354	26864.3
770.62254	29247.8
774.50882	30332.1
778.39237	29149.2
782.27321	26512.3
786.15132	24196.9
790.02671	22866
793.89938	22227.3
797.76935	21992.7
801.6366	21890.1
805.50115	21812.8
809.36299	21756.8
813.22213	21747.7
817.07857	21705.9
820.93231	21685.5
824.78336	21697.3
828.63172	21762.9
832.47738	21744.8
836.32036	21770.9
840.16066	21763.5
843.99827	21718
847.8332	21705.2
851.66546	21642.2
855.49504	21665.5
859.32195	21626
863.1462	21550
866.96777	21507.6
870.78668	21494.5
874.60293	21550
878.41652	21561.9
882.22745	21656.7
886.03573	21763.1
889.84136	21722.5
893.64433	21667
897.44466	21525.9
901.24235	21520.4
905.0374	21486.2
908.8298	21462.2
912.61957	21504
916.40671	21603.2
920.19121	21786.8
923.97308	21899.9
927.75233	22008.1
931.52895	22028.1
935.30295	21871.2
939.07433	21484.4
942.84309	21255.7
946.60924	21096.6
950.37278	21007.9
954.13371	20901.2
957.89203	20839.2
961.64774	20802.2
965.40086	20746.8
969.15137	20672.8
972.89929	20666.6
976.64461	20641.3
980.38733	20663.2
984.12747	20705.8
987.86502	20862.8
991.59999	21006.9
995.33237	21238.3
999.06217	21664.6
1002.78939	22212.8
1006.51404	22694.2
1010.23611	23109.4
1013.95561	23361.1
1017.67255	23373.7
1021.38692	23175.3
1025.09872	22976.4
1028.80796	22963.8
1032.51465	23240
1036.21877	23517.7
1039.92035	23574.3
1043.61937	23450.2
1047.31584	23167
1051.00976	22839
1054.70114	22673.7
1058.38998	22699.7
1062.07627	22784.3
1065.76003	22977.1
1069.44126	23138.7
1073.11995	23340.2
1076.79611	23496.1
1080.46974	23618.6
1084.14085	23781.1
1087.80943	24084.6
1091.47549	24157.3
1095.13903	24009.2
1098.80005	23575.7
1102.45857	23138.7
1106.11456	22925.7
1109.76805	22919.5
1113.41903	23085.6
1117.06751	23443.6
1120.71348	23850.2
1124.35696	24366.4
1127.99793	24773.6
1131.63641	24793.8
1135.2724	24364.4
1138.90589	23973.2
1142.5369	23621.5
1146.16542	23437.8
1149.79145	23340.6
1153.415	23383.1
1157.03607	23566.9
1160.65467	23900.2
1164.27079	24511.5
1167.88443	25367.2
1171.49561	26633.7
1175.10432	28591.2
1178.71056	31190.7
1182.31434	33349.5
1185.91565	34309.4
1189.51451	34180.8
1193.11091	33008.1
1196.70485	31410
1200.29634	30044.7
1203.88538	28927.4
1207.47197	27870.1
1211.05612	26941.5
1214.63782	26427.6
1218.21708	26259.5
1221.79391	26327.7
1225.36829	26419.4
1228.94024	26476.2
1232.50976	26523.9
1236.07685	26582.8
1239.6415	26624.2
1243.20374	26651.3
1246.76355	26758.4
1250.32093	26992.7
1253.8759	27517.5
1257.42845	28131.2
1260.97859	28696.4
1264.52631	29162.5
1268.07163	29666.1
1271.61453	30211.3
1275.15503	30741.5
1278.69312	31273.2
1282.22882	31679.1
1285.76211	32222.7
1289.29301	32826.1
1292.82151	33512.1
1296.34761	34305.5
1299.87133	35496.4
1303.39266	37289.1
1306.9116	39725.3
1310.42815	42438.5
1313.94233	44258.6
1317.45412	44210.2
1320.96354	42954.2
1324.47058	41317.8
1327.97525	39826.1
1331.47754	38997.5
1334.97747	38865
1338.47502	39286.4
1341.97022	39940.5
1345.46305	40388.1
1348.95352	40745.2
1352.44163	41363.3
1355.92738	42876.4
1359.41078	45749.8
1362.89183	48816.4
1366.37053	48074.7
1369.84688	43304.3
1373.32088	38278.7
1376.79254	34832.7
1380.26186	33167.2
1383.72883	32384.7
1387.19347	31825.9
1390.65578	31243.4
1394.11575	30864.1
1397.57339	30757.6
1401.0287	31061.1
1404.48168	31589.4
1407.93234	32229.9
1411.38068	32684.5
1414.82669	32661.6
1418.27039	32167.1
1421.71177	31314.8
1425.15083	30488.9
1428.58758	30059
1432.02203	29917.9
1435.45416	30038.1
1438.88399	30173.4
1442.31151	30359.7
1445.73673	30557.5
1449.15965	30752.8
1452.58027	30886
1455.9986	30834.8
1459.41463	30865.8
1462.82837	31148.8
1466.23982	31537.9
1469.64898	32157.1
1473.05586	32574.8
1476.46045	32863.1
1479.86276	33163.1
1483.26279	33587.5
1486.66054	34077.4
1490.05602	34711.2
1493.44922	35486.8
1496.84016	36558.1
1500.22882	38104
1503.61521	40117.3
1506.99934	42529.7
1510.38121	44575.3
1513.76081	45310.1
1517.13816	43890.8
1520.51324	40884.9
1523.88607	37813.3
1527.25665	35729.8
1530.62498	34503.8
1533.99105	33811.1
1537.35488	33370.9
1540.71647	33152.8
1544.07581	32918
1547.4329	32740.4
1550.78776	32576.1
1554.14038	32441.8
1557.49077	32522.8
1560.83892	32735.7
1564.18484	32953.6
1567.52853	33153.5
1570.86999	33291.8
1574.20922	33480.5
1577.54624	33458.3
1580.88103	32885.7
1584.2136	32081.5
1587.54395	32007
1590.87208	32719.6
1594.19801	34227.4
1597.52172	36033.1
1600.84321	36864.5
1604.16251	36056.8
1607.47959	34227
1610.79447	32246
1614.10715	30233.5
1617.41763	28567.5
1620.7259	27435.1
1624.03199	26880.1
1627.33587	26818.7
1630.63757	27275.6
1633.93707	28293.3
1637.23439	29852.1
1640.52951	31838.4
1643.82246	34113.9
1647.11321	36185.2
1650.40179	37200.5
1653.68819	36026
1656.97241	32773.5
1660.25446	29072.5
1663.53433	26383.6
1666.81203	24699.2
1670.08756	23633.5
1673.36092	22931.9
1676.63211	22491.7
1679.90115	22167.6
1683.16801	21893.3
1686.43272	21716.6
1689.69527	21551.3
1692.95567	21409.5
1696.2139	21410.4
1699.46999	21376.8
1702.72392	21343.3
1705.97571	21262.8
1709.22535	21236.8
1712.47284	21231.4
1715.71819	21212.5
1718.96139	21165.3
1722.20246	21134.4
1725.44139	21058
1728.67818	20995.8
1731.91284	20857.5
1735.14537	20776.5
1738.37576	20732
1741.60403	20642.2
1744.83017	20587.9
1748.05418	20577.8
1751.27607	20538.2
1754.49584	20525.3
1757.71349	20528.5
1760.92903	20516.9
1764.14244	20491.8
1767.35375	20481.1
1770.56294	20459.3
1773.77002	20451.9
1776.97499	20439
1780.17785	20396.5
1783.37861	20395.9
1786.57727	20382.4
1789.77382	20375.9
1792.96828	20343.9
1796.16064	20309
1799.3509	20307.8
1802.53907	20269
1805.72514	20250.1
1808.90913	20195.6
1812.09102	20162.1
1815.27083	20140
1818.44856	20093.1
1821.6242	20076.9
1824.79776	20069.3
1827.96924	20033.3
1831.13864	20014.5
1834.30597	20053.6
1837.47122	20037.2
1840.6344	20025.8
1843.7955	20057.4
1846.95454	20050.9
1850.11151	20031.7
1853.26642	20058.6
1856.41926	20041.6
1859.57004	20068.5
1862.71876	20049
1865.86542	20065.8
1869.01003	20067.7
1872.15258	20072
1875.29308	20061.7
1878.43152	20040.5
1881.56792	20096.1
1884.70227	20072.7
1887.83457	20055.8
1890.96482	20046.7
1894.09304	20050.8
1897.21921	20076
1900.34335	20099
1903.46544	20071.5
1906.58551	20087.1
1909.70353	20105.6
1912.81953	20079.1
1915.93349	20109.7
1919.04543	20015.1
1922.15534	20030.9
1925.26322	19974.9
1928.36908	19945
1931.47292	19892
1934.57473	19842.4
1937.67453	19758.9
1940.77232	19691.1
1943.86808	19608.9
1946.96184	19565.1
1950.05358	19520.8
1953.14331	19488.2
1956.23103	19425.1
1959.31675	19381.3
1962.40046	19326.9
1965.48217	19276.6
1968.56188	19172.2
1971.63959	19174.6
1974.7153	19084.5
1977.78901	19045
1980.86073	18944.5
1983.93046	18936.6
1986.99819	18899
1990.06394	18822.2
1993.1277	18777
1996.18947	18705.7
1999.24925	18693.5
2002.30706	18632
2005.36288	18595.1
2008.41672	18537.4
2011.46859	18500.7
2014.51848	18454.2
2017.56639	18416.6
2020.61233	18362.9
2023.6563	18324.4
2026.6983	18288.9
2029.73833	18240.8
2032.7764	18220
2035.8125	18168.2
2038.84664	18135.8
2041.87881	18123.1
2044.90903	18118
2047.93729	18068.9
2050.96359	18051
2053.98794	18027.2
2057.01034	18041.6
2060.03078	18028.3
2063.04927	17990.9
2066.06582	17999.4
2069.08042	17985.6
2072.09307	17976.7
2075.10378	17942.1
2078.11255	17956.4
2081.11938	17952.1
2084.12426	17934.9
2087.12722	17923.6
2090.12824	17884.1
2093.12732	17901.3
2096.12447	17923.1
2099.11969	17915.7
2102.11299	17912.4
2105.10435	17927.4
2108.09379	17980.4
2111.08131	17994.7
2114.0669	18003.4
2117.05057	18015.5
2120.03233	18036
2123.01216	18020.1
2125.99008	18071.1
2128.96609	18045.7
2131.94018	18067.7
2134.91236	18071
2137.88263	18121.8
2140.851	18109
2143.81746	18124.6
2146.78201	18144.1
2149.74466	18149.2
2152.7054	18139.9
2155.66425	18149.9
2158.6212	18143.6
2161.57625	18106.5
2164.52941	18151.9
2167.48067	18128.2
2170.43004	18151.3
2173.37752	18142
2176.32311	18153.2
2179.26681	18127.6
2182.20863	18086.8
2185.14856	18151.8
2188.08661	18144.8
2191.02278	18142.1
2193.95707	18119.4
2196.88948	18110
2199.82001	18095.3
2202.74867	18140.3
2205.67545	18111
2208.60037	18081.1
2211.52341	18069.8
2214.44458	18017.8
2217.36388	18006.8
2220.28132	17982.8
2223.1969	17954.7
2226.11061	17955.7
2229.02246	17889.6
2231.93245	17868.8
2234.84058	17791.5
2237.74686	17808.4
2240.65128	17825.4
2243.55385	17761.2
2246.45456	17768.2
2249.35343	17716.5
2252.25044	17715.3
2255.14561	17701.7
2258.03893	17704.8
2260.93041	17684
2263.82004	17628.1
2266.70783	17623.8
2269.59378	17603.7
2272.4779	17519.6
2275.36017	17500.8
2278.24061	17479
2281.11922	17440.3
2283.996	17407.6
2286.87094	17381.7
2289.74405	17347
2292.61534	17374.2
2295.4848	17340
2298.35243	17327.3
2301.21824	17288.5
2304.08223	17319.1
2306.94439	17305
2309.80474	17279.4
2312.66327	17283.1
2315.51999	17313.4
2318.37489	17275
2321.22797	17283.9
2324.07925	17273.2
2326.92871	17230.2
2329.77637	17252.7
2332.62222	17209.7
2335.46626	17188.1
2338.3085	17187.9
2341.14893	17223.3
2343.98756	17174.4
2346.8244	17184.6
2349.65943	17175.7
2352.49267	17160.7
2355.32411	17205.4
2358.15376	17175.1
2360.98161	17194.1
2363.80768	17186.4
2366.63195	17174.5
2369.45444	17151.6
2372.27514	17115.8
2375.09405	17098
2377.91118	17059.3
2380.72652	17038.7
2383.54009	16985.3
2386.35187	16960
2389.16188	16912.7
2391.97011	16866.6
2394.77657	16859.8
2397.58125	16827.5
2400.38416	16818.5
2403.18529	16793.1
2405.98466	16791.8
2408.78226	16734
2411.57809	16689.9
2414.37216	16696.5
2417.16446	16671.2
2419.955	16615.3
2422.74378	16640.9
2425.5308	16621.1
2428.31606	16614.8
2431.09956	16578
2433.88131	16598.6
2436.6613	16614.3
2439.43954	16550.7
2442.21603	16587.2
2444.99077	16535.6
2447.76377	16544.3
2450.53501	16517.7
2453.30451	16541.4
2456.07226	16494.7
2458.83827	16505
2461.60254	16494.1
2464.36507	16465.2
2467.12586	16482.6
2469.88492	16485.5
2472.64224	16469.4
2475.39782	16465.2
2478.15167	16463.7
2480.90379	16480.1
2483.65417	16486.8
2486.40283	16457.1
2489.14976	16483.5
2491.89497	16507
2494.63845	16506.7
2497.3802	16481.5
2500.12024	16507.5
2502.85855	16516.4
2505.59514	16510.8
2508.33002	16482.2
2511.06318	16439.3
2513.79462	16381.2
2516.52435	16374.1
2519.25237	16368.8
2521.97867	16356
2524.70327	16342.7
2527.42616	16312.9
2530.14734	16293.7
2532.86681	16259
2535.58458	16252
2538.30065	16230.3
2541.01501	16229.1
2543.72768	16211.2
2546.43864	16187.9
2549.14791	16165.5
2551.85548	16146.5
2554.56136	16125.5
2557.26554	16157.7
2559.96803	16143.7
2562.66883	16082.2
2565.36794	16085.5
2568.06536	16071.3
2570.7611	16046.2
2573.45514	16024.6
2576.14751	16047.7
2578.83819	16027.5
2581.52719	16001.6
2584.21451	15993.2
2586.90015	15981
2589.58411	16006.7
2592.2664	15957.1
2594.94701	15900.1
2597.62594	15901.9
2600.30321	15899
2602.9788	15887.9
2605.65273	15879.2
2608.32498	15882
2610.99557	15837
2613.66449	15884.4
2616.33175	15856.3
2618.99734	15841.3
2621.66128	15836.5
2624.32355	15818.4
2626.98416	15824.4
2629.64311	15804.5
2632.30041	15832.9
2634.95605	15786.5
2637.61004	15816.3
2640.26238	15779.7
2642.91306	15754.5
2645.56209	15755.5
2648.20948	15708.9
2650.85521	15744.3
2653.4993	15732.4
2656.14175	15705.4
2658.78255	15718.8
2661.42171	15725.9
2664.05923	15741.3
2666.6951	15759.4
2669.32934	15776.6
2671.96194	15759.2
2674.59291	15820.9
2677.22224	15796.9
2679.84993	15802.2
2682.476	15777.9
2685.10043	15780.1
2687.72324	15795.5
2690.34441	15807.8
2692.96396	15799.3
2695.58188	15789.5
2698.19818	15792.4
2700.81285	15799.2
2703.4259	15800.3
2706.03733	15834.2
2708.64714	15797.9
2711.25533	15787.1
2713.86191	15794.6
2716.46687	15830.6
2719.07021	15788.6
2721.67194	15826.9
2724.27206	15802.5
2726.87057	15817.9
2729.46747	15812.1
2732.06276	15828.6
2734.65644	15779.6
2737.24852	15803
2739.83899	15783.6
2742.42786	15778
2745.01513	15741.1
2747.60079	15741.7
2750.18486	15794.1
2752.76733	15749.7
2755.3482	15743.2
2757.92747	15735.9
2760.50515	15732.8
2763.08123	15722.6
2765.65573	15681.7
2768.22863	15679.5
2770.79994	15636.4
2773.36967	15686.1
2775.9378	15654.7
2778.50435	15651.2
2781.06932	15645.7
2783.6327	15649.2
2786.1945	15614.5
2788.75471	15613.6
2791.31335	15545.2
2793.87041	15534.7
2796.42589	15497.7
2798.97979	15510.3
2801.53212	15466.3
2804.08288	15492.6
2806.63206	15418.8
2809.17967	15407.6
2811.72571	15399.7
2814.27018	15426.4
2816.81308	15352.5
2819.35442	15353.5
2821.89419	15338.5
2824.43239	15365.8
2826.96904	15378.4
2829.50412	15335.5
2832.03763	15317.6
2834.56959	15297.2
2837.1	15292
2839.62884	15293.5
2842.15613	15272.7
2844.68186	15299.1
2847.20604	15282.9
2849.72867	15278.6
2852.24974	15287.1
2854.76927	15282.2
2857.28724	15245.5
2859.80367	15247.9
2862.31855	15206.1
2864.83189	15211.6
2867.34368	15159.6
2869.85393	15180.8
2872.36264	15205.9
2874.8698	15185
2877.37543	15197.8
2879.87952	15153.5
2882.38207	15141.5
2884.88308	15181.8
2887.38256	15147.5
2889.88051	15164.6
2892.37692	15160.8
2894.8718	15158.7
2897.36515	15195.4
2899.85698	15179.2
2902.34727	15220.8
2904.83604	15197.7
2907.32328	15235.5
2909.809	15191
2912.29319	15220.5
2914.77587	15235.3
2917.25702	15208.3
2919.73665	15190.1
2922.21476	15183.4
2924.69136	15167.4
2927.16644	15174.2
2929.64	15144.1
2932.11205	15159.6
2934.58258	15102.4
2937.05161	15125.9
2939.51912	15111.9
2941.98513	15094.4
2944.44962	15062.9
2946.91261	15038.9
2949.37409	15064.4
2951.83407	15032.8
2954.29254	15036.5
2956.74951	15035.7
2959.20498	15003.5
2961.65895	14952.6
2964.11142	14973.9
2966.56239	14925.2
2969.01186	14935.7
2971.45984	14892.6
2973.90632	14858.4
2976.35131	14834.2
2978.7948	14773.9
2981.23681	14730.1
2983.67732	14761
2986.11635	14696.5
2988.55388	14689
2990.98993	14682.8
2993.4245	14631.9
2995.85758	14637.8
2998.28917	14599.4
3000.71928	14571.9
3003.14791	14538.2
3005.57506	14528.1
3008.00073	14511.9
3010.42493	14511.9
3012.84764	14469.1
3015.26888	14459
3017.68865	14431.5
3020.10694	14408
3022.52376	14371.8
3024.9391	14352.2
3027.35298	14294.4
3029.76539	14300.7
3032.17632	14278.5
3034.5858	14260.1
3036.9938	14247.1
3039.40034	14229.1
3041.80542	14238.9
3044.20903	14226.2
3046.61118	14189.5
3049.01187	14186.7
3051.4111	14152.6
3053.80888	14112.5
3056.20519	14131.7
3058.60005	14031.9
3060.99345	14015.1
3063.3854	14035.2
3065.7759	13979.9
3068.16494	13957.1
3070.55254	13925
3072.93868	13852.7
3075.32338	13852.8
3077.70662	13840.2
3080.08842	13791.6
3082.46878	13800.1
3084.84769	13747.7
3087.22515	13736.6
3089.60118	13753.4
3091.97576	13739
3094.3489	13713.5
3096.72061	13722.2
3099.09087	13709
3101.4597	13709.7
3103.82709	13687.9
3106.19305	13665.5
3108.55757	13665.6
3110.92066	13603.8
3113.28232	13578.9
3115.64255	13523.9
3118.00134	13506.6
3120.35871	13519.3
3122.71466	13476.9
3125.06917	13457.7
3127.42226	13436.9
3129.77393	13467.2
3132.12417	13456.9
3134.47299	13445.3
3136.82039	13437.9
3139.16636	13423.4
3141.51092	13434
3143.85406	13413.5
3146.19579	13448.9
3148.53609	13417.1
3150.87499	13428.3
3153.21246	13438.8
3155.54853	13455.1
3157.88318	13439.9
3160.21642	13433.3
3162.54826	13421.3
3164.87868	13437.8
3167.2077	13418.8
3169.5353	13398.7
3171.86151	13380.5
3174.18631	13361.5
3176.5097	13371.7
3178.83169	13342.6
3181.15228	13321.2
3183.47147	13298.8
3185.78926	13300.2
3188.10565	13289.6
3190.42065	13325.1
3192.73424	13308.8
3195.04645	13283.6
3197.35725	13305.9
3199.66667	13253.5
3201.97469	13302.2
3204.28132	13301.2
3206.58656	13296
3208.8904	13312.3
3211.19287	13331.6
3213.49394	13330.5
3215.79363	13312.4
3218.09193	13297.6
3220.38884	13308
3222.68438	13299.9
3224.97853	13290.1
3227.2713	13276.3
3229.56269	13243.2
3231.8527	13249
3234.14133	13214.8
3236.42858	13204.7
3238.71446	13187
3240.99896	13154.1
3243.28209	13178.9
3245.56384	13144.7
3247.84423	13152.5
3250.12324	13130.5
3252.40088	13128.8
3254.67715	13112.6
3256.95205	13103.5
3259.22558	13085.6
3261.49775	13052.4
3263.76855	13063.1
3266.03799	13023.2
3268.30606	13009.1
3270.57277	12980.3
3272.83812	12955.8
3275.10211	12944.4
3277.36474	12927.6
3279.62601	12931
3281.88593	12895.9
3284.14448	12917.5
3286.40168	12916
3288.65753	12904.8
3290.91202	12857.8
3293.16516	12839.1
3295.41695	12789.7
3297.66738	12728.8
3299.91647	12670.6
3302.16421	12615.1
3304.4106	12536.2
3306.65564	12485
3308.89933	12424.3
3311.14169	12337.7
3313.38269	12247
3315.62236	12171.9
3317.86068	12086.1
3320.09766	11982.6
3322.3333	11867.6
3324.5676	11866.6
3326.80056	11667.8
3329.03219	11590.1
3331.26248	3.4
3333.49143	-0.1
3335.71905	-0.9
