Data from AgNPs_FTO_APTES_UA_50uM_R6G_10uM_NaF_0.1M_Addition_RamanShift__30__15-11-17-433.txt Node

Date: Fri Dec 17 15:11:17 GMT 2021
User: TCL
Spectrometer: QEP01345
Trigger mode: 4
Integration Time (sec): 7.000000E0
Scans to average: 10
Electric dark correction enabled: true
Nonlinearity correction enabled: false
Boxcar width: 0
XAxis mode: Raman Shifts
Number of Pixels in Spectrum: 1044
>>>>>Begin Spectral Data<<<<<
46.04893	-0.225
50.45542	0.575
54.85868	-2.025
59.25871	0.175
63.6555	60.075
68.04907	62.475
72.43941	64.675
76.82654	70.575
81.21044	71.775
85.59113	73.875
89.96862	78.975
94.34289	82.275
98.71396	82.675
103.08183	80.875
107.4465	87.375
111.80798	91.175
116.16626	91.275
120.52136	91.475
124.87327	97.075
129.222	96.175
133.56755	100.375
137.90993	106.575
142.24913	110.375
146.58517	117.975
150.91804	135.775
155.24774	157.175
159.57429	188.675
163.89768	235.075
168.21792	299.675
172.53501	404.575
176.84895	544.175
181.15975	755.375
185.46741	1049.575
189.77193	1432.775
194.07331	1917.975
198.37157	2453.975
202.6667	3040.875
206.9587	3611.975
211.24758	4175.375
215.53334	4772.775
219.81599	5402.675
224.09553	6139.375
228.37195	6988.075
232.64527	7880.075
236.91549	8823.475
241.18261	9639.975
245.44663	10405.675
249.70755	10981.875
253.96539	11447.175
258.22014	11912.275
262.4718	12322.075
266.72039	12632.975
270.96589	12847.175
275.20832	12857.875
279.44768	12740.875
283.68397	12634.775
287.91719	12483.075
292.14735	12540.475
296.37445	12710.675
300.59849	13076.475
304.81948	13568.675
309.03742	13905.075
313.25231	13840.575
317.46415	13291.575
321.67296	12411.875
325.87872	11679.275
330.08145	11333.375
334.28114	11307.675
338.47781	11463.475
342.67145	11762.375
346.86207	12203.775
351.04966	12812.675
355.23424	13589.875
359.4158	14155.975
363.59435	14455.575
367.76989	14594.775
371.94243	14613.675
376.11196	14620.175
380.27849	14606.875
384.44203	14502.575
388.60257	14382.975
392.76012	14333.475
396.91468	14478.475
401.06626	14799.375
405.21485	15084.375
409.36047	14910.975
413.50311	14273.475
417.64277	13652.275
421.77947	13263.475
425.9132	13135.975
430.04396	13115.175
434.17176	13202.875
438.2966	13300.875
442.41849	13524.275
446.53742	13850.375
450.6534	14162.975
454.76644	14398.975
458.87653	14473.675
462.98368	14436.475
467.08789	14269.675
471.18916	14011.375
475.2875	13744.475
479.38291	13473.375
483.4754	13287.675
487.56496	13112.475
491.6516	13037.475
495.73531	13029.175
499.81612	13068.775
503.89401	13202.375
507.96899	13345.075
512.04106	13518.275
516.11023	13744.775
520.1765	13863.575
524.23987	13829.175
528.30034	13609.075
532.35792	13365.775
536.41261	13114.675
540.46441	12894.775
544.51333	12754.775
548.55936	12841.775
552.60252	13051.775
556.64279	13365.975
560.6802	13512.275
564.71473	13630.275
568.7464	14069.175
572.7752	14371.175
576.80114	14139.175
580.82422	13881.675
584.84444	13747.675
588.86181	13722.375
592.87633	13744.675
596.888	13850.075
600.89682	14309.575
604.9028	15801.275
608.90594	19613.975
612.90624	24455.675
616.90371	23585.075
620.89834	17244.375
624.89015	14182.275
628.87913	13621.275
632.86528	13752.475
636.84862	13972.275
640.82913	13818.875
644.80683	13333.975
648.78172	12972.275
652.75379	13004.275
656.72306	13418.875
660.68952	13994.375
664.65319	13896.575
668.61405	13349.675
672.57211	13051.775
676.52738	13020.375
680.47986	13047.575
684.42955	12949.575
688.37646	12914.675
692.32058	12949.475
696.26192	13071.575
700.20048	13286.275
704.13626	13355.475
708.06928	13350.475
711.99952	13275.375
715.927	13240.175
719.85171	13228.575
723.77365	13205.375
727.69284	13131.275
731.60928	13033.175
735.52295	13032.775
739.43388	13063.875
743.34206	13133.975
747.24749	13222.075
751.15017	13339.675
755.05012	13588.975
758.94733	14143.975
762.8418	15360.075
766.73354	17477.975
770.62254	19780.175
774.50882	20998.075
778.39237	20144.975
782.27321	17742.975
786.15132	15436.975
790.02671	14148.875
793.89938	13553.675
797.76935	13327.875
801.6366	13246.475
805.50115	13150.675
809.36299	13141.775
813.22213	13110.975
817.07857	13124.875
820.93231	13109.075
824.78336	13127.475
828.63172	13147.075
832.47738	13192.175
836.32036	13180.175
840.16066	13106.675
843.99827	13065.975
847.8332	13025.775
851.66546	13030.475
855.49504	13030.875
859.32195	13006.775
863.1462	12973.275
866.96777	12920.175
870.78668	12908.875
874.60293	12950.175
878.41652	13019.775
882.22745	13095.675
886.03573	13189.275
889.84136	13176.375
893.64433	13101.775
897.44466	13016.375
901.24235	13017.075
905.0374	13004.675
908.8298	12949.375
912.61957	12942.575
916.40671	13018.675
920.19121	13125.575
923.97308	13196.075
927.75233	13271.975
931.52895	13363.875
935.30295	13241.075
939.07433	12992.775
942.84309	12736.875
946.60924	12599.475
950.37278	12531.875
954.13371	12455.975
957.89203	12420.975
961.64774	12396.975
965.40086	12374.775
969.15137	12341.075
972.89929	12333.275
976.64461	12317.575
980.38733	12313.375
984.12747	12320.375
987.86502	12403.975
991.59999	12476.575
995.33237	12596.475
999.06217	12812.075
1002.78939	13087.075
1006.51404	13366.775
1010.23611	13686.575
1013.95561	13879.575
1017.67255	13886.175
1021.38692	13700.775
1025.09872	13531.775
1028.80796	13486.675
1032.51465	13558.175
1036.21877	13738.575
1039.92035	13820.875
1043.61937	13812.575
1047.31584	13716.575
1051.00976	13592.475
1054.70114	13521.075
1058.38998	13545.875
1062.07627	13596.475
1065.76003	13703.575
1069.44126	13810.775
1073.11995	13938.075
1076.79611	14071.575
1080.46974	14197.575
1084.14085	14419.875
1087.80943	14707.975
1091.47549	14831.075
1095.13903	14647.275
1098.80005	14289.675
1102.45857	13920.675
1106.11456	13806.175
1109.76805	13833.875
1113.41903	14016.375
1117.06751	14364.175
1120.71348	14814.175
1124.35696	15262.275
1127.99793	15706.475
1131.63641	15699.975
1135.2724	15220.075
1138.90589	14708.575
1142.5369	14385.075
1146.16542	14127.875
1149.79145	14016.375
1153.415	13995.775
1157.03607	14085.475
1160.65467	14284.775
1164.27079	14719.975
1167.88443	15300.675
1171.49561	16253.975
1175.10432	17887.475
1178.71056	19993.575
1182.31434	21619.175
1185.91565	22059.575
1189.51451	21607.775
1193.11091	20408.475
1196.70485	19069.875
1200.29634	18077.375
1203.88538	17374.475
1207.47197	16556.575
1211.05612	15849.975
1214.63782	15461.875
1218.21708	15298.775
1221.79391	15275.475
1225.36829	15360.675
1228.94024	15456.875
1232.50976	15530.975
1236.07685	15635.075
1239.6415	15711.175
1243.20374	15747.775
1246.76355	15815.875
1250.32093	16013.575
1253.8759	16282.675
1257.42845	16672.875
1260.97859	17070.275
1264.52631	17392.575
1268.07163	17746.375
1271.61453	18121.475
1275.15503	18424.775
1278.69312	18613.275
1282.22882	18725.375
1285.76211	19009.475
1289.29301	19447.075
1292.82151	19946.375
1296.34761	20425.375
1299.87133	21234.475
1303.39266	22549.775
1306.9116	24560.275
1310.42815	26922.175
1313.94233	28318.775
1317.45412	27879.875
1320.96354	26378.875
1324.47058	24636.875
1327.97525	23179.075
1331.47754	22260.975
1334.97747	22135.975
1338.47502	22375.075
1341.97022	22891.475
1345.46305	23570.775
1348.95352	24461.975
1352.44163	25709.975
1355.92738	27673.475
1359.41078	30877.075
1362.89183	34218.175
1366.37053	33639.675
1369.84688	29212.775
1373.32088	24647.375
1376.79254	21639.475
1380.26186	20092.975
1383.72883	19346.975
1387.19347	18790.575
1390.65578	18248.675
1394.11575	17782.475
1397.57339	17532.475
1401.0287	17536.475
1404.48168	17797.675
1407.93234	18164.975
1411.38068	18495.875
1414.82669	18622.175
1418.27039	18418.675
1421.71177	18062.175
1425.15083	17635.675
1428.58758	17370.575
1432.02203	17336.775
1435.45416	17438.775
1438.88399	17474.675
1442.31151	17517.175
1445.73673	17610.375
1449.15965	17705.875
1452.58027	17723.575
1455.9986	17633.675
1459.41463	17553.675
1462.82837	17665.675
1466.23982	17922.575
1469.64898	18291.975
1473.05586	18564.975
1476.46045	18839.575
1479.86276	19154.275
1483.26279	19601.575
1486.66054	20120.275
1490.05602	20768.475
1493.44922	21589.775
1496.84016	22779.475
1500.22882	24525.975
1503.61521	26858.775
1506.99934	29472.375
1510.38121	31812.275
1513.76081	32731.175
1517.13816	31326.875
1520.51324	28165.075
1523.88607	24849.975
1527.25665	22583.975
1530.62498	21212.675
1533.99105	20492.975
1537.35488	20002.775
1540.71647	19703.275
1544.07581	19570.675
1547.4329	19485.175
1550.78776	19426.175
1554.14038	19400.275
1557.49077	19547.275
1560.83892	19825.275
1564.18484	20190.475
1567.52853	20565.875
1570.86999	20947.375
1574.20922	21169.775
1577.54624	21088.575
1580.88103	20321.375
1584.2136	19317.475
1587.54395	18810.075
1590.87208	19008.775
1594.19801	19867.075
1597.52172	20984.575
1600.84321	21490.975
1604.16251	20964.475
1607.47959	19843.375
1610.79447	18708.675
1614.10715	17563.375
1617.41763	16611.175
1620.7259	16001.875
1624.03199	15678.675
1627.33587	15656.775
1630.63757	15912.075
1633.93707	16474.075
1637.23439	17369.775
1640.52951	18566.075
1643.82246	20176.375
1647.11321	22061.675
1650.40179	23477.375
1653.68819	23102.275
1656.97241	20798.175
1660.25446	18014.675
1663.53433	15981.875
1666.81203	14745.475
1670.08756	14006.075
1673.36092	13528.775
1676.63211	13241.775
1679.90115	13030.975
1683.16801	12857.575
1686.43272	12716.475
1689.69527	12672.875
1692.95567	12589.575
1696.2139	12550.175
1699.46999	12543.775
1702.72392	12512.075
1705.97571	12477.475
1709.22535	12474.975
1712.47284	12444.175
1715.71819	12471.575
1718.96139	12440.175
1722.20246	12420.575
1725.44139	12343.775
1728.67818	12316.175
1731.91284	12250.475
1735.14537	12158.175
1738.37576	12136.175
1741.60403	12064.475
1744.83017	12032.575
1748.05418	12008.275
1751.27607	11978.475
1754.49584	11978.675
1757.71349	12012.175
1760.92903	11966.975
1764.14244	11934.375
1767.35375	11974.975
1770.56294	11931.275
1773.77002	11928.175
1776.97499	11892.375
1780.17785	11869.675
1783.37861	11860.975
1786.57727	11815.375
1789.77382	11819.975
1792.96828	11797.175
1796.16064	11766.475
1799.3509	11769.375
1802.53907	11751.975
1805.72514	11752.575
1808.90913	11690.775
1812.09102	11699.275
1815.27083	11648.375
1818.44856	11650.475
1821.6242	11608.975
1824.79776	11589.675
1827.96924	11603.575
1831.13864	11591.975
1834.30597	11599.475
1837.47122	11602.975
1840.6344	11591.175
1843.7955	11574.475
1846.95454	11573.475
1850.11151	11572.575
1853.26642	11567.675
1856.41926	11584.075
1859.57004	11584.775
1862.71876	11580.775
1865.86542	11585.775
1869.01003	11589.675
1872.15258	11602.475
1875.29308	11595.175
1878.43152	11586.175
1881.56792	11579.775
1884.70227	11596.475
1887.83457	11593.975
1890.96482	11567.975
1894.09304	11568.675
1897.21921	11543.575
1900.34335	11564.575
1903.46544	11590.175
1906.58551	11585.175
1909.70353	11572.175
1912.81953	11579.375
1915.93349	11579.875
1919.04543	11553.275
1922.15534	11532.775
1925.26322	11502.175
1928.36908	11491.875
1931.47292	11444.975
1934.57473	11397.475
1937.67453	11401.675
1940.77232	11347.775
1943.86808	11259.975
1946.96184	11271.075
1950.05358	11226.875
1953.14331	11203.775
1956.23103	11169.175
1959.31675	11114.475
1962.40046	11112.975
1965.48217	11080.075
1968.56188	11023.875
1971.63959	11020.475
1974.7153	10994.275
1977.78901	10924.975
1980.86073	10928.575
1983.93046	10881.375
1986.99819	10864.975
1990.06394	10807.975
1993.1277	10773.975
1996.18947	10720.675
1999.24925	10709.075
2002.30706	10698.075
2005.36288	10640.975
2008.41672	10617.175
2011.46859	10616.275
2014.51848	10558.575
2017.56639	10555.275
2020.61233	10523.375
2023.6563	10500.875
2026.6983	10457.875
2029.73833	10439.875
2032.7764	10410.375
2035.8125	10381.875
2038.84664	10354.775
2041.87881	10369.175
2044.90903	10347.175
2047.93729	10316.975
2050.96359	10324.575
2053.98794	10320.875
2057.01034	10280.075
2060.03078	10296.375
2063.04927	10275.275
2066.06582	10247.475
2069.08042	10246.075
2072.09307	10257.575
2075.10378	10236.675
2078.11255	10222.575
2081.11938	10216.875
2084.12426	10210.275
2087.12722	10205.375
2090.12824	10212.175
2093.12732	10227.075
2096.12447	10213.975
2099.11969	10193.575
2102.11299	10201.475
2105.10435	10230.775
2108.09379	10218.275
2111.08131	10215.575
2114.0669	10227.275
2117.05057	10247.875
2120.03233	10234.575
2123.01216	10257.775
2125.99008	10266.775
2128.96609	10258.175
2131.94018	10268.675
2134.91236	10288.975
2137.88263	10295.175
2140.851	10293.675
2143.81746	10312.775
2146.78201	10305.975
2149.74466	10296.475
2152.7054	10301.375
2155.66425	10291.475
2158.6212	10297.875
2161.57625	10288.775
2164.52941	10275.175
2167.48067	10278.075
2170.43004	10269.175
2173.37752	10274.775
2176.32311	10267.875
2179.26681	10281.275
2182.20863	10270.375
2185.14856	10267.375
2188.08661	10248.075
2191.02278	10264.775
2193.95707	10242.075
2196.88948	10238.975
2199.82001	10246.375
2202.74867	10218.975
2205.67545	10232.775
2208.60037	10216.675
2211.52341	10203.375
2214.44458	10188.975
2217.36388	10156.875
2220.28132	10144.375
2223.1969	10118.575
2226.11061	10125.675
2229.02246	10070.375
2231.93245	10071.775
2234.84058	10018.275
2237.74686	10023.875
2240.65128	10010.475
2243.55385	9987.075
2246.45456	9997.575
2249.35343	9980.975
2252.25044	9974.275
2255.14561	9961.475
2258.03893	9953.775
2260.93041	9957.375
2263.82004	9932.175
2266.70783	9918.175
2269.59378	9902.775
2272.4779	9876.475
2275.36017	9857.375
2278.24061	9832.975
2281.11922	9809.975
2283.996	9787.475
2286.87094	9785.875
2289.74405	9763.475
2292.61534	9746.875
2295.4848	9709.075
2298.35243	9703.175
2301.21824	9716.175
2304.08223	9712.475
2306.94439	9700.275
2309.80474	9683.175
2312.66327	9687.175
2315.51999	9676.675
2318.37489	9668.275
2321.22797	9663.175
2324.07925	9648.975
2326.92871	9654.075
2329.77637	9648.075
2332.62222	9602.175
2335.46626	9618.375
2338.3085	9609.875
2341.14893	9586.475
2343.98756	9584.275
2346.8244	9586.275
2349.65943	9588.975
2352.49267	9610.975
2355.32411	9579.675
2358.15376	9611.375
2360.98161	9576.975
2363.80768	9614.175
2366.63195	9619.175
2369.45444	9582.175
2372.27514	9570.175
2375.09405	9568.575
2377.91118	9526.675
2380.72652	9503.875
2383.54009	9490.975
2386.35187	9453.275
2389.16188	9419.075
2391.97011	9399.675
2394.77657	9381.275
2397.58125	9346.475
2400.38416	9345.275
2403.18529	9339.175
2405.98466	9311.275
2408.78226	9272.075
2411.57809	9271.375
2414.37216	9256.975
2417.16446	9271.875
2419.955	9236.975
2422.74378	9228.375
2425.5308	9215.175
2428.31606	9218.375
2431.09956	9202.875
2433.88131	9196.275
2436.6613	9178.875
2439.43954	9180.975
2442.21603	9192.575
2444.99077	9164.175
2447.76377	9178.575
2450.53501	9181.275
2453.30451	9155.275
2456.07226	9161.175
2458.83827	9148.675
2461.60254	9142.875
2464.36507	9136.475
2467.12586	9137.575
2469.88492	9121.475
2472.64224	9109.975
2475.39782	9140.875
2478.15167	9137.575
2480.90379	9136.875
2483.65417	9129.375
2486.40283	9139.575
2489.14976	9138.175
2491.89497	9139.975
2494.63845	9136.275
2497.3802	9139.875
2500.12024	9129.475
2502.85855	9124.775
2505.59514	9111.375
2508.33002	9082.175
2511.06318	9091.275
2513.79462	9034.475
2516.52435	9013.675
2519.25237	9001.375
2521.97867	8974.075
2524.70327	8982.775
2527.42616	8950.775
2530.14734	8956.175
2532.86681	8923.675
2535.58458	8920.175
2538.30065	8910.875
2541.01501	8911.675
2543.72768	8901.475
2546.43864	8877.475
2549.14791	8867.775
2551.85548	8865.075
2554.56136	8851.375
2557.26554	8828.275
2559.96803	8830.975
2562.66883	8814.075
2565.36794	8798.075
2568.06536	8811.775
2570.7611	8761.475
2573.45514	8774.575
2576.14751	8769.675
2578.83819	8741.075
2581.52719	8751.075
2584.21451	8738.175
2586.90015	8727.375
2589.58411	8702.475
2592.2664	8695.075
2594.94701	8692.775
2597.62594	8679.475
2600.30321	8679.575
2602.9788	8655.275
2605.65273	8632.375
2608.32498	8611.975
2610.99557	8631.475
2613.66449	8609.575
2616.33175	8608.775
2618.99734	8606.875
2621.66128	8598.575
2624.32355	8605.875
2626.98416	8569.175
2629.64311	8576.275
2632.30041	8576.375
2634.95605	8546.575
2637.61004	8558.275
2640.26238	8513.575
2642.91306	8525.975
2645.56209	8514.375
2648.20948	8525.475
2650.85521	8481.475
2653.4993	8503.875
2656.14175	8499.375
2658.78255	8514.875
2661.42171	8508.175
2664.05923	8510.875
2666.6951	8501.475
2669.32934	8501.775
2671.96194	8532.475
2674.59291	8533.875
2677.22224	8543.175
2679.84993	8530.675
2682.476	8518.075
2685.10043	8542.775
2687.72324	8537.075
2690.34441	8527.975
2692.96396	8513.975
2695.58188	8524.475
2698.19818	8511.575
2700.81285	8522.075
2703.4259	8516.675
2706.03733	8525.975
2708.64714	8531.275
2711.25533	8529.275
2713.86191	8537.075
2716.46687	8527.975
2719.07021	8524.975
2721.67194	8526.675
2724.27206	8508.375
2726.87057	8518.575
2729.46747	8502.475
2732.06276	8510.675
2734.65644	8483.975
2737.24852	8515.175
2739.83899	8503.375
2742.42786	8493.175
2745.01513	8461.875
2747.60079	8458.975
2750.18486	8470.275
2752.76733	8483.475
2755.3482	8447.475
2757.92747	8450.675
2760.50515	8446.775
2763.08123	8418.775
2765.65573	8420.375
2768.22863	8390.775
2770.79994	8387.975
2773.36967	8395.375
2775.9378	8388.175
2778.50435	8365.275
2781.06932	8365.075
2783.6327	8389.175
2786.1945	8364.575
2788.75471	8343.775
2791.31335	8314.975
2793.87041	8292.475
2796.42589	8298.175
2798.97979	8309.175
2801.53212	8265.575
2804.08288	8281.175
2806.63206	8268.875
2809.17967	8253.875
2811.72571	8231.175
2814.27018	8246.075
2816.81308	8235.875
2819.35442	8238.075
2821.89419	8221.975
2824.43239	8237.875
2826.96904	8221.675
2829.50412	8236.375
2832.03763	8231.075
2834.56959	8218.475
2837.1	8217.775
2839.62884	8225.675
2842.15613	8214.875
2844.68186	8241.275
2847.20604	8243.675
2849.72867	8296.175
2852.24974	8282.575
2854.76927	8277.675
2857.28724	8263.275
2859.80367	8249.375
2862.31855	8241.175
2864.83189	8205.375
2867.34368	8207.675
2869.85393	8227.375
2872.36264	8218.275
2874.8698	8215.675
2877.37543	8207.675
2879.87952	8190.075
2882.38207	8179.175
2884.88308	8183.175
2887.38256	8172.375
2889.88051	8172.475
2892.37692	8180.575
2894.8718	8169.775
2897.36515	8190.175
2899.85698	8179.775
2902.34727	8203.275
2904.83604	8181.975
2907.32328	8172.375
2909.809	8186.875
2912.29319	8193.175
2914.77587	8160.875
2917.25702	8189.075
2919.73665	8164.875
2922.21476	8143.175
2924.69136	8140.675
2927.16644	8133.875
2929.64	8126.275
2932.11205	8121.975
2934.58258	8094.975
2937.05161	8083.575
2939.51912	8090.275
2941.98513	8077.475
2944.44962	8052.775
2946.91261	7999.175
2949.37409	8015.875
2951.83407	8009.175
2954.29254	7984.575
2956.74951	7964.575
2959.20498	7961.075
2961.65895	7941.975
2964.11142	7930.875
2966.56239	7906.375
2969.01186	7895.075
2971.45984	7863.675
2973.90632	7852.075
2976.35131	7839.075
2978.7948	7839.975
2981.23681	7796.075
2983.67732	7795.375
2986.11635	7758.975
2988.55388	7743.475
2990.98993	7747.875
2993.4245	7722.375
2995.85758	7713.175
2998.28917	7681.175
3000.71928	7685.675
3003.14791	7680.775
3005.57506	7654.775
3008.00073	7630.075
3010.42493	7632.875
3012.84764	7633.875
3015.26888	7613.675
3017.68865	7591.575
3020.10694	7604.875
3022.52376	7591.075
3024.9391	7565.475
3027.35298	7537.075
3029.76539	7524.375
3032.17632	7508.675
3034.5858	7504.175
3036.9938	7507.375
3039.40034	7489.275
3041.80542	7492.475
3044.20903	7479.975
3046.61118	7475.275
3049.01187	7417.275
3051.4111	7447.075
3053.80888	7422.375
3056.20519	7416.975
3058.60005	7395.375
3060.99345	7392.575
3063.3854	7375.275
3065.7759	7343.175
3068.16494	7339.075
3070.55254	7314.375
3072.93868	7282.075
3075.32338	7269.075
3077.70662	7248.075
3080.08842	7233.175
3082.46878	7249.675
3084.84769	7219.175
3087.22515	7217.075
3089.60118	7218.375
3091.97576	7207.975
3094.3489	7197.375
3096.72061	7195.275
3099.09087	7197.375
3101.4597	7180.575
3103.82709	7180.975
3106.19305	7141.775
3108.55757	7134.875
3110.92066	7116.675
3113.28232	7106.475
3115.64255	7100.375
3118.00134	7095.775
3120.35871	7066.875
3122.71466	7065.275
3125.06917	7042.875
3127.42226	7061.875
3129.77393	7056.175
3132.12417	7040.175
3134.47299	7039.575
3136.82039	7047.975
3139.16636	7053.875
3141.51092	7036.375
3143.85406	7052.875
3146.19579	7044.275
3148.53609	7051.575
3150.87499	7043.975
3153.21246	7057.075
3155.54853	7070.675
3157.88318	7055.875
3160.21642	7081.875
3162.54826	7054.075
3164.87868	7059.275
3167.2077	7065.775
3169.5353	7051.075
