Data from AgNPs_FTO_APTES_UA_2uM_R6G_10uM_NaF_0.1M_Addition_RamanShift__27__12-15-07-233.txt Node

Date: Fri Dec 17 12:15:07 GMT 2021
User: TCL
Spectrometer: QEP01345
Trigger mode: 4
Integration Time (sec): 7.000000E0
Scans to average: 10
Electric dark correction enabled: true
Nonlinearity correction enabled: false
Boxcar width: 0
XAxis mode: Raman Shifts
Number of Pixels in Spectrum: 1044
>>>>>Begin Spectral Data<<<<<
46.04893	-0.375
50.45542	0.225
54.85868	-1.375
59.25871	-0.175
63.6555	97.725
68.04907	100.825
72.43941	111.525
76.82654	117.925
81.21044	119.425
85.59113	123.325
89.96862	129.225
94.34289	131.425
98.71396	138.825
103.08183	138.825
107.4465	144.925
111.80798	144.625
116.16626	150.225
120.52136	150.625
124.87327	157.525
129.222	163.225
133.56755	170.025
137.90993	180.525
142.24913	191.825
146.58517	212.325
150.91804	244.125
155.24774	284.025
159.57429	346.925
163.89768	432.625
168.21792	568.725
172.53501	751.525
176.84895	1044.225
181.15975	1442.025
185.46741	2014.625
189.77193	2780.925
194.07331	3698.525
198.37157	4763.225
202.6667	5907.325
206.9587	7017.925
211.24758	8114.725
215.53334	9247.625
219.81599	10452.725
224.09553	11806.825
228.37195	13373.725
232.64527	15002.925
236.91549	16721.125
241.18261	18375.225
245.44663	19851.925
249.70755	21142.525
253.96539	22229.225
258.22014	23181.725
262.4718	24026.125
266.72039	24727.025
270.96589	25080.725
275.20832	25170.525
279.44768	24982.725
283.68397	24638.925
287.91719	24442.225
292.14735	24352.825
296.37445	24496.225
300.59849	24946.925
304.81948	25503.325
309.03742	25868.425
313.25231	25769.825
317.46415	24985.425
321.67296	23808.625
325.87872	22779.325
330.08145	22315.925
334.28114	22286.825
338.47781	22605.625
342.67145	23081.025
346.86207	23798.025
351.04966	24790.625
355.23424	25931.925
359.4158	26911.125
363.59435	27476.325
367.76989	27695.425
371.94243	27821.525
376.11196	27813.425
380.27849	27798.725
384.44203	27727.325
388.60257	27625.025
392.76012	27667.525
396.91468	27999.625
401.06626	28616.825
405.21485	29110.925
409.36047	28932.525
413.50311	28084.325
417.64277	27331.225
421.77947	26902.825
425.9132	26834.925
430.04396	26913.525
434.17176	27050.125
438.2966	27364.325
442.41849	27898.725
446.53742	28595.325
450.6534	29367.125
454.76644	30020.125
458.87653	30299.125
462.98368	30228.725
467.08789	29811.125
471.18916	29243.025
475.2875	28538.225
479.38291	28017.925
483.4754	27615.425
487.56496	27315.425
491.6516	26998.325
495.73531	26845.825
499.81612	26808.925
503.89401	26977.325
507.96899	27158.225
512.04106	27409.625
516.11023	27633.325
520.1765	27821.825
524.23987	27726.825
528.30034	27430.925
532.35792	27084.425
536.41261	26665.325
540.46441	26287.825
544.51333	26143.225
548.55936	26323.025
552.60252	26723.725
556.64279	27132.725
560.6802	27428.625
564.71473	27615.225
568.7464	28222.925
572.7752	28806.825
576.80114	28681.825
580.82422	28349.625
584.84444	28305.025
588.86181	28379.125
592.87633	28587.725
596.888	28922.525
600.89682	29774.525
604.9028	32201.525
608.90594	37810.625
612.90624	44431.525
616.90371	42576.325
620.89834	33275.025
624.89015	28932.525
628.87913	28118.225
632.86528	28076.425
636.84862	28171.525
640.82913	27784.325
644.80683	27006.225
648.78172	26488.225
652.75379	26531.325
656.72306	27275.325
660.68952	28133.325
664.65319	28007.725
668.61405	27231.125
672.57211	26825.525
676.52738	26796.725
680.47986	26841.425
684.42955	26768.825
688.37646	26714.825
692.32058	26867.625
696.26192	27099.025
700.20048	27392.525
704.13626	27568.625
708.06928	27406.725
711.99952	27211.425
715.927	27100.825
719.85171	27117.625
723.77365	27032.725
727.69284	26832.825
731.60928	26706.825
735.52295	26702.425
739.43388	26776.525
743.34206	26968.725
747.24749	27140.225
751.15017	27380.425
755.05012	27822.425
758.94733	28742.825
762.8418	30561.525
766.73354	33599.925
770.62254	36825.325
774.50882	38265.025
778.39237	36709.825
782.27321	33282.125
786.15132	30138.525
790.02671	28351.225
793.89938	27484.925
797.76935	27219.525
801.6366	27053.225
805.50115	26938.725
809.36299	26812.825
813.22213	26725.125
817.07857	26717.725
820.93231	26662.925
824.78336	26732.525
828.63172	26872.725
832.47738	26940.025
836.32036	26981.125
840.16066	26981.325
843.99827	26988.625
847.8332	26972.525
851.66546	26899.525
855.49504	26866.525
859.32195	26805.325
863.1462	26729.425
866.96777	26622.525
870.78668	26585.525
874.60293	26640.925
878.41652	26704.725
882.22745	26805.225
886.03573	26908.425
889.84136	26856.825
893.64433	26774.625
897.44466	26662.525
901.24235	26698.625
905.0374	26604.825
908.8298	26628.825
912.61957	26594.425
916.40671	26763.525
920.19121	27028.025
923.97308	27315.325
927.75233	27532.625
931.52895	27669.325
935.30295	27476.425
939.07433	26982.125
942.84309	26579.225
946.60924	26364.025
950.37278	26245.925
954.13371	26101.525
957.89203	25912.325
961.64774	25812.925
965.40086	25777.225
969.15137	25663.025
972.89929	25639.525
976.64461	25616.425
980.38733	25743.325
984.12747	25819.925
987.86502	26072.825
991.59999	26324.825
995.33237	26740.525
999.06217	27450.625
1002.78939	28344.125
1006.51404	29070.725
1010.23611	29626.625
1013.95561	30008.325
1017.67255	29975.825
1021.38692	29640.025
1025.09872	29421.025
1028.80796	29553.925
1032.51465	30234.025
1036.21877	30840.025
1039.92035	30968.125
1043.61937	30594.525
1047.31584	29842.725
1051.00976	29058.925
1054.70114	28550.025
1058.38998	28397.325
1062.07627	28429.225
1065.76003	28578.325
1069.44126	28692.325
1073.11995	28942.525
1076.79611	29178.725
1080.46974	29419.925
1084.14085	29795.425
1087.80943	30186.325
1091.47549	30313.725
1095.13903	29979.125
1098.80005	29358.725
1102.45857	28800.825
1106.11456	28521.825
1109.76805	28614.425
1113.41903	28926.425
1117.06751	29356.225
1120.71348	29901.025
1124.35696	30483.225
1127.99793	31094.425
1131.63641	31144.125
1135.2724	30569.325
1138.90589	29858.625
1142.5369	29348.725
1146.16542	29069.925
1149.79145	28917.525
1153.415	28965.625
1157.03607	29165.225
1160.65467	29654.425
1164.27079	30360.625
1167.88443	31461.625
1171.49561	33180.425
1175.10432	35823.525
1178.71056	39358.525
1182.31434	42548.525
1185.91565	44153.525
1189.51451	43997.525
1193.11091	42208.725
1196.70485	39650.625
1200.29634	37514.225
1203.88538	36051.125
1207.47197	34580.325
1211.05612	33498.225
1214.63782	32923.825
1218.21708	32821.025
1221.79391	32984.125
1225.36829	33181.325
1228.94024	33401.825
1232.50976	33464.025
1236.07685	33515.725
1239.6415	33479.225
1243.20374	33540.725
1246.76355	33663.425
1250.32093	34039.325
1253.8759	34684.125
1257.42845	35602.125
1260.97859	36440.525
1264.52631	37082.225
1268.07163	37806.925
1271.61453	38595.425
1275.15503	39436.925
1278.69312	40204.025
1282.22882	40761.725
1285.76211	41463.125
1289.29301	42212.925
1292.82151	43000.625
1296.34761	43895.225
1299.87133	45171.125
1303.39266	47428.025
1306.9116	50878.225
1310.42815	54813.025
1313.94233	57661.225
1317.45412	57734.925
1320.96354	55838.425
1324.47058	53462.825
1327.97525	51220.725
1331.47754	49796.925
1334.97747	49424.225
1338.47502	49890.525
1341.97022	50619.925
1345.46305	51101.325
1348.95352	51648.025
1352.44163	52655.225
1355.92738	54910.425
1359.41078	59280.125
1362.89183	63872.525
1366.37053	63028.125
1369.84688	56251.225
1373.32088	49030.925
1376.79254	44295.125
1380.26186	42012.325
1383.72883	40884.625
1387.19347	39979.425
1390.65578	39031.025
1394.11575	38425.225
1397.57339	38377.025
1401.0287	38807.425
1404.48168	39647.425
1407.93234	40676.925
1411.38068	41643.325
1414.82669	41856.625
1418.27039	41311.325
1421.71177	40357.725
1425.15083	39359.125
1428.58758	38784.325
1432.02203	38689.425
1435.45416	38829.625
1438.88399	38977.725
1442.31151	39085.825
1445.73673	39301.925
1449.15965	39525.725
1452.58027	39489.425
1455.9986	39224.825
1459.41463	39104.225
1462.82837	39297.325
1466.23982	39849.825
1469.64898	40534.725
1473.05586	41123.225
1476.46045	41484.825
1479.86276	41964.525
1483.26279	42595.925
1486.66054	43389.825
1490.05602	44270.125
1493.44922	45367.325
1496.84016	46575.025
1500.22882	48188.725
1503.61521	50478.725
1506.99934	53376.525
1510.38121	56449.625
1513.76081	58096.925
1517.13816	56736.425
1520.51324	52864.325
1523.88607	48581.325
1527.25665	45375.225
1530.62498	43435.225
1533.99105	42125.425
1537.35488	41382.725
1540.71647	40942.325
1544.07581	40689.025
1547.4329	40555.325
1550.78776	40362.725
1554.14038	40288.425
1557.49077	40444.925
1560.83892	40687.825
1564.18484	41013.425
1567.52853	41253.525
1570.86999	41269.025
1574.20922	41448.725
1577.54624	41442.525
1580.88103	40721.125
1584.2136	39905.525
1587.54395	39955.025
1590.87208	41248.725
1594.19801	43531.925
1597.52172	46149.725
1600.84321	47275.725
1604.16251	46026.925
1607.47959	43288.125
1610.79447	40261.225
1614.10715	37480.125
1617.41763	35279.325
1620.7259	33867.125
1624.03199	33288.825
1627.33587	33419.125
1630.63757	34206.325
1633.93707	35739.225
1637.23439	37850.025
1640.52951	40252.025
1643.82246	42817.225
1647.11321	45182.125
1650.40179	46348.025
1653.68819	44868.225
1656.97241	40534.925
1660.25446	35825.625
1663.53433	32361.825
1666.81203	30209.825
1670.08756	28875.225
1673.36092	28043.625
1676.63211	27507.525
1679.90115	27161.525
1683.16801	26835.525
1686.43272	26644.725
1689.69527	26448.725
1692.95567	26343.725
1696.2139	26297.725
1699.46999	26219.025
1702.72392	26212.625
1705.97571	26188.725
1709.22535	26135.025
1712.47284	26186.725
1715.71819	26164.325
1718.96139	26175.125
1722.20246	26150.925
1725.44139	26066.325
1728.67818	25937.525
1731.91284	25809.425
1735.14537	25693.125
1738.37576	25589.225
1741.60403	25525.025
1744.83017	25429.125
1748.05418	25411.425
1751.27607	25358.325
1754.49584	25315.825
1757.71349	25333.625
1760.92903	25326.425
1764.14244	25313.425
1767.35375	25299.625
1770.56294	25240.125
1773.77002	25235.125
1776.97499	25213.125
1780.17785	25163.525
1783.37861	25194.425
1786.57727	25117.625
1789.77382	25098.625
1792.96828	25107.325
1796.16064	25064.325
1799.3509	25042.425
1802.53907	25044.925
1805.72514	24964.225
1808.90913	24906.325
1812.09102	24936.525
1815.27083	24868.725
1818.44856	24818.125
1821.6242	24789.825
1824.79776	24842.225
1827.96924	24774.825
1831.13864	24785.225
1834.30597	24783.625
1837.47122	24780.425
1840.6344	24752.025
1843.7955	24769.825
1846.95454	24781.325
1850.11151	24762.125
1853.26642	24759.925
1856.41926	24810.625
1859.57004	24853.825
1862.71876	24856.125
1865.86542	24844.225
1869.01003	24843.925
1872.15258	24876.725
1875.29308	24870.325
1878.43152	24876.325
1881.56792	24910.825
1884.70227	24913.025
1887.83457	24977.425
1890.96482	24964.025
1894.09304	24947.925
1897.21921	24943.725
1900.34335	24960.825
1903.46544	24960.825
1906.58551	24983.325
1909.70353	24948.725
1912.81953	24954.625
1915.93349	24930.625
1919.04543	24919.925
1922.15534	24840.125
1925.26322	24807.625
1928.36908	24759.725
1931.47292	24678.725
1934.57473	24597.025
1937.67453	24504.525
1940.77232	24406.325
1943.86808	24324.025
1946.96184	24218.525
1950.05358	24157.225
1953.14331	24045.225
1956.23103	23993.425
1959.31675	23918.825
1962.40046	23816.825
1965.48217	23774.325
1968.56188	23720.625
1971.63959	23647.225
1974.7153	23561.825
1977.78901	23503.125
1980.86073	23399.325
1983.93046	23361.825
1986.99819	23288.625
1990.06394	23183.825
1993.1277	23139.825
1996.18947	23034.825
1999.24925	23016.625
2002.30706	22961.525
2005.36288	22850.425
2008.41672	22857.325
2011.46859	22804.425
2014.51848	22708.425
2017.56639	22614.625
2020.61233	22605.025
2023.6563	22534.725
2026.6983	22505.825
2029.73833	22485.125
2032.7764	22441.825
2035.8125	22377.925
2038.84664	22340.625
2041.87881	22326.525
2044.90903	22306.625
2047.93729	22262.825
2050.96359	22273.325
2053.98794	22182.725
2057.01034	22189.325
2060.03078	22186.325
2063.04927	22126.625
2066.06582	22114.225
2069.08042	22111.325
2072.09307	22085.225
2075.10378	22023.025
2078.11255	22001.025
2081.11938	22002.625
2084.12426	21983.425
2087.12722	21989.425
2090.12824	21977.525
2093.12732	22015.125
2096.12447	21999.025
2099.11969	21992.725
2102.11299	22013.725
2105.10435	21999.325
2108.09379	22035.225
2111.08131	22033.925
2114.0669	22069.625
2117.05057	22062.925
2120.03233	22047.225
2123.01216	22050.725
2125.99008	22088.025
2128.96609	22132.825
2131.94018	22137.925
2134.91236	22150.325
2137.88263	22196.425
2140.851	22162.525
2143.81746	22189.225
2146.78201	22196.225
2149.74466	22197.725
2152.7054	22147.325
2155.66425	22192.625
2158.6212	22206.225
2161.57625	22147.025
2164.52941	22181.425
2167.48067	22183.925
2170.43004	22181.225
2173.37752	22147.925
2176.32311	22187.025
2179.26681	22156.125
2182.20863	22203.525
2185.14856	22167.625
2188.08661	22188.425
2191.02278	22180.125
2193.95707	22171.825
2196.88948	22183.525
2199.82001	22189.725
2202.74867	22172.125
2205.67545	22169.625
2208.60037	22171.925
2211.52341	22150.225
2214.44458	22130.325
2217.36388	22070.925
2220.28132	22038.025
2223.1969	22034.225
2226.11061	21989.225
2229.02246	21940.825
2231.93245	21895.225
2234.84058	21832.025
2237.74686	21813.525
2240.65128	21765.725
2243.55385	21770.325
2246.45456	21729.725
2249.35343	21741.625
2252.25044	21678.125
2255.14561	21669.525
2258.03893	21645.925
2260.93041	21640.325
2263.82004	21568.825
2266.70783	21528.425
2269.59378	21454.225
2272.4779	21453.525
2275.36017	21369.025
2278.24061	21365.425
2281.11922	21295.725
2283.996	21284.825
2286.87094	21251.725
2289.74405	21189.525
2292.61534	21180.225
2295.4848	21172.625
2298.35243	21197.125
2301.21824	21169.925
2304.08223	21204.225
2306.94439	21184.425
2309.80474	21197.925
2312.66327	21184.525
2315.51999	21195.025
2318.37489	21197.825
2321.22797	21189.725
2324.07925	21168.225
2326.92871	21125.225
2329.77637	21102.825
2332.62222	21097.025
2335.46626	21109.125
2338.3085	21098.325
2341.14893	21091.425
2343.98756	21106.125
2346.8244	21121.325
2349.65943	21112.725
2352.49267	21091.125
2355.32411	21057.825
2358.15376	21068.725
2360.98161	21040.225
2363.80768	21007.325
2366.63195	21016.725
2369.45444	21015.325
2372.27514	20914.925
2375.09405	20915.425
2377.91118	20849.225
2380.72652	20773.125
2383.54009	20730.425
2386.35187	20722.225
2389.16188	20658.525
2391.97011	20645.425
2394.77657	20587.925
2397.58125	20567.325
2400.38416	20533.225
2403.18529	20516.125
2405.98466	20449.625
2408.78226	20405.325
2411.57809	20373.725
2414.37216	20352.725
2417.16446	20323.425
2419.955	20275.725
2422.74378	20255.625
2425.5308	20277.825
2428.31606	20239.825
2431.09956	20261.725
2433.88131	20167.825
2436.6613	20193.325
2439.43954	20161.625
2442.21603	20182.025
2444.99077	20169.525
2447.76377	20186.125
2450.53501	20160.425
2453.30451	20148.525
2456.07226	20129.225
2458.83827	20087.325
2461.60254	20094.825
2464.36507	20085.025
2467.12586	20072.425
2469.88492	20062.525
2472.64224	20055.725
2475.39782	20068.925
2478.15167	20078.325
2480.90379	20099.425
2483.65417	20086.525
2486.40283	20106.225
2489.14976	20113.125
2491.89497	20086.625
2494.63845	20140.625
2497.3802	20129.725
2500.12024	20136.025
2502.85855	20111.325
2505.59514	20086.625
2508.33002	20071.225
2511.06318	20034.025
2513.79462	19960.725
2516.52435	19983.925
2519.25237	19973.925
2521.97867	19921.725
2524.70327	19889.125
2527.42616	19894.425
2530.14734	19854.925
2532.86681	19834.425
2535.58458	19851.725
2538.30065	19768.525
2541.01501	19823.225
2543.72768	19774.125
2546.43864	19757.125
2549.14791	19716.725
2551.85548	19716.225
2554.56136	19673.525
2557.26554	19673.825
2559.96803	19596.825
2562.66883	19631.825
2565.36794	19610.825
2568.06536	19610.825
2570.7611	19588.525
2573.45514	19542.325
2576.14751	19538.025
2578.83819	19485.525
2581.52719	19515.025
2584.21451	19509.025
2586.90015	19530.025
2589.58411	19493.825
2592.2664	19484.025
2594.94701	19420.225
2597.62594	19429.125
2600.30321	19391.325
2602.9788	19418.225
2605.65273	19366.325
2608.32498	19409.625
2610.99557	19363.825
2613.66449	19394.025
2616.33175	19356.625
2618.99734	19398.525
2621.66128	19368.525
2624.32355	19328.125
2626.98416	19344.325
2629.64311	19375.525
2632.30041	19398.525
2634.95605	19316.725
2637.61004	19302.225
2640.26238	19229.525
2642.91306	19238.025
2645.56209	19212.225
2648.20948	19164.925
2650.85521	19178.925
2653.4993	19167.925
2656.14175	19172.125
2658.78255	19179.125
2661.42171	19164.225
2664.05923	19202.025
2666.6951	19194.325
2669.32934	19218.225
2671.96194	19233.025
2674.59291	19253.525
2677.22224	19256.225
2679.84993	19264.025
2682.476	19253.425
2685.10043	19255.825
2687.72324	19234.625
2690.34441	19242.825
2692.96396	19239.125
2695.58188	19210.425
2698.19818	19194.625
2700.81285	19226.325
2703.4259	19201.125
2706.03733	19187.525
2708.64714	19219.125
2711.25533	19231.025
2713.86191	19194.125
2716.46687	19219.725
2719.07021	19182.525
2721.67194	19216.125
2724.27206	19205.925
2726.87057	19187.825
2729.46747	19193.825
2732.06276	19203.825
2734.65644	19198.625
2737.24852	19203.625
2739.83899	19176.725
2742.42786	19192.625
2745.01513	19185.325
2747.60079	19153.725
2750.18486	19175.125
2752.76733	19187.925
2755.3482	19148.225
2757.92747	19146.325
2760.50515	19142.325
2763.08123	19114.025
2765.65573	19083.025
2768.22863	19049.325
2770.79994	19019.525
2773.36967	19057.625
2775.9378	19058.025
2778.50435	19017.725
2781.06932	18984.025
2783.6327	19016.825
2786.1945	18988.725
2788.75471	18979.925
2791.31335	18921.725
2793.87041	18888.025
2796.42589	18883.425
2798.97979	18848.725
2801.53212	18793.725
2804.08288	18801.325
2806.63206	18764.825
2809.17967	18772.725
2811.72571	18710.825
2814.27018	18739.125
2816.81308	18708.025
2819.35442	18686.925
2821.89419	18659.925
2824.43239	18672.425
2826.96904	18660.025
2829.50412	18658.225
2832.03763	18609.825
2834.56959	18661.725
2837.1	18586.425
2839.62884	18653.325
2842.15613	18590.025
2844.68186	18655.625
2847.20604	18637.425
2849.72867	18696.725
2852.24974	18655.725
2854.76927	18622.225
2857.28724	18626.125
2859.80367	18572.825
2862.31855	18557.525
2864.83189	18523.025
2867.34368	18522.925
2869.85393	18522.125
2872.36264	18513.925
2874.8698	18519.325
2877.37543	18501.825
2879.87952	18520.025
2882.38207	18525.625
2884.88308	18502.125
2887.38256	18507.425
2889.88051	18539.825
2892.37692	18505.525
2894.8718	18497.025
2897.36515	18511.725
2899.85698	18500.325
2902.34727	18526.125
2904.83604	18521.725
2907.32328	18553.425
2909.809	18536.525
2912.29319	18534.625
2914.77587	18518.525
2917.25702	18519.725
2919.73665	18512.625
2922.21476	18506.125
2924.69136	18498.625
2927.16644	18447.025
2929.64	18427.825
2932.11205	18425.325
2934.58258	18359.525
2937.05161	18387.425
2939.51912	18390.825
2941.98513	18322.525
2944.44962	18292.025
2946.91261	18226.325
2949.37409	18230.525
2951.83407	18206.025
2954.29254	18177.425
2956.74951	18159.825
2959.20498	18114.825
2961.65895	18106.025
2964.11142	18073.825
2966.56239	18040.725
2969.01186	18034.025
2971.45984	17958.925
2973.90632	17909.825
2976.35131	17892.125
2978.7948	17851.925
2981.23681	17793.425
2983.67732	17747.125
2986.11635	17731.625
2988.55388	17685.025
2990.98993	17621.125
2993.4245	17593.325
2995.85758	17560.825
2998.28917	17534.025
3000.71928	17537.425
3003.14791	17497.325
3005.57506	17495.125
3008.00073	17463.925
3010.42493	17454.125
3012.84764	17408.925
3015.26888	17398.425
3017.68865	17359.325
3020.10694	17337.425
3022.52376	17259.425
3024.9391	17235.525
3027.35298	17263.225
3029.76539	17182.725
3032.17632	17142.125
3034.5858	17129.525
3036.9938	17084.425
3039.40034	17116.725
3041.80542	17074.425
3044.20903	17035.925
3046.61118	17053.625
3049.01187	16986.725
3051.4111	16975.125
3053.80888	16929.125
3056.20519	16880.525
3058.60005	16832.025
3060.99345	16782.625
3063.3854	16777.825
3065.7759	16705.825
3068.16494	16692.625
3070.55254	16613.925
3072.93868	16549.725
3075.32338	16539.325
3077.70662	16517.425
3080.08842	16466.425
3082.46878	16457.525
3084.84769	16403.225
3087.22515	16396.625
3089.60118	16380.725
3091.97576	16346.625
3094.3489	16369.825
3096.72061	16371.525
3099.09087	16346.225
3101.4597	16326.125
3103.82709	16314.225
3106.19305	16270.125
3108.55757	16263.925
3110.92066	16196.125
3113.28232	16159.825
3115.64255	16118.525
3118.00134	16063.125
3120.35871	16073.525
3122.71466	16044.025
3125.06917	16011.225
3127.42226	15972.525
