Data from AgNPs_FTO_APTES_UA_100uM_R6G_10uM_NaF_0.1M_Addition_RamanShift__28__15-49-47-478.txt Node

Date: Fri Dec 17 15:49:47 GMT 2021
User: TCL
Spectrometer: QEP01345
Trigger mode: 4
Integration Time (sec): 7.000000E0
Scans to average: 10
Electric dark correction enabled: true
Nonlinearity correction enabled: false
Boxcar width: 0
XAxis mode: Raman Shifts
Number of Pixels in Spectrum: 1044
>>>>>Begin Spectral Data<<<<<
46.04893	-0.675
50.45542	1.125
54.85868	-1.175
59.25871	0.325
63.6555	57.125
68.04907	60.125
72.43941	63.525
76.82654	68.325
81.21044	68.025
85.59113	74.725
89.96862	77.125
94.34289	78.625
98.71396	81.525
103.08183	81.825
107.4465	85.325
111.80798	84.925
116.16626	88.425
120.52136	88.425
124.87327	90.925
129.222	97.025
133.56755	97.525
137.90993	100.325
142.24913	112.625
146.58517	119.825
150.91804	134.825
155.24774	152.425
159.57429	187.125
163.89768	229.825
168.21792	300.925
172.53501	400.625
176.84895	554.525
181.15975	763.625
185.46741	1055.825
189.77193	1465.325
194.07331	1950.425
198.37157	2523.725
202.6667	3116.425
206.9587	3707.725
211.24758	4270.825
215.53334	4862.325
219.81599	5467.025
224.09553	6152.325
228.37195	6911.125
232.64527	7740.425
236.91549	8647.525
241.18261	9490.325
245.44663	10290.025
249.70755	10960.725
253.96539	11594.425
258.22014	12112.025
262.4718	12531.825
266.72039	12846.925
270.96589	13034.525
275.20832	13066.325
279.44768	12957.425
283.68397	12786.425
287.91719	12611.025
292.14735	12529.525
296.37445	12583.125
300.59849	12739.725
304.81948	12953.225
309.03742	13058.325
313.25231	12938.225
317.46415	12559.525
321.67296	12041.325
325.87872	11617.425
330.08145	11435.325
334.28114	11416.925
338.47781	11569.725
342.67145	11739.825
346.86207	12025.625
351.04966	12440.325
355.23424	12857.625
359.4158	13242.825
363.59435	13496.225
367.76989	13655.225
371.94243	13725.125
376.11196	13837.725
380.27849	13855.625
384.44203	13833.925
388.60257	13805.125
392.76012	13802.025
396.91468	13864.825
401.06626	14110.025
405.21485	14271.425
409.36047	14178.225
413.50311	13809.825
417.64277	13399.625
421.77947	13138.025
425.9132	13062.925
430.04396	13045.225
434.17176	13095.325
438.2966	13217.525
442.41849	13312.125
446.53742	13547.325
450.6534	13743.825
454.76644	13905.425
458.87653	13934.725
462.98368	13934.125
467.08789	13859.925
471.18916	13754.925
475.2875	13622.125
479.38291	13480.325
483.4754	13369.025
487.56496	13311.025
491.6516	13284.825
495.73531	13254.125
499.81612	13288.325
503.89401	13350.325
507.96899	13389.625
512.04106	13525.025
516.11023	13669.725
520.1765	13759.525
524.23987	13782.725
528.30034	13681.125
532.35792	13516.725
536.41261	13380.125
540.46441	13202.325
544.51333	13138.725
548.55936	13159.025
552.60252	13242.525
556.64279	13415.825
560.6802	13500.225
564.71473	13513.025
568.7464	13723.425
572.7752	13875.625
576.80114	13709.225
580.82422	13551.425
584.84444	13478.725
588.86181	13436.725
592.87633	13449.725
596.888	13540.625
600.89682	13809.925
604.9028	14675.525
608.90594	16979.525
612.90624	19889.425
616.90371	19451.825
620.89834	15719.325
624.89015	13924.625
628.87913	13644.625
632.86528	13729.525
636.84862	13910.725
640.82913	13817.925
644.80683	13475.725
648.78172	13164.925
652.75379	13129.425
656.72306	13302.625
660.68952	13618.725
664.65319	13522.125
668.61405	13216.025
672.57211	13079.425
676.52738	13029.025
680.47986	13030.725
684.42955	12975.425
688.37646	12952.025
692.32058	12957.725
696.26192	13020.925
700.20048	13097.325
704.13626	13161.225
708.06928	13122.025
711.99952	13086.325
715.927	13040.925
719.85171	13094.525
723.77365	13047.825
727.69284	12998.325
731.60928	12954.025
735.52295	12931.225
739.43388	12930.525
743.34206	12948.625
747.24749	12953.725
751.15017	12966.325
755.05012	13090.225
758.94733	13384.125
762.8418	14063.925
766.73354	15313.125
770.62254	16742.825
774.50882	17613.325
778.39237	17126.725
782.27321	15595.125
786.15132	14203.525
790.02671	13389.125
793.89938	13046.725
797.76935	12856.125
801.6366	12812.325
805.50115	12796.925
809.36299	12831.325
813.22213	12856.525
817.07857	12822.225
820.93231	12756.625
824.78336	12716.425
828.63172	12697.725
832.47738	12679.525
836.32036	12647.525
840.16066	12616.125
843.99827	12604.425
847.8332	12568.025
851.66546	12540.225
855.49504	12547.425
859.32195	12519.125
863.1462	12482.425
866.96777	12499.725
870.78668	12476.425
874.60293	12507.225
878.41652	12538.625
882.22745	12615.425
886.03573	12667.425
889.84136	12657.325
893.64433	12611.625
897.44466	12517.025
901.24235	12434.125
905.0374	12408.125
908.8298	12357.125
912.61957	12302.225
916.40671	12314.925
920.19121	12365.625
923.97308	12426.825
927.75233	12406.925
931.52895	12468.425
935.30295	12427.325
939.07433	12273.125
942.84309	12123.125
946.60924	12035.425
950.37278	11940.425
954.13371	11893.325
957.89203	11814.825
961.64774	11800.525
965.40086	11736.225
969.15137	11689.925
972.89929	11691.925
976.64461	11683.925
980.38733	11653.225
984.12747	11679.525
987.86502	11697.325
991.59999	11707.925
995.33237	11774.725
999.06217	11906.825
1002.78939	12046.925
1006.51404	12178.925
1010.23611	12367.025
1013.95561	12473.425
1017.67255	12475.625
1021.38692	12430.525
1025.09872	12314.225
1028.80796	12259.425
1032.51465	12261.725
1036.21877	12315.325
1039.92035	12308.925
1043.61937	12308.725
1047.31584	12252.625
1051.00976	12205.325
1054.70114	12192.625
1058.38998	12199.025
1062.07627	12269.225
1065.76003	12333.425
1069.44126	12395.825
1073.11995	12447.125
1076.79611	12500.325
1080.46974	12570.425
1084.14085	12653.025
1087.80943	12753.525
1091.47549	12817.325
1095.13903	12737.725
1098.80005	12514.125
1102.45857	12304.925
1106.11456	12189.825
1109.76805	12227.125
1113.41903	12357.525
1117.06751	12564.325
1120.71348	12850.125
1124.35696	13138.125
1127.99793	13414.425
1131.63641	13522.525
1135.2724	13268.725
1138.90589	12933.125
1142.5369	12718.725
1146.16542	12498.325
1149.79145	12327.725
1153.415	12246.625
1157.03607	12236.625
1160.65467	12340.425
1164.27079	12547.525
1167.88443	12874.825
1171.49561	13401.025
1175.10432	14263.825
1178.71056	15526.925
1182.31434	16593.225
1185.91565	17004.825
1189.51451	16783.325
1193.11091	16088.825
1196.70485	15285.025
1200.29634	14661.125
1203.88538	14232.525
1207.47197	13747.225
1211.05612	13291.725
1214.63782	12938.225
1218.21708	12757.525
1221.79391	12711.025
1225.36829	12680.825
1228.94024	12685.125
1232.50976	12648.425
1236.07685	12729.625
1239.6415	12751.625
1243.20374	12809.525
1246.76355	12884.725
1250.32093	12985.925
1253.8759	13133.325
1257.42845	13335.125
1260.97859	13536.725
1264.52631	13707.725
1268.07163	13913.825
1271.61453	14119.525
1275.15503	14300.425
1278.69312	14369.825
1282.22882	14400.425
1285.76211	14512.725
1289.29301	14728.525
1292.82151	15072.825
1296.34761	15373.625
1299.87133	15885.225
1303.39266	16696.825
1306.9116	17931.825
1310.42815	19264.625
1313.94233	20119.325
1317.45412	19856.425
1320.96354	18945.925
1324.47058	17858.025
1327.97525	16973.925
1331.47754	16338.525
1334.97747	16128.725
1338.47502	16177.025
1341.97022	16431.125
1345.46305	16866.025
1348.95352	17471.025
1352.44163	18309.625
1355.92738	19570.825
1359.41078	21513.925
1362.89183	23646.325
1366.37053	23601.025
1369.84688	20916.425
1373.32088	17986.525
1376.79254	16044.725
1380.26186	15062.025
1383.72883	14588.925
1387.19347	14253.325
1390.65578	13908.525
1394.11575	13557.325
1397.57339	13359.925
1401.0287	13289.425
1404.48168	13315.025
1407.93234	13367.925
1411.38068	13451.325
1414.82669	13452.325
1418.27039	13348.125
1421.71177	13228.625
1425.15083	13050.825
1428.58758	12910.825
1432.02203	12880.825
1435.45416	12917.825
1438.88399	12950.025
1442.31151	12917.125
1445.73673	12980.625
1449.15965	13025.525
1452.58027	13039.725
1455.9986	12995.825
1459.41463	12984.425
1462.82837	13051.725
1466.23982	13241.425
1469.64898	13421.925
1473.05586	13592.625
1476.46045	13736.125
1479.86276	13888.425
1483.26279	14109.925
1486.66054	14345.925
1490.05602	14643.525
1493.44922	15062.025
1496.84016	15721.025
1500.22882	16777.425
1503.61521	18272.225
1506.99934	20003.925
1510.38121	21585.925
1513.76081	22268.925
1517.13816	21476.425
1520.51324	19540.625
1523.88607	17515.725
1527.25665	16044.825
1530.62498	15233.225
1533.99105	14754.325
1537.35488	14502.625
1540.71647	14369.525
1544.07581	14277.125
1547.4329	14288.725
1550.78776	14314.925
1554.14038	14311.125
1557.49077	14422.225
1560.83892	14595.025
1564.18484	14782.525
1567.52853	15021.025
1570.86999	15253.125
1574.20922	15442.725
1577.54624	15443.925
1580.88103	15027.125
1584.2136	14373.425
1587.54395	13911.025
1590.87208	13833.925
1594.19801	14184.825
1597.52172	14757.125
1600.84321	15052.625
1604.16251	14824.825
1607.47959	14314.725
1610.79447	13766.225
1614.10715	13205.125
1617.41763	12642.625
1620.7259	12233.825
1624.03199	12038.825
1627.33587	12012.925
1630.63757	12073.425
1633.93707	12343.625
1637.23439	12828.125
1640.52951	13463.525
1643.82246	14424.025
1647.11321	15632.325
1650.40179	16679.425
1653.68819	16697.225
1656.97241	15424.925
1660.25446	13732.625
1663.53433	12450.125
1666.81203	11699.225
1670.08756	11229.025
1673.36092	10952.925
1676.63211	10732.325
1679.90115	10555.725
1683.16801	10452.725
1686.43272	10354.225
1689.69527	10274.725
1692.95567	10242.425
1696.2139	10251.525
1699.46999	10175.025
1702.72392	10165.725
1705.97571	10098.225
1709.22535	10067.025
1712.47284	10069.825
1715.71819	10028.225
1718.96139	10013.625
1722.20246	9971.825
1725.44139	9950.225
1728.67818	9874.825
1731.91284	9830.925
1735.14537	9784.725
1738.37576	9765.125
1741.60403	9742.625
1744.83017	9697.525
1748.05418	9683.725
1751.27607	9666.625
1754.49584	9673.625
1757.71349	9657.225
1760.92903	9640.725
1764.14244	9629.925
1767.35375	9615.425
1770.56294	9594.525
1773.77002	9566.025
1776.97499	9547.725
1780.17785	9552.225
1783.37861	9502.125
1786.57727	9500.125
1789.77382	9471.725
1792.96828	9455.925
1796.16064	9434.825
1799.3509	9463.525
1802.53907	9437.425
1805.72514	9384.025
1808.90913	9379.725
1812.09102	9352.425
1815.27083	9336.925
1818.44856	9318.025
1821.6242	9277.525
1824.79776	9279.525
1827.96924	9252.825
1831.13864	9267.325
1834.30597	9278.725
1837.47122	9241.725
1840.6344	9232.325
1843.7955	9224.625
1846.95454	9203.825
1850.11151	9190.625
1853.26642	9210.525
1856.41926	9219.625
1859.57004	9218.425
1862.71876	9194.225
1865.86542	9187.725
1869.01003	9190.425
1872.15258	9183.425
1875.29308	9149.025
1878.43152	9157.025
1881.56792	9155.225
1884.70227	9128.625
1887.83457	9123.825
1890.96482	9118.625
1894.09304	9110.125
1897.21921	9102.925
1900.34335	9090.825
1903.46544	9065.925
1906.58551	9074.425
1909.70353	9058.325
1912.81953	9031.925
1915.93349	9045.225
1919.04543	9036.725
1922.15534	8996.925
1925.26322	8984.425
1928.36908	8968.825
1931.47292	8958.225
1934.57473	8937.425
1937.67453	8887.525
1940.77232	8890.225
1943.86808	8843.725
1946.96184	8853.125
1950.05358	8823.225
1953.14331	8818.625
1956.23103	8774.125
1959.31675	8740.125
1962.40046	8734.525
1965.48217	8705.625
1968.56188	8683.425
1971.63959	8648.325
1974.7153	8636.025
1977.78901	8597.725
1980.86073	8568.125
1983.93046	8545.525
1986.99819	8521.625
1990.06394	8502.625
1993.1277	8466.925
1996.18947	8437.525
1999.24925	8427.625
2002.30706	8401.525
2005.36288	8374.025
2008.41672	8378.725
2011.46859	8315.925
2014.51848	8300.225
2017.56639	8273.725
2020.61233	8250.725
2023.6563	8221.325
2026.6983	8224.225
2029.73833	8201.625
2032.7764	8168.125
2035.8125	8152.825
2038.84664	8158.625
2041.87881	8139.925
2044.90903	8145.125
2047.93729	8113.525
2050.96359	8108.625
2053.98794	8064.825
2057.01034	8082.425
2060.03078	8066.525
2063.04927	8054.725
2066.06582	8042.525
2069.08042	8040.425
2072.09307	8043.225
2075.10378	8037.425
2078.11255	8013.925
2081.11938	8027.125
2084.12426	8032.525
2087.12722	8030.625
2090.12824	8005.025
2093.12732	8003.625
2096.12447	8011.025
2099.11969	8010.325
2102.11299	8009.225
2105.10435	8005.825
2108.09379	8023.025
2111.08131	8038.025
2114.0669	8047.125
2117.05057	8026.825
2120.03233	8037.825
2123.01216	8056.225
2125.99008	8057.525
2128.96609	8074.325
2131.94018	8076.125
2134.91236	8058.425
2137.88263	8069.525
2140.851	8046.425
2143.81746	8091.925
2146.78201	8085.525
2149.74466	8093.425
2152.7054	8064.025
2155.66425	8073.525
2158.6212	8076.125
2161.57625	8077.325
2164.52941	8049.525
2167.48067	8049.225
2170.43004	8035.225
2173.37752	8061.025
2176.32311	8064.425
2179.26681	8050.425
2182.20863	8039.125
2185.14856	8019.325
2188.08661	8033.625
2191.02278	8041.325
2193.95707	8021.425
2196.88948	8017.925
2199.82001	8016.425
2202.74867	7987.525
2205.67545	8009.625
2208.60037	7979.325
2211.52341	7992.425
2214.44458	7948.425
2217.36388	7922.525
2220.28132	7941.225
2223.1969	7915.025
2226.11061	7914.825
2229.02246	7897.125
2231.93245	7860.525
2234.84058	7846.625
2237.74686	7835.325
2240.65128	7822.625
2243.55385	7836.325
2246.45456	7824.225
2249.35343	7808.825
2252.25044	7796.525
2255.14561	7799.925
2258.03893	7797.725
2260.93041	7759.625
2263.82004	7762.825
2266.70783	7761.025
2269.59378	7725.325
2272.4779	7717.025
2275.36017	7694.925
2278.24061	7677.625
2281.11922	7671.925
2283.996	7664.625
2286.87094	7642.425
2289.74405	7601.325
2292.61534	7617.825
2295.4848	7591.525
2298.35243	7583.625
2301.21824	7595.425
2304.08223	7578.925
2306.94439	7570.525
2309.80474	7560.225
2312.66327	7585.025
2315.51999	7579.625
2318.37489	7546.525
2321.22797	7519.825
2324.07925	7539.925
2326.92871	7529.625
2329.77637	7526.825
2332.62222	7504.625
2335.46626	7499.425
2338.3085	7494.225
2341.14893	7463.525
2343.98756	7463.625
2346.8244	7469.025
2349.65943	7472.425
2352.49267	7481.525
2355.32411	7462.625
2358.15376	7475.725
2360.98161	7468.325
2363.80768	7458.525
2366.63195	7444.725
2369.45444	7461.225
2372.27514	7451.925
2375.09405	7428.925
2377.91118	7424.025
2380.72652	7397.925
2383.54009	7372.725
2386.35187	7370.025
2389.16188	7338.325
2391.97011	7304.725
2394.77657	7294.525
2397.58125	7294.025
2400.38416	7287.625
2403.18529	7258.625
2405.98466	7245.725
2408.78226	7231.525
2411.57809	7215.825
2414.37216	7218.025
2417.16446	7208.525
2419.955	7176.625
2422.74378	7171.725
2425.5308	7182.325
2428.31606	7186.825
2431.09956	7172.325
2433.88131	7156.925
2436.6613	7165.325
2439.43954	7154.525
2442.21603	7157.025
2444.99077	7149.225
2447.76377	7155.425
2450.53501	7137.025
2453.30451	7119.425
2456.07226	7113.425
2458.83827	7127.225
2461.60254	7108.725
2464.36507	7121.225
2467.12586	7096.825
2469.88492	7094.225
2472.64224	7101.525
2475.39782	7094.725
2478.15167	7081.925
2480.90379	7093.325
2483.65417	7096.125
2486.40283	7076.325
2489.14976	7094.325
2491.89497	7107.825
2494.63845	7112.625
2497.3802	7080.925
2500.12024	7066.125
2502.85855	7066.325
2505.59514	7054.225
2508.33002	7024.325
2511.06318	7026.125
2513.79462	7004.225
2516.52435	6992.125
2519.25237	6973.525
2521.97867	6960.825
2524.70327	6964.225
2527.42616	6952.225
2530.14734	6932.425
2532.86681	6940.125
2535.58458	6924.725
2538.30065	6892.225
2541.01501	6899.925
2543.72768	6904.925
2546.43864	6889.425
2549.14791	6863.025
2551.85548	6862.225
2554.56136	6847.725
2557.26554	6841.025
2559.96803	6844.725
2562.66883	6839.125
2565.36794	6812.025
2568.06536	6815.225
2570.7611	6825.525
2573.45514	6797.825
2576.14751	6787.225
2578.83819	6774.325
2581.52719	6780.025
2584.21451	6777.325
2586.90015	6754.525
2589.58411	6731.825
2592.2664	6728.925
2594.94701	6683.425
2597.62594	6704.925
2600.30321	6684.625
2602.9788	6690.825
2605.65273	6680.025
2608.32498	6643.425
2610.99557	6661.325
2613.66449	6646.825
2616.33175	6646.125
2618.99734	6643.025
2621.66128	6643.625
2624.32355	6625.325
2626.98416	6635.225
2629.64311	6612.925
2632.30041	6629.725
2634.95605	6607.425
2637.61004	6603.225
2640.26238	6575.625
2642.91306	6563.325
2645.56209	6570.625
2648.20948	6572.725
2650.85521	6559.725
2653.4993	6538.325
2656.14175	6533.725
2658.78255	6553.225
2661.42171	6545.325
2664.05923	6553.825
2666.6951	6551.525
2669.32934	6558.925
2671.96194	6563.625
2674.59291	6567.425
2677.22224	6544.225
2679.84993	6566.625
2682.476	6568.825
2685.10043	6558.025
2687.72324	6545.125
2690.34441	6544.525
2692.96396	6554.025
2695.58188	6551.825
2698.19818	6540.225
2700.81285	6549.625
2703.4259	6562.325
2706.03733	6564.625
2708.64714	6566.525
2711.25533	6575.625
2713.86191	6547.025
2716.46687	6572.325
2719.07021	6563.025
2721.67194	6563.025
2724.27206	6544.225
2726.87057	6546.425
2729.46747	6553.625
2732.06276	6547.725
2734.65644	6527.425
2737.24852	6551.825
2739.83899	6525.625
2742.42786	6529.425
2745.01513	6514.425
2747.60079	6513.325
2750.18486	6514.125
2752.76733	6491.525
2755.3482	6500.425
2757.92747	6491.725
2760.50515	6463.725
2763.08123	6462.425
2765.65573	6475.525
2768.22863	6475.325
2770.79994	6460.525
2773.36967	6450.325
2775.9378	6449.625
2778.50435	6425.525
2781.06932	6420.325
2783.6327	6400.025
2786.1945	6424.825
2788.75471	6406.425
2791.31335	6371.925
2793.87041	6382.025
2796.42589	6350.525
2798.97979	6367.725
2801.53212	6341.925
2804.08288	6341.825
2806.63206	6338.325
2809.17967	6324.125
2811.72571	6317.925
2814.27018	6306.325
2816.81308	6296.725
2819.35442	6306.825
2821.89419	6273.825
2824.43239	6291.425
2826.96904	6290.525
2829.50412	6275.925
2832.03763	6265.525
2834.56959	6280.525
2837.1	6282.625
2839.62884	6266.325
2842.15613	6273.725
2844.68186	6290.225
2847.20604	6285.125
2849.72867	6299.525
2852.24974	6307.725
2854.76927	6303.725
2857.28724	6291.125
2859.80367	6280.025
2862.31855	6274.525
2864.83189	6250.225
2867.34368	6259.625
2869.85393	6273.825
2872.36264	6254.525
2874.8698	6271.225
2877.37543	6264.125
2879.87952	6250.825
2882.38207	6265.625
2884.88308	6258.825
2887.38256	6265.825
2889.88051	6251.125
2892.37692	6231.025
2894.8718	6250.025
2897.36515	6250.825
2899.85698	6232.125
2902.34727	6280.225
2904.83604	6242.925
2907.32328	6252.625
2909.809	6231.225
2912.29319	6237.425
2914.77587	6261.225
2917.25702	6241.125
2919.73665	6240.825
2922.21476	6249.325
2924.69136	6235.425
2927.16644	6232.625
2929.64	6222.125
2932.11205	6228.825
2934.58258	6205.225
2937.05161	6231.425
2939.51912	6198.925
2941.98513	6183.225
2944.44962	6188.225
2946.91261	6156.525
2949.37409	6177.825
2951.83407	6155.625
2954.29254	6152.725
2956.74951	6168.425
2959.20498	6159.725
2961.65895	6133.125
2964.11142	6137.525
2966.56239	6149.325
2969.01186	6126.025
2971.45984	6102.925
2973.90632	6108.425
2976.35131	6077.925
2978.7948	6071.325
2981.23681	6073.525
2983.67732	6064.425
2986.11635	6035.725
2988.55388	6037.425
2990.98993	6035.725
2993.4245	6044.425
2995.85758	6017.225
2998.28917	6008.825
3000.71928	5994.325
3003.14791	5983.825
3005.57506	6010.125
3008.00073	5981.725
3010.42493	5973.325
3012.84764	5955.925
3015.26888	5957.225
3017.68865	5962.425
3020.10694	5959.325
3022.52376	5944.425
3024.9391	5934.425
3027.35298	5914.925
3029.76539	5925.025
3032.17632	5911.525
3034.5858	5892.925
3036.9938	5894.925
3039.40034	5879.225
3041.80542	5878.525
3044.20903	5869.725
3046.61118	5899.225
3049.01187	5867.025
3051.4111	5870.025
3053.80888	5846.525
3056.20519	5836.725
3058.60005	5837.325
3060.99345	5832.925
3063.3854	5820.025
3065.7759	5827.625
3068.16494	5808.725
3070.55254	5791.825
3072.93868	5794.525
3075.32338	5782.425
3077.70662	5786.925
3080.08842	5782.225
3082.46878	5780.025
3084.84769	5766.925
3087.22515	5765.625
3089.60118	5760.425
3091.97576	5763.525
3094.3489	5768.125
3096.72061	5743.825
3099.09087	5764.025
3101.4597	5758.325
3103.82709	5778.925
3106.19305	5747.525
3108.55757	5752.325
3110.92066	5740.725
3113.28232	5733.625
3115.64255	5711.825
3118.00134	5726.425
3120.35871	5728.025
3122.71466	5707.825
3125.06917	5704.125
3127.42226	5704.225
3129.77393	5713.225
3132.12417	5704.125
3134.47299	5723.825
3136.82039	5719.525
3139.16636	5731.725
3141.51092	5719.225
3143.85406	5713.025
3146.19579	5730.925
3148.53609	5734.425
3150.87499	5747.525
3153.21246	5760.425
3155.54853	5776.625
3157.88318	5764.125
3160.21642	5776.325
3162.54826	5776.325
3164.87868	5774.025
3167.2077	5788.025
3169.5353	5789.825
3171.86151	5795.425
3174.18631	5779.625
3176.5097	5782.225
3178.83169	5760.225
3181.15228	5765.925
3183.47147	5763.425
3185.78926	5776.725
3188.10565	5760.925
3190.42065	5769.025
