Data from AgNPs_FTO_APTES_UA_200uM_R6G_10uM_NaF_0.1M_Addition_RamanShift__39__16-45-47-541.txt Node

Date: Fri Dec 17 16:45:47 GMT 2021
User: TCL
Spectrometer: QEP01345
Trigger mode: 4
Integration Time (sec): 7.000000E0
Scans to average: 10
Electric dark correction enabled: true
Nonlinearity correction enabled: false
Boxcar width: 0
XAxis mode: Raman Shifts
Number of Pixels in Spectrum: 1044
>>>>>Begin Spectral Data<<<<<
46.04893	-0.625
50.45542	-0.225
54.85868	0.075
59.25871	-0.225
63.6555	44.375
68.04907	46.475
72.43941	48.075
76.82654	52.475
81.21044	52.875
85.59113	55.575
89.96862	57.475
94.34289	60.775
98.71396	60.475
103.08183	59.775
107.4465	60.875
111.80798	65.675
116.16626	64.675
120.52136	64.275
124.87327	69.075
129.222	70.375
133.56755	70.375
137.90993	80.875
142.24913	84.475
146.58517	90.875
150.91804	100.975
155.24774	118.275
159.57429	143.575
163.89768	179.075
168.21792	235.475
172.53501	308.775
176.84895	431.275
181.15975	594.375
185.46741	836.075
189.77193	1146.775
194.07331	1538.575
198.37157	1983.875
202.6667	2461.575
206.9587	2943.375
211.24758	3389.975
215.53334	3868.275
219.81599	4341.975
224.09553	4884.575
228.37195	5460.275
232.64527	6117.975
236.91549	6837.575
241.18261	7555.675
245.44663	8222.075
249.70755	8838.175
253.96539	9354.375
258.22014	9780.475
262.4718	10164.875
266.72039	10392.975
270.96589	10519.775
275.20832	10549.275
279.44768	10454.375
283.68397	10288.775
287.91719	10114.575
292.14735	10001.775
296.37445	9951.675
300.59849	9962.675
304.81948	10009.175
309.03742	10010.475
313.25231	9851.675
317.46415	9701.275
321.67296	9446.075
325.87872	9309.675
330.08145	9229.175
334.28114	9257.575
338.47781	9360.775
342.67145	9459.775
346.86207	9622.475
351.04966	9816.675
355.23424	10017.375
359.4158	10237.375
363.59435	10419.275
367.76989	10545.975
371.94243	10666.775
376.11196	10786.975
380.27849	10873.975
384.44203	10919.975
388.60257	10950.775
392.76012	11006.075
396.91468	11094.775
401.06626	11186.075
405.21485	11257.775
409.36047	11205.675
413.50311	11048.075
417.64277	10826.075
421.77947	10722.775
425.9132	10709.475
430.04396	10707.475
434.17176	10728.875
438.2966	10810.175
442.41849	10902.075
446.53742	10973.075
450.6534	11069.275
454.76644	11182.175
458.87653	11202.375
462.98368	11249.075
467.08789	11222.675
471.18916	11196.275
475.2875	11144.375
479.38291	11097.275
483.4754	11075.575
487.56496	11075.175
491.6516	11076.475
495.73531	11077.675
499.81612	11082.375
503.89401	11082.575
507.96899	11136.775
512.04106	11147.275
516.11023	11264.775
520.1765	11295.175
524.23987	11300.075
528.30034	11253.775
532.35792	11209.375
536.41261	11126.175
540.46441	11037.875
544.51333	11018.375
548.55936	10988.875
552.60252	11047.375
556.64279	11130.975
560.6802	11154.775
564.71473	11179.275
568.7464	11191.875
572.7752	11261.675
576.80114	11210.075
580.82422	11129.975
584.84444	11133.575
588.86181	11158.075
592.87633	11204.375
596.888	11241.575
600.89682	11364.075
604.9028	11776.475
608.90594	12830.075
612.90624	14226.275
616.90371	14078.475
620.89834	12328.975
624.89015	11510.075
628.87913	11453.375
632.86528	11601.175
636.84862	11806.175
640.82913	11776.275
644.80683	11562.775
648.78172	11329.375
652.75379	11155.075
656.72306	11182.675
660.68952	11262.575
664.65319	11216.175
668.61405	11030.275
672.57211	10930.075
676.52738	10926.775
680.47986	10916.975
684.42955	10921.275
688.37646	10904.275
692.32058	10885.975
696.26192	10895.875
700.20048	10944.875
704.13626	10966.575
708.06928	10953.075
711.99952	10927.575
715.927	10912.575
719.85171	10911.075
723.77365	10947.875
727.69284	10934.475
731.60928	10889.475
735.52295	10854.675
739.43388	10853.075
743.34206	10823.475
747.24749	10829.775
751.15017	10831.775
755.05012	10864.675
758.94733	10976.975
762.8418	11260.175
766.73354	11845.875
770.62254	12571.175
774.50882	13104.375
778.39237	12812.975
782.27321	12010.975
786.15132	11333.975
790.02671	10940.175
793.89938	10765.575
797.76935	10669.575
801.6366	10657.875
805.50115	10666.675
809.36299	10691.775
813.22213	10737.875
817.07857	10745.975
820.93231	10692.975
824.78336	10628.075
828.63172	10593.275
832.47738	10538.575
836.32036	10531.475
840.16066	10505.075
843.99827	10516.275
847.8332	10504.575
851.66546	10457.075
855.49504	10461.875
859.32195	10442.875
863.1462	10440.275
866.96777	10464.775
870.78668	10456.375
874.60293	10476.675
878.41652	10503.175
882.22745	10537.375
886.03573	10581.075
889.84136	10599.375
893.64433	10581.775
897.44466	10478.875
901.24235	10439.375
905.0374	10349.375
908.8298	10314.075
912.61957	10245.175
916.40671	10240.475
920.19121	10256.275
923.97308	10245.475
927.75233	10240.775
931.52895	10275.375
935.30295	10251.975
939.07433	10178.275
942.84309	10047.775
946.60924	9981.775
950.37278	9944.775
954.13371	9885.875
957.89203	9878.775
961.64774	9858.475
965.40086	9808.375
969.15137	9784.275
972.89929	9778.975
976.64461	9764.275
980.38733	9748.575
984.12747	9752.075
987.86502	9754.075
991.59999	9753.075
995.33237	9817.975
999.06217	9836.975
1002.78939	9898.575
1006.51404	9934.775
1010.23611	10007.275
1013.95561	10060.475
1017.67255	10073.575
1021.38692	10046.875
1025.09872	10001.375
1028.80796	9926.675
1032.51465	9910.375
1036.21877	9922.675
1039.92035	9900.175
1043.61937	9913.175
1047.31584	9894.375
1051.00976	9932.675
1054.70114	9902.675
1058.38998	9926.775
1062.07627	9975.075
1065.76003	10043.375
1069.44126	10089.075
1073.11995	10165.675
1076.79611	10231.475
1080.46974	10247.675
1084.14085	10249.475
1087.80943	10232.375
1091.47549	10235.975
1095.13903	10174.775
1098.80005	10139.275
1102.45857	10031.775
1106.11456	9970.975
1109.76805	9943.775
1113.41903	10036.575
1117.06751	10151.875
1120.71348	10330.575
1124.35696	10485.775
1127.99793	10701.975
1131.63641	10887.275
1135.2724	10819.575
1138.90589	10648.175
1142.5369	10458.375
1146.16542	10268.875
1149.79145	10086.175
1153.415	9932.275
1157.03607	9866.875
1160.65467	9864.875
1164.27079	9938.175
1167.88443	10110.975
1171.49561	10335.675
1175.10432	10791.775
1178.71056	11399.175
1182.31434	11942.675
1185.91565	12158.175
1189.51451	12032.875
1193.11091	11732.775
1196.70485	11361.875
1200.29634	11121.075
1203.88538	10950.475
1207.47197	10742.875
1211.05612	10461.575
1214.63782	10313.775
1218.21708	10167.775
1221.79391	10055.475
1225.36829	9994.075
1228.94024	9968.675
1232.50976	9957.575
1236.07685	9960.775
1239.6415	9956.975
1243.20374	9965.275
1246.76355	10024.975
1250.32093	10072.575
1253.8759	10134.075
1257.42845	10245.975
1260.97859	10362.575
1264.52631	10451.275
1268.07163	10549.875
1271.61453	10648.675
1275.15503	10680.775
1278.69312	10728.875
1282.22882	10746.475
1285.76211	10749.675
1289.29301	10861.375
1292.82151	11019.475
1296.34761	11220.175
1299.87133	11498.675
1303.39266	11930.075
1306.9116	12435.075
1310.42815	12990.975
1313.94233	13287.375
1317.45412	13149.575
1320.96354	12746.375
1324.47058	12293.675
1327.97525	11855.375
1331.47754	11512.075
1334.97747	11382.475
1338.47502	11347.275
1341.97022	11430.475
1345.46305	11653.575
1348.95352	11990.075
1352.44163	12473.175
1355.92738	13145.375
1359.41078	14115.175
1362.89183	15238.575
1366.37053	15399.375
1369.84688	14114.275
1373.32088	12583.075
1376.79254	11553.675
1380.26186	10959.875
1383.72883	10642.175
1387.19347	10424.275
1390.65578	10237.575
1394.11575	10030.675
1397.57339	9841.375
1401.0287	9742.575
1404.48168	9682.375
1407.93234	9614.475
1411.38068	9586.275
1414.82669	9547.175
1418.27039	9507.475
1421.71177	9449.275
1425.15083	9381.175
1428.58758	9302.675
1432.02203	9265.375
1435.45416	9250.375
1438.88399	9289.475
1442.31151	9307.075
1445.73673	9293.675
1449.15965	9313.675
1452.58027	9310.775
1455.9986	9293.875
1459.41463	9302.675
1462.82837	9347.875
1466.23982	9422.175
1469.64898	9520.075
1473.05586	9647.075
1476.46045	9704.775
1479.86276	9749.875
1483.26279	9838.875
1486.66054	9921.575
1490.05602	10072.875
1493.44922	10280.175
1496.84016	10651.175
1500.22882	11241.475
1503.61521	12097.875
1506.99934	13052.075
1510.38121	13916.075
1513.76081	14193.375
1517.13816	13665.775
1520.51324	12636.475
1523.88607	11657.575
1527.25665	11025.875
1530.62498	10621.675
1533.99105	10411.675
1537.35488	10290.275
1540.71647	10199.675
1544.07581	10163.475
1547.4329	10119.475
1550.78776	10135.275
1554.14038	10119.775
1557.49077	10164.875
1560.83892	10241.875
1564.18484	10348.075
1567.52853	10460.075
1570.86999	10621.275
1574.20922	10748.275
1577.54624	10825.475
1580.88103	10700.275
1584.2136	10348.375
1587.54395	10074.175
1590.87208	9924.675
1594.19801	9947.575
1597.52172	10169.175
1600.84321	10264.575
1604.16251	10186.675
1607.47959	9980.875
1610.79447	9781.175
1614.10715	9533.375
1617.41763	9313.175
1620.7259	9125.575
1624.03199	9001.175
1627.33587	8948.175
1630.63757	8980.275
1633.93707	9088.875
1637.23439	9273.775
1640.52951	9585.375
1643.82246	10066.575
1647.11321	10680.375
1650.40179	11218.675
1653.68819	11281.275
1656.97241	10706.875
1660.25446	9933.975
1663.53433	9358.975
1666.81203	8981.475
1670.08756	8747.375
1673.36092	8584.875
1676.63211	8463.775
1679.90115	8404.075
1683.16801	8347.675
1686.43272	8306.675
1689.69527	8278.475
1692.95567	8251.975
1696.2139	8262.475
1699.46999	8287.775
1702.72392	8260.275
1705.97571	8214.975
1709.22535	8131.975
1712.47284	8072.875
1715.71819	8019.575
1718.96139	7938.075
1722.20246	7864.675
1725.44139	7834.975
1728.67818	7768.775
1731.91284	7736.475
1735.14537	7705.075
1738.37576	7663.675
1741.60403	7630.975
1744.83017	7616.875
1748.05418	7612.375
1751.27607	7586.375
1754.49584	7578.775
1757.71349	7594.275
1760.92903	7564.975
1764.14244	7561.775
1767.35375	7560.175
1770.56294	7559.675
1773.77002	7535.775
1776.97499	7513.175
1780.17785	7480.275
1783.37861	7481.675
1786.57727	7456.275
1789.77382	7449.775
1792.96828	7427.475
1796.16064	7410.075
1799.3509	7407.175
1802.53907	7362.975
1805.72514	7369.175
1808.90913	7347.775
1812.09102	7325.275
1815.27083	7299.975
1818.44856	7283.375
1821.6242	7267.375
1824.79776	7265.375
1827.96924	7262.675
1831.13864	7247.075
1834.30597	7253.175
1837.47122	7221.475
1840.6344	7227.775
1843.7955	7218.175
1846.95454	7201.875
1850.11151	7195.875
1853.26642	7185.975
1856.41926	7201.375
1859.57004	7183.075
1862.71876	7153.775
1865.86542	7174.775
1869.01003	7158.975
1872.15258	7147.975
1875.29308	7148.575
1878.43152	7135.075
1881.56792	7131.475
1884.70227	7113.475
1887.83457	7102.975
1890.96482	7105.575
1894.09304	7090.375
1897.21921	7068.875
1900.34335	7059.775
1903.46544	7056.775
1906.58551	7050.375
1909.70353	7041.875
1912.81953	7051.175
1915.93349	7030.475
1919.04543	6991.575
1922.15534	6989.975
1925.26322	6964.675
1928.36908	6962.175
1931.47292	6952.375
1934.57473	6930.975
1937.67453	6911.275
1940.77232	6886.775
1943.86808	6861.675
1946.96184	6858.275
1950.05358	6864.475
1953.14331	6836.775
1956.23103	6809.875
1959.31675	6796.275
1962.40046	6760.075
1965.48217	6744.875
1968.56188	6735.475
1971.63959	6716.175
1974.7153	6692.075
1977.78901	6679.375
1980.86073	6644.175
1983.93046	6635.375
1986.99819	6602.475
1990.06394	6592.775
1993.1277	6550.675
1996.18947	6536.575
1999.24925	6533.775
2002.30706	6500.075
2005.36288	6499.175
2008.41672	6473.975
2011.46859	6448.275
2014.51848	6439.975
2017.56639	6411.775
2020.61233	6390.175
2023.6563	6360.875
2026.6983	6380.375
2029.73833	6354.975
2032.7764	6323.575
2035.8125	6310.575
2038.84664	6304.375
2041.87881	6286.775
2044.90903	6294.575
2047.93729	6252.275
2050.96359	6256.275
2053.98794	6242.775
2057.01034	6228.975
2060.03078	6224.575
2063.04927	6206.475
2066.06582	6221.675
2069.08042	6204.375
2072.09307	6198.875
2075.10378	6214.975
2078.11255	6171.075
2081.11938	6200.475
2084.12426	6198.375
2087.12722	6192.375
2090.12824	6176.475
2093.12732	6187.875
2096.12447	6190.975
2099.11969	6192.975
2102.11299	6169.575
2105.10435	6199.375
2108.09379	6182.675
2111.08131	6185.475
2114.0669	6205.375
2117.05057	6206.875
2120.03233	6216.175
2123.01216	6221.775
2125.99008	6214.175
2128.96609	6226.875
2131.94018	6230.675
2134.91236	6243.575
2137.88263	6264.075
2140.851	6230.975
2143.81746	6229.875
2146.78201	6248.375
2149.74466	6254.275
2152.7054	6238.575
2155.66425	6234.775
2158.6212	6234.575
2161.57625	6220.475
2164.52941	6220.775
2167.48067	6222.575
2170.43004	6226.575
2173.37752	6197.875
2176.32311	6219.475
2179.26681	6227.175
2182.20863	6211.175
2185.14856	6190.475
2188.08661	6199.975
2191.02278	6187.075
2193.95707	6184.975
2196.88948	6191.475
2199.82001	6186.875
2202.74867	6160.675
2205.67545	6162.875
2208.60037	6140.075
2211.52341	6158.775
2214.44458	6133.975
2217.36388	6122.275
2220.28132	6104.875
2223.1969	6108.275
2226.11061	6090.375
2229.02246	6078.675
2231.93245	6057.575
2234.84058	6062.775
2237.74686	6046.175
2240.65128	6038.175
2243.55385	6034.375
2246.45456	6024.975
2249.35343	6007.675
2252.25044	6002.075
2255.14561	5995.975
2258.03893	5986.475
2260.93041	5982.075
2263.82004	5967.475
2266.70783	5968.375
2269.59378	5947.075
2272.4779	5933.475
2275.36017	5907.475
2278.24061	5913.175
2281.11922	5894.175
2283.996	5882.375
2286.87094	5875.175
2289.74405	5850.375
2292.61534	5859.475
2295.4848	5851.675
2298.35243	5859.475
2301.21824	5827.075
2304.08223	5831.675
2306.94439	5829.575
2309.80474	5826.175
2312.66327	5810.075
2315.51999	5804.375
2318.37489	5806.175
2321.22797	5790.775
2324.07925	5785.475
2326.92871	5772.575
2329.77637	5775.275
2332.62222	5761.075
2335.46626	5747.575
2338.3085	5732.775
2341.14893	5711.575
2343.98756	5715.475
2346.8244	5710.575
2349.65943	5708.875
2352.49267	5702.975
2355.32411	5699.275
2358.15376	5713.775
2360.98161	5695.075
2363.80768	5696.375
2366.63195	5698.975
2369.45444	5690.975
2372.27514	5692.675
2375.09405	5676.875
2377.91118	5663.275
2380.72652	5664.875
2383.54009	5649.875
2386.35187	5633.075
2389.16188	5616.875
2391.97011	5594.775
2394.77657	5593.075
2397.58125	5576.175
2400.38416	5579.075
2403.18529	5570.975
2405.98466	5556.075
2408.78226	5538.975
2411.57809	5531.075
2414.37216	5522.475
2417.16446	5515.675
2419.955	5518.275
2422.74378	5512.375
2425.5308	5524.875
2428.31606	5503.875
2431.09956	5490.175
2433.88131	5491.475
2436.6613	5513.375
2439.43954	5477.875
2442.21603	5474.875
2444.99077	5439.775
2447.76377	5454.775
2450.53501	5451.175
2453.30451	5456.275
2456.07226	5447.875
2458.83827	5434.575
2461.60254	5424.775
2464.36507	5427.575
2467.12586	5415.075
2469.88492	5414.175
2472.64224	5417.775
2475.39782	5403.775
2478.15167	5412.575
2480.90379	5404.475
2483.65417	5407.375
2486.40283	5410.875
2489.14976	5411.175
2491.89497	5390.875
2494.63845	5376.475
2497.3802	5386.975
2500.12024	5381.175
2502.85855	5364.075
2505.59514	5355.075
2508.33002	5372.075
2511.06318	5358.875
2513.79462	5337.875
2516.52435	5330.775
2519.25237	5335.575
2521.97867	5307.775
2524.70327	5297.775
2527.42616	5294.775
2530.14734	5278.575
2532.86681	5278.575
2535.58458	5256.575
2538.30065	5249.275
2541.01501	5253.275
2543.72768	5246.875
2546.43864	5226.275
2549.14791	5217.975
2551.85548	5217.375
2554.56136	5210.575
2557.26554	5209.075
2559.96803	5201.075
2562.66883	5183.575
2565.36794	5178.875
2568.06536	5177.675
2570.7611	5176.175
2573.45514	5156.575
2576.14751	5145.975
2578.83819	5135.375
2581.52719	5138.375
2584.21451	5128.975
2586.90015	5112.775
2589.58411	5099.375
2592.2664	5099.275
2594.94701	5082.475
2597.62594	5074.775
2600.30321	5070.775
2602.9788	5050.875
2605.65273	5057.175
2608.32498	5033.675
2610.99557	5020.975
2613.66449	5017.075
2616.33175	5019.475
2618.99734	5014.575
2621.66128	5001.275
2624.32355	4991.075
2626.98416	4993.875
2629.64311	4978.075
2632.30041	4965.075
2634.95605	4966.875
2637.61004	4958.475
2640.26238	4954.575
2642.91306	4952.275
2645.56209	4955.975
2648.20948	4934.175
2650.85521	4945.675
2653.4993	4930.675
2656.14175	4931.375
2658.78255	4946.975
2661.42171	4928.275
2664.05923	4921.475
2666.6951	4922.675
2669.32934	4937.175
2671.96194	4927.275
2674.59291	4912.475
2677.22224	4918.075
2679.84993	4918.875
2682.476	4913.575
2685.10043	4926.675
2687.72324	4916.475
2690.34441	4916.375
2692.96396	4921.875
2695.58188	4920.075
2698.19818	4895.775
2700.81285	4919.475
2703.4259	4931.175
2706.03733	4945.675
2708.64714	4927.575
2711.25533	4927.275
2713.86191	4913.475
2716.46687	4924.175
2719.07021	4918.275
2721.67194	4915.975
2724.27206	4900.275
2726.87057	4919.075
2729.46747	4903.375
2732.06276	4907.275
2734.65644	4887.275
2737.24852	4889.375
2739.83899	4879.675
2742.42786	4897.675
2745.01513	4878.475
2747.60079	4867.375
2750.18486	4867.675
2752.76733	4872.675
2755.3482	4851.475
2757.92747	4870.775
2760.50515	4852.675
2763.08123	4848.875
2765.65573	4838.775
2768.22863	4828.275
2770.79994	4803.375
2773.36967	4808.475
2775.9378	4808.475
2778.50435	4814.875
2781.06932	4803.775
2783.6327	4784.775
2786.1945	4782.875
2788.75471	4757.775
2791.31335	4777.975
2793.87041	4758.375
2796.42589	4729.575
2798.97979	4731.475
2801.53212	4720.675
2804.08288	4705.575
2806.63206	4710.475
2809.17967	4691.075
2811.72571	4679.875
2814.27018	4675.075
2816.81308	4678.375
2819.35442	4667.775
2821.89419	4659.975
2824.43239	4663.775
2826.96904	4656.375
2829.50412	4660.975
2832.03763	4646.275
2834.56959	4650.575
2837.1	4633.775
2839.62884	4646.775
2842.15613	4635.975
2844.68186	4656.475
2847.20604	4627.375
2849.72867	4644.475
2852.24974	4638.475
2854.76927	4640.875
2857.28724	4633.975
2859.80367	4614.975
2862.31855	4614.875
2864.83189	4620.275
2867.34368	4612.175
2869.85393	4608.875
2872.36264	4625.575
2874.8698	4615.875
2877.37543	4618.575
2879.87952	4606.175
2882.38207	4621.275
2884.88308	4630.075
2887.38256	4613.475
2889.88051	4611.475
2892.37692	4612.375
2894.8718	4600.875
2897.36515	4617.675
2899.85698	4606.775
2902.34727	4620.275
2904.83604	4598.975
2907.32328	4612.375
2909.809	4601.975
2912.29319	4617.575
2914.77587	4608.975
2917.25702	4623.875
2919.73665	4595.575
2922.21476	4601.875
2924.69136	4614.875
2927.16644	4612.375
2929.64	4605.475
2932.11205	4588.475
2934.58258	4580.575
2937.05161	4578.975
2939.51912	4586.775
2941.98513	4584.075
2944.44962	4573.675
2946.91261	4550.575
2949.37409	4567.475
2951.83407	4555.875
2954.29254	4554.975
2956.74951	4552.175
2959.20498	4550.375
2961.65895	4561.775
2964.11142	4544.775
2966.56239	4548.375
2969.01186	4553.175
2971.45984	4539.475
2973.90632	4537.575
2976.35131	4507.875
2978.7948	4510.775
2981.23681	4507.975
2983.67732	4493.975
2986.11635	4498.975
2988.55388	4467.575
2990.98993	4473.175
2993.4245	4487.075
2995.85758	4462.975
2998.28917	4476.775
3000.71928	4479.275
3003.14791	4450.075
3005.57506	4458.675
3008.00073	4443.975
3010.42493	4443.875
3012.84764	4445.675
3015.26888	4441.375
3017.68865	4442.575
3020.10694	4432.375
3022.52376	4420.575
3024.9391	4406.875
3027.35298	4412.575
3029.76539	4388.275
3032.17632	4383.075
3034.5858	4394.675
3036.9938	4381.375
3039.40034	4371.075
3041.80542	4385.975
3044.20903	4390.475
3046.61118	4384.275
3049.01187	4371.075
3051.4111	4381.975
3053.80888	4359.275
3056.20519	4358.375
3058.60005	4355.875
3060.99345	4361.775
3063.3854	4350.775
3065.7759	4339.275
3068.16494	4355.875
3070.55254	4338.675
3072.93868	4330.975
3075.32338	4324.275
3077.70662	4329.575
3080.08842	4330.275
3082.46878	4335.575
3084.84769	4329.075
3087.22515	4335.675
3089.60118	4333.875
3091.97576	4344.375
3094.3489	4334.575
3096.72061	4342.475
3099.09087	4334.875
3101.4597	4338.475
3103.82709	4349.875
3106.19305	4355.575
3108.55757	4348.275
3110.92066	4326.175
3113.28232	4329.675
3115.64255	4317.175
3118.00134	4327.675
3120.35871	4320.775
3122.71466	4330.775
3125.06917	4318.175
3127.42226	4314.575
3129.77393	4319.475
3132.12417	4333.375
3134.47299	4337.175
3136.82039	4350.375
3139.16636	4354.175
3141.51092	4347.875
3143.85406	4367.175
3146.19579	4365.075
3148.53609	4365.075
3150.87499	4382.375
3153.21246	4385.975
3155.54853	4409.075
3157.88318	4404.075
3160.21642	4410.075
3162.54826	4406.975
3164.87868	4410.975
3167.2077	4422.575
3169.5353	4417.875
3171.86151	4416.175
3174.18631	4420.375
3176.5097	4419.575
3178.83169	4423.275
3181.15228	4423.075
3183.47147	4415.175
3185.78926	4427.075
3188.10565	4433.875
3190.42065	4423.875
3192.73424	4418.275
3195.04645	4420.475
3197.35725	4426.575
3199.66667	4423.875
3201.97469	4444.575
3204.28132	4440.175
