Data from AgNPs_FTO_APTES_UA_20uM_R6G_10uM_NaF_0.1M_Addition_RamanShift__28__14-28-07-385.txt Node

Date: Fri Dec 17 14:28:07 GMT 2021
User: TCL
Spectrometer: QEP01345
Trigger mode: 4
Integration Time (sec): 7.000000E0
Scans to average: 10
Electric dark correction enabled: true
Nonlinearity correction enabled: false
Boxcar width: 0
XAxis mode: Raman Shifts
Number of Pixels in Spectrum: 1044
>>>>>Begin Spectral Data<<<<<
46.04893	-0.0375
50.45542	-0.6375
54.85868	-1.4375
59.25871	0.5625
63.6555	59.8625
68.04907	60.1625
72.43941	63.0625
76.82654	70.9625
81.21044	73.8625
85.59113	75.8625
89.96862	79.7625
94.34289	77.4625
98.71396	81.0625
103.08183	85.0625
107.4465	89.6625
111.80798	87.1625
116.16626	92.3625
120.52136	90.8625
124.87327	96.8625
129.222	100.3625
133.56755	102.8625
137.90993	111.5625
142.24913	118.1625
146.58517	128.1625
150.91804	149.6625
155.24774	170.5625
159.57429	210.3625
163.89768	265.8625
168.21792	344.6625
172.53501	463.3625
176.84895	637.1625
181.15975	881.1625
185.46741	1230.0625
189.77193	1701.5625
194.07331	2277.4625
198.37157	2941.8625
202.6667	3615.9625
206.9587	4300.8625
211.24758	4986.0625
215.53334	5647.9625
219.81599	6383.7625
224.09553	7197.9625
228.37195	8093.5625
232.64527	9102.7625
236.91549	10151.3625
241.18261	11177.5625
245.44663	12119.1625
249.70755	12960.3625
253.96539	13722.4625
258.22014	14319.9625
262.4718	14902.2625
266.72039	15275.2625
270.96589	15530.3625
275.20832	15541.9625
279.44768	15432.3625
283.68397	15222.8625
287.91719	15027.4625
292.14735	14991.2625
296.37445	15058.2625
300.59849	15243.6625
304.81948	15458.0625
309.03742	15591.0625
313.25231	15516.5625
317.46415	15090.2625
321.67296	14501.0625
325.87872	14050.3625
330.08145	13818.8625
334.28114	13876.0625
338.47781	14040.5625
342.67145	14301.1625
346.86207	14677.2625
351.04966	15150.6625
355.23424	15693.1625
359.4158	16175.2625
363.59435	16474.2625
367.76989	16679.2625
371.94243	16809.2625
376.11196	16887.5625
380.27849	16940.2625
384.44203	16984.4625
388.60257	16930.9625
392.76012	16970.6625
396.91468	17156.9625
401.06626	17462.5625
405.21485	17710.1625
409.36047	17635.0625
413.50311	17244.3625
417.64277	16863.7625
421.77947	16655.4625
425.9132	16619.0625
430.04396	16667.5625
434.17176	16733.9625
438.2966	16920.0625
442.41849	17189.3625
446.53742	17583.6625
450.6534	17938.8625
454.76644	18246.1625
458.87653	18436.1625
462.98368	18366.8625
467.08789	18215.0625
471.18916	17948.2625
475.2875	17706.7625
479.38291	17479.1625
483.4754	17287.5625
487.56496	17200.7625
491.6516	17087.0625
495.73531	16998.0625
499.81612	17010.0625
503.89401	17107.4625
507.96899	17187.1625
512.04106	17342.2625
516.11023	17489.5625
520.1765	17555.0625
524.23987	17546.2625
528.30034	17388.2625
532.35792	17240.8625
536.41261	17012.8625
540.46441	16878.0625
544.51333	16799.0625
548.55936	16854.3625
552.60252	17095.9625
556.64279	17266.8625
560.6802	17424.9625
564.71473	17491.3625
568.7464	17721.7625
572.7752	17956.3625
576.80114	17912.8625
580.82422	17842.4625
584.84444	17833.3625
588.86181	17891.6625
592.87633	17997.0625
596.888	18171.7625
600.89682	18500.8625
604.9028	19640.8625
608.90594	22397.8625
612.90624	25742.2625
616.90371	25013.0625
620.89834	20469.4625
624.89015	18297.8625
628.87913	17897.3625
632.86528	17925.8625
636.84862	18026.4625
640.82913	17894.6625
644.80683	17487.3625
648.78172	17169.8625
652.75379	17178.8625
656.72306	17470.6625
660.68952	17857.9625
664.65319	17835.3625
668.61405	17448.2625
672.57211	17310.8625
676.52738	17291.3625
680.47986	17315.6625
684.42955	17278.4625
688.37646	17276.2625
692.32058	17341.4625
696.26192	17443.2625
700.20048	17577.1625
704.13626	17686.8625
708.06928	17631.4625
711.99952	17537.0625
715.927	17461.4625
719.85171	17510.9625
723.77365	17489.8625
727.69284	17446.3625
731.60928	17338.5625
735.52295	17342.0625
739.43388	17380.9625
743.34206	17471.1625
747.24749	17537.7625
751.15017	17631.9625
755.05012	17873.0625
758.94733	18270.2625
762.8418	19116.4625
766.73354	20619.2625
770.62254	22267.7625
774.50882	23164.5625
778.39237	22527.8625
782.27321	20729.6625
786.15132	19128.7625
790.02671	18152.6625
793.89938	17724.5625
797.76935	17565.1625
801.6366	17533.3625
805.50115	17508.6625
809.36299	17495.8625
813.22213	17466.1625
817.07857	17452.0625
820.93231	17457.4625
824.78336	17428.5625
828.63172	17455.9625
832.47738	17496.1625
836.32036	17494.7625
840.16066	17477.8625
843.99827	17515.4625
847.8332	17504.8625
851.66546	17468.6625
855.49504	17426.7625
859.32195	17416.3625
863.1462	17414.6625
866.96777	17409.8625
870.78668	17395.8625
874.60293	17446.8625
878.41652	17444.1625
882.22745	17508.6625
886.03573	17582.9625
889.84136	17530.2625
893.64433	17508.6625
897.44466	17414.3625
901.24235	17388.4625
905.0374	17337.9625
908.8298	17338.4625
912.61957	17317.8625
916.40671	17391.5625
920.19121	17466.3625
923.97308	17565.8625
927.75233	17677.5625
931.52895	17752.5625
935.30295	17660.5625
939.07433	17408.0625
942.84309	17238.3625
946.60924	17117.0625
950.37278	17048.5625
954.13371	16965.3625
957.89203	16909.8625
961.64774	16853.1625
965.40086	16805.4625
969.15137	16767.9625
972.89929	16728.4625
976.64461	16711.0625
980.38733	16736.2625
984.12747	16776.9625
987.86502	16885.5625
991.59999	17006.7625
995.33237	17210.5625
999.06217	17508.8625
1002.78939	17933.7625
1006.51404	18251.9625
1010.23611	18514.1625
1013.95561	18663.2625
1017.67255	18732.9625
1021.38692	18612.4625
1025.09872	18540.0625
1028.80796	18542.2625
1032.51465	18860.7625
1036.21877	19098.3625
1039.92035	19097.1625
1043.61937	18955.5625
1047.31584	18676.7625
1051.00976	18345.4625
1054.70114	18159.2625
1058.38998	18111.4625
1062.07627	18184.9625
1065.76003	18265.3625
1069.44126	18367.5625
1073.11995	18486.7625
1076.79611	18571.1625
1080.46974	18656.0625
1084.14085	18773.0625
1087.80943	18958.5625
1091.47549	19028.2625
1095.13903	18873.8625
1098.80005	18557.2625
1102.45857	18293.0625
1106.11456	18157.0625
1109.76805	18177.2625
1113.41903	18405.8625
1117.06751	18649.7625
1120.71348	18952.9625
1124.35696	19254.2625
1127.99793	19567.1625
1131.63641	19658.3625
1135.2724	19342.9625
1138.90589	19009.3625
1142.5369	18760.4625
1146.16542	18548.8625
1149.79145	18370.1625
1153.415	18384.3625
1157.03607	18465.2625
1160.65467	18681.2625
1164.27079	19046.5625
1167.88443	19571.4625
1171.49561	20367.8625
1175.10432	21645.2625
1178.71056	23366.6625
1182.31434	24927.3625
1185.91565	25688.6625
1189.51451	25547.2625
1193.11091	24658.8625
1196.70485	23464.4625
1200.29634	22508.2625
1203.88538	21784.1625
1207.47197	21120.0625
1211.05612	20507.7625
1214.63782	20203.7625
1218.21708	20123.1625
1221.79391	20141.7625
1225.36829	20245.9625
1228.94024	20287.3625
1232.50976	20277.9625
1236.07685	20331.3625
1239.6415	20366.1625
1243.20374	20399.7625
1246.76355	20490.6625
1250.32093	20666.8625
1253.8759	21012.8625
1257.42845	21433.4625
1260.97859	21803.1625
1264.52631	22095.9625
1268.07163	22455.9625
1271.61453	22794.5625
1275.15503	23218.2625
1278.69312	23585.4625
1282.22882	23828.9625
1285.76211	24155.6625
1289.29301	24488.1625
1292.82151	24952.6625
1296.34761	25410.6625
1299.87133	26179.2625
1303.39266	27382.2625
1306.9116	29061.4625
1310.42815	30974.1625
1313.94233	32104.5625
1317.45412	31880.7625
1320.96354	30836.6625
1324.47058	29578.1625
1327.97525	28462.5625
1331.47754	27761.6625
1334.97747	27655.4625
1338.47502	27913.5625
1341.97022	28402.0625
1345.46305	28777.7625
1348.95352	29153.6625
1352.44163	29757.5625
1355.92738	30934.6625
1359.41078	33106.1625
1362.89183	35339.3625
1366.37053	34899.2625
1369.84688	31542.0625
1373.32088	27898.3625
1376.79254	25532.5625
1380.26186	24339.4625
1383.72883	23766.6625
1387.19347	23296.1625
1390.65578	22847.2625
1394.11575	22524.2625
1397.57339	22414.7625
1401.0287	22557.2625
1404.48168	22885.0625
1407.93234	23310.3625
1411.38068	23638.4625
1414.82669	23768.0625
1418.27039	23533.0625
1421.71177	23072.5625
1425.15083	22673.0625
1428.58758	22393.0625
1432.02203	22358.2625
1435.45416	22433.3625
1438.88399	22514.5625
1442.31151	22568.9625
1445.73673	22658.3625
1449.15965	22780.9625
1452.58027	22793.6625
1455.9986	22686.7625
1459.41463	22659.0625
1462.82837	22789.2625
1466.23982	23067.4625
1469.64898	23475.5625
1473.05586	23787.1625
1476.46045	23978.9625
1479.86276	24239.9625
1483.26279	24509.3625
1486.66054	24926.3625
1490.05602	25401.3625
1493.44922	25952.4625
1496.84016	26643.5625
1500.22882	27659.7625
1503.61521	29082.0625
1506.99934	30828.9625
1510.38121	32359.3625
1513.76081	32789.0625
1517.13816	31746.0625
1520.51324	29544.0625
1523.88607	27391.8625
1527.25665	25822.6625
1530.62498	24977.9625
1533.99105	24465.6625
1537.35488	24143.9625
1540.71647	24038.4625
1544.07581	23936.3625
1547.4329	23928.6625
1550.78776	23905.9625
1554.14038	23889.8625
1557.49077	23938.3625
1560.83892	24045.9625
1564.18484	24192.9625
1567.52853	24292.4625
1570.86999	24431.6625
1574.20922	24605.1625
1577.54624	24574.5625
1580.88103	24211.2625
1584.2136	23653.9625
1587.54395	23495.5625
1590.87208	23996.0625
1594.19801	25007.3625
1597.52172	26255.4625
1600.84321	26866.5625
1604.16251	26408.2625
1607.47959	25236.7625
1610.79447	23839.5625
1614.10715	22561.2625
1617.41763	21491.3625
1620.7259	20795.9625
1624.03199	20454.1625
1627.33587	20457.3625
1630.63757	20782.4625
1633.93707	21440.8625
1637.23439	22376.8625
1640.52951	23544.5625
1643.82246	24914.4625
1647.11321	26208.3625
1650.40179	26914.2625
1653.68819	26206.5625
1656.97241	24100.3625
1660.25446	21781.0625
1663.53433	20147.5625
1666.81203	19083.4625
1670.08756	18449.4625
1673.36092	18036.1625
1676.63211	17730.7625
1679.90115	17516.8625
1683.16801	17368.2625
1686.43272	17249.0625
1689.69527	17161.1625
1692.95567	17116.0625
1696.2139	17067.7625
1699.46999	17042.5625
1702.72392	17020.7625
1705.97571	17021.3625
1709.22535	16965.5625
1712.47284	16943.5625
1715.71819	16937.2625
1718.96139	16948.6625
1722.20246	16917.0625
1725.44139	16845.7625
1728.67818	16777.4625
1731.91284	16731.6625
1735.14537	16692.9625
1738.37576	16630.8625
1741.60403	16583.2625
1744.83017	16538.1625
1748.05418	16546.1625
1751.27607	16498.8625
1754.49584	16491.6625
1757.71349	16469.0625
1760.92903	16480.0625
1764.14244	16469.7625
1767.35375	16492.7625
1770.56294	16460.5625
1773.77002	16461.2625
1776.97499	16443.2625
1780.17785	16414.9625
1783.37861	16394.0625
1786.57727	16378.8625
1789.77382	16373.6625
1792.96828	16345.8625
1796.16064	16330.7625
1799.3509	16319.3625
1802.53907	16318.9625
1805.72514	16292.7625
1808.90913	16271.4625
1812.09102	16212.5625
1815.27083	16194.2625
1818.44856	16178.3625
1821.6242	16182.7625
1824.79776	16162.8625
1827.96924	16152.5625
1831.13864	16146.9625
1834.30597	16126.7625
1837.47122	16142.2625
1840.6344	16098.8625
1843.7955	16120.7625
1846.95454	16112.2625
1850.11151	16106.4625
1853.26642	16121.8625
1856.41926	16131.2625
1859.57004	16149.2625
1862.71876	16111.7625
1865.86542	16095.2625
1869.01003	16137.9625
1872.15258	16131.0625
1875.29308	16112.6625
1878.43152	16096.9625
1881.56792	16103.6625
1884.70227	16125.5625
1887.83457	16134.4625
1890.96482	16138.2625
1894.09304	16094.3625
1897.21921	16087.2625
1900.34335	16077.6625
1903.46544	16102.5625
1906.58551	16109.9625
1909.70353	16101.2625
1912.81953	16109.2625
1915.93349	16094.9625
1919.04543	16064.1625
1922.15534	16054.8625
1925.26322	16009.8625
1928.36908	15981.4625
1931.47292	15981.9625
1934.57473	15916.1625
1937.67453	15877.9625
1940.77232	15827.1625
1943.86808	15777.6625
1946.96184	15731.7625
1950.05358	15681.2625
1953.14331	15638.0625
1956.23103	15603.3625
1959.31675	15564.8625
1962.40046	15541.8625
1965.48217	15483.3625
1968.56188	15478.4625
1971.63959	15397.6625
1974.7153	15349.2625
1977.78901	15302.3625
1980.86073	15279.1625
1983.93046	15228.4625
1986.99819	15189.6625
1990.06394	15159.8625
1993.1277	15109.8625
1996.18947	15052.8625
1999.24925	15036.8625
2002.30706	14980.5625
2005.36288	14937.9625
2008.41672	14928.4625
2011.46859	14906.2625
2014.51848	14837.3625
2017.56639	14834.3625
2020.61233	14775.8625
2023.6563	14748.4625
2026.6983	14712.9625
2029.73833	14670.2625
2032.7764	14687.3625
2035.8125	14626.1625
2038.84664	14616.4625
2041.87881	14598.4625
2044.90903	14592.2625
2047.93729	14550.3625
2050.96359	14533.5625
2053.98794	14535.1625
2057.01034	14497.8625
2060.03078	14521.3625
2063.04927	14501.0625
2066.06582	14488.9625
2069.08042	14480.8625
2072.09307	14452.3625
2075.10378	14436.3625
2078.11255	14419.8625
2081.11938	14435.8625
2084.12426	14433.3625
2087.12722	14424.8625
2090.12824	14450.1625
2093.12732	14430.3625
2096.12447	14440.5625
2099.11969	14457.7625
2102.11299	14438.9625
2105.10435	14438.2625
2108.09379	14442.3625
2111.08131	14482.0625
2114.0669	14459.5625
2117.05057	14504.7625
2120.03233	14490.9625
2123.01216	14515.0625
2125.99008	14512.4625
2128.96609	14542.7625
2131.94018	14576.7625
2134.91236	14548.8625
2137.88263	14568.3625
2140.851	14570.2625
2143.81746	14599.9625
2146.78201	14590.1625
2149.74466	14598.0625
2152.7054	14594.1625
2155.66425	14627.3625
2158.6212	14600.3625
2161.57625	14609.7625
2164.52941	14625.1625
2167.48067	14614.4625
2170.43004	14615.8625
2173.37752	14612.1625
2176.32311	14608.2625
2179.26681	14575.9625
2182.20863	14570.4625
2185.14856	14588.9625
2188.08661	14583.7625
2191.02278	14612.6625
2193.95707	14608.3625
2196.88948	14626.9625
2199.82001	14606.7625
2202.74867	14581.3625
2205.67545	14595.8625
2208.60037	14580.2625
2211.52341	14555.5625
2214.44458	14510.7625
2217.36388	14516.2625
2220.28132	14504.7625
2223.1969	14455.1625
2226.11061	14454.6625
2229.02246	14421.6625
2231.93245	14408.9625
2234.84058	14363.5625
2237.74686	14355.2625
2240.65128	14348.5625
2243.55385	14320.1625
2246.45456	14325.2625
2249.35343	14285.4625
2252.25044	14274.4625
2255.14561	14260.5625
2258.03893	14256.0625
2260.93041	14235.3625
2263.82004	14234.0625
2266.70783	14187.7625
2269.59378	14146.0625
2272.4779	14111.9625
2275.36017	14090.6625
2278.24061	14056.0625
2281.11922	14034.2625
2283.996	14019.6625
2286.87094	13992.6625
2289.74405	13959.4625
2292.61534	13967.6625
2295.4848	13974.6625
2298.35243	13954.0625
2301.21824	13963.6625
2304.08223	13971.8625
2306.94439	13937.2625
2309.80474	13933.2625
2312.66327	13948.2625
2315.51999	13947.8625
2318.37489	13937.3625
2321.22797	13921.4625
2324.07925	13895.0625
2326.92871	13893.2625
2329.77637	13890.4625
2332.62222	13868.9625
2335.46626	13842.6625
2338.3085	13842.7625
2341.14893	13860.9625
2343.98756	13854.2625
2346.8244	13809.8625
2349.65943	13847.2625
2352.49267	13810.9625
2355.32411	13824.3625
2358.15376	13821.2625
2360.98161	13816.7625
2363.80768	13785.0625
2366.63195	13764.2625
2369.45444	13783.6625
2372.27514	13788.4625
2375.09405	13729.0625
2377.91118	13709.4625
2380.72652	13670.7625
2383.54009	13641.1625
2386.35187	13624.2625
2389.16188	13585.5625
2391.97011	13562.6625
2394.77657	13548.5625
2397.58125	13536.3625
2400.38416	13509.3625
2403.18529	13494.1625
2405.98466	13441.6625
2408.78226	13437.6625
2411.57809	13428.9625
2414.37216	13422.3625
2417.16446	13400.8625
2419.955	13368.4625
2422.74378	13338.2625
2425.5308	13344.7625
2428.31606	13316.9625
2431.09956	13311.5625
2433.88131	13292.1625
2436.6613	13315.0625
2439.43954	13317.0625
2442.21603	13298.5625
2444.99077	13265.4625
2447.76377	13287.7625
2450.53501	13246.4625
2453.30451	13228.3625
2456.07226	13268.0625
2458.83827	13251.2625
2461.60254	13220.4625
2464.36507	13225.0625
2467.12586	13227.6625
2469.88492	13205.6625
2472.64224	13222.4625
2475.39782	13206.6625
2478.15167	13208.5625
2480.90379	13184.8625
2483.65417	13233.0625
2486.40283	13215.3625
2489.14976	13210.7625
2491.89497	13178.4625
2494.63845	13211.4625
2497.3802	13220.3625
2500.12024	13197.1625
2502.85855	13191.3625
2505.59514	13183.7625
2508.33002	13159.4625
2511.06318	13125.4625
2513.79462	13114.2625
2516.52435	13115.0625
2519.25237	13097.4625
2521.97867	13080.8625
2524.70327	13048.0625
2527.42616	13048.0625
2530.14734	13031.4625
2532.86681	13021.0625
2535.58458	13014.4625
2538.30065	12994.5625
2541.01501	12976.1625
2543.72768	12948.5625
2546.43864	12972.3625
2549.14791	12940.2625
2551.85548	12945.0625
2554.56136	12904.6625
2557.26554	12883.4625
2559.96803	12864.3625
2562.66883	12856.9625
2565.36794	12858.1625
2568.06536	12850.7625
2570.7611	12837.6625
2573.45514	12808.9625
2576.14751	12799.1625
2578.83819	12782.2625
2581.52719	12768.6625
2584.21451	12752.8625
2586.90015	12756.8625
2589.58411	12735.9625
2592.2664	12717.6625
2594.94701	12693.4625
2597.62594	12682.6625
2600.30321	12680.5625
2602.9788	12653.5625
2605.65273	12646.6625
2608.32498	12641.4625
2610.99557	12626.7625
2613.66449	12614.6625
2616.33175	12612.9625
2618.99734	12640.0625
2621.66128	12627.9625
2624.32355	12602.2625
2626.98416	12576.8625
2629.64311	12579.7625
2632.30041	12597.3625
2634.95605	12562.1625
2637.61004	12571.9625
2640.26238	12528.4625
2642.91306	12530.8625
2645.56209	12520.3625
2648.20948	12514.1625
2650.85521	12484.2625
2653.4993	12499.6625
2656.14175	12460.8625
2658.78255	12474.1625
2661.42171	12474.1625
2664.05923	12510.2625
2666.6951	12468.8625
2669.32934	12503.9625
2671.96194	12493.5625
2674.59291	12521.6625
2677.22224	12498.2625
2679.84993	12532.5625
2682.476	12504.9625
2685.10043	12518.0625
2687.72324	12475.7625
2690.34441	12510.3625
2692.96396	12487.2625
2695.58188	12516.7625
2698.19818	12498.5625
2700.81285	12522.0625
2703.4259	12505.8625
2706.03733	12526.0625
2708.64714	12505.3625
2711.25533	12541.0625
2713.86191	12496.5625
2716.46687	12524.9625
2719.07021	12515.7625
2721.67194	12514.5625
2724.27206	12479.9625
2726.87057	12515.9625
2729.46747	12499.3625
2732.06276	12523.1625
2734.65644	12503.6625
2737.24852	12502.8625
2739.83899	12479.4625
2742.42786	12513.9625
2745.01513	12457.4625
2747.60079	12454.1625
2750.18486	12436.6625
2752.76733	12444.6625
2755.3482	12442.2625
2757.92747	12439.8625
2760.50515	12436.4625
2763.08123	12421.1625
2765.65573	12407.3625
2768.22863	12366.8625
2770.79994	12384.8625
2773.36967	12375.5625
2775.9378	12371.7625
2778.50435	12334.0625
2781.06932	12316.6625
2783.6327	12314.6625
2786.1945	12301.2625
2788.75471	12316.9625
2791.31335	12266.7625
2793.87041	12240.0625
2796.42589	12215.3625
2798.97979	12214.5625
2801.53212	12182.5625
2804.08288	12190.4625
2806.63206	12127.9625
2809.17967	12130.2625
2811.72571	12108.0625
2814.27018	12092.1625
2816.81308	12111.7625
2819.35442	12077.5625
2821.89419	12056.9625
2824.43239	12038.3625
2826.96904	12059.7625
2829.50412	12071.9625
2832.03763	12014.5625
2834.56959	12029.6625
2837.1	12014.7625
2839.62884	12004.5625
2842.15613	11999.9625
2844.68186	12036.8625
2847.20604	12032.7625
2849.72867	12038.6625
2852.24974	12033.2625
2854.76927	12007.5625
2857.28724	11996.8625
2859.80367	11973.3625
2862.31855	11964.4625
2864.83189	11930.6625
2867.34368	11929.4625
2869.85393	11926.4625
2872.36264	11925.3625
2874.8698	11925.6625
2877.37543	11917.2625
2879.87952	11913.4625
2882.38207	11896.9625
2884.88308	11918.8625
2887.38256	11935.1625
2889.88051	11926.4625
2892.37692	11919.3625
2894.8718	11939.6625
2897.36515	11936.4625
2899.85698	11925.8625
2902.34727	11971.6625
2904.83604	11944.9625
2907.32328	11954.8625
2909.809	11953.9625
2912.29319	11963.1625
2914.77587	11943.4625
2917.25702	11949.2625
2919.73665	11911.9625
2922.21476	11916.7625
2924.69136	11886.2625
2927.16644	11918.9625
2929.64	11880.8625
2932.11205	11875.7625
2934.58258	11833.3625
2937.05161	11863.7625
2939.51912	11842.4625
2941.98513	11815.7625
2944.44962	11826.4625
2946.91261	11783.7625
2949.37409	11805.3625
2951.83407	11818.2625
2954.29254	11788.0625
2956.74951	11797.1625
2959.20498	11780.9625
2961.65895	11728.1625
2964.11142	11771.9625
2966.56239	11721.7625
2969.01186	11726.9625
2971.45984	11680.9625
2973.90632	11671.4625
2976.35131	11641.4625
2978.7948	11624.5625
2981.23681	11572.5625
2983.67732	11607.5625
2986.11635	11572.7625
2988.55388	11529.4625
2990.98993	11528.9625
2993.4245	11491.5625
2995.85758	11466.1625
2998.28917	11429.6625
3000.71928	11448.6625
3003.14791	11423.8625
3005.57506	11422.1625
3008.00073	11403.4625
3010.42493	11406.6625
3012.84764	11363.9625
3015.26888	11362.4625
3017.68865	11364.7625
3020.10694	11319.6625
3022.52376	11320.8625
3024.9391	11308.1625
