Data from AgNPs_FTO_APTES_UA_0uM_R6G_10uM_NaF_0.1M_Addition_RamanShift__10__10-06-47-085.txt Node

Date: Fri Dec 17 10:06:47 GMT 2021
User: TCL
Spectrometer: QEP01345
Trigger mode: 4
Integration Time (sec): 7.000000E0
Scans to average: 10
Electric dark correction enabled: true
Nonlinearity correction enabled: false
Boxcar width: 0
XAxis mode: Raman Shifts
Number of Pixels in Spectrum: 1044
>>>>>Begin Spectral Data<<<<<
46.04893	0.0125
50.45542	0.1125
54.85868	-0.6875
59.25871	1.6125
63.6555	30.3125
68.04907	31.0125
72.43941	35.3125
76.82654	38.4125
81.21044	38.6125
85.59113	39.2125
89.96862	42.3125
94.34289	46.4125
98.71396	45.9125
103.08183	46.5125
107.4465	47.0125
111.80798	46.8125
116.16626	49.3125
120.52136	46.0125
124.87327	50.2125
129.222	51.8125
133.56755	50.4125
137.90993	53.9125
142.24913	58.4125
146.58517	60.4125
150.91804	69.5125
155.24774	78.4125
159.57429	92.7125
163.89768	115.9125
168.21792	146.6125
172.53501	193.2125
176.84895	259.9125
181.15975	348.2125
185.46741	494.0125
189.77193	674.0125
194.07331	888.9125
198.37157	1155.5125
202.6667	1428.4125
206.9587	1709.1125
211.24758	1982.7125
215.53334	2261.0125
219.81599	2550.5125
224.09553	2891.4125
228.37195	3248.1125
232.64527	3632.6125
236.91549	4034.4125
241.18261	4415.2125
245.44663	4730.0125
249.70755	4963.9125
253.96539	5179.2125
258.22014	5362.9125
262.4718	5497.4125
266.72039	5575.1125
270.96589	5620.2125
275.20832	5571.9125
279.44768	5468.4125
283.68397	5320.1125
287.91719	5201.3125
292.14735	5155.3125
296.37445	5179.0125
300.59849	5295.0125
304.81948	5436.7125
309.03742	5547.0125
313.25231	5623.4125
317.46415	5548.8125
321.67296	5360.1125
325.87872	5197.9125
330.08145	5080.2125
334.28114	5063.7125
338.47781	5084.7125
342.67145	5157.0125
346.86207	5249.9125
351.04966	5391.1125
355.23424	5557.2125
359.4158	5694.2125
363.59435	5772.4125
367.76989	5783.6125
371.94243	5790.9125
376.11196	5791.3125
380.27849	5768.2125
384.44203	5737.3125
388.60257	5711.4125
392.76012	5699.3125
396.91468	5705.8125
401.06626	5792.0125
405.21485	5844.6125
409.36047	5800.1125
413.50311	5601.1125
417.64277	5435.9125
421.77947	5332.1125
425.9132	5312.8125
430.04396	5328.6125
434.17176	5378.4125
438.2966	5497.2125
442.41849	5645.2125
446.53742	5879.5125
450.6534	6117.4125
454.76644	6190.6125
458.87653	6123.5125
462.98368	5934.6125
467.08789	5750.7125
471.18916	5587.0125
475.2875	5458.9125
479.38291	5316.1125
483.4754	5245.3125
487.56496	5193.8125
491.6516	5212.2125
495.73531	5221.7125
499.81612	5262.0125
503.89401	5303.7125
507.96899	5365.8125
512.04106	5425.5125
516.11023	5481.0125
520.1765	5532.0125
524.23987	5542.9125
528.30034	5544.1125
532.35792	5499.5125
536.41261	5424.0125
540.46441	5275.0125
544.51333	5212.5125
548.55936	5213.2125
552.60252	5302.0125
556.64279	5466.2125
560.6802	5582.1125
564.71473	5579.9125
568.7464	5595.2125
572.7752	5641.0125
576.80114	5539.3125
580.82422	5472.3125
584.84444	5553.1125
588.86181	5855.8125
592.87633	6370.8125
596.888	6704.0125
600.89682	6528.2125
604.9028	6483.0125
608.90594	7310.9125
612.90624	8689.9125
616.90371	8550.9125
620.89834	6577.9125
624.89015	5503.0125
628.87913	5271.3125
632.86528	5238.3125
636.84862	5257.3125
640.82913	5186.2125
644.80683	5062.6125
648.78172	4947.8125
652.75379	4954.1125
656.72306	5095.9125
660.68952	5262.6125
664.65319	5225.0125
668.61405	5027.4125
672.57211	4929.7125
676.52738	4946.8125
680.47986	4967.9125
684.42955	4908.1125
688.37646	4896.0125
692.32058	4867.8125
696.26192	4908.9125
700.20048	4974.9125
704.13626	5023.2125
708.06928	5008.8125
711.99952	4993.1125
715.927	4987.8125
719.85171	5038.3125
723.77365	5030.1125
727.69284	5001.0125
731.60928	4972.4125
735.52295	4982.9125
739.43388	5001.4125
743.34206	5018.6125
747.24749	5034.8125
751.15017	5053.0125
755.05012	5112.8125
758.94733	5234.1125
762.8418	5604.7125
766.73354	6298.0125
770.62254	7060.0125
774.50882	7471.5125
778.39237	7155.0125
782.27321	6433.7125
786.15132	5722.4125
790.02671	5296.0125
793.89938	5088.2125
797.76935	4970.4125
801.6366	4926.7125
805.50115	4894.2125
809.36299	4858.1125
813.22213	4837.1125
817.07857	4806.4125
820.93231	4767.5125
824.78336	4778.2125
828.63172	4793.2125
832.47738	4795.5125
836.32036	4782.2125
840.16066	4786.9125
843.99827	4796.5125
847.8332	4796.8125
851.66546	4789.5125
855.49504	4797.1125
859.32195	4811.7125
863.1462	4781.7125
866.96777	4757.4125
870.78668	4761.1125
874.60293	4759.4125
878.41652	4774.0125
882.22745	4799.0125
886.03573	4831.6125
889.84136	4844.0125
893.64433	4845.6125
897.44466	4839.2125
901.24235	4838.6125
905.0374	4856.6125
908.8298	4864.6125
912.61957	4878.8125
916.40671	4946.7125
920.19121	5003.8125
923.97308	5081.0125
927.75233	5160.6125
931.52895	5172.7125
935.30295	5109.6125
939.07433	4961.9125
942.84309	4833.8125
946.60924	4749.1125
950.37278	4712.3125
954.13371	4640.6125
957.89203	4606.9125
961.64774	4575.4125
965.40086	4556.6125
969.15137	4541.1125
972.89929	4520.9125
976.64461	4517.1125
980.38733	4508.7125
984.12747	4506.8125
987.86502	4536.6125
991.59999	4568.7125
995.33237	4608.0125
999.06217	4716.8125
1002.78939	4823.4125
1006.51404	4897.8125
1010.23611	4946.4125
1013.95561	4975.5125
1017.67255	4994.7125
1021.38692	4939.5125
1025.09872	4847.2125
1028.80796	4763.3125
1032.51465	4790.5125
1036.21877	4844.4125
1039.92035	4846.2125
1043.61937	4862.1125
1047.31584	4864.0125
1051.00976	4833.6125
1054.70114	4849.3125
1058.38998	4847.0125
1062.07627	4831.0125
1065.76003	4816.1125
1069.44126	4805.7125
1073.11995	4813.7125
1076.79611	4848.3125
1080.46974	4915.5125
1084.14085	4983.8125
1087.80943	5070.9125
1091.47549	5113.8125
1095.13903	5039.7125
1098.80005	4894.2125
1102.45857	4743.2125
1106.11456	4698.6125
1109.76805	4704.5125
1113.41903	4763.3125
1117.06751	4851.3125
1120.71348	4975.8125
1124.35696	5107.6125
1127.99793	5236.8125
1131.63641	5249.5125
1135.2724	5086.3125
1138.90589	4903.9125
1142.5369	4794.4125
1146.16542	4726.3125
1149.79145	4697.0125
1153.415	4688.2125
1157.03607	4691.8125
1160.65467	4751.8125
1164.27079	4913.1125
1167.88443	5179.4125
1171.49561	5598.4125
1175.10432	6252.3125
1178.71056	7116.1125
1182.31434	7886.7125
1185.91565	8085.0125
1189.51451	7753.2125
1193.11091	7165.5125
1196.70485	6619.6125
1200.29634	6183.0125
1203.88538	5832.1125
1207.47197	5460.6125
1211.05612	5187.0125
1214.63782	5041.3125
1218.21708	5056.0125
1221.79391	5156.0125
1225.36829	5275.9125
1228.94024	5305.0125
1232.50976	5170.4125
1236.07685	4989.4125
1239.6415	4890.9125
1243.20374	4856.0125
1246.76355	4864.5125
1250.32093	4870.9125
1253.8759	4957.5125
1257.42845	5072.5125
1260.97859	5230.2125
1264.52631	5390.6125
1268.07163	5555.5125
1271.61453	5699.4125
1275.15503	5830.4125
1278.69312	5935.2125
1282.22882	6035.0125
1285.76211	6240.2125
1289.29301	6475.1125
1292.82151	6787.0125
1296.34761	7114.6125
1299.87133	7534.4125
1303.39266	8070.6125
1306.9116	8839.2125
1310.42815	9835.2125
1313.94233	10554.6125
1317.45412	10506.8125
1320.96354	9775.8125
1324.47058	8796.9125
1327.97525	7906.4125
1331.47754	7278.5125
1334.97747	6956.1125
1338.47502	6815.2125
1341.97022	6793.5125
1345.46305	6869.4125
1348.95352	7252.4125
1352.44163	7998.3125
1355.92738	9064.0125
1359.41078	10460.4125
1362.89183	11888.6125
1366.37053	12123.3125
1369.84688	10614.8125
1373.32088	8586.3125
1376.79254	7169.1125
1380.26186	6568.8125
1383.72883	6351.4125
1387.19347	6182.9125
1390.65578	5960.4125
1394.11575	5811.2125
1397.57339	5802.2125
1401.0287	5837.4125
1404.48168	5878.6125
1407.93234	5854.8125
1411.38068	5801.4125
1414.82669	5709.3125
1418.27039	5639.7125
1421.71177	5513.2125
1425.15083	5430.7125
1428.58758	5365.6125
1432.02203	5391.2125
1435.45416	5524.6125
1438.88399	5633.5125
1442.31151	5667.5125
1445.73673	5668.6125
1449.15965	5655.5125
1452.58027	5610.0125
1455.9986	5461.5125
1459.41463	5368.7125
1462.82837	5370.5125
1466.23982	5482.3125
1469.64898	5623.5125
1473.05586	5744.6125
1476.46045	5848.7125
1479.86276	5929.4125
1483.26279	5998.8125
1486.66054	6049.5125
1490.05602	6175.8125
1493.44922	6332.7125
1496.84016	6548.8125
1500.22882	6938.5125
1503.61521	7598.2125
1506.99934	8387.3125
1510.38121	9191.0125
1513.76081	9599.6125
1517.13816	9242.4125
1520.51324	8284.2125
1523.88607	7297.8125
1527.25665	6623.7125
1530.62498	6287.9125
1533.99105	6106.6125
1537.35488	5947.5125
1540.71647	5808.6125
1544.07581	5652.6125
1547.4329	5559.6125
1550.78776	5437.5125
1554.14038	5391.9125
1557.49077	5370.1125
1560.83892	5397.7125
1564.18484	5490.2125
1567.52853	5646.4125
1570.86999	5845.4125
1574.20922	5994.6125
1577.54624	6035.2125
1580.88103	5827.0125
1584.2136	5480.2125
1587.54395	5312.9125
1590.87208	5378.0125
1594.19801	5741.9125
1597.52172	6329.9125
1600.84321	6689.6125
1604.16251	6601.5125
1607.47959	6075.9125
1610.79447	5473.8125
1614.10715	4925.2125
1617.41763	4555.3125
1620.7259	4352.1125
1624.03199	4222.1125
1627.33587	4235.7125
1630.63757	4317.5125
1633.93707	4530.4125
1637.23439	4914.0125
1640.52951	5575.5125
1643.82246	6539.6125
1647.11321	7532.2125
1650.40179	8039.3125
1653.68819	7628.4125
1656.97241	6491.3125
1660.25446	5326.9125
1663.53433	4534.4125
1666.81203	4056.6125
1670.08756	3798.8125
1673.36092	3641.3125
1676.63211	3536.7125
1679.90115	3482.1125
1683.16801	3401.6125
1686.43272	3370.1125
1689.69527	3335.9125
1692.95567	3303.5125
1696.2139	3285.3125
1699.46999	3254.7125
1702.72392	3236.0125
1705.97571	3239.0125
1709.22535	3229.0125
1712.47284	3239.4125
1715.71819	3234.5125
1718.96139	3229.0125
1722.20246	3224.9125
1725.44139	3202.3125
1728.67818	3176.9125
1731.91284	3155.9125
1735.14537	3130.1125
1738.37576	3111.9125
1741.60403	3086.3125
1744.83017	3072.1125
1748.05418	3061.0125
1751.27607	3037.0125
1754.49584	3022.3125
1757.71349	3022.0125
1760.92903	3013.2125
1764.14244	2996.8125
1767.35375	2984.7125
1770.56294	2973.6125
1773.77002	2979.1125
1776.97499	2962.5125
1780.17785	2955.7125
1783.37861	2959.6125
1786.57727	2962.9125
1789.77382	2940.2125
1792.96828	2935.4125
1796.16064	2930.3125
1799.3509	2919.8125
1802.53907	2911.5125
1805.72514	2901.9125
1808.90913	2888.8125
1812.09102	2873.9125
1815.27083	2869.4125
1818.44856	2855.9125
1821.6242	2854.4125
1824.79776	2842.3125
1827.96924	2836.3125
1831.13864	2845.0125
1834.30597	2823.5125
1837.47122	2838.4125
1840.6344	2823.9125
1843.7955	2823.6125
1846.95454	2823.6125
1850.11151	2803.3125
1853.26642	2821.9125
1856.41926	2805.2125
1859.57004	2802.3125
1862.71876	2789.5125
1865.86542	2783.0125
1869.01003	2789.0125
1872.15258	2782.8125
1875.29308	2781.5125
1878.43152	2786.2125
1881.56792	2780.6125
1884.70227	2774.2125
1887.83457	2770.3125
1890.96482	2779.8125
1894.09304	2763.6125
1897.21921	2758.7125
1900.34335	2760.3125
1903.46544	2753.4125
1906.58551	2758.2125
1909.70353	2745.9125
1912.81953	2743.7125
1915.93349	2731.3125
1919.04543	2744.8125
1922.15534	2715.6125
1925.26322	2710.2125
1928.36908	2693.3125
1931.47292	2687.4125
1934.57473	2681.9125
1937.67453	2675.9125
1940.77232	2660.6125
1943.86808	2648.2125
1946.96184	2650.5125
1950.05358	2636.2125
1953.14331	2624.5125
1956.23103	2612.1125
1959.31675	2605.3125
1962.40046	2605.8125
1965.48217	2588.0125
1968.56188	2579.9125
1971.63959	2577.7125
1974.7153	2568.8125
1977.78901	2557.2125
1980.86073	2541.8125
1983.93046	2527.7125
1986.99819	2535.1125
1990.06394	2514.9125
1993.1277	2510.5125
1996.18947	2502.2125
1999.24925	2498.9125
2002.30706	2483.3125
2005.36288	2467.6125
2008.41672	2474.3125
2011.46859	2452.0125
2014.51848	2444.8125
2017.56639	2442.3125
2020.61233	2430.5125
2023.6563	2436.3125
2026.6983	2414.5125
2029.73833	2402.4125
2032.7764	2401.6125
2035.8125	2398.4125
2038.84664	2404.2125
2041.87881	2398.9125
2044.90903	2392.4125
2047.93729	2388.9125
2050.96359	2372.2125
2053.98794	2376.4125
2057.01034	2365.1125
2060.03078	2371.3125
2063.04927	2361.0125
2066.06582	2358.4125
2069.08042	2367.1125
2072.09307	2359.1125
2075.10378	2347.9125
2078.11255	2340.8125
2081.11938	2352.8125
2084.12426	2350.6125
2087.12722	2343.7125
2090.12824	2340.3125
2093.12732	2335.0125
2096.12447	2339.6125
2099.11969	2343.4125
2102.11299	2344.8125
2105.10435	2341.4125
2108.09379	2331.1125
2111.08131	2345.4125
2114.0669	2334.3125
2117.05057	2331.4125
2120.03233	2346.0125
2123.01216	2329.8125
2125.99008	2335.9125
2128.96609	2349.2125
2131.94018	2338.1125
2134.91236	2339.8125
2137.88263	2340.8125
2140.851	2338.5125
2143.81746	2339.4125
2146.78201	2330.3125
2149.74466	2331.9125
2152.7054	2324.7125
2155.66425	2333.9125
2158.6212	2324.8125
2161.57625	2332.3125
2164.52941	2325.8125
2167.48067	2319.3125
2170.43004	2321.5125
2173.37752	2321.2125
2176.32311	2311.7125
2179.26681	2311.3125
2182.20863	2316.6125
2185.14856	2314.4125
2188.08661	2316.7125
2191.02278	2309.6125
2193.95707	2310.4125
2196.88948	2320.5125
2199.82001	2302.0125
2202.74867	2297.6125
2205.67545	2307.1125
2208.60037	2298.4125
2211.52341	2287.5125
2214.44458	2283.9125
2217.36388	2271.3125
2220.28132	2271.4125
2223.1969	2258.7125
2226.11061	2256.5125
2229.02246	2238.5125
2231.93245	2244.3125
2234.84058	2240.4125
2237.74686	2237.2125
2240.65128	2243.4125
2243.55385	2233.8125
2246.45456	2230.8125
2249.35343	2220.0125
2252.25044	2216.4125
2255.14561	2216.7125
2258.03893	2215.8125
2260.93041	2205.5125
2263.82004	2195.4125
2266.70783	2191.3125
2269.59378	2187.1125
2272.4779	2177.6125
2275.36017	2173.8125
2278.24061	2172.6125
2281.11922	2164.1125
2283.996	2167.3125
2286.87094	2154.2125
2289.74405	2139.5125
2292.61534	2139.2125
2295.4848	2126.4125
2298.35243	2140.0125
2301.21824	2126.0125
2304.08223	2129.8125
2306.94439	2140.4125
2309.80474	2133.1125
2312.66327	2130.2125
2315.51999	2116.2125
2318.37489	2125.6125
2321.22797	2120.1125
2324.07925	2121.1125
2326.92871	2120.4125
2329.77637	2116.6125
2332.62222	2111.9125
2335.46626	2099.6125
2338.3085	2094.3125
2341.14893	2102.5125
2343.98756	2087.7125
2346.8244	2094.7125
2349.65943	2092.8125
2352.49267	2088.5125
2355.32411	2091.9125
2358.15376	2095.8125
2360.98161	2089.8125
2363.80768	2100.5125
2366.63195	2109.1125
2369.45444	2090.5125
2372.27514	2098.4125
2375.09405	2086.3125
2377.91118	2077.9125
2380.72652	2076.0125
2383.54009	2069.6125
2386.35187	2070.6125
2389.16188	2044.6125
2391.97011	2046.4125
2394.77657	2033.2125
2397.58125	2041.9125
2400.38416	2029.5125
2403.18529	2022.1125
2405.98466	2023.5125
2408.78226	2011.3125
2411.57809	2008.5125
2414.37216	1994.8125
2417.16446	2008.4125
2419.955	1980.5125
2422.74378	1998.1125
2425.5308	1980.2125
2428.31606	1981.8125
2431.09956	1986.8125
2433.88131	1986.0125
2436.6613	1981.7125
2439.43954	1976.3125
2442.21603	1983.5125
2444.99077	1977.6125
2447.76377	1981.1125
2450.53501	1974.4125
2453.30451	1977.4125
2456.07226	1980.0125
2458.83827	1966.3125
2461.60254	1976.9125
2464.36507	1972.1125
2467.12586	1967.9125
2469.88492	1963.2125
2472.64224	1965.5125
2475.39782	1960.7125
2478.15167	1955.7125
2480.90379	1964.0125
2483.65417	1951.8125
2486.40283	1957.6125
2489.14976	1960.2125
2491.89497	1965.0125
2494.63845	1966.5125
2497.3802	1946.2125
2500.12024	1954.0125
2502.85855	1956.1125
2505.59514	1942.1125
2508.33002	1951.6125
2511.06318	1941.1125
2513.79462	1929.3125
2516.52435	1923.7125
2519.25237	1909.1125
2521.97867	1909.4125
2524.70327	1906.9125
2527.42616	1898.4125
2530.14734	1900.4125
2532.86681	1891.7125
2535.58458	1883.5125
2538.30065	1898.7125
2541.01501	1895.3125
2543.72768	1884.2125
2546.43864	1883.0125
2549.14791	1881.2125
2551.85548	1890.0125
2554.56136	1886.0125
2557.26554	1868.5125
2559.96803	1867.6125
2562.66883	1882.5125
2565.36794	1875.8125
2568.06536	1865.9125
2570.7611	1862.0125
2573.45514	1865.5125
2576.14751	1857.2125
2578.83819	1859.1125
2581.52719	1841.7125
2584.21451	1852.8125
2586.90015	1849.6125
2589.58411	1848.6125
2592.2664	1845.7125
2594.94701	1834.6125
2597.62594	1828.0125
2600.30321	1821.3125
2602.9788	1835.5125
2605.65273	1831.2125
2608.32498	1825.2125
2610.99557	1819.5125
2613.66449	1822.5125
2616.33175	1823.1125
2618.99734	1823.7125
2621.66128	1818.3125
2624.32355	1815.5125
2626.98416	1813.4125
2629.64311	1810.2125
2632.30041	1818.3125
2634.95605	1813.1125
2637.61004	1810.5125
2640.26238	1804.7125
2642.91306	1802.5125
2645.56209	1797.4125
2648.20948	1786.8125
2650.85521	1803.6125
2653.4993	1790.5125
2656.14175	1795.1125
2658.78255	1800.4125
2661.42171	1800.2125
2664.05923	1794.3125
2666.6951	1794.1125
2669.32934	1795.4125
2671.96194	1794.4125
2674.59291	1804.4125
2677.22224	1799.8125
2679.84993	1801.9125
2682.476	1795.9125
2685.10043	1799.9125
2687.72324	1797.5125
2690.34441	1801.5125
2692.96396	1790.6125
2695.58188	1798.1125
2698.19818	1785.1125
2700.81285	1793.9125
2703.4259	1786.5125
2706.03733	1761.6125
2708.64714	1771.3125
2711.25533	1787.0125
2713.86191	1796.8125
2716.46687	1800.0125
2719.07021	1802.7125
2721.67194	1815.0125
2724.27206	1811.2125
2726.87057	1816.4125
2729.46747	1820.1125
2732.06276	1822.4125
2734.65644	1831.9125
2737.24852	1816.1125
2739.83899	1821.6125
2742.42786	1823.4125
2745.01513	1829.3125
2747.60079	1825.5125
2750.18486	1825.8125
2752.76733	1842.8125
2755.3482	1837.7125
2757.92747	1841.8125
2760.50515	1833.9125
2763.08123	1833.4125
2765.65573	1836.4125
2768.22863	1821.6125
2770.79994	1836.1125
2773.36967	1832.7125
2775.9378	1833.7125
2778.50435	1830.0125
2781.06932	1820.9125
2783.6327	1826.9125
2786.1945	1832.8125
2788.75471	1828.8125
2791.31335	1829.2125
2793.87041	1824.8125
2796.42589	1827.7125
2798.97979	1834.3125
2801.53212	1823.7125
2804.08288	1832.9125
2806.63206	1825.2125
2809.17967	1823.2125
2811.72571	1831.8125
2814.27018	1827.9125
2816.81308	1827.1125
2819.35442	1822.1125
2821.89419	1824.0125
2824.43239	1822.4125
2826.96904	1824.4125
2829.50412	1827.5125
2832.03763	1821.2125
2834.56959	1843.7125
2837.1	1833.1125
2839.62884	1841.9125
2842.15613	1853.5125
2844.68186	1897.3125
2847.20604	1913.9125
2849.72867	1935.0125
2852.24974	1955.3125
2854.76927	1954.5125
2857.28724	1960.1125
2859.80367	1969.2125
2862.31855	1993.5125
2864.83189	2003.5125
2867.34368	2004.8125
2869.85393	2017.0125
2872.36264	2025.3125
2874.8698	2040.3125
2877.37543	2051.8125
2879.87952	2062.5125
2882.38207	2055.7125
2884.88308	2071.5125
2887.38256	2085.7125
2889.88051	2082.9125
2892.37692	2086.7125
2894.8718	2086.3125
2897.36515	2092.4125
2899.85698	2078.8125
2902.34727	2084.0125
2904.83604	2084.4125
2907.32328	2097.0125
2909.809	2086.4125
2912.29319	2077.3125
2914.77587	2088.2125
2917.25702	2074.9125
2919.73665	2081.5125
2922.21476	2075.9125
2924.69136	2066.6125
2927.16644	2077.8125
2929.64	2064.8125
2932.11205	2049.6125
2934.58258	2046.0125
2937.05161	2034.4125
2939.51912	2009.7125
2941.98513	1993.7125
2944.44962	1962.7125
2946.91261	1936.4125
2949.37409	1916.3125
2951.83407	1899.2125
2954.29254	1883.6125
2956.74951	1868.9125
2959.20498	1846.6125
2961.65895	1841.3125
2964.11142	1810.6125
2966.56239	1802.7125
2969.01186	1793.9125
2971.45984	1779.8125
2973.90632	1756.7125
2976.35131	1747.4125
2978.7948	1725.5125
2981.23681	1715.8125
2983.67732	1703.7125
2986.11635	1697.6125
2988.55388	1687.7125
2990.98993	1681.8125
2993.4245	1672.6125
2995.85758	1665.3125
2998.28917	1662.4125
3000.71928	1647.8125
3003.14791	1656.4125
3005.57506	1651.1125
3008.00073	1641.0125
3010.42493	1639.9125
3012.84764	1642.1125
3015.26888	1645.1125
3017.68865	1634.4125
3020.10694	1643.5125
3022.52376	1619.9125
3024.9391	1626.4125
3027.35298	1614.8125
3029.76539	1616.5125
3032.17632	1616.3125
3034.5858	1623.0125
3036.9938	1615.2125
3039.40034	1608.6125
3041.80542	1615.4125
3044.20903	1610.3125
3046.61118	1615.8125
3049.01187	1605.3125
3051.4111	1607.4125
3053.80888	1610.6125
3056.20519	1610.7125
3058.60005	1610.9125
3060.99345	1608.8125
3063.3854	1615.8125
3065.7759	1606.3125
3068.16494	1611.1125
3070.55254	1609.8125
3072.93868	1608.0125
3075.32338	1606.1125
3077.70662	1613.0125
3080.08842	1612.5125
3082.46878	1604.6125
3084.84769	1612.9125
3087.22515	1611.2125
3089.60118	1622.4125
3091.97576	1627.4125
3094.3489	1616.8125
3096.72061	1619.2125
3099.09087	1617.8125
3101.4597	1623.5125
3103.82709	1628.6125
3106.19305	1627.3125
3108.55757	1635.7125
3110.92066	1629.9125
3113.28232	1637.2125
3115.64255	1633.1125
3118.00134	1638.1125
3120.35871	1642.5125
3122.71466	1645.2125
3125.06917	1641.9125
