Data from AgNPs_FTO_APTES_UA_1uM_R6G_10uM_NaF_0.1M_Addition_RamanShift__21__11-28-27-179.txt Node

Date: Fri Dec 17 11:28:27 GMT 2021
User: TCL
Spectrometer: QEP01345
Trigger mode: 4
Integration Time (sec): 7.000000E0
Scans to average: 10
Electric dark correction enabled: true
Nonlinearity correction enabled: false
Boxcar width: 0
XAxis mode: Raman Shifts
Number of Pixels in Spectrum: 1044
>>>>>Begin Spectral Data<<<<<
46.04893	-0.575
50.45542	-0.675
54.85868	-3.275
59.25871	0.725
63.6555	104.325
68.04907	112.025
72.43941	117.025
76.82654	123.025
81.21044	127.125
85.59113	133.325
89.96862	139.525
94.34289	146.225
98.71396	143.725
103.08183	152.925
107.4465	156.325
111.80798	158.425
116.16626	164.025
120.52136	162.125
124.87327	172.025
129.222	182.825
133.56755	195.625
137.90993	203.925
142.24913	221.825
146.58517	245.425
150.91804	277.225
155.24774	330.325
159.57429	412.625
163.89768	518.525
168.21792	682.225
172.53501	915.725
176.84895	1270.225
181.15975	1768.425
185.46741	2468.025
189.77193	3399.825
194.07331	4537.725
198.37157	5851.325
202.6667	7224.225
206.9587	8571.825
211.24758	9937.825
215.53334	11293.025
219.81599	12733.225
224.09553	14344.325
228.37195	16130.625
232.64527	18098.825
236.91549	20136.725
241.18261	22123.425
245.44663	23975.625
249.70755	25564.925
253.96539	26906.725
258.22014	28086.625
262.4718	29107.725
266.72039	29890.825
270.96589	30243.225
275.20832	30315.725
279.44768	30093.825
283.68397	29701.825
287.91719	29371.925
292.14735	29129.125
296.37445	29172.025
300.59849	29446.425
304.81948	29787.625
309.03742	30024.825
313.25231	29815.825
317.46415	29010.825
321.67296	27893.625
325.87872	26980.725
330.08145	26606.725
334.28114	26608.725
338.47781	26890.325
342.67145	27373.225
346.86207	28014.425
351.04966	28951.225
355.23424	29958.625
359.4158	30730.225
363.59435	31333.925
367.76989	31615.325
371.94243	31792.125
376.11196	31875.225
380.27849	31951.925
384.44203	31991.425
388.60257	32059.425
392.76012	32202.825
396.91468	32554.225
401.06626	33153.625
405.21485	33596.925
409.36047	33456.825
413.50311	32758.625
417.64277	32051.725
421.77947	31699.325
425.9132	31732.725
430.04396	31827.225
434.17176	31994.525
438.2966	32343.325
442.41849	32880.925
446.53742	33680.825
450.6534	34525.925
454.76644	35339.225
458.87653	35658.325
462.98368	35532.425
467.08789	35166.225
471.18916	34507.525
475.2875	33841.725
479.38291	33380.425
483.4754	33061.025
487.56496	32726.625
491.6516	32412.725
495.73531	32087.725
499.81612	31957.925
503.89401	32073.325
507.96899	32204.625
512.04106	32372.025
516.11023	32535.125
520.1765	32600.925
524.23987	32518.025
528.30034	32235.725
532.35792	31848.625
536.41261	31412.425
540.46441	30954.125
544.51333	30760.725
548.55936	31009.225
552.60252	31481.225
556.64279	32039.225
560.6802	32305.925
564.71473	32517.925
568.7464	33082.825
572.7752	33655.925
576.80114	33720.325
580.82422	33694.125
584.84444	33898.725
588.86181	34191.025
592.87633	34641.025
596.888	35192.825
600.89682	35975.925
604.9028	38059.425
608.90594	43045.025
612.90624	48610.825
616.90371	46319.225
620.89834	37688.025
624.89015	33791.325
628.87913	33124.425
632.86528	33111.225
636.84862	32867.525
640.82913	32314.825
644.80683	31441.325
648.78172	30760.125
652.75379	30678.725
656.72306	31240.325
660.68952	31949.725
664.65319	31881.825
668.61405	31134.225
672.57211	30823.125
676.52738	30784.525
680.47986	30803.425
684.42955	30655.425
688.37646	30671.925
692.32058	30796.025
696.26192	31054.325
700.20048	31410.825
704.13626	31617.425
708.06928	31475.225
711.99952	31185.725
715.927	31094.325
719.85171	31163.525
723.77365	31052.825
727.69284	30724.425
731.60928	30489.025
735.52295	30417.325
739.43388	30514.325
743.34206	30625.825
747.24749	30805.825
751.15017	31058.125
755.05012	31481.325
758.94733	32412.825
762.8418	34197.425
766.73354	37133.725
770.62254	40223.525
774.50882	41527.225
778.39237	39826.725
782.27321	36537.725
786.15132	33679.325
790.02671	31981.925
793.89938	31212.725
797.76935	30828.225
801.6366	30733.925
805.50115	30629.125
809.36299	30476.425
813.22213	30277.725
817.07857	30141.125
820.93231	30170.925
824.78336	30144.625
828.63172	30176.925
832.47738	30209.725
836.32036	30357.725
840.16066	30485.125
843.99827	30592.825
847.8332	30535.425
851.66546	30334.725
855.49504	30249.425
859.32195	30227.025
863.1462	30115.725
866.96777	29973.525
870.78668	29884.825
874.60293	29844.725
878.41652	29931.225
882.22745	30054.025
886.03573	30139.325
889.84136	30131.525
893.64433	30017.325
897.44466	29887.125
901.24235	29815.025
905.0374	29725.225
908.8298	29718.025
912.61957	29751.325
916.40671	29914.325
920.19121	30301.725
923.97308	30737.225
927.75233	31082.725
931.52895	31222.425
935.30295	30955.325
939.07433	30298.025
942.84309	29810.625
946.60924	29569.525
950.37278	29395.125
954.13371	29194.025
957.89203	28964.225
961.64774	28870.325
965.40086	28722.325
969.15137	28604.925
972.89929	28578.125
976.64461	28573.025
980.38733	28648.925
984.12747	28826.025
987.86502	29107.025
991.59999	29529.325
995.33237	30130.625
999.06217	31167.625
1002.78939	32373.725
1006.51404	33069.925
1010.23611	33449.825
1013.95561	33650.625
1017.67255	33627.525
1021.38692	33196.925
1025.09872	33105.325
1028.80796	33543.525
1032.51465	34803.825
1036.21877	35907.825
1039.92035	35972.725
1043.61937	35308.325
1047.31584	34155.425
1051.00976	32891.825
1054.70114	32170.225
1058.38998	31922.325
1062.07627	31977.725
1065.76003	32103.325
1069.44126	32323.025
1073.11995	32737.625
1076.79611	33155.725
1080.46974	33404.225
1084.14085	33647.125
1087.80943	33943.725
1091.47549	33955.425
1095.13903	33561.325
1098.80005	32829.125
1102.45857	32150.125
1106.11456	31752.325
1109.76805	31777.925
1113.41903	31975.525
1117.06751	32358.025
1120.71348	32814.525
1124.35696	33283.425
1127.99793	33758.125
1131.63641	33929.925
1135.2724	33490.125
1138.90589	32903.825
1142.5369	32503.325
1146.16542	32219.225
1149.79145	32011.125
1153.415	32080.425
1157.03607	32361.425
1160.65467	32890.725
1164.27079	33857.925
1167.88443	35332.625
1171.49561	37473.425
1175.10432	40620.125
1178.71056	44746.725
1182.31434	48493.725
1185.91565	50543.125
1189.51451	50412.225
1193.11091	48391.925
1196.70485	45643.125
1200.29634	43155.825
1203.88538	41235.925
1207.47197	39690.325
1211.05612	38450.325
1214.63782	37781.825
1218.21708	37642.025
1221.79391	37852.025
1225.36829	38163.725
1228.94024	38109.125
1232.50976	37764.425
1236.07685	37447.125
1239.6415	37295.725
1243.20374	37146.525
1246.76355	37248.325
1250.32093	37650.025
1253.8759	38419.025
1257.42845	39568.425
1260.97859	40677.525
1264.52631	41626.425
1268.07163	42630.625
1271.61453	43866.025
1275.15503	45221.725
1278.69312	46470.825
1282.22882	47382.525
1285.76211	48183.825
1289.29301	48957.825
1292.82151	49889.125
1296.34761	51132.525
1299.87133	53105.125
1303.39266	56124.725
1306.9116	60415.025
1310.42815	65031.625
1313.94233	68143.125
1317.45412	68241.325
1320.96354	66177.325
1324.47058	63505.925
1327.97525	61010.425
1331.47754	59238.725
1334.97747	58450.225
1338.47502	58479.925
1341.97022	58734.125
1345.46305	58779.025
1348.95352	58594.325
1352.44163	59032.325
1355.92738	60908.025
1359.41078	65040.525
1362.89183	69437.925
1366.37053	68749.225
1369.84688	62214.425
1373.32088	54741.225
1376.79254	49663.125
1380.26186	47120.525
1383.72883	46126.225
1387.19347	45381.125
1390.65578	44602.025
1394.11575	44180.125
1397.57339	44294.525
1401.0287	44981.425
1404.48168	45793.525
1407.93234	46484.425
1411.38068	46859.425
1414.82669	46550.125
1418.27039	45548.325
1421.71177	44232.625
1425.15083	43154.725
1428.58758	42459.425
1432.02203	42303.125
1435.45416	42616.425
1438.88399	43127.125
1442.31151	43506.325
1445.73673	43867.325
1449.15965	44275.825
1452.58027	44431.025
1455.9986	44377.625
1459.41463	44433.125
1462.82837	44906.225
1466.23982	45686.425
1469.64898	46471.425
1473.05586	46867.825
1476.46045	47014.125
1479.86276	47199.725
1483.26279	47435.325
1486.66054	47768.025
1490.05602	48407.425
1493.44922	49249.625
1496.84016	50138.225
1500.22882	51411.825
1503.61521	53415.425
1506.99934	56064.325
1510.38121	58836.325
1513.76081	60052.325
1517.13816	58667.125
1520.51324	55009.425
1523.88607	51236.825
1527.25665	48578.625
1530.62498	46967.925
1533.99105	45999.225
1537.35488	45458.825
1540.71647	44939.225
1544.07581	44643.925
1547.4329	44245.825
1550.78776	44001.325
1554.14038	43861.125
1557.49077	43917.125
1560.83892	44080.425
1564.18484	44284.925
1567.52853	44466.825
1570.86999	44695.725
1574.20922	45190.225
1577.54624	45600.825
1580.88103	45461.625
1584.2136	45084.125
1587.54395	45530.925
1590.87208	47015.825
1594.19801	49529.425
1597.52172	52441.225
1600.84321	53430.325
1604.16251	51549.825
1607.47959	48035.025
1610.79447	44198.525
1614.10715	40837.925
1617.41763	38059.125
1620.7259	36300.725
1624.03199	35481.425
1627.33587	35689.725
1630.63757	36758.825
1633.93707	38753.925
1637.23439	41442.325
1640.52951	44840.025
1643.82246	48362.025
1647.11321	51153.225
1650.40179	51898.725
1653.68819	49347.225
1656.97241	44065.525
1660.25446	38589.325
1663.53433	34506.525
1666.81203	31993.725
1670.08756	30396.925
1673.36092	29404.625
1676.63211	28792.325
1679.90115	28300.925
1683.16801	27975.825
1686.43272	27691.925
1689.69527	27524.625
1692.95567	27388.725
1696.2139	27276.325
1699.46999	27192.925
1702.72392	27162.425
1705.97571	27103.425
1709.22535	27097.125
1712.47284	27085.925
1715.71819	27074.025
1718.96139	27031.425
1722.20246	26942.325
1725.44139	26839.325
1728.67818	26764.725
1731.91284	26603.925
1735.14537	26459.625
1738.37576	26406.625
1741.60403	26313.125
1744.83017	26241.825
1748.05418	26178.425
1751.27607	26117.725
1754.49584	26076.625
1757.71349	26028.325
1760.92903	26045.325
1764.14244	26053.725
1767.35375	26037.125
1770.56294	25990.725
1773.77002	25924.725
1776.97499	25900.025
1780.17785	25944.625
1783.37861	25855.025
1786.57727	25857.225
1789.77382	25822.825
1792.96828	25821.425
1796.16064	25823.425
1799.3509	25770.325
1802.53907	25722.725
1805.72514	25703.325
1808.90913	25626.525
1812.09102	25545.325
1815.27083	25508.425
1818.44856	25455.125
1821.6242	25472.925
1824.79776	25439.525
1827.96924	25451.625
1831.13864	25407.425
1834.30597	25428.425
1837.47122	25440.425
1840.6344	25452.925
1843.7955	25477.125
1846.95454	25472.225
1850.11151	25500.825
1853.26642	25518.425
1856.41926	25468.625
1859.57004	25530.725
1862.71876	25544.025
1865.86542	25490.825
1869.01003	25539.525
1872.15258	25483.125
1875.29308	25574.825
1878.43152	25544.125
1881.56792	25562.825
1884.70227	25587.925
1887.83457	25608.125
1890.96482	25587.525
1894.09304	25610.825
1897.21921	25629.725
1900.34335	25609.525
1903.46544	25555.325
1906.58551	25579.925
1909.70353	25587.325
1912.81953	25525.025
1915.93349	25460.525
1919.04543	25423.425
1922.15534	25366.425
1925.26322	25251.525
1928.36908	25233.725
1931.47292	25184.625
1934.57473	25091.225
1937.67453	25005.825
1940.77232	24921.325
1943.86808	24780.525
1946.96184	24719.825
1950.05358	24601.325
1953.14331	24528.425
1956.23103	24451.825
1959.31675	24356.525
1962.40046	24278.025
1965.48217	24242.825
1968.56188	24159.825
1971.63959	24107.825
1974.7153	24045.825
1977.78901	23931.025
1980.86073	23841.825
1983.93046	23736.325
1986.99819	23687.225
1990.06394	23650.525
1993.1277	23555.725
1996.18947	23483.625
1999.24925	23440.825
2002.30706	23345.525
2005.36288	23271.225
2008.41672	23246.225
2011.46859	23147.125
2014.51848	23127.325
2017.56639	23073.525
2020.61233	23029.825
2023.6563	23011.425
2026.6983	22977.425
2029.73833	22919.025
2032.7764	22871.125
2035.8125	22851.625
2038.84664	22836.025
2041.87881	22820.825
2044.90903	22790.125
2047.93729	22732.525
2050.96359	22729.625
2053.98794	22679.725
2057.01034	22642.525
2060.03078	22646.425
2063.04927	22581.025
2066.06582	22584.325
2069.08042	22594.425
2072.09307	22584.225
2075.10378	22519.025
2078.11255	22517.125
2081.11938	22486.625
2084.12426	22468.925
2087.12722	22475.825
2090.12824	22457.625
2093.12732	22459.125
2096.12447	22482.425
2099.11969	22468.125
2102.11299	22482.225
2105.10435	22458.425
2108.09379	22502.625
2111.08131	22604.025
2114.0669	22604.625
2117.05057	22564.025
2120.03233	22532.825
2123.01216	22552.125
2125.99008	22577.625
2128.96609	22584.325
2131.94018	22655.025
2134.91236	22627.425
2137.88263	22653.425
2140.851	22659.425
2143.81746	22707.825
2146.78201	22703.025
2149.74466	22680.625
2152.7054	22667.825
2155.66425	22706.525
2158.6212	22700.225
2161.57625	22709.325
2164.52941	22689.025
2167.48067	22684.425
2170.43004	22697.225
2173.37752	22698.125
2176.32311	22697.625
2179.26681	22670.625
2182.20863	22689.025
2185.14856	22712.725
2188.08661	22736.525
2191.02278	22704.025
2193.95707	22747.425
2196.88948	22714.225
2199.82001	22715.125
2202.74867	22733.125
2205.67545	22726.325
2208.60037	22720.825
2211.52341	22668.425
2214.44458	22659.025
2217.36388	22599.525
2220.28132	22629.125
2223.1969	22578.225
2226.11061	22572.625
2229.02246	22544.725
2231.93245	22460.425
2234.84058	22418.625
2237.74686	22370.325
2240.65128	22367.825
2243.55385	22332.425
2246.45456	22306.725
2249.35343	22316.225
2252.25044	22254.525
2255.14561	22200.425
2258.03893	22209.525
2260.93041	22151.825
2263.82004	22124.825
2266.70783	22110.825
2269.59378	22026.625
2272.4779	22010.725
2275.36017	21927.025
2278.24061	21924.925
2281.11922	21878.325
2283.996	21873.225
2286.87094	21811.525
2289.74405	21802.525
2292.61534	21789.925
2295.4848	21753.625
2298.35243	21770.125
2301.21824	21769.125
2304.08223	21805.725
2306.94439	21814.425
2309.80474	21824.625
2312.66327	21839.525
2315.51999	21875.425
2318.37489	21842.125
2321.22797	21826.325
2324.07925	21817.425
2326.92871	21825.425
2329.77637	21783.525
2332.62222	21766.525
2335.46626	21765.225
2338.3085	21788.325
2341.14893	21789.225
2343.98756	21770.725
2346.8244	21817.725
2349.65943	21782.725
2352.49267	21782.025
2355.32411	21809.325
2358.15376	21737.125
2360.98161	21733.025
2363.80768	21686.525
2366.63195	21686.325
2369.45444	21660.825
2372.27514	21597.525
2375.09405	21564.425
2377.91118	21517.525
2380.72652	21462.125
2383.54009	21422.525
2386.35187	21407.625
2389.16188	21339.725
2391.97011	21302.325
2394.77657	21293.925
2397.58125	21272.325
2400.38416	21218.825
2403.18529	21173.025
2405.98466	21139.525
2408.78226	21124.025
2411.57809	21073.825
2414.37216	21018.025
2417.16446	20990.125
2419.955	20955.925
2422.74378	20971.825
2425.5308	20903.725
2428.31606	20905.525
2431.09956	20892.325
2433.88131	20869.925
2436.6613	20882.225
2439.43954	20858.925
2442.21603	20843.625
2444.99077	20843.425
2447.76377	20844.725
2450.53501	20822.125
2453.30451	20797.525
2456.07226	20812.925
2458.83827	20824.125
2461.60254	20802.725
2464.36507	20827.525
2467.12586	20833.625
2469.88492	20816.725
2472.64224	20820.825
2475.39782	20824.325
2478.15167	20797.125
2480.90379	20834.325
2483.65417	20846.325
2486.40283	20831.525
2489.14976	20871.125
2491.89497	20868.825
2494.63845	20867.625
2497.3802	20895.925
2500.12024	20870.025
2502.85855	20858.425
2505.59514	20865.225
2508.33002	20827.725
2511.06318	20793.025
2513.79462	20762.625
2516.52435	20757.725
2519.25237	20759.425
2521.97867	20729.925
2524.70327	20686.525
2527.42616	20700.925
2530.14734	20663.625
2532.86681	20638.925
2535.58458	20627.525
2538.30065	20611.125
2541.01501	20612.625
2543.72768	20562.825
2546.43864	20575.025
2549.14791	20517.825
2551.85548	20594.225
2554.56136	20555.925
2557.26554	20525.325
2559.96803	20519.725
2562.66883	20498.025
2565.36794	20489.825
2568.06536	20484.625
2570.7611	20435.725
2573.45514	20435.225
2576.14751	20418.825
2578.83819	20375.725
2581.52719	20423.925
2584.21451	20388.925
2586.90015	20409.625
2589.58411	20379.425
2592.2664	20351.425
2594.94701	20348.725
2597.62594	20320.125
2600.30321	20302.725
2602.9788	20306.725
2605.65273	20314.025
2608.32498	20288.925
2610.99557	20288.425
2613.66449	20284.625
2616.33175	20259.625
2618.99734	20250.525
2621.66128	20295.525
2624.32355	20284.625
2626.98416	20285.525
2629.64311	20309.625
2632.30041	20324.125
2634.95605	20272.525
2637.61004	20240.225
2640.26238	20236.725
2642.91306	20181.725
2645.56209	20134.025
2648.20948	20109.325
2650.85521	20109.325
2653.4993	20140.325
2656.14175	20131.825
2658.78255	20124.625
2661.42171	20082.225
2664.05923	20116.525
2666.6951	20110.325
2669.32934	20164.025
2671.96194	20186.225
2674.59291	20208.125
2677.22224	20151.525
2679.84993	20186.425
2682.476	20149.125
2685.10043	20142.125
2687.72324	20115.125
2690.34441	20101.425
2692.96396	20102.825
2695.58188	20111.925
2698.19818	20101.025
2700.81285	20047.825
2703.4259	20047.925
2706.03733	20061.125
2708.64714	20066.925
2711.25533	20073.925
2713.86191	20080.025
2716.46687	20110.825
2719.07021	20115.625
2721.67194	20124.725
2724.27206	20094.225
2726.87057	20100.725
2729.46747	20128.225
2732.06276	20133.925
2734.65644	20095.125
2737.24852	20079.225
2739.83899	20078.425
2742.42786	20124.525
2745.01513	20080.325
2747.60079	20077.225
2750.18486	20070.825
2752.76733	20094.525
2755.3482	20069.425
2757.92747	20102.325
2760.50515	20068.925
2763.08123	20079.825
2765.65573	20084.425
2768.22863	20062.725
2770.79994	20045.325
2773.36967	20045.125
2775.9378	19983.125
2778.50435	19997.625
2781.06932	20015.425
2783.6327	19944.625
2786.1945	19992.025
2788.75471	19916.925
2791.31335	19895.325
2793.87041	19884.425
2796.42589	19836.725
2798.97979	19806.625
2801.53212	19764.125
2804.08288	19734.025
2806.63206	19707.525
2809.17967	19640.325
2811.72571	19656.125
2814.27018	19640.725
2816.81308	19645.125
2819.35442	19640.825
2821.89419	19627.425
2824.43239	19605.825
2826.96904	19605.325
2829.50412	19595.025
2832.03763	19526.025
2834.56959	19523.825
2837.1	19514.525
2839.62884	19520.125
2842.15613	19541.725
2844.68186	19569.225
2847.20604	19601.225
2849.72867	19561.525
2852.24974	19557.925
2854.76927	19540.725
2857.28724	19531.225
2859.80367	19522.325
2862.31855	19473.625
2864.83189	19490.525
2867.34368	19486.425
2869.85393	19486.325
2872.36264	19497.925
2874.8698	19511.625
2877.37543	19511.225
2879.87952	19531.325
2882.38207	19529.125
2884.88308	19534.325
2887.38256	19571.525
2889.88051	19566.525
2892.37692	19568.025
2894.8718	19580.125
2897.36515	19616.825
2899.85698	19585.325
2902.34727	19656.925
2904.83604	19616.425
2907.32328	19659.525
2909.809	19653.925
2912.29319	19682.825
2914.77587	19654.825
2917.25702	19639.225
2919.73665	19633.525
2922.21476	19650.825
2924.69136	19595.225
2927.16644	19639.925
2929.64	19566.925
2932.11205	19571.725
2934.58258	19469.725
2937.05161	19497.025
2939.51912	19509.625
2941.98513	19455.225
2944.44962	19387.625
2946.91261	19346.925
2949.37409	19369.725
2951.83407	19345.125
2954.29254	19302.325
2956.74951	19278.925
2959.20498	19270.825
2961.65895	19242.325
2964.11142	19239.425
2966.56239	19138.725
2969.01186	19136.425
2971.45984	19079.525
2973.90632	19022.725
2976.35131	18970.225
2978.7948	18934.525
2981.23681	18891.425
2983.67732	18858.325
2986.11635	18818.925
2988.55388	18735.525
2990.98993	18758.625
2993.4245	18664.525
2995.85758	18674.725
2998.28917	18641.325
3000.71928	18591.225
3003.14791	18571.425
3005.57506	18545.225
3008.00073	18487.025
3010.42493	18499.425
3012.84764	18488.025
3015.26888	18462.325
3017.68865	18390.525
3020.10694	18394.825
3022.52376	18326.325
3024.9391	18302.325
3027.35298	18295.825
3029.76539	18256.325
3032.17632	18239.125
3034.5858	18177.425
3036.9938	18181.825
3039.40034	18162.325
3041.80542	18158.125
3044.20903	18130.325
3046.61118	18110.125
3049.01187	18039.325
3051.4111	18068.225
3053.80888	17959.825
3056.20519	17950.125
3058.60005	17915.725
3060.99345	17887.625
3063.3854	17835.725
3065.7759	17776.625
3068.16494	17720.025
3070.55254	17704.025
3072.93868	17710.725
3075.32338	17650.525
3077.70662	17673.125
3080.08842	17602.925
3082.46878	17544.525
3084.84769	17517.325
3087.22515	17550.825
3089.60118	17556.125
3091.97576	17514.125
3094.3489	17527.925
3096.72061	17518.725
3099.09087	17527.325
3101.4597	17463.225
3103.82709	17446.925
3106.19305	17416.125
3108.55757	17434.625
3110.92066	17364.825
3113.28232	17332.825
3115.64255	17276.225
3118.00134	17248.425
3120.35871	17263.125
3122.71466	17220.925
3125.06917	17213.525
3127.42226	17168.225
