Data from AgNPs_FTO_APTES_UA_100uM_R6G_10uM_NaF_0.1M_Addition_RamanShift__34__15-56-47-486.txt Node

Date: Fri Dec 17 15:56:47 GMT 2021
User: TCL
Spectrometer: QEP01345
Trigger mode: 4
Integration Time (sec): 7.000000E0
Scans to average: 10
Electric dark correction enabled: true
Nonlinearity correction enabled: false
Boxcar width: 0
XAxis mode: Raman Shifts
Number of Pixels in Spectrum: 1044
>>>>>Begin Spectral Data<<<<<
46.04893	-0.875
50.45542	-0.575
54.85868	-1.375
59.25871	1.225
63.6555	52.325
68.04907	57.725
72.43941	60.025
76.82654	65.625
81.21044	65.425
85.59113	69.125
89.96862	75.125
94.34289	72.625
98.71396	78.425
103.08183	78.425
107.4465	81.025
111.80798	79.125
116.16626	84.425
120.52136	82.825
124.87327	88.325
129.222	94.325
133.56755	95.325
137.90993	99.325
142.24913	106.725
146.58517	114.025
150.91804	133.925
155.24774	154.725
159.57429	185.625
163.89768	233.725
168.21792	299.525
172.53501	401.825
176.84895	554.325
181.15975	767.525
185.46741	1081.925
189.77193	1480.225
194.07331	1978.025
198.37157	2548.925
202.6667	3162.525
206.9587	3761.925
211.24758	4347.325
215.53334	4932.525
219.81599	5570.725
224.09553	6247.325
228.37195	7025.925
232.64527	7863.225
236.91549	8781.925
241.18261	9662.425
245.44663	10506.125
249.70755	11247.425
253.96539	11919.225
258.22014	12425.525
262.4718	12911.425
266.72039	13233.825
270.96589	13414.025
275.20832	13441.825
279.44768	13300.325
283.68397	13104.825
287.91719	12865.625
292.14735	12722.025
296.37445	12702.425
300.59849	12827.125
304.81948	12960.625
309.03742	12961.825
313.25231	12847.425
317.46415	12521.825
321.67296	12131.825
325.87872	11836.025
330.08145	11681.225
334.28114	11730.025
338.47781	11831.525
342.67145	11982.425
346.86207	12213.425
351.04966	12488.025
355.23424	12835.325
359.4158	13151.825
363.59435	13398.125
367.76989	13579.025
371.94243	13721.025
376.11196	13852.625
380.27849	13898.925
384.44203	13995.225
388.60257	13985.425
392.76012	13996.825
396.91468	14078.625
401.06626	14242.525
405.21485	14361.025
409.36047	14249.225
413.50311	13899.425
417.64277	13575.925
421.77947	13378.325
425.9132	13282.525
430.04396	13274.925
434.17176	13312.025
438.2966	13405.225
442.41849	13542.525
446.53742	13724.225
450.6534	13900.125
454.76644	14044.025
458.87653	14119.525
462.98368	14137.325
467.08789	14083.225
471.18916	14008.025
475.2875	13903.925
479.38291	13817.525
483.4754	13712.325
487.56496	13645.425
491.6516	13611.125
495.73531	13560.425
499.81612	13569.125
503.89401	13622.725
507.96899	13714.425
512.04106	13779.125
516.11023	13863.525
520.1765	13936.225
524.23987	13888.525
528.30034	13807.125
532.35792	13704.525
536.41261	13607.925
540.46441	13477.825
544.51333	13433.425
548.55936	13445.925
552.60252	13530.125
556.64279	13673.625
560.6802	13746.925
564.71473	13807.625
568.7464	13878.425
572.7752	13984.325
576.80114	13905.225
580.82422	13789.325
584.84444	13766.825
588.86181	13822.625
592.87633	13920.825
596.888	13987.425
600.89682	14198.625
604.9028	14868.425
608.90594	16621.125
612.90624	18942.625
616.90371	18455.125
620.89834	15446.625
624.89015	13995.425
628.87913	13747.625
632.86528	13906.125
636.84862	14107.225
640.82913	14044.525
644.80683	13719.825
648.78172	13435.925
652.75379	13341.525
656.72306	13457.025
660.68952	13691.525
664.65319	13612.725
668.61405	13289.725
672.57211	13180.025
676.52738	13164.825
680.47986	13183.125
684.42955	13145.525
688.37646	13094.025
692.32058	13080.525
696.26192	13114.125
700.20048	13210.125
704.13626	13237.025
708.06928	13231.225
711.99952	13198.325
715.927	13185.525
719.85171	13214.625
723.77365	13189.825
727.69284	13152.125
731.60928	13133.225
735.52295	13097.325
739.43388	13106.225
743.34206	13104.125
747.24749	13137.125
751.15017	13106.625
755.05012	13145.725
758.94733	13374.025
762.8418	13924.825
766.73354	14922.725
770.62254	16169.825
774.50882	16980.225
778.39237	16496.325
782.27321	15164.425
786.15132	14040.925
790.02671	13378.525
793.89938	13049.325
797.76935	12907.825
801.6366	12880.225
805.50115	12861.625
809.36299	12841.825
813.22213	12797.925
817.07857	12841.825
820.93231	12784.025
824.78336	12763.825
828.63172	12716.825
832.47738	12697.325
836.32036	12666.125
840.16066	12623.925
843.99827	12606.625
847.8332	12611.025
851.66546	12575.225
855.49504	12539.625
859.32195	12549.225
863.1462	12568.425
866.96777	12557.125
870.78668	12538.925
874.60293	12542.625
878.41652	12549.325
882.22745	12601.125
886.03573	12663.725
889.84136	12696.725
893.64433	12655.125
897.44466	12552.625
901.24235	12505.025
905.0374	12441.025
908.8298	12396.525
912.61957	12368.825
916.40671	12350.525
920.19121	12364.925
923.97308	12397.425
927.75233	12412.125
931.52895	12448.225
935.30295	12426.125
939.07433	12286.825
942.84309	12128.425
946.60924	12000.525
950.37278	11949.425
954.13371	11896.325
957.89203	11855.125
961.64774	11835.425
965.40086	11799.125
969.15137	11747.925
972.89929	11733.325
976.64461	11701.025
980.38733	11705.625
984.12747	11719.225
987.86502	11709.925
991.59999	11754.925
995.33237	11806.925
999.06217	11879.925
1002.78939	11981.525
1006.51404	12059.425
1010.23611	12149.025
1013.95561	12261.125
1017.67255	12240.925
1021.38692	12192.425
1025.09872	12118.625
1028.80796	12072.625
1032.51465	12047.325
1036.21877	12105.425
1039.92035	12104.125
1043.61937	12106.125
1047.31584	12111.225
1051.00976	12067.625
1054.70114	12064.925
1058.38998	12049.725
1062.07627	12064.825
1065.76003	12109.725
1069.44126	12174.125
1073.11995	12267.825
1076.79611	12376.825
1080.46974	12395.825
1084.14085	12446.025
1087.80943	12538.125
1091.47549	12610.425
1095.13903	12552.125
1098.80005	12451.625
1102.45857	12285.025
1106.11456	12211.525
1109.76805	12186.425
1113.41903	12295.525
1117.06751	12478.525
1120.71348	12696.725
1124.35696	12900.325
1127.99793	13137.825
1131.63641	13319.625
1135.2724	13170.525
1138.90589	12883.325
1142.5369	12639.325
1146.16542	12470.725
1149.79145	12311.825
1153.415	12231.525
1157.03607	12204.525
1160.65467	12295.425
1164.27079	12497.425
1167.88443	12792.625
1171.49561	13286.925
1175.10432	14056.625
1178.71056	15150.825
1182.31434	16065.425
1185.91565	16383.125
1189.51451	16143.025
1193.11091	15516.925
1196.70485	14818.125
1200.29634	14297.925
1203.88538	13979.025
1207.47197	13606.225
1211.05612	13225.025
1214.63782	12945.925
1218.21708	12776.525
1221.79391	12661.625
1225.36829	12577.925
1228.94024	12522.125
1232.50976	12491.525
1236.07685	12463.925
1239.6415	12481.125
1243.20374	12522.725
1246.76355	12572.325
1250.32093	12668.625
1253.8759	12812.225
1257.42845	12966.525
1260.97859	13159.125
1264.52631	13363.425
1268.07163	13581.425
1271.61453	13793.625
1275.15503	13947.025
1278.69312	14070.425
1282.22882	14112.225
1285.76211	14202.225
1289.29301	14434.825
1292.82151	14784.525
1296.34761	15218.225
1299.87133	15736.725
1303.39266	16484.725
1306.9116	17479.225
1310.42815	18485.125
1313.94233	19039.425
1317.45412	18800.525
1320.96354	18074.325
1324.47058	17262.025
1327.97525	16451.025
1331.47754	15866.925
1334.97747	15566.625
1338.47502	15479.825
1341.97022	15547.225
1345.46305	15832.625
1348.95352	16338.525
1352.44163	17164.725
1355.92738	18309.525
1359.41078	19962.025
1362.89183	21868.125
1366.37053	22092.025
1369.84688	19801.125
1373.32088	17111.225
1376.79254	15284.125
1380.26186	14449.725
1383.72883	14012.425
1387.19347	13757.325
1390.65578	13488.625
1394.11575	13209.625
1397.57339	13018.325
1401.0287	12951.025
1404.48168	12925.125
1407.93234	12857.925
1411.38068	12752.825
1414.82669	12630.425
1418.27039	12488.525
1421.71177	12357.225
1425.15083	12250.525
1428.58758	12109.625
1432.02203	12088.925
1435.45416	12175.425
1438.88399	12288.125
1442.31151	12348.325
1445.73673	12407.225
1449.15965	12467.625
1452.58027	12485.125
1455.9986	12468.025
1459.41463	12478.325
1462.82837	12542.925
1466.23982	12683.125
1469.64898	12823.525
1473.05586	12969.125
1476.46045	13076.325
1479.86276	13169.625
1483.26279	13262.025
1486.66054	13386.725
1490.05602	13551.625
1493.44922	13862.525
1496.84016	14381.625
1500.22882	15267.425
1503.61521	16544.425
1506.99934	18018.825
1510.38121	19412.225
1513.76081	19993.525
1517.13816	19276.025
1520.51324	17643.225
1523.88607	16042.225
1527.25665	14887.625
1530.62498	14254.425
1533.99105	13910.825
1537.35488	13658.225
1540.71647	13470.325
1544.07581	13340.425
1547.4329	13220.225
1550.78776	13192.925
1554.14038	13183.925
1557.49077	13271.925
1560.83892	13410.125
1564.18484	13540.825
1567.52853	13770.625
1570.86999	14010.025
1574.20922	14227.125
1577.54624	14303.025
1580.88103	13993.225
1584.2136	13496.525
1587.54395	13117.625
1590.87208	13072.125
1594.19801	13275.525
1597.52172	13710.525
1600.84321	13927.125
1604.16251	13687.025
1607.47959	13222.725
1610.79447	12766.225
1614.10715	12249.725
1617.41763	11798.125
1620.7259	11476.925
1624.03199	11269.125
1627.33587	11239.125
1630.63757	11292.425
1633.93707	11534.025
1637.23439	11972.925
1640.52951	12653.025
1643.82246	13620.325
1647.11321	14762.125
1650.40179	15706.125
1653.68819	15683.125
1656.97241	14536.925
1660.25446	13031.825
1663.53433	11869.525
1666.81203	11152.125
1670.08756	10712.625
1673.36092	10440.225
1676.63211	10258.225
1679.90115	10142.325
1683.16801	10024.425
1686.43272	9941.525
1689.69527	9883.825
1692.95567	9849.425
1696.2139	9827.125
1699.46999	9829.225
1702.72392	9786.325
1705.97571	9725.025
1709.22535	9652.225
1712.47284	9595.425
1715.71819	9545.025
1718.96139	9508.425
1722.20246	9481.825
1725.44139	9427.825
1728.67818	9363.725
1731.91284	9317.625
1735.14537	9284.625
1738.37576	9263.325
1741.60403	9206.925
1744.83017	9190.125
1748.05418	9186.125
1751.27607	9135.325
1754.49584	9133.625
1757.71349	9128.025
1760.92903	9142.125
1764.14244	9130.425
1767.35375	9076.925
1770.56294	9083.725
1773.77002	9057.825
1776.97499	9054.625
1780.17785	9022.225
1783.37861	9003.525
1786.57727	8971.325
1789.77382	8948.725
1792.96828	8955.025
1796.16064	8895.225
1799.3509	8898.725
1802.53907	8899.425
1805.72514	8842.725
1808.90913	8832.925
1812.09102	8817.225
1815.27083	8785.025
1818.44856	8777.625
1821.6242	8760.325
1824.79776	8722.725
1827.96924	8712.625
1831.13864	8713.525
1834.30597	8691.125
1837.47122	8683.525
1840.6344	8686.925
1843.7955	8673.225
1846.95454	8650.425
1850.11151	8659.125
1853.26642	8625.125
1856.41926	8630.925
1859.57004	8652.225
1862.71876	8613.925
1865.86542	8593.925
1869.01003	8602.425
1872.15258	8576.225
1875.29308	8574.425
1878.43152	8562.425
1881.56792	8545.125
1884.70227	8548.225
1887.83457	8519.225
1890.96482	8495.725
1894.09304	8489.025
1897.21921	8479.025
1900.34335	8495.325
1903.46544	8463.625
1906.58551	8455.725
1909.70353	8439.425
1912.81953	8440.125
1915.93349	8403.625
1919.04543	8384.925
1922.15534	8384.825
1925.26322	8376.725
1928.36908	8339.325
1931.47292	8324.125
1934.57473	8299.025
1937.67453	8285.825
1940.77232	8274.125
1943.86808	8224.625
1946.96184	8222.225
1950.05358	8199.425
1953.14331	8180.225
1956.23103	8149.225
1959.31675	8111.825
1962.40046	8097.825
1965.48217	8089.825
1968.56188	8072.225
1971.63959	8045.625
1974.7153	8016.425
1977.78901	7979.125
1980.86073	7971.725
1983.93046	7938.625
1986.99819	7899.225
1990.06394	7888.125
1993.1277	7835.625
1996.18947	7817.425
1999.24925	7808.825
2002.30706	7770.025
2005.36288	7758.225
2008.41672	7721.325
2011.46859	7692.025
2014.51848	7694.625
2017.56639	7648.825
2020.61233	7623.325
2023.6563	7620.625
2026.6983	7575.625
2029.73833	7580.825
2032.7764	7541.225
2035.8125	7542.525
2038.84664	7515.525
2041.87881	7516.725
2044.90903	7494.925
2047.93729	7473.325
2050.96359	7477.825
2053.98794	7447.225
2057.01034	7435.325
2060.03078	7411.125
2063.04927	7411.025
2066.06582	7401.225
2069.08042	7403.725
2072.09307	7403.025
2075.10378	7380.525
2078.11255	7385.625
2081.11938	7384.525
2084.12426	7385.825
2087.12722	7385.725
2090.12824	7357.625
2093.12732	7347.825
2096.12447	7375.725
2099.11969	7365.225
2102.11299	7362.525
2105.10435	7359.125
2108.09379	7367.625
2111.08131	7384.725
2114.0669	7385.925
2117.05057	7354.725
2120.03233	7375.825
2123.01216	7393.325
2125.99008	7386.725
2128.96609	7402.325
2131.94018	7408.625
2134.91236	7415.325
2137.88263	7414.225
2140.851	7402.025
2143.81746	7393.225
2146.78201	7407.125
2149.74466	7411.425
2152.7054	7395.125
2155.66425	7387.525
2158.6212	7396.825
2161.57625	7392.125
2164.52941	7386.425
2167.48067	7384.925
2170.43004	7383.725
2173.37752	7364.025
2176.32311	7353.925
2179.26681	7374.625
2182.20863	7379.125
2185.14856	7360.225
2188.08661	7331.225
2191.02278	7337.025
2193.95707	7333.425
2196.88948	7322.825
2199.82001	7312.525
2202.74867	7318.725
2205.67545	7317.225
2208.60037	7259.725
2211.52341	7298.325
2214.44458	7245.825
2217.36388	7250.325
2220.28132	7239.825
2223.1969	7223.225
2226.11061	7203.025
2229.02246	7190.025
2231.93245	7152.225
2234.84058	7148.525
2237.74686	7127.925
2240.65128	7136.425
2243.55385	7133.525
2246.45456	7117.025
2249.35343	7105.725
2252.25044	7103.925
2255.14561	7084.525
2258.03893	7087.725
2260.93041	7091.825
2263.82004	7049.725
2266.70783	7036.925
2269.59378	7017.925
2272.4779	7007.725
2275.36017	6980.725
2278.24061	6982.625
2281.11922	6951.425
2283.996	6927.625
2286.87094	6929.125
2289.74405	6914.825
2292.61534	6901.625
2295.4848	6890.925
2298.35243	6880.725
2301.21824	6869.625
2304.08223	6869.625
2306.94439	6868.825
2309.80474	6849.425
2312.66327	6863.025
2315.51999	6865.125
2318.37489	6831.925
2321.22797	6821.525
2324.07925	6801.625
2326.92871	6801.725
2329.77637	6795.325
2332.62222	6788.325
2335.46626	6756.625
2338.3085	6742.125
2341.14893	6726.725
2343.98756	6744.425
2346.8244	6726.525
2349.65943	6718.825
2352.49267	6720.025
2355.32411	6715.425
2358.15376	6736.925
2360.98161	6722.325
2363.80768	6712.325
2366.63195	6713.425
2369.45444	6697.225
2372.27514	6690.825
2375.09405	6677.625
2377.91118	6691.025
2380.72652	6651.325
2383.54009	6624.525
2386.35187	6607.425
2389.16188	6580.925
2391.97011	6578.425
2394.77657	6564.325
2397.58125	6548.125
2400.38416	6557.625
2403.18529	6533.325
2405.98466	6520.525
2408.78226	6508.025
2411.57809	6490.425
2414.37216	6479.825
2417.16446	6473.625
2419.955	6460.225
2422.74378	6462.125
2425.5308	6458.325
2428.31606	6451.225
2431.09956	6440.825
2433.88131	6443.425
2436.6613	6429.625
2439.43954	6440.025
2442.21603	6418.525
2444.99077	6406.325
2447.76377	6412.425
2450.53501	6413.025
2453.30451	6396.125
2456.07226	6369.225
2458.83827	6398.125
2461.60254	6373.925
2464.36507	6370.225
2467.12586	6353.025
2469.88492	6361.525
2472.64224	6353.525
2475.39782	6352.025
2478.15167	6348.025
2480.90379	6335.525
2483.65417	6340.625
2486.40283	6327.125
2489.14976	6332.525
2491.89497	6333.025
2494.63845	6342.025
2497.3802	6324.825
2500.12024	6315.825
2502.85855	6286.425
2505.59514	6295.125
2508.33002	6286.925
2511.06318	6271.125
2513.79462	6238.825
2516.52435	6237.525
2519.25237	6229.625
2521.97867	6219.925
2524.70327	6223.425
2527.42616	6181.925
2530.14734	6171.925
2532.86681	6173.125
2535.58458	6161.325
2538.30065	6151.925
2541.01501	6148.325
2543.72768	6134.525
2546.43864	6142.325
2549.14791	6090.925
2551.85548	6093.725
2554.56136	6088.625
2557.26554	6089.025
2559.96803	6071.325
2562.66883	6072.025
2565.36794	6083.825
2568.06536	6086.125
2570.7611	6059.925
2573.45514	6039.325
2576.14751	6002.925
2578.83819	5996.625
2581.52719	6001.925
2584.21451	5988.225
2586.90015	5995.625
2589.58411	5967.325
2592.2664	5957.425
2594.94701	5914.625
2597.62594	5927.725
2600.30321	5908.025
2602.9788	5900.925
2605.65273	5887.825
2608.32498	5879.125
2610.99557	5866.125
2613.66449	5868.825
2616.33175	5850.125
2618.99734	5846.325
2621.66128	5841.425
2624.32355	5856.325
2626.98416	5820.725
2629.64311	5824.025
2632.30041	5810.425
2634.95605	5806.225
2637.61004	5801.325
2640.26238	5790.725
2642.91306	5780.325
2645.56209	5776.625
2648.20948	5735.925
2650.85521	5747.625
2653.4993	5765.425
2656.14175	5755.125
2658.78255	5774.125
2661.42171	5755.425
2664.05923	5754.325
2666.6951	5753.225
2669.32934	5749.525
2671.96194	5749.825
2674.59291	5730.525
2677.22224	5756.925
2679.84993	5742.425
2682.476	5733.525
2685.10043	5752.425
2687.72324	5731.625
2690.34441	5738.425
2692.96396	5745.025
2695.58188	5740.125
2698.19818	5707.225
2700.81285	5742.825
2703.4259	5713.325
2706.03733	5742.525
2708.64714	5714.125
2711.25533	5726.625
2713.86191	5723.325
2716.46687	5738.925
2719.07021	5705.625
2721.67194	5734.625
2724.27206	5702.525
2726.87057	5708.625
2729.46747	5705.425
2732.06276	5686.625
2734.65644	5689.125
2737.24852	5697.325
2739.83899	5688.525
2742.42786	5690.125
2745.01513	5672.225
2747.60079	5665.325
2750.18486	5664.325
2752.76733	5662.725
2755.3482	5641.425
2757.92747	5650.125
2760.50515	5634.825
2763.08123	5612.025
2765.65573	5627.825
2768.22863	5625.925
2770.79994	5589.725
2773.36967	5596.625
2775.9378	5591.425
2778.50435	5582.425
2781.06932	5564.625
2783.6327	5560.025
2786.1945	5557.625
2788.75471	5539.425
2791.31335	5518.925
2793.87041	5529.425
2796.42589	5499.525
2798.97979	5510.425
2801.53212	5485.625
2804.08288	5497.525
2806.63206	5464.725
2809.17967	5450.425
2811.72571	5451.825
2814.27018	5448.925
2816.81308	5424.325
2819.35442	5432.725
2821.89419	5415.125
2824.43239	5405.225
2826.96904	5405.325
2829.50412	5410.425
2832.03763	5402.425
2834.56959	5395.025
2837.1	5402.925
2839.62884	5424.725
2842.15613	5401.425
2844.68186	5422.725
2847.20604	5409.525
2849.72867	5422.125
2852.24974	5433.625
2854.76927	5405.725
2857.28724	5394.025
2859.80367	5394.225
2862.31855	5374.025
2864.83189	5385.825
2867.34368	5358.425
2869.85393	5368.925
2872.36264	5378.825
2874.8698	5388.525
2877.37543	5380.725
2879.87952	5367.225
2882.38207	5373.625
2884.88308	5370.225
2887.38256	5377.725
2889.88051	5359.425
2892.37692	5349.325
2894.8718	5361.925
2897.36515	5334.125
2899.85698	5360.125
2902.34727	5349.225
2904.83604	5351.225
2907.32328	5349.225
2909.809	5337.125
2912.29319	5351.825
2914.77587	5370.525
2917.25702	5341.525
2919.73665	5336.225
2922.21476	5335.625
2924.69136	5331.625
2927.16644	5352.225
2929.64	5329.125
2932.11205	5307.225
2934.58258	5305.025
2937.05161	5322.825
2939.51912	5324.625
2941.98513	5304.325
2944.44962	5287.425
2946.91261	5259.125
2949.37409	5282.125
2951.83407	5272.425
2954.29254	5257.725
2956.74951	5248.425
2959.20498	5250.425
2961.65895	5230.425
2964.11142	5234.525
2966.56239	5230.425
2969.01186	5232.225
2971.45984	5216.925
2973.90632	5209.825
2976.35131	5176.025
2978.7948	5205.625
2981.23681	5175.325
2983.67732	5166.125
2986.11635	5150.325
2988.55388	5143.125
2990.98993	5150.825
2993.4245	5135.725
2995.85758	5125.825
2998.28917	5112.725
3000.71928	5112.625
3003.14791	5104.825
3005.57506	5092.525
3008.00073	5089.425
3010.42493	5089.425
3012.84764	5102.625
3015.26888	5081.225
3017.68865	5082.725
3020.10694	5077.625
3022.52376	5051.325
3024.9391	5037.425
3027.35298	5025.725
3029.76539	5037.725
3032.17632	5025.725
3034.5858	5025.325
3036.9938	5013.625
3039.40034	4997.525
3041.80542	5000.025
3044.20903	5013.825
3046.61118	4993.625
3049.01187	4989.925
3051.4111	4980.625
3053.80888	4977.725
3056.20519	4983.825
3058.60005	4962.925
3060.99345	4957.525
3063.3854	4956.225
3065.7759	4960.925
3068.16494	4951.525
3070.55254	4937.225
3072.93868	4928.125
3075.32338	4921.125
3077.70662	4922.625
3080.08842	4910.225
3082.46878	4913.425
3084.84769	4901.225
3087.22515	4926.825
3089.60118	4912.225
3091.97576	4918.225
3094.3489	4927.325
3096.72061	4924.525
3099.09087	4908.925
3101.4597	4914.925
3103.82709	4911.625
3106.19305	4910.225
3108.55757	4902.425
3110.92066	4898.525
3113.28232	4875.825
3115.64255	4879.625
3118.00134	4873.725
3120.35871	4876.925
3122.71466	4880.425
3125.06917	4892.125
3127.42226	4857.725
3129.77393	4879.525
3132.12417	4863.625
3134.47299	4880.425
3136.82039	4872.725
3139.16636	4879.025
3141.51092	4879.025
3143.85406	4891.525
3146.19579	4891.225
3148.53609	4922.025
3150.87499	4902.625
3153.21246	4909.225
3155.54853	4918.525
3157.88318	4913.225
3160.21642	4930.625
3162.54826	4923.025
3164.87868	4935.925
3167.2077	4932.425
3169.5353	4929.125
3171.86151	4948.025
3174.18631	4908.425
3176.5097	4927.125
3178.83169	4931.925
3181.15228	4929.125
3183.47147	4934.825
3185.78926	4931.025
3188.10565	4932.525
3190.42065	4913.425
