Data from AgNPs_FTO_APTES_UA_100uM_R6G_10uM_NaF_0.1M_Addition_RamanShift__5__15-22-57-447.txt Node

Date: Fri Dec 17 15:22:57 GMT 2021
User: TCL
Spectrometer: QEP01345
Trigger mode: 4
Integration Time (sec): 7.000000E0
Scans to average: 10
Electric dark correction enabled: true
Nonlinearity correction enabled: false
Boxcar width: 0
XAxis mode: Raman Shifts
Number of Pixels in Spectrum: 1044
>>>>>Begin Spectral Data<<<<<
46.04893	-0.025
50.45542	-0.625
54.85868	-1.025
59.25871	0.075
63.6555	61.475
68.04907	62.175
72.43941	67.575
76.82654	73.275
81.21044	71.175
85.59113	78.075
89.96862	80.075
94.34289	84.975
98.71396	89.175
103.08183	88.075
107.4465	93.175
111.80798	90.375
116.16626	95.875
120.52136	91.275
124.87327	100.875
129.222	102.675
133.56755	104.075
137.90993	111.275
142.24913	117.675
146.58517	126.275
150.91804	146.875
155.24774	166.175
159.57429	203.875
163.89768	255.575
168.21792	334.975
172.53501	441.075
176.84895	601.575
181.15975	842.775
185.46741	1173.575
189.77193	1616.375
194.07331	2161.475
198.37157	2785.975
202.6667	3456.775
206.9587	4108.075
211.24758	4735.875
215.53334	5380.275
219.81599	6049.175
224.09553	6789.775
228.37195	7621.175
232.64527	8541.875
236.91549	9538.175
241.18261	10509.975
245.44663	11427.775
249.70755	12255.175
253.96539	12966.475
258.22014	13569.375
262.4718	14034.375
266.72039	14406.475
270.96589	14583.575
275.20832	14616.775
279.44768	14523.475
283.68397	14376.275
287.91719	14195.075
292.14735	14104.375
296.37445	14119.575
300.59849	14170.675
304.81948	14244.475
309.03742	14271.075
313.25231	14113.975
317.46415	13798.275
321.67296	13421.375
325.87872	13078.975
330.08145	12922.875
334.28114	12937.675
338.47781	13022.875
342.67145	13219.175
346.86207	13411.175
351.04966	13665.475
355.23424	13929.575
359.4158	14207.675
363.59435	14408.775
367.76989	14541.575
371.94243	14666.675
376.11196	14755.875
380.27849	14798.775
384.44203	14882.875
388.60257	14886.175
392.76012	15011.075
396.91468	15132.275
401.06626	15347.775
405.21485	15515.475
409.36047	15444.575
413.50311	15176.275
417.64277	14888.575
421.77947	14745.975
425.9132	14726.075
430.04396	14740.375
434.17176	14758.375
438.2966	14861.875
442.41849	15020.675
446.53742	15211.375
450.6534	15414.575
454.76644	15612.875
458.87653	15739.375
462.98368	15745.075
467.08789	15737.275
471.18916	15663.275
475.2875	15528.275
479.38291	15423.775
483.4754	15287.675
487.56496	15194.975
491.6516	15089.475
495.73531	15058.575
499.81612	15023.875
503.89401	15097.375
507.96899	15172.975
512.04106	15177.375
516.11023	15230.575
520.1765	15247.675
524.23987	15212.275
528.30034	15093.975
532.35792	15008.075
536.41261	14863.075
540.46441	14777.875
544.51333	14776.075
548.55936	14868.575
552.60252	15094.075
556.64279	15315.275
560.6802	15411.975
564.71473	15456.575
568.7464	15537.775
572.7752	15727.275
576.80114	15786.075
580.82422	15907.175
584.84444	16023.875
588.86181	16114.675
592.87633	16085.075
596.888	16113.675
600.89682	16260.175
604.9028	16933.175
608.90594	18549.175
612.90624	20402.475
616.90371	19615.575
620.89834	16715.275
624.89015	15357.475
628.87913	15166.075
632.86528	15364.575
636.84862	15490.675
640.82913	15482.975
644.80683	15160.075
648.78172	14841.675
652.75379	14727.375
656.72306	14890.375
660.68952	15067.175
664.65319	15003.775
668.61405	14774.475
672.57211	14658.975
676.52738	14661.475
680.47986	14669.075
684.42955	14637.675
688.37646	14558.975
692.32058	14588.575
696.26192	14679.075
700.20048	14801.675
704.13626	14825.975
708.06928	14871.275
711.99952	14809.675
715.927	14767.075
719.85171	14757.075
723.77365	14742.975
727.69284	14680.475
731.60928	14548.575
735.52295	14538.875
739.43388	14512.575
743.34206	14539.075
747.24749	14595.875
751.15017	14665.675
755.05012	14788.675
758.94733	15101.775
762.8418	15728.975
766.73354	16834.075
770.62254	18086.175
774.50882	18650.175
778.39237	18026.875
782.27321	16738.775
786.15132	15631.775
790.02671	14975.775
793.89938	14644.075
797.76935	14512.775
801.6366	14446.075
805.50115	14386.175
809.36299	14356.175
813.22213	14313.675
817.07857	14342.675
820.93231	14319.875
824.78336	14264.075
828.63172	14272.575
832.47738	14240.475
836.32036	14189.675
840.16066	14189.675
843.99827	14167.875
847.8332	14159.075
851.66546	14137.775
855.49504	14129.575
859.32195	14133.375
863.1462	14128.875
866.96777	14114.975
870.78668	14077.875
874.60293	14102.475
878.41652	14111.175
882.22745	14159.675
886.03573	14206.575
889.84136	14254.275
893.64433	14232.475
897.44466	14166.875
901.24235	14128.475
905.0374	14066.875
908.8298	14035.675
912.61957	14009.275
916.40671	14081.575
920.19121	14124.275
923.97308	14191.175
927.75233	14168.875
931.52895	14174.375
935.30295	14101.175
939.07433	13907.775
942.84309	13749.175
946.60924	13650.775
950.37278	13578.475
954.13371	13530.775
957.89203	13502.475
961.64774	13454.475
965.40086	13432.275
969.15137	13441.475
972.89929	13405.775
976.64461	13401.275
980.38733	13397.975
984.12747	13369.575
987.86502	13425.375
991.59999	13484.175
995.33237	13544.375
999.06217	13671.175
1002.78939	13815.275
1006.51404	13932.075
1010.23611	14062.575
1013.95561	14175.175
1017.67255	14179.675
1021.38692	14116.875
1025.09872	14043.075
1028.80796	13954.575
1032.51465	13902.275
1036.21877	13965.875
1039.92035	13975.175
1043.61937	14039.275
1047.31584	14054.675
1051.00976	14057.575
1054.70114	14079.275
1058.38998	14127.375
1062.07627	14240.575
1065.76003	14336.175
1069.44126	14559.875
1073.11995	14745.775
1076.79611	14935.275
1080.46974	14969.275
1084.14085	14970.975
1087.80943	15006.675
1091.47549	15076.975
1095.13903	15107.075
1098.80005	14983.875
1102.45857	14722.575
1106.11456	14492.475
1109.76805	14382.775
1113.41903	14414.075
1117.06751	14529.175
1120.71348	14728.675
1124.35696	14929.375
1127.99793	15138.875
1131.63641	15285.675
1135.2724	15213.775
1138.90589	14990.675
1142.5369	14853.075
1146.16542	14777.975
1149.79145	14686.775
1153.415	14635.075
1157.03607	14684.375
1160.65467	14858.675
1164.27079	15161.575
1167.88443	15675.675
1171.49561	16301.175
1175.10432	17233.375
1178.71056	18408.075
1182.31434	19449.175
1185.91565	20024.375
1189.51451	20095.375
1193.11091	19732.675
1196.70485	19131.775
1200.29634	18475.175
1203.88538	17887.175
1207.47197	17291.175
1211.05612	16714.875
1214.63782	16370.275
1218.21708	16088.475
1221.79391	15880.675
1225.36829	15720.475
1228.94024	15685.075
1232.50976	15688.175
1236.07685	15689.175
1239.6415	15696.175
1243.20374	15748.375
1246.76355	15855.475
1250.32093	15943.275
1253.8759	16180.775
1257.42845	16472.375
1260.97859	16819.375
1264.52631	17108.375
1268.07163	17412.775
1271.61453	17652.875
1275.15503	17895.075
1278.69312	18069.475
1282.22882	18249.275
1285.76211	18464.575
1289.29301	18776.675
1292.82151	19198.675
1296.34761	19698.875
1299.87133	20341.675
1303.39266	21127.675
1306.9116	22089.075
1310.42815	23029.475
1313.94233	23589.875
1317.45412	23513.075
1320.96354	23080.075
1324.47058	22650.675
1327.97525	22205.975
1331.47754	21852.075
1334.97747	21655.275
1338.47502	21649.975
1341.97022	21867.975
1345.46305	22234.075
1348.95352	22635.075
1352.44163	23142.075
1355.92738	23781.675
1359.41078	24854.375
1362.89183	26071.375
1366.37053	25921.675
1369.84688	23821.475
1373.32088	21391.575
1376.79254	19664.075
1380.26186	18729.575
1383.72883	18284.475
1387.19347	17967.275
1390.65578	17666.575
1394.11575	17375.675
1397.57339	17173.075
1401.0287	17067.775
1404.48168	16985.975
1407.93234	16922.975
1411.38068	16737.775
1414.82669	16573.975
1418.27039	16330.875
1421.71177	16045.775
1425.15083	15749.475
1428.58758	15572.275
1432.02203	15605.475
1435.45416	15695.975
1438.88399	15849.375
1442.31151	16024.275
1445.73673	16108.675
1449.15965	16271.375
1452.58027	16353.175
1455.9986	16401.475
1459.41463	16486.575
1462.82837	16684.175
1466.23982	16875.675
1469.64898	17173.175
1473.05586	17388.175
1476.46045	17493.875
1479.86276	17591.275
1483.26279	17660.675
1486.66054	17800.375
1490.05602	18028.175
1493.44922	18392.775
1496.84016	19043.175
1500.22882	20062.275
1503.61521	21438.775
1506.99934	22905.975
1510.38121	24098.475
1513.76081	24441.675
1517.13816	23654.375
1520.51324	22244.375
1523.88607	20834.875
1527.25665	19849.575
1530.62498	19273.275
1533.99105	18977.275
1537.35488	18678.075
1540.71647	18409.175
1544.07581	18148.875
1547.4329	17906.975
1550.78776	17699.775
1554.14038	17583.175
1557.49077	17519.875
1560.83892	17589.075
1564.18484	17724.075
1567.52853	17900.075
1570.86999	18114.075
1574.20922	18405.175
1577.54624	18482.875
1580.88103	18230.475
1584.2136	17779.375
1587.54395	17518.575
1590.87208	17514.875
1594.19801	17845.375
1597.52172	18409.675
1600.84321	18655.575
1604.16251	18349.875
1607.47959	17761.875
1610.79447	17073.675
1614.10715	16336.075
1617.41763	15601.975
1620.7259	15006.975
1624.03199	14639.375
1627.33587	14501.275
1630.63757	14602.975
1633.93707	14954.875
1637.23439	15612.575
1640.52951	16612.575
1643.82246	17876.375
1647.11321	19153.575
1650.40179	19994.575
1653.68819	19706.475
1656.97241	18245.275
1660.25446	16463.975
1663.53433	15044.375
1666.81203	14115.575
1670.08756	13484.375
1673.36092	13091.575
1676.63211	12851.275
1679.90115	12663.775
1683.16801	12471.175
1686.43272	12372.075
1689.69527	12282.875
1692.95567	12236.175
1696.2139	12181.575
1699.46999	12148.575
1702.72392	12093.875
1705.97571	12036.975
1709.22535	11980.375
1712.47284	11930.075
1715.71819	11897.475
1718.96139	11826.475
1722.20246	11809.375
1725.44139	11731.175
1728.67818	11694.475
1731.91284	11635.775
1735.14537	11576.575
1738.37576	11540.775
1741.60403	11484.575
1744.83017	11467.575
1748.05418	11431.675
1751.27607	11400.175
1754.49584	11401.975
1757.71349	11403.675
1760.92903	11401.475
1764.14244	11378.275
1767.35375	11379.575
1770.56294	11369.775
1773.77002	11337.175
1776.97499	11319.875
1780.17785	11306.075
1783.37861	11274.975
1786.57727	11243.975
1789.77382	11219.275
1792.96828	11170.875
1796.16064	11160.275
1799.3509	11162.575
1802.53907	11151.875
1805.72514	11097.975
1808.90913	11103.475
1812.09102	11058.775
1815.27083	11024.475
1818.44856	11009.175
1821.6242	10993.075
1824.79776	10941.975
1827.96924	10964.175
1831.13864	10975.875
1834.30597	10943.375
1837.47122	10929.275
1840.6344	10936.575
1843.7955	10937.075
1846.95454	10930.575
1850.11151	10911.175
1853.26642	10883.675
1856.41926	10898.775
1859.57004	10893.275
1862.71876	10890.775
1865.86542	10856.775
1869.01003	10870.975
1872.15258	10837.375
1875.29308	10808.575
1878.43152	10812.275
1881.56792	10805.275
1884.70227	10781.475
1887.83457	10759.375
1890.96482	10774.475
1894.09304	10755.575
1897.21921	10728.675
1900.34335	10718.675
1903.46544	10682.775
1906.58551	10713.075
1909.70353	10667.375
1912.81953	10668.075
1915.93349	10655.875
1919.04543	10626.675
1922.15534	10612.275
1925.26322	10593.175
1928.36908	10573.475
1931.47292	10543.275
1934.57473	10516.375
1937.67453	10488.075
1940.77232	10480.475
1943.86808	10448.875
1946.96184	10419.775
1950.05358	10398.075
1953.14331	10385.475
1956.23103	10334.675
1959.31675	10313.075
1962.40046	10281.375
1965.48217	10268.875
1968.56188	10240.675
1971.63959	10209.475
1974.7153	10165.775
1977.78901	10139.475
1980.86073	10096.475
1983.93046	10082.475
1986.99819	10033.075
1990.06394	10028.475
1993.1277	9963.775
1996.18947	9945.275
1999.24925	9910.775
2002.30706	9880.375
2005.36288	9864.175
2008.41672	9853.075
2011.46859	9812.775
2014.51848	9788.175
2017.56639	9746.575
2020.61233	9723.275
2023.6563	9707.675
2026.6983	9688.675
2029.73833	9668.975
2032.7764	9640.675
2035.8125	9627.375
2038.84664	9608.275
2041.87881	9583.275
2044.90903	9575.475
2047.93729	9560.275
2050.96359	9552.675
2053.98794	9519.875
2057.01034	9518.875
2060.03078	9502.375
2063.04927	9469.275
2066.06582	9499.975
2069.08042	9464.675
2072.09307	9459.675
2075.10378	9461.575
2078.11255	9458.675
2081.11938	9479.675
2084.12426	9462.875
2087.12722	9459.475
2090.12824	9453.375
2093.12732	9470.375
2096.12447	9465.475
2099.11969	9457.875
2102.11299	9451.875
2105.10435	9459.475
2108.09379	9470.375
2111.08131	9484.675
2114.0669	9481.475
2117.05057	9496.475
2120.03233	9511.575
2123.01216	9497.975
2125.99008	9520.075
2128.96609	9536.775
2131.94018	9535.475
2134.91236	9535.275
2137.88263	9535.275
2140.851	9513.375
2143.81746	9550.275
2146.78201	9545.475
2149.74466	9547.575
2152.7054	9546.775
2155.66425	9542.875
2158.6212	9562.275
2161.57625	9533.475
2164.52941	9537.675
2167.48067	9537.975
2170.43004	9517.175
2173.37752	9538.475
2176.32311	9497.075
2179.26681	9508.275
2182.20863	9527.975
2185.14856	9508.175
2188.08661	9509.975
2191.02278	9513.075
2193.95707	9499.775
2196.88948	9492.175
2199.82001	9476.175
2202.74867	9476.275
2205.67545	9455.775
2208.60037	9429.675
2211.52341	9436.075
2214.44458	9407.375
2217.36388	9408.075
2220.28132	9367.375
2223.1969	9353.475
2226.11061	9352.475
2229.02246	9329.075
2231.93245	9319.275
2234.84058	9296.975
2237.74686	9294.875
2240.65128	9260.375
2243.55385	9256.875
2246.45456	9257.375
2249.35343	9241.475
2252.25044	9221.475
2255.14561	9234.575
2258.03893	9226.875
2260.93041	9208.975
2263.82004	9181.375
2266.70783	9166.875
2269.59378	9147.075
2272.4779	9126.875
2275.36017	9077.875
2278.24061	9086.975
2281.11922	9085.275
2283.996	9063.175
2286.87094	9049.475
2289.74405	9025.175
2292.61534	9017.575
2295.4848	8997.575
2298.35243	8983.875
2301.21824	8993.575
2304.08223	8979.575
2306.94439	8986.675
2309.80474	8981.275
2312.66327	8983.875
2315.51999	8975.875
2318.37489	8962.675
2321.22797	8909.275
2324.07925	8924.675
2326.92871	8909.275
2329.77637	8914.875
2332.62222	8882.075
2335.46626	8869.175
2338.3085	8861.775
2341.14893	8866.775
2343.98756	8840.775
2346.8244	8836.375
2349.65943	8837.575
2352.49267	8840.275
2355.32411	8825.575
2358.15376	8847.375
2360.98161	8832.775
2363.80768	8838.275
2366.63195	8834.375
2369.45444	8830.875
2372.27514	8808.375
2375.09405	8824.875
2377.91118	8789.075
2380.72652	8752.675
2383.54009	8745.075
2386.35187	8754.275
2389.16188	8730.375
2391.97011	8705.975
2394.77657	8655.775
2397.58125	8645.275
2400.38416	8653.475
2403.18529	8628.675
2405.98466	8635.475
2408.78226	8611.875
2411.57809	8601.775
2414.37216	8580.275
2417.16446	8593.175
2419.955	8577.575
2422.74378	8575.475
2425.5308	8547.275
2428.31606	8570.875
2431.09956	8555.175
2433.88131	8554.975
2436.6613	8562.575
2439.43954	8535.375
2442.21603	8528.775
2444.99077	8537.175
2447.76377	8535.075
2450.53501	8506.375
2453.30451	8535.475
2456.07226	8516.675
2458.83827	8493.875
2461.60254	8489.175
2464.36507	8471.475
2467.12586	8466.375
2469.88492	8464.375
2472.64224	8466.775
2475.39782	8449.875
2478.15167	8449.175
2480.90379	8466.275
2483.65417	8477.175
2486.40283	8463.075
2489.14976	8452.275
2491.89497	8439.275
2494.63845	8461.375
2497.3802	8450.075
2500.12024	8425.175
2502.85855	8429.375
2505.59514	8439.075
2508.33002	8392.175
2511.06318	8386.475
2513.79462	8399.275
2516.52435	8375.275
2519.25237	8373.475
2521.97867	8360.575
2524.70327	8332.675
2527.42616	8319.675
2530.14734	8298.575
2532.86681	8315.475
2535.58458	8306.775
2538.30065	8305.275
2541.01501	8277.275
2543.72768	8266.475
2546.43864	8266.775
2549.14791	8263.275
2551.85548	8248.275
2554.56136	8232.975
2557.26554	8216.175
2559.96803	8214.175
2562.66883	8185.275
2565.36794	8184.275
2568.06536	8186.875
2570.7611	8158.375
2573.45514	8155.275
2576.14751	8130.475
2578.83819	8132.675
2581.52719	8130.675
2584.21451	8096.975
2586.90015	8097.475
2589.58411	8062.375
2592.2664	8068.575
2594.94701	8058.075
2597.62594	8034.175
2600.30321	8035.875
2602.9788	8006.775
2605.65273	8006.175
2608.32498	8004.475
2610.99557	7987.875
2613.66449	7986.375
2616.33175	7971.675
2618.99734	7988.275
2621.66128	7956.975
2624.32355	7940.475
2626.98416	7954.175
2629.64311	7947.475
2632.30041	7933.975
2634.95605	7918.875
2637.61004	7928.175
2640.26238	7888.975
2642.91306	7892.975
2645.56209	7888.775
2648.20948	7881.475
2650.85521	7885.275
2653.4993	7889.075
2656.14175	7862.175
2658.78255	7880.975
2661.42171	7877.975
2664.05923	7866.075
2666.6951	7860.875
2669.32934	7875.075
2671.96194	7869.675
2674.59291	7878.875
2677.22224	7889.175
2679.84993	7885.975
2682.476	7883.775
2685.10043	7870.175
2687.72324	7879.775
2690.34441	7895.675
2692.96396	7882.975
2695.58188	7879.075
2698.19818	7865.175
2700.81285	7875.375
2703.4259	7900.475
2706.03733	7878.475
2708.64714	7888.275
2711.25533	7895.775
2713.86191	7889.275
2716.46687	7876.575
2719.07021	7872.875
2721.67194	7891.875
2724.27206	7882.775
2726.87057	7868.775
2729.46747	7879.475
2732.06276	7853.975
2734.65644	7870.375
2737.24852	7868.775
2739.83899	7877.375
2742.42786	7850.975
2745.01513	7839.875
2747.60079	7852.675
2750.18486	7839.775
2752.76733	7847.775
2755.3482	7813.575
2757.92747	7841.175
2760.50515	7825.475
2763.08123	7807.275
2765.65573	7813.075
2768.22863	7798.275
2770.79994	7774.375
2773.36967	7760.575
2775.9378	7774.575
2778.50435	7740.975
2781.06932	7746.075
2783.6327	7727.075
2786.1945	7720.775
2788.75471	7701.775
2791.31335	7701.075
2793.87041	7695.875
2796.42589	7664.975
2798.97979	7646.975
2801.53212	7632.175
2804.08288	7648.575
2806.63206	7616.375
2809.17967	7632.475
2811.72571	7596.775
2814.27018	7590.275
2816.81308	7572.775
2819.35442	7552.175
2821.89419	7547.575
2824.43239	7549.875
2826.96904	7542.575
2829.50412	7544.875
2832.03763	7526.075
2834.56959	7530.375
2837.1	7506.775
2839.62884	7527.175
2842.15613	7527.075
2844.68186	7526.775
2847.20604	7533.075
2849.72867	7537.175
2852.24974	7534.775
2854.76927	7540.275
2857.28724	7524.875
2859.80367	7520.475
2862.31855	7500.875
2864.83189	7511.075
2867.34368	7495.775
2869.85393	7506.875
2872.36264	7484.875
2874.8698	7485.375
2877.37543	7503.275
2879.87952	7484.075
2882.38207	7482.975
2884.88308	7479.775
2887.38256	7488.375
2889.88051	7488.475
2892.37692	7472.475
2894.8718	7488.175
2897.36515	7465.275
2899.85698	7475.575
2902.34727	7492.975
2904.83604	7480.875
2907.32328	7459.875
2909.809	7467.475
2912.29319	7490.975
2914.77587	7509.075
2917.25702	7484.475
2919.73665	7497.175
2922.21476	7485.675
2924.69136	7490.275
2927.16644	7491.175
2929.64	7488.875
2932.11205	7461.975
2934.58258	7456.575
2937.05161	7469.575
2939.51912	7453.175
2941.98513	7441.975
2944.44962	7429.475
2946.91261	7389.975
2949.37409	7415.375
2951.83407	7407.975
2954.29254	7402.475
2956.74951	7404.775
2959.20498	7368.675
2961.65895	7371.175
2964.11142	7369.575
2966.56239	7351.975
2969.01186	7355.775
2971.45984	7328.475
2973.90632	7338.775
2976.35131	7315.175
2978.7948	7305.175
2981.23681	7277.675
2983.67732	7284.975
2986.11635	7237.175
2988.55388	7260.275
2990.98993	7250.375
2993.4245	7229.875
2995.85758	7218.575
2998.28917	7229.275
3000.71928	7191.375
3003.14791	7193.775
3005.57506	7190.075
3008.00073	7172.975
3010.42493	7159.275
3012.84764	7169.575
3015.26888	7145.375
3017.68865	7142.675
3020.10694	7141.175
3022.52376	7117.875
3024.9391	7095.975
3027.35298	7086.275
3029.76539	7081.475
3032.17632	7063.075
3034.5858	7066.575
3036.9938	7054.675
3039.40034	7039.475
3041.80542	7055.575
3044.20903	7051.775
3046.61118	7034.475
3049.01187	7008.375
3051.4111	7012.775
3053.80888	7005.375
3056.20519	7004.875
3058.60005	6990.875
3060.99345	6991.675
3063.3854	6985.875
3065.7759	6952.575
3068.16494	6957.075
3070.55254	6933.575
3072.93868	6937.275
3075.32338	6920.175
3077.70662	6926.775
3080.08842	6914.275
3082.46878	6903.575
3084.84769	6898.175
3087.22515	6920.075
3089.60118	6900.975
3091.97576	6895.875
3094.3489	6902.275
3096.72061	6881.475
3099.09087	6886.775
3101.4597	6887.175
3103.82709	6894.275
3106.19305	6894.075
3108.55757	6883.375
3110.92066	6864.275
3113.28232	6846.775
3115.64255	6825.775
3118.00134	6826.375
3120.35871	6845.075
3122.71466	6820.075
3125.06917	6803.175
3127.42226	6801.875
3129.77393	6790.675
3132.12417	6812.175
3134.47299	6822.975
3136.82039	6815.975
3139.16636	6810.775
3141.51092	6822.375
3143.85406	6826.175
3146.19579	6822.375
3148.53609	6847.475
3150.87499	6842.675
3153.21246	6842.675
3155.54853	6857.775
3157.88318	6852.575
3160.21642	6887.875
3162.54826	6860.475
3164.87868	6878.375
3167.2077	6883.175
3169.5353	6873.775
3171.86151	6867.075
3174.18631	6859.175
3176.5097	6852.775
3178.83169	6844.575
