Data from AgNPs_FTO_APTES_UA_0uM_R6G_10uM_NaF_0.1M_Addition_RamanShift__17__10-14-57-095.txt Node

Date: Fri Dec 17 10:14:57 GMT 2021
User: TCL
Spectrometer: QEP01345
Trigger mode: 4
Integration Time (sec): 7.000000E0
Scans to average: 10
Electric dark correction enabled: true
Nonlinearity correction enabled: false
Boxcar width: 0
XAxis mode: Raman Shifts
Number of Pixels in Spectrum: 1044
>>>>>Begin Spectral Data<<<<<
46.04893	-1.0125
50.45542	-0.1125
54.85868	-0.4125
59.25871	0.6875
63.6555	33.7875
68.04907	36.1875
72.43941	37.9875
76.82654	38.5875
81.21044	41.8875
85.59113	42.2875
89.96862	47.5875
94.34289	48.3875
98.71396	48.5875
103.08183	51.7875
107.4465	53.8875
111.80798	50.7875
116.16626	51.6875
120.52136	50.3875
124.87327	57.2875
129.222	55.6875
133.56755	56.4875
137.90993	60.8875
142.24913	64.8875
146.58517	69.6875
150.91804	74.6875
155.24774	87.5875
159.57429	104.9875
163.89768	130.8875
168.21792	163.5875
172.53501	208.5875
176.84895	289.3875
181.15975	390.2875
185.46741	542.2875
189.77193	734.9875
194.07331	988.4875
198.37157	1273.5875
202.6667	1571.9875
206.9587	1862.6875
211.24758	2149.6875
215.53334	2440.1875
219.81599	2743.8875
224.09553	3099.0875
228.37195	3479.9875
232.64527	3890.5875
236.91549	4306.5875
241.18261	4723.1875
245.44663	5064.6875
249.70755	5373.6875
253.96539	5630.0875
258.22014	5832.3875
262.4718	6024.8875
266.72039	6135.7875
270.96589	6185.7875
275.20832	6156.7875
279.44768	6079.3875
283.68397	5957.5875
287.91719	5838.6875
292.14735	5787.4875
296.37445	5821.2875
300.59849	5964.7875
304.81948	6101.6875
309.03742	6241.4875
313.25231	6260.4875
317.46415	6125.3875
321.67296	5870.4875
325.87872	5642.1875
330.08145	5533.6875
334.28114	5542.8875
338.47781	5585.9875
342.67145	5686.3875
346.86207	5834.4875
351.04966	6018.5875
355.23424	6258.5875
359.4158	6479.0875
363.59435	6608.6875
367.76989	6663.4875
371.94243	6683.8875
376.11196	6657.3875
380.27849	6674.1875
384.44203	6641.6875
388.60257	6597.1875
392.76012	6568.7875
396.91468	6591.7875
401.06626	6685.8875
405.21485	6777.2875
409.36047	6711.1875
413.50311	6485.7875
417.64277	6288.5875
421.77947	6156.9875
425.9132	6159.3875
430.04396	6183.0875
434.17176	6249.2875
438.2966	6371.0875
442.41849	6565.9875
446.53742	6801.9875
450.6534	7005.7875
454.76644	7116.4875
458.87653	7085.4875
462.98368	6912.4875
467.08789	6717.5875
471.18916	6568.3875
475.2875	6429.1875
479.38291	6285.7875
483.4754	6204.4875
487.56496	6134.7875
491.6516	6121.6875
495.73531	6092.9875
499.81612	6106.2875
503.89401	6163.3875
507.96899	6221.2875
512.04106	6267.5875
516.11023	6351.0875
520.1765	6419.5875
524.23987	6467.5875
528.30034	6426.7875
532.35792	6375.2875
536.41261	6264.3875
540.46441	6157.9875
544.51333	6087.8875
548.55936	6095.2875
552.60252	6175.2875
556.64279	6310.1875
560.6802	6382.3875
564.71473	6426.5875
568.7464	6523.6875
572.7752	6587.0875
576.80114	6464.1875
580.82422	6315.5875
584.84444	6346.4875
588.86181	6544.5875
592.87633	6911.4875
596.888	7189.6875
600.89682	7147.1875
604.9028	7326.8875
608.90594	8411.0875
612.90624	10038.6875
616.90371	9823.8875
620.89834	7654.1875
624.89015	6469.7875
628.87913	6212.8875
632.86528	6181.2875
636.84862	6187.7875
640.82913	6151.8875
644.80683	5971.5875
648.78172	5882.7875
652.75379	5904.9875
656.72306	6044.2875
660.68952	6244.9875
664.65319	6195.8875
668.61405	5988.9875
672.57211	5890.1875
676.52738	5867.9875
680.47986	5868.4875
684.42955	5836.0875
688.37646	5812.2875
692.32058	5821.4875
696.26192	5870.0875
700.20048	5926.5875
704.13626	6002.4875
708.06928	5977.4875
711.99952	5919.5875
715.927	5914.5875
719.85171	5955.1875
723.77365	5936.6875
727.69284	5882.1875
731.60928	5868.3875
735.52295	5884.3875
739.43388	5917.4875
743.34206	5931.1875
747.24749	5947.3875
751.15017	5972.6875
755.05012	6011.1875
758.94733	6147.1875
762.8418	6539.6875
766.73354	7265.8875
770.62254	8112.3875
774.50882	8593.2875
778.39237	8307.1875
782.27321	7495.5875
786.15132	6677.7875
790.02671	6191.3875
793.89938	5964.7875
797.76935	5859.5875
801.6366	5809.7875
805.50115	5771.0875
809.36299	5761.2875
813.22213	5733.3875
817.07857	5716.2875
820.93231	5704.7875
824.78336	5713.8875
828.63172	5733.0875
832.47738	5744.5875
836.32036	5746.2875
840.16066	5737.7875
843.99827	5737.7875
847.8332	5730.3875
851.66546	5719.5875
855.49504	5733.9875
859.32195	5700.9875
863.1462	5698.6875
866.96777	5664.9875
870.78668	5664.8875
874.60293	5660.3875
878.41652	5669.4875
882.22745	5684.3875
886.03573	5720.6875
889.84136	5709.2875
893.64433	5685.0875
897.44466	5674.5875
901.24235	5699.0875
905.0374	5689.3875
908.8298	5681.0875
912.61957	5712.8875
916.40671	5765.7875
920.19121	5835.4875
923.97308	5874.9875
927.75233	5953.5875
931.52895	5986.8875
935.30295	5927.2875
939.07433	5794.9875
942.84309	5662.1875
946.60924	5583.8875
950.37278	5523.6875
954.13371	5467.1875
957.89203	5432.6875
961.64774	5405.6875
965.40086	5409.9875
969.15137	5361.5875
972.89929	5356.7875
976.64461	5328.2875
980.38733	5325.4875
984.12747	5345.4875
987.86502	5382.7875
991.59999	5399.1875
995.33237	5445.9875
999.06217	5584.2875
1002.78939	5701.4875
1006.51404	5754.2875
1010.23611	5791.4875
1013.95561	5844.3875
1017.67255	5819.6875
1021.38692	5746.6875
1025.09872	5637.3875
1028.80796	5602.0875
1032.51465	5665.5875
1036.21877	5729.0875
1039.92035	5768.4875
1043.61937	5763.5875
1047.31584	5727.6875
1051.00976	5696.5875
1054.70114	5665.7875
1058.38998	5612.5875
1062.07627	5615.1875
1065.76003	5591.6875
1069.44126	5576.8875
1073.11995	5584.0875
1076.79611	5624.8875
1080.46974	5682.6875
1084.14085	5784.7875
1087.80943	5883.5875
1091.47549	5923.5875
1095.13903	5822.8875
1098.80005	5646.2875
1102.45857	5534.4875
1106.11456	5479.9875
1109.76805	5505.3875
1113.41903	5599.3875
1117.06751	5715.2875
1120.71348	5863.5875
1124.35696	6005.8875
1127.99793	6141.7875
1131.63641	6161.5875
1135.2724	5964.4875
1138.90589	5737.2875
1142.5369	5594.9875
1146.16542	5506.6875
1149.79145	5457.4875
1153.415	5433.4875
1157.03607	5471.6875
1160.65467	5523.2875
1164.27079	5674.5875
1167.88443	5944.1875
1171.49561	6375.7875
1175.10432	7063.0875
1178.71056	7951.3875
1182.31434	8717.5875
1185.91565	8938.0875
1189.51451	8656.7875
1193.11091	8124.5875
1196.70485	7539.1875
1200.29634	7091.5875
1203.88538	6697.3875
1207.47197	6310.6875
1211.05612	6006.8875
1214.63782	5905.5875
1218.21708	5930.4875
1221.79391	6034.6875
1225.36829	6114.4875
1228.94024	6054.0875
1232.50976	5941.3875
1236.07685	5824.9875
1239.6415	5766.4875
1243.20374	5713.3875
1246.76355	5745.8875
1250.32093	5776.0875
1253.8759	5862.5875
1257.42845	6001.6875
1260.97859	6159.3875
1264.52631	6327.0875
1268.07163	6488.6875
1271.61453	6638.1875
1275.15503	6758.7875
1278.69312	6841.7875
1282.22882	6909.9875
1285.76211	7051.4875
1289.29301	7305.9875
1292.82151	7584.4875
1296.34761	7877.0875
1299.87133	8246.0875
1303.39266	8800.2875
1306.9116	9600.0875
1310.42815	10657.9875
1313.94233	11397.2875
1317.45412	11291.9875
1320.96354	10504.7875
1324.47058	9550.3875
1327.97525	8681.9875
1331.47754	8133.7875
1334.97747	7893.6875
1338.47502	7876.1875
1341.97022	7962.7875
1345.46305	8092.6875
1348.95352	8469.9875
1352.44163	9173.4875
1355.92738	10212.4875
1359.41078	11573.4875
1362.89183	12978.8875
1366.37053	13082.9875
1369.84688	11479.3875
1373.32088	9516.6875
1376.79254	8173.4875
1380.26186	7517.0875
1383.72883	7225.9875
1387.19347	7025.3875
1390.65578	6786.2875
1394.11575	6616.8875
1397.57339	6566.4875
1401.0287	6589.5875
1404.48168	6643.9875
1407.93234	6654.4875
1411.38068	6665.1875
1414.82669	6625.9875
1418.27039	6506.9875
1421.71177	6377.5875
1425.15083	6269.3875
1428.58758	6217.4875
1432.02203	6266.2875
1435.45416	6397.4875
1438.88399	6475.7875
1442.31151	6496.6875
1445.73673	6519.6875
1449.15965	6506.4875
1452.58027	6460.7875
1455.9986	6309.0875
1459.41463	6230.0875
1462.82837	6249.9875
1466.23982	6362.0875
1469.64898	6520.1875
1473.05586	6640.4875
1476.46045	6725.5875
1479.86276	6757.5875
1483.26279	6857.2875
1486.66054	6895.2875
1490.05602	6991.2875
1493.44922	7137.2875
1496.84016	7344.0875
1500.22882	7751.6875
1503.61521	8410.7875
1506.99934	9278.7875
1510.38121	10166.1875
1513.76081	10661.7875
1517.13816	10352.1875
1520.51324	9301.8875
1523.88607	8190.4875
1527.25665	7433.6875
1530.62498	7078.7875
1533.99105	6855.1875
1537.35488	6746.7875
1540.71647	6615.5875
1544.07581	6527.5875
1547.4329	6449.7875
1550.78776	6350.9875
1554.14038	6283.3875
1557.49077	6262.8875
1560.83892	6308.6875
1564.18484	6404.5875
1567.52853	6568.9875
1570.86999	6749.3875
1574.20922	6878.7875
1577.54624	6922.7875
1580.88103	6701.7875
1584.2136	6350.9875
1587.54395	6148.9875
1590.87208	6224.4875
1594.19801	6626.9875
1597.52172	7202.1875
1600.84321	7638.7875
1604.16251	7545.6875
1607.47959	7022.0875
1610.79447	6374.2875
1614.10715	5783.8875
1617.41763	5377.3875
1620.7259	5150.3875
1624.03199	5034.6875
1627.33587	5024.6875
1630.63757	5121.2875
1633.93707	5329.3875
1637.23439	5692.3875
1640.52951	6287.0875
1643.82246	7124.8875
1647.11321	8035.2875
1650.40179	8555.6875
1653.68819	8257.0875
1656.97241	7179.8875
1660.25446	6043.5875
1663.53433	5228.2875
1666.81203	4784.2875
1670.08756	4515.4875
1673.36092	4359.9875
1676.63211	4254.1875
1679.90115	4175.4875
1683.16801	4112.6875
1686.43272	4074.6875
1689.69527	4035.7875
1692.95567	4006.2875
1696.2139	3989.3875
1699.46999	3986.4875
1702.72392	3953.4875
1705.97571	3938.2875
1709.22535	3942.4875
1712.47284	3934.5875
1715.71819	3948.6875
1718.96139	3931.6875
1722.20246	3920.2875
1725.44139	3906.4875
1728.67818	3872.5875
1731.91284	3847.4875
1735.14537	3821.1875
1738.37576	3790.1875
1741.60403	3793.9875
1744.83017	3743.9875
1748.05418	3750.9875
1751.27607	3741.3875
1754.49584	3735.1875
1757.71349	3719.4875
1760.92903	3714.2875
1764.14244	3690.5875
1767.35375	3692.2875
1770.56294	3672.3875
1773.77002	3665.8875
1776.97499	3659.3875
1780.17785	3645.7875
1783.37861	3632.8875
1786.57727	3639.2875
1789.77382	3614.5875
1792.96828	3614.2875
1796.16064	3603.3875
1799.3509	3601.1875
1802.53907	3607.2875
1805.72514	3576.8875
1808.90913	3572.0875
1812.09102	3558.6875
1815.27083	3541.9875
1818.44856	3524.9875
1821.6242	3527.6875
1824.79776	3526.4875
1827.96924	3502.7875
1831.13864	3488.6875
1834.30597	3492.5875
1837.47122	3488.3875
1840.6344	3480.3875
1843.7955	3481.5875
1846.95454	3490.1875
1850.11151	3471.1875
1853.26642	3481.5875
1856.41926	3462.1875
1859.57004	3463.2875
1862.71876	3462.0875
1865.86542	3452.4875
1869.01003	3452.1875
1872.15258	3438.6875
1875.29308	3450.1875
1878.43152	3435.2875
1881.56792	3431.5875
1884.70227	3427.7875
1887.83457	3439.0875
1890.96482	3428.3875
1894.09304	3416.1875
1897.21921	3410.6875
1900.34335	3407.0875
1903.46544	3399.1875
1906.58551	3408.2875
1909.70353	3400.6875
1912.81953	3408.1875
1915.93349	3395.2875
1919.04543	3389.7875
1922.15534	3374.8875
1925.26322	3368.2875
1928.36908	3349.4875
1931.47292	3349.3875
1934.57473	3330.5875
1937.67453	3317.8875
1940.77232	3304.2875
1943.86808	3290.8875
1946.96184	3281.2875
1950.05358	3276.8875
1953.14331	3257.7875
1956.23103	3256.3875
1959.31675	3233.0875
1962.40046	3221.0875
1965.48217	3212.7875
1968.56188	3215.3875
1971.63959	3190.8875
1974.7153	3183.7875
1977.78901	3170.8875
1980.86073	3165.1875
1983.93046	3156.6875
1986.99819	3129.2875
1990.06394	3120.6875
1993.1277	3120.5875
1996.18947	3097.6875
1999.24925	3106.1875
2002.30706	3074.7875
2005.36288	3064.1875
2008.41672	3062.8875
2011.46859	3053.8875
2014.51848	3055.9875
2017.56639	3030.7875
2020.61233	3022.7875
2023.6563	3018.7875
2026.6983	3006.9875
2029.73833	2996.1875
2032.7764	2988.7875
2035.8125	2972.5875
2038.84664	2985.6875
2041.87881	2961.0875
2044.90903	2965.9875
2047.93729	2961.6875
2050.96359	2957.6875
2053.98794	2937.4875
2057.01034	2944.5875
2060.03078	2941.0875
2063.04927	2939.9875
2066.06582	2925.2875
2069.08042	2938.3875
2072.09307	2928.1875
2075.10378	2918.1875
2078.11255	2908.3875
2081.11938	2915.1875
2084.12426	2917.2875
2087.12722	2907.5875
2090.12824	2896.8875
2093.12732	2906.7875
2096.12447	2904.8875
2099.11969	2913.1875
2102.11299	2915.6875
2105.10435	2914.5875
2108.09379	2910.3875
2111.08131	2908.3875
2114.0669	2904.2875
2117.05057	2902.0875
2120.03233	2900.5875
2123.01216	2902.6875
2125.99008	2918.0875
2128.96609	2894.4875
2131.94018	2901.3875
2134.91236	2909.4875
2137.88263	2909.6875
2140.851	2902.2875
2143.81746	2901.5875
2146.78201	2904.2875
2149.74466	2912.9875
2152.7054	2887.3875
2155.66425	2897.6875
2158.6212	2878.3875
2161.57625	2889.3875
2164.52941	2881.8875
2167.48067	2886.0875
2170.43004	2894.4875
2173.37752	2886.7875
2176.32311	2863.0875
2179.26681	2877.9875
2182.20863	2875.4875
2185.14856	2868.1875
2188.08661	2871.9875
2191.02278	2878.5875
2193.95707	2872.9875
2196.88948	2870.8875
2199.82001	2870.1875
2202.74867	2856.7875
2205.67545	2858.2875
2208.60037	2858.0875
2211.52341	2852.3875
2214.44458	2838.5875
2217.36388	2834.3875
2220.28132	2830.5875
2223.1969	2813.9875
2226.11061	2807.4875
2229.02246	2810.3875
2231.93245	2794.2875
2234.84058	2787.2875
2237.74686	2776.5875
2240.65128	2765.7875
2243.55385	2767.6875
2246.45456	2766.1875
2249.35343	2765.2875
2252.25044	2761.5875
2255.14561	2749.2875
2258.03893	2752.0875
2260.93041	2731.6875
2263.82004	2745.3875
2266.70783	2714.2875
2269.59378	2715.8875
2272.4779	2720.4875
2275.36017	2695.6875
2278.24061	2701.8875
2281.11922	2688.6875
2283.996	2693.0875
2286.87094	2694.9875
2289.74405	2683.1875
2292.61534	2674.2875
2295.4848	2661.9875
2298.35243	2645.8875
2301.21824	2661.9875
2304.08223	2649.2875
2306.94439	2650.4875
2309.80474	2652.9875
2312.66327	2657.0875
2315.51999	2654.7875
2318.37489	2652.7875
2321.22797	2640.3875
2324.07925	2642.2875
2326.92871	2643.8875
2329.77637	2623.6875
2332.62222	2624.7875
2335.46626	2609.6875
2338.3085	2623.0875
2341.14893	2617.5875
2343.98756	2618.9875
2346.8244	2617.9875
2349.65943	2609.1875
2352.49267	2612.1875
2355.32411	2601.8875
2358.15376	2610.3875
2360.98161	2611.5875
2363.80768	2621.5875
2366.63195	2611.5875
2369.45444	2614.8875
2372.27514	2604.9875
2375.09405	2600.2875
2377.91118	2590.6875
2380.72652	2590.8875
2383.54009	2569.1875
2386.35187	2557.7875
2389.16188	2559.4875
2391.97011	2539.2875
2394.77657	2533.5875
2397.58125	2535.6875
2400.38416	2522.0875
2403.18529	2522.1875
2405.98466	2509.9875
2408.78226	2511.9875
2411.57809	2501.7875
2414.37216	2499.3875
2417.16446	2487.0875
2419.955	2486.1875
2422.74378	2491.2875
2425.5308	2480.0875
2428.31606	2481.5875
2431.09956	2465.9875
2433.88131	2482.6875
2436.6613	2476.1875
2439.43954	2463.0875
2442.21603	2466.4875
2444.99077	2455.0875
2447.76377	2462.7875
2450.53501	2464.3875
2453.30451	2464.5875
2456.07226	2457.5875
2458.83827	2454.1875
2461.60254	2449.7875
2464.36507	2462.2875
2467.12586	2455.0875
2469.88492	2444.9875
2472.64224	2445.3875
2475.39782	2435.6875
2478.15167	2434.2875
2480.90379	2435.3875
2483.65417	2446.5875
2486.40283	2453.2875
2489.14976	2450.5875
2491.89497	2441.6875
2494.63845	2451.8875
2497.3802	2431.7875
2500.12024	2444.9875
2502.85855	2429.3875
2505.59514	2433.3875
2508.33002	2428.1875
2511.06318	2412.1875
2513.79462	2403.7875
2516.52435	2400.4875
2519.25237	2390.4875
2521.97867	2385.4875
2524.70327	2394.1875
2527.42616	2371.0875
2530.14734	2368.3875
2532.86681	2371.3875
2535.58458	2360.4875
2538.30065	2362.5875
2541.01501	2363.5875
2543.72768	2353.0875
2546.43864	2357.8875
2549.14791	2340.6875
2551.85548	2359.5875
2554.56136	2343.7875
2557.26554	2348.6875
2559.96803	2346.3875
2562.66883	2344.4875
2565.36794	2331.1875
2568.06536	2333.6875
2570.7611	2326.9875
2573.45514	2318.1875
2576.14751	2322.3875
2578.83819	2321.1875
2581.52719	2307.9875
2584.21451	2317.2875
2586.90015	2312.9875
2589.58411	2314.0875
2592.2664	2303.4875
2594.94701	2280.4875
2597.62594	2301.0875
2600.30321	2295.1875
2602.9788	2291.6875
2605.65273	2285.6875
2608.32498	2290.4875
2610.99557	2277.8875
2613.66449	2278.2875
2616.33175	2277.7875
2618.99734	2275.0875
2621.66128	2276.5875
2624.32355	2277.6875
2626.98416	2264.5875
2629.64311	2262.6875
2632.30041	2272.8875
2634.95605	2258.9875
2637.61004	2253.4875
2640.26238	2261.0875
2642.91306	2257.0875
2645.56209	2249.2875
2648.20948	2234.5875
2650.85521	2234.4875
2653.4993	2242.9875
2656.14175	2249.0875
2658.78255	2257.1875
2661.42171	2242.8875
2664.05923	2246.5875
2666.6951	2244.2875
2669.32934	2243.1875
2671.96194	2249.9875
2674.59291	2255.9875
2677.22224	2257.9875
2679.84993	2257.2875
2682.476	2252.4875
2685.10043	2242.5875
2687.72324	2242.9875
2690.34441	2255.5875
2692.96396	2250.0875
2695.58188	2249.0875
2698.19818	2241.1875
2700.81285	2248.2875
2703.4259	2233.9875
2706.03733	2233.7875
2708.64714	2237.0875
2711.25533	2232.5875
2713.86191	2243.2875
2716.46687	2253.2875
2719.07021	2266.4875
2721.67194	2262.3875
2724.27206	2258.7875
2726.87057	2274.5875
2729.46747	2270.4875
2732.06276	2279.6875
2734.65644	2284.9875
2737.24852	2286.7875
2739.83899	2283.7875
2742.42786	2282.4875
2745.01513	2280.3875
2747.60079	2291.8875
2750.18486	2290.0875
2752.76733	2298.7875
2755.3482	2290.9875
2757.92747	2301.8875
2760.50515	2307.3875
2763.08123	2299.9875
2765.65573	2300.9875
2768.22863	2314.0875
2770.79994	2314.0875
2773.36967	2327.9875
2775.9378	2326.4875
2778.50435	2320.7875
2781.06932	2315.1875
2783.6327	2317.6875
2786.1945	2324.9875
2788.75471	2337.3875
2791.31335	2317.1875
2793.87041	2337.8875
2796.42589	2329.2875
2798.97979	2333.7875
2801.53212	2337.0875
2804.08288	2348.3875
2806.63206	2339.2875
2809.17967	2350.8875
2811.72571	2351.9875
2814.27018	2360.1875
2816.81308	2366.1875
2819.35442	2365.5875
2821.89419	2371.8875
2824.43239	2364.1875
2826.96904	2367.4875
2829.50412	2360.3875
2832.03763	2367.4875
2834.56959	2378.1875
2837.1	2388.1875
2839.62884	2405.2875
2842.15613	2422.2875
2844.68186	2456.7875
2847.20604	2493.8875
2849.72867	2511.6875
2852.24974	2530.6875
2854.76927	2545.6875
2857.28724	2534.2875
2859.80367	2543.1875
2862.31855	2549.4875
2864.83189	2555.9875
2867.34368	2549.1875
2869.85393	2555.0875
2872.36264	2554.3875
2874.8698	2560.2875
2877.37543	2559.1875
2879.87952	2575.9875
2882.38207	2570.7875
2884.88308	2560.0875
2887.38256	2566.0875
2889.88051	2569.5875
2892.37692	2575.6875
2894.8718	2565.8875
2897.36515	2566.8875
2899.85698	2569.8875
2902.34727	2564.7875
2904.83604	2580.2875
2907.32328	2558.3875
2909.809	2553.6875
2912.29319	2555.9875
2914.77587	2561.2875
2917.25702	2550.4875
2919.73665	2545.6875
2922.21476	2555.3875
2924.69136	2547.3875
2927.16644	2537.6875
2929.64	2536.4875
2932.11205	2513.2875
2934.58258	2488.3875
2937.05161	2476.2875
2939.51912	2454.8875
2941.98513	2426.5875
2944.44962	2402.3875
2946.91261	2361.9875
2949.37409	2347.4875
2951.83407	2309.4875
2954.29254	2287.7875
2956.74951	2271.8875
2959.20498	2255.5875
2961.65895	2234.6875
2964.11142	2224.6875
2966.56239	2208.6875
2969.01186	2205.0875
2971.45984	2165.3875
2973.90632	2161.0875
2976.35131	2145.0875
2978.7948	2125.9875
2981.23681	2110.1875
2983.67732	2103.9875
2986.11635	2095.7875
2988.55388	2079.2875
2990.98993	2067.5875
2993.4245	2067.9875
2995.85758	2058.3875
2998.28917	2058.1875
3000.71928	2036.8875
3003.14791	2041.4875
3005.57506	2046.0875
3008.00073	2048.4875
3010.42493	2032.6875
3012.84764	2022.0875
3015.26888	2027.0875
3017.68865	2003.9875
3020.10694	2010.6875
3022.52376	2014.4875
3024.9391	2004.6875
3027.35298	1992.1875
3029.76539	2005.3875
3032.17632	2003.2875
3034.5858	2006.5875
3036.9938	2000.9875
3039.40034	1994.0875
3041.80542	2002.9875
3044.20903	1997.7875
3046.61118	1990.8875
3049.01187	1991.0875
3051.4111	1988.4875
3053.80888	1980.8875
3056.20519	1988.2875
3058.60005	1986.1875
3060.99345	1986.6875
3063.3854	1990.5875
3065.7759	1988.3875
3068.16494	1983.0875
3070.55254	1978.1875
3072.93868	1993.7875
3075.32338	1972.9875
3077.70662	1983.5875
3080.08842	1971.2875
3082.46878	1982.3875
3084.84769	1984.0875
3087.22515	1980.8875
3089.60118	1980.5875
3091.97576	1983.8875
3094.3489	1980.5875
3096.72061	1981.5875
3099.09087	1984.5875
3101.4597	1988.7875
3103.82709	1993.0875
3106.19305	2000.9875
3108.55757	1996.9875
3110.92066	1990.2875
3113.28232	1986.5875
3115.64255	1988.6875
3118.00134	1996.6875
3120.35871	2001.6875
3122.71466	2000.7875
3125.06917	1994.9875
