Data from AgNPs_FTO_APTES_UA_200uM_R6G_10uM_NaF_0.1M_Addition_RamanShift__41__16-48-07-544.txt Node

Date: Fri Dec 17 16:48:07 GMT 2021
User: TCL
Spectrometer: QEP01345
Trigger mode: 4
Integration Time (sec): 7.000000E0
Scans to average: 10
Electric dark correction enabled: true
Nonlinearity correction enabled: false
Boxcar width: 0
XAxis mode: Raman Shifts
Number of Pixels in Spectrum: 1044
>>>>>Begin Spectral Data<<<<<
46.04893	0.2875
50.45542	-0.3125
54.85868	-0.8125
59.25871	1.3875
63.6555	42.3875
68.04907	42.0875
72.43941	47.9875
76.82654	49.0875
81.21044	46.6875
85.59113	50.7875
89.96862	56.2875
94.34289	54.6875
98.71396	58.6875
103.08183	55.5875
107.4465	58.0875
111.80798	60.3875
116.16626	64.2875
120.52136	59.5875
124.87327	68.3875
129.222	66.3875
133.56755	68.9875
137.90993	70.7875
142.24913	76.0875
146.58517	85.3875
150.91804	95.1875
155.24774	110.2875
159.57429	132.8875
163.89768	167.4875
168.21792	213.9875
172.53501	284.2875
176.84895	398.4875
181.15975	550.1875
185.46741	772.5875
189.77193	1061.9875
194.07331	1426.0875
198.37157	1846.5875
202.6667	2283.1875
206.9587	2724.7875
211.24758	3143.2875
215.53334	3574.8875
219.81599	4031.8875
224.09553	4524.6875
228.37195	5075.1875
232.64527	5668.3875
236.91549	6352.5875
241.18261	7002.5875
245.44663	7623.3875
249.70755	8170.4875
253.96539	8669.3875
258.22014	9081.1875
262.4718	9395.0875
266.72039	9647.1875
270.96589	9783.9875
275.20832	9794.4875
279.44768	9681.1875
283.68397	9534.5875
287.91719	9372.2875
292.14735	9253.3875
296.37445	9233.9875
300.59849	9232.3875
304.81948	9269.9875
309.03742	9229.5875
313.25231	9129.9875
317.46415	8963.6875
321.67296	8756.4875
325.87872	8614.2875
330.08145	8562.2875
334.28114	8588.4875
338.47781	8673.7875
342.67145	8779.7875
346.86207	8891.1875
351.04966	9091.1875
355.23424	9254.2875
359.4158	9477.4875
363.59435	9624.3875
367.76989	9746.6875
371.94243	9882.4875
376.11196	9970.5875
380.27849	10037.2875
384.44203	10100.3875
388.60257	10151.9875
392.76012	10157.8875
396.91468	10256.3875
401.06626	10335.8875
405.21485	10414.2875
409.36047	10337.7875
413.50311	10190.6875
417.64277	10017.5875
421.77947	9913.1875
425.9132	9902.2875
430.04396	9879.6875
434.17176	9938.7875
438.2966	9976.1875
442.41849	10072.9875
446.53742	10148.8875
450.6534	10246.6875
454.76644	10326.0875
458.87653	10358.0875
462.98368	10375.2875
467.08789	10365.5875
471.18916	10342.0875
475.2875	10307.8875
479.38291	10260.3875
483.4754	10226.5875
487.56496	10217.9875
491.6516	10205.9875
495.73531	10223.3875
499.81612	10222.9875
503.89401	10267.0875
507.96899	10297.8875
512.04106	10329.2875
516.11023	10392.0875
520.1765	10466.6875
524.23987	10428.6875
528.30034	10385.0875
532.35792	10333.0875
536.41261	10275.6875
540.46441	10186.7875
544.51333	10162.2875
548.55936	10169.6875
552.60252	10197.7875
556.64279	10291.4875
560.6802	10345.9875
564.71473	10337.4875
568.7464	10350.0875
572.7752	10391.6875
576.80114	10357.9875
580.82422	10315.2875
584.84444	10309.9875
588.86181	10323.2875
592.87633	10336.0875
596.888	10359.9875
600.89682	10471.1875
604.9028	10853.9875
608.90594	11807.2875
612.90624	13115.3875
616.90371	12959.0875
620.89834	11384.6875
624.89015	10652.1875
628.87913	10572.6875
632.86528	10742.7875
636.84862	10924.0875
640.82913	10906.3875
644.80683	10687.6875
648.78172	10434.2875
652.75379	10286.8875
656.72306	10298.2875
660.68952	10391.0875
664.65319	10366.8875
668.61405	10181.6875
672.57211	10076.3875
676.52738	10059.7875
680.47986	10083.2875
684.42955	10071.9875
688.37646	10034.4875
692.32058	10042.6875
696.26192	10050.1875
700.20048	10058.2875
704.13626	10104.8875
708.06928	10072.7875
711.99952	10057.0875
715.927	10047.8875
719.85171	10057.5875
723.77365	10056.9875
727.69284	10075.4875
731.60928	10017.8875
735.52295	9970.4875
739.43388	9969.9875
743.34206	9963.1875
747.24749	9989.9875
751.15017	9964.1875
755.05012	10004.4875
758.94733	10085.2875
762.8418	10373.0875
766.73354	10898.4875
770.62254	11560.3875
774.50882	12033.9875
778.39237	11756.0875
782.27321	11040.4875
786.15132	10426.8875
790.02671	10072.6875
793.89938	9915.1875
797.76935	9814.9875
801.6366	9800.1875
805.50115	9802.3875
809.36299	9836.3875
813.22213	9872.8875
817.07857	9884.1875
820.93231	9862.5875
824.78336	9778.2875
828.63172	9748.8875
832.47738	9685.3875
836.32036	9654.2875
840.16066	9648.4875
843.99827	9648.9875
847.8332	9600.6875
851.66546	9606.2875
855.49504	9586.0875
859.32195	9585.8875
863.1462	9582.7875
866.96777	9606.5875
870.78668	9585.7875
874.60293	9598.5875
878.41652	9616.5875
882.22745	9672.4875
886.03573	9688.1875
889.84136	9734.6875
893.64433	9709.5875
897.44466	9645.8875
901.24235	9586.4875
905.0374	9525.2875
908.8298	9449.4875
912.61957	9412.3875
916.40671	9417.8875
920.19121	9410.5875
923.97308	9404.5875
927.75233	9384.1875
931.52895	9394.0875
935.30295	9395.7875
939.07433	9309.5875
942.84309	9211.3875
946.60924	9157.1875
950.37278	9110.8875
954.13371	9070.5875
957.89203	9025.2875
961.64774	9021.8875
965.40086	8990.4875
969.15137	8977.8875
972.89929	8946.6875
976.64461	8927.1875
980.38733	8909.8875
984.12747	8911.4875
987.86502	8919.5875
991.59999	8932.9875
995.33237	8963.9875
999.06217	8984.5875
1002.78939	9043.4875
1006.51404	9095.0875
1010.23611	9133.2875
1013.95561	9176.7875
1017.67255	9205.1875
1021.38692	9158.8875
1025.09872	9140.1875
1028.80796	9099.7875
1032.51465	9067.0875
1036.21877	9005.9875
1039.92035	9004.1875
1043.61937	9030.1875
1047.31584	9027.2875
1051.00976	9055.5875
1054.70114	9052.8875
1058.38998	9056.0875
1062.07627	9111.6875
1065.76003	9143.7875
1069.44126	9227.6875
1073.11995	9311.3875
1076.79611	9346.2875
1080.46974	9348.1875
1084.14085	9329.6875
1087.80943	9328.9875
1091.47549	9319.2875
1095.13903	9287.7875
1098.80005	9233.7875
1102.45857	9122.7875
1106.11456	9089.5875
1109.76805	9051.6875
1113.41903	9123.8875
1117.06751	9228.9875
1120.71348	9428.6875
1124.35696	9572.1875
1127.99793	9792.8875
1131.63641	9963.9875
1135.2724	9904.7875
1138.90589	9728.1875
1142.5369	9539.7875
1146.16542	9368.7875
1149.79145	9197.9875
1153.415	9051.0875
1157.03607	9008.9875
1160.65467	9006.3875
1164.27079	9067.9875
1167.88443	9211.0875
1171.49561	9425.9875
1175.10432	9821.6875
1178.71056	10355.6875
1182.31434	10854.3875
1185.91565	11062.5875
1189.51451	10973.0875
1193.11091	10674.2875
1196.70485	10350.4875
1200.29634	10145.8875
1203.88538	9987.5875
1207.47197	9778.8875
1211.05612	9549.5875
1214.63782	9365.7875
1218.21708	9242.1875
1221.79391	9134.8875
1225.36829	9121.5875
1228.94024	9046.2875
1232.50976	9063.9875
1236.07685	9048.3875
1239.6415	9043.5875
1243.20374	9062.4875
1246.76355	9101.2875
1250.32093	9149.0875
1253.8759	9181.7875
1257.42845	9289.4875
1260.97859	9397.6875
1264.52631	9473.7875
1268.07163	9572.1875
1271.61453	9667.4875
1275.15503	9708.3875
1278.69312	9713.8875
1282.22882	9715.5875
1285.76211	9753.1875
1289.29301	9831.0875
1292.82151	9973.5875
1296.34761	10137.0875
1299.87133	10400.5875
1303.39266	10762.4875
1306.9116	11248.4875
1310.42815	11731.1875
1313.94233	12027.9875
1317.45412	11889.8875
1320.96354	11515.3875
1324.47058	11132.7875
1327.97525	10741.1875
1331.47754	10438.6875
1334.97747	10292.3875
1338.47502	10264.3875
1341.97022	10355.3875
1345.46305	10560.3875
1348.95352	10829.0875
1352.44163	11300.0875
1355.92738	11911.8875
1359.41078	12820.1875
1362.89183	13824.6875
1366.37053	14023.3875
1369.84688	12846.6875
1373.32088	11455.7875
1376.79254	10469.5875
1380.26186	9956.1875
1383.72883	9652.0875
1387.19347	9458.6875
1390.65578	9288.4875
1394.11575	9064.6875
1397.57339	8944.1875
1401.0287	8809.5875
1404.48168	8752.3875
1407.93234	8699.0875
1411.38068	8652.6875
1414.82669	8609.8875
1418.27039	8570.8875
1421.71177	8525.5875
1425.15083	8464.0875
1428.58758	8391.7875
1432.02203	8349.9875
1435.45416	8365.3875
1438.88399	8366.7875
1442.31151	8380.4875
1445.73673	8361.3875
1449.15965	8378.1875
1452.58027	8382.1875
1455.9986	8364.3875
1459.41463	8382.3875
1462.82837	8408.4875
1466.23982	8492.2875
1469.64898	8590.6875
1473.05586	8667.2875
1476.46045	8721.9875
1479.86276	8777.3875
1483.26279	8875.3875
1486.66054	8971.4875
1490.05602	9073.2875
1493.44922	9263.8875
1496.84016	9609.8875
1500.22882	10162.6875
1503.61521	10979.6875
1506.99934	11854.7875
1510.38121	12619.3875
1513.76081	12891.5875
1517.13816	12414.3875
1520.51324	11458.6875
1523.88607	10574.4875
1527.25665	9958.3875
1530.62498	9620.7875
1533.99105	9453.7875
1537.35488	9304.3875
1540.71647	9254.8875
1544.07581	9180.3875
1547.4329	9157.4875
1550.78776	9137.0875
1554.14038	9156.0875
1557.49077	9177.3875
1560.83892	9250.6875
1564.18484	9344.2875
1567.52853	9445.3875
1570.86999	9608.9875
1574.20922	9717.4875
1577.54624	9784.1875
1580.88103	9662.2875
1584.2136	9361.2875
1587.54395	9069.8875
1590.87208	8951.2875
1594.19801	8956.0875
1597.52172	9117.9875
1600.84321	9196.8875
1604.16251	9142.8875
1607.47959	8964.6875
1610.79447	8787.6875
1614.10715	8592.3875
1617.41763	8362.2875
1620.7259	8225.5875
1624.03199	8110.0875
1627.33587	8063.2875
1630.63757	8057.7875
1633.93707	8179.4875
1637.23439	8325.5875
1640.52951	8621.6875
1643.82246	9035.0875
1647.11321	9593.5875
1650.40179	10056.3875
1653.68819	10156.2875
1656.97241	9641.2875
1660.25446	8972.4875
1663.53433	8437.9875
1666.81203	8080.6875
1670.08756	7876.7875
1673.36092	7731.1875
1676.63211	7619.0875
1679.90115	7562.7875
1683.16801	7507.8875
1686.43272	7465.4875
1689.69527	7437.8875
1692.95567	7440.0875
1696.2139	7476.3875
1699.46999	7442.4875
1702.72392	7443.7875
1705.97571	7386.5875
1709.22535	7337.9875
1712.47284	7258.5875
1715.71819	7195.1875
1718.96139	7137.9875
1722.20246	7076.7875
1725.44139	7018.9875
1728.67818	6962.4875
1731.91284	6931.6875
1735.14537	6881.9875
1738.37576	6848.1875
1741.60403	6825.5875
1744.83017	6821.3875
1748.05418	6790.0875
1751.27607	6784.3875
1754.49584	6761.7875
1757.71349	6798.4875
1760.92903	6769.9875
1764.14244	6766.1875
1767.35375	6758.6875
1770.56294	6747.6875
1773.77002	6728.7875
1776.97499	6706.4875
1780.17785	6687.0875
1783.37861	6658.5875
1786.57727	6673.1875
1789.77382	6612.9875
1792.96828	6611.1875
1796.16064	6611.3875
1799.3509	6604.7875
1802.53907	6590.8875
1805.72514	6557.7875
1808.90913	6552.9875
1812.09102	6544.6875
1815.27083	6526.4875
1818.44856	6498.5875
1821.6242	6474.8875
1824.79776	6472.4875
1827.96924	6453.9875
1831.13864	6441.0875
1834.30597	6452.1875
1837.47122	6436.4875
1840.6344	6434.1875
1843.7955	6426.5875
1846.95454	6409.4875
1850.11151	6416.2875
1853.26642	6399.8875
1856.41926	6392.6875
1859.57004	6396.6875
1862.71876	6372.8875
1865.86542	6350.5875
1869.01003	6358.9875
1872.15258	6353.1875
1875.29308	6352.7875
1878.43152	6318.8875
1881.56792	6316.9875
1884.70227	6315.2875
1887.83457	6303.8875
1890.96482	6300.7875
1894.09304	6294.0875
1897.21921	6262.5875
1900.34335	6251.3875
1903.46544	6253.4875
1906.58551	6250.6875
1909.70353	6236.9875
1912.81953	6235.9875
1915.93349	6228.5875
1919.04543	6203.8875
1922.15534	6191.4875
1925.26322	6189.6875
1928.36908	6159.8875
1931.47292	6142.0875
1934.57473	6146.1875
1937.67453	6102.7875
1940.77232	6100.7875
1943.86808	6091.9875
1946.96184	6057.6875
1950.05358	6063.0875
1953.14331	6043.6875
1956.23103	6041.0875
1959.31675	6009.3875
1962.40046	5995.4875
1965.48217	5971.8875
1968.56188	5968.4875
1971.63959	5924.6875
1974.7153	5925.9875
1977.78901	5889.3875
1980.86073	5876.4875
1983.93046	5864.1875
1986.99819	5819.8875
1990.06394	5802.8875
1993.1277	5802.0875
1996.18947	5779.0875
1999.24925	5769.5875
2002.30706	5743.8875
2005.36288	5716.7875
2008.41672	5703.8875
2011.46859	5685.1875
2014.51848	5685.2875
2017.56639	5645.1875
2020.61233	5628.2875
2023.6563	5635.8875
2026.6983	5602.3875
2029.73833	5598.1875
2032.7764	5580.3875
2035.8125	5565.2875
2038.84664	5547.0875
2041.87881	5538.6875
2044.90903	5513.9875
2047.93729	5516.2875
2050.96359	5495.0875
2053.98794	5481.5875
2057.01034	5482.9875
2060.03078	5461.7875
2063.04927	5468.2875
2066.06582	5472.3875
2069.08042	5473.5875
2072.09307	5449.5875
2075.10378	5461.1875
2078.11255	5431.3875
2081.11938	5447.5875
2084.12426	5447.6875
2087.12722	5449.0875
2090.12824	5427.0875
2093.12732	5439.4875
2096.12447	5443.3875
2099.11969	5432.0875
2102.11299	5439.7875
2105.10435	5422.5875
2108.09379	5430.4875
2111.08131	5439.8875
2114.0669	5425.1875
2117.05057	5433.5875
2120.03233	5450.0875
2123.01216	5445.1875
2125.99008	5456.3875
2128.96609	5453.1875
2131.94018	5456.1875
2134.91236	5440.7875
2137.88263	5465.2875
2140.851	5452.5875
2143.81746	5468.0875
2146.78201	5456.3875
2149.74466	5454.8875
2152.7054	5467.8875
2155.66425	5457.4875
2158.6212	5438.0875
2161.57625	5458.7875
2164.52941	5446.1875
2167.48067	5437.8875
2170.43004	5448.5875
2173.37752	5435.5875
2176.32311	5421.3875
2179.26681	5414.5875
2182.20863	5423.9875
2185.14856	5421.1875
2188.08661	5423.8875
2191.02278	5416.5875
2193.95707	5393.0875
2196.88948	5400.3875
2199.82001	5378.1875
2202.74867	5374.8875
2205.67545	5393.2875
2208.60037	5366.8875
2211.52341	5363.2875
2214.44458	5349.6875
2217.36388	5341.6875
2220.28132	5326.3875
2223.1969	5311.9875
2226.11061	5303.6875
2229.02246	5305.3875
2231.93245	5270.6875
2234.84058	5256.0875
2237.74686	5267.2875
2240.65128	5273.7875
2243.55385	5241.9875
2246.45456	5249.8875
2249.35343	5223.1875
2252.25044	5230.2875
2255.14561	5222.1875
2258.03893	5209.9875
2260.93041	5197.8875
2263.82004	5193.0875
2266.70783	5185.7875
2269.59378	5164.7875
2272.4779	5158.4875
2275.36017	5158.1875
2278.24061	5135.7875
2281.11922	5117.3875
2283.996	5110.9875
2286.87094	5094.0875
2289.74405	5088.4875
2292.61534	5077.7875
2295.4848	5067.5875
2298.35243	5063.6875
2301.21824	5027.3875
2304.08223	5061.7875
2306.94439	5054.9875
2309.80474	5038.5875
2312.66327	5031.5875
2315.51999	5024.5875
2318.37489	5033.1875
2321.22797	5019.2875
2324.07925	4998.4875
2326.92871	4992.8875
2329.77637	5001.6875
2332.62222	4987.1875
2335.46626	4970.4875
2338.3085	4960.1875
2341.14893	4949.9875
2343.98756	4943.0875
2346.8244	4936.0875
2349.65943	4904.0875
2352.49267	4920.2875
2355.32411	4931.9875
2358.15376	4935.0875
2360.98161	4917.2875
2363.80768	4928.2875
2366.63195	4918.2875
2369.45444	4912.5875
2372.27514	4910.5875
2375.09405	4890.2875
2377.91118	4889.9875
2380.72652	4866.8875
2383.54009	4870.8875
2386.35187	4856.6875
2389.16188	4834.3875
2391.97011	4819.3875
2394.77657	4811.4875
2397.58125	4804.9875
2400.38416	4795.7875
2403.18529	4778.8875
2405.98466	4794.2875
2408.78226	4782.4875
2411.57809	4757.5875
2414.37216	4761.9875
2417.16446	4752.3875
2419.955	4732.0875
2422.74378	4745.7875
2425.5308	4734.8875
2428.31606	4730.7875
2431.09956	4724.2875
2433.88131	4717.7875
2436.6613	4713.8875
2439.43954	4697.3875
2442.21603	4704.0875
2444.99077	4696.7875
2447.76377	4692.4875
2450.53501	4680.7875
2453.30451	4682.6875
2456.07226	4671.9875
2458.83827	4666.1875
2461.60254	4656.0875
2464.36507	4649.7875
2467.12586	4643.8875
2469.88492	4635.9875
2472.64224	4644.6875
2475.39782	4649.6875
2478.15167	4638.9875
2480.90379	4642.7875
2483.65417	4623.2875
2486.40283	4623.1875
2489.14976	4613.8875
2491.89497	4620.4875
2494.63845	4626.5875
2497.3802	4615.6875
2500.12024	4599.3875
2502.85855	4598.7875
2505.59514	4599.8875
2508.33002	4603.5875
2511.06318	4570.3875
2513.79462	4569.8875
2516.52435	4551.2875
2519.25237	4555.5875
2521.97867	4534.5875
2524.70327	4545.7875
2527.42616	4513.5875
2530.14734	4514.8875
2532.86681	4502.6875
2535.58458	4490.4875
2538.30065	4478.0875
2541.01501	4477.4875
2543.72768	4475.3875
2546.43864	4475.3875
2549.14791	4442.9875
2551.85548	4451.3875
2554.56136	4430.3875
2557.26554	4449.9875
2559.96803	4421.4875
2562.66883	4405.0875
2565.36794	4418.1875
2568.06536	4405.8875
2570.7611	4390.3875
2573.45514	4383.9875
2576.14751	4383.1875
2578.83819	4355.7875
2581.52719	4354.0875
2584.21451	4365.4875
2586.90015	4350.1875
2589.58411	4333.0875
2592.2664	4358.7875
2594.94701	4340.6875
2597.62594	4328.1875
2600.30321	4333.0875
2602.9788	4377.4875
2605.65273	4322.8875
2608.32498	4303.2875
2610.99557	4288.8875
2613.66449	4255.7875
2616.33175	4247.4875
2618.99734	4247.4875
2621.66128	4239.2875
2624.32355	4245.5875
2626.98416	4225.4875
2629.64311	4232.0875
2632.30041	4225.9875
2634.95605	4209.9875
2637.61004	4198.2875
2640.26238	4197.4875
2642.91306	4189.7875
2645.56209	4188.9875
2648.20948	4177.9875
2650.85521	4176.8875
2653.4993	4175.7875
2656.14175	4180.3875
2658.78255	4182.9875
2661.42171	4180.3875
2664.05923	4175.2875
2666.6951	4160.7875
2669.32934	4161.5875
2671.96194	4157.9875
2674.59291	4170.7875
2677.22224	4146.6875
2679.84993	4161.9875
2682.476	4163.0875
2685.10043	4165.0875
2687.72324	4155.3875
2690.34441	4146.0875
2692.96396	4171.6875
2695.58188	4146.8875
2698.19818	4148.0875
2700.81285	4156.5875
2703.4259	4165.6875
2706.03733	4177.6875
2708.64714	4156.3875
2711.25533	4169.4875
2713.86191	4156.4875
2716.46687	4154.9875
2719.07021	4154.3875
2721.67194	4141.0875
2724.27206	4126.0875
2726.87057	4138.7875
2729.46747	4145.8875
2732.06276	4113.7875
2734.65644	4116.3875
2737.24852	4127.1875
2739.83899	4112.9875
2742.42786	4119.1875
2745.01513	4111.9875
2747.60079	4101.5875
2750.18486	4100.8875
2752.76733	4110.9875
2755.3482	4082.1875
2757.92747	4087.1875
2760.50515	4082.1875
2763.08123	4072.5875
2765.65573	4077.9875
2768.22863	4065.6875
2770.79994	4050.3875
2773.36967	4060.9875
2775.9378	4043.1875
2778.50435	4039.3875
2781.06932	4027.1875
2783.6327	4029.3875
2786.1945	4016.8875
2788.75471	4022.4875
2791.31335	3992.6875
2793.87041	3998.0875
2796.42589	3972.2875
2798.97979	3977.5875
2801.53212	3967.6875
2804.08288	3968.5875
2806.63206	3938.4875
2809.17967	3943.2875
2811.72571	3927.3875
2814.27018	3925.8875
2816.81308	3920.5875
2819.35442	3916.3875
2821.89419	3910.1875
2824.43239	3918.7875
2826.96904	3915.9875
2829.50412	3906.1875
2832.03763	3896.1875
2834.56959	3898.9875
2837.1	3879.4875
2839.62884	3881.8875
2842.15613	3894.5875
2844.68186	3907.9875
2847.20604	3901.0875
2849.72867	3909.1875
2852.24974	3899.3875
2854.76927	3886.1875
2857.28724	3887.0875
2859.80367	3893.2875
2862.31855	3879.9875
2864.83189	3866.2875
2867.34368	3875.8875
2869.85393	3868.0875
2872.36264	3879.2875
2874.8698	3869.1875
2877.37543	3859.6875
2879.87952	3865.9875
2882.38207	3877.6875
2884.88308	3859.4875
2887.38256	3863.6875
2889.88051	3853.3875
2892.37692	3865.8875
2894.8718	3863.4875
2897.36515	3869.8875
2899.85698	3863.3875
2902.34727	3858.0875
2904.83604	3857.5875
2907.32328	3866.0875
2909.809	3855.8875
2912.29319	3863.1875
2914.77587	3863.8875
2917.25702	3868.6875
2919.73665	3855.2875
2922.21476	3862.4875
2924.69136	3853.3875
2927.16644	3850.9875
2929.64	3851.5875
2932.11205	3839.8875
2934.58258	3839.9875
2937.05161	3843.0875
2939.51912	3834.2875
2941.98513	3832.4875
2944.44962	3823.5875
2946.91261	3815.6875
2949.37409	3814.3875
2951.83407	3821.8875
2954.29254	3820.2875
2956.74951	3800.1875
2959.20498	3809.7875
2961.65895	3801.3875
2964.11142	3796.2875
2966.56239	3782.5875
2969.01186	3789.9875
2971.45984	3780.4875
2973.90632	3786.3875
2976.35131	3756.6875
2978.7948	3764.1875
2981.23681	3747.8875
2983.67732	3758.3875
2986.11635	3738.7875
2988.55388	3727.1875
2990.98993	3722.1875
2993.4245	3724.6875
2995.85758	3711.1875
2998.28917	3709.5875
3000.71928	3711.2875
3003.14791	3714.9875
3005.57506	3711.8875
3008.00073	3707.7875
3010.42493	3735.4875
3012.84764	3703.7875
3015.26888	3696.7875
3017.68865	3693.5875
3020.10694	3693.4875
3022.52376	3677.0875
3024.9391	3668.7875
3027.35298	3692.9875
3029.76539	3668.0875
3032.17632	3648.8875
3034.5858	3658.8875
3036.9938	3667.9875
3039.40034	3652.1875
3041.80542	3665.4875
3044.20903	3655.7875
3046.61118	3654.3875
3049.01187	3635.5875
3051.4111	3641.4875
3053.80888	3642.1875
3056.20519	3635.5875
3058.60005	3627.7875
3060.99345	3634.9875
3063.3854	3634.9875
3065.7759	3630.3875
3068.16494	3618.0875
3070.55254	3614.8875
3072.93868	3626.3875
3075.32338	3601.0875
3077.70662	3610.9875
3080.08842	3607.5875
3082.46878	3619.8875
3084.84769	3611.4875
3087.22515	3616.6875
3089.60118	3626.4875
3091.97576	3619.1875
3094.3489	3627.2875
3096.72061	3619.9875
3099.09087	3630.4875
3101.4597	3630.5875
3103.82709	3626.7875
3106.19305	3630.1875
3108.55757	3627.4875
3110.92066	3632.3875
