Data from AgNPs_FTO_APTES_UA_20uM_R6G_10uM_NaF_0.1M_Addition_RamanShift__15__14-12-57-368.txt Node

Date: Fri Dec 17 14:12:57 GMT 2021
User: TCL
Spectrometer: QEP01345
Trigger mode: 4
Integration Time (sec): 7.000000E0
Scans to average: 10
Electric dark correction enabled: true
Nonlinearity correction enabled: false
Boxcar width: 0
XAxis mode: Raman Shifts
Number of Pixels in Spectrum: 1044
>>>>>Begin Spectral Data<<<<<
46.04893	-0.1
50.45542	-0.4
54.85868	-0.1
59.25871	-0.1
63.6555	78.4
68.04907	76.4
72.43941	77.8
76.82654	88.3
81.21044	88.3
85.59113	91.8
89.96862	97.4
94.34289	100
98.71396	103
103.08183	101
107.4465	107.4
111.80798	111.7
116.16626	112.7
120.52136	116.9
124.87327	125.6
129.222	132
133.56755	136.1
137.90993	146.9
142.24913	164.7
146.58517	186.9
150.91804	217.3
155.24774	257.2
159.57429	318.2
163.89768	408.1
168.21792	536.9
172.53501	728
176.84895	1024.2
181.15975	1437.3
185.46741	2027.2
189.77193	2797.6
194.07331	3747.9
198.37157	4836.1
202.6667	5988.3
206.9587	7134.3
211.24758	8260
215.53334	9337.7
219.81599	10543.3
224.09553	11829.1
228.37195	13249.8
232.64527	14827.7
236.91549	16499.3
241.18261	18220.4
245.44663	19807.9
249.70755	21240.3
253.96539	22435.7
258.22014	23491.8
262.4718	24328.8
266.72039	24911.5
270.96589	25245.6
275.20832	25236.8
279.44768	25056.9
283.68397	24735.9
287.91719	24434.3
292.14735	24274.7
296.37445	24222.8
300.59849	24310.7
304.81948	24493.9
309.03742	24529.1
313.25231	24366.4
317.46415	23912.5
321.67296	23312.8
325.87872	22795.3
330.08145	22562.8
334.28114	22563.7
338.47781	22794.9
342.67145	23106.1
346.86207	23524.2
351.04966	24051.7
355.23424	24585.5
359.4158	25142
363.59435	25477
367.76989	25741
371.94243	25890.7
376.11196	26046.2
380.27849	26150.9
384.44203	26240.5
388.60257	26369.1
392.76012	26521.9
396.91468	26744.7
401.06626	27078.3
405.21485	27304.2
409.36047	27221
413.50311	26781.2
417.64277	26364.3
421.77947	26142.7
425.9132	26113.2
430.04396	26216.9
434.17176	26256.6
438.2966	26422.4
442.41849	26749.9
446.53742	27141.1
450.6534	27616
454.76644	28016.8
458.87653	28152.3
462.98368	28182
467.08789	28065.5
471.18916	27810.6
475.2875	27484.1
479.38291	27255.4
483.4754	27030
487.56496	26838.4
491.6516	26646.6
495.73531	26553.2
499.81612	26551.4
503.89401	26741.1
507.96899	26885.4
512.04106	26977.2
516.11023	27084.6
520.1765	27038.2
524.23987	27006.6
528.30034	26759
532.35792	26646.6
536.41261	26430.6
540.46441	26207.8
544.51333	26108.6
548.55936	26252.9
552.60252	26587.9
556.64279	26912.3
560.6802	27172.7
564.71473	27235.1
568.7464	27430.7
572.7752	27713.9
576.80114	27824.6
580.82422	28005.9
584.84444	28273.2
588.86181	28468.5
592.87633	28522.9
596.888	28571.5
600.89682	28772.6
604.9028	29941.5
608.90594	32847.5
612.90624	36051.6
616.90371	34684.6
620.89834	29632.6
624.89015	27251.8
628.87913	26852.5
632.86528	26968.4
636.84862	27107.5
640.82913	26967.1
644.80683	26460.1
648.78172	26066
652.75379	25985.9
656.72306	26301
660.68952	26714.8
664.65319	26655.5
668.61405	26261.8
672.57211	26142.9
676.52738	26185.2
680.47986	26239.3
684.42955	26120.8
688.37646	26035.8
692.32058	26107.9
696.26192	26334
700.20048	26504.9
704.13626	26607.3
708.06928	26550.9
711.99952	26402.9
715.927	26378.9
719.85171	26380.5
723.77365	26344.4
727.69284	26220.9
731.60928	25982.7
735.52295	25917
739.43388	25868.3
743.34206	25957.3
747.24749	25999.2
751.15017	26070.8
755.05012	26342.4
758.94733	26823.2
762.8418	27837.2
766.73354	29606.8
770.62254	31595.5
774.50882	32435
778.39237	31589.6
782.27321	29624.9
786.15132	27895.6
790.02671	26778.1
793.89938	26238.9
797.76935	25992.4
801.6366	25845.9
805.50115	25800.7
809.36299	25687.3
813.22213	25519.2
817.07857	25437.3
820.93231	25374.4
824.78336	25363.1
828.63172	25346.3
832.47738	25316.5
836.32036	25309
840.16066	25285.2
843.99827	25313.7
847.8332	25319.5
851.66546	25277.3
855.49504	25272
859.32195	25304.6
863.1462	25297.6
866.96777	25283
870.78668	25276
874.60293	25307.2
878.41652	25316.9
882.22745	25364.1
886.03573	25424.2
889.84136	25456.7
893.64433	25389.5
897.44466	25272.1
901.24235	25199.5
905.0374	25110.9
908.8298	25004.9
912.61957	25023.6
916.40671	25090.5
920.19121	25193.5
923.97308	25318.1
927.75233	25378.9
931.52895	25421.5
935.30295	25248.8
939.07433	25005.9
942.84309	24723.4
946.60924	24575
950.37278	24521.9
954.13371	24428
957.89203	24368.4
961.64774	24338.3
965.40086	24295.2
969.15137	24221.6
972.89929	24189.7
976.64461	24205.6
980.38733	24185
984.12747	24236.1
987.86502	24379.6
991.59999	24481.6
995.33237	24705.8
999.06217	24991.6
1002.78939	25308.5
1006.51404	25630
1010.23611	25898.7
1013.95561	26049.8
1017.67255	26029.4
1021.38692	25915.2
1025.09872	25684.3
1028.80796	25586.9
1032.51465	25693.3
1036.21877	25884.8
1039.92035	25932.1
1043.61937	25912.5
1047.31584	25813.2
1051.00976	25656.9
1054.70114	25581
1058.38998	25680.4
1062.07627	25770.2
1065.76003	25957
1069.44126	26179.9
1073.11995	26505.6
1076.79611	26800.4
1080.46974	27028.7
1084.14085	27096.5
1087.80943	27280.9
1091.47549	27351.2
1095.13903	27286.4
1098.80005	27015.8
1102.45857	26669.4
1106.11456	26403.4
1109.76805	26321.8
1113.41903	26389.3
1117.06751	26525.5
1120.71348	26720.4
1124.35696	26976.2
1127.99793	27299.1
1131.63641	27418.6
1135.2724	27152.4
1138.90589	26899
1142.5369	26677.7
1146.16542	26510.9
1149.79145	26434.1
1153.415	26400.4
1157.03607	26480.4
1160.65467	26848.6
1164.27079	27461.1
1167.88443	28260.3
1171.49561	29425.9
1175.10432	30990.6
1178.71056	33028.4
1182.31434	35017.9
1185.91565	36139.9
1189.51451	36267.1
1193.11091	35538.4
1196.70485	34349.4
1200.29634	33081.1
1203.88538	32060.1
1207.47197	31079
1211.05612	30241.8
1214.63782	29667.1
1218.21708	29246.3
1221.79391	29007.5
1225.36829	28885.1
1228.94024	28755.6
1232.50976	28616.8
1236.07685	28520.6
1239.6415	28453.6
1243.20374	28486.8
1246.76355	28584.7
1250.32093	28875.7
1253.8759	29241
1257.42845	29750
1260.97859	30339.9
1264.52631	30927.7
1268.07163	31540.9
1271.61453	32179.8
1275.15503	32757.4
1278.69312	33274.8
1282.22882	33556
1285.76211	33876.6
1289.29301	34287.6
1292.82151	34950.4
1296.34761	35752.5
1299.87133	36856.7
1303.39266	38313.4
1306.9116	40243
1310.42815	42264
1313.94233	43403.3
1317.45412	43300.6
1320.96354	42400.5
1324.47058	41424.1
1327.97525	40530.8
1331.47754	39847.4
1334.97747	39584.1
1338.47502	39724.1
1341.97022	40102.8
1345.46305	40501
1348.95352	41043.9
1352.44163	41638.9
1355.92738	42585.9
1359.41078	44357.9
1362.89183	46075.1
1366.37053	45332.1
1369.84688	41690.1
1373.32088	37574.3
1376.79254	34741.1
1380.26186	33294.1
1383.72883	32671.7
1387.19347	32258.2
1390.65578	31720.6
1394.11575	31281.9
1397.57339	31074.3
1401.0287	31189.6
1404.48168	31325.3
1407.93234	31435.2
1411.38068	31389.1
1414.82669	31139.5
1418.27039	30693.7
1421.71177	30178.1
1425.15083	29680.3
1428.58758	29438.2
1432.02203	29492.6
1435.45416	29858.5
1438.88399	30240.1
1442.31151	30492.3
1445.73673	30699.1
1449.15965	30823.4
1452.58027	30899.1
1455.9986	30998
1459.41463	31179.1
1462.82837	31584
1466.23982	32070
1469.64898	32494.1
1473.05586	32803.2
1476.46045	32882.5
1479.86276	32860.6
1483.26279	32851.9
1486.66054	32962.7
1490.05602	33275.6
1493.44922	33818.6
1496.84016	34597.6
1500.22882	35907.9
1503.61521	37846.6
1506.99934	40003.8
1510.38121	41712.2
1513.76081	42005.2
1517.13816	40551.4
1520.51324	38107.3
1523.88607	35890
1527.25665	34310.9
1530.62498	33554.9
1533.99105	33139.5
1537.35488	32777.7
1540.71647	32487.2
1544.07581	32195.1
1547.4329	31898.2
1550.78776	31655.8
1554.14038	31509.2
1557.49077	31477.9
1560.83892	31521.2
1564.18484	31697.7
1567.52853	31948.2
1570.86999	32307.5
1574.20922	32608.7
1577.54624	32722.1
1580.88103	32357.3
1584.2136	31753.2
1587.54395	31530.5
1590.87208	31933.4
1594.19801	32867.9
1597.52172	34263.5
1600.84321	34912.3
1604.16251	34347.2
1607.47959	33136.4
1610.79447	31629
1614.10715	30024.5
1617.41763	28483.3
1620.7259	27325.6
1624.03199	26651.5
1627.33587	26460.3
1630.63757	26760.7
1633.93707	27583.8
1637.23439	29009
1640.52951	31137.8
1643.82246	33710.7
1647.11321	35961.8
1650.40179	36959.4
1653.68819	35739.5
1656.97241	32658.3
1660.25446	29326.5
1663.53433	26816.9
1666.81203	25197.1
1670.08756	24152
1673.36092	23487
1676.63211	23038.8
1679.90115	22745
1683.16801	22450
1686.43272	22271.4
1689.69527	22205
1692.95567	22068.8
1696.2139	21996.7
1699.46999	21923.8
1702.72392	21885
1705.97571	21838.3
1709.22535	21825.3
1712.47284	21798.5
1715.71819	21756.1
1718.96139	21698.8
1722.20246	21646.6
1725.44139	21587.9
1728.67818	21484.5
1731.91284	21405
1735.14537	21301.7
1738.37576	21244
1741.60403	21147.4
1744.83017	21090.7
1748.05418	21072.5
1751.27607	20976.9
1754.49584	20987
1757.71349	20972.1
1760.92903	20931.6
1764.14244	20957.6
1767.35375	20907
1770.56294	20879.1
1773.77002	20859.7
1776.97499	20819.2
1780.17785	20781.9
1783.37861	20720.4
1786.57727	20696.8
1789.77382	20674.7
1792.96828	20626.2
1796.16064	20590.1
1799.3509	20587.1
1802.53907	20531.7
1805.72514	20468
1808.90913	20416.5
1812.09102	20413.2
1815.27083	20396.6
1818.44856	20302.4
1821.6242	20289.1
1824.79776	20278.1
1827.96924	20244.5
1831.13864	20218.6
1834.30597	20231.3
1837.47122	20216.4
1840.6344	20195.5
1843.7955	20216.6
1846.95454	20170.7
1850.11151	20206.9
1853.26642	20170.5
1856.41926	20123.4
1859.57004	20137.5
1862.71876	20095.9
1865.86542	20089.2
1869.01003	20051.8
1872.15258	20027.5
1875.29308	20014.2
1878.43152	19951.5
1881.56792	19945.5
1884.70227	19922.9
1887.83457	19955.1
1890.96482	19908.3
1894.09304	19863.8
1897.21921	19818.9
1900.34335	19831.5
1903.46544	19826.9
1906.58551	19769.5
1909.70353	19730.7
1912.81953	19744.6
1915.93349	19681.1
1919.04543	19666.3
1922.15534	19600.9
1925.26322	19547.6
1928.36908	19516.2
1931.47292	19494.2
1934.57473	19465.8
1937.67453	19386.7
1940.77232	19339
1943.86808	19300.4
1946.96184	19244.3
1950.05358	19200
1953.14331	19130.6
1956.23103	19071.2
1959.31675	19040.4
1962.40046	18994.5
1965.48217	18939.8
1968.56188	18873.4
1971.63959	18797.3
1974.7153	18779.6
1977.78901	18713.4
1980.86073	18667.4
1983.93046	18590.4
1986.99819	18554.2
1990.06394	18483.2
1993.1277	18430.6
1996.18947	18356.7
1999.24925	18324.6
2002.30706	18244.4
2005.36288	18199.6
2008.41672	18160.8
2011.46859	18133.4
2014.51848	18074.3
2017.56639	18024.2
2020.61233	17946.8
2023.6563	17913
2026.6983	17877.9
2029.73833	17847.9
2032.7764	17832.5
2035.8125	17762.6
2038.84664	17734.6
2041.87881	17712.1
2044.90903	17674.9
2047.93729	17619.7
2050.96359	17627.9
2053.98794	17609.1
2057.01034	17565.7
2060.03078	17551.6
2063.04927	17532.3
2066.06582	17559.9
2069.08042	17508.5
2072.09307	17496.8
2075.10378	17460
2078.11255	17448.9
2081.11938	17480
2084.12426	17488.4
2087.12722	17395.1
2090.12824	17453.2
2093.12732	17463.8
2096.12447	17477.2
2099.11969	17431.6
2102.11299	17437.9
2105.10435	17452.7
2108.09379	17497.4
2111.08131	17512.6
2114.0669	17495.3
2117.05057	17482.5
2120.03233	17492.5
2123.01216	17511
2125.99008	17513.6
2128.96609	17541.9
2131.94018	17581
2134.91236	17592.8
2137.88263	17580.1
2140.851	17589.7
2143.81746	17578.2
2146.78201	17623.7
2149.74466	17616.1
2152.7054	17586.8
2155.66425	17594.7
2158.6212	17575.7
2161.57625	17581.8
2164.52941	17572.9
2167.48067	17585.3
2170.43004	17558.7
2173.37752	17573.7
2176.32311	17558.2
2179.26681	17509
2182.20863	17509.6
2185.14856	17525.6
2188.08661	17523.7
2191.02278	17501
2193.95707	17501.6
2196.88948	17527.7
2199.82001	17472.1
2202.74867	17438.9
2205.67545	17461.5
2208.60037	17429.9
2211.52341	17405.8
2214.44458	17405.2
2217.36388	17369.8
2220.28132	17325.1
2223.1969	17246.4
2226.11061	17249.9
2229.02246	17256.2
2231.93245	17223.8
2234.84058	17147
2237.74686	17118.6
2240.65128	17114.1
2243.55385	17072.7
2246.45456	17037.1
2249.35343	17029.6
2252.25044	16990.1
2255.14561	16980.2
2258.03893	17000.2
2260.93041	16954.7
2263.82004	16902.9
2266.70783	16851
2269.59378	16812.3
2272.4779	16791.9
2275.36017	16750.3
2278.24061	16743
2281.11922	16675.3
2283.996	16662.2
2286.87094	16666.8
2289.74405	16577.3
2292.61534	16566.8
2295.4848	16569.4
2298.35243	16544.8
2301.21824	16518.7
2304.08223	16551.9
2306.94439	16532.3
2309.80474	16523
2312.66327	16520.8
2315.51999	16508
2318.37489	16484.7
2321.22797	16424
2324.07925	16426.9
2326.92871	16385.9
2329.77637	16373.9
2332.62222	16352.2
2335.46626	16330.7
2338.3085	16315.4
2341.14893	16312.1
2343.98756	16293.1
2346.8244	16294.3
2349.65943	16262.6
2352.49267	16233.3
2355.32411	16277.6
2358.15376	16245.8
2360.98161	16250.3
2363.80768	16244.5
2366.63195	16231.6
2369.45444	16202
2372.27514	16167.7
2375.09405	16137.1
2377.91118	16119.5
2380.72652	16074.7
2383.54009	16052.1
2386.35187	16015.6
2389.16188	15978
2391.97011	15946.3
2394.77657	15937.3
2397.58125	15892.4
2400.38416	15860.2
2403.18529	15830.5
2405.98466	15821
2408.78226	15770
2411.57809	15779.5
2414.37216	15734.8
2417.16446	15759
2419.955	15677.3
2422.74378	15702.3
2425.5308	15682.3
2428.31606	15649.7
2431.09956	15631.3
2433.88131	15617.2
2436.6613	15650
2439.43954	15625
2442.21603	15623.6
2444.99077	15600.9
2447.76377	15620.4
2450.53501	15545.2
2453.30451	15571.6
2456.07226	15565.3
2458.83827	15537
2461.60254	15480
2464.36507	15523.3
2467.12586	15513.9
2469.88492	15493
2472.64224	15494.1
2475.39782	15478.6
2478.15167	15451.8
2480.90379	15428.3
2483.65417	15419.1
2486.40283	15465.8
2489.14976	15451.6
2491.89497	15438.4
2494.63845	15400.9
2497.3802	15393.1
2500.12024	15409.8
2502.85855	15355.9
2505.59514	15340.6
2508.33002	15334.6
2511.06318	15337
2513.79462	15291.4
2516.52435	15274.3
2519.25237	15268.6
2521.97867	15235.2
2524.70327	15221.2
2527.42616	15188.8
2530.14734	15197.9
2532.86681	15190.4
2535.58458	15152.1
2538.30065	15129.2
2541.01501	15110.8
2543.72768	15095.2
2546.43864	15079.2
2549.14791	15086.9
2551.85548	15049.8
2554.56136	15003.9
2557.26554	14997.6
2559.96803	14983.2
2562.66883	14945.2
2565.36794	14936.6
2568.06536	14923.5
2570.7611	14890.5
2573.45514	14865.4
2576.14751	14872.8
2578.83819	14802.2
2581.52719	14807.9
2584.21451	14795.9
2586.90015	14774.4
2589.58411	14747
2592.2664	14690.1
2594.94701	14703.2
2597.62594	14694.7
2600.30321	14645.8
2602.9788	14635.6
2605.65273	14616.3
2608.32498	14604.4
2610.99557	14584.1
2613.66449	14559.8
2616.33175	14544.7
2618.99734	14531.2
2621.66128	14494.3
2624.32355	14493.9
2626.98416	14469.7
2629.64311	14472.8
2632.30041	14471.2
2634.95605	14416.5
2637.61004	14421.4
2640.26238	14406.6
2642.91306	14382.9
2645.56209	14383.4
2648.20948	14369.7
2650.85521	14371
2653.4993	14365.4
2656.14175	14331.6
2658.78255	14337
2661.42171	14338.6
2664.05923	14381.7
2666.6951	14325.6
2669.32934	14365.2
2671.96194	14329.9
2674.59291	14339.9
2677.22224	14320.1
2679.84993	14351.2
2682.476	14334.2
2685.10043	14306.9
2687.72324	14308.1
2690.34441	14344.5
2692.96396	14268.6
2695.58188	14345.7
2698.19818	14315.6
2700.81285	14296.1
2703.4259	14287.4
2706.03733	14337.1
2708.64714	14313.2
2711.25533	14324
2713.86191	14305.4
2716.46687	14347.5
2719.07021	14315.2
2721.67194	14327.6
2724.27206	14293.7
2726.87057	14313.4
2729.46747	14318.9
2732.06276	14303.6
2734.65644	14311.6
2737.24852	14257.5
2739.83899	14272.7
2742.42786	14262.9
2745.01513	14219.9
2747.60079	14225.7
2750.18486	14203
2752.76733	14220.4
2755.3482	14159.1
2757.92747	14182
2760.50515	14169.8
2763.08123	14126.6
2765.65573	14114.2
2768.22863	14083.4
2770.79994	14096.3
2773.36967	14100.1
2775.9378	14066.9
2778.50435	14030.9
2781.06932	14007.6
2783.6327	14018.2
2786.1945	13990
2788.75471	13993.5
2791.31335	13930.3
2793.87041	13908.3
2796.42589	13861.1
2798.97979	13855.4
2801.53212	13815.3
2804.08288	13804.3
2806.63206	13754.4
2809.17967	13762.4
2811.72571	13727.5
2814.27018	13717.5
2816.81308	13686.8
2819.35442	13668.8
2821.89419	13645.1
2824.43239	13622.4
2826.96904	13651
2829.50412	13622.3
2832.03763	13570.1
2834.56959	13583.7
2837.1	13550.4
2839.62884	13526.6
2842.15613	13524.3
2844.68186	13535.4
2847.20604	13541.9
2849.72867	13529.2
2852.24974	13507.5
2854.76927	13495.2
2857.28724	13450.1
2859.80367	13461.3
2862.31855	13437.5
2864.83189	13415.6
2867.34368	13376.7
2869.85393	13403.5
2872.36264	13402.1
2874.8698	13390.1
2877.37543	13415.5
2879.87952	13403.8
2882.38207	13392.3
2884.88308	13387.9
2887.38256	13390.7
2889.88051	13384.5
2892.37692	13370
2894.8718	13348
2897.36515	13375.3
2899.85698	13349.4
2902.34727	13405
2904.83604	13382.7
2907.32328	13397.1
2909.809	13398.9
2912.29319	13379.5
2914.77587	13397.1
2917.25702	13410.7
2919.73665	13360.6
2922.21476	13374.6
2924.69136	13365.2
2927.16644	13358.1
2929.64	13294.7
2932.11205	13317.7
2934.58258	13265.1
2937.05161	13292.2
2939.51912	13289.2
2941.98513	13277.6
2944.44962	13236.2
2946.91261	13199.8
2949.37409	13232.1
2951.83407	13192.5
2954.29254	13220.9
2956.74951	13201.7
2959.20498	13200.1
2961.65895	13161.9
2964.11142	13152.1
2966.56239	13109.1
2969.01186	13123.3
2971.45984	13095.7
2973.90632	13106.7
2976.35131	13078.3
2978.7948	13043
2981.23681	12972.5
2983.67732	12994.8
2986.11635	12955.4
2988.55388	12933.2
2990.98993	12918
2993.4245	12874.7
2995.85758	12863.3
2998.28917	12821.9
3000.71928	12820.7
3003.14791	12774.7
3005.57506	12788.3
3008.00073	12774
3010.42493	12754.4
3012.84764	12739
3015.26888	12729.9
3017.68865	12711.9
3020.10694	12706.1
3022.52376	12671.3
3024.9391	12645
3027.35298	12614.9
3029.76539	12598.9
3032.17632	12592.4
3034.5858	12578.4
3036.9938	12537.2
3039.40034	12527.7
3041.80542	12507.4
3044.20903	12490.1
3046.61118	12473.1
3049.01187	12418.2
3051.4111	12424.6
3053.80888	12401.3
3056.20519	12384.8
3058.60005	12368.4
3060.99345	12386.8
3063.3854	12362
3065.7759	12332.6
3068.16494	12302.2
3070.55254	12253.7
3072.93868	12235.1
3075.32338	12217.6
3077.70662	12192.9
3080.08842	12172.7
3082.46878	12193.5
3084.84769	12153.7
3087.22515	12128.6
3089.60118	12121.5
3091.97576	12126.6
3094.3489	12109.3
3096.72061	12097.4
3099.09087	12098.1
3101.4597	12090.1
3103.82709	12088.4
3106.19305	12068.5
3108.55757	12084.6
3110.92066	12031.4
3113.28232	11998.7
3115.64255	11999.7
3118.00134	11935
3120.35871	11944.4
3122.71466	11900
3125.06917	11905.3
3127.42226	11884.1
3129.77393	11888.7
3132.12417	11863.2
3134.47299	11881.6
3136.82039	11864.1
3139.16636	11865.1
3141.51092	11843.4
3143.85406	11887.3
3146.19579	11871.7
3148.53609	11872.2
3150.87499	11895.4
3153.21246	11865
3155.54853	11882.6
3157.88318	11887.9
3160.21642	11888.1
3162.54826	11888.5
3164.87868	11850.7
3167.2077	11847.2
3169.5353	11865.1
3171.86151	11841.1
3174.18631	11833.9
3176.5097	11826.8
3178.83169	11787
3181.15228	11805.2
3183.47147	11768.1
3185.78926	11796
3188.10565	11748.1
3190.42065	11762.4
3192.73424	11765.6
3195.04645	11743.4
3197.35725	11726.6
3199.66667	11761.1
3201.97469	11768.9
3204.28132	11745
3206.58656	11766.7
3208.8904	11727.7
3211.19287	11767.7
3213.49394	11750.2
3215.79363	11780.4
3218.09193	11769.8
3220.38884	11745.6
3222.68438	11735.9
3224.97853	11700
3227.2713	11695.7
3229.56269	11691.1
3231.8527	11694.6
3234.14133	11648.6
3236.42858	11626.7
3238.71446	11600.7
3240.99896	11610.1
3243.28209	11601.9
3245.56384	11609.5
3247.84423	11614.5
3250.12324	11599.3
3252.40088	11590.7
3254.67715	11590.5
3256.95205	11534.3
3259.22558	11523
3261.49775	11517.3
3263.76855	11519.8
3266.03799	11462.2
3268.30606	11458.5
3270.57277	11469
3272.83812	11427.6
3275.10211	11413.5
3277.36474	11389.7
3279.62601	11409.1
3281.88593	11373.9
3284.14448	11373.3
3286.40168	11351.7
3288.65753	11352.4
3290.91202	11311.7
3293.16516	11281.8
3295.41695	11261.5
3297.66738	11209.4
3299.91647	11129.8
3302.16421	11071.1
3304.4106	11066.9
3306.65564	10999.2
3308.89933	10955.5
3311.14169	10919.2
3313.38269	10791.2
3315.62236	10729.5
3317.86068	10627.7
3320.09766	10537.6
3322.3333	10456.1
3324.5676	10454
3326.80056	10295.8
3329.03219	10254.7
3331.26248	2.8
3333.49143	0.4
3335.71905	-1.6
