Data from AgNPs_FTO_APTES_UA_0uM_R6G_10uM_NaF_0.1M_Addition_RamanShift__35__10-37-07-121.txt Node

Date: Fri Dec 17 10:37:07 GMT 2021
User: TCL
Spectrometer: QEP01345
Trigger mode: 4
Integration Time (sec): 7.000000E0
Scans to average: 10
Electric dark correction enabled: true
Nonlinearity correction enabled: false
Boxcar width: 0
XAxis mode: Raman Shifts
Number of Pixels in Spectrum: 1044
>>>>>Begin Spectral Data<<<<<
46.04893	-0.075
50.45542	0.125
54.85868	-1.875
59.25871	-0.375
63.6555	86.025
68.04907	86.425
72.43941	92.425
76.82654	97.125
81.21044	99.125
85.59113	103.625
89.96862	108.525
94.34289	110.125
98.71396	114.125
103.08183	118.425
107.4465	121.025
111.80798	121.325
116.16626	128.925
120.52136	129.925
124.87327	140.425
129.222	147.925
133.56755	158.925
137.90993	172.325
142.24913	187.625
146.58517	210.225
150.91804	243.825
155.24774	293.625
159.57429	368.325
163.89768	472.025
168.21792	626.025
172.53501	843.725
176.84895	1172.525
181.15975	1641.025
185.46741	2301.725
189.77193	3173.425
194.07331	4238.125
198.37157	5486.325
202.6667	6768.625
206.9587	8070.025
211.24758	9300.025
215.53334	10572.525
219.81599	11900.025
224.09553	13350.825
228.37195	14988.325
232.64527	16817.125
236.91549	18710.925
241.18261	20634.625
245.44663	22383.525
249.70755	23965.525
253.96539	25269.625
258.22014	26359.725
262.4718	27187.025
266.72039	27717.425
270.96589	27985.425
275.20832	27889.625
279.44768	27620.525
283.68397	27335.725
287.91719	27032.025
292.14735	26841.425
296.37445	26725.525
300.59849	26705.525
304.81948	26858.925
309.03742	26976.425
313.25231	27014.425
317.46415	26896.525
321.67296	26587.725
325.87872	26221.725
330.08145	25967.225
334.28114	25956.425
338.47781	26120.425
342.67145	26416.525
346.86207	26814.425
351.04966	27268.325
355.23424	27690.025
359.4158	28001.225
363.59435	28292.925
367.76989	28444.125
371.94243	28505.425
376.11196	28512.925
380.27849	28518.725
384.44203	28609.925
388.60257	28853.025
392.76012	29216.325
396.91468	29620.725
401.06626	30062.625
405.21485	30396.125
409.36047	30383.125
413.50311	30202.125
417.64277	30202.525
421.77947	30452.425
425.9132	30754.925
430.04396	30919.425
434.17176	30959.025
438.2966	31077.225
442.41849	31369.625
446.53742	32060.525
450.6534	32752.625
454.76644	33155.025
458.87653	33279.325
462.98368	33143.125
467.08789	32777.625
471.18916	32340.725
475.2875	31715.325
479.38291	31284.825
483.4754	30933.625
487.56496	30692.925
491.6516	30527.525
495.73531	30348.125
499.81612	30349.025
503.89401	30532.825
507.96899	30742.025
512.04106	30732.225
516.11023	30644.025
520.1765	30328.725
524.23987	30108.025
528.30034	29886.825
532.35792	29684.525
536.41261	29401.925
540.46441	29118.425
544.51333	29122.425
548.55936	29346.825
552.60252	29823.925
556.64279	30397.225
560.6802	30821.025
564.71473	31114.425
568.7464	31534.525
572.7752	32417.825
576.80114	33655.825
580.82422	35142.925
584.84444	37092.425
588.86181	39416.925
592.87633	41472.425
596.888	41414.925
600.89682	38944.125
604.9028	37273.425
608.90594	38141.225
612.90624	39378.625
616.90371	37104.925
620.89834	32808.725
624.89015	30903.325
628.87913	30819.725
632.86528	31056.625
636.84862	30966.725
640.82913	30323.925
644.80683	29597.325
648.78172	29214.925
652.75379	29192.025
656.72306	29487.525
660.68952	29879.125
664.65319	29741.825
668.61405	29342.625
672.57211	29365.825
676.52738	29496.025
680.47986	29440.025
684.42955	29212.825
688.37646	29098.125
692.32058	29280.925
696.26192	29780.625
700.20048	30231.825
704.13626	30469.625
708.06928	30555.425
711.99952	30474.025
715.927	30434.425
719.85171	30443.225
723.77365	30228.025
727.69284	29736.525
731.60928	29305.225
735.52295	29045.725
739.43388	29015.225
743.34206	29245.625
747.24749	29424.325
751.15017	29800.625
755.05012	30280.925
758.94733	31058.325
762.8418	32347.525
766.73354	34183.825
770.62254	35739.725
774.50882	35635.025
778.39237	34143.725
782.27321	32498.525
786.15132	31130.425
790.02671	30216.425
793.89938	29724.525
797.76935	29488.125
801.6366	29348.525
805.50115	29265.125
809.36299	29148.125
813.22213	28949.925
817.07857	28831.925
820.93231	28770.925
824.78336	28572.025
828.63172	28506.725
832.47738	28438.325
836.32036	28412.125
840.16066	28410.825
843.99827	28442.825
847.8332	28449.125
851.66546	28489.625
855.49504	28642.925
859.32195	28644.525
863.1462	28587.825
866.96777	28527.125
870.78668	28587.325
874.60293	28648.925
878.41652	28669.825
882.22745	28840.025
886.03573	28934.525
889.84136	28973.425
893.64433	28941.125
897.44466	28807.925
901.24235	28808.925
905.0374	28815.025
908.8298	28745.125
912.61957	28847.625
916.40671	29075.025
920.19121	29413.925
923.97308	29804.525
927.75233	29878.825
931.52895	29590.825
935.30295	29067.425
939.07433	28536.025
942.84309	28151.225
946.60924	28018.625
950.37278	27926.025
954.13371	27851.425
957.89203	27810.325
961.64774	27865.025
965.40086	27826.925
969.15137	27803.425
972.89929	27692.825
976.64461	27648.925
980.38733	27569.025
984.12747	27603.625
987.86502	27687.325
991.59999	27811.225
995.33237	27979.725
999.06217	28343.425
1002.78939	28816.025
1006.51404	29455.625
1010.23611	30044.625
1013.95561	30446.125
1017.67255	30517.625
1021.38692	30249.125
1025.09872	29730.225
1028.80796	29209.825
1032.51465	29041.825
1036.21877	29008.425
1039.92035	29105.225
1043.61937	29228.225
1047.31584	29281.625
1051.00976	29345.225
1054.70114	29484.525
1058.38998	29624.225
1062.07627	29909.025
1065.76003	30205.425
1069.44126	30745.025
1073.11995	31337.325
1076.79611	31837.225
1080.46974	32087.525
1084.14085	32280.625
1087.80943	32575.525
1091.47549	32882.525
1095.13903	32964.725
1098.80005	32500.925
1102.45857	31739.325
1106.11456	31045.725
1109.76805	30656.325
1113.41903	30534.825
1117.06751	30624.125
1120.71348	30838.225
1124.35696	31067.525
1127.99793	31358.025
1131.63641	31485.325
1135.2724	31447.325
1138.90589	31463.925
1142.5369	31589.025
1146.16542	31821.225
1149.79145	32136.025
1153.415	32363.325
1157.03607	32637.625
1160.65467	33348.025
1164.27079	34659.925
1167.88443	36207.925
1171.49561	37772.725
1175.10432	39765.425
1178.71056	42113.725
1182.31434	44295.925
1185.91565	45543.925
1189.51451	45512.125
1193.11091	44847.325
1196.70485	43704.325
1200.29634	42315.125
1203.88538	41311.325
1207.47197	40836.225
1211.05612	40557.425
1214.63782	40048.725
1218.21708	39067.725
1221.79391	37955.025
1225.36829	37225.625
1228.94024	36832.625
1232.50976	36592.625
1236.07685	36199.425
1239.6415	35869.525
1243.20374	35728.825
1246.76355	35863.825
1250.32093	36274.725
1253.8759	36968.225
1257.42845	37867.925
1260.97859	39014.325
1264.52631	40131.025
1268.07163	41235.025
1271.61453	42270.125
1275.15503	43339.025
1278.69312	44500.825
1282.22882	45702.125
1285.76211	47243.225
1289.29301	48913.725
1292.82151	50717.425
1296.34761	52901.425
1299.87133	55533.825
1303.39266	58176.525
1306.9116	60520.325
1310.42815	62174.125
1313.94233	62859.425
1317.45412	62200.625
1320.96354	60958.525
1324.47058	60162.425
1327.97525	59981.425
1331.47754	59965.725
1334.97747	59760.825
1338.47502	59321.425
1341.97022	58830.125
1345.46305	58484.825
1348.95352	58006.425
1352.44163	57711.825
1355.92738	58328.625
1359.41078	59872.125
1362.89183	61324.125
1366.37053	60861.525
1369.84688	57407.925
1373.32088	52047.225
1376.79254	47935.825
1380.26186	46267.025
1383.72883	46096.125
1387.19347	45990.825
1390.65578	45531.725
1394.11575	45223.325
1397.57339	45512.525
1401.0287	46229.325
1404.48168	46778.625
1407.93234	46783.225
1411.38068	46075.325
1414.82669	44792.925
1418.27039	43215.625
1421.71177	41756.025
1425.15083	40713.225
1428.58758	40411.625
1432.02203	41017.625
1435.45416	42121.725
1438.88399	43283.725
1442.31151	43895.125
1445.73673	44153.425
1449.15965	44123.625
1452.58027	43980.925
1455.9986	43903.425
1459.41463	44211.525
1462.82837	44849.625
1466.23982	45771.525
1469.64898	46395.025
1473.05586	46793.425
1476.46045	46869.725
1479.86276	46733.425
1483.26279	46456.325
1486.66054	46373.125
1490.05602	46762.625
1493.44922	47337.625
1496.84016	48019.125
1500.22882	48746.425
1503.61521	49614.125
1506.99934	50414.125
1510.38121	50885.725
1513.76081	50737.125
1517.13816	50022.325
1520.51324	49123.225
1523.88607	48738.125
1527.25665	48805.225
1530.62498	48902.625
1533.99105	48708.725
1537.35488	47860.225
1540.71647	46630.925
1544.07581	45305.225
1547.4329	43955.325
1550.78776	42900.625
1554.14038	42199.625
1557.49077	41806.225
1560.83892	41581.625
1564.18484	41498.325
1567.52853	41617.725
1570.86999	41891.325
1574.20922	42472.225
1577.54624	43030.925
1580.88103	43226.425
1584.2136	43615.125
1587.54395	44966.725
1590.87208	47302.325
1594.19801	50016.625
1597.52172	52399.025
1600.84321	52821.525
1604.16251	50483.025
1607.47959	46784.425
1610.79447	43059.125
1614.10715	39690.625
1617.41763	37034.725
1620.7259	35201.225
1624.03199	34339.825
1627.33587	34356.925
1630.63757	35274.525
1633.93707	37388.925
1637.23439	41179.825
1640.52951	46796.325
1643.82246	53470.125
1647.11321	58645.925
1650.40179	58993.125
1653.68819	54102.225
1656.97241	46764.425
1660.25446	40027.025
1663.53433	35274.125
1666.81203	32296.925
1670.08756	30528.825
1673.36092	29374.525
1676.63211	28641.125
1679.90115	28147.225
1683.16801	27712.025
1686.43272	27419.225
1689.69527	27169.325
1692.95567	27017.625
1696.2139	26912.925
1699.46999	26804.225
1702.72392	26728.325
1705.97571	26661.925
1709.22535	26580.025
1712.47284	26643.625
1715.71819	26546.425
1718.96139	26510.025
1722.20246	26376.325
1725.44139	26298.825
1728.67818	26144.625
1731.91284	25998.525
1735.14537	25851.525
1738.37576	25806.125
1741.60403	25707.425
1744.83017	25614.925
1748.05418	25558.825
1751.27607	25540.425
1754.49584	25465.025
1757.71349	25453.325
1760.92903	25413.725
1764.14244	25389.725
1767.35375	25344.225
1770.56294	25326.025
1773.77002	25281.425
1776.97499	25220.425
1780.17785	25224.225
1783.37861	25155.425
1786.57727	25129.025
1789.77382	25101.125
1792.96828	25059.125
1796.16064	25016.625
1799.3509	24995.825
1802.53907	24918.125
1805.72514	24847.025
1808.90913	24760.825
1812.09102	24778.425
1815.27083	24679.825
1818.44856	24643.925
1821.6242	24647.625
1824.79776	24570.125
1827.96924	24596.925
1831.13864	24606.525
1834.30597	24598.925
1837.47122	24583.925
1840.6344	24616.125
1843.7955	24629.025
1846.95454	24545.325
1850.11151	24572.925
1853.26642	24556.625
1856.41926	24582.625
1859.57004	24541.925
1862.71876	24482.825
1865.86542	24478.925
1869.01003	24463.325
1872.15258	24410.425
1875.29308	24395.825
1878.43152	24353.725
1881.56792	24283.725
1884.70227	24272.425
1887.83457	24246.725
1890.96482	24250.625
1894.09304	24202.825
1897.21921	24201.925
1900.34335	24178.325
1903.46544	24119.725
1906.58551	24126.425
1909.70353	24104.025
1912.81953	24014.525
1915.93349	23993.725
1919.04543	23948.325
1922.15534	23840.325
1925.26322	23810.525
1928.36908	23741.525
1931.47292	23703.825
1934.57473	23606.825
1937.67453	23588.225
1940.77232	23505.625
1943.86808	23454.225
1946.96184	23404.425
1950.05358	23361.125
1953.14331	23316.325
1956.23103	23205.425
1959.31675	23187.925
1962.40046	23080.725
1965.48217	23031.725
1968.56188	22990.725
1971.63959	22881.125
1974.7153	22833.825
1977.78901	22752.225
1980.86073	22673.725
1983.93046	22612.325
1986.99819	22471.225
1990.06394	22445.225
1993.1277	22422.225
1996.18947	22326.425
1999.24925	22308.125
2002.30706	22227.525
2005.36288	22166.025
2008.41672	22106.825
2011.46859	22026.025
2014.51848	21948.025
2017.56639	21927.125
2020.61233	21851.925
2023.6563	21842.725
2026.6983	21787.725
2029.73833	21743.725
2032.7764	21689.825
2035.8125	21617.925
2038.84664	21600.825
2041.87881	21634.525
2044.90903	21564.625
2047.93729	21520.225
2050.96359	21503.625
2053.98794	21436.925
2057.01034	21423.125
2060.03078	21408.425
2063.04927	21346.725
2066.06582	21350.525
2069.08042	21344.325
2072.09307	21365.425
2075.10378	21298.525
2078.11255	21281.625
2081.11938	21278.525
2084.12426	21272.425
2087.12722	21263.325
2090.12824	21273.325
2093.12732	21279.725
2096.12447	21290.325
2099.11969	21305.425
2102.11299	21298.325
2105.10435	21320.925
2108.09379	21291.325
2111.08131	21311.625
2114.0669	21355.125
2117.05057	21373.025
2120.03233	21333.825
2123.01216	21372.325
2125.99008	21393.125
2128.96609	21382.725
2131.94018	21447.625
2134.91236	21407.825
2137.88263	21428.025
2140.851	21430.225
2143.81746	21438.825
2146.78201	21438.825
2149.74466	21446.425
2152.7054	21440.725
2155.66425	21406.925
2158.6212	21410.725
2161.57625	21430.925
2164.52941	21400.225
2167.48067	21430.225
2170.43004	21433.225
2173.37752	21398.125
2176.32311	21389.925
2179.26681	21376.425
2182.20863	21388.825
2185.14856	21395.825
2188.08661	21402.025
2191.02278	21401.025
2193.95707	21353.025
2196.88948	21327.825
2199.82001	21293.325
2202.74867	21286.725
2205.67545	21266.525
2208.60037	21253.125
2211.52341	21210.225
2214.44458	21147.225
2217.36388	21131.925
2220.28132	21113.025
2223.1969	21032.425
2226.11061	21038.325
2229.02246	21009.525
2231.93245	20984.125
2234.84058	20941.025
2237.74686	20933.925
2240.65128	20932.225
2243.55385	20917.025
2246.45456	20879.725
2249.35343	20820.725
2252.25044	20766.025
2255.14561	20706.925
2258.03893	20692.625
2260.93041	20653.125
2263.82004	20556.725
2266.70783	20555.125
2269.59378	20491.125
2272.4779	20453.425
2275.36017	20405.625
2278.24061	20416.425
2281.11922	20349.525
2283.996	20369.925
2286.87094	20289.125
2289.74405	20267.225
2292.61534	20227.625
2295.4848	20188.425
2298.35243	20194.125
2301.21824	20185.425
2304.08223	20180.725
2306.94439	20156.125
2309.80474	20175.925
2312.66327	20154.225
2315.51999	20117.025
2318.37489	20121.725
2321.22797	20059.025
2324.07925	20037.025
2326.92871	19992.325
2329.77637	20013.225
2332.62222	19984.825
2335.46626	19935.825
2338.3085	19895.225
2341.14893	19904.125
2343.98756	19918.125
2346.8244	19910.525
2349.65943	19881.825
2352.49267	19861.425
2355.32411	19864.625
2358.15376	19792.525
2360.98161	19837.825
2363.80768	19810.925
2366.63195	19809.125
2369.45444	19767.925
2372.27514	19729.525
2375.09405	19748.225
2377.91118	19714.125
2380.72652	19666.725
2383.54009	19671.225
2386.35187	19613.125
2389.16188	19573.725
2391.97011	19532.725
2394.77657	19524.825
2397.58125	19474.425
2400.38416	19438.425
2403.18529	19392.325
2405.98466	19418.025
2408.78226	19384.325
2411.57809	19315.025
2414.37216	19330.125
2417.16446	19317.125
2419.955	19277.225
2422.74378	19303.425
2425.5308	19274.425
2428.31606	19243.325
2431.09956	19244.425
2433.88131	19218.125
2436.6613	19219.525
2439.43954	19156.025
2442.21603	19170.325
2444.99077	19158.925
2447.76377	19128.125
2450.53501	19132.025
2453.30451	19128.525
2456.07226	19112.625
2458.83827	19105.825
2461.60254	19071.325
2464.36507	19077.825
2467.12586	19078.925
2469.88492	19042.125
2472.64224	19047.025
2475.39782	19007.625
2478.15167	19015.525
2480.90379	18993.125
2483.65417	19010.325
2486.40283	18997.625
2489.14976	18976.025
2491.89497	18950.625
2494.63845	18965.125
2497.3802	18955.325
2500.12024	18932.525
2502.85855	18930.525
2505.59514	18959.925
2508.33002	18932.625
2511.06318	18887.525
2513.79462	18877.125
2516.52435	18869.125
2519.25237	18866.325
2521.97867	18852.025
2524.70327	18855.725
2527.42616	18813.225
2530.14734	18771.725
2532.86681	18763.725
2535.58458	18765.525
2538.30065	18714.025
2541.01501	18727.625
2543.72768	18669.425
2546.43864	18656.125
2549.14791	18643.325
2551.85548	18623.225
2554.56136	18626.525
2557.26554	18610.825
2559.96803	18571.125
2562.66883	18575.925
2565.36794	18543.325
2568.06536	18553.925
2570.7611	18512.725
2573.45514	18488.925
2576.14751	18469.825
2578.83819	18420.725
2581.52719	18444.225
2584.21451	18393.025
2586.90015	18387.025
2589.58411	18373.525
2592.2664	18333.025
2594.94701	18290.725
2597.62594	18279.725
2600.30321	18228.825
2602.9788	18259.425
2605.65273	18214.325
2608.32498	18219.025
2610.99557	18208.325
2613.66449	18179.525
2616.33175	18155.225
2618.99734	18150.725
2621.66128	18115.725
2624.32355	18132.025
2626.98416	18074.625
2629.64311	18082.725
2632.30041	18092.925
2634.95605	18075.025
2637.61004	18033.025
2640.26238	18031.825
2642.91306	18019.025
2645.56209	18015.425
2648.20948	17983.125
2650.85521	17995.525
2653.4993	17995.825
2656.14175	17983.725
2658.78255	18027.125
2661.42171	18006.025
2664.05923	18006.325
2666.6951	17979.925
2669.32934	18009.125
2671.96194	18029.325
2674.59291	18047.025
2677.22224	18039.525
2679.84993	18040.525
2682.476	18002.425
2685.10043	18023.325
2687.72324	18033.325
2690.34441	18023.325
2692.96396	18014.425
2695.58188	18031.725
2698.19818	17981.725
2700.81285	17995.025
2703.4259	18006.625
2706.03733	18018.225
2708.64714	18014.825
2711.25533	17997.725
2713.86191	17992.225
2716.46687	18015.425
2719.07021	18017.725
2721.67194	18016.025
2724.27206	18011.425
2726.87057	18041.325
2729.46747	18044.725
2732.06276	18025.225
2734.65644	18015.325
2737.24852	18025.525
2739.83899	17982.625
2742.42786	18005.125
2745.01513	17976.925
2747.60079	17999.425
2750.18486	17961.725
2752.76733	17973.625
2755.3482	17955.725
2757.92747	17937.625
2760.50515	17929.225
2763.08123	17912.925
2765.65573	17907.125
2768.22863	17881.225
2770.79994	17895.925
2773.36967	17901.425
2775.9378	17864.725
2778.50435	17848.325
2781.06932	17817.925
2783.6327	17791.125
2786.1945	17774.725
2788.75471	17775.225
2791.31335	17698.425
2793.87041	17689.825
2796.42589	17648.225
2798.97979	17619.025
2801.53212	17593.825
2804.08288	17582.525
2806.63206	17495.225
2809.17967	17488.925
2811.72571	17471.025
2814.27018	17430.325
2816.81308	17412.425
2819.35442	17378.925
2821.89419	17384.725
2824.43239	17341.225
2826.96904	17303.325
2829.50412	17262.225
2832.03763	17223.325
2834.56959	17229.725
2837.1	17192.725
2839.62884	17191.625
2842.15613	17181.725
2844.68186	17203.225
2847.20604	17177.725
2849.72867	17197.125
2852.24974	17149.025
2854.76927	17123.125
2857.28724	17119.625
2859.80367	17107.425
2862.31855	17038.125
2864.83189	17068.825
2867.34368	17012.625
2869.85393	17045.125
2872.36264	17001.625
2874.8698	17012.425
2877.37543	17015.425
2879.87952	17023.825
2882.38207	17009.025
2884.88308	16984.125
2887.38256	16992.525
2889.88051	17029.325
2892.37692	17021.125
2894.8718	17011.125
2897.36515	17021.425
2899.85698	16974.825
2902.34727	17016.325
2904.83604	16991.025
2907.32328	17072.225
2909.809	17058.025
2912.29319	17028.225
2914.77587	17001.125
2917.25702	17008.125
2919.73665	16989.125
2922.21476	17017.625
2924.69136	16988.325
2927.16644	16979.525
2929.64	16934.225
2932.11205	16955.125
2934.58258	16890.825
2937.05161	16930.825
2939.51912	16945.325
2941.98513	16873.325
2944.44962	16866.725
2946.91261	16787.925
2949.37409	16854.725
2951.83407	16837.125
2954.29254	16790.725
2956.74951	16784.125
2959.20498	16761.625
2961.65895	16726.425
2964.11142	16744.525
2966.56239	16667.325
2969.01186	16675.525
2971.45984	16631.125
2973.90632	16613.725
2976.35131	16574.125
2978.7948	16536.325
2981.23681	16493.825
2983.67732	16419.025
2986.11635	16398.525
2988.55388	16340.425
2990.98993	16306.125
2993.4245	16268.925
2995.85758	16263.625
2998.28917	16232.025
3000.71928	16213.925
3003.14791	16192.925
3005.57506	16169.125
3008.00073	16090.625
3010.42493	16076.325
3012.84764	16047.825
3015.26888	16028.225
3017.68865	15985.125
3020.10694	15978.725
3022.52376	15923.525
3024.9391	15878.925
3027.35298	15866.625
3029.76539	15809.125
3032.17632	15836.925
3034.5858	15794.625
3036.9938	15791.325
3039.40034	15784.425
3041.80542	15730.225
3044.20903	15732.425
3046.61118	15697.125
3049.01187	15632.425
3051.4111	15631.025
3053.80888	15592.325
3056.20519	15554.325
3058.60005	15501.625
3060.99345	15497.125
3063.3854	15476.525
3065.7759	15376.725
3068.16494	15347.925
3070.55254	15321.225
3072.93868	15297.125
3075.32338	15280.625
3077.70662	15221.825
3080.08842	15225.725
3082.46878	15202.925
3084.84769	15145.625
3087.22515	15129.725
3089.60118	15134.825
3091.97576	15111.925
3094.3489	15104.225
3096.72061	15063.825
3099.09087	15086.425
3101.4597	15023.725
3103.82709	15021.825
3106.19305	14979.225
3108.55757	14988.425
3110.92066	14932.625
3113.28232	14892.225
3115.64255	14858.525
3118.00134	14828.025
3120.35871	14806.125
3122.71466	14792.825
3125.06917	14773.025
3127.42226	14749.725
