Data from AgNPs_FTO_APTES_UA_200uM_R6G_10uM_NaF_0.1M_Addition_RamanShift__1__16-01-27-490.txt Node

Date: Fri Dec 17 16:01:27 GMT 2021
User: TCL
Spectrometer: QEP01345
Trigger mode: 4
Integration Time (sec): 7.000000E0
Scans to average: 10
Electric dark correction enabled: true
Nonlinearity correction enabled: false
Boxcar width: 0
XAxis mode: Raman Shifts
Number of Pixels in Spectrum: 1044
>>>>>Begin Spectral Data<<<<<
46.04893	0.6125
50.45542	-0.3875
54.85868	-1.9875
59.25871	1.4125
63.6555	59.2125
68.04907	63.1125
72.43941	66.2125
76.82654	71.5125
81.21044	72.3125
85.59113	76.2125
89.96862	81.1125
94.34289	83.2125
98.71396	89.7125
103.08183	87.5125
107.4465	88.7125
111.80798	94.1125
116.16626	92.7125
120.52136	93.3125
124.87327	101.8125
129.222	99.5125
133.56755	100.3125
137.90993	106.4125
142.24913	115.6125
146.58517	120.5125
150.91804	136.7125
155.24774	158.7125
159.57429	188.2125
163.89768	232.4125
168.21792	298.8125
172.53501	392.9125
176.84895	543.9125
181.15975	750.1125
185.46741	1052.5125
189.77193	1448.4125
194.07331	1950.4125
198.37157	2512.2125
202.6667	3109.8125
206.9587	3716.0125
211.24758	4314.7125
215.53334	4872.4125
219.81599	5498.4125
224.09553	6199.5125
228.37195	6944.5125
232.64527	7755.5125
236.91549	8682.5125
241.18261	9568.8125
245.44663	10444.9125
249.70755	11141.0125
253.96539	11798.2125
258.22014	12355.6125
262.4718	12780.7125
266.72039	13077.7125
270.96589	13245.5125
275.20832	13290.1125
279.44768	13085.5125
283.68397	12883.1125
287.91719	12640.0125
292.14735	12498.9125
296.37445	12488.2125
300.59849	12545.0125
304.81948	12663.2125
309.03742	12689.5125
313.25231	12567.0125
317.46415	12331.1125
321.67296	11968.9125
325.87872	11691.6125
330.08145	11607.1125
334.28114	11622.7125
338.47781	11745.2125
342.67145	11925.8125
346.86207	12134.6125
351.04966	12448.2125
355.23424	12773.4125
359.4158	13058.2125
363.59435	13280.9125
367.76989	13438.8125
371.94243	13585.2125
376.11196	13665.6125
380.27849	13758.6125
384.44203	13831.3125
388.60257	13864.4125
392.76012	13937.5125
396.91468	14028.8125
401.06626	14244.1125
405.21485	14388.4125
409.36047	14335.2125
413.50311	14066.6125
417.64277	13790.8125
421.77947	13582.2125
425.9132	13498.2125
430.04396	13430.0125
434.17176	13505.2125
438.2966	13543.6125
442.41849	13673.9125
446.53742	13810.5125
450.6534	13957.9125
454.76644	14128.7125
458.87653	14182.6125
462.98368	14210.7125
467.08789	14167.4125
471.18916	14155.9125
475.2875	14074.5125
479.38291	13979.8125
483.4754	13879.0125
487.56496	13831.3125
491.6516	13824.4125
495.73531	13830.1125
499.81612	13799.7125
503.89401	13855.1125
507.96899	13906.5125
512.04106	13924.4125
516.11023	14068.0125
520.1765	14123.7125
524.23987	14121.0125
528.30034	14012.5125
532.35792	13934.3125
536.41261	13870.5125
540.46441	13725.9125
544.51333	13705.9125
548.55936	13742.8125
552.60252	13832.5125
556.64279	13964.0125
560.6802	14033.1125
564.71473	14031.8125
568.7464	14155.4125
572.7752	14199.0125
576.80114	14200.3125
580.82422	14176.8125
584.84444	14255.5125
588.86181	14332.9125
592.87633	14338.1125
596.888	14327.3125
600.89682	14447.0125
604.9028	15133.9125
608.90594	16871.5125
612.90624	19024.5125
616.90371	18602.1125
620.89834	15816.6125
624.89015	14479.7125
628.87913	14261.1125
632.86528	14400.2125
636.84862	14649.6125
640.82913	14595.5125
644.80683	14289.4125
648.78172	14001.0125
652.75379	13895.1125
656.72306	13997.6125
660.68952	14228.0125
664.65319	14231.5125
668.61405	13924.5125
672.57211	13797.8125
676.52738	13784.8125
680.47986	13778.8125
684.42955	13748.7125
688.37646	13678.3125
692.32058	13729.3125
696.26192	13765.2125
700.20048	13831.2125
704.13626	13903.2125
708.06928	13866.4125
711.99952	13833.3125
715.927	13847.2125
719.85171	13840.2125
723.77365	13849.1125
727.69284	13816.0125
731.60928	13778.4125
735.52295	13740.4125
739.43388	13727.7125
743.34206	13759.7125
747.24749	13750.8125
751.15017	13799.1125
755.05012	13851.6125
758.94733	14063.9125
762.8418	14563.5125
766.73354	15489.9125
770.62254	16652.6125
774.50882	17336.2125
778.39237	16999.2125
782.27321	15758.2125
786.15132	14707.4125
790.02671	14094.2125
793.89938	13768.1125
797.76935	13630.2125
801.6366	13593.8125
805.50115	13577.8125
809.36299	13601.6125
813.22213	13587.7125
817.07857	13584.5125
820.93231	13556.1125
824.78336	13537.4125
828.63172	13489.2125
832.47738	13460.9125
836.32036	13480.6125
840.16066	13434.8125
843.99827	13434.0125
847.8332	13425.5125
851.66546	13448.5125
855.49504	13368.0125
859.32195	13387.0125
863.1462	13387.5125
866.96777	13347.5125
870.78668	13369.1125
874.60293	13392.0125
878.41652	13421.4125
882.22745	13460.9125
886.03573	13496.9125
889.84136	13530.3125
893.64433	13501.8125
897.44466	13452.1125
901.24235	13393.8125
905.0374	13319.2125
908.8298	13269.6125
912.61957	13245.0125
916.40671	13252.7125
920.19121	13266.6125
923.97308	13274.4125
927.75233	13327.4125
931.52895	13372.3125
935.30295	13319.0125
939.07433	13199.6125
942.84309	13038.1125
946.60924	12951.6125
950.37278	12882.4125
954.13371	12841.3125
957.89203	12784.6125
961.64774	12773.6125
965.40086	12731.0125
969.15137	12712.9125
972.89929	12681.5125
976.64461	12672.3125
980.38733	12677.8125
984.12747	12682.0125
987.86502	12734.3125
991.59999	12736.2125
995.33237	12806.0125
999.06217	12875.7125
1002.78939	12944.3125
1006.51404	13074.7125
1010.23611	13158.0125
1013.95561	13240.4125
1017.67255	13280.3125
1021.38692	13217.1125
1025.09872	13120.3125
1028.80796	13097.0125
1032.51465	13081.2125
1036.21877	13102.9125
1039.92035	13146.3125
1043.61937	13157.6125
1047.31584	13171.5125
1051.00976	13150.1125
1054.70114	13142.1125
1058.38998	13161.3125
1062.07627	13210.0125
1065.76003	13295.1125
1069.44126	13414.1125
1073.11995	13584.7125
1076.79611	13730.4125
1080.46974	13756.3125
1084.14085	13729.5125
1087.80943	13776.9125
1091.47549	13820.4125
1095.13903	13839.4125
1098.80005	13707.1125
1102.45857	13536.4125
1106.11456	13378.9125
1109.76805	13339.7125
1113.41903	13382.3125
1117.06751	13542.6125
1120.71348	13729.3125
1124.35696	13926.2125
1127.99793	14178.6125
1131.63641	14306.3125
1135.2724	14154.2125
1138.90589	13906.6125
1142.5369	13740.4125
1146.16542	13543.6125
1149.79145	13373.9125
1153.415	13280.4125
1157.03607	13199.4125
1160.65467	13276.6125
1164.27079	13451.0125
1167.88443	13701.2125
1171.49561	14143.4125
1175.10432	14840.2125
1178.71056	15834.1125
1182.31434	16637.1125
1185.91565	16968.7125
1189.51451	16815.4125
1193.11091	16355.7125
1196.70485	15744.3125
1200.29634	15300.1125
1203.88538	14947.3125
1207.47197	14561.0125
1211.05612	14151.8125
1214.63782	13891.3125
1218.21708	13744.7125
1221.79391	13625.5125
1225.36829	13584.2125
1228.94024	13570.1125
1232.50976	13576.7125
1236.07685	13585.1125
1239.6415	13634.2125
1243.20374	13687.0125
1246.76355	13766.8125
1250.32093	13852.7125
1253.8759	13954.2125
1257.42845	14114.6125
1260.97859	14319.2125
1264.52631	14514.5125
1268.07163	14695.9125
1271.61453	14891.0125
1275.15503	15000.2125
1278.69312	15091.0125
1282.22882	15144.1125
1285.76211	15250.7125
1289.29301	15450.2125
1292.82151	15717.7125
1296.34761	15975.7125
1299.87133	16391.8125
1303.39266	16965.6125
1306.9116	17833.9125
1310.42815	18713.1125
1313.94233	19208.2125
1317.45412	19036.2125
1320.96354	18414.9125
1324.47058	17741.5125
1327.97525	17060.7125
1331.47754	16550.5125
1334.97747	16245.1125
1338.47502	16159.8125
1341.97022	16240.2125
1345.46305	16517.4125
1348.95352	17048.2125
1352.44163	17772.4125
1355.92738	18779.0125
1359.41078	20270.5125
1362.89183	21913.6125
1366.37053	22027.8125
1369.84688	20039.9125
1373.32088	17751.8125
1376.79254	16156.6125
1380.26186	15297.3125
1383.72883	14806.1125
1387.19347	14464.1125
1390.65578	14120.0125
1394.11575	13807.4125
1397.57339	13537.9125
1401.0287	13414.9125
1404.48168	13313.5125
1407.93234	13284.3125
1411.38068	13264.0125
1414.82669	13245.0125
1418.27039	13265.8125
1421.71177	13254.5125
1425.15083	13178.3125
1428.58758	13063.4125
1432.02203	13024.0125
1435.45416	13049.7125
1438.88399	13086.7125
1442.31151	13112.0125
1445.73673	13132.6125
1449.15965	13156.1125
1452.58027	13155.1125
1455.9986	13118.3125
1459.41463	13173.0125
1462.82837	13241.9125
1466.23982	13392.8125
1469.64898	13570.8125
1473.05586	13749.0125
1476.46045	13858.1125
1479.86276	14005.9125
1483.26279	14179.2125
1486.66054	14330.1125
1490.05602	14595.7125
1493.44922	14975.7125
1496.84016	15623.7125
1500.22882	16692.8125
1503.61521	18099.4125
1506.99934	19643.2125
1510.38121	20942.4125
1513.76081	21289.1125
1517.13816	20409.5125
1520.51324	18695.8125
1523.88607	17077.6125
1527.25665	15939.6125
1530.62498	15262.4125
1533.99105	14851.5125
1537.35488	14600.0125
1540.71647	14439.6125
1544.07581	14340.3125
1547.4329	14299.9125
1550.78776	14296.9125
1554.14038	14314.4125
1557.49077	14377.0125
1560.83892	14484.5125
1564.18484	14687.0125
1567.52853	14909.0125
1570.86999	15180.1125
1574.20922	15366.4125
1577.54624	15402.1125
1580.88103	15076.2125
1584.2136	14567.4125
1587.54395	14168.6125
1590.87208	14006.4125
1594.19801	14157.2125
1597.52172	14508.1125
1600.84321	14736.6125
1604.16251	14652.1125
1607.47959	14278.9125
1610.79447	13923.8125
1614.10715	13494.7125
1617.41763	13123.5125
1620.7259	12798.0125
1624.03199	12612.6125
1627.33587	12550.5125
1630.63757	12563.2125
1633.93707	12740.7125
1637.23439	13075.3125
1640.52951	13584.5125
1643.82246	14396.1125
1647.11321	15437.4125
1650.40179	16361.4125
1653.68819	16448.3125
1656.97241	15525.4125
1660.25446	14251.3125
1663.53433	13198.6125
1666.81203	12532.3125
1670.08756	12136.7125
1673.36092	11880.5125
1676.63211	11681.8125
1679.90115	11572.3125
1683.16801	11474.6125
1686.43272	11403.0125
1689.69527	11363.3125
1692.95567	11311.1125
1696.2139	11308.0125
1699.46999	11282.7125
1702.72392	11268.7125
1705.97571	11250.1125
1709.22535	11185.4125
1712.47284	11116.1125
1715.71819	11080.0125
1718.96139	11012.5125
1722.20246	10967.8125
1725.44139	10899.7125
1728.67818	10867.7125
1731.91284	10812.3125
1735.14537	10766.8125
1738.37576	10771.8125
1741.60403	10702.8125
1744.83017	10684.3125
1748.05418	10679.8125
1751.27607	10665.5125
1754.49584	10620.9125
1757.71349	10621.1125
1760.92903	10625.0125
1764.14244	10613.6125
1767.35375	10609.7125
1770.56294	10619.6125
1773.77002	10577.7125
1776.97499	10565.4125
1780.17785	10555.7125
1783.37861	10524.3125
1786.57727	10498.2125
1789.77382	10477.2125
1792.96828	10461.4125
1796.16064	10425.5125
1799.3509	10431.8125
1802.53907	10432.8125
1805.72514	10357.4125
1808.90913	10357.5125
1812.09102	10347.2125
1815.27083	10321.1125
1818.44856	10287.3125
1821.6242	10272.4125
1824.79776	10248.1125
1827.96924	10220.2125
1831.13864	10223.5125
1834.30597	10230.2125
1837.47122	10228.1125
1840.6344	10240.0125
1843.7955	10212.8125
1846.95454	10203.1125
1850.11151	10175.9125
1853.26642	10141.9125
1856.41926	10168.1125
1859.57004	10159.0125
1862.71876	10143.8125
1865.86542	10138.4125
1869.01003	10142.0125
1872.15258	10098.7125
1875.29308	10111.0125
1878.43152	10087.3125
1881.56792	10072.5125
1884.70227	10058.7125
1887.83457	10068.5125
1890.96482	10039.2125
1894.09304	10029.0125
1897.21921	10008.7125
1900.34335	10021.7125
1903.46544	9993.4125
1906.58551	10000.0125
1909.70353	9976.0125
1912.81953	9952.2125
1915.93349	9944.5125
1919.04543	9908.2125
1922.15534	9920.6125
1925.26322	9902.8125
1928.36908	9897.8125
1931.47292	9858.3125
1934.57473	9825.8125
1937.67453	9819.7125
1940.77232	9802.1125
1943.86808	9758.4125
1946.96184	9772.2125
1950.05358	9730.2125
1953.14331	9717.6125
1956.23103	9689.3125
1959.31675	9676.1125
1962.40046	9623.8125
1965.48217	9623.0125
1968.56188	9585.8125
1971.63959	9559.3125
1974.7153	9530.1125
1977.78901	9484.0125
1980.86073	9474.6125
1983.93046	9443.4125
1986.99819	9404.5125
1990.06394	9375.9125
1993.1277	9331.0125
1996.18947	9312.2125
1999.24925	9296.7125
2002.30706	9261.9125
2005.36288	9234.2125
2008.41672	9190.1125
2011.46859	9197.5125
2014.51848	9150.7125
2017.56639	9139.4125
2020.61233	9083.0125
2023.6563	9096.5125
2026.6983	9060.6125
2029.73833	9060.0125
2032.7764	9019.2125
2035.8125	8989.0125
2038.84664	8986.4125
2041.87881	8990.3125
2044.90903	8973.0125
2047.93729	8923.9125
2050.96359	8920.1125
2053.98794	8919.7125
2057.01034	8894.1125
2060.03078	8884.2125
2063.04927	8902.0125
2066.06582	8881.2125
2069.08042	8864.3125
2072.09307	8891.5125
2075.10378	8874.0125
2078.11255	8845.8125
2081.11938	8864.4125
2084.12426	8858.3125
2087.12722	8875.8125
2090.12824	8844.9125
2093.12732	8850.3125
2096.12447	8857.9125
2099.11969	8843.4125
2102.11299	8845.2125
2105.10435	8865.0125
2108.09379	8872.2125
2111.08131	8876.2125
2114.0669	8848.9125
2117.05057	8870.6125
2120.03233	8876.7125
2123.01216	8890.6125
2125.99008	8896.4125
2128.96609	8923.0125
2131.94018	8920.8125
2134.91236	8946.4125
2137.88263	8907.9125
2140.851	8927.8125
2143.81746	8935.0125
2146.78201	8935.4125
2149.74466	8951.9125
2152.7054	8895.5125
2155.66425	8926.7125
2158.6212	8923.2125
2161.57625	8913.1125
2164.52941	8928.0125
2167.48067	8925.4125
2170.43004	8932.6125
2173.37752	8930.8125
2176.32311	8889.8125
2179.26681	8909.9125
2182.20863	8888.1125
2185.14856	8886.0125
2188.08661	8915.7125
2191.02278	8899.6125
2193.95707	8888.9125
2196.88948	8881.4125
2199.82001	8877.4125
2202.74867	8859.6125
2205.67545	8862.1125
2208.60037	8848.8125
2211.52341	8845.8125
2214.44458	8810.0125
2217.36388	8790.5125
2220.28132	8764.6125
2223.1969	8765.3125
2226.11061	8762.1125
2229.02246	8733.3125
2231.93245	8722.1125
2234.84058	8686.1125
2237.74686	8684.5125
2240.65128	8695.9125
2243.55385	8676.7125
2246.45456	8674.0125
2249.35343	8651.2125
2252.25044	8640.1125
2255.14561	8598.3125
2258.03893	8616.6125
2260.93041	8600.4125
2263.82004	8582.7125
2266.70783	8575.7125
2269.59378	8539.7125
2272.4779	8532.5125
2275.36017	8516.3125
2278.24061	8496.4125
2281.11922	8483.4125
2283.996	8465.2125
2286.87094	8452.3125
2289.74405	8435.4125
2292.61534	8425.2125
2295.4848	8426.0125
2298.35243	8437.9125
2301.21824	8393.6125
2304.08223	8408.8125
2306.94439	8416.4125
2309.80474	8386.9125
2312.66327	8380.7125
2315.51999	8340.8125
2318.37489	8371.3125
2321.22797	8364.1125
2324.07925	8336.3125
2326.92871	8323.3125
2329.77637	8331.1125
2332.62222	8300.5125
2335.46626	8293.5125
2338.3085	8265.0125
2341.14893	8263.0125
2343.98756	8237.8125
2346.8244	8236.0125
2349.65943	8249.1125
2352.49267	8229.4125
2355.32411	8226.7125
2358.15376	8254.7125
2360.98161	8239.9125
2363.80768	8234.7125
2366.63195	8244.2125
2369.45444	8223.3125
2372.27514	8211.0125
2375.09405	8173.6125
2377.91118	8179.4125
2380.72652	8153.8125
2383.54009	8155.6125
2386.35187	8128.6125
2389.16188	8125.8125
2391.97011	8075.7125
2394.77657	8066.7125
2397.58125	8067.1125
2400.38416	8037.5125
2403.18529	8034.0125
2405.98466	8043.4125
2408.78226	8006.5125
2411.57809	7967.5125
2414.37216	7971.1125
2417.16446	7994.3125
2419.955	7968.0125
2422.74378	7971.0125
2425.5308	7963.7125
2428.31606	7938.0125
2431.09956	7926.5125
2433.88131	7926.3125
2436.6613	7916.5125
2439.43954	7927.5125
2442.21603	7893.5125
2444.99077	7915.3125
2447.76377	7925.0125
2450.53501	7900.0125
2453.30451	7911.4125
2456.07226	7901.7125
2458.83827	7877.8125
2461.60254	7892.6125
2464.36507	7862.1125
2467.12586	7848.4125
2469.88492	7834.4125
2472.64224	7841.4125
2475.39782	7851.0125
2478.15167	7834.8125
2480.90379	7830.6125
2483.65417	7809.6125
2486.40283	7814.5125
2489.14976	7822.7125
2491.89497	7809.7125
2494.63845	7822.5125
2497.3802	7805.1125
2500.12024	7785.9125
2502.85855	7795.8125
2505.59514	7787.4125
2508.33002	7777.1125
2511.06318	7770.4125
2513.79462	7743.9125
2516.52435	7715.8125
2519.25237	7716.0125
2521.97867	7692.6125
2524.70327	7682.9125
2527.42616	7661.7125
2530.14734	7661.9125
2532.86681	7628.1125
2535.58458	7627.5125
2538.30065	7630.3125
2541.01501	7621.2125
2543.72768	7595.4125
2546.43864	7614.0125
2549.14791	7578.1125
2551.85548	7553.3125
2554.56136	7558.2125
2557.26554	7562.4125
2559.96803	7541.1125
2562.66883	7528.0125
2565.36794	7513.1125
2568.06536	7524.1125
2570.7611	7514.7125
2573.45514	7489.9125
2576.14751	7464.4125
2578.83819	7472.5125
2581.52719	7458.7125
2584.21451	7437.5125
2586.90015	7441.6125
2589.58411	7431.4125
2592.2664	7380.6125
2594.94701	7358.9125
2597.62594	7377.6125
2600.30321	7342.4125
2602.9788	7342.1125
2605.65273	7312.6125
2608.32498	7293.5125
2610.99557	7311.2125
2613.66449	7315.3125
2616.33175	7271.5125
2618.99734	7278.0125
2621.66128	7256.9125
2624.32355	7242.4125
2626.98416	7242.2125
2629.64311	7238.3125
2632.30041	7229.7125
2634.95605	7226.1125
2637.61004	7210.6125
2640.26238	7190.7125
2642.91306	7207.7125
2645.56209	7174.8125
2648.20948	7175.8125
2650.85521	7166.0125
2653.4993	7176.7125
2656.14175	7154.6125
2658.78255	7170.8125
2661.42171	7167.1125
2664.05923	7180.9125
2666.6951	7180.1125
2669.32934	7161.3125
2671.96194	7148.6125
2674.59291	7156.3125
2677.22224	7170.2125
2679.84993	7167.2125
2682.476	7155.0125
2685.10043	7144.2125
2687.72324	7148.8125
2690.34441	7150.2125
2692.96396	7147.7125
2695.58188	7171.8125
2698.19818	7125.7125
2700.81285	7165.1125
2703.4259	7156.7125
2706.03733	7149.1125
2708.64714	7142.8125
2711.25533	7126.6125
2713.86191	7132.9125
2716.46687	7164.7125
2719.07021	7157.3125
2721.67194	7144.2125
2724.27206	7124.6125
2726.87057	7147.7125
2729.46747	7145.0125
2732.06276	7129.7125
2734.65644	7112.7125
2737.24852	7120.6125
2739.83899	7097.9125
2742.42786	7101.8125
2745.01513	7087.5125
2747.60079	7082.5125
2750.18486	7074.2125
2752.76733	7079.3125
2755.3482	7063.0125
2757.92747	7079.5125
2760.50515	7047.6125
2763.08123	7044.8125
2765.65573	7037.2125
2768.22863	7011.5125
2770.79994	6995.6125
2773.36967	7012.0125
2775.9378	7013.0125
2778.50435	6986.1125
2781.06932	6973.0125
2783.6327	6974.4125
2786.1945	6949.1125
2788.75471	6929.0125
2791.31335	6924.8125
2793.87041	6906.5125
2796.42589	6890.9125
2798.97979	6866.2125
2801.53212	6875.6125
2804.08288	6862.9125
2806.63206	6853.4125
2809.17967	6831.4125
2811.72571	6806.2125
2814.27018	6829.9125
2816.81308	6801.5125
2819.35442	6784.5125
2821.89419	6783.4125
2824.43239	6772.5125
2826.96904	6764.6125
2829.50412	6764.3125
2832.03763	6756.1125
2834.56959	6772.7125
2837.1	6774.0125
2839.62884	6761.8125
2842.15613	6751.1125
2844.68186	6758.4125
2847.20604	6750.8125
2849.72867	6753.5125
2852.24974	6762.5125
2854.76927	6746.0125
2857.28724	6738.5125
2859.80367	6735.4125
2862.31855	6713.0125
2864.83189	6710.7125
2867.34368	6712.1125
2869.85393	6719.3125
2872.36264	6712.5125
2874.8698	6716.1125
2877.37543	6723.4125
2879.87952	6716.5125
2882.38207	6729.7125
2884.88308	6703.5125
2887.38256	6720.8125
2889.88051	6707.5125
2892.37692	6693.5125
2894.8718	6708.7125
2897.36515	6683.6125
2899.85698	6684.2125
2902.34727	6690.2125
2904.83604	6700.4125
2907.32328	6696.0125
2909.809	6679.6125
2912.29319	6692.7125
2914.77587	6706.4125
2917.25702	6699.0125
2919.73665	6676.1125
2922.21476	6695.9125
2924.69136	6671.1125
2927.16644	6691.4125
2929.64	6657.2125
2932.11205	6660.2125
2934.58258	6646.1125
2937.05161	6647.6125
2939.51912	6660.1125
2941.98513	6662.1125
2944.44962	6627.1125
2946.91261	6613.6125
2949.37409	6632.1125
2951.83407	6617.5125
2954.29254	6628.8125
2956.74951	6610.6125
2959.20498	6604.0125
2961.65895	6603.9125
2964.11142	6586.9125
2966.56239	6581.2125
2969.01186	6576.6125
2971.45984	6579.1125
2973.90632	6567.8125
2976.35131	6564.9125
2978.7948	6534.4125
2981.23681	6514.2125
2983.67732	6511.3125
2986.11635	6496.5125
2988.55388	6499.0125
2990.98993	6481.2125
2993.4245	6476.1125
2995.85758	6462.7125
2998.28917	6451.4125
3000.71928	6444.9125
3003.14791	6432.9125
3005.57506	6440.3125
3008.00073	6428.8125
3010.42493	6425.4125
3012.84764	6409.7125
3015.26888	6413.2125
3017.68865	6384.5125
3020.10694	6401.7125
3022.52376	6374.6125
3024.9391	6371.5125
3027.35298	6354.3125
3029.76539	6361.3125
3032.17632	6339.9125
3034.5858	6333.3125
3036.9938	6320.0125
3039.40034	6300.9125
3041.80542	6307.5125
3044.20903	6308.9125
3046.61118	6302.5125
3049.01187	6286.2125
3051.4111	6284.2125
3053.80888	6271.1125
3056.20519	6274.2125
3058.60005	6253.8125
3060.99345	6263.3125
3063.3854	6236.8125
3065.7759	6236.2125
3068.16494	6222.5125
3070.55254	6200.2125
3072.93868	6217.3125
