Data from AgNPs_FTO_APTES_UA_10uM_R6G_10uM_NaF_0.1M_Addition_RamanShift__36__13-51-57-344.txt Node

Date: Fri Dec 17 13:51:57 GMT 2021
User: TCL
Spectrometer: QEP01345
Trigger mode: 4
Integration Time (sec): 7.000000E0
Scans to average: 10
Electric dark correction enabled: true
Nonlinearity correction enabled: false
Boxcar width: 0
XAxis mode: Raman Shifts
Number of Pixels in Spectrum: 1044
>>>>>Begin Spectral Data<<<<<
46.04893	-0.55
50.45542	-0.25
54.85868	-2.35
59.25871	-1.95
63.6555	135.05
68.04907	137.45
72.43941	140.95
76.82654	147.35
81.21044	148.35
85.59113	155.85
89.96862	164.75
94.34289	167.65
98.71396	169.05
103.08183	173.55
107.4465	180.35
111.80798	184.05
116.16626	195.75
120.52136	200.15
124.87327	215.35
129.222	226.05
133.56755	243.55
137.90993	265.85
142.24913	294.15
146.58517	332.05
150.91804	384.15
155.24774	461.15
159.57429	583.35
163.89768	758.25
168.21792	1007.75
172.53501	1376.45
176.84895	1919.85
181.15975	2709.85
185.46741	3802.45
189.77193	5260.05
194.07331	7064.55
198.37157	9127.65
202.6667	11289.35
206.9587	13445.75
211.24758	15536.85
215.53334	17610.85
219.81599	19823.55
224.09553	22200.35
228.37195	24869.05
232.64527	27767.25
236.91549	30893.75
241.18261	34114.25
245.44663	37193.05
249.70755	39991.15
253.96539	42468.05
258.22014	44466.85
262.4718	46116.65
266.72039	47289.75
270.96589	47784.65
275.20832	47888.15
279.44768	47522.85
283.68397	46942.65
287.91719	46390.55
292.14735	45972.65
296.37445	45727.75
300.59849	45641.55
304.81948	45611.95
309.03742	45531.95
313.25231	45348.15
317.46415	44954.95
321.67296	44421.05
325.87872	43975.95
330.08145	43847.25
334.28114	44005.25
338.47781	44324.05
342.67145	44831.95
346.86207	45476.45
351.04966	46324.05
355.23424	47147.85
359.4158	47891.25
363.59435	48634.05
367.76989	49214.15
371.94243	49641.85
376.11196	49912.05
380.27849	50253.45
384.44203	50573.55
388.60257	51084.05
392.76012	51493.15
396.91468	52055.85
401.06626	52702.65
405.21485	53232.75
409.36047	53334.75
413.50311	53186.65
417.64277	53157.05
421.77947	53378.85
425.9132	53683.35
430.04396	53941.65
434.17176	54113.95
438.2966	54349.65
442.41849	54868.25
446.53742	55881.85
450.6534	57069.65
454.76644	57944.55
458.87653	58344.75
462.98368	58112.15
467.08789	57401.85
471.18916	56632.85
475.2875	55649.15
479.38291	54773.05
483.4754	54240.65
487.56496	53806.55
491.6516	53622.55
495.73531	53529.95
499.81612	53784.65
503.89401	54365.75
507.96899	54664.95
512.04106	54705.85
516.11023	54513.85
520.1765	54171.05
524.23987	53764.45
528.30034	53434.75
532.35792	53051.05
536.41261	52593.35
540.46441	52208.55
544.51333	52142.85
548.55936	52350.95
552.60252	52851.85
556.64279	53618.45
560.6802	54184.55
564.71473	54494.65
568.7464	54986.95
572.7752	55937.45
576.80114	56983.65
580.82422	58554.25
584.84444	60761.95
588.86181	63124.65
592.87633	64645.55
596.888	64148.75
600.89682	62316.15
604.9028	62273.45
608.90594	65106.55
612.90624	68015.55
616.90371	65021.65
620.89834	58223.65
624.89015	55215.35
628.87913	54624.85
632.86528	54685.75
636.84862	54528.45
640.82913	53887.05
644.80683	53010.45
648.78172	52487.15
652.75379	52551.95
656.72306	53126.55
660.68952	53731.05
664.65319	53599.65
668.61405	53038.65
672.57211	53210.25
676.52738	53554.95
680.47986	53447.05
684.42955	53143.25
688.37646	53039.95
692.32058	53397.85
696.26192	54152.25
700.20048	54801.25
704.13626	55039.95
708.06928	54786.75
711.99952	54349.45
715.927	54394.25
719.85171	54716.75
723.77365	54586.15
727.69284	53979.45
731.60928	53319.35
735.52295	52916.45
739.43388	52897.95
743.34206	53014.55
747.24749	53382.55
751.15017	53619.25
755.05012	54137.05
758.94733	55070.15
762.8418	56539.05
766.73354	58573.95
770.62254	60554.65
774.50882	61155.15
778.39237	59951.85
782.27321	57758.95
786.15132	55760.05
790.02671	54472.05
793.89938	53881.55
797.76935	53709.25
801.6366	53608.95
805.50115	53563.15
809.36299	53382.55
813.22213	53036.15
817.07857	52661.65
820.93231	52446.35
824.78336	52302.85
828.63172	52334.55
832.47738	52308.25
836.32036	52320.05
840.16066	52392.55
843.99827	52422.05
847.8332	52448.85
851.66546	52434.55
855.49504	52476.55
859.32195	52544.85
863.1462	52534.45
866.96777	52461.75
870.78668	52465.75
874.60293	52508.75
878.41652	52609.15
882.22745	52754.25
886.03573	52941.65
889.84136	52958.15
893.64433	52749.45
897.44466	52425.15
901.24235	52228.65
905.0374	52152.55
908.8298	52069.45
912.61957	52117.05
916.40671	52329.15
920.19121	52673.85
923.97308	53079.25
927.75233	53355.35
931.52895	53195.55
935.30295	52717.45
939.07433	52201.75
942.84309	51864.95
946.60924	51746.55
950.37278	51770.25
954.13371	51760.45
957.89203	51650.65
961.64774	51577.75
965.40086	51495.75
969.15137	51511.05
972.89929	51536.65
976.64461	51668.15
980.38733	51779.25
984.12747	51944.25
987.86502	52145.75
991.59999	52481.75
995.33237	52975.95
999.06217	53806.35
1002.78939	54903.05
1006.51404	55887.55
1010.23611	56761.55
1013.95561	57166.85
1017.67255	57045.85
1021.38692	56479.85
1025.09872	55914.15
1028.80796	55660.15
1032.51465	56075.35
1036.21877	56720.85
1039.92035	56940.55
1043.61937	56725.05
1047.31584	56205.75
1051.00976	55572.85
1054.70114	55306.75
1058.38998	55333.05
1062.07627	55563.45
1065.76003	55972.95
1069.44126	56473.35
1073.11995	57160.85
1076.79611	57917.15
1080.46974	58288.35
1084.14085	58635.35
1087.80943	58933.85
1091.47549	59118.35
1095.13903	58994.85
1098.80005	58395.75
1102.45857	57597.75
1106.11456	56987.85
1109.76805	56741.15
1113.41903	56547.65
1117.06751	56583.25
1120.71348	56667.35
1124.35696	56949.05
1127.99793	57221.05
1131.63641	57466.85
1135.2724	57351.35
1138.90589	57323.95
1142.5369	57358.95
1146.16542	57575.05
1149.79145	57688.15
1153.415	57945.35
1157.03607	58245.95
1160.65467	59312.15
1164.27079	61104.95
1167.88443	63121.85
1171.49561	65240.55
1175.10432	67661.95
1178.71056	70906.55
1182.31434	74351.45
1185.91565	76457.45
1189.51451	76844.75
1193.11091	75835.45
1196.70485	74112.85
1200.29634	72315.25
1203.88538	71066.35
1207.47197	70414.05
1211.05612	69871.95
1214.63782	68823.75
1218.21708	67494.45
1221.79391	66275.65
1225.36829	65340.15
1228.94024	64732.25
1232.50976	64166.15
1236.07685	63613.85
1239.6415	63248.75
1243.20374	63331.45
1246.76355	63826.15
1250.32093	64697.15
1253.8759	65852.55
1257.42845	67190.45
1260.97859	68696.15
1264.52631	70348.35
1268.07163	72214.45
1271.61453	74081.95
1275.15503	75695.65
1278.69312	77043.25
1282.22882	78032.05
1285.76211	79067.95
1289.29301	80424.95
1292.82151	82278.25
1296.34761	84722.45
1299.87133	88147.25
1303.39266	92031.15
1306.9116	95921.25
1310.42815	98902.25
1313.94233	100200.15
1317.45412	99608.45
1320.96354	97938.05
1324.47058	96749.75
1327.97525	96042.85
1331.47754	96126.95
1334.97747	96443.85
1338.47502	96323.25
1341.97022	95498.75
1345.46305	93906.75
1348.95352	92391.05
1352.44163	91797.35
1355.92738	92905.15
1359.41078	95541.85
1362.89183	97484.15
1366.37053	96239.35
1369.84688	90828.15
1373.32088	83672.35
1376.79254	78436.35
1380.26186	76295.75
1383.72883	76087.45
1387.19347	76004.65
1390.65578	75261.45
1394.11575	74666.25
1397.57339	74944.85
1401.0287	75947.65
1404.48168	77183.55
1407.93234	78025.75
1411.38068	78116.85
1414.82669	77086.35
1418.27039	75182.65
1421.71177	73088.95
1425.15083	71546.15
1428.58758	71185.35
1432.02203	72039.95
1435.45416	73692.55
1438.88399	75535.95
1442.31151	76653.65
1445.73673	76809.65
1449.15965	76474.85
1452.58027	76010.85
1455.9986	75439.55
1459.41463	75675.25
1462.82837	76779.05
1466.23982	78230.75
1469.64898	79407.35
1473.05586	80142.55
1476.46045	80305.05
1479.86276	79875.45
1483.26279	79219.55
1486.66054	78962.55
1490.05602	79212.95
1493.44922	79372.95
1496.84016	79373.95
1500.22882	79568.75
1503.61521	80289.85
1506.99934	81225.75
1510.38121	81905.85
1513.76081	81710.55
1517.13816	80420.55
1520.51324	78416.65
1523.88607	76896.35
1527.25665	76312.85
1530.62498	76319.45
1533.99105	76349.95
1537.35488	75960.95
1540.71647	75163.75
1544.07581	74142.85
1547.4329	73087.55
1550.78776	72261.25
1554.14038	71491.25
1557.49077	70939.75
1560.83892	70519.65
1564.18484	70293.65
1567.52853	70155.75
1570.86999	70402.95
1574.20922	71075.15
1577.54624	71843.15
1580.88103	72470.95
1584.2136	73370.15
1587.54395	75557.05
1590.87208	79340.15
1594.19801	83906.45
1597.52172	88145.05
1600.84321	89288.25
1604.16251	86216.55
1607.47959	80470.05
1610.79447	74404.85
1614.10715	69126.05
1617.41763	64990.45
1620.7259	62386.65
1624.03199	61149.25
1627.33587	61264.65
1630.63757	62650.15
1633.93707	65545.25
1637.23439	70370.45
1640.52951	77268.35
1643.82246	84829.05
1647.11321	89864.85
1650.40179	89325.85
1653.68819	82783.35
1656.97241	73567.35
1660.25446	65417.65
1663.53433	59824.95
1666.81203	56500.15
1670.08756	54392.75
1673.36092	53013.85
1676.63211	52078.85
1679.90115	51454.35
1683.16801	50946.85
1686.43272	50578.35
1689.69527	50342.95
1692.95567	50056.65
1696.2139	49942.55
1699.46999	49809.15
1702.72392	49724.85
1705.97571	49708.25
1709.22535	49657.95
1712.47284	49605.55
1715.71819	49633.05
1718.96139	49476.65
1722.20246	49392.75
1725.44139	49217.05
1728.67818	49051.05
1731.91284	48846.15
1735.14537	48647.35
1738.37576	48524.15
1741.60403	48312.55
1744.83017	48161.55
1748.05418	48147.35
1751.27607	48071.85
1754.49584	47976.45
1757.71349	47965.85
1760.92903	47943.45
1764.14244	47867.05
1767.35375	47941.25
1770.56294	47882.35
1773.77002	47831.35
1776.97499	47791.25
1780.17785	47661.75
1783.37861	47628.05
1786.57727	47618.05
1789.77382	47541.95
1792.96828	47485.75
1796.16064	47407.15
1799.3509	47337.95
1802.53907	47291.45
1805.72514	47139.95
1808.90913	47066.45
1812.09102	47098.25
1815.27083	46951.95
1818.44856	46854.25
1821.6242	46801.45
1824.79776	46805.35
1827.96924	46850.85
1831.13864	46779.45
1834.30597	46799.85
1837.47122	46794.65
1840.6344	46782.75
1843.7955	46823.05
1846.95454	46817.05
1850.11151	46731.15
1853.26642	46634.55
1856.41926	46702.05
1859.57004	46691.65
1862.71876	46649.35
1865.86542	46575.25
1869.01003	46491.75
1872.15258	46477.65
1875.29308	46480.45
1878.43152	46429.75
1881.56792	46406.55
1884.70227	46401.85
1887.83457	46348.55
1890.96482	46330.65
1894.09304	46235.65
1897.21921	46206.15
1900.34335	46168.55
1903.46544	46104.65
1906.58551	46056.35
1909.70353	45983.75
1912.81953	45912.65
1915.93349	45826.95
1919.04543	45786.55
1922.15534	45704.25
1925.26322	45618.95
1928.36908	45548.55
1931.47292	45480.65
1934.57473	45370.55
1937.67453	45226.95
1940.77232	45184.35
1943.86808	45095.15
1946.96184	45007.85
1950.05358	44871.35
1953.14331	44730.25
1956.23103	44600.75
1959.31675	44560.35
1962.40046	44403.15
1965.48217	44277.95
1968.56188	44185.35
1971.63959	44038.75
1974.7153	43926.35
1977.78901	43788.65
1980.86073	43691.95
1983.93046	43584.05
1986.99819	43464.45
1990.06394	43370.45
1993.1277	43219.05
1996.18947	43130.15
1999.24925	43018.85
2002.30706	42904.95
2005.36288	42786.55
2008.41672	42686.35
2011.46859	42579.15
2014.51848	42506.45
2017.56639	42394.15
2020.61233	42312.15
2023.6563	42227.65
2026.6983	42158.75
2029.73833	42037.05
2032.7764	42013.35
2035.8125	41880.05
2038.84664	41855.05
2041.87881	41800.75
2044.90903	41749.85
2047.93729	41625.05
2050.96359	41590.85
2053.98794	41549.65
2057.01034	41512.65
2060.03078	41505.75
2063.04927	41457.75
2066.06582	41442.15
2069.08042	41418.55
2072.09307	41395.85
2075.10378	41367.55
2078.11255	41361.35
2081.11938	41366.75
2084.12426	41300.75
2087.12722	41283.25
2090.12824	41284.45
2093.12732	41321.55
2096.12447	41344.95
2099.11969	41337.45
2102.11299	41293.25
2105.10435	41358.65
2108.09379	41386.45
2111.08131	41418.45
2114.0669	41476.15
2117.05057	41517.85
2120.03233	41519.55
2123.01216	41609.05
2125.99008	41609.85
2128.96609	41648.95
2131.94018	41719.25
2134.91236	41677.75
2137.88263	41709.05
2140.851	41739.15
2143.81746	41854.05
2146.78201	41847.25
2149.74466	41861.65
2152.7054	41827.95
2155.66425	41815.45
2158.6212	41816.95
2161.57625	41875.65
2164.52941	41885.45
2167.48067	41849.25
2170.43004	41812.75
2173.37752	41820.15
2176.32311	41825.95
2179.26681	41846.25
2182.20863	41797.35
2185.14856	41837.95
2188.08661	41822.65
2191.02278	41779.25
2193.95707	41737.65
2196.88948	41792.45
2199.82001	41803.05
2202.74867	41721.05
2205.67545	41755.05
2208.60037	41682.65
2211.52341	41603.15
2214.44458	41596.15
2217.36388	41508.05
2220.28132	41535.35
2223.1969	41380.35
2226.11061	41307.55
2229.02246	41286.75
2231.93245	41229.05
2234.84058	41120.65
2237.74686	41107.15
2240.65128	41074.85
2243.55385	41025.55
2246.45456	40939.85
2249.35343	40916.15
2252.25044	40870.25
2255.14561	40752.35
2258.03893	40742.15
2260.93041	40660.85
2263.82004	40577.05
2266.70783	40462.15
2269.59378	40413.55
2272.4779	40368.65
2275.36017	40277.05
2278.24061	40224.35
2281.11922	40101.95
2283.996	40040.95
2286.87094	39971.05
2289.74405	39912.75
2292.61534	39926.35
2295.4848	39913.75
2298.35243	39887.85
2301.21824	39917.55
2304.08223	39900.05
2306.94439	39892.65
2309.80474	39912.15
2312.66327	39914.95
2315.51999	39843.85
2318.37489	39840.95
2321.22797	39788.15
2324.07925	39755.85
2326.92871	39728.25
2329.77637	39610.55
2332.62222	39587.05
2335.46626	39542.25
2338.3085	39514.35
2341.14893	39514.85
2343.98756	39531.75
2346.8244	39526.55
2349.65943	39467.95
2352.49267	39465.95
2355.32411	39402.95
2358.15376	39356.75
2360.98161	39300.05
2363.80768	39292.15
2366.63195	39242.35
2369.45444	39228.55
2372.27514	39160.45
2375.09405	39144.95
2377.91118	39077.15
2380.72652	38944.25
2383.54009	38911.05
2386.35187	38896.65
2389.16188	38823.55
2391.97011	38766.25
2394.77657	38715.95
2397.58125	38662.35
2400.38416	38611.05
2403.18529	38522.65
2405.98466	38516.45
2408.78226	38450.85
2411.57809	38391.35
2414.37216	38464.65
2417.16446	38392.05
2419.955	38314.05
2422.74378	38275.25
2425.5308	38304.95
2428.31606	38210.65
2431.09956	38226.35
2433.88131	38142.55
2436.6613	38128.95
2439.43954	38149.45
2442.21603	38098.55
2444.99077	38059.45
2447.76377	38085.15
2450.53501	38056.95
2453.30451	38024.25
2456.07226	38005.15
2458.83827	37978.35
2461.60254	37955.35
2464.36507	37926.75
2467.12586	37925.85
2469.88492	37916.65
2472.64224	37910.65
2475.39782	37874.95
2478.15167	37917.25
2480.90379	37860.85
2483.65417	37869.05
2486.40283	37846.85
2489.14976	37878.75
2491.89497	37789.75
2494.63845	37837.75
2497.3802	37823.75
2500.12024	37759.15
2502.85855	37739.15
2505.59514	37751.95
2508.33002	37801.65
2511.06318	37722.25
2513.79462	37656.05
2516.52435	37657.35
2519.25237	37654.35
2521.97867	37654.05
2524.70327	37602.65
2527.42616	37543.65
2530.14734	37558.85
2532.86681	37517.25
2535.58458	37512.35
2538.30065	37454.45
2541.01501	37500.75
2543.72768	37370.65
2546.43864	37349.15
2549.14791	37316.35
2551.85548	37245.45
2554.56136	37185.55
2557.26554	37146.65
2559.96803	37118.25
2562.66883	37085.45
2565.36794	37110.55
2568.06536	37102.85
2570.7611	37030.15
2573.45514	36953.25
2576.14751	37011.75
2578.83819	36932.85
2581.52719	36860.85
2584.21451	36802.55
2586.90015	36836.95
2589.58411	36740.15
2592.2664	36730.85
2594.94701	36675.45
2597.62594	36648.15
2600.30321	36587.95
2602.9788	36574.05
2605.65273	36530.85
2608.32498	36534.95
2610.99557	36460.65
2613.66449	36475.35
2616.33175	36388.85
2618.99734	36419.85
2621.66128	36332.75
2624.32355	36283.35
2626.98416	36319.05
2629.64311	36312.25
2632.30041	36299.35
2634.95605	36251.05
2637.61004	36193.65
2640.26238	36126.45
2642.91306	36169.35
2645.56209	36144.65
2648.20948	36092.95
2650.85521	36064.15
2653.4993	36085.55
2656.14175	36060.15
2658.78255	36132.95
2661.42171	36084.85
2664.05923	36167.35
2666.6951	36117.95
2669.32934	36157.35
2671.96194	36177.65
2674.59291	36221.25
2677.22224	36109.85
2679.84993	36165.45
2682.476	36116.25
2685.10043	36168.15
2687.72324	36092.85
2690.34441	36087.95
2692.96396	36071.35
2695.58188	36085.75
2698.19818	36065.35
2700.81285	36073.85
2703.4259	36082.55
2706.03733	36174.65
2708.64714	36180.05
2711.25533	36194.95
2713.86191	36160.65
2716.46687	36190.85
2719.07021	36181.35
2721.67194	36202.35
2724.27206	36146.25
2726.87057	36177.95
2729.46747	36222.45
2732.06276	36194.75
2734.65644	36217.55
2737.24852	36194.55
2739.83899	36194.85
2742.42786	36201.15
2745.01513	36102.85
2747.60079	36110.65
2750.18486	36116.45
2752.76733	36105.15
2755.3482	36086.35
2757.92747	36013.25
2760.50515	35989.95
2763.08123	35989.55
2765.65573	35916.25
2768.22863	35927.25
2770.79994	35907.15
2773.36967	35880.75
2775.9378	35780.15
2778.50435	35789.35
2781.06932	35737.15
2783.6327	35707.65
2786.1945	35708.85
2788.75471	35677.75
2791.31335	35605.75
2793.87041	35568.75
2796.42589	35372.85
2798.97979	35407.85
2801.53212	35300.05
2804.08288	35266.95
2806.63206	35188.65
2809.17967	35145.15
2811.72571	35088.95
2814.27018	35082.65
2816.81308	34974.75
2819.35442	34970.65
2821.89419	34852.35
2824.43239	34800.35
2826.96904	34759.85
2829.50412	34745.55
2832.03763	34647.75
2834.56959	34596.85
2837.1	34537.05
2839.62884	34524.45
2842.15613	34491.45
2844.68186	34478.35
2847.20604	34454.25
2849.72867	34470.65
2852.24974	34430.45
2854.76927	34410.05
2857.28724	34291.95
2859.80367	34289.85
2862.31855	34219.25
2864.83189	34179.25
2867.34368	34162.85
2869.85393	34197.85
2872.36264	34136.65
2874.8698	34175.15
2877.37543	34158.35
2879.87952	34155.25
2882.38207	34168.35
2884.88308	34104.55
2887.38256	34170.85
2889.88051	34181.75
2892.37692	34164.95
2894.8718	34166.65
2897.36515	34168.15
2899.85698	34186.45
2902.34727	34183.15
2904.83604	34253.75
2907.32328	34285.85
2909.809	34272.55
2912.29319	34301.35
2914.77587	34306.55
2917.25702	34233.15
2919.73665	34193.35
2922.21476	34233.55
2924.69136	34165.65
2927.16644	34147.45
2929.64	34134.05
2932.11205	34068.35
2934.58258	33977.85
2937.05161	34033.35
2939.51912	34047.45
2941.98513	34062.45
2944.44962	34006.85
2946.91261	33859.05
2949.37409	33987.45
2951.83407	33963.95
2954.29254	33933.65
2956.74951	33899.15
2959.20498	33828.95
2961.65895	33783.55
2964.11142	33827.65
2966.56239	33705.35
2969.01186	33673.05
2971.45984	33641.45
2973.90632	33657.25
2976.35131	33573.95
2978.7948	33551.85
2981.23681	33456.85
2983.67732	33408.05
2986.11635	33312.15
2988.55388	33223.75
2990.98993	33207.05
2993.4245	33125.95
2995.85758	33046.85
2998.28917	32954.55
3000.71928	32908.35
3003.14791	32920.75
3005.57506	32880.65
3008.00073	32769.95
3010.42493	32747.55
3012.84764	32707.25
3015.26888	32659.25
3017.68865	32601.35
3020.10694	32655.45
3022.52376	32519.25
3024.9391	32541.95
3027.35298	32500.05
3029.76539	32394.25
3032.17632	32347.95
3034.5858	32325.35
3036.9938	32294.45
3039.40034	32245.75
3041.80542	32175.45
3044.20903	32119.15
3046.61118	32124.85
3049.01187	32066.95
3051.4111	32023.95
3053.80888	31958.25
3056.20519	31864.35
3058.60005	31780.45
3060.99345	31811.15
3063.3854	31717.45
3065.7759	31607.95
3068.16494	31538.25
3070.55254	31451.75
3072.93868	31405.45
3075.32338	31319.75
3077.70662	31294.75
3080.08842	31227.05
3082.46878	31240.45
3084.84769	31166.85
3087.22515	31107.75
3089.60118	31101.65
3091.97576	31087.05
3094.3489	31025.35
3096.72061	30984.65
3099.09087	31038.25
3101.4597	30961.55
3103.82709	30961.05
3106.19305	30942.25
3108.55757	30925.45
3110.92066	30782.65
3113.28232	30764.25
3115.64255	30646.65
3118.00134	30554.25
3120.35871	30505.35
3122.71466	30451.65
3125.06917	30428.75
3127.42226	30353.25
3129.77393	30329.65
3132.12417	30321.75
3134.47299	30289.15
3136.82039	30258.95
3139.16636	30249.55
3141.51092	30240.75
3143.85406	30226.55
3146.19579	30273.85
3148.53609	30270.85
3150.87499	30242.65
3153.21246	30217.65
3155.54853	30234.25
3157.88318	30155.75
3160.21642	30239.45
3162.54826	30117.85
3164.87868	30077.05
3167.2077	30058.05
3169.5353	30062.75
3171.86151	30048.65
3174.18631	30006.25
3176.5097	29941.45
3178.83169	29926.35
3181.15228	29895.85
3183.47147	29805.05
3185.78926	29768.75
3188.10565	29769.25
3190.42065	29770.55
3192.73424	29769.15
3195.04645	29727.05
3197.35725	29755.25
3199.66667	29674.05
3201.97469	29765.25
3204.28132	29712.85
3206.58656	29757.75
3208.8904	29722.75
3211.19287	29691.25
3213.49394	29711.95
3215.79363	29665.25
3218.09193	29660.25
3220.38884	29610.95
3222.68438	29598.75
3224.97853	29534.05
3227.2713	29528.85
3229.56269	29453.35
3231.8527	29480.25
3234.14133	29412.75
3236.42858	29326.55
3238.71446	29301.95
