Data from AgNPs_FTO_APTES_UA_2uM_R6G_10uM_NaF_0.1M_Addition_RamanShift__9__11-54-07-209.txt Node

Date: Fri Dec 17 11:54:07 GMT 2021
User: TCL
Spectrometer: QEP01345
Trigger mode: 4
Integration Time (sec): 7.000000E0
Scans to average: 10
Electric dark correction enabled: true
Nonlinearity correction enabled: false
Boxcar width: 0
XAxis mode: Raman Shifts
Number of Pixels in Spectrum: 1044
>>>>>Begin Spectral Data<<<<<
46.04893	-1.325
50.45542	-0.725
54.85868	-1.725
59.25871	-0.825
63.6555	118.175
68.04907	123.175
72.43941	129.175
76.82654	138.375
81.21044	138.775
85.59113	147.875
89.96862	151.375
94.34289	157.875
98.71396	167.575
103.08183	166.975
107.4465	169.275
111.80798	175.675
116.16626	183.275
120.52136	182.375
124.87327	196.675
129.222	208.675
133.56755	213.975
137.90993	230.175
142.24913	251.875
146.58517	278.675
150.91804	324.375
155.24774	387.075
159.57429	477.375
163.89768	604.875
168.21792	790.375
172.53501	1072.375
176.84895	1475.975
181.15975	2076.875
185.46741	2900.275
189.77193	4003.975
194.07331	5353.575
198.37157	6903.575
202.6667	8545.475
206.9587	10182.775
211.24758	11753.475
215.53334	13343.375
219.81599	14992.275
224.09553	16846.875
228.37195	18850.275
232.64527	21052.475
236.91549	23486.875
241.18261	25949.875
245.44663	28240.275
249.70755	30383.475
253.96539	32299.475
258.22014	33797.375
262.4718	34984.875
266.72039	35900.175
270.96589	36310.975
275.20832	36270.775
279.44768	35984.075
283.68397	35527.875
287.91719	35114.675
292.14735	34788.775
296.37445	34601.975
300.59849	34467.575
304.81948	34484.075
309.03742	34468.975
313.25231	34343.475
317.46415	34010.675
321.67296	33513.475
325.87872	33147.275
330.08145	32965.675
334.28114	33025.675
338.47781	33298.875
342.67145	33640.075
346.86207	34095.675
351.04966	34663.075
355.23424	35224.475
359.4158	35770.975
363.59435	36252.575
367.76989	36556.175
371.94243	36711.075
376.11196	36919.675
380.27849	37044.175
384.44203	37242.375
388.60257	37488.975
392.76012	37892.075
396.91468	38365.275
401.06626	38881.075
405.21485	39267.675
409.36047	39252.275
413.50311	39021.875
417.64277	38876.075
421.77947	38963.175
425.9132	39247.875
430.04396	39485.075
434.17176	39574.075
438.2966	39742.075
442.41849	40059.075
446.53742	40753.675
450.6534	41445.975
454.76644	41974.675
458.87653	42296.075
462.98368	42275.975
467.08789	42039.475
471.18916	41645.275
475.2875	41139.675
479.38291	40744.475
483.4754	40512.775
487.56496	40244.175
491.6516	40001.775
495.73531	39834.175
499.81612	39755.175
503.89401	40120.975
507.96899	40329.775
512.04106	40390.875
516.11023	40333.775
520.1765	40009.275
524.23987	39746.075
528.30034	39384.375
532.35792	39111.875
536.41261	38904.975
540.46441	38649.775
544.51333	38584.475
548.55936	38895.175
552.60252	39340.275
556.64279	39888.675
560.6802	40267.675
564.71473	40491.875
568.7464	40830.775
572.7752	41478.575
576.80114	42332.475
580.82422	43288.275
584.84444	44503.875
588.86181	45816.675
592.87633	46749.075
596.888	46498.375
600.89682	45575.475
604.9028	45859.775
608.90594	48268.475
612.90624	50415.575
616.90371	48092.175
620.89834	42910.975
624.89015	40536.475
628.87913	40191.875
632.86528	40309.575
636.84862	40349.375
640.82913	39924.775
644.80683	39270.875
648.78172	38860.775
652.75379	38859.875
656.72306	39201.575
660.68952	39682.975
664.65319	39550.875
668.61405	39155.375
672.57211	39228.875
676.52738	39411.675
680.47986	39331.775
684.42955	39111.875
688.37646	38986.375
692.32058	39194.575
696.26192	39700.575
700.20048	40212.475
704.13626	40387.875
708.06928	40301.175
711.99952	40083.375
715.927	40041.475
719.85171	40095.175
723.77365	40030.775
727.69284	39627.375
731.60928	39204.375
735.52295	39019.875
739.43388	38965.775
743.34206	39061.775
747.24749	39226.475
751.15017	39435.875
755.05012	39898.275
758.94733	40630.075
762.8418	41927.375
766.73354	43795.675
770.62254	45516.375
774.50882	45867.475
778.39237	44628.175
782.27321	42708.975
786.15132	41170.575
790.02671	40145.675
793.89938	39612.975
797.76935	39360.475
801.6366	39320.375
805.50115	39200.075
809.36299	39055.875
813.22213	38871.875
817.07857	38694.075
820.93231	38551.975
824.78336	38429.275
828.63172	38377.975
832.47738	38297.175
836.32036	38293.175
840.16066	38362.875
843.99827	38368.075
847.8332	38382.875
851.66546	38359.875
855.49504	38483.675
859.32195	38427.075
863.1462	38428.775
866.96777	38429.675
870.78668	38451.075
874.60293	38535.975
878.41652	38574.075
882.22745	38769.975
886.03573	38866.275
889.84136	38926.175
893.64433	38843.775
897.44466	38711.875
901.24235	38620.275
905.0374	38539.575
908.8298	38542.775
912.61957	38530.675
916.40671	38695.275
920.19121	38987.375
923.97308	39292.075
927.75233	39409.875
931.52895	39128.575
935.30295	38802.375
939.07433	38386.875
942.84309	38062.575
946.60924	37918.175
950.37278	37872.975
954.13371	37821.475
957.89203	37795.375
961.64774	37740.375
965.40086	37692.375
969.15137	37646.675
972.89929	37578.075
976.64461	37512.575
980.38733	37546.875
984.12747	37670.075
987.86502	37767.875
991.59999	37940.075
995.33237	38208.275
999.06217	38641.675
1002.78939	39265.175
1006.51404	39902.575
1010.23611	40514.775
1013.95561	40869.575
1017.67255	40840.375
1021.38692	40431.275
1025.09872	40065.875
1028.80796	39756.775
1032.51465	39686.075
1036.21877	39849.975
1039.92035	39954.575
1043.61937	40023.875
1047.31584	39881.075
1051.00976	39878.475
1054.70114	39865.275
1058.38998	40038.775
1062.07627	40348.475
1065.76003	40776.675
1069.44126	41194.775
1073.11995	41781.675
1076.79611	42370.875
1080.46974	42654.475
1084.14085	42820.275
1087.80943	42971.375
1091.47549	43183.675
1095.13903	43165.175
1098.80005	42825.875
1102.45857	42120.275
1106.11456	41514.375
1109.76805	41120.675
1113.41903	41017.875
1117.06751	41042.175
1120.71348	41194.975
1124.35696	41330.575
1127.99793	41621.775
1131.63641	41819.375
1135.2724	41772.575
1138.90589	41669.675
1142.5369	41694.375
1146.16542	41842.175
1149.79145	41989.375
1153.415	42109.775
1157.03607	42409.675
1160.65467	43115.475
1164.27079	44370.275
1167.88443	45996.875
1171.49561	47723.475
1175.10432	49631.775
1178.71056	52108.775
1182.31434	54687.375
1185.91565	56387.075
1189.51451	56917.875
1193.11091	56509.175
1196.70485	55212.975
1200.29634	53552.375
1203.88538	52205.375
1207.47197	51363.675
1211.05612	50757.775
1214.63782	50023.775
1218.21708	49089.675
1221.79391	48130.775
1225.36829	47468.275
1228.94024	47084.375
1232.50976	46831.575
1236.07685	46593.575
1239.6415	46489.575
1243.20374	46529.675
1246.76355	46810.875
1250.32093	47315.875
1253.8759	48022.875
1257.42845	49023.975
1260.97859	50088.875
1264.52631	51326.075
1268.07163	52441.475
1271.61453	53560.775
1275.15503	54508.975
1278.69312	55386.575
1282.22882	56153.575
1285.76211	57063.275
1289.29301	58092.375
1292.82151	59535.375
1296.34761	61262.375
1299.87133	63381.275
1303.39266	65769.275
1306.9116	68130.075
1310.42815	70060.475
1313.94233	71108.875
1317.45412	71027.475
1320.96354	70478.175
1324.47058	70227.175
1327.97525	70190.375
1331.47754	70344.075
1334.97747	70587.475
1338.47502	70761.975
1341.97022	70683.275
1345.46305	70287.675
1348.95352	69723.475
1352.44163	69390.275
1355.92738	69530.675
1359.41078	70444.275
1362.89183	71346.375
1366.37053	70287.675
1369.84688	66492.175
1373.32088	61553.575
1376.79254	57713.075
1380.26186	55981.875
1383.72883	55678.575
1387.19347	55544.975
1390.65578	55086.775
1394.11575	54687.975
1397.57339	54803.075
1401.0287	55236.575
1404.48168	55817.075
1407.93234	56053.175
1411.38068	55780.175
1414.82669	54964.375
1418.27039	53669.675
1421.71177	52169.475
1425.15083	51203.875
1428.58758	50839.175
1432.02203	51237.375
1435.45416	52221.175
1438.88399	53258.775
1442.31151	54066.275
1445.73673	54370.475
1449.15965	54347.475
1452.58027	54230.775
1455.9986	54050.175
1459.41463	54358.275
1462.82837	55054.475
1466.23982	55854.975
1469.64898	56561.175
1473.05586	57064.375
1476.46045	57132.475
1479.86276	56930.675
1483.26279	56555.275
1486.66054	56491.875
1490.05602	56792.875
1493.44922	57230.275
1496.84016	57671.775
1500.22882	58347.675
1503.61521	59309.575
1506.99934	60440.375
1510.38121	61216.775
1513.76081	61231.475
1517.13816	60181.375
1520.51324	58757.775
1523.88607	57631.575
1527.25665	57124.375
1530.62498	56947.775
1533.99105	56804.075
1537.35488	56315.975
1540.71647	55588.675
1544.07581	54701.375
1547.4329	53794.375
1550.78776	52984.775
1554.14038	52494.875
1557.49077	52169.675
1560.83892	52027.275
1564.18484	51880.375
1567.52853	51875.675
1570.86999	52125.775
1574.20922	52641.475
1577.54624	53328.775
1580.88103	53599.375
1584.2136	54078.275
1587.54395	55070.075
1590.87208	56952.075
1594.19801	59334.475
1597.52172	61698.675
1600.84321	62278.675
1604.16251	60342.475
1607.47959	57036.675
1610.79447	53550.975
1614.10715	50193.575
1617.41763	47373.475
1620.7259	45372.775
1624.03199	44327.875
1627.33587	44337.675
1630.63757	45150.275
1633.93707	47245.475
1637.23439	50628.475
1640.52951	55391.275
1643.82246	60619.675
1647.11321	64206.975
1650.40179	64216.175
1653.68819	60152.875
1656.97241	53845.875
1660.25446	48083.975
1663.53433	43944.775
1666.81203	41213.875
1670.08756	39547.075
1673.36092	38464.275
1676.63211	37678.175
1679.90115	37157.875
1683.16801	36774.375
1686.43272	36517.175
1689.69527	36259.375
1692.95567	36052.075
1696.2139	35948.175
1699.46999	35857.075
1702.72392	35760.975
1705.97571	35688.875
1709.22535	35689.275
1712.47284	35681.875
1715.71819	35636.475
1718.96139	35575.775
1722.20246	35496.875
1725.44139	35420.875
1728.67818	35266.475
1731.91284	35042.275
1735.14537	34974.575
1738.37576	34803.175
1741.60403	34687.875
1744.83017	34555.475
1748.05418	34525.375
1751.27607	34452.775
1754.49584	34382.075
1757.71349	34368.175
1760.92903	34334.075
1764.14244	34333.875
1767.35375	34388.175
1770.56294	34287.675
1773.77002	34264.675
1776.97499	34204.675
1780.17785	34198.075
1783.37861	34150.575
1786.57727	34089.075
1789.77382	34076.875
1792.96828	33983.675
1796.16064	33906.775
1799.3509	33904.175
1802.53907	33843.775
1805.72514	33802.475
1808.90913	33784.075
1812.09102	33639.675
1815.27083	33625.275
1818.44856	33540.775
1821.6242	33555.875
1824.79776	33554.175
1827.96924	33518.575
1831.13864	33556.675
1834.30597	33604.075
1837.47122	33579.175
1840.6344	33590.075
1843.7955	33589.375
1846.95454	33576.175
1850.11151	33557.875
1853.26642	33529.875
1856.41926	33501.775
1859.57004	33471.375
1862.71876	33458.775
1865.86542	33434.075
1869.01003	33320.675
1872.15258	33285.275
1875.29308	33266.375
1878.43152	33200.475
1881.56792	33198.375
1884.70227	33160.075
1887.83457	33170.175
1890.96482	33105.375
1894.09304	33072.975
1897.21921	32999.475
1900.34335	32966.275
1903.46544	32937.475
1906.58551	32899.175
1909.70353	32877.475
1912.81953	32846.575
1915.93349	32698.075
1919.04543	32601.475
1922.15534	32594.575
1925.26322	32553.675
1928.36908	32475.975
1931.47292	32393.875
1934.57473	32306.775
1937.67453	32238.475
1940.77232	32180.975
1943.86808	32157.975
1946.96184	32042.275
1950.05358	31955.975
1953.14331	31911.175
1956.23103	31815.575
1959.31675	31723.775
1962.40046	31585.275
1965.48217	31568.475
1968.56188	31511.475
1971.63959	31406.475
1974.7153	31334.475
1977.78901	31217.775
1980.86073	31137.675
1983.93046	31027.675
1986.99819	30921.475
1990.06394	30837.075
1993.1277	30793.875
1996.18947	30631.975
1999.24925	30633.875
2002.30706	30528.275
2005.36288	30394.175
2008.41672	30344.575
2011.46859	30277.375
2014.51848	30197.375
2017.56639	30094.575
2020.61233	30010.975
2023.6563	29995.775
2026.6983	29951.775
2029.73833	29844.975
2032.7764	29790.175
2035.8125	29730.175
2038.84664	29744.575
2041.87881	29675.675
2044.90903	29603.375
2047.93729	29589.475
2050.96359	29584.775
2053.98794	29510.575
2057.01034	29465.375
2060.03078	29466.975
2063.04927	29460.675
2066.06582	29439.675
2069.08042	29429.875
2072.09307	29370.775
2075.10378	29327.975
2078.11255	29319.075
2081.11938	29302.375
2084.12426	29279.675
2087.12722	29281.675
2090.12824	29294.975
2093.12732	29292.275
2096.12447	29340.575
2099.11969	29337.875
2102.11299	29359.975
2105.10435	29356.875
2108.09379	29370.075
2111.08131	29412.175
2114.0669	29441.975
2117.05057	29484.175
2120.03233	29411.575
2123.01216	29542.475
2125.99008	29554.875
2128.96609	29549.975
2131.94018	29543.275
2134.91236	29529.875
2137.88263	29600.675
2140.851	29606.375
2143.81746	29680.675
2146.78201	29625.975
2149.74466	29656.775
2152.7054	29600.675
2155.66425	29664.375
2158.6212	29665.775
2161.57625	29655.475
2164.52941	29646.475
2167.48067	29650.775
2170.43004	29633.675
2173.37752	29641.175
2176.32311	29622.475
2179.26681	29661.975
2182.20863	29595.775
2185.14856	29649.775
2188.08661	29600.475
2191.02278	29608.175
2193.95707	29581.775
2196.88948	29586.575
2199.82001	29575.575
2202.74867	29530.775
2205.67545	29532.975
2208.60037	29492.575
2211.52341	29461.375
2214.44458	29360.675
2217.36388	29307.875
2220.28132	29308.175
2223.1969	29260.375
2226.11061	29191.275
2229.02246	29144.875
2231.93245	29095.775
2234.84058	29060.275
2237.74686	29049.875
2240.65128	29013.975
2243.55385	28963.475
2246.45456	28879.975
2249.35343	28884.875
2252.25044	28875.675
2255.14561	28815.675
2258.03893	28795.275
2260.93041	28714.175
2263.82004	28651.475
2266.70783	28606.275
2269.59378	28521.175
2272.4779	28483.575
2275.36017	28407.775
2278.24061	28384.475
2281.11922	28340.175
2283.996	28313.575
2286.87094	28248.275
2289.74405	28207.975
2292.61534	28156.775
2295.4848	28168.675
2298.35243	28143.775
2301.21824	28110.475
2304.08223	28156.075
2306.94439	28124.275
2309.80474	28098.875
2312.66327	28101.375
2315.51999	28064.775
2318.37489	28080.675
2321.22797	28033.675
2324.07925	28026.975
2326.92871	27951.175
2329.77637	27917.675
2332.62222	27850.475
2335.46626	27892.675
2338.3085	27796.675
2341.14893	27848.275
2343.98756	27844.175
2346.8244	27811.275
2349.65943	27787.575
2352.49267	27731.775
2355.32411	27729.575
2358.15376	27716.975
2360.98161	27658.675
2363.80768	27627.375
2366.63195	27621.575
2369.45444	27609.875
2372.27514	27543.775
2375.09405	27559.375
2377.91118	27488.975
2380.72652	27439.275
2383.54009	27397.375
2386.35187	27374.775
2389.16188	27328.575
2391.97011	27287.975
2394.77657	27257.275
2397.58125	27179.975
2400.38416	27185.775
2403.18529	27145.475
2405.98466	27102.375
2408.78226	27057.175
2411.57809	27023.375
2414.37216	26977.275
2417.16446	26962.375
2419.955	26954.175
2422.74378	26908.475
2425.5308	26907.375
2428.31606	26877.475
2431.09956	26832.875
2433.88131	26842.675
2436.6613	26822.175
2439.43954	26805.575
2442.21603	26833.775
2444.99077	26781.075
2447.76377	26809.875
2450.53501	26769.075
2453.30451	26771.875
2456.07226	26710.875
2458.83827	26740.075
2461.60254	26684.175
2464.36507	26675.875
2467.12586	26666.575
2469.88492	26621.475
2472.64224	26608.575
2475.39782	26596.175
2478.15167	26606.675
2480.90379	26577.775
2483.65417	26586.375
2486.40283	26556.675
2489.14976	26570.475
2491.89497	26516.075
2494.63845	26561.575
2497.3802	26533.275
2500.12024	26498.175
2502.85855	26495.975
2505.59514	26495.175
2508.33002	26504.775
2511.06318	26415.575
2513.79462	26422.675
2516.52435	26393.375
2519.25237	26398.375
2521.97867	26366.675
2524.70327	26354.975
2527.42616	26294.975
2530.14734	26271.075
2532.86681	26261.275
2535.58458	26275.075
2538.30065	26232.175
2541.01501	26179.775
2543.72768	26118.975
2546.43864	26105.275
2549.14791	26061.675
2551.85548	26072.075
2554.56136	26016.475
2557.26554	26013.175
2559.96803	25962.075
2562.66883	25938.875
2565.36794	25885.775
2568.06536	25918.975
2570.7611	25896.275
2573.45514	25792.375
2576.14751	25771.975
2578.83819	25729.875
2581.52719	25754.775
2584.21451	25706.075
2586.90015	25694.775
2589.58411	25652.575
2592.2664	25566.075
2594.94701	25549.975
2597.62594	25522.675
2600.30321	25465.475
2602.9788	25486.675
2605.65273	25417.875
2608.32498	25471.375
2610.99557	25393.275
2613.66449	25394.675
2616.33175	25364.075
2618.99734	25350.675
2621.66128	25277.775
2624.32355	25287.175
2626.98416	25242.975
2629.64311	25240.575
2632.30041	25217.775
2634.95605	25235.775
2637.61004	25191.675
2640.26238	25129.275
2642.91306	25129.075
2645.56209	25090.875
2648.20948	25146.275
2650.85521	25089.275
2653.4993	25073.875
2656.14175	25119.275
2658.78255	25127.375
2661.42171	25090.575
2664.05923	25115.675
2666.6951	25129.175
2669.32934	25161.475
2671.96194	25129.375
2674.59291	25153.275
2677.22224	25107.575
2679.84993	25146.675
2682.476	25115.675
2685.10043	25156.175
2687.72324	25122.775
2690.34441	25136.275
2692.96396	25118.075
2695.58188	25130.075
2698.19818	25083.575
2700.81285	25099.575
2703.4259	25082.075
2706.03733	25075.675
2708.64714	25119.875
2711.25533	25153.875
2713.86191	25129.475
2716.46687	25167.075
2719.07021	25148.475
2721.67194	25159.575
2724.27206	25127.875
2726.87057	25122.475
2729.46747	25148.275
2732.06276	25109.875
2734.65644	25149.975
2737.24852	25130.375
2739.83899	25092.575
2742.42786	25095.175
2745.01513	25065.275
2747.60079	25071.175
2750.18486	25023.875
2752.76733	25037.475
2755.3482	25020.375
2757.92747	24989.275
2760.50515	24990.575
2763.08123	24961.475
2765.65573	24912.175
2768.22863	24877.675
2770.79994	24888.275
2773.36967	24892.575
2775.9378	24860.575
2778.50435	24814.075
2781.06932	24766.275
2783.6327	24759.375
2786.1945	24749.375
2788.75471	24720.075
2791.31335	24659.175
2793.87041	24633.575
2796.42589	24542.975
2798.97979	24561.875
2801.53212	24446.875
2804.08288	24454.275
2806.63206	24373.675
2809.17967	24345.875
2811.72571	24301.275
2814.27018	24246.075
2816.81308	24253.175
2819.35442	24164.375
2821.89419	24126.375
2824.43239	24062.675
2826.96904	24043.575
2829.50412	24083.675
2832.03763	23988.175
2834.56959	23999.375
2837.1	23942.375
2839.62884	23972.875
2842.15613	23898.875
2844.68186	23903.275
2847.20604	23896.475
2849.72867	23909.975
2852.24974	23848.575
2854.76927	23854.875
2857.28724	23792.875
2859.80367	23766.175
2862.31855	23757.875
2864.83189	23776.275
2867.34368	23722.875
2869.85393	23724.675
2872.36264	23693.475
2874.8698	23713.575
2877.37543	23707.875
2879.87952	23743.075
2882.38207	23755.675
2884.88308	23714.875
2887.38256	23724.975
2889.88051	23738.075
2892.37692	23732.575
2894.8718	23689.175
2897.36515	23752.675
2899.85698	23751.575
2902.34727	23799.375
2904.83604	23776.575
2907.32328	23788.975
2909.809	23762.675
2912.29319	23781.575
2914.77587	23747.175
2917.25702	23783.975
2919.73665	23724.575
2922.21476	23766.075
2924.69136	23697.375
2927.16644	23708.775
2929.64	23661.275
2932.11205	23614.775
2934.58258	23539.775
2937.05161	23597.975
2939.51912	23640.975
2941.98513	23599.775
2944.44962	23531.375
2946.91261	23437.375
2949.37409	23479.675
2951.83407	23467.675
2954.29254	23472.375
2956.74951	23377.475
2959.20498	23387.275
2961.65895	23386.075
2964.11142	23354.275
2966.56239	23267.075
2969.01186	23301.075
2971.45984	23220.575
2973.90632	23214.175
2976.35131	23186.075
2978.7948	23141.475
2981.23681	23049.575
2983.67732	23058.075
2986.11635	22967.875
2988.55388	22962.175
2990.98993	22902.275
2993.4245	22838.875
2995.85758	22803.675
2998.28917	22761.175
3000.71928	22706.775
3003.14791	22664.175
3005.57506	22711.075
3008.00073	22623.175
3010.42493	22599.775
3012.84764	22532.975
3015.26888	22513.275
3017.68865	22486.575
3020.10694	22461.475
3022.52376	22403.475
3024.9391	22350.175
3027.35298	22329.175
3029.76539	22298.875
3032.17632	22303.975
3034.5858	22205.875
3036.9938	22208.675
3039.40034	22180.875
3041.80542	22199.675
3044.20903	22098.975
3046.61118	22115.475
3049.01187	22057.775
3051.4111	22046.075
3053.80888	21957.475
3056.20519	21919.275
3058.60005	21890.975
3060.99345	21868.775
3063.3854	21846.275
3065.7759	21769.975
3068.16494	21707.875
3070.55254	21629.875
3072.93868	21610.775
3075.32338	21573.175
3077.70662	21551.475
3080.08842	21504.275
3082.46878	21502.575
3084.84769	21458.475
3087.22515	21439.675
3089.60118	21393.775
3091.97576	21368.375
3094.3489	21375.975
3096.72061	21371.675
3099.09087	21365.875
3101.4597	21349.575
3103.82709	21309.275
3106.19305	21276.075
3108.55757	21258.975
3110.92066	21174.175
3113.28232	21162.475
3115.64255	21126.975
3118.00134	21057.175
3120.35871	21031.975
3122.71466	20995.175
3125.06917	20931.475
3127.42226	20854.975
