Data from AgNPs_FTO_APTES_UA_0uM_R6G_10uM_NaF_0.1M_Addition_RamanShift__5__10-00-57-079.txt Node

Date: Fri Dec 17 10:00:57 GMT 2021
User: TCL
Spectrometer: QEP01345
Trigger mode: 4
Integration Time (sec): 7.000000E0
Scans to average: 10
Electric dark correction enabled: true
Nonlinearity correction enabled: false
Boxcar width: 0
XAxis mode: Raman Shifts
Number of Pixels in Spectrum: 1044
>>>>>Begin Spectral Data<<<<<
46.04893	-0.2875
50.45542	0.2125
54.85868	-0.7875
59.25871	2.0125
63.6555	29.1125
68.04907	27.8125
72.43941	31.7125
76.82654	37.2125
81.21044	36.5125
85.59113	38.0125
89.96862	43.8125
94.34289	42.4125
98.71396	45.3125
103.08183	45.7125
107.4465	46.1125
111.80798	43.7125
116.16626	48.2125
120.52136	41.1125
124.87327	48.1125
129.222	52.0125
133.56755	50.4125
137.90993	51.2125
142.24913	54.2125
146.58517	57.8125
150.91804	63.6125
155.24774	73.7125
159.57429	86.8125
163.89768	105.2125
168.21792	130.1125
172.53501	170.9125
176.84895	227.3125
181.15975	303.7125
185.46741	425.6125
189.77193	601.8125
194.07331	800.0125
198.37157	1047.7125
202.6667	1321.6125
206.9587	1611.1125
211.24758	1900.8125
215.53334	2187.0125
219.81599	2509.2125
224.09553	2837.5125
228.37195	3211.7125
232.64527	3636.3125
236.91549	4079.8125
241.18261	4528.8125
245.44663	5001.9125
249.70755	5404.2125
253.96539	5746.2125
258.22014	5967.7125
262.4718	6077.5125
266.72039	6029.3125
270.96589	5917.8125
275.20832	5665.7125
279.44768	5387.0125
283.68397	5073.9125
287.91719	4782.5125
292.14735	4498.7125
296.37445	4265.2125
300.59849	4068.7125
304.81948	3901.2125
309.03742	3762.6125
313.25231	3682.1125
317.46415	3601.2125
321.67296	3522.1125
325.87872	3462.3125
330.08145	3429.8125
334.28114	3403.6125
338.47781	3396.1125
342.67145	3365.4125
346.86207	3351.7125
351.04966	3334.0125
355.23424	3292.7125
359.4158	3265.0125
363.59435	3227.9125
367.76989	3174.2125
371.94243	3128.4125
376.11196	3073.2125
380.27849	3022.6125
384.44203	2982.6125
388.60257	2957.4125
392.76012	2921.5125
396.91468	2922.4125
401.06626	2906.9125
405.21485	2923.3125
409.36047	2925.2125
413.50311	2950.0125
417.64277	2990.7125
421.77947	3007.2125
425.9132	2970.1125
430.04396	2946.4125
434.17176	2955.8125
438.2966	2978.0125
442.41849	2982.7125
446.53742	3001.5125
450.6534	2996.8125
454.76644	2984.8125
458.87653	2980.5125
462.98368	2961.0125
467.08789	2940.2125
471.18916	2913.7125
475.2875	2881.4125
479.38291	2864.1125
483.4754	2841.8125
487.56496	2820.3125
491.6516	2803.7125
495.73531	2772.7125
499.81612	2753.1125
503.89401	2765.7125
507.96899	2757.1125
512.04106	2753.3125
516.11023	2777.8125
520.1765	2835.8125
524.23987	2911.4125
528.30034	3019.1125
532.35792	3109.7125
536.41261	3195.7125
540.46441	3289.0125
544.51333	3368.8125
548.55936	3449.8125
552.60252	3525.1125
556.64279	3603.5125
560.6802	3677.8125
564.71473	3741.2125
568.7464	3742.6125
572.7752	3722.1125
576.80114	3640.1125
580.82422	3508.8125
584.84444	3375.9125
588.86181	3250.9125
592.87633	3202.4125
596.888	3179.7125
600.89682	3235.1125
604.9028	3376.6125
608.90594	3651.6125
612.90624	3992.2125
616.90371	4285.8125
620.89834	4437.9125
624.89015	4469.4125
628.87913	4278.3125
632.86528	3867.0125
636.84862	3443.0125
640.82913	3109.9125
644.80683	2924.7125
648.78172	2822.5125
652.75379	2794.3125
656.72306	2776.2125
660.68952	2792.9125
664.65319	2810.4125
668.61405	2823.4125
672.57211	2880.9125
676.52738	2909.1125
680.47986	2965.0125
684.42955	3013.6125
688.37646	3026.6125
692.32058	3035.6125
696.26192	3030.2125
700.20048	3014.7125
704.13626	2998.2125
708.06928	2993.6125
711.99952	2965.8125
715.927	2946.7125
719.85171	2933.4125
723.77365	2903.3125
727.69284	2910.0125
731.60928	2914.3125
735.52295	2897.9125
739.43388	2906.3125
743.34206	2896.3125
747.24749	2899.3125
751.15017	2899.9125
755.05012	2901.5125
758.94733	2921.9125
762.8418	2952.8125
766.73354	2989.7125
770.62254	3057.1125
774.50882	3095.3125
778.39237	3070.9125
782.27321	3046.1125
786.15132	3011.4125
790.02671	2980.1125
793.89938	2978.2125
797.76935	2984.8125
801.6366	3000.8125
805.50115	3022.7125
809.36299	3040.7125
813.22213	3043.3125
817.07857	3053.5125
820.93231	3054.4125
824.78336	3073.1125
828.63172	3069.9125
832.47738	3088.8125
836.32036	3102.8125
840.16066	3111.8125
843.99827	3138.6125
847.8332	3137.0125
851.66546	3164.0125
855.49504	3188.3125
859.32195	3230.0125
863.1462	3270.1125
866.96777	3314.1125
870.78668	3386.4125
874.60293	3443.5125
878.41652	3513.4125
882.22745	3597.6125
886.03573	3716.1125
889.84136	3855.6125
893.64433	4032.3125
897.44466	4245.8125
901.24235	4514.0125
905.0374	4836.1125
908.8298	5142.1125
912.61957	5436.3125
916.40671	5661.3125
920.19121	5783.3125
923.97308	5852.5125
927.75233	5855.9125
931.52895	5768.7125
935.30295	5619.2125
939.07433	5416.5125
942.84309	5213.5125
946.60924	4998.9125
950.37278	4848.1125
954.13371	4660.4125
957.89203	4547.5125
961.64774	4437.3125
965.40086	4359.7125
969.15137	4267.8125
972.89929	4208.8125
976.64461	4152.5125
980.38733	4108.7125
984.12747	4063.5125
987.86502	4020.8125
991.59999	3995.6125
995.33237	3972.8125
999.06217	3980.8125
1002.78939	3980.0125
1006.51404	3990.7125
1010.23611	4024.1125
1013.95561	4039.4125
1017.67255	4077.2125
1021.38692	4087.7125
1025.09872	4122.5125
1028.80796	4159.9125
1032.51465	4219.6125
1036.21877	4264.4125
1039.92035	4319.4125
1043.61937	4381.4125
1047.31584	4439.8125
1051.00976	4465.6125
1054.70114	4489.6125
1058.38998	4406.3125
1062.07627	4342.5125
1065.76003	4237.7125
1069.44126	4107.2125
1073.11995	3982.5125
1076.79611	3873.3125
1080.46974	3759.2125
1084.14085	3660.8125
1087.80943	3565.7125
1091.47549	3471.8125
1095.13903	3407.3125
1098.80005	3336.5125
1102.45857	3276.8125
1106.11456	3224.8125
1109.76805	3195.3125
1113.41903	3156.9125
1117.06751	3135.5125
1120.71348	3145.2125
1124.35696	3133.1125
1127.99793	3138.4125
1131.63641	3139.7125
1135.2724	3110.7125
1138.90589	3082.9125
1142.5369	3068.5125
1146.16542	3041.5125
1149.79145	3018.6125
1153.415	3000.9125
1157.03607	2993.4125
1160.65467	2996.1125
1164.27079	3021.4125
1167.88443	3042.1125
1171.49561	3079.9125
1175.10432	3121.5125
1178.71056	3208.0125
1182.31434	3285.2125
1185.91565	3328.8125
1189.51451	3371.6125
1193.11091	3358.4125
1196.70485	3316.5125
1200.29634	3259.2125
1203.88538	3207.1125
1207.47197	3140.3125
1211.05612	3120.3125
1214.63782	3073.4125
1218.21708	3069.8125
1221.79391	3079.2125
1225.36829	3090.5125
1228.94024	3121.5125
1232.50976	3122.2125
1236.07685	3127.0125
1239.6415	3126.1125
1243.20374	3141.7125
1246.76355	3136.0125
1250.32093	3133.8125
1253.8759	3145.1125
1257.42845	3170.1125
1260.97859	3188.1125
1264.52631	3221.4125
1268.07163	3238.7125
1271.61453	3266.0125
1275.15503	3296.0125
1278.69312	3329.5125
1282.22882	3363.1125
1285.76211	3402.0125
1289.29301	3444.9125
1292.82151	3503.4125
1296.34761	3542.8125
1299.87133	3592.4125
1303.39266	3634.9125
1306.9116	3689.2125
1310.42815	3731.0125
1313.94233	3753.3125
1317.45412	3715.9125
1320.96354	3681.9125
1324.47058	3638.1125
1327.97525	3592.2125
1331.47754	3571.9125
1334.97747	3570.1125
1338.47502	3597.5125
1341.97022	3620.6125
1345.46305	3667.1125
1348.95352	3720.7125
1352.44163	3807.1125
1355.92738	3891.7125
1359.41078	3982.5125
1362.89183	4077.4125
1366.37053	4118.8125
1369.84688	4024.3125
1373.32088	3905.8125
1376.79254	3855.7125
1380.26186	3810.5125
1383.72883	3785.2125
1387.19347	3774.6125
1390.65578	3769.3125
1394.11575	3736.6125
1397.57339	3733.1125
1401.0287	3719.8125
1404.48168	3711.2125
1407.93234	3700.0125
1411.38068	3682.6125
1414.82669	3668.5125
1418.27039	3636.9125
1421.71177	3601.6125
1425.15083	3564.7125
1428.58758	3522.4125
1432.02203	3495.3125
1435.45416	3450.7125
1438.88399	3444.8125
1442.31151	3428.7125
1445.73673	3392.2125
1449.15965	3398.6125
1452.58027	3367.3125
1455.9986	3354.7125
1459.41463	3352.5125
1462.82837	3360.3125
1466.23982	3342.6125
1469.64898	3350.4125
1473.05586	3377.3125
1476.46045	3387.0125
1479.86276	3382.7125
1483.26279	3394.7125
1486.66054	3411.8125
1490.05602	3425.0125
1493.44922	3435.3125
1496.84016	3468.8125
1500.22882	3507.1125
1503.61521	3549.7125
1506.99934	3606.4125
1510.38121	3652.5125
1513.76081	3667.1125
1517.13816	3632.9125
1520.51324	3561.5125
1523.88607	3491.2125
1527.25665	3438.5125
1530.62498	3398.0125
1533.99105	3378.8125
1537.35488	3360.0125
1540.71647	3351.4125
1544.07581	3320.6125
1547.4329	3300.4125
1550.78776	3269.8125
1554.14038	3277.1125
1557.49077	3266.3125
1560.83892	3246.5125
1564.18484	3244.2125
1567.52853	3228.3125
1570.86999	3209.2125
1574.20922	3196.8125
1577.54624	3185.7125
1580.88103	3148.7125
1584.2136	3111.5125
1587.54395	3089.1125
1590.87208	3066.8125
1594.19801	3046.2125
1597.52172	3067.4125
1600.84321	3053.2125
1604.16251	3051.9125
1607.47959	3021.0125
1610.79447	3008.1125
1614.10715	3000.3125
1617.41763	2962.1125
1620.7259	2953.9125
1624.03199	2950.7125
1627.33587	2938.3125
1630.63757	2924.1125
1633.93707	2915.0125
1637.23439	2922.7125
1640.52951	2935.7125
1643.82246	2952.3125
1647.11321	2974.5125
1650.40179	2982.4125
1653.68819	2959.8125
1656.97241	2885.8125
1660.25446	2788.1125
1663.53433	2737.0125
1666.81203	2687.3125
1670.08756	2647.8125
1673.36092	2624.1125
1676.63211	2602.6125
1679.90115	2589.9125
1683.16801	2559.9125
1686.43272	2551.5125
1689.69527	2537.4125
1692.95567	2515.5125
1696.2139	2501.3125
1699.46999	2489.4125
1702.72392	2474.6125
1705.97571	2465.8125
1709.22535	2468.7125
1712.47284	2481.0125
1715.71819	2481.4125
1718.96139	2481.6125
1722.20246	2475.6125
1725.44139	2463.4125
1728.67818	2442.8125
1731.91284	2459.6125
1735.14537	2441.5125
1738.37576	2445.8125
1741.60403	2438.2125
1744.83017	2420.4125
1748.05418	2429.7125
1751.27607	2414.7125
1754.49584	2407.6125
1757.71349	2401.2125
1760.92903	2399.7125
1764.14244	2403.2125
1767.35375	2400.7125
1770.56294	2404.1125
1773.77002	2396.2125
1776.97499	2388.6125
1780.17785	2390.6125
1783.37861	2405.3125
1786.57727	2406.4125
1789.77382	2402.4125
1792.96828	2386.4125
1796.16064	2390.4125
1799.3509	2392.4125
1802.53907	2389.1125
1805.72514	2387.2125
1808.90913	2378.6125
1812.09102	2375.7125
1815.27083	2367.8125
1818.44856	2362.8125
1821.6242	2363.2125
1824.79776	2356.7125
1827.96924	2354.4125
1831.13864	2361.2125
1834.30597	2373.1125
1837.47122	2363.3125
1840.6344	2359.6125
1843.7955	2359.1125
1846.95454	2361.2125
1850.11151	2353.6125
1853.26642	2360.1125
1856.41926	2360.7125
1859.57004	2363.4125
1862.71876	2344.9125
1865.86542	2349.9125
1869.01003	2354.3125
1872.15258	2353.1125
1875.29308	2348.3125
1878.43152	2343.8125
1881.56792	2344.5125
1884.70227	2336.2125
1887.83457	2340.5125
1890.96482	2330.3125
1894.09304	2317.4125
1897.21921	2312.7125
1900.34335	2321.0125
1903.46544	2316.5125
1906.58551	2325.6125
1909.70353	2317.1125
1912.81953	2326.2125
1915.93349	2298.1125
1919.04543	2307.8125
1922.15534	2297.5125
1925.26322	2298.5125
1928.36908	2299.7125
1931.47292	2297.2125
1934.57473	2300.4125
1937.67453	2296.5125
1940.77232	2289.6125
1943.86808	2285.5125
1946.96184	2277.1125
1950.05358	2264.2125
1953.14331	2263.4125
1956.23103	2247.1125
1959.31675	2254.4125
1962.40046	2243.7125
1965.48217	2232.4125
1968.56188	2227.4125
1971.63959	2217.3125
1974.7153	2209.1125
1977.78901	2205.4125
1980.86073	2193.4125
1983.93046	2194.4125
1986.99819	2195.9125
1990.06394	2193.1125
1993.1277	2179.9125
1996.18947	2175.9125
1999.24925	2177.3125
2002.30706	2171.9125
2005.36288	2158.5125
2008.41672	2161.2125
2011.46859	2159.8125
2014.51848	2153.7125
2017.56639	2144.6125
2020.61233	2155.3125
2023.6563	2150.7125
2026.6983	2168.7125
2029.73833	2184.4125
2032.7764	2173.6125
2035.8125	2169.5125
2038.84664	2180.7125
2041.87881	2178.7125
2044.90903	2198.7125
2047.93729	2184.7125
2050.96359	2212.3125
2053.98794	2219.8125
2057.01034	2219.6125
2060.03078	2235.4125
2063.04927	2228.0125
2066.06582	2245.6125
2069.08042	2260.2125
2072.09307	2255.0125
2075.10378	2246.8125
2078.11255	2242.1125
2081.11938	2256.5125
2084.12426	2246.8125
2087.12722	2252.2125
2090.12824	2233.0125
2093.12732	2230.6125
2096.12447	2235.2125
2099.11969	2207.3125
2102.11299	2215.2125
2105.10435	2195.0125
2108.09379	2179.2125
2111.08131	2154.3125
2114.0669	2160.8125
2117.05057	2155.6125
2120.03233	2139.0125
2123.01216	2129.8125
2125.99008	2126.6125
2128.96609	2123.5125
2131.94018	2118.9125
2134.91236	2108.7125
2137.88263	2111.7125
2140.851	2095.7125
2143.81746	2101.3125
2146.78201	2107.5125
2149.74466	2089.4125
2152.7054	2096.5125
2155.66425	2087.6125
2158.6212	2093.5125
2161.57625	2096.4125
2164.52941	2091.7125
2167.48067	2093.0125
2170.43004	2087.5125
2173.37752	2072.9125
2176.32311	2086.7125
2179.26681	2089.7125
2182.20863	2084.7125
2185.14856	2083.5125
2188.08661	2074.8125
2191.02278	2078.0125
2193.95707	2082.9125
2196.88948	2073.7125
2199.82001	2078.3125
2202.74867	2076.8125
2205.67545	2065.8125
2208.60037	2072.7125
2211.52341	2064.2125
2214.44458	2063.0125
2217.36388	2057.8125
2220.28132	2064.1125
2223.1969	2044.2125
2226.11061	2043.7125
2229.02246	2046.6125
2231.93245	2046.2125
2234.84058	2036.0125
2237.74686	2038.8125
2240.65128	2038.0125
2243.55385	2030.8125
2246.45456	2040.0125
2249.35343	2040.4125
2252.25044	2026.9125
2255.14561	2032.5125
2258.03893	2020.6125
2260.93041	2011.1125
2263.82004	2016.4125
2266.70783	2006.7125
2269.59378	2002.0125
2272.4779	2004.7125
2275.36017	1996.3125
2278.24061	1984.7125
2281.11922	1987.6125
2283.996	1983.3125
2286.87094	1980.6125
2289.74405	1966.0125
2292.61534	1967.7125
2295.4848	1960.5125
2298.35243	1969.2125
2301.21824	1955.8125
2304.08223	1964.3125
2306.94439	1951.5125
2309.80474	1961.4125
2312.66327	1955.9125
2315.51999	1950.2125
2318.37489	1951.0125
2321.22797	1949.8125
2324.07925	1945.0125
2326.92871	1944.8125
2329.77637	1940.4125
2332.62222	1936.2125
2335.46626	1934.9125
2338.3085	1931.2125
2341.14893	1928.6125
2343.98756	1923.5125
2346.8244	1920.8125
2349.65943	1911.8125
2352.49267	1928.4125
2355.32411	1908.7125
2358.15376	1908.1125
2360.98161	1916.7125
2363.80768	1910.4125
2366.63195	1903.3125
2369.45444	1902.4125
2372.27514	1900.9125
2375.09405	1897.2125
2377.91118	1906.3125
2380.72652	1905.0125
2383.54009	1894.0125
2386.35187	1899.1125
2389.16188	1891.7125
2391.97011	1885.8125
2394.77657	1876.0125
2397.58125	1873.3125
2400.38416	1865.4125
2403.18529	1869.1125
2405.98466	1877.4125
2408.78226	1861.7125
2411.57809	1875.4125
2414.37216	1865.2125
2417.16446	1866.4125
2419.955	1851.3125
2422.74378	1850.3125
2425.5308	1857.5125
2428.31606	1859.1125
2431.09956	1847.7125
2433.88131	1850.4125
2436.6613	1843.5125
2439.43954	1850.5125
2442.21603	1840.8125
2444.99077	1839.4125
2447.76377	1836.3125
2450.53501	1836.5125
2453.30451	1835.9125
2456.07226	1830.8125
2458.83827	1822.4125
2461.60254	1827.4125
2464.36507	1821.5125
2467.12586	1834.6125
2469.88492	1828.5125
2472.64224	1821.2125
2475.39782	1812.7125
2478.15167	1810.7125
2480.90379	1812.2125
2483.65417	1819.9125
2486.40283	1806.5125
2489.14976	1801.3125
2491.89497	1813.8125
2494.63845	1804.0125
2497.3802	1796.4125
2500.12024	1789.7125
2502.85855	1794.9125
2505.59514	1801.0125
2508.33002	1792.2125
2511.06318	1791.6125
2513.79462	1798.0125
2516.52435	1788.0125
2519.25237	1785.2125
2521.97867	1775.4125
2524.70327	1779.2125
2527.42616	1769.7125
2530.14734	1773.3125
2532.86681	1775.7125
2535.58458	1762.9125
2538.30065	1778.1125
2541.01501	1771.7125
2543.72768	1762.9125
2546.43864	1767.0125
2549.14791	1761.4125
2551.85548	1760.6125
2554.56136	1756.4125
2557.26554	1744.1125
2559.96803	1741.4125
2562.66883	1747.3125
2565.36794	1743.5125
2568.06536	1728.4125
2570.7611	1744.1125
2573.45514	1728.1125
2576.14751	1736.5125
2578.83819	1722.6125
2581.52719	1726.8125
2584.21451	1734.5125
2586.90015	1728.9125
2589.58411	1724.8125
2592.2664	1713.7125
2594.94701	1710.3125
2597.62594	1707.1125
2600.30321	1704.9125
2602.9788	1707.0125
2605.65273	1699.5125
2608.32498	1703.9125
2610.99557	1690.1125
2613.66449	1691.4125
2616.33175	1686.7125
2618.99734	1688.1125
2621.66128	1687.5125
2624.32355	1682.2125
2626.98416	1673.2125
2629.64311	1683.8125
2632.30041	1681.3125
2634.95605	1675.3125
2637.61004	1668.6125
2640.26238	1666.0125
2642.91306	1669.3125
2645.56209	1673.2125
2648.20948	1670.0125
2650.85521	1662.9125
2653.4993	1672.0125
2656.14175	1675.5125
2658.78255	1672.6125
2661.42171	1668.4125
2664.05923	1657.5125
2666.6951	1666.3125
2669.32934	1659.8125
2671.96194	1664.0125
2674.59291	1662.1125
2677.22224	1658.4125
2679.84993	1676.1125
2682.476	1671.0125
2685.10043	1665.9125
2687.72324	1662.9125
2690.34441	1668.9125
2692.96396	1663.3125
2695.58188	1673.8125
2698.19818	1667.2125
2700.81285	1668.3125
2703.4259	1660.1125
2706.03733	1635.8125
2708.64714	1641.4125
2711.25533	1661.3125
2713.86191	1659.4125
2716.46687	1672.0125
2719.07021	1663.2125
2721.67194	1676.7125
2724.27206	1666.8125
2726.87057	1669.3125
2729.46747	1668.0125
2732.06276	1663.8125
2734.65644	1671.2125
2737.24852	1671.2125
2739.83899	1659.3125
2742.42786	1659.3125
2745.01513	1661.9125
2747.60079	1661.2125
2750.18486	1660.0125
2752.76733	1659.8125
2755.3482	1661.4125
2757.92747	1654.1125
2760.50515	1662.5125
2763.08123	1651.5125
2765.65573	1648.2125
2768.22863	1660.5125
2770.79994	1647.4125
2773.36967	1649.4125
2775.9378	1649.5125
2778.50435	1652.8125
2781.06932	1651.5125
2783.6327	1640.3125
2786.1945	1647.4125
2788.75471	1644.2125
2791.31335	1632.0125
2793.87041	1633.3125
2796.42589	1622.5125
2798.97979	1634.6125
2801.53212	1621.2125
2804.08288	1622.1125
2806.63206	1626.1125
2809.17967	1625.7125
2811.72571	1615.9125
2814.27018	1607.2125
2816.81308	1611.8125
2819.35442	1614.8125
2821.89419	1613.5125
2824.43239	1608.8125
2826.96904	1607.1125
2829.50412	1611.4125
2832.03763	1608.4125
2834.56959	1602.6125
2837.1	1609.8125
2839.62884	1610.3125
2842.15613	1607.1125
2844.68186	1612.9125
2847.20604	1611.9125
2849.72867	1617.2125
2852.24974	1626.9125
2854.76927	1621.3125
2857.28724	1616.8125
2859.80367	1615.5125
2862.31855	1642.6125
2864.83189	1648.7125
2867.34368	1642.8125
2869.85393	1659.3125
2872.36264	1663.5125
2874.8698	1664.1125
2877.37543	1695.7125
2879.87952	1694.0125
2882.38207	1703.7125
2884.88308	1709.2125
2887.38256	1724.1125
2889.88051	1731.2125
2892.37692	1747.7125
2894.8718	1750.9125
2897.36515	1754.3125
2899.85698	1759.9125
2902.34727	1780.3125
2904.83604	1776.4125
2907.32328	1790.9125
2909.809	1787.0125
2912.29319	1794.0125
2914.77587	1795.5125
2917.25702	1800.1125
2919.73665	1800.1125
2922.21476	1797.2125
2924.69136	1794.8125
2927.16644	1809.8125
2929.64	1798.0125
2932.11205	1791.2125
2934.58258	1789.3125
2937.05161	1784.0125
2939.51912	1778.1125
2941.98513	1778.1125
2944.44962	1759.7125
2946.91261	1745.3125
2949.37409	1744.2125
2951.83407	1731.5125
2954.29254	1723.4125
2956.74951	1715.0125
2959.20498	1700.4125
2961.65895	1689.9125
2964.11142	1686.9125
2966.56239	1670.5125
2969.01186	1678.2125
2971.45984	1661.7125
2973.90632	1661.1125
2976.35131	1646.3125
2978.7948	1639.5125
2981.23681	1628.6125
2983.67732	1626.8125
2986.11635	1613.5125
2988.55388	1606.2125
2990.98993	1606.7125
2993.4245	1587.7125
2995.85758	1592.1125
2998.28917	1592.0125
3000.71928	1590.9125
3003.14791	1577.8125
3005.57506	1582.9125
3008.00073	1577.7125
3010.42493	1574.4125
3012.84764	1569.6125
3015.26888	1576.1125
3017.68865	1560.6125
3020.10694	1571.4125
3022.52376	1555.4125
3024.9391	1561.0125
3027.35298	1557.0125
3029.76539	1549.0125
3032.17632	1553.0125
3034.5858	1563.0125
3036.9938	1549.7125
3039.40034	1553.4125
3041.80542	1550.3125
3044.20903	1544.2125
3046.61118	1550.0125
3049.01187	1545.0125
3051.4111	1537.5125
3053.80888	1546.8125
3056.20519	1548.3125
3058.60005	1548.9125
3060.99345	1547.8125
3063.3854	1541.6125
3065.7759	1543.1125
3068.16494	1543.5125
3070.55254	1538.4125
3072.93868	1550.2125
3075.32338	1538.3125
3077.70662	1530.2125
3080.08842	1545.1125
3082.46878	1549.7125
3084.84769	1550.1125
3087.22515	1555.9125
3089.60118	1555.1125
3091.97576	1559.9125
3094.3489	1564.3125
3096.72061	1568.1125
3099.09087	1574.6125
3101.4597	1575.0125
3103.82709	1585.0125
3106.19305	1585.0125
3108.55757	1589.8125
3110.92066	1586.0125
3113.28232	1578.9125
3115.64255	1583.9125
3118.00134	1597.6125
3120.35871	1596.2125
3122.71466	1603.2125
3125.06917	1595.1125
3127.42226	1598.6125
