Data from AgNPs_FTO_APTES_UA_0uM_R6G_10uM_NaF_0.1M_Addition_RamanShift__31__10-32-27-115.txt Node

Date: Fri Dec 17 10:32:27 GMT 2021
User: TCL
Spectrometer: QEP01345
Trigger mode: 4
Integration Time (sec): 7.000000E0
Scans to average: 10
Electric dark correction enabled: true
Nonlinearity correction enabled: false
Boxcar width: 0
XAxis mode: Raman Shifts
Number of Pixels in Spectrum: 1044
>>>>>Begin Spectral Data<<<<<
46.04893	-0.35
50.45542	-1.45
54.85868	-1.25
59.25871	-0.35
63.6555	83.05
68.04907	83.75
72.43941	86.05
76.82654	93.75
81.21044	94.75
85.59113	95.65
89.96862	101.05
94.34289	103.65
98.71396	106.65
103.08183	109.55
107.4465	115.75
111.80798	116.15
116.16626	121.05
120.52136	122.75
124.87327	134.45
129.222	138.75
133.56755	149.05
137.90993	162.35
142.24913	175.15
146.58517	196.85
150.91804	231.05
155.24774	277.55
159.57429	348.35
163.89768	442.15
168.21792	593.15
172.53501	804.05
176.84895	1116.55
181.15975	1557.15
185.46741	2181.75
189.77193	3017.65
194.07331	4012.55
198.37157	5164.65
202.6667	6377.65
206.9587	7557.95
211.24758	8738.45
215.53334	9911.65
219.81599	11152.35
224.09553	12539.45
228.37195	14082.85
232.64527	15770.15
236.91549	17552.05
241.18261	19299.85
245.44663	20927.75
249.70755	22372.95
253.96539	23601.75
258.22014	24595.85
262.4718	25425.35
266.72039	25951.95
270.96589	26141.75
275.20832	26073.05
279.44768	25804.25
283.68397	25458.55
287.91719	25162.15
292.14735	24971.85
296.37445	24901.45
300.59849	24991.95
304.81948	25141.35
309.03742	25278.85
313.25231	25339.75
317.46415	25270.85
321.67296	25079.55
325.87872	24880.65
330.08145	24769.05
334.28114	24749.75
338.47781	24874.75
342.67145	25168.25
346.86207	25637.65
351.04966	26090.65
355.23424	26529.45
359.4158	26914.75
363.59435	27187.85
367.76989	27344.35
371.94243	27393.35
376.11196	27421.35
380.27849	27455.25
384.44203	27635.95
388.60257	27891.95
392.76012	28207.75
396.91468	28546.95
401.06626	28930.95
405.21485	29236.75
409.36047	29220.85
413.50311	29221.85
417.64277	29499.85
421.77947	29905.75
425.9132	29953.55
430.04396	29945.35
434.17176	30074.25
438.2966	30217.95
442.41849	30655.85
446.53742	31558.45
450.6534	32566.25
454.76644	33056.35
458.87653	33021.25
462.98368	32595.25
467.08789	31956.15
471.18916	31181.05
475.2875	30381.55
479.38291	29667.75
483.4754	29277.35
487.56496	29043.15
491.6516	28888.95
495.73531	28807.25
499.81612	28909.35
503.89401	29185.85
507.96899	29394.95
512.04106	29306.55
516.11023	29153.85
520.1765	28848.45
524.23987	28672.05
528.30034	28582.55
532.35792	28413.85
536.41261	28066.25
540.46441	27722.55
544.51333	27604.85
548.55936	27770.45
552.60252	28259.95
556.64279	28964.35
560.6802	29504.45
564.71473	29799.35
568.7464	30060.85
572.7752	30779.75
576.80114	31924.35
580.82422	33494.65
584.84444	35897.05
588.86181	39172.25
592.87633	42083.95
596.888	41883.05
600.89682	38532.35
604.9028	36120.65
608.90594	36706.95
612.90624	37908.45
616.90371	35719.55
620.89834	31348.45
624.89015	29377.85
628.87913	29169.45
632.86528	29261.25
636.84862	29014.35
640.82913	28369.35
644.80683	27736.05
648.78172	27473.75
652.75379	27594.35
656.72306	27953.15
660.68952	28269.85
664.65319	28026.65
668.61405	27635.15
672.57211	27638.45
676.52738	27892.05
680.47986	27827.65
684.42955	27557.55
688.37646	27390.85
692.32058	27660.85
696.26192	28217.55
700.20048	28753.15
704.13626	29031.45
708.06928	29012.95
711.99952	28887.85
715.927	28968.05
719.85171	29112.05
723.77365	28999.95
727.69284	28395.25
731.60928	27890.85
735.52295	27742.85
739.43388	27774.15
743.34206	27891.65
747.24749	28197.45
751.15017	28517.95
755.05012	29001.95
758.94733	29684.75
762.8418	30860.45
766.73354	32542.65
770.62254	33974.85
774.50882	33955.05
778.39237	32592.85
782.27321	30956.35
786.15132	29645.95
790.02671	28789.55
793.89938	28322.85
797.76935	28178.05
801.6366	28053.95
805.50115	27999.25
809.36299	27905.25
813.22213	27719.45
817.07857	27536.65
820.93231	27309.15
824.78336	27126.55
828.63172	27058.35
832.47738	27018.25
836.32036	27029.85
840.16066	27082.95
843.99827	27099.75
847.8332	27130.15
851.66546	27187.05
855.49504	27202.65
859.32195	27257.15
863.1462	27196.45
866.96777	27134.75
870.78668	27099.05
874.60293	27173.55
878.41652	27223.15
882.22745	27343.45
886.03573	27458.95
889.84136	27493.85
893.64433	27347.75
897.44466	27190.35
901.24235	27136.35
905.0374	27085.95
908.8298	27026.55
912.61957	27100.25
916.40671	27310.95
920.19121	27666.75
923.97308	28084.85
927.75233	28230.65
931.52895	27987.45
935.30295	27481.85
939.07433	26948.25
942.84309	26619.75
946.60924	26502.35
950.37278	26487.85
954.13371	26487.75
957.89203	26450.45
961.64774	26476.55
965.40086	26465.45
969.15137	26403.75
972.89929	26367.65
976.64461	26383.95
980.38733	26381.65
984.12747	26397.45
987.86502	26526.95
991.59999	26663.15
995.33237	26922.25
999.06217	27358.85
1002.78939	28004.95
1006.51404	28727.05
1010.23611	29357.35
1013.95561	29745.65
1017.67255	29877.35
1021.38692	29537.25
1025.09872	28878.15
1028.80796	28429.75
1032.51465	28446.75
1036.21877	28607.95
1039.92035	28770.35
1043.61937	28693.35
1047.31584	28562.45
1051.00976	28355.25
1054.70114	28364.05
1058.38998	28451.35
1062.07627	28643.75
1065.76003	28892.55
1069.44126	29306.25
1073.11995	29832.75
1076.79611	30330.85
1080.46974	30560.05
1084.14085	30789.65
1087.80943	31150.45
1091.47549	31434.65
1095.13903	31372.75
1098.80005	30861.15
1102.45857	30051.45
1106.11456	29539.45
1109.76805	29294.85
1113.41903	29317.35
1117.06751	29387.95
1120.71348	29617.55
1124.35696	29838.25
1127.99793	30045.15
1131.63641	30185.15
1135.2724	30139.55
1138.90589	30138.15
1142.5369	30301.35
1146.16542	30590.95
1149.79145	30887.35
1153.415	31131.25
1157.03607	31481.95
1160.65467	32400.65
1164.27079	34007.05
1167.88443	35809.05
1171.49561	37538.55
1175.10432	39661.95
1178.71056	42325.15
1182.31434	44950.25
1185.91565	45897.65
1189.51451	45115.45
1193.11091	43641.35
1196.70485	42140.65
1200.29634	40839.75
1203.88538	40058.65
1207.47197	39757.65
1211.05612	39568.65
1214.63782	38974.45
1218.21708	37988.55
1221.79391	37004.15
1225.36829	36524.55
1228.94024	36264.95
1232.50976	35844.85
1236.07685	35143.95
1239.6415	34524.65
1243.20374	34361.15
1246.76355	34569.75
1250.32093	35029.45
1253.8759	35772.55
1257.42845	36765.65
1260.97859	37869.15
1264.52631	39103.35
1268.07163	40235.55
1271.61453	41439.95
1275.15503	42586.55
1278.69312	43783.55
1282.22882	45223.35
1285.76211	47031.45
1289.29301	49091.85
1292.82151	51373.55
1296.34761	54179.85
1299.87133	57570.65
1303.39266	61166.25
1306.9116	64241.65
1310.42815	66492.25
1313.94233	67369.85
1317.45412	66362.35
1320.96354	64267.85
1324.47058	62527.35
1327.97525	61537.55
1331.47754	60873.25
1334.97747	60089.45
1338.47502	58972.85
1341.97022	57552.05
1345.46305	56071.65
1348.95352	55220.35
1352.44163	55770.25
1355.92738	57931.35
1359.41078	61500.05
1362.89183	64280.75
1366.37053	64206.55
1369.84688	59841.25
1373.32088	53013.25
1376.79254	47883.05
1380.26186	46109.35
1383.72883	46234.25
1387.19347	46356.15
1390.65578	45666.15
1394.11575	45322.45
1397.57339	45937.15
1401.0287	47029.95
1404.48168	48015.95
1407.93234	48248.15
1411.38068	47494.95
1414.82669	46134.55
1418.27039	44352.85
1421.71177	42625.35
1425.15083	41356.35
1428.58758	40966.75
1432.02203	41696.65
1435.45416	43225.75
1438.88399	44749.25
1442.31151	45428.85
1445.73673	45537.15
1449.15965	45232.05
1452.58027	44621.85
1455.9986	43937.85
1459.41463	43931.25
1462.82837	44584.85
1466.23982	45706.95
1469.64898	46730.15
1473.05586	47362.65
1476.46045	47683.95
1479.86276	47424.55
1483.26279	47037.35
1486.66054	46897.15
1490.05602	47150.05
1493.44922	47537.15
1496.84016	47676.05
1500.22882	47781.95
1503.61521	48023.95
1506.99934	48422.45
1510.38121	48777.65
1513.76081	48613.05
1517.13816	47892.85
1520.51324	47131.65
1523.88607	46988.55
1527.25665	47400.35
1530.62498	47983.45
1533.99105	47976.15
1537.35488	47267.85
1540.71647	46012.25
1544.07581	44621.55
1547.4329	43117.05
1550.78776	41925.65
1554.14038	41054.85
1557.49077	40509.55
1560.83892	40152.35
1564.18484	40004.65
1567.52853	40048.45
1570.86999	40366.75
1574.20922	41077.55
1577.54624	41771.25
1580.88103	42112.05
1584.2136	42798.35
1587.54395	44775.55
1590.87208	48109.95
1594.19801	51940.15
1597.52172	55322.65
1600.84321	56115.85
1604.16251	53176.45
1607.47959	48070.65
1610.79447	43014.15
1614.10715	38815.05
1617.41763	35840.05
1620.7259	34034.25
1624.03199	33343.25
1627.33587	33539.05
1630.63757	34685.75
1633.93707	37127.85
1637.23439	41412.05
1640.52951	47998.25
1643.82246	56043.05
1647.11321	62188.55
1650.40179	62259.55
1653.68819	55845.95
1656.97241	46735.85
1660.25446	39199.75
1663.53433	34119.35
1666.81203	31133.75
1670.08756	29397.25
1673.36092	28283.65
1676.63211	27582.55
1679.90115	27135.15
1683.16801	26706.65
1686.43272	26440.55
1689.69527	26204.15
1692.95567	26060.95
1696.2139	25910.55
1699.46999	25880.25
1702.72392	25804.55
1705.97571	25725.45
1709.22535	25727.85
1712.47284	25685.55
1715.71819	25681.85
1718.96139	25655.65
1722.20246	25539.35
1725.44139	25411.25
1728.67818	25287.45
1731.91284	25133.65
1735.14537	25006.05
1738.37576	24901.35
1741.60403	24825.05
1744.83017	24729.75
1748.05418	24672.65
1751.27607	24651.25
1754.49584	24611.75
1757.71349	24598.25
1760.92903	24566.65
1764.14244	24544.45
1767.35375	24536.95
1770.56294	24491.15
1773.77002	24497.65
1776.97499	24413.75
1780.17785	24354.25
1783.37861	24359.25
1786.57727	24318.15
1789.77382	24303.15
1792.96828	24237.75
1796.16064	24201.85
1799.3509	24157.95
1802.53907	24133.85
1805.72514	24069.25
1808.90913	23985.45
1812.09102	23962.65
1815.27083	23891.15
1818.44856	23864.15
1821.6242	23873.05
1824.79776	23841.65
1827.96924	23787.05
1831.13864	23793.05
1834.30597	23847.35
1837.47122	23799.05
1840.6344	23796.15
1843.7955	23803.95
1846.95454	23829.05
1850.11151	23792.95
1853.26642	23755.05
1856.41926	23750.35
1859.57004	23752.95
1862.71876	23710.75
1865.86542	23677.65
1869.01003	23676.45
1872.15258	23662.65
1875.29308	23676.85
1878.43152	23646.25
1881.56792	23634.25
1884.70227	23597.05
1887.83457	23574.45
1890.96482	23562.15
1894.09304	23549.75
1897.21921	23501.35
1900.34335	23487.35
1903.46544	23452.75
1906.58551	23496.35
1909.70353	23480.05
1912.81953	23432.65
1915.93349	23356.55
1919.04543	23248.65
1922.15534	23256.25
1925.26322	23172.35
1928.36908	23139.85
1931.47292	23099.45
1934.57473	23031.15
1937.67453	22955.45
1940.77232	22925.45
1943.86808	22863.05
1946.96184	22826.75
1950.05358	22763.45
1953.14331	22731.95
1956.23103	22665.05
1959.31675	22594.15
1962.40046	22532.05
1965.48217	22466.65
1968.56188	22428.15
1971.63959	22362.55
1974.7153	22299.15
1977.78901	22196.85
1980.86073	22123.75
1983.93046	22080.45
1986.99819	21986.05
1990.06394	21954.45
1993.1277	21917.15
1996.18947	21868.65
1999.24925	21811.95
2002.30706	21723.35
2005.36288	21637.75
2008.41672	21632.95
2011.46859	21538.45
2014.51848	21478.45
2017.56639	21441.05
2020.61233	21399.85
2023.6563	21358.75
2026.6983	21379.95
2029.73833	21288.95
2032.7764	21267.35
2035.8125	21247.55
2038.84664	21176.65
2041.87881	21186.05
2044.90903	21130.85
2047.93729	21099.25
2050.96359	21079.85
2053.98794	21049.45
2057.01034	21017.85
2060.03078	21003.75
2063.04927	20973.35
2066.06582	20963.05
2069.08042	20954.25
2072.09307	20964.95
2075.10378	20938.75
2078.11255	20871.25
2081.11938	20904.05
2084.12426	20890.55
2087.12722	20901.45
2090.12824	20879.55
2093.12732	20928.05
2096.12447	20928.25
2099.11969	20907.95
2102.11299	20926.85
2105.10435	20942.75
2108.09379	20949.55
2111.08131	20963.55
2114.0669	20991.95
2117.05057	20987.25
2120.03233	20961.85
2123.01216	21018.95
2125.99008	21022.95
2128.96609	21062.45
2131.94018	21035.25
2134.91236	21088.95
2137.88263	21074.95
2140.851	21079.05
2143.81746	21072.35
2146.78201	21087.85
2149.74466	21077.45
2152.7054	21101.25
2155.66425	21036.25
2158.6212	21058.15
2161.57625	21073.65
2164.52941	21082.75
2167.48067	21098.05
2170.43004	21087.75
2173.37752	21110.95
2176.32311	21061.55
2179.26681	21090.85
2182.20863	21106.05
2185.14856	21138.25
2188.08661	21088.05
2191.02278	21074.35
2193.95707	21075.85
2196.88948	21072.35
2199.82001	21045.25
2202.74867	20988.25
2205.67545	20989.75
2208.60037	20944.95
2211.52341	20901.55
2214.44458	20909.25
2217.36388	20848.55
2220.28132	20833.55
2223.1969	20810.15
2226.11061	20799.45
2229.02246	20770.15
2231.93245	20747.45
2234.84058	20724.05
2237.74686	20686.35
2240.65128	20717.05
2243.55385	20684.15
2246.45456	20663.85
2249.35343	20589.75
2252.25044	20571.15
2255.14561	20522.95
2258.03893	20431.55
2260.93041	20419.65
2263.82004	20339.95
2266.70783	20321.25
2269.59378	20254.25
2272.4779	20233.55
2275.36017	20199.35
2278.24061	20189.85
2281.11922	20136.85
2283.996	20161.25
2286.87094	20107.15
2289.74405	20079.45
2292.61534	20042.55
2295.4848	20018.85
2298.35243	20035.95
2301.21824	20018.35
2304.08223	20006.85
2306.94439	20000.35
2309.80474	20003.15
2312.66327	20033.65
2315.51999	19983.35
2318.37489	19972.45
2321.22797	19991.55
2324.07925	19920.45
2326.92871	19901.15
2329.77637	19921.55
2332.62222	19864.55
2335.46626	19876.75
2338.3085	19841.75
2341.14893	19807.75
2343.98756	19803.45
2346.8244	19816.45
2349.65943	19794.35
2352.49267	19750.75
2355.32411	19748.95
2358.15376	19746.55
2360.98161	19738.85
2363.80768	19698.45
2366.63195	19716.35
2369.45444	19673.65
2372.27514	19677.15
2375.09405	19659.85
2377.91118	19602.05
2380.72652	19573.95
2383.54009	19559.15
2386.35187	19576.45
2389.16188	19510.05
2391.97011	19474.75
2394.77657	19402.85
2397.58125	19414.35
2400.38416	19380.05
2403.18529	19362.75
2405.98466	19351.65
2408.78226	19338.65
2411.57809	19316.25
2414.37216	19288.75
2417.16446	19223.75
2419.955	19241.65
2422.74378	19223.55
2425.5308	19180.15
2428.31606	19190.55
2431.09956	19170.55
2433.88131	19162.35
2436.6613	19182.65
2439.43954	19152.75
2442.21603	19142.85
2444.99077	19111.75
2447.76377	19118.15
2450.53501	19100.75
2453.30451	19107.75
2456.07226	19122.55
2458.83827	19102.75
2461.60254	19067.15
2464.36507	19066.35
2467.12586	19049.75
2469.88492	19021.85
2472.64224	19016.45
2475.39782	19054.75
2478.15167	19020.25
2480.90379	19039.65
2483.65417	19060.15
2486.40283	19016.55
2489.14976	18994.25
2491.89497	18955.55
2494.63845	19004.75
2497.3802	18983.75
2500.12024	18972.45
2502.85855	18978.45
2505.59514	18996.95
2508.33002	18991.55
2511.06318	18930.25
2513.79462	18949.65
2516.52435	18933.65
2519.25237	18914.85
2521.97867	18909.05
2524.70327	18907.95
2527.42616	18866.35
2530.14734	18846.75
2532.86681	18839.05
2535.58458	18860.15
2538.30065	18827.55
2541.01501	18824.45
2543.72768	18779.35
2546.43864	18760.75
2549.14791	18724.45
2551.85548	18764.25
2554.56136	18709.25
2557.26554	18745.45
2559.96803	18696.45
2562.66883	18715.15
2565.36794	18702.55
2568.06536	18674.05
2570.7611	18661.55
2573.45514	18660.25
2576.14751	18600.75
2578.83819	18606.15
2581.52719	18591.95
2584.21451	18612.85
2586.90015	18561.45
2589.58411	18585.25
2592.2664	18504.45
2594.94701	18505.05
2597.62594	18503.75
2600.30321	18476.65
2602.9788	18468.75
2605.65273	18457.25
2608.32498	18420.25
2610.99557	18426.65
2613.66449	18449.85
2616.33175	18379.35
2618.99734	18378.25
2621.66128	18377.65
2624.32355	18396.25
2626.98416	18327.85
2629.64311	18334.05
2632.30041	18321.45
2634.95605	18324.75
2637.61004	18315.75
2640.26238	18282.95
2642.91306	18272.85
2645.56209	18270.15
2648.20948	18244.15
2650.85521	18238.35
2653.4993	18285.15
2656.14175	18260.85
2658.78255	18327.05
2661.42171	18276.25
2664.05923	18302.45
2666.6951	18300.95
2669.32934	18326.95
2671.96194	18332.65
2674.59291	18333.95
2677.22224	18320.75
2679.84993	18323.25
2682.476	18299.55
2685.10043	18323.35
2687.72324	18294.35
2690.34441	18295.35
2692.96396	18276.45
2695.58188	18289.65
2698.19818	18274.35
2700.81285	18279.05
2703.4259	18298.35
2706.03733	18325.75
2708.64714	18290.65
2711.25533	18335.75
2713.86191	18304.55
2716.46687	18331.95
2719.07021	18376.15
2721.67194	18366.75
2724.27206	18320.15
2726.87057	18351.15
2729.46747	18384.35
2732.06276	18374.85
2734.65644	18339.95
2737.24852	18375.35
2739.83899	18334.65
2742.42786	18374.55
2745.01513	18334.25
2747.60079	18336.05
2750.18486	18341.65
2752.76733	18295.75
2755.3482	18309.25
2757.92747	18311.05
2760.50515	18304.65
2763.08123	18308.45
2765.65573	18276.95
2768.22863	18324.75
2770.79994	18317.85
2773.36967	18294.85
2775.9378	18279.15
2778.50435	18233.35
2781.06932	18226.45
2783.6327	18207.45
2786.1945	18225.85
2788.75471	18182.55
2791.31335	18130.95
2793.87041	18124.55
2796.42589	18089.05
2798.97979	18077.05
2801.53212	18026.55
2804.08288	18025.85
2806.63206	17968.45
2809.17967	17941.05
2811.72571	17927.35
2814.27018	17919.85
2816.81308	17901.55
2819.35442	17881.45
2821.89419	17824.45
2824.43239	17812.25
2826.96904	17775.55
2829.50412	17750.55
2832.03763	17710.55
2834.56959	17721.35
2837.1	17671.65
2839.62884	17675.85
2842.15613	17646.75
2844.68186	17698.95
2847.20604	17682.35
2849.72867	17658.05
2852.24974	17630.15
2854.76927	17635.15
2857.28724	17631.55
2859.80367	17593.35
2862.31855	17564.65
2864.83189	17569.15
2867.34368	17520.75
2869.85393	17520.55
2872.36264	17518.25
2874.8698	17541.25
2877.37543	17558.05
2879.87952	17542.45
2882.38207	17564.15
2884.88308	17517.95
2887.38256	17545.15
2889.88051	17563.25
2892.37692	17562.55
2894.8718	17554.95
2897.36515	17593.95
2899.85698	17582.25
2902.34727	17601.95
2904.83604	17573.45
2907.32328	17651.55
2909.809	17625.95
2912.29319	17610.95
2914.77587	17588.45
2917.25702	17609.95
2919.73665	17585.45
2922.21476	17603.85
2924.69136	17582.55
2927.16644	17573.25
2929.64	17552.95
2932.11205	17508.45
2934.58258	17469.55
2937.05161	17529.25
2939.51912	17520.05
2941.98513	17519.85
2944.44962	17449.45
2946.91261	17395.15
2949.37409	17449.95
2951.83407	17393.85
2954.29254	17417.45
2956.74951	17396.15
2959.20498	17387.45
2961.65895	17361.25
2964.11142	17323.75
2966.56239	17281.25
2969.01186	17263.95
2971.45984	17224.55
2973.90632	17208.25
2976.35131	17162.65
2978.7948	17119.95
2981.23681	17073.05
2983.67732	17040.75
2986.11635	17005.75
2988.55388	16921.45
2990.98993	16941.95
2993.4245	16863.35
2995.85758	16863.95
2998.28917	16809.65
3000.71928	16798.85
3003.14791	16720.75
3005.57506	16754.25
3008.00073	16691.05
3010.42493	16667.05
3012.84764	16649.25
3015.26888	16653.05
3017.68865	16574.25
3020.10694	16574.25
3022.52376	16506.05
3024.9391	16491.15
3027.35298	16463.65
3029.76539	16426.55
3032.17632	16424.95
3034.5858	16399.75
3036.9938	16434.45
3039.40034	16398.05
3041.80542	16384.25
3044.20903	16311.35
3046.61118	16311.45
3049.01187	16294.15
3051.4111	16271.55
3053.80888	16212.05
3056.20519	16191.05
3058.60005	16150.85
3060.99345	16146.55
3063.3854	16091.45
3065.7759	16015.95
3068.16494	15961.85
3070.55254	15926.65
3072.93868	15936.75
3075.32338	15872.65
3077.70662	15887.95
3080.08842	15831.95
3082.46878	15790.55
3084.84769	15771.25
3087.22515	15775.95
3089.60118	15775.45
3091.97576	15746.85
3094.3489	15739.25
3096.72061	15717.65
3099.09087	15693.75
3101.4597	15650.45
3103.82709	15655.95
3106.19305	15622.85
3108.55757	15621.95
3110.92066	15573.55
3113.28232	15566.75
3115.64255	15515.25
3118.00134	15458.85
3120.35871	15465.85
3122.71466	15438.75
3125.06917	15418.05
3127.42226	15371.55
3129.77393	15408.85
3132.12417	15352.05
3134.47299	15336.45
3136.82039	15345.95
3139.16636	15321.95
3141.51092	15347.05
3143.85406	15323.55
3146.19579	15337.95
3148.53609	15293.05
3150.87499	15313.65
3153.21246	15298.85
3155.54853	15359.15
3157.88318	15289.45
3160.21642	15278.25
3162.54826	15238.05
3164.87868	15234.05
3167.2077	15211.25
3169.5353	15183.05
3171.86151	15175.75
3174.18631	15181.85
3176.5097	15204.15
3178.83169	15140.25
3181.15228	15149.95
3183.47147	15116.25
3185.78926	15118.35
3188.10565	15094.65
3190.42065	15114.05
3192.73424	15111.55
3195.04645	15084.15
3197.35725	15065.85
3199.66667	15080.05
3201.97469	15067.95
3204.28132	15028.05
3206.58656	15043.95
3208.8904	14982.45
3211.19287	15028.45
3213.49394	14971.65
3215.79363	14974.35
3218.09193	14986.95
3220.38884	14948.65
3222.68438	14956.25
3224.97853	14927.95
3227.2713	14925.35
3229.56269	14910.05
3231.8527	14923.55
3234.14133	14898.15
3236.42858	14849.45
3238.71446	14875.45
