Data from AgNPs_FTO_APTES_UA_100uM_R6G_10uM_NaF_0.1M_Addition_RamanShift__20__15-40-27-467.txt Node

Date: Fri Dec 17 15:40:27 GMT 2021
User: TCL
Spectrometer: QEP01345
Trigger mode: 4
Integration Time (sec): 7.000000E0
Scans to average: 10
Electric dark correction enabled: true
Nonlinearity correction enabled: false
Boxcar width: 0
XAxis mode: Raman Shifts
Number of Pixels in Spectrum: 1044
>>>>>Begin Spectral Data<<<<<
46.04893	0.5625
50.45542	-1.0375
54.85868	-0.7375
59.25871	0.5625
63.6555	61.4625
68.04907	63.5625
72.43941	71.1625
76.82654	72.8625
81.21044	73.9625
85.59113	79.2625
89.96862	81.7625
94.34289	81.3625
98.71396	87.0625
103.08183	89.0625
107.4465	91.8625
111.80798	91.7625
116.16626	94.9625
120.52136	96.0625
124.87327	103.4625
129.222	105.5625
133.56755	108.7625
137.90993	119.5625
142.24913	122.0625
146.58517	135.2625
150.91804	154.0625
155.24774	177.0625
159.57429	221.1625
163.89768	276.4625
168.21792	354.2625
172.53501	474.9625
176.84895	657.5625
181.15975	912.9625
185.46741	1277.4625
189.77193	1767.0625
194.07331	2361.8625
198.37157	3028.3625
202.6667	3761.1625
206.9587	4467.6625
211.24758	5179.6625
215.53334	5862.5625
219.81599	6573.6625
224.09553	7385.3625
228.37195	8311.6625
232.64527	9314.7625
236.91549	10406.3625
241.18261	11505.8625
245.44663	12563.8625
249.70755	13463.8625
253.96539	14251.5625
258.22014	14890.5625
262.4718	15417.2625
266.72039	15799.1625
270.96589	15997.2625
275.20832	16069.4625
279.44768	15930.7625
283.68397	15751.1625
287.91719	15542.2625
292.14735	15457.6625
296.37445	15456.6625
300.59849	15521.3625
304.81948	15630.2625
309.03742	15572.5625
313.25231	15373.8625
317.46415	14953.9625
321.67296	14529.9625
325.87872	14171.7625
330.08145	14029.1625
334.28114	14080.7625
338.47781	14201.5625
342.67145	14426.4625
346.86207	14653.6625
351.04966	15005.9625
355.23424	15356.6625
359.4158	15689.6625
363.59435	15878.4625
367.76989	16093.1625
371.94243	16249.7625
376.11196	16356.2625
380.27849	16469.8625
384.44203	16573.7625
388.60257	16626.0625
392.76012	16710.3625
396.91468	16908.5625
401.06626	17090.1625
405.21485	17239.0625
409.36047	17125.6625
413.50311	16862.1625
417.64277	16550.4625
421.77947	16344.0625
425.9132	16271.0625
430.04396	16274.7625
434.17176	16333.3625
438.2966	16418.5625
442.41849	16642.1625
446.53742	16850.1625
450.6534	17130.3625
454.76644	17363.2625
458.87653	17515.3625
462.98368	17575.1625
467.08789	17549.8625
471.18916	17440.4625
475.2875	17326.0625
479.38291	17207.0625
483.4754	17097.2625
487.56496	16940.0625
491.6516	16836.5625
495.73531	16806.4625
499.81612	16831.8625
503.89401	16903.2625
507.96899	17030.3625
512.04106	17072.3625
516.11023	17174.8625
520.1765	17215.1625
524.23987	17234.7625
528.30034	17208.8625
532.35792	17157.0625
536.41261	17125.6625
540.46441	17005.0625
544.51333	16888.5625
548.55936	16860.3625
552.60252	16922.2625
556.64279	17066.1625
560.6802	17134.2625
564.71473	17094.4625
568.7464	17137.7625
572.7752	17246.7625
576.80114	17230.6625
580.82422	17225.7625
584.84444	17249.0625
588.86181	17283.3625
592.87633	17303.4625
596.888	17421.4625
600.89682	17742.8625
604.9028	18662.5625
608.90594	20698.3625
612.90624	22995.0625
616.90371	22250.7625
620.89834	18865.9625
624.89015	17276.5625
628.87913	17015.6625
632.86528	17184.1625
636.84862	17450.8625
640.82913	17407.8625
644.80683	17037.8625
648.78172	16638.3625
652.75379	16519.2625
656.72306	16666.2625
660.68952	16940.6625
664.65319	16954.7625
668.61405	16787.0625
672.57211	16805.3625
676.52738	16912.4625
680.47986	16889.5625
684.42955	16684.8625
688.37646	16498.6625
692.32058	16434.8625
696.26192	16446.6625
700.20048	16528.0625
704.13626	16611.4625
708.06928	16600.9625
711.99952	16504.7625
715.927	16436.2625
719.85171	16435.7625
723.77365	16457.5625
727.69284	16452.0625
731.60928	16436.4625
735.52295	16405.4625
739.43388	16477.1625
743.34206	16565.0625
747.24749	16580.6625
751.15017	16486.1625
755.05012	16548.2625
758.94733	16777.3625
762.8418	17453.8625
766.73354	18749.5625
770.62254	20241.2625
774.50882	21292.9625
778.39237	20770.7625
782.27321	19184.3625
786.15132	17749.6625
790.02671	16779.7625
793.89938	16300.3625
797.76935	16116.3625
801.6366	16061.0625
805.50115	16001.0625
809.36299	15976.6625
813.22213	15914.7625
817.07857	15898.3625
820.93231	15856.8625
824.78336	15802.1625
828.63172	15808.1625
832.47738	15767.8625
836.32036	15757.8625
840.16066	15712.7625
843.99827	15686.2625
847.8332	15694.7625
851.66546	15642.4625
855.49504	15683.8625
859.32195	15696.0625
863.1462	15718.6625
866.96777	15745.0625
870.78668	15774.5625
874.60293	15797.7625
878.41652	15773.2625
882.22745	15781.7625
886.03573	15859.9625
889.84136	15890.1625
893.64433	15824.4625
897.44466	15729.8625
901.24235	15636.3625
905.0374	15553.0625
908.8298	15482.9625
912.61957	15422.0625
916.40671	15469.7625
920.19121	15540.9625
923.97308	15612.3625
927.75233	15641.9625
931.52895	15645.8625
935.30295	15570.7625
939.07433	15403.3625
942.84309	15264.2625
946.60924	15216.6625
950.37278	15150.7625
954.13371	15100.9625
957.89203	15064.2625
961.64774	14987.9625
965.40086	14909.2625
969.15137	14807.2625
972.89929	14746.5625
976.64461	14721.1625
980.38733	14715.0625
984.12747	14704.1625
987.86502	14758.5625
991.59999	14809.9625
995.33237	14952.1625
999.06217	15120.4625
1002.78939	15327.4625
1006.51404	15526.1625
1010.23611	15686.3625
1013.95561	15863.5625
1017.67255	15966.2625
1021.38692	15914.8625
1025.09872	15757.8625
1028.80796	15656.8625
1032.51465	15717.8625
1036.21877	15825.2625
1039.92035	15881.7625
1043.61937	15895.8625
1047.31584	15874.3625
1051.00976	15791.6625
1054.70114	15688.6625
1058.38998	15705.5625
1062.07627	15786.0625
1065.76003	15884.0625
1069.44126	15959.0625
1073.11995	16085.2625
1076.79611	16191.0625
1080.46974	16212.9625
1084.14085	16218.5625
1087.80943	16306.5625
1091.47549	16358.2625
1095.13903	16353.4625
1098.80005	16189.8625
1102.45857	15964.7625
1106.11456	15878.1625
1109.76805	15833.0625
1113.41903	15967.7625
1117.06751	16144.3625
1120.71348	16395.5625
1124.35696	16675.7625
1127.99793	16997.0625
1131.63641	17237.7625
1135.2724	17178.1625
1138.90589	16948.6625
1142.5369	16686.6625
1146.16542	16395.1625
1149.79145	16150.5625
1153.415	15972.7625
1157.03607	16010.9625
1160.65467	16126.4625
1164.27079	16499.3625
1167.88443	16975.2625
1171.49561	17656.4625
1175.10432	18577.5625
1178.71056	19783.7625
1182.31434	20966.6625
1185.91565	21638.5625
1189.51451	21699.5625
1193.11091	21270.0625
1196.70485	20488.0625
1200.29634	19661.0625
1203.88538	18987.6625
1207.47197	18341.3625
1211.05612	17689.5625
1214.63782	17279.4625
1218.21708	17046.2625
1221.79391	16960.9625
1225.36829	16972.0625
1228.94024	16978.7625
1232.50976	16943.3625
1236.07685	16986.5625
1239.6415	16995.1625
1243.20374	17014.3625
1246.76355	17141.5625
1250.32093	17275.7625
1253.8759	17471.0625
1257.42845	17839.3625
1260.97859	18148.0625
1264.52631	18453.6625
1268.07163	18788.1625
1271.61453	19128.9625
1275.15503	19445.9625
1278.69312	19753.3625
1282.22882	19936.4625
1285.76211	20174.6625
1289.29301	20516.3625
1292.82151	20933.2625
1296.34761	21455.3625
1299.87133	22219.1625
1303.39266	23139.2625
1306.9116	24200.0625
1310.42815	25349.9625
1313.94233	25910.3625
1317.45412	25747.1625
1320.96354	25071.7625
1324.47058	24268.7625
1327.97525	23572.1625
1331.47754	23016.9625
1334.97747	22786.8625
1338.47502	22907.8625
1341.97022	23241.7625
1345.46305	23748.2625
1348.95352	24301.3625
1352.44163	25185.8625
1355.92738	26280.6625
1359.41078	27759.1625
1362.89183	29072.9625
1366.37053	28561.0625
1369.84688	25894.2625
1373.32088	23033.8625
1376.79254	21084.1625
1380.26186	20067.0625
1383.72883	19560.8625
1387.19347	19232.3625
1390.65578	18888.5625
1394.11575	18600.9625
1397.57339	18437.8625
1401.0287	18412.8625
1404.48168	18462.1625
1407.93234	18494.9625
1411.38068	18526.7625
1414.82669	18418.7625
1418.27039	18197.7625
1421.71177	17922.2625
1425.15083	17628.5625
1428.58758	17390.0625
1432.02203	17361.7625
1435.45416	17444.2625
1438.88399	17594.2625
1442.31151	17710.4625
1445.73673	17840.0625
1449.15965	18047.3625
1452.58027	18192.1625
1455.9986	18302.9625
1459.41463	18569.6625
1462.82837	18805.2625
1466.23982	19047.8625
1469.64898	19254.4625
1473.05586	19442.8625
1476.46045	19546.6625
1479.86276	19527.7625
1483.26279	19564.8625
1486.66054	19715.2625
1490.05602	19885.7625
1493.44922	20177.9625
1496.84016	20763.0625
1500.22882	21607.9625
1503.61521	22894.5625
1506.99934	24366.3625
1510.38121	25678.8625
1513.76081	26052.7625
1517.13816	25285.2625
1520.51324	23675.5625
1523.88607	22068.5625
1527.25665	20968.9625
1530.62498	20294.0625
1533.99105	19931.8625
1537.35488	19685.8625
1540.71647	19492.9625
1544.07581	19351.8625
1547.4329	19240.7625
1550.78776	19191.2625
1554.14038	19216.1625
1557.49077	19352.4625
1560.83892	19485.7625
1564.18484	19667.0625
1567.52853	19798.7625
1570.86999	19938.1625
1574.20922	20083.1625
1577.54624	20071.7625
1580.88103	19779.0625
1584.2136	19282.3625
1587.54395	18921.6625
1590.87208	18969.9625
1594.19801	19421.3625
1597.52172	20094.8625
1600.84321	20470.7625
1604.16251	20206.4625
1607.47959	19486.6625
1610.79447	18755.6625
1614.10715	17932.9625
1617.41763	17209.3625
1620.7259	16576.4625
1624.03199	16202.6625
1627.33587	16112.1625
1630.63757	16210.4625
1633.93707	16618.6625
1637.23439	17236.1625
1640.52951	18193.3625
1643.82246	19377.1625
1647.11321	20613.5625
1650.40179	21427.1625
1653.68819	21121.8625
1656.97241	19670.4625
1660.25446	17828.1625
1663.53433	16448.3625
1666.81203	15511.1625
1670.08756	14899.1625
1673.36092	14489.3625
1676.63211	14217.3625
1679.90115	13999.7625
1683.16801	13815.2625
1686.43272	13725.7625
1689.69527	13575.4625
1692.95567	13523.9625
1696.2139	13488.5625
1699.46999	13415.0625
1702.72392	13404.2625
1705.97571	13356.8625
1709.22535	13289.4625
1712.47284	13238.6625
1715.71819	13228.6625
1718.96139	13170.7625
1722.20246	13156.4625
1725.44139	13115.8625
1728.67818	13025.7625
1731.91284	12961.1625
1735.14537	12927.6625
1738.37576	12875.2625
1741.60403	12843.0625
1744.83017	12812.9625
1748.05418	12794.1625
1751.27607	12776.5625
1754.49584	12750.1625
1757.71349	12744.9625
1760.92903	12741.3625
1764.14244	12723.0625
1767.35375	12710.0625
1770.56294	12676.8625
1773.77002	12685.6625
1776.97499	12649.4625
1780.17785	12641.3625
1783.37861	12595.0625
1786.57727	12592.8625
1789.77382	12550.9625
1792.96828	12533.5625
1796.16064	12509.4625
1799.3509	12513.5625
1802.53907	12497.7625
1805.72514	12461.9625
1808.90913	12425.6625
1812.09102	12401.1625
1815.27083	12381.6625
1818.44856	12388.1625
1821.6242	12343.0625
1824.79776	12309.4625
1827.96924	12312.5625
1831.13864	12275.3625
1834.30597	12314.2625
1837.47122	12317.6625
1840.6344	12275.2625
1843.7955	12287.0625
1846.95454	12261.7625
1850.11151	12237.7625
1853.26642	12260.5625
1856.41926	12242.6625
1859.57004	12249.9625
1862.71876	12233.3625
1865.86542	12210.2625
1869.01003	12222.9625
1872.15258	12218.2625
1875.29308	12190.9625
1878.43152	12187.3625
1881.56792	12165.3625
1884.70227	12166.3625
1887.83457	12151.5625
1890.96482	12148.8625
1894.09304	12132.3625
1897.21921	12128.5625
1900.34335	12109.5625
1903.46544	12083.1625
1906.58551	12083.7625
1909.70353	12067.0625
1912.81953	12061.3625
1915.93349	12040.7625
1919.04543	12033.8625
1922.15534	11983.2625
1925.26322	12014.6625
1928.36908	11962.5625
1931.47292	11941.4625
1934.57473	11909.4625
1937.67453	11892.7625
1940.77232	11867.0625
1943.86808	11846.2625
1946.96184	11827.9625
1950.05358	11778.7625
1953.14331	11761.9625
1956.23103	11751.9625
1959.31675	11683.9625
1962.40046	11674.4625
1965.48217	11656.7625
1968.56188	11626.4625
1971.63959	11583.6625
1974.7153	11550.0625
1977.78901	11505.1625
1980.86073	11456.0625
1983.93046	11449.1625
1986.99819	11387.2625
1990.06394	11367.7625
1993.1277	11331.0625
1996.18947	11315.5625
1999.24925	11300.8625
2002.30706	11269.5625
2005.36288	11225.4625
2008.41672	11192.5625
2011.46859	11166.7625
2014.51848	11152.2625
2017.56639	11113.1625
2020.61233	11084.2625
2023.6563	11057.6625
2026.6983	11028.2625
2029.73833	11018.0625
2032.7764	10986.3625
2035.8125	10995.2625
2038.84664	10951.2625
2041.87881	10954.1625
2044.90903	10938.9625
2047.93729	10905.8625
2050.96359	10885.9625
2053.98794	10840.5625
2057.01034	10864.6625
2060.03078	10850.9625
2063.04927	10838.8625
2066.06582	10859.4625
2069.08042	10842.6625
2072.09307	10835.4625
2075.10378	10830.3625
2078.11255	10807.4625
2081.11938	10827.2625
2084.12426	10821.7625
2087.12722	10814.6625
2090.12824	10814.5625
2093.12732	10798.3625
2096.12447	10806.3625
2099.11969	10805.4625
2102.11299	10829.1625
2105.10435	10802.7625
2108.09379	10817.3625
2111.08131	10832.3625
2114.0669	10851.9625
2117.05057	10851.4625
2120.03233	10868.1625
2123.01216	10877.2625
2125.99008	10891.6625
2128.96609	10882.3625
2131.94018	10904.0625
2134.91236	10917.7625
2137.88263	10914.5625
2140.851	10911.8625
2143.81746	10925.9625
2146.78201	10944.9625
2149.74466	10927.9625
2152.7054	10965.3625
2155.66425	10930.9625
2158.6212	10910.3625
2161.57625	10912.0625
2164.52941	10936.5625
2167.48067	10920.5625
2170.43004	10895.4625
2173.37752	10913.8625
2176.32311	10921.1625
2179.26681	10908.2625
2182.20863	10910.7625
2185.14856	10919.6625
2188.08661	10925.8625
2191.02278	10912.5625
2193.95707	10908.3625
2196.88948	10873.6625
2199.82001	10896.4625
2202.74867	10890.4625
2205.67545	10875.2625
2208.60037	10859.9625
2211.52341	10843.0625
2214.44458	10830.9625
2217.36388	10812.3625
2220.28132	10793.7625
2223.1969	10763.9625
2226.11061	10760.5625
2229.02246	10764.1625
2231.93245	10740.3625
2234.84058	10689.7625
2237.74686	10702.7625
2240.65128	10698.7625
2243.55385	10693.5625
2246.45456	10673.6625
2249.35343	10661.0625
2252.25044	10648.8625
2255.14561	10642.2625
2258.03893	10618.0625
2260.93041	10613.9625
2263.82004	10619.3625
2266.70783	10560.0625
2269.59378	10506.0625
2272.4779	10532.5625
2275.36017	10480.8625
2278.24061	10484.9625
2281.11922	10449.4625
2283.996	10445.9625
2286.87094	10432.1625
2289.74405	10413.9625
2292.61534	10405.8625
2295.4848	10430.9625
2298.35243	10375.4625
2301.21824	10398.0625
2304.08223	10381.0625
2306.94439	10375.0625
2309.80474	10376.8625
2312.66327	10381.5625
2315.51999	10363.2625
2318.37489	10364.1625
2321.22797	10326.6625
2324.07925	10335.9625
2326.92871	10330.7625
2329.77637	10306.5625
2332.62222	10319.7625
2335.46626	10301.4625
2338.3085	10280.6625
2341.14893	10264.3625
2343.98756	10256.4625
2346.8244	10266.6625
2349.65943	10286.2625
2352.49267	10248.1625
2355.32411	10239.2625
2358.15376	10266.1625
2360.98161	10260.3625
2363.80768	10241.9625
2366.63195	10244.5625
2369.45444	10236.4625
2372.27514	10215.2625
2375.09405	10207.3625
2377.91118	10198.9625
2380.72652	10167.5625
2383.54009	10156.0625
2386.35187	10132.6625
2389.16188	10100.8625
2391.97011	10073.4625
2394.77657	10055.9625
2397.58125	10037.6625
2400.38416	10042.1625
2403.18529	10035.3625
2405.98466	10037.1625
2408.78226	9990.9625
2411.57809	9985.7625
2414.37216	9957.9625
2417.16446	9973.8625
2419.955	9948.2625
2422.74378	9953.9625
2425.5308	9925.4625
2428.31606	9948.8625
2431.09956	9924.0625
2433.88131	9928.2625
2436.6613	9918.7625
2439.43954	9922.4625
2442.21603	9897.3625
2444.99077	9885.1625
2447.76377	9894.3625
2450.53501	9885.1625
2453.30451	9877.2625
2456.07226	9875.6625
2458.83827	9847.5625
2461.60254	9861.0625
2464.36507	9845.1625
2467.12586	9849.7625
2469.88492	9831.0625
2472.64224	9845.2625
2475.39782	9847.4625
2478.15167	9844.4625
2480.90379	9846.4625
2483.65417	9837.1625
2486.40283	9829.1625
2489.14976	9830.8625
2491.89497	9821.1625
2494.63845	9851.8625
2497.3802	9836.0625
2500.12024	9803.9625
2502.85855	9791.6625
2505.59514	9824.9625
2508.33002	9787.9625
2511.06318	9790.7625
2513.79462	9783.9625
2516.52435	9767.9625
2519.25237	9748.3625
2521.97867	9733.0625
2524.70327	9730.1625
2527.42616	9702.3625
2530.14734	9687.5625
2532.86681	9686.2625
2535.58458	9679.2625
2538.30065	9673.2625
2541.01501	9661.9625
2543.72768	9656.2625
2546.43864	9630.0625
2549.14791	9632.3625
2551.85548	9591.1625
2554.56136	9589.6625
2557.26554	9583.7625
2559.96803	9569.2625
2562.66883	9570.9625
2565.36794	9574.8625
2568.06536	9562.3625
2570.7611	9563.6625
2573.45514	9529.0625
2576.14751	9528.4625
2578.83819	9509.6625
2581.52719	9506.0625
2584.21451	9509.8625
2586.90015	9468.3625
2589.58411	9474.7625
2592.2664	9467.9625
2594.94701	9424.2625
2597.62594	9404.3625
2600.30321	9413.7625
2602.9788	9402.7625
2605.65273	9381.5625
2608.32498	9379.9625
2610.99557	9361.8625
2613.66449	9388.9625
2616.33175	9366.8625
2618.99734	9372.9625
2621.66128	9353.5625
2624.32355	9340.8625
2626.98416	9358.9625
2629.64311	9362.1625
2632.30041	9344.4625
2634.95605	9332.2625
2637.61004	9317.1625
2640.26238	9306.5625
2642.91306	9302.9625
2645.56209	9294.1625
2648.20948	9289.4625
2650.85521	9284.2625
2653.4993	9271.2625
2656.14175	9272.8625
2658.78255	9272.0625
2661.42171	9271.0625
2664.05923	9287.2625
2666.6951	9283.3625
2669.32934	9285.1625
2671.96194	9275.1625
2674.59291	9293.9625
2677.22224	9285.3625
2679.84993	9285.1625
2682.476	9295.9625
2685.10043	9292.1625
2687.72324	9281.2625
2690.34441	9296.2625
2692.96396	9269.4625
2695.58188	9304.9625
2698.19818	9282.5625
2700.81285	9279.2625
2703.4259	9320.6625
2706.03733	9309.8625
2708.64714	9315.7625
2711.25533	9297.8625
2713.86191	9288.6625
2716.46687	9312.9625
2719.07021	9276.4625
2721.67194	9314.8625
2724.27206	9276.8625
2726.87057	9299.8625
2729.46747	9294.0625
2732.06276	9283.6625
2734.65644	9285.0625
2737.24852	9338.0625
2739.83899	9289.7625
2742.42786	9309.7625
2745.01513	9269.8625
2747.60079	9267.4625
2750.18486	9266.5625
2752.76733	9253.0625
2755.3482	9248.8625
2757.92747	9272.4625
2760.50515	9226.5625
2763.08123	9240.1625
2765.65573	9229.3625
2768.22863	9242.2625
2770.79994	9210.7625
2773.36967	9209.0625
2775.9378	9200.4625
2778.50435	9189.7625
2781.06932	9173.2625
2783.6327	9155.4625
2786.1945	9163.2625
2788.75471	9156.3625
2791.31335	9124.7625
2793.87041	9109.0625
2796.42589	9082.9625
2798.97979	9093.4625
2801.53212	9061.3625
2804.08288	9076.9625
2806.63206	9030.3625
2809.17967	9018.4625
2811.72571	9033.9625
2814.27018	8998.5625
2816.81308	8991.3625
2819.35442	8993.5625
2821.89419	8963.9625
2824.43239	8986.7625
2826.96904	8968.3625
2829.50412	8985.1625
2832.03763	8935.5625
2834.56959	8946.2625
2837.1	8942.7625
2839.62884	8958.9625
2842.15613	8937.8625
2844.68186	8947.4625
2847.20604	8936.1625
2849.72867	8967.7625
2852.24974	8952.3625
2854.76927	8925.5625
2857.28724	8925.2625
2859.80367	8921.1625
2862.31855	8908.9625
2864.83189	8885.2625
2867.34368	8880.5625
2869.85393	8897.3625
2872.36264	8894.2625
2874.8698	8901.0625
2877.37543	8890.6625
2879.87952	8890.8625
2882.38207	8880.3625
2884.88308	8886.2625
2887.38256	8877.1625
2889.88051	8867.6625
2892.37692	8876.2625
2894.8718	8880.7625
2897.36515	8902.8625
2899.85698	8901.2625
2902.34727	8894.2625
2904.83604	8898.5625
2907.32328	8900.6625
2909.809	8884.9625
2912.29319	8920.1625
2914.77587	8900.4625
2917.25702	8911.5625
2919.73665	8907.0625
2922.21476	8914.2625
2924.69136	8894.2625
2927.16644	8904.2625
2929.64	8885.3625
2932.11205	8880.6625
2934.58258	8862.0625
2937.05161	8891.4625
2939.51912	8872.1625
2941.98513	8851.7625
2944.44962	8845.4625
2946.91261	8814.4625
2949.37409	8831.3625
2951.83407	8837.2625
2954.29254	8823.6625
2956.74951	8833.6625
2959.20498	8810.4625
2961.65895	8802.0625
2964.11142	8800.9625
2966.56239	8790.0625
2969.01186	8791.7625
2971.45984	8765.9625
2973.90632	8755.2625
2976.35131	8727.1625
2978.7948	8727.7625
2981.23681	8714.0625
2983.67732	8692.2625
2986.11635	8688.4625
2988.55388	8674.2625
2990.98993	8692.6625
2993.4245	8675.7625
2995.85758	8651.6625
2998.28917	8651.9625
3000.71928	8616.6625
3003.14791	8598.3625
3005.57506	8609.9625
3008.00073	8587.5625
3010.42493	8561.1625
3012.84764	8574.8625
3015.26888	8556.7625
3017.68865	8538.9625
3020.10694	8547.9625
3022.52376	8526.8625
3024.9391	8504.2625
3027.35298	8503.6625
3029.76539	8478.8625
3032.17632	8476.6625
3034.5858	8476.6625
3036.9938	8452.4625
3039.40034	8460.2625
3041.80542	8459.3625
3044.20903	8427.5625
3046.61118	8444.0625
3049.01187	8427.9625
3051.4111	8416.4625
3053.80888	8407.7625
