Data from AgNPs_FTO_APTES_UA_100uM_R6G_10uM_NaF_0.1M_Addition_RamanShift__10__15-28-47-454.txt Node

Date: Fri Dec 17 15:28:47 GMT 2021
User: TCL
Spectrometer: QEP01345
Trigger mode: 4
Integration Time (sec): 7.000000E0
Scans to average: 10
Electric dark correction enabled: true
Nonlinearity correction enabled: false
Boxcar width: 0
XAxis mode: Raman Shifts
Number of Pixels in Spectrum: 1044
>>>>>Begin Spectral Data<<<<<
46.04893	1.575
50.45542	0.675
54.85868	-0.325
59.25871	-0.125
63.6555	62.075
68.04907	65.775
72.43941	70.075
76.82654	76.275
81.21044	74.075
85.59113	80.475
89.96862	82.975
94.34289	81.675
98.71396	90.375
103.08183	87.075
107.4465	94.175
111.80798	92.175
116.16626	96.075
120.52136	93.075
124.87327	103.175
129.222	106.475
133.56755	106.575
137.90993	114.975
142.24913	121.475
146.58517	134.975
150.91804	145.375
155.24774	173.175
159.57429	211.175
163.89768	264.075
168.21792	344.675
172.53501	455.475
176.84895	633.475
181.15975	881.675
185.46741	1240.175
189.77193	1693.475
194.07331	2279.375
198.37157	2924.875
202.6667	3631.775
206.9587	4327.375
211.24758	5016.275
215.53334	5675.075
219.81599	6357.075
224.09553	7157.375
228.37195	8001.075
232.64527	8978.975
236.91549	9983.175
241.18261	11060.975
245.44663	12029.475
249.70755	12956.375
253.96539	13732.075
258.22014	14436.675
262.4718	14896.075
266.72039	15246.775
270.96589	15416.375
275.20832	15434.375
279.44768	15324.475
283.68397	15163.675
287.91719	14956.275
292.14735	14817.475
296.37445	14728.075
300.59849	14755.375
304.81948	14774.375
309.03742	14729.275
313.25231	14613.775
317.46415	14365.875
321.67296	14071.275
325.87872	13827.175
330.08145	13734.275
334.28114	13761.975
338.47781	13864.375
342.67145	14059.375
346.86207	14276.275
351.04966	14492.675
355.23424	14730.875
359.4158	15013.375
363.59435	15163.975
367.76989	15334.975
371.94243	15505.775
376.11196	15576.375
380.27849	15671.275
384.44203	15746.075
388.60257	15818.075
392.76012	15937.075
396.91468	16060.775
401.06626	16256.675
405.21485	16399.975
409.36047	16358.175
413.50311	16184.575
417.64277	15927.275
421.77947	15843.775
425.9132	15813.675
430.04396	15827.375
434.17176	15919.175
438.2966	16005.575
442.41849	16120.875
446.53742	16241.675
450.6534	16435.475
454.76644	16638.175
458.87653	16761.375
462.98368	16803.275
467.08789	16788.475
471.18916	16732.075
475.2875	16650.575
479.38291	16566.675
483.4754	16468.275
487.56496	16366.475
491.6516	16359.075
495.73531	16312.375
499.81612	16323.975
503.89401	16377.775
507.96899	16428.775
512.04106	16448.075
516.11023	16523.275
520.1765	16539.075
524.23987	16458.475
528.30034	16391.475
532.35792	16328.975
536.41261	16241.375
540.46441	16137.475
544.51333	16138.075
548.55936	16244.875
552.60252	16404.675
556.64279	16584.475
560.6802	16687.875
564.71473	16693.275
568.7464	16744.675
572.7752	16823.675
576.80114	16871.975
580.82422	16968.475
584.84444	17080.775
588.86181	17068.475
592.87633	17046.175
596.888	17042.475
600.89682	17216.275
604.9028	17795.075
608.90594	19180.475
612.90624	20725.275
616.90371	20147.275
620.89834	17850.775
624.89015	16688.975
628.87913	16493.075
632.86528	16622.775
636.84862	16758.075
640.82913	16761.975
644.80683	16511.775
648.78172	16293.075
652.75379	16261.075
656.72306	16382.975
660.68952	16572.175
664.65319	16543.475
668.61405	16393.175
672.57211	16316.275
676.52738	16367.775
680.47986	16329.775
684.42955	16272.775
688.37646	16236.575
692.32058	16237.475
696.26192	16300.975
700.20048	16392.875
704.13626	16459.475
708.06928	16501.875
711.99952	16438.775
715.927	16389.475
719.85171	16359.475
723.77365	16324.575
727.69284	16261.675
731.60928	16235.675
735.52295	16181.275
739.43388	16181.975
743.34206	16191.875
747.24749	16234.075
751.15017	16253.575
755.05012	16374.275
758.94733	16602.275
762.8418	17098.175
766.73354	17954.775
770.62254	18945.675
774.50882	19433.675
778.39237	18956.475
782.27321	17975.875
786.15132	17130.375
790.02671	16554.775
793.89938	16255.175
797.76935	16139.775
801.6366	16050.575
805.50115	15998.375
809.36299	15966.275
813.22213	15988.975
817.07857	15922.775
820.93231	15930.375
824.78336	15914.375
828.63172	15906.875
832.47738	15880.975
836.32036	15818.575
840.16066	15836.875
843.99827	15805.075
847.8332	15813.075
851.66546	15800.575
855.49504	15806.575
859.32195	15794.575
863.1462	15788.575
866.96777	15820.575
870.78668	15805.875
874.60293	15782.475
878.41652	15800.975
882.22745	15856.575
886.03573	15862.575
889.84136	15863.775
893.64433	15902.275
897.44466	15851.175
901.24235	15823.375
905.0374	15795.775
908.8298	15739.175
912.61957	15750.775
916.40671	15788.675
920.19121	15837.175
923.97308	15861.075
927.75233	15820.275
931.52895	15808.175
935.30295	15740.075
939.07433	15624.175
942.84309	15500.675
946.60924	15398.175
950.37278	15320.375
954.13371	15281.875
957.89203	15200.475
961.64774	15229.275
965.40086	15169.975
969.15137	15167.675
972.89929	15135.075
976.64461	15072.575
980.38733	15075.875
984.12747	15106.775
987.86502	15125.475
991.59999	15131.275
995.33237	15165.675
999.06217	15253.775
1002.78939	15333.275
1006.51404	15459.675
1010.23611	15567.475
1013.95561	15686.475
1017.67255	15666.675
1021.38692	15655.875
1025.09872	15586.475
1028.80796	15475.575
1032.51465	15433.475
1036.21877	15435.075
1039.92035	15449.675
1043.61937	15491.775
1047.31584	15537.175
1051.00976	15597.375
1054.70114	15644.175
1058.38998	15687.875
1062.07627	15747.775
1065.76003	15871.775
1069.44126	15981.375
1073.11995	16160.775
1076.79611	16348.275
1080.46974	16396.075
1084.14085	16388.475
1087.80943	16399.875
1091.47549	16472.875
1095.13903	16473.375
1098.80005	16415.575
1102.45857	16255.375
1106.11456	16095.975
1109.76805	15981.775
1113.41903	15972.775
1117.06751	16011.575
1120.71348	16156.275
1124.35696	16285.075
1127.99793	16480.375
1131.63641	16566.875
1135.2724	16462.775
1138.90589	16271.875
1142.5369	16162.775
1146.16542	16068.175
1149.79145	15999.975
1153.415	15976.875
1157.03607	15978.075
1160.65467	16093.275
1164.27079	16315.875
1167.88443	16655.975
1171.49561	17119.975
1175.10432	17817.375
1178.71056	18724.775
1182.31434	19556.475
1185.91565	20050.875
1189.51451	20137.475
1193.11091	19925.075
1196.70485	19473.175
1200.29634	18965.275
1203.88538	18495.775
1207.47197	17986.075
1211.05612	17483.375
1214.63782	17132.475
1218.21708	16906.175
1221.79391	16739.975
1225.36829	16620.475
1228.94024	16585.075
1232.50976	16596.475
1236.07685	16661.775
1239.6415	16716.975
1243.20374	16713.775
1246.76355	16809.975
1250.32093	16926.975
1253.8759	17027.975
1257.42845	17262.975
1260.97859	17527.175
1264.52631	17727.075
1268.07163	17941.775
1271.61453	18091.575
1275.15503	18255.675
1278.69312	18353.375
1282.22882	18443.075
1285.76211	18563.175
1289.29301	18698.575
1292.82151	18998.975
1296.34761	19250.775
1299.87133	19671.775
1303.39266	20192.575
1306.9116	20879.975
1310.42815	21610.675
1313.94233	22058.275
1317.45412	21981.875
1320.96354	21705.175
1324.47058	21349.575
1327.97525	21020.475
1331.47754	20752.575
1334.97747	20614.275
1338.47502	20748.775
1341.97022	21081.075
1345.46305	21528.575
1348.95352	22048.575
1352.44163	22496.775
1355.92738	22992.675
1359.41078	23702.275
1362.89183	24481.675
1366.37053	24297.975
1369.84688	22654.675
1373.32088	20786.075
1376.79254	19421.475
1380.26186	18608.475
1383.72883	18174.575
1387.19347	17863.075
1390.65578	17561.575
1394.11575	17263.375
1397.57339	17020.975
1401.0287	16867.975
1404.48168	16748.975
1407.93234	16716.575
1411.38068	16634.775
1414.82669	16554.875
1418.27039	16393.375
1421.71177	16233.975
1425.15083	16014.775
1428.58758	15897.875
1432.02203	15824.475
1435.45416	15866.875
1438.88399	15900.975
1442.31151	16005.575
1445.73673	16063.675
1449.15965	16142.375
1452.58027	16252.975
1455.9986	16262.775
1459.41463	16410.775
1462.82837	16524.875
1466.23982	16755.775
1469.64898	17023.575
1473.05586	17219.175
1476.46045	17348.875
1479.86276	17447.575
1483.26279	17575.675
1486.66054	17699.875
1490.05602	17877.075
1493.44922	18207.975
1496.84016	18780.775
1500.22882	19722.175
1503.61521	20863.475
1506.99934	22044.475
1510.38121	22985.475
1513.76081	23102.875
1517.13816	22402.675
1520.51324	21216.275
1523.88607	20077.675
1527.25665	19257.675
1530.62498	18801.275
1533.99105	18500.875
1537.35488	18267.275
1540.71647	18078.675
1544.07581	17900.475
1547.4329	17743.075
1550.78776	17634.775
1554.14038	17527.175
1557.49077	17533.875
1560.83892	17628.275
1564.18484	17722.275
1567.52853	17874.075
1570.86999	18044.175
1574.20922	18167.675
1577.54624	18193.675
1580.88103	17903.775
1584.2136	17459.475
1587.54395	17133.675
1590.87208	17035.675
1594.19801	17244.075
1597.52172	17665.275
1600.84321	17872.275
1604.16251	17753.275
1607.47959	17454.375
1610.79447	17030.375
1614.10715	16465.375
1617.41763	15935.075
1620.7259	15511.675
1624.03199	15184.475
1627.33587	15014.875
1630.63757	15011.675
1633.93707	15183.375
1637.23439	15578.275
1640.52951	16188.975
1643.82246	17051.075
1647.11321	18052.775
1650.40179	18732.575
1653.68819	18676.375
1656.97241	17697.975
1660.25446	16451.175
1663.53433	15418.075
1666.81203	14692.975
1670.08756	14244.575
1673.36092	13881.375
1676.63211	13683.075
1679.90115	13512.375
1683.16801	13379.475
1686.43272	13289.775
1689.69527	13198.975
1692.95567	13126.075
1696.2139	13120.775
1699.46999	13062.275
1702.72392	13007.375
1705.97571	12985.675
1709.22535	12909.375
1712.47284	12883.175
1715.71819	12840.075
1718.96139	12799.975
1722.20246	12766.075
1725.44139	12702.875
1728.67818	12677.075
1731.91284	12595.675
1735.14537	12590.375
1738.37576	12493.075
1741.60403	12470.775
1744.83017	12458.275
1748.05418	12427.475
1751.27607	12358.175
1754.49584	12339.175
1757.71349	12341.175
1760.92903	12309.075
1764.14244	12335.075
1767.35375	12279.675
1770.56294	12253.075
1773.77002	12251.475
1776.97499	12256.475
1780.17785	12202.475
1783.37861	12173.175
1786.57727	12158.975
1789.77382	12110.775
1792.96828	12078.475
1796.16064	12064.275
1799.3509	12047.575
1802.53907	12030.075
1805.72514	12009.775
1808.90913	11930.975
1812.09102	11918.875
1815.27083	11915.775
1818.44856	11852.475
1821.6242	11832.075
1824.79776	11797.575
1827.96924	11811.675
1831.13864	11796.175
1834.30597	11751.275
1837.47122	11778.675
1840.6344	11752.275
1843.7955	11727.475
1846.95454	11699.175
1850.11151	11711.275
1853.26642	11663.475
1856.41926	11709.375
1859.57004	11674.975
1862.71876	11671.275
1865.86542	11641.675
1869.01003	11632.475
1872.15258	11624.475
1875.29308	11577.675
1878.43152	11556.475
1881.56792	11542.975
1884.70227	11529.375
1887.83457	11499.275
1890.96482	11492.675
1894.09304	11456.075
1897.21921	11452.575
1900.34335	11428.975
1903.46544	11425.875
1906.58551	11386.275
1909.70353	11388.975
1912.81953	11341.075
1915.93349	11325.875
1919.04543	11292.475
1922.15534	11276.675
1925.26322	11246.275
1928.36908	11256.775
1931.47292	11222.175
1934.57473	11175.575
1937.67453	11156.675
1940.77232	11109.175
1943.86808	11080.775
1946.96184	11067.275
1950.05358	11042.675
1953.14331	11019.575
1956.23103	10973.875
1959.31675	10948.675
1962.40046	10916.175
1965.48217	10884.075
1968.56188	10833.175
1971.63959	10804.175
1974.7153	10733.875
1977.78901	10724.875
1980.86073	10681.175
1983.93046	10671.975
1986.99819	10610.275
1990.06394	10568.575
1993.1277	10548.475
1996.18947	10491.275
1999.24925	10492.275
2002.30706	10431.375
2005.36288	10416.075
2008.41672	10380.875
2011.46859	10341.775
2014.51848	10331.475
2017.56639	10267.775
2020.61233	10232.275
2023.6563	10216.575
2026.6983	10193.775
2029.73833	10178.275
2032.7764	10112.075
2035.8125	10111.375
2038.84664	10090.775
2041.87881	10069.775
2044.90903	10061.075
2047.93729	10014.475
2050.96359	10008.775
2053.98794	9981.775
2057.01034	9973.275
2060.03078	9954.275
2063.04927	9953.275
2066.06582	9937.475
2069.08042	9934.175
2072.09307	9915.875
2075.10378	9889.275
2078.11255	9884.775
2081.11938	9912.775
2084.12426	9884.675
2087.12722	9854.775
2090.12824	9856.475
2093.12732	9853.075
2096.12447	9864.675
2099.11969	9836.775
2102.11299	9850.075
2105.10435	9867.275
2108.09379	9843.975
2111.08131	9847.675
2114.0669	9856.875
2117.05057	9865.175
2120.03233	9863.475
2123.01216	9854.475
2125.99008	9869.875
2128.96609	9881.975
2131.94018	9888.975
2134.91236	9870.475
2137.88263	9902.375
2140.851	9868.775
2143.81746	9877.675
2146.78201	9871.875
2149.74466	9876.275
2152.7054	9892.575
2155.66425	9873.075
2158.6212	9863.875
2161.57625	9843.075
2164.52941	9863.975
2167.48067	9819.975
2170.43004	9838.775
2173.37752	9832.175
2176.32311	9796.075
2179.26681	9804.975
2182.20863	9777.575
2185.14856	9784.875
2188.08661	9788.875
2191.02278	9782.475
2193.95707	9762.775
2196.88948	9777.875
2199.82001	9740.275
2202.74867	9718.975
2205.67545	9707.875
2208.60037	9691.775
2211.52341	9683.575
2214.44458	9638.875
2217.36388	9610.375
2220.28132	9621.275
2223.1969	9597.575
2226.11061	9553.975
2229.02246	9544.375
2231.93245	9548.875
2234.84058	9494.275
2237.74686	9490.975
2240.65128	9490.475
2243.55385	9480.575
2246.45456	9466.275
2249.35343	9447.875
2252.25044	9434.475
2255.14561	9402.675
2258.03893	9391.675
2260.93041	9361.275
2263.82004	9347.075
2266.70783	9326.675
2269.59378	9303.475
2272.4779	9284.475
2275.36017	9256.275
2278.24061	9240.675
2281.11922	9208.175
2283.996	9174.475
2286.87094	9182.575
2289.74405	9157.275
2292.61534	9142.375
2295.4848	9132.475
2298.35243	9109.775
2301.21824	9101.175
2304.08223	9085.475
2306.94439	9062.675
2309.80474	9086.575
2312.66327	9056.575
2315.51999	9045.175
2318.37489	9025.775
2321.22797	8995.575
2324.07925	9011.775
2326.92871	8975.675
2329.77637	8964.175
2332.62222	8944.775
2335.46626	8918.075
2338.3085	8904.175
2341.14893	8899.075
2343.98756	8874.275
2346.8244	8889.175
2349.65943	8851.875
2352.49267	8861.875
2355.32411	8847.775
2358.15376	8859.375
2360.98161	8844.175
2363.80768	8837.375
2366.63195	8827.975
2369.45444	8796.675
2372.27514	8792.075
2375.09405	8780.475
2377.91118	8763.175
2380.72652	8733.975
2383.54009	8736.775
2386.35187	8712.075
2389.16188	8679.475
2391.97011	8650.075
2394.77657	8651.575
2397.58125	8614.275
2400.38416	8610.675
2403.18529	8570.975
2405.98466	8578.175
2408.78226	8562.975
2411.57809	8539.175
2414.37216	8533.775
2417.16446	8524.475
2419.955	8502.875
2422.74378	8478.375
2425.5308	8485.175
2428.31606	8496.175
2431.09956	8461.375
2433.88131	8457.975
2436.6613	8439.675
2439.43954	8453.975
2442.21603	8420.975
2444.99077	8398.375
2447.76377	8422.175
2450.53501	8389.575
2453.30451	8393.375
2456.07226	8371.775
2458.83827	8366.775
2461.60254	8362.975
2464.36507	8339.375
2467.12586	8313.175
2469.88492	8303.575
2472.64224	8316.375
2475.39782	8305.475
2478.15167	8323.075
2480.90379	8286.975
2483.65417	8262.875
2486.40283	8275.775
2489.14976	8261.975
2491.89497	8250.475
2494.63845	8262.875
2497.3802	8240.775
2500.12024	8228.375
2502.85855	8206.475
2505.59514	8187.875
2508.33002	8196.475
2511.06318	8176.375
2513.79462	8148.775
2516.52435	8136.975
2519.25237	8148.175
2521.97867	8104.275
2524.70327	8110.575
2527.42616	8077.075
2530.14734	8078.775
2532.86681	8068.975
2535.58458	8039.275
2538.30065	8024.875
2541.01501	8019.075
2543.72768	7997.375
2546.43864	8007.775
2549.14791	7960.675
2551.85548	7973.375
2554.56136	7939.775
2557.26554	7938.575
2559.96803	7913.275
2562.66883	7901.375
2565.36794	7911.175
2568.06536	7863.675
2570.7611	7874.575
2573.45514	7840.675
2576.14751	7838.975
2578.83819	7811.075
2581.52719	7797.275
2584.21451	7785.475
2586.90015	7763.675
2589.58411	7744.375
2592.2664	7726.175
2594.94701	7701.975
2597.62594	7686.375
2600.30321	7698.575
2602.9788	7660.775
2605.65273	7627.075
2608.32498	7619.175
2610.99557	7629.675
2613.66449	7599.775
2616.33175	7600.475
2618.99734	7578.675
2621.66128	7557.975
2624.32355	7560.775
2626.98416	7540.875
2629.64311	7565.475
2632.30041	7554.175
2634.95605	7524.975
2637.61004	7502.175
2640.26238	7483.875
2642.91306	7472.375
2645.56209	7483.275
2648.20948	7465.275
2650.85521	7447.375
2653.4993	7423.075
2656.14175	7434.775
2658.78255	7456.475
2661.42171	7449.575
2664.05923	7451.775
2666.6951	7434.375
2669.32934	7438.375
2671.96194	7426.075
2674.59291	7407.875
2677.22224	7404.675
2679.84993	7425.075
2682.476	7423.575
2685.10043	7419.175
2687.72324	7394.175
2690.34441	7418.675
2692.96396	7413.175
2695.58188	7424.775
2698.19818	7378.775
2700.81285	7387.275
2703.4259	7384.075
2706.03733	7393.975
2708.64714	7400.175
2711.25533	7393.575
2713.86191	7363.975
2716.46687	7378.475
2719.07021	7361.775
2721.67194	7365.475
2724.27206	7355.575
2726.87057	7344.375
2729.46747	7346.375
2732.06276	7336.075
2734.65644	7323.575
2737.24852	7334.475
2739.83899	7342.175
2742.42786	7320.075
2745.01513	7283.975
2747.60079	7267.875
2750.18486	7274.475
2752.76733	7268.975
2755.3482	7263.875
2757.92747	7269.675
2760.50515	7230.975
2763.08123	7235.975
2765.65573	7189.275
2768.22863	7204.875
2770.79994	7206.775
2773.36967	7188.275
2775.9378	7163.875
2778.50435	7154.075
2781.06932	7146.975
2783.6327	7139.675
2786.1945	7133.075
2788.75471	7110.575
2791.31335	7077.875
2793.87041	7091.275
2796.42589	7066.075
2798.97979	7055.075
2801.53212	7033.675
2804.08288	7031.275
2806.63206	6977.075
2809.17967	6993.675
2811.72571	6959.575
2814.27018	6961.575
2816.81308	6947.075
2819.35442	6935.975
2821.89419	6906.575
2824.43239	6912.675
2826.96904	6898.475
2829.50412	6902.675
2832.03763	6872.975
2834.56959	6888.375
2837.1	6852.775
2839.62884	6870.475
2842.15613	6890.075
2844.68186	6882.675
2847.20604	6849.375
2849.72867	6867.275
2852.24974	6854.275
2854.76927	6857.175
2857.28724	6815.975
2859.80367	6816.775
2862.31855	6804.275
2864.83189	6796.475
2867.34368	6792.975
2869.85393	6804.475
2872.36264	6792.575
2874.8698	6805.475
2877.37543	6772.275
2879.87952	6779.375
2882.38207	6767.775
2884.88308	6769.275
2887.38256	6771.875
2889.88051	6768.175
2892.37692	6763.375
2894.8718	6739.075
2897.36515	6750.775
2899.85698	6753.875
2902.34727	6740.975
2904.83604	6739.475
2907.32328	6746.775
2909.809	6725.475
2912.29319	6755.375
2914.77587	6750.875
2917.25702	6747.575
2919.73665	6720.475
2922.21476	6738.075
2924.69136	6736.875
2927.16644	6717.275
2929.64	6708.075
2932.11205	6707.575
2934.58258	6682.075
2937.05161	6697.375
2939.51912	6691.675
2941.98513	6658.875
2944.44962	6654.075
2946.91261	6631.975
2949.37409	6640.675
2951.83407	6632.975
2954.29254	6624.475
2956.74951	6619.475
2959.20498	6604.875
2961.65895	6605.875
2964.11142	6588.775
2966.56239	6571.275
2969.01186	6570.675
2971.45984	6560.975
2973.90632	6557.275
2976.35131	6520.475
2978.7948	6526.375
2981.23681	6497.575
2983.67732	6504.675
2986.11635	6477.175
2988.55388	6477.675
2990.98993	6463.875
2993.4245	6442.775
2995.85758	6446.775
2998.28917	6424.675
3000.71928	6410.575
3003.14791	6390.575
3005.57506	6414.875
3008.00073	6381.475
3010.42493	6382.375
3012.84764	6377.675
3015.26888	6349.675
3017.68865	6354.275
3020.10694	6354.975
3022.52376	6309.275
3024.9391	6284.975
3027.35298	6289.775
3029.76539	6286.875
3032.17632	6262.375
3034.5858	6256.175
3036.9938	6240.875
3039.40034	6239.875
3041.80542	6234.875
3044.20903	6235.475
3046.61118	6224.575
3049.01187	6217.775
3051.4111	6207.175
3053.80888	6191.375
3056.20519	6182.475
3058.60005	6185.975
3060.99345	6167.175
3063.3854	6157.575
3065.7759	6144.175
3068.16494	6141.275
3070.55254	6140.375
3072.93868	6129.275
3075.32338	6106.975
3077.70662	6110.975
3080.08842	6094.675
3082.46878	6085.875
3084.84769	6085.175
3087.22515	6068.475
3089.60118	6102.975
3091.97576	6080.575
3094.3489	6090.575
3096.72061	6069.975
3099.09087	6065.575
3101.4597	6069.975
3103.82709	6086.475
3106.19305	6082.575
3108.55757	6057.475
3110.92066	6051.275
3113.28232	6029.775
3115.64255	6016.375
3118.00134	6009.375
3120.35871	6019.675
3122.71466	6008.775
3125.06917	5994.275
3127.42226	5987.975
3129.77393	6011.775
3132.12417	5981.775
3134.47299	5990.875
3136.82039	5985.475
3139.16636	5985.375
3141.51092	5980.375
3143.85406	6009.075
3146.19579	6012.875
3148.53609	5992.075
3150.87499	5989.275
3153.21246	6014.975
3155.54853	6036.875
3157.88318	6044.275
3160.21642	6023.975
3162.54826	6004.475
3164.87868	6034.975
3167.2077	6026.375
3169.5353	6021.675
3171.86151	6028.275
3174.18631	6014.075
3176.5097	5999.075
