Data from AgNPs_FTO_APTES_UA_20uM_R6G_10uM_NaF_0.1M_Addition_RamanShift__29__14-29-17-386.txt Node

Date: Fri Dec 17 14:29:17 GMT 2021
User: TCL
Spectrometer: QEP01345
Trigger mode: 4
Integration Time (sec): 7.000000E0
Scans to average: 10
Electric dark correction enabled: true
Nonlinearity correction enabled: false
Boxcar width: 0
XAxis mode: Raman Shifts
Number of Pixels in Spectrum: 1044
>>>>>Begin Spectral Data<<<<<
46.04893	-0.5125
50.45542	0.7875
54.85868	-0.5125
59.25871	0.3875
63.6555	43.9875
68.04907	48.8875
72.43941	51.9875
76.82654	54.6875
81.21044	55.1875
85.59113	58.1875
89.96862	59.8875
94.34289	64.8875
98.71396	64.9875
103.08183	67.5875
107.4465	67.9875
111.80798	68.7875
116.16626	71.1875
120.52136	70.5875
124.87327	75.3875
129.222	77.7875
133.56755	78.6875
137.90993	83.3875
142.24913	86.8875
146.58517	89.4875
150.91804	102.1875
155.24774	114.2875
159.57429	140.6875
163.89768	168.0875
168.21792	219.6875
172.53501	287.7875
176.84895	383.8875
181.15975	524.6875
185.46741	735.7875
189.77193	1005.8875
194.07331	1350.4875
198.37157	1734.5875
202.6667	2136.7875
206.9587	2547.9875
211.24758	2955.2875
215.53334	3346.6875
219.81599	3788.0875
224.09553	4283.2875
228.37195	4818.9875
232.64527	5415.7875
236.91549	6048.9875
241.18261	6650.4875
245.44663	7215.4875
249.70755	7695.7875
253.96539	8099.9875
258.22014	8424.6875
262.4718	8763.6875
266.72039	8996.2875
270.96589	9117.6875
275.20832	9172.2875
279.44768	9080.9875
283.68397	8974.5875
287.91719	8867.9875
292.14735	8848.6875
296.37445	8908.5875
300.59849	9081.9875
304.81948	9310.2875
309.03742	9446.5875
313.25231	9394.5875
317.46415	9088.4875
321.67296	8672.2875
325.87872	8332.4875
330.08145	8193.2875
334.28114	8208.4875
338.47781	8326.1875
342.67145	8508.8875
346.86207	8756.3875
351.04966	9111.8875
355.23424	9495.3875
359.4158	9857.0875
363.59435	10079.6875
367.76989	10172.2875
371.94243	10265.2875
376.11196	10270.0875
380.27849	10298.8875
384.44203	10274.9875
388.60257	10258.7875
392.76012	10248.3875
396.91468	10364.7875
401.06626	10552.4875
405.21485	10733.5875
409.36047	10676.6875
413.50311	10383.1875
417.64277	10106.4875
421.77947	9925.0875
425.9132	9886.4875
430.04396	9911.7875
434.17176	9951.4875
438.2966	10063.7875
442.41849	10228.8875
446.53742	10439.7875
450.6534	10646.7875
454.76644	10817.0875
458.87653	10881.9875
462.98368	10855.5875
467.08789	10749.9875
471.18916	10637.2875
475.2875	10467.3875
479.38291	10340.5875
483.4754	10258.1875
487.56496	10205.8875
491.6516	10179.1875
495.73531	10187.8875
499.81612	10195.8875
503.89401	10255.7875
507.96899	10341.5875
512.04106	10449.8875
516.11023	10598.7875
520.1765	10658.8875
524.23987	10673.2875
528.30034	10545.0875
532.35792	10425.4875
536.41261	10279.8875
540.46441	10141.7875
544.51333	10102.6875
548.55936	10131.3875
552.60252	10243.4875
556.64279	10397.5875
560.6802	10476.9875
564.71473	10555.3875
568.7464	10740.0875
572.7752	10914.9875
576.80114	10816.5875
580.82422	10695.4875
584.84444	10713.4875
588.86181	10736.3875
592.87633	10730.4875
596.888	10837.3875
600.89682	11079.9875
604.9028	11861.7875
608.90594	13773.5875
612.90624	16232.1875
616.90371	15840.0875
620.89834	12676.4875
624.89015	11189.2875
628.87913	10916.9875
632.86528	10941.6875
636.84862	11029.6875
640.82913	10987.9875
644.80683	10742.3875
648.78172	10565.6875
652.75379	10554.5875
656.72306	10797.8875
660.68952	11081.3875
664.65319	11029.4875
668.61405	10749.6875
672.57211	10611.5875
676.52738	10625.5875
680.47986	10659.6875
684.42955	10645.1875
688.37646	10649.0875
692.32058	10669.1875
696.26192	10773.0875
700.20048	10863.6875
704.13626	10943.3875
708.06928	10923.3875
711.99952	10872.1875
715.927	10847.8875
719.85171	10850.2875
723.77365	10837.2875
727.69284	10788.9875
731.60928	10782.5875
735.52295	10751.0875
739.43388	10807.9875
743.34206	10866.3875
747.24749	10907.0875
751.15017	10961.6875
755.05012	11121.5875
758.94733	11393.1875
762.8418	11996.2875
766.73354	13063.8875
770.62254	14172.3875
774.50882	14882.1875
778.39237	14502.6875
782.27321	13238.6875
786.15132	12069.3875
790.02671	11421.3875
793.89938	11135.8875
797.76935	11025.2875
801.6366	10992.1875
805.50115	10984.5875
809.36299	10983.4875
813.22213	11010.9875
817.07857	11000.0875
820.93231	10967.8875
824.78336	10968.7875
828.63172	10998.8875
832.47738	11011.4875
836.32036	11007.2875
840.16066	10992.0875
843.99827	10974.9875
847.8332	10980.0875
851.66546	10967.8875
855.49504	10966.2875
859.32195	10978.2875
863.1462	10979.8875
866.96777	10971.1875
870.78668	10968.3875
874.60293	11031.7875
878.41652	11031.6875
882.22745	11113.1875
886.03573	11143.5875
889.84136	11152.9875
893.64433	11125.6875
897.44466	11065.7875
901.24235	11050.2875
905.0374	11030.5875
908.8298	11006.2875
912.61957	10973.3875
916.40671	11010.5875
920.19121	11078.4875
923.97308	11127.4875
927.75233	11166.0875
931.52895	11198.8875
935.30295	11149.0875
939.07433	11007.6875
942.84309	10883.8875
946.60924	10828.5875
950.37278	10784.8875
954.13371	10724.4875
957.89203	10679.7875
961.64774	10697.3875
965.40086	10659.2875
969.15137	10652.1875
972.89929	10626.9875
976.64461	10634.4875
980.38733	10636.4875
984.12747	10665.3875
987.86502	10699.5875
991.59999	10752.2875
995.33237	10853.0875
999.06217	10996.8875
1002.78939	11154.7875
1006.51404	11321.1875
1010.23611	11497.9875
1013.95561	11608.8875
1017.67255	11641.9875
1021.38692	11554.9875
1025.09872	11448.3875
1028.80796	11419.1875
1032.51465	11486.7875
1036.21877	11582.0875
1039.92035	11625.1875
1043.61937	11612.9875
1047.31584	11550.9875
1051.00976	11464.9875
1054.70114	11427.2875
1058.38998	11406.3875
1062.07627	11476.2875
1065.76003	11537.2875
1069.44126	11617.6875
1073.11995	11708.8875
1076.79611	11781.7875
1080.46974	11838.5875
1084.14085	11941.9875
1087.80943	12066.9875
1091.47549	12126.9875
1095.13903	11980.3875
1098.80005	11789.0875
1102.45857	11607.6875
1106.11456	11521.4875
1109.76805	11522.0875
1113.41903	11667.9875
1117.06751	11848.0875
1120.71348	12085.8875
1124.35696	12326.0875
1127.99793	12559.3875
1131.63641	12591.6875
1135.2724	12365.7875
1138.90589	12104.6875
1142.5369	11920.6875
1146.16542	11751.7875
1149.79145	11647.3875
1153.415	11636.8875
1157.03607	11699.6875
1160.65467	11795.0875
1164.27079	12010.5875
1167.88443	12300.5875
1171.49561	12773.7875
1175.10432	13593.1875
1178.71056	14700.0875
1182.31434	15589.0875
1185.91565	15902.5875
1189.51451	15690.3875
1193.11091	15106.7875
1196.70485	14388.6875
1200.29634	13856.9875
1203.88538	13497.5875
1207.47197	13065.9875
1211.05612	12720.5875
1214.63782	12503.8875
1218.21708	12398.0875
1221.79391	12397.9875
1225.36829	12466.3875
1228.94024	12542.4875
1232.50976	12603.6875
1236.07685	12674.4875
1239.6415	12712.0875
1243.20374	12758.4875
1246.76355	12790.5875
1250.32093	12896.1875
1253.8759	13066.3875
1257.42845	13255.6875
1260.97859	13449.9875
1264.52631	13621.3875
1268.07163	13814.8875
1271.61453	14016.5875
1275.15503	14156.0875
1278.69312	14297.3875
1282.22882	14407.8875
1285.76211	14565.7875
1289.29301	14822.5875
1292.82151	15053.3875
1296.34761	15290.3875
1299.87133	15700.0875
1303.39266	16352.9875
1306.9116	17384.3875
1310.42815	18503.6875
1313.94233	19142.3875
1317.45412	18908.6875
1320.96354	18189.8875
1324.47058	17353.6875
1327.97525	16629.1875
1331.47754	16244.7875
1334.97747	16229.3875
1338.47502	16439.9875
1341.97022	16796.0875
1345.46305	17158.5875
1348.95352	17574.2875
1352.44163	18160.5875
1355.92738	19136.8875
1359.41078	20654.3875
1362.89183	22151.0875
1366.37053	21681.8875
1369.84688	19503.0875
1373.32088	17225.8875
1376.79254	15708.4875
1380.26186	14911.5875
1383.72883	14510.9875
1387.19347	14217.4875
1390.65578	13856.7875
1394.11575	13581.9875
1397.57339	13465.8875
1401.0287	13443.2875
1404.48168	13613.6875
1407.93234	13827.1875
1411.38068	14083.9875
1414.82669	14177.4875
1418.27039	14110.8875
1421.71177	13901.9875
1425.15083	13701.7875
1428.58758	13589.6875
1432.02203	13616.0875
1435.45416	13636.2875
1438.88399	13641.9875
1442.31151	13635.3875
1445.73673	13671.1875
1449.15965	13713.0875
1452.58027	13675.1875
1455.9986	13600.2875
1459.41463	13573.1875
1462.82837	13625.0875
1466.23982	13778.3875
1469.64898	13987.0875
1473.05586	14143.6875
1476.46045	14267.9875
1479.86276	14449.0875
1483.26279	14700.8875
1486.66054	15000.0875
1490.05602	15384.1875
1493.44922	15875.3875
1496.84016	16526.5875
1500.22882	17432.8875
1503.61521	18537.7875
1506.99934	19817.5875
1510.38121	20885.1875
1513.76081	21160.0875
1517.13816	20361.7875
1520.51324	18747.1875
1523.88607	17149.2875
1527.25665	16063.7875
1530.62498	15420.8875
1533.99105	15097.8875
1537.35488	14872.0875
1540.71647	14758.6875
1544.07581	14753.9875
1547.4329	14747.8875
1550.78776	14734.9875
1554.14038	14713.9875
1557.49077	14775.7875
1560.83892	14889.0875
1564.18484	15012.4875
1567.52853	15203.8875
1570.86999	15346.7875
1574.20922	15454.9875
1577.54624	15415.2875
1580.88103	15055.0875
1584.2136	14577.4875
1587.54395	14326.4875
1590.87208	14477.9875
1594.19801	14991.2875
1597.52172	15621.6875
1600.84321	15987.1875
1604.16251	15750.4875
1607.47959	15145.4875
1610.79447	14481.8875
1614.10715	13810.1875
1617.41763	13259.3875
1620.7259	12920.5875
1624.03199	12728.9875
1627.33587	12742.0875
1630.63757	12866.4875
1633.93707	13200.5875
1637.23439	13700.1875
1640.52951	14330.6875
1643.82246	15088.7875
1647.11321	15959.1875
1650.40179	16581.9875
1653.68819	16287.0875
1656.97241	15108.3875
1660.25446	13731.7875
1663.53433	12710.6875
1666.81203	12100.3875
1670.08756	11731.7875
1673.36092	11512.9875
1676.63211	11319.0875
1679.90115	11195.6875
1683.16801	11117.2875
1686.43272	11058.6875
1689.69527	11009.8875
1692.95567	10965.2875
1696.2139	10963.4875
1699.46999	10948.7875
1702.72392	10918.2875
1705.97571	10905.9875
1709.22535	10892.6875
1712.47284	10883.2875
1715.71819	10903.4875
1718.96139	10863.0875
1722.20246	10876.0875
1725.44139	10822.9875
1728.67818	10791.2875
1731.91284	10749.7875
1735.14537	10716.5875
1738.37576	10692.6875
1741.60403	10634.7875
1744.83017	10621.0875
1748.05418	10601.8875
1751.27607	10599.5875
1754.49584	10611.7875
1757.71349	10596.9875
1760.92903	10584.3875
1764.14244	10598.5875
1767.35375	10602.8875
1770.56294	10558.0875
1773.77002	10570.8875
1776.97499	10564.7875
1780.17785	10511.0875
1783.37861	10492.5875
1786.57727	10515.5875
1789.77382	10468.8875
1792.96828	10481.6875
1796.16064	10440.5875
1799.3509	10438.8875
1802.53907	10459.9875
1805.72514	10420.2875
1808.90913	10403.8875
1812.09102	10406.1875
1815.27083	10362.8875
1818.44856	10360.5875
1821.6242	10352.1875
1824.79776	10348.6875
1827.96924	10318.7875
1831.13864	10311.8875
1834.30597	10319.6875
1837.47122	10324.8875
1840.6344	10302.6875
1843.7955	10294.9875
1846.95454	10309.4875
1850.11151	10314.1875
1853.26642	10303.2875
1856.41926	10323.3875
1859.57004	10319.8875
1862.71876	10300.3875
1865.86542	10326.6875
1869.01003	10304.6875
1872.15258	10282.6875
1875.29308	10318.5875
1878.43152	10290.9875
1881.56792	10277.7875
1884.70227	10294.0875
1887.83457	10291.3875
1890.96482	10279.8875
1894.09304	10265.1875
1897.21921	10241.4875
1900.34335	10274.5875
1903.46544	10250.0875
1906.58551	10258.5875
1909.70353	10266.9875
1912.81953	10257.4875
1915.93349	10241.0875
1919.04543	10241.5875
1922.15534	10208.8875
1925.26322	10219.8875
1928.36908	10191.6875
1931.47292	10180.7875
1934.57473	10137.3875
1937.67453	10095.4875
1940.77232	10105.3875
1943.86808	10043.7875
1946.96184	10034.0875
1950.05358	10018.5875
1953.14331	9970.9875
1956.23103	9934.9875
1959.31675	9928.8875
1962.40046	9891.8875
1965.48217	9847.0875
1968.56188	9852.7875
1971.63959	9815.5875
1974.7153	9766.9875
1977.78901	9755.8875
1980.86073	9717.4875
1983.93046	9703.8875
1986.99819	9668.4875
1990.06394	9649.4875
1993.1277	9617.5875
1996.18947	9572.3875
1999.24925	9565.3875
2002.30706	9531.3875
2005.36288	9513.9875
2008.41672	9514.8875
2011.46859	9458.8875
2014.51848	9444.6875
2017.56639	9403.5875
2020.61233	9383.3875
2023.6563	9375.4875
2026.6983	9362.6875
2029.73833	9330.1875
2032.7764	9292.9875
2035.8125	9287.9875
2038.84664	9282.2875
2041.87881	9248.7875
2044.90903	9256.9875
2047.93729	9204.1875
2050.96359	9202.4875
2053.98794	9211.0875
2057.01034	9182.7875
2060.03078	9172.2875
2063.04927	9180.4875
2066.06582	9176.1875
2069.08042	9188.1875
2072.09307	9177.8875
2075.10378	9148.9875
2078.11255	9138.6875
2081.11938	9142.3875
2084.12426	9124.2875
2087.12722	9146.5875
2090.12824	9122.4875
2093.12732	9141.1875
2096.12447	9156.0875
2099.11969	9137.1875
2102.11299	9141.2875
2105.10435	9134.3875
2108.09379	9141.7875
2111.08131	9154.5875
2114.0669	9163.5875
2117.05057	9157.2875
2120.03233	9170.9875
2123.01216	9161.9875
2125.99008	9186.9875
2128.96609	9171.5875
2131.94018	9192.8875
2134.91236	9221.0875
2137.88263	9198.7875
2140.851	9202.7875
2143.81746	9245.5875
2146.78201	9214.4875
2149.74466	9239.0875
2152.7054	9216.0875
2155.66425	9223.9875
2158.6212	9212.2875
2161.57625	9226.1875
2164.52941	9223.3875
2167.48067	9223.4875
2170.43004	9229.1875
2173.37752	9222.3875
2176.32311	9220.0875
2179.26681	9206.6875
2182.20863	9185.7875
2185.14856	9207.5875
2188.08661	9207.5875
2191.02278	9218.1875
2193.95707	9180.3875
2196.88948	9180.8875
2199.82001	9199.0875
2202.74867	9199.2875
2205.67545	9172.2875
2208.60037	9152.6875
2211.52341	9138.8875
2214.44458	9140.8875
2217.36388	9118.7875
2220.28132	9085.3875
2223.1969	9063.9875
2226.11061	9051.7875
2229.02246	9060.6875
2231.93245	9034.7875
2234.84058	9020.4875
2237.74686	8987.6875
2240.65128	9030.8875
2243.55385	8978.9875
2246.45456	8975.1875
2249.35343	8976.7875
2252.25044	8961.7875
2255.14561	8929.6875
2258.03893	8931.7875
2260.93041	8906.5875
2263.82004	8894.1875
2266.70783	8904.7875
2269.59378	8874.2875
2272.4779	8837.8875
2275.36017	8810.1875
2278.24061	8804.5875
2281.11922	8769.9875
2283.996	8773.8875
2286.87094	8747.2875
2289.74405	8752.3875
2292.61534	8737.4875
2295.4848	8714.5875
2298.35243	8696.5875
2301.21824	8690.2875
2304.08223	8696.8875
2306.94439	8685.1875
2309.80474	8679.6875
2312.66327	8680.0875
2315.51999	8681.9875
2318.37489	8695.7875
2321.22797	8657.4875
2324.07925	8622.8875
2326.92871	8650.1875
2329.77637	8617.3875
2332.62222	8625.3875
2335.46626	8605.4875
2338.3085	8565.9875
2341.14893	8568.9875
2343.98756	8585.9875
2346.8244	8574.5875
2349.65943	8554.5875
2352.49267	8545.6875
2355.32411	8560.6875
2358.15376	8531.8875
2360.98161	8549.0875
2363.80768	8542.7875
2366.63195	8538.4875
2369.45444	8518.9875
2372.27514	8543.9875
2375.09405	8496.4875
2377.91118	8495.0875
2380.72652	8448.0875
2383.54009	8450.6875
2386.35187	8422.5875
2389.16188	8404.1875
2391.97011	8399.1875
2394.77657	8370.2875
2397.58125	8337.2875
2400.38416	8325.8875
2403.18529	8336.5875
2405.98466	8308.4875
2408.78226	8294.6875
2411.57809	8287.3875
2414.37216	8250.9875
2417.16446	8251.4875
2419.955	8246.9875
2422.74378	8217.3875
2425.5308	8225.5875
2428.31606	8220.5875
2431.09956	8206.4875
2433.88131	8192.4875
2436.6613	8198.3875
2439.43954	8189.3875
2442.21603	8182.5875
2444.99077	8162.4875
2447.76377	8188.5875
2450.53501	8159.2875
2453.30451	8160.5875
2456.07226	8151.5875
2458.83827	8150.7875
2461.60254	8129.1875
2464.36507	8120.5875
2467.12586	8102.6875
2469.88492	8104.2875
2472.64224	8109.2875
2475.39782	8097.8875
2478.15167	8097.8875
2480.90379	8092.5875
2483.65417	8093.4875
2486.40283	8085.1875
2489.14976	8100.3875
2491.89497	8078.2875
2494.63845	8098.3875
2497.3802	8076.8875
2500.12024	8068.2875
2502.85855	8063.3875
2505.59514	8043.0875
2508.33002	8035.0875
2511.06318	8045.4875
2513.79462	8003.2875
2516.52435	8017.7875
2519.25237	7968.3875
2521.97867	7959.0875
2524.70327	7954.0875
2527.42616	7923.8875
2530.14734	7928.0875
2532.86681	7925.6875
2535.58458	7907.9875
2538.30065	7882.0875
2541.01501	7883.2875
2543.72768	7874.3875
2546.43864	7866.7875
2549.14791	7839.9875
2551.85548	7859.8875
2554.56136	7819.7875
2557.26554	7821.9875
2559.96803	7805.8875
2562.66883	7794.3875
2565.36794	7776.7875
2568.06536	7773.2875
2570.7611	7750.5875
2573.45514	7764.3875
2576.14751	7739.2875
2578.83819	7707.3875
2581.52719	7683.0875
2584.21451	7717.6875
2586.90015	7663.4875
2589.58411	7673.4875
2592.2664	7667.0875
2594.94701	7640.4875
2597.62594	7641.5875
2600.30321	7617.9875
2602.9788	7618.5875
2605.65273	7589.3875
2608.32498	7609.4875
2610.99557	7580.2875
2613.66449	7580.9875
2616.33175	7573.2875
2618.99734	7565.6875
2621.66128	7548.1875
2624.32355	7552.7875
2626.98416	7530.8875
2629.64311	7515.9875
2632.30041	7532.2875
2634.95605	7508.0875
2637.61004	7494.7875
2640.26238	7465.0875
2642.91306	7497.0875
2645.56209	7490.1875
2648.20948	7452.0875
2650.85521	7450.0875
2653.4993	7451.8875
2656.14175	7431.8875
2658.78255	7435.4875
2661.42171	7452.5875
2664.05923	7467.9875
2666.6951	7445.3875
2669.32934	7456.4875
2671.96194	7428.5875
2674.59291	7474.5875
2677.22224	7449.1875
2679.84993	7446.0875
2682.476	7454.2875
2685.10043	7432.5875
2687.72324	7433.3875
2690.34441	7434.2875
2692.96396	7420.5875
2695.58188	7457.9875
2698.19818	7459.2875
2700.81285	7437.7875
2703.4259	7441.3875
2706.03733	7490.1875
2708.64714	7442.0875
2711.25533	7447.6875
2713.86191	7423.2875
2716.46687	7438.0875
2719.07021	7443.8875
2721.67194	7427.8875
2724.27206	7439.0875
2726.87057	7442.9875
2729.46747	7438.5875
2732.06276	7435.4875
2734.65644	7405.0875
2737.24852	7423.5875
2739.83899	7395.7875
2742.42786	7399.1875
2745.01513	7395.5875
2747.60079	7399.0875
2750.18486	7369.8875
2752.76733	7373.0875
2755.3482	7360.0875
2757.92747	7367.3875
2760.50515	7349.0875
2763.08123	7341.5875
2765.65573	7313.7875
2768.22863	7323.7875
2770.79994	7317.3875
2773.36967	7303.2875
2775.9378	7280.7875
2778.50435	7271.3875
2781.06932	7270.6875
2783.6327	7267.1875
2786.1945	7249.3875
2788.75471	7244.0875
2791.31335	7229.1875
2793.87041	7205.0875
2796.42589	7210.7875
2798.97979	7200.8875
2801.53212	7164.1875
2804.08288	7160.4875
2806.63206	7158.5875
2809.17967	7147.2875
2811.72571	7133.9875
2814.27018	7129.5875
2816.81308	7132.1875
2819.35442	7111.8875
2821.89419	7097.4875
2824.43239	7090.3875
2826.96904	7090.1875
2829.50412	7104.1875
2832.03763	7080.4875
2834.56959	7067.7875
2837.1	7067.3875
2839.62884	7073.7875
2842.15613	7074.0875
2844.68186	7101.3875
2847.20604	7120.9875
2849.72867	7127.2875
2852.24974	7137.9875
2854.76927	7135.4875
2857.28724	7119.2875
2859.80367	7097.3875
2862.31855	7081.5875
2864.83189	7072.2875
2867.34368	7065.6875
2869.85393	7039.6875
2872.36264	7037.8875
2874.8698	7034.6875
2877.37543	7037.2875
2879.87952	7040.8875
2882.38207	7035.3875
2884.88308	7043.8875
2887.38256	7044.1875
2889.88051	7045.2875
2892.37692	7043.3875
2894.8718	7033.8875
2897.36515	7037.3875
2899.85698	7041.4875
2902.34727	7062.0875
2904.83604	7056.8875
2907.32328	7056.4875
2909.809	7037.8875
2912.29319	7044.9875
2914.77587	7039.8875
2917.25702	7050.9875
2919.73665	6994.0875
2922.21476	7011.1875
2924.69136	6987.0875
2927.16644	7010.7875
2929.64	6989.6875
2932.11205	6999.6875
2934.58258	6946.4875
2937.05161	6963.4875
2939.51912	6956.1875
2941.98513	6950.6875
2944.44962	6916.6875
2946.91261	6871.2875
2949.37409	6906.6875
2951.83407	6901.0875
2954.29254	6870.7875
2956.74951	6860.2875
2959.20498	6845.3875
2961.65895	6840.2875
2964.11142	6827.6875
2966.56239	6812.0875
2969.01186	6804.9875
2971.45984	6795.7875
2973.90632	6779.4875
2976.35131	6772.7875
2978.7948	6752.6875
2981.23681	6721.1875
2983.67732	6702.9875
2986.11635	6707.1875
2988.55388	6690.7875
2990.98993	6677.7875
2993.4245	6663.9875
2995.85758	6641.9875
2998.28917	6635.1875
3000.71928	6629.5875
3003.14791	6603.7875
3005.57506	6608.8875
3008.00073	6592.3875
3010.42493	6598.6875
3012.84764	6580.0875
3015.26888	6587.3875
3017.68865	6560.2875
3020.10694	6557.3875
3022.52376	6536.8875
3024.9391	6516.6875
3027.35298	6535.4875
3029.76539	6515.1875
3032.17632	6497.0875
3034.5858	6489.5875
3036.9938	6487.8875
3039.40034	6482.0875
3041.80542	6475.9875
3044.20903	6461.4875
3046.61118	6471.4875
3049.01187	6432.3875
3051.4111	6439.3875
3053.80888	6417.2875
3056.20519	6396.8875
3058.60005	6400.1875
3060.99345	6384.1875
3063.3854	6383.7875
3065.7759	6362.5875
3068.16494	6351.2875
3070.55254	6321.9875
3072.93868	6323.0875
3075.32338	6297.9875
