Data from AgNPs_FTO_APTES_UA_2uM_R6G_10uM_NaF_0.1M_Addition_RamanShift__12__11-57-37-213.txt Node

Date: Fri Dec 17 11:57:37 GMT 2021
User: TCL
Spectrometer: QEP01345
Trigger mode: 4
Integration Time (sec): 7.000000E0
Scans to average: 10
Electric dark correction enabled: true
Nonlinearity correction enabled: false
Boxcar width: 0
XAxis mode: Raman Shifts
Number of Pixels in Spectrum: 1044
>>>>>Begin Spectral Data<<<<<
46.04893	-0.525
50.45542	-2.125
54.85868	-1.625
59.25871	0.775
63.6555	115.675
68.04907	117.675
72.43941	125.875
76.82654	134.375
81.21044	138.275
85.59113	138.975
89.96862	147.475
94.34289	150.775
98.71396	160.975
103.08183	162.875
107.4465	166.775
111.80798	167.175
116.16626	173.075
120.52136	180.975
124.87327	189.075
129.222	196.675
133.56755	207.275
137.90993	224.475
142.24913	238.875
146.58517	270.375
150.91804	304.975
155.24774	365.975
159.57429	452.875
163.89768	571.075
168.21792	749.075
172.53501	1006.775
176.84895	1402.175
181.15975	1971.075
185.46741	2750.275
189.77193	3803.475
194.07331	5094.275
198.37157	6563.075
202.6667	8131.775
206.9587	9718.075
211.24758	11231.175
215.53334	12741.875
219.81599	14309.075
224.09553	16040.175
228.37195	17967.375
232.64527	20107.775
236.91549	22378.575
241.18261	24729.775
245.44663	27016.875
249.70755	29122.675
253.96539	30968.075
258.22014	32455.475
262.4718	33674.875
266.72039	34490.475
270.96589	34818.075
275.20832	34790.975
279.44768	34462.475
283.68397	34032.975
287.91719	33598.375
292.14735	33228.075
296.37445	32983.275
300.59849	32745.075
304.81948	32691.975
309.03742	32588.075
313.25231	32446.775
317.46415	32168.875
321.67296	31772.175
325.87872	31454.975
330.08145	31317.375
334.28114	31395.775
338.47781	31585.175
342.67145	31927.375
346.86207	32315.775
351.04966	32766.475
355.23424	33262.475
359.4158	33706.475
363.59435	34121.775
367.76989	34366.475
371.94243	34599.475
376.11196	34681.075
380.27849	34805.275
384.44203	34981.775
388.60257	35250.675
392.76012	35569.775
396.91468	36028.375
401.06626	36510.875
405.21485	36913.775
409.36047	36872.275
413.50311	36618.775
417.64277	36446.275
421.77947	36545.375
425.9132	36782.575
430.04396	36990.975
434.17176	37168.075
438.2966	37280.775
442.41849	37655.275
446.53742	38145.575
450.6534	38661.675
454.76644	39045.875
458.87653	39286.975
462.98368	39371.475
467.08789	39247.375
471.18916	39020.275
475.2875	38723.875
479.38291	38379.475
483.4754	38246.375
487.56496	38064.775
491.6516	37869.075
495.73531	37635.275
499.81612	37586.675
503.89401	37788.875
507.96899	37960.675
512.04106	38124.075
516.11023	38055.575
520.1765	37904.875
524.23987	37685.975
528.30034	37409.175
532.35792	37259.575
536.41261	37044.375
540.46441	36855.475
544.51333	36900.475
548.55936	37194.775
552.60252	37574.775
556.64279	38021.775
560.6802	38301.275
564.71473	38516.175
568.7464	38794.875
572.7752	39330.475
576.80114	40027.875
580.82422	40907.375
584.84444	41750.175
588.86181	42524.075
592.87633	43128.775
596.888	43095.075
600.89682	42545.275
604.9028	42886.075
608.90594	44872.875
612.90624	46701.975
616.90371	44786.475
620.89834	40579.275
624.89015	38611.475
628.87913	38387.975
632.86528	38568.475
636.84862	38597.175
640.82913	38222.075
644.80683	37588.275
648.78172	37214.675
652.75379	37137.175
656.72306	37437.975
660.68952	37837.875
664.65319	37759.475
668.61405	37453.175
672.57211	37496.975
676.52738	37599.075
680.47986	37571.575
684.42955	37442.575
688.37646	37332.975
692.32058	37481.275
696.26192	37805.475
700.20048	38130.575
704.13626	38374.875
708.06928	38385.475
711.99952	38191.275
715.927	38159.275
719.85171	38066.975
723.77365	37987.775
727.69284	37706.575
731.60928	37400.875
735.52295	37206.575
739.43388	37161.275
743.34206	37249.475
747.24749	37389.975
751.15017	37551.175
755.05012	37898.675
758.94733	38549.475
762.8418	39607.675
766.73354	41272.275
770.62254	42798.975
774.50882	43208.075
778.39237	42128.075
782.27321	40587.875
786.15132	39186.775
790.02671	38302.475
793.89938	37778.475
797.76935	37515.775
801.6366	37412.575
805.50115	37274.475
809.36299	37159.475
813.22213	37025.075
817.07857	36971.475
820.93231	36841.975
824.78336	36791.875
828.63172	36827.375
832.47738	36726.275
836.32036	36721.375
840.16066	36713.075
843.99827	36716.075
847.8332	36702.375
851.66546	36698.275
855.49504	36802.575
859.32195	36916.775
863.1462	36905.675
866.96777	36869.775
870.78668	36909.775
874.60293	36977.475
878.41652	37030.575
882.22745	37123.875
886.03573	37269.075
889.84136	37336.475
893.64433	37325.275
897.44466	37214.375
901.24235	37180.275
905.0374	37192.375
908.8298	37230.975
912.61957	37267.875
916.40671	37419.875
920.19121	37679.375
923.97308	37886.675
927.75233	37895.275
931.52895	37673.275
935.30295	37342.275
939.07433	36991.075
942.84309	36676.775
946.60924	36529.075
950.37278	36429.275
954.13371	36371.375
957.89203	36273.975
961.64774	36266.575
965.40086	36158.575
969.15137	36164.975
972.89929	36023.675
976.64461	35982.075
980.38733	35945.175
984.12747	35956.275
987.86502	36091.675
991.59999	36172.375
995.33237	36330.675
999.06217	36625.375
1002.78939	37112.675
1006.51404	37640.875
1010.23611	38145.775
1013.95561	38387.875
1017.67255	38448.075
1021.38692	38175.275
1025.09872	37844.175
1028.80796	37489.275
1032.51465	37317.375
1036.21877	37328.775
1039.92035	37404.775
1043.61937	37541.975
1047.31584	37581.775
1051.00976	37717.575
1054.70114	37830.175
1058.38998	38026.775
1062.07627	38299.675
1065.76003	38685.175
1069.44126	39016.375
1073.11995	39571.375
1076.79611	39987.075
1080.46974	40254.275
1084.14085	40315.775
1087.80943	40435.575
1091.47549	40579.875
1095.13903	40648.175
1098.80005	40472.775
1102.45857	39908.675
1106.11456	39343.275
1109.76805	38924.275
1113.41903	38865.175
1117.06751	38747.475
1120.71348	38828.275
1124.35696	39065.575
1127.99793	39283.775
1131.63641	39400.375
1135.2724	39442.575
1138.90589	39349.775
1142.5369	39333.775
1146.16542	39428.075
1149.79145	39550.175
1153.415	39662.075
1157.03607	39796.775
1160.65467	40372.275
1164.27079	41222.275
1167.88443	42429.575
1171.49561	43810.175
1175.10432	45449.975
1178.71056	47353.175
1182.31434	49453.975
1185.91565	50959.675
1189.51451	51723.675
1193.11091	51678.775
1196.70485	50866.475
1200.29634	49510.175
1203.88538	48264.575
1207.47197	47342.975
1211.05612	46686.075
1214.63782	45995.575
1218.21708	45255.575
1221.79391	44489.875
1225.36829	43876.475
1228.94024	43532.175
1232.50976	43427.975
1236.07685	43323.875
1239.6415	43273.775
1243.20374	43427.675
1246.76355	43556.375
1250.32093	43970.775
1253.8759	44450.175
1257.42845	45252.375
1260.97859	46170.475
1264.52631	47067.675
1268.07163	47873.475
1271.61453	48693.575
1275.15503	49402.675
1278.69312	50138.975
1282.22882	50794.575
1285.76211	51455.375
1289.29301	52283.775
1292.82151	53302.675
1296.34761	54467.375
1299.87133	55911.075
1303.39266	57439.375
1306.9116	59024.475
1310.42815	60403.075
1313.94233	61172.675
1317.45412	61370.375
1320.96354	61146.075
1324.47058	61184.875
1327.97525	61299.575
1331.47754	61537.975
1334.97747	61804.875
1338.47502	62259.775
1341.97022	62825.175
1345.46305	63228.475
1348.95352	63292.375
1352.44163	63114.975
1355.92738	62798.375
1359.41078	62778.375
1362.89183	62772.875
1366.37053	61550.175
1369.84688	58554.575
1373.32088	54866.075
1376.79254	52052.975
1380.26186	50567.375
1383.72883	50151.575
1387.19347	49834.075
1390.65578	49371.475
1394.11575	49011.075
1397.57339	48921.775
1401.0287	49209.975
1404.48168	49422.575
1407.93234	49451.675
1411.38068	49122.375
1414.82669	48468.475
1418.27039	47522.775
1421.71177	46456.575
1425.15083	45699.375
1428.58758	45417.275
1432.02203	45635.675
1435.45416	46162.475
1438.88399	46863.475
1442.31151	47407.875
1445.73673	47688.775
1449.15965	47860.475
1452.58027	47997.075
1455.9986	48110.875
1459.41463	48508.775
1462.82837	49097.475
1466.23982	49746.975
1469.64898	50322.375
1473.05586	50638.975
1476.46045	50648.675
1479.86276	50537.975
1483.26279	50336.575
1486.66054	50318.075
1490.05602	50511.075
1493.44922	50885.675
1496.84016	51555.475
1500.22882	52577.275
1503.61521	53660.075
1506.99934	54853.975
1510.38121	55551.975
1513.76081	55548.975
1517.13816	54758.675
1520.51324	53580.675
1523.88607	52618.275
1527.25665	52117.375
1530.62498	51854.975
1533.99105	51588.475
1537.35488	51106.375
1540.71647	50500.175
1544.07581	49659.575
1547.4329	48958.475
1550.78776	48322.175
1554.14038	47880.875
1557.49077	47665.075
1560.83892	47638.275
1564.18484	47673.375
1567.52853	47646.975
1570.86999	47841.775
1574.20922	48278.475
1577.54624	48748.375
1580.88103	48841.575
1584.2136	48967.075
1587.54395	49424.375
1590.87208	50499.775
1594.19801	52016.275
1597.52172	53607.275
1600.84321	54031.575
1604.16251	52772.875
1607.47959	50589.775
1610.79447	48158.175
1614.10715	45677.875
1617.41763	43404.975
1620.7259	41786.875
1624.03199	40829.575
1627.33587	40691.275
1630.63757	41271.775
1633.93707	42780.475
1637.23439	45220.175
1640.52951	48705.675
1643.82246	52585.575
1647.11321	55336.575
1650.40179	55584.975
1653.68819	52857.075
1656.97241	48437.275
1660.25446	43976.575
1663.53433	40601.175
1666.81203	38362.175
1670.08756	36909.975
1673.36092	35943.775
1676.63211	35335.475
1679.90115	34844.975
1683.16801	34528.875
1686.43272	34275.175
1689.69527	34088.975
1692.95567	33848.875
1696.2139	33728.875
1699.46999	33641.975
1702.72392	33563.075
1705.97571	33537.775
1709.22535	33495.875
1712.47284	33515.575
1715.71819	33445.075
1718.96139	33406.975
1722.20246	33298.675
1725.44139	33219.575
1728.67818	33064.675
1731.91284	32952.975
1735.14537	32809.575
1738.37576	32678.275
1741.60403	32594.275
1744.83017	32462.675
1748.05418	32418.975
1751.27607	32364.475
1754.49584	32301.275
1757.71349	32296.575
1760.92903	32277.175
1764.14244	32245.675
1767.35375	32234.375
1770.56294	32217.675
1773.77002	32112.475
1776.97499	32167.075
1780.17785	32094.175
1783.37861	32070.075
1786.57727	32023.875
1789.77382	31970.975
1792.96828	31904.775
1796.16064	31879.275
1799.3509	31782.675
1802.53907	31808.175
1805.72514	31658.875
1808.90913	31639.175
1812.09102	31558.775
1815.27083	31550.475
1818.44856	31497.475
1821.6242	31456.075
1824.79776	31465.175
1827.96924	31418.575
1831.13864	31411.375
1834.30597	31435.075
1837.47122	31464.475
1840.6344	31460.475
1843.7955	31448.775
1846.95454	31453.475
1850.11151	31471.075
1853.26642	31427.075
1856.41926	31401.275
1859.57004	31391.775
1862.71876	31326.875
1865.86542	31284.175
1869.01003	31250.675
1872.15258	31179.775
1875.29308	31187.775
1878.43152	31121.575
1881.56792	31076.575
1884.70227	31036.675
1887.83457	31044.475
1890.96482	30928.375
1894.09304	30861.375
1897.21921	30809.175
1900.34335	30819.475
1903.46544	30787.375
1906.58551	30763.575
1909.70353	30653.875
1912.81953	30665.475
1915.93349	30547.675
1919.04543	30530.775
1922.15534	30403.775
1925.26322	30389.475
1928.36908	30307.475
1931.47292	30260.175
1934.57473	30198.775
1937.67453	30107.575
1940.77232	30044.175
1943.86808	29958.375
1946.96184	29875.875
1950.05358	29819.775
1953.14331	29759.275
1956.23103	29639.775
1959.31675	29549.575
1962.40046	29491.075
1965.48217	29371.175
1968.56188	29340.575
1971.63959	29283.475
1974.7153	29158.275
1977.78901	29049.275
1980.86073	28976.875
1983.93046	28901.475
1986.99819	28794.975
1990.06394	28720.775
1993.1277	28607.775
1996.18947	28527.975
1999.24925	28457.975
2002.30706	28365.775
2005.36288	28277.475
2008.41672	28207.675
2011.46859	28138.975
2014.51848	28047.075
2017.56639	27982.075
2020.61233	27914.775
2023.6563	27834.875
2026.6983	27807.375
2029.73833	27728.875
2032.7764	27667.975
2035.8125	27606.175
2038.84664	27570.575
2041.87881	27528.675
2044.90903	27490.575
2047.93729	27472.975
2050.96359	27397.075
2053.98794	27367.175
2057.01034	27376.575
2060.03078	27305.275
2063.04927	27299.875
2066.06582	27320.875
2069.08042	27272.975
2072.09307	27289.075
2075.10378	27260.075
2078.11255	27231.175
2081.11938	27214.575
2084.12426	27162.175
2087.12722	27176.075
2090.12824	27180.675
2093.12732	27195.975
2096.12447	27193.375
2099.11969	27212.775
2102.11299	27201.375
2105.10435	27201.275
2108.09379	27233.175
2111.08131	27241.875
2114.0669	27257.075
2117.05057	27280.675
2120.03233	27296.275
2123.01216	27297.075
2125.99008	27339.675
2128.96609	27321.275
2131.94018	27352.475
2134.91236	27347.475
2137.88263	27352.175
2140.851	27344.275
2143.81746	27372.575
2146.78201	27401.375
2149.74466	27364.175
2152.7054	27371.475
2155.66425	27372.375
2158.6212	27374.075
2161.57625	27337.775
2164.52941	27396.575
2167.48067	27355.675
2170.43004	27338.575
2173.37752	27326.075
2176.32311	27338.375
2179.26681	27336.275
2182.20863	27287.475
2185.14856	27307.675
2188.08661	27266.975
2191.02278	27284.275
2193.95707	27230.975
2196.88948	27284.975
2199.82001	27253.975
2202.74867	27179.775
2205.67545	27178.275
2208.60037	27105.575
2211.52341	27110.475
2214.44458	27061.975
2217.36388	26943.975
2220.28132	26910.975
2223.1969	26867.475
2226.11061	26834.875
2229.02246	26782.175
2231.93245	26752.475
2234.84058	26719.375
2237.74686	26705.475
2240.65128	26642.075
2243.55385	26581.575
2246.45456	26559.275
2249.35343	26505.775
2252.25044	26501.675
2255.14561	26417.575
2258.03893	26437.375
2260.93041	26335.675
2263.82004	26310.275
2266.70783	26229.675
2269.59378	26210.175
2272.4779	26153.275
2275.36017	26083.875
2278.24061	26030.775
2281.11922	25960.475
2283.996	25937.075
2286.87094	25880.575
2289.74405	25852.775
2292.61534	25824.775
2295.4848	25798.175
2298.35243	25773.775
2301.21824	25746.175
2304.08223	25792.275
2306.94439	25731.075
2309.80474	25692.075
2312.66327	25704.075
2315.51999	25657.075
2318.37489	25640.575
2321.22797	25633.875
2324.07925	25589.275
2326.92871	25547.175
2329.77637	25440.175
2332.62222	25464.975
2335.46626	25411.675
2338.3085	25372.575
2341.14893	25390.175
2343.98756	25368.875
2346.8244	25350.775
2349.65943	25331.875
2352.49267	25287.375
2355.32411	25267.975
2358.15376	25227.475
2360.98161	25236.775
2363.80768	25201.475
2366.63195	25197.875
2369.45444	25146.875
2372.27514	25160.175
2375.09405	25086.475
2377.91118	25079.675
2380.72652	25013.975
2383.54009	24981.975
2386.35187	24974.175
2389.16188	24867.975
2391.97011	24846.875
2394.77657	24785.675
2397.58125	24751.075
2400.38416	24715.175
2403.18529	24623.075
2405.98466	24629.175
2408.78226	24613.875
2411.57809	24564.075
2414.37216	24541.075
2417.16446	24482.675
2419.955	24517.375
2422.74378	24501.075
2425.5308	24478.375
2428.31606	24437.775
2431.09956	24391.375
2433.88131	24346.975
2436.6613	24403.175
2439.43954	24366.075
2442.21603	24335.775
2444.99077	24326.975
2447.76377	24329.275
2450.53501	24333.075
2453.30451	24253.275
2456.07226	24266.475
2458.83827	24221.475
2461.60254	24186.775
2464.36507	24189.075
2467.12586	24145.975
2469.88492	24104.975
2472.64224	24153.875
2475.39782	24108.375
2478.15167	24073.875
2480.90379	24031.775
2483.65417	24077.975
2486.40283	24040.275
2489.14976	24009.875
2491.89497	23970.675
2494.63845	23991.975
2497.3802	23968.975
2500.12024	23962.375
2502.85855	23918.575
2505.59514	23923.675
2508.33002	23903.375
2511.06318	23853.775
2513.79462	23814.375
2516.52435	23796.775
2519.25237	23799.975
2521.97867	23793.775
2524.70327	23793.475
2527.42616	23716.275
2530.14734	23728.875
2532.86681	23674.875
2535.58458	23674.375
2538.30065	23646.775
2541.01501	23609.175
2543.72768	23556.575
2546.43864	23524.375
2549.14791	23463.875
2551.85548	23454.475
2554.56136	23415.875
2557.26554	23426.875
2559.96803	23338.575
2562.66883	23312.075
2565.36794	23294.075
2568.06536	23267.175
2570.7611	23229.275
2573.45514	23207.275
2576.14751	23168.075
2578.83819	23089.375
2581.52719	23076.075
2584.21451	23037.775
2586.90015	23033.775
2589.58411	22974.175
2592.2664	22984.775
2594.94701	22881.975
2597.62594	22899.875
2600.30321	22826.575
2602.9788	22839.675
2605.65273	22792.175
2608.32498	22789.375
2610.99557	22728.575
2613.66449	22740.275
2616.33175	22656.175
2618.99734	22692.075
2621.66128	22634.275
2624.32355	22597.375
2626.98416	22543.175
2629.64311	22551.575
2632.30041	22567.375
2634.95605	22524.875
2637.61004	22496.275
2640.26238	22445.275
2642.91306	22441.375
2645.56209	22422.275
2648.20948	22416.175
2650.85521	22418.175
2653.4993	22427.375
2656.14175	22413.475
2658.78255	22417.875
2661.42171	22383.075
2664.05923	22439.675
2666.6951	22373.675
2669.32934	22391.475
2671.96194	22389.575
2674.59291	22375.275
2677.22224	22362.875
2679.84993	22383.175
2682.476	22364.075
2685.10043	22402.575
2687.72324	22349.975
2690.34441	22345.775
2692.96396	22350.275
2695.58188	22356.175
2698.19818	22355.275
2700.81285	22347.675
2703.4259	22343.275
2706.03733	22324.375
2708.64714	22327.975
2711.25533	22371.275
2713.86191	22298.475
2716.46687	22378.075
2719.07021	22288.775
2721.67194	22336.175
2724.27206	22291.875
2726.87057	22296.875
2729.46747	22272.875
2732.06276	22308.375
2734.65644	22290.975
2737.24852	22270.875
2739.83899	22228.075
2742.42786	22263.975
2745.01513	22224.975
2747.60079	22210.675
2750.18486	22212.575
2752.76733	22179.575
2755.3482	22147.575
2757.92747	22148.575
2760.50515	22092.875
2763.08123	22073.975
2765.65573	22044.875
2768.22863	22020.075
2770.79994	21962.275
2773.36967	22010.875
2775.9378	21944.875
2778.50435	21931.875
2781.06932	21889.675
2783.6327	21846.575
2786.1945	21830.575
2788.75471	21824.975
2791.31335	21732.775
2793.87041	21701.975
2796.42589	21673.375
2798.97979	21637.875
2801.53212	21622.575
2804.08288	21585.775
2806.63206	21477.575
2809.17967	21454.775
2811.72571	21375.675
2814.27018	21368.375
2816.81308	21347.875
2819.35442	21312.675
2821.89419	21225.175
2824.43239	21236.575
2826.96904	21232.675
2829.50412	21210.875
2832.03763	21118.575
2834.56959	21101.975
2837.1	21090.975
2839.62884	21095.875
2842.15613	21036.875
2844.68186	21033.575
2847.20604	21014.475
2849.72867	20999.875
2852.24974	20938.775
2854.76927	20940.575
2857.28724	20921.875
2859.80367	20892.975
2862.31855	20884.175
2864.83189	20884.775
2867.34368	20836.075
2869.85393	20811.775
2872.36264	20811.875
2874.8698	20772.175
2877.37543	20798.075
2879.87952	20784.875
2882.38207	20795.575
2884.88308	20790.775
2887.38256	20794.075
2889.88051	20804.475
2892.37692	20808.375
2894.8718	20738.575
2897.36515	20764.475
2899.85698	20783.475
2902.34727	20813.075
2904.83604	20791.275
2907.32328	20809.275
2909.809	20795.575
2912.29319	20829.775
2914.77587	20778.075
2917.25702	20775.575
2919.73665	20742.575
2922.21476	20739.875
2924.69136	20728.375
2927.16644	20694.575
2929.64	20678.075
2932.11205	20663.575
2934.58258	20606.275
2937.05161	20644.075
2939.51912	20608.275
2941.98513	20620.575
2944.44962	20561.575
2946.91261	20492.975
2949.37409	20541.575
2951.83407	20481.475
2954.29254	20492.975
2956.74951	20460.675
2959.20498	20433.375
2961.65895	20377.175
2964.11142	20383.775
2966.56239	20292.975
2969.01186	20317.775
2971.45984	20253.875
2973.90632	20240.575
2976.35131	20218.575
2978.7948	20187.475
2981.23681	20144.875
2983.67732	20085.675
2986.11635	20053.975
2988.55388	19962.875
2990.98993	19977.375
2993.4245	19913.475
2995.85758	19907.675
2998.28917	19852.775
3000.71928	19805.375
3003.14791	19790.775
3005.57506	19759.175
3008.00073	19694.275
3010.42493	19692.775
3012.84764	19646.775
3015.26888	19651.775
3017.68865	19612.475
3020.10694	19559.675
3022.52376	19508.775
3024.9391	19478.475
3027.35298	19457.775
3029.76539	19412.875
3032.17632	19366.775
3034.5858	19373.975
3036.9938	19311.875
3039.40034	19318.975
3041.80542	19289.475
3044.20903	19198.375
3046.61118	19239.275
3049.01187	19160.875
3051.4111	19147.575
3053.80888	19097.775
3056.20519	19084.475
3058.60005	19000.975
3060.99345	18996.775
3063.3854	18972.675
3065.7759	18933.275
3068.16494	18857.675
3070.55254	18826.075
3072.93868	18765.375
3075.32338	18759.275
3077.70662	18749.175
3080.08842	18682.775
3082.46878	18676.175
3084.84769	18653.275
3087.22515	18653.175
3089.60118	18615.375
3091.97576	18555.075
3094.3489	18594.175
3096.72061	18572.675
3099.09087	18542.375
3101.4597	18533.375
3103.82709	18524.875
3106.19305	18463.975
3108.55757	18424.875
3110.92066	18345.375
3113.28232	18368.975
3115.64255	18304.875
3118.00134	18289.875
3120.35871	18273.275
3122.71466	18198.675
3125.06917	18152.875
3127.42226	18105.175
