Data from AgNPs_FTO_APTES_UA_200uM_R6G_10uM_NaF_0.1M_Addition_RamanShift__29__16-34-07-528.txt Node

Date: Fri Dec 17 16:34:07 GMT 2021
User: TCL
Spectrometer: QEP01345
Trigger mode: 4
Integration Time (sec): 7.000000E0
Scans to average: 10
Electric dark correction enabled: true
Nonlinearity correction enabled: false
Boxcar width: 0
XAxis mode: Raman Shifts
Number of Pixels in Spectrum: 1044
>>>>>Begin Spectral Data<<<<<
46.04893	-0.6375
50.45542	0.5625
54.85868	0.1625
59.25871	-0.2375
63.6555	36.4625
68.04907	37.9625
72.43941	43.7625
76.82654	43.2625
81.21044	44.2625
85.59113	49.5625
89.96862	51.6625
94.34289	54.3625
98.71396	56.2625
103.08183	55.8625
107.4465	56.7625
111.80798	58.1625
116.16626	60.6625
120.52136	57.3625
124.87327	64.7625
129.222	63.2625
133.56755	62.7625
137.90993	69.0625
142.24913	73.3625
146.58517	77.6625
150.91804	89.7625
155.24774	99.5625
159.57429	119.0625
163.89768	150.1625
168.21792	195.0625
172.53501	257.1625
176.84895	349.0625
181.15975	485.7625
185.46741	679.7625
189.77193	939.5625
194.07331	1249.1625
198.37157	1612.2625
202.6667	1994.1625
206.9587	2360.2625
211.24758	2729.6625
215.53334	3103.8625
219.81599	3477.0625
224.09553	3936.8625
228.37195	4407.1625
232.64527	4932.2625
236.91549	5482.4625
241.18261	6035.6625
245.44663	6531.2625
249.70755	6964.4625
253.96539	7331.6625
258.22014	7676.5625
262.4718	7946.0625
266.72039	8100.4625
270.96589	8231.7625
275.20832	8239.1625
279.44768	8139.8625
283.68397	8026.7625
287.91719	7909.9625
292.14735	7833.9625
296.37445	7855.2625
300.59849	7980.3625
304.81948	8106.1625
309.03742	8194.6625
313.25231	8129.9625
317.46415	7900.3625
321.67296	7530.4625
325.87872	7271.6625
330.08145	7167.8625
334.28114	7166.8625
338.47781	7242.0625
342.67145	7368.6625
346.86207	7560.2625
351.04966	7826.8625
355.23424	8102.9625
359.4158	8361.0625
363.59435	8535.0625
367.76989	8648.0625
371.94243	8709.1625
376.11196	8771.7625
380.27849	8789.4625
384.44203	8807.3625
388.60257	8769.9625
392.76012	8726.2625
396.91468	8791.3625
401.06626	8924.2625
405.21485	9042.7625
409.36047	8972.0625
413.50311	8727.1625
417.64277	8447.4625
421.77947	8272.5625
425.9132	8202.1625
430.04396	8155.5625
434.17176	8190.9625
438.2966	8237.3625
442.41849	8336.3625
446.53742	8447.3625
450.6534	8557.5625
454.76644	8622.7625
458.87653	8637.6625
462.98368	8615.0625
467.08789	8587.7625
471.18916	8530.5625
475.2875	8482.4625
479.38291	8393.7625
483.4754	8366.4625
487.56496	8325.3625
491.6516	8343.0625
495.73531	8347.9625
499.81612	8353.4625
503.89401	8365.3625
507.96899	8420.5625
512.04106	8480.4625
516.11023	8598.4625
520.1765	8686.1625
524.23987	8718.6625
528.30034	8642.3625
532.35792	8562.5625
536.41261	8456.1625
540.46441	8316.5625
544.51333	8247.9625
548.55936	8222.3625
552.60252	8257.0625
556.64279	8337.6625
560.6802	8366.3625
564.71473	8390.8625
568.7464	8504.6625
572.7752	8582.9625
576.80114	8489.8625
580.82422	8360.4625
584.84444	8315.7625
588.86181	8332.3625
592.87633	8326.3625
596.888	8336.6625
600.89682	8488.3625
604.9028	9044.7625
608.90594	10513.7625
612.90624	12472.4625
616.90371	12316.3625
620.89834	9982.0625
624.89015	8919.9625
628.87913	8755.8625
632.86528	8909.4625
636.84862	9041.1625
640.82913	8968.8625
644.80683	8665.7625
648.78172	8389.5625
652.75379	8294.7625
656.72306	8365.0625
660.68952	8518.5625
664.65319	8490.3625
668.61405	8245.9625
672.57211	8120.6625
676.52738	8109.9625
680.47986	8093.8625
684.42955	8058.4625
688.37646	8036.5625
692.32058	8056.0625
696.26192	8091.0625
700.20048	8133.9625
704.13626	8151.8625
708.06928	8168.2625
711.99952	8095.5625
715.927	8075.5625
719.85171	8088.6625
723.77365	8107.2625
727.69284	8083.6625
731.60928	8034.2625
735.52295	7993.4625
739.43388	8013.7625
743.34206	8006.8625
747.24749	7982.6625
751.15017	8013.7625
755.05012	8069.6625
758.94733	8222.3625
762.8418	8614.7625
766.73354	9375.9625
770.62254	10264.5625
774.50882	10892.9625
778.39237	10636.1625
782.27321	9714.3625
786.15132	8812.6625
790.02671	8271.2625
793.89938	8060.8625
797.76935	7990.5625
801.6366	7997.8625
805.50115	8038.9625
809.36299	8115.7625
813.22213	8133.7625
817.07857	8084.0625
820.93231	8021.2625
824.78336	7922.9625
828.63172	7829.8625
832.47738	7810.4625
836.32036	7772.9625
840.16066	7736.9625
843.99827	7718.1625
847.8332	7701.0625
851.66546	7686.6625
855.49504	7686.3625
859.32195	7653.7625
863.1462	7651.6625
866.96777	7653.5625
870.78668	7674.4625
874.60293	7714.6625
878.41652	7777.0625
882.22745	7849.8625
886.03573	7931.9625
889.84136	7919.4625
893.64433	7836.2625
897.44466	7763.1625
901.24235	7669.3625
905.0374	7602.5625
908.8298	7522.9625
912.61957	7495.0625
916.40671	7485.0625
920.19121	7487.7625
923.97308	7486.3625
927.75233	7540.2625
931.52895	7526.8625
935.30295	7528.2625
939.07433	7436.0625
942.84309	7334.0625
946.60924	7247.8625
950.37278	7213.2625
954.13371	7175.1625
957.89203	7147.0625
961.64774	7133.1625
965.40086	7101.7625
969.15137	7071.0625
972.89929	7062.3625
976.64461	7039.3625
980.38733	7039.8625
984.12747	7045.1625
987.86502	7053.2625
991.59999	7041.0625
995.33237	7075.9625
999.06217	7139.1625
1002.78939	7200.4625
1006.51404	7305.7625
1010.23611	7411.8625
1013.95561	7504.7625
1017.67255	7503.6625
1021.38692	7479.5625
1025.09872	7377.5625
1028.80796	7318.9625
1032.51465	7267.3625
1036.21877	7245.9625
1039.92035	7249.1625
1043.61937	7255.7625
1047.31584	7252.1625
1051.00976	7230.1625
1054.70114	7231.8625
1058.38998	7258.1625
1062.07627	7285.2625
1065.76003	7332.9625
1069.44126	7355.0625
1073.11995	7427.9625
1076.79611	7466.9625
1080.46974	7471.9625
1084.14085	7499.8625
1087.80943	7566.5625
1091.47549	7596.0625
1095.13903	7517.7625
1098.80005	7403.3625
1102.45857	7265.5625
1106.11456	7231.6625
1109.76805	7229.0625
1113.41903	7325.7625
1117.06751	7460.0625
1120.71348	7688.0625
1124.35696	7895.4625
1127.99793	8124.0625
1131.63641	8262.0625
1135.2724	8131.1625
1138.90589	7940.8625
1142.5369	7759.1625
1146.16542	7581.4625
1149.79145	7412.5625
1153.415	7254.8625
1157.03607	7230.2625
1160.65467	7236.2625
1164.27079	7325.6625
1167.88443	7499.5625
1171.49561	7767.6625
1175.10432	8282.5625
1178.71056	9018.0625
1182.31434	9673.3625
1185.91565	9895.3625
1189.51451	9767.8625
1193.11091	9341.4625
1196.70485	8895.3625
1200.29634	8608.1625
1203.88538	8439.3625
1207.47197	8172.2625
1211.05612	7874.8625
1214.63782	7621.9625
1218.21708	7450.5625
1221.79391	7354.9625
1225.36829	7312.8625
1228.94024	7299.6625
1232.50976	7300.4625
1236.07685	7306.5625
1239.6415	7326.7625
1243.20374	7363.8625
1246.76355	7384.5625
1250.32093	7422.5625
1253.8759	7476.4625
1257.42845	7569.1625
1260.97859	7660.3625
1264.52631	7763.9625
1268.07163	7842.1625
1271.61453	7962.2625
1275.15503	8014.1625
1278.69312	8057.3625
1282.22882	8038.1625
1285.76211	8078.1625
1289.29301	8202.6625
1292.82151	8363.9625
1296.34761	8546.5625
1299.87133	8821.7625
1303.39266	9292.9625
1306.9116	9989.4625
1310.42815	10787.1625
1313.94233	11243.6625
1317.45412	11059.8625
1320.96354	10479.8625
1324.47058	9836.2625
1327.97525	9262.0625
1331.47754	8883.1625
1334.97747	8723.8625
1338.47502	8725.9625
1341.97022	8869.0625
1345.46305	9163.8625
1348.95352	9640.3625
1352.44163	10264.1625
1355.92738	11135.7625
1359.41078	12395.4625
1362.89183	13712.9625
1366.37053	13719.8625
1369.84688	12140.7625
1373.32088	10357.5625
1376.79254	9194.1625
1380.26186	8542.2625
1383.72883	8216.6625
1387.19347	7987.4625
1390.65578	7734.3625
1394.11575	7516.4625
1397.57339	7347.1625
1401.0287	7270.4625
1404.48168	7229.3625
1407.93234	7219.5625
1411.38068	7237.7625
1414.82669	7233.8625
1418.27039	7219.3625
1421.71177	7157.3625
1425.15083	7119.0625
1428.58758	7056.1625
1432.02203	7019.4625
1435.45416	7021.8625
1438.88399	7033.2625
1442.31151	7013.9625
1445.73673	7033.3625
1449.15965	7046.4625
1452.58027	7011.1625
1455.9986	6967.0625
1459.41463	6944.0625
1462.82837	6978.9625
1466.23982	7030.1625
1469.64898	7147.2625
1473.05586	7231.9625
1476.46045	7311.4625
1479.86276	7411.0625
1483.26279	7548.9625
1486.66054	7716.8625
1490.05602	7951.6625
1493.44922	8267.7625
1496.84016	8733.8625
1500.22882	9450.3625
1503.61521	10407.8625
1506.99934	11552.6625
1510.38121	12540.4625
1513.76081	12893.2625
1517.13816	12307.1625
1520.51324	11061.5625
1523.88607	9794.6625
1527.25665	8870.7625
1530.62498	8379.0625
1533.99105	8103.8625
1537.35488	7942.7625
1540.71647	7881.7625
1544.07581	7871.7625
1547.4329	7881.0625
1550.78776	7920.8625
1554.14038	7962.3625
1557.49077	7995.1625
1560.83892	8084.2625
1564.18484	8204.8625
1567.52853	8393.8625
1570.86999	8594.7625
1574.20922	8727.0625
1577.54624	8764.1625
1580.88103	8483.9625
1584.2136	8010.7625
1587.54395	7669.2625
1590.87208	7554.5625
1594.19801	7687.3625
1597.52172	7965.4625
1600.84321	8164.3625
1604.16251	8034.0625
1607.47959	7787.1625
1610.79447	7531.5625
1614.10715	7257.4625
1617.41763	7022.7625
1620.7259	6877.3625
1624.03199	6769.1625
1627.33587	6762.6625
1630.63757	6795.6625
1633.93707	6890.7625
1637.23439	7128.5625
1640.52951	7424.0625
1643.82246	7928.2625
1647.11321	8618.0625
1650.40179	9301.6625
1653.68819	9399.7625
1656.97241	8732.7625
1660.25446	7829.8625
1663.53433	7118.3625
1666.81203	6688.0625
1670.08756	6428.4625
1673.36092	6269.3625
1676.63211	6129.7625
1679.90115	6035.2625
1683.16801	5983.2625
1686.43272	5924.2625
1689.69527	5893.2625
1692.95567	5875.8625
1696.2139	5858.5625
1699.46999	5865.8625
1702.72392	5827.2625
1705.97571	5778.6625
1709.22535	5735.3625
1712.47284	5688.5625
1715.71819	5677.6625
1718.96139	5636.5625
1722.20246	5624.4625
1725.44139	5592.4625
1728.67818	5572.5625
1731.91284	5537.1625
1735.14537	5500.6625
1738.37576	5484.7625
1741.60403	5446.8625
1744.83017	5429.4625
1748.05418	5439.3625
1751.27607	5424.1625
1754.49584	5423.7625
1757.71349	5405.6625
1760.92903	5401.8625
1764.14244	5408.5625
1767.35375	5401.1625
1770.56294	5379.4625
1773.77002	5373.3625
1776.97499	5332.6625
1780.17785	5327.7625
1783.37861	5284.2625
1786.57727	5291.9625
1789.77382	5258.3625
1792.96828	5261.0625
1796.16064	5236.9625
1799.3509	5246.9625
1802.53907	5233.1625
1805.72514	5206.4625
1808.90913	5204.6625
1812.09102	5177.8625
1815.27083	5158.3625
1818.44856	5157.6625
1821.6242	5150.2625
1824.79776	5113.2625
1827.96924	5114.7625
1831.13864	5111.7625
1834.30597	5098.8625
1837.47122	5094.8625
1840.6344	5093.2625
1843.7955	5096.1625
1846.95454	5087.6625
1850.11151	5067.2625
1853.26642	5049.2625
1856.41926	5061.2625
1859.57004	5041.0625
1862.71876	5040.2625
1865.86542	5060.9625
1869.01003	5054.4625
1872.15258	5018.5625
1875.29308	5022.0625
1878.43152	5032.4625
1881.56792	5022.5625
1884.70227	5019.5625
1887.83457	4998.9625
1890.96482	4982.4625
1894.09304	4981.6625
1897.21921	4968.1625
1900.34335	4969.9625
1903.46544	4971.5625
1906.58551	4966.1625
1909.70353	4937.0625
1912.81953	4936.6625
1915.93349	4927.8625
1919.04543	4922.2625
1922.15534	4895.5625
1925.26322	4906.9625
1928.36908	4907.4625
1931.47292	4872.4625
1934.57473	4866.2625
1937.67453	4854.9625
1940.77232	4840.5625
1943.86808	4809.3625
1946.96184	4825.0625
1950.05358	4809.9625
1953.14331	4792.2625
1956.23103	4792.3625
1959.31675	4769.3625
1962.40046	4751.4625
1965.48217	4753.5625
1968.56188	4718.3625
1971.63959	4725.2625
1974.7153	4700.4625
1977.78901	4666.4625
1980.86073	4645.2625
1983.93046	4639.4625
1986.99819	4607.5625
1990.06394	4606.3625
1993.1277	4602.7625
1996.18947	4568.7625
1999.24925	4562.3625
2002.30706	4550.3625
2005.36288	4527.7625
2008.41672	4530.1625
2011.46859	4502.9625
2014.51848	4495.5625
2017.56639	4480.0625
2020.61233	4466.7625
2023.6563	4460.1625
2026.6983	4441.3625
2029.73833	4446.5625
2032.7764	4408.2625
2035.8125	4415.0625
2038.84664	4395.2625
2041.87881	4399.3625
2044.90903	4382.9625
2047.93729	4370.0625
2050.96359	4362.6625
2053.98794	4343.5625
2057.01034	4340.3625
2060.03078	4333.7625
2063.04927	4335.7625
2066.06582	4331.0625
2069.08042	4322.3625
2072.09307	4318.6625
2075.10378	4311.8625
2078.11255	4307.3625
2081.11938	4309.6625
2084.12426	4307.8625
2087.12722	4307.7625
2090.12824	4304.0625
2093.12732	4309.8625
2096.12447	4313.1625
2099.11969	4307.8625
2102.11299	4306.5625
2105.10435	4289.5625
2108.09379	4291.7625
2111.08131	4304.5625
2114.0669	4302.2625
2117.05057	4301.9625
2120.03233	4308.3625
2123.01216	4304.1625
2125.99008	4305.2625
2128.96609	4310.4625
2131.94018	4311.2625
2134.91236	4322.8625
2137.88263	4312.2625
2140.851	4307.4625
2143.81746	4326.4625
2146.78201	4323.1625
2149.74466	4302.2625
2152.7054	4309.3625
2155.66425	4305.5625
2158.6212	4298.9625
2161.57625	4315.3625
2164.52941	4296.8625
2167.48067	4282.9625
2170.43004	4281.2625
2173.37752	4270.7625
2176.32311	4276.4625
2179.26681	4271.3625
2182.20863	4259.9625
2185.14856	4268.9625
2188.08661	4277.0625
2191.02278	4270.3625
2193.95707	4250.3625
2196.88948	4259.5625
2199.82001	4252.0625
2202.74867	4231.4625
2205.67545	4247.0625
2208.60037	4234.4625
2211.52341	4215.2625
2214.44458	4210.4625
2217.36388	4203.9625
2220.28132	4189.5625
2223.1969	4176.6625
2226.11061	4176.2625
2229.02246	4153.8625
2231.93245	4159.7625
2234.84058	4146.2625
2237.74686	4142.8625
2240.65128	4137.2625
2243.55385	4133.4625
2246.45456	4121.2625
2249.35343	4107.2625
2252.25044	4115.6625
2255.14561	4109.0625
2258.03893	4097.3625
2260.93041	4098.2625
2263.82004	4080.3625
2266.70783	4085.8625
2269.59378	4070.6625
2272.4779	4064.5625
2275.36017	4043.4625
2278.24061	4029.2625
2281.11922	4031.6625
2283.996	4034.5625
2286.87094	4003.1625
2289.74405	3986.1625
2292.61534	3969.2625
2295.4848	3984.5625
2298.35243	3959.1625
2301.21824	3973.4625
2304.08223	3977.6625
2306.94439	3969.0625
2309.80474	3949.6625
2312.66327	3954.6625
2315.51999	3949.6625
2318.37489	3936.4625
2321.22797	3945.1625
2324.07925	3943.4625
2326.92871	3927.3625
2329.77637	3931.2625
2332.62222	3901.5625
2335.46626	3898.7625
2338.3085	3891.7625
2341.14893	3882.8625
2343.98756	3874.9625
2346.8244	3872.7625
2349.65943	3889.7625
2352.49267	3877.0625
2355.32411	3871.2625
2358.15376	3878.3625
2360.98161	3865.4625
2363.80768	3873.4625
2366.63195	3870.5625
2369.45444	3859.1625
2372.27514	3868.6625
2375.09405	3855.5625
2377.91118	3848.9625
2380.72652	3836.7625
2383.54009	3831.9625
2386.35187	3831.5625
2389.16188	3809.9625
2391.97011	3784.8625
2394.77657	3784.0625
2397.58125	3775.0625
2400.38416	3755.2625
2403.18529	3757.8625
2405.98466	3749.0625
2408.78226	3749.7625
2411.57809	3738.3625
2414.37216	3732.3625
2417.16446	3737.7625
2419.955	3710.0625
2422.74378	3704.9625
2425.5308	3701.9625
2428.31606	3688.9625
2431.09956	3692.2625
2433.88131	3698.9625
2436.6613	3685.2625
2439.43954	3672.5625
2442.21603	3690.5625
2444.99077	3676.7625
2447.76377	3672.2625
2450.53501	3666.6625
2453.30451	3674.9625
2456.07226	3663.7625
2458.83827	3653.8625
2461.60254	3648.2625
2464.36507	3657.8625
2467.12586	3647.8625
2469.88492	3645.9625
2472.64224	3631.1625
2475.39782	3637.4625
2478.15167	3635.8625
2480.90379	3642.5625
2483.65417	3641.2625
2486.40283	3625.6625
2489.14976	3629.1625
2491.89497	3627.5625
2494.63845	3643.0625
2497.3802	3636.8625
2500.12024	3618.4625
2502.85855	3612.1625
2505.59514	3602.9625
2508.33002	3579.8625
2511.06318	3588.8625
2513.79462	3567.7625
2516.52435	3564.7625
2519.25237	3553.0625
2521.97867	3536.9625
2524.70327	3536.3625
2527.42616	3541.7625
2530.14734	3519.2625
2532.86681	3507.0625
2535.58458	3515.8625
2538.30065	3507.7625
2541.01501	3488.6625
2543.72768	3487.7625
2546.43864	3480.8625
2549.14791	3482.1625
2551.85548	3472.1625
2554.56136	3480.5625
2557.26554	3462.8625
2559.96803	3453.8625
2562.66883	3454.6625
2565.36794	3443.2625
2568.06536	3441.2625
2570.7611	3425.7625
2573.45514	3437.9625
2576.14751	3419.5625
2578.83819	3411.9625
2581.52719	3404.5625
2584.21451	3397.5625
2586.90015	3391.4625
2589.58411	3379.9625
2592.2664	3376.4625
2594.94701	3374.6625
2597.62594	3343.8625
2600.30321	3341.2625
2602.9788	3359.6625
2605.65273	3342.3625
2608.32498	3341.8625
2610.99557	3339.7625
2613.66449	3329.6625
2616.33175	3336.7625
2618.99734	3323.9625
2621.66128	3317.3625
2624.32355	3311.5625
2626.98416	3291.8625
2629.64311	3304.9625
2632.30041	3290.8625
2634.95605	3305.4625
2637.61004	3281.4625
2640.26238	3278.6625
2642.91306	3275.4625
2645.56209	3269.5625
2648.20948	3281.2625
2650.85521	3264.6625
2653.4993	3255.0625
2656.14175	3257.0625
2658.78255	3275.0625
2661.42171	3249.6625
2664.05923	3267.5625
2666.6951	3253.3625
2669.32934	3252.2625
2671.96194	3254.4625
2674.59291	3263.0625
2677.22224	3251.0625
2679.84993	3247.1625
2682.476	3236.2625
2685.10043	3261.6625
2687.72324	3250.8625
2690.34441	3244.6625
2692.96396	3255.1625
2695.58188	3256.1625
2698.19818	3240.3625
2700.81285	3245.6625
2703.4259	3260.3625
2706.03733	3273.9625
2708.64714	3259.8625
2711.25533	3254.7625
2713.86191	3254.1625
2716.46687	3233.8625
2719.07021	3253.1625
2721.67194	3245.9625
2724.27206	3239.3625
2726.87057	3243.0625
2729.46747	3233.7625
2732.06276	3224.1625
2734.65644	3214.9625
2737.24852	3236.0625
2739.83899	3212.4625
2742.42786	3212.4625
2745.01513	3218.6625
2747.60079	3203.2625
2750.18486	3212.2625
2752.76733	3208.2625
2755.3482	3184.4625
2757.92747	3189.5625
2760.50515	3194.3625
2763.08123	3180.0625
2765.65573	3160.1625
2768.22863	3164.8625
2770.79994	3151.6625
2773.36967	3172.5625
2775.9378	3152.8625
2778.50435	3153.6625
2781.06932	3143.7625
2783.6327	3149.8625
2786.1945	3146.4625
2788.75471	3146.1625
2791.31335	3136.4625
2793.87041	3134.0625
2796.42589	3110.4625
2798.97979	3132.5625
2801.53212	3107.3625
2804.08288	3104.2625
2806.63206	3085.4625
2809.17967	3089.3625
2811.72571	3081.5625
2814.27018	3094.0625
2816.81308	3082.5625
2819.35442	3088.1625
2821.89419	3084.0625
2824.43239	3089.1625
2826.96904	3075.8625
2829.50412	3087.4625
2832.03763	3078.9625
2834.56959	3073.1625
2837.1	3077.3625
2839.62884	3086.7625
2842.15613	3080.3625
2844.68186	3088.9625
2847.20604	3095.1625
2849.72867	3100.2625
2852.24974	3102.8625
2854.76927	3102.0625
2857.28724	3112.4625
2859.80367	3104.8625
2862.31855	3095.0625
2864.83189	3102.8625
2867.34368	3097.9625
2869.85393	3094.0625
2872.36264	3088.7625
2874.8698	3080.6625
2877.37543	3086.2625
2879.87952	3083.1625
2882.38207	3087.9625
2884.88308	3076.4625
2887.38256	3088.4625
2889.88051	3081.2625
2892.37692	3084.4625
2894.8718	3078.6625
2897.36515	3066.4625
2899.85698	3068.0625
2902.34727	3077.3625
2904.83604	3089.5625
2907.32328	3087.6625
2909.809	3084.9625
2912.29319	3080.9625
2914.77587	3086.6625
2917.25702	3082.9625
2919.73665	3079.7625
2922.21476	3069.4625
2924.69136	3078.4625
2927.16644	3056.4625
2929.64	3061.0625
2932.11205	3073.1625
2934.58258	3049.4625
2937.05161	3053.2625
2939.51912	3048.3625
2941.98513	3033.5625
2944.44962	3032.9625
2946.91261	3024.1625
2949.37409	3024.1625
2951.83407	3031.8625
2954.29254	3017.4625
2956.74951	3017.3625
2959.20498	3001.3625
2961.65895	2998.5625
2964.11142	3005.2625
2966.56239	2996.0625
2969.01186	2997.6625
2971.45984	2987.0625
2973.90632	2978.4625
2976.35131	2977.9625
2978.7948	2975.1625
2981.23681	2960.9625
2983.67732	2968.7625
2986.11635	2955.8625
2988.55388	2943.0625
2990.98993	2929.2625
2993.4245	2942.0625
2995.85758	2930.6625
2998.28917	2929.9625
3000.71928	2932.6625
3003.14791	2923.4625
3005.57506	2920.8625
3008.00073	2910.5625
3010.42493	2920.0625
3012.84764	2916.2625
3015.26888	2913.9625
3017.68865	2903.8625
3020.10694	2914.2625
3022.52376	2908.4625
3024.9391	2906.8625
3027.35298	2903.2625
3029.76539	2897.0625
3032.17632	2894.9625
3034.5858	2896.8625
3036.9938	2894.2625
3039.40034	2884.8625
3041.80542	2894.8625
3044.20903	2892.6625
3046.61118	2886.8625
3049.01187	2887.1625
3051.4111	2870.2625
3053.80888	2873.2625
3056.20519	2883.2625
3058.60005	2876.7625
3060.99345	2871.5625
3063.3854	2874.1625
3065.7759	2866.8625
3068.16494	2873.5625
3070.55254	2865.4625
3072.93868	2877.9625
3075.32338	2864.2625
3077.70662	2859.8625
3080.08842	2861.8625
3082.46878	2870.3625
3084.84769	2855.3625
3087.22515	2873.8625
3089.60118	2877.4625
3091.97576	2868.6625
3094.3489	2875.8625
3096.72061	2879.7625
3099.09087	2882.1625
3101.4597	2890.2625
3103.82709	2885.5625
3106.19305	2887.4625
3108.55757	2890.8625
3110.92066	2884.1625
3113.28232	2888.9625
3115.64255	2885.8625
3118.00134	2890.2625
3120.35871	2885.4625
3122.71466	2890.2625
