Data from AgNPs_FTO_APTES_UA_2uM_R6G_10uM_NaF_0.1M_Addition_RamanShift__25__12-12-47-230.txt Node

Date: Fri Dec 17 12:12:47 GMT 2021
User: TCL
Spectrometer: QEP01345
Trigger mode: 4
Integration Time (sec): 7.000000E0
Scans to average: 10
Electric dark correction enabled: true
Nonlinearity correction enabled: false
Boxcar width: 0
XAxis mode: Raman Shifts
Number of Pixels in Spectrum: 1044
>>>>>Begin Spectral Data<<<<<
46.04893	-1.35
50.45542	-1.05
54.85868	-1.35
59.25871	-0.15
63.6555	115.55
68.04907	117.65
72.43941	124.55
76.82654	128.75
81.21044	133.25
85.59113	139.95
89.96862	142.75
94.34289	149.45
98.71396	155.45
103.08183	157.95
107.4465	163.15
111.80798	163.35
116.16626	165.05
120.52136	169.85
124.87327	180.65
129.222	186.65
133.56755	198.15
137.90993	206.45
142.24913	225.75
146.58517	244.95
150.91804	279.15
155.24774	334.45
159.57429	405.45
163.89768	511.25
168.21792	669.65
172.53501	897.85
176.84895	1238.65
181.15975	1730.55
185.46741	2418.85
189.77193	3318.05
194.07331	4442.25
198.37157	5714.45
202.6667	7079.75
206.9587	8438.75
211.24758	9773.15
215.53334	11100.95
219.81599	12535.75
224.09553	14157.85
228.37195	15928.55
232.64527	17923.65
236.91549	19944.45
241.18261	21952.85
245.44663	23791.85
249.70755	25419.05
253.96539	26789.85
258.22014	27968.45
262.4718	28973.35
266.72039	29831.15
270.96589	30280.25
275.20832	30387.45
279.44768	30171.55
283.68397	29876.85
287.91719	29501.85
292.14735	29401.65
296.37445	29530.25
300.59849	29860.35
304.81948	30411.25
309.03742	30741.45
313.25231	30600.25
317.46415	29766.85
321.67296	28492.65
325.87872	27483.15
330.08145	27050.55
334.28114	27108.15
338.47781	27457.05
342.67145	27984.25
346.86207	28776.15
351.04966	29777.05
355.23424	30996.45
359.4158	32041.75
363.59435	32636.55
367.76989	32982.45
371.94243	33122.15
376.11196	33191.35
380.27849	33236.25
384.44203	33246.05
388.60257	33180.85
392.76012	33251.25
396.91468	33641.45
401.06626	34341.35
405.21485	34950.45
409.36047	34837.15
413.50311	33959.05
417.64277	33211.55
421.77947	32866.55
425.9132	32804.35
430.04396	32924.85
434.17176	33131.45
438.2966	33499.15
442.41849	34070.35
446.53742	34906.55
450.6534	35814.85
454.76644	36571.75
458.87653	36885.45
462.98368	36861.85
467.08789	36413.45
471.18916	35716.65
475.2875	34920.35
479.38291	34329.35
483.4754	33870.15
487.56496	33562.65
491.6516	33207.95
495.73531	33031.65
499.81612	33004.05
503.89401	33193.45
507.96899	33352.25
512.04106	33584.15
516.11023	33813.25
520.1765	33981.55
524.23987	33908.15
528.30034	33535.75
532.35792	33124.25
536.41261	32690.95
540.46441	32308.55
544.51333	32197.45
548.55936	32412.65
552.60252	32871.85
556.64279	33358.25
560.6802	33617.25
564.71473	33859.25
568.7464	34454.35
572.7752	35042.75
576.80114	35008.45
580.82422	34784.55
584.84444	34880.65
588.86181	34952.45
592.87633	35194.65
596.888	35583.15
600.89682	36503.35
604.9028	39093.95
608.90594	45004.25
612.90624	51785.35
616.90371	49661.95
620.89834	39930.65
624.89015	35449.55
628.87913	34624.35
632.86528	34655.05
636.84862	34595.45
640.82913	34129.45
644.80683	33295.35
648.78172	32721.95
652.75379	32806.55
656.72306	33527.15
660.68952	34428.85
664.65319	34321.85
668.61405	33496.05
672.57211	33106.85
676.52738	33145.25
680.47986	33165.75
684.42955	33057.35
688.37646	33056.55
692.32058	33244.25
696.26192	33532.55
700.20048	33853.35
704.13626	34018.05
708.06928	33862.35
711.99952	33605.35
715.927	33493.35
719.85171	33489.65
723.77365	33442.65
727.69284	33185.25
731.60928	32965.45
735.52295	32979.05
739.43388	33132.05
743.34206	33291.35
747.24749	33488.55
751.15017	33764.95
755.05012	34270.45
758.94733	35313.05
762.8418	37306.15
766.73354	40458.15
770.62254	43852.45
774.50882	45311.15
778.39237	43635.85
782.27321	39947.75
786.15132	36667.15
790.02671	34777.65
793.89938	33948.75
797.76935	33611.55
801.6366	33428.25
805.50115	33289.05
809.36299	33216.45
813.22213	33029.65
817.07857	33034.25
820.93231	33023.25
824.78336	33106.15
828.63172	33252.45
832.47738	33275.55
836.32036	33395.15
840.16066	33445.85
843.99827	33464.55
847.8332	33446.35
851.66546	33318.05
855.49504	33291.55
859.32195	33228.55
863.1462	33115.15
866.96777	33035.35
870.78668	33009.05
874.60293	33030.45
878.41652	33064.55
882.22745	33210.25
886.03573	33310.95
889.84136	33281.45
893.64433	33209.55
897.44466	33080.45
901.24235	33023.45
905.0374	32961.25
908.8298	33032.75
912.61957	33067.65
916.40671	33224.75
920.19121	33475.75
923.97308	33862.15
927.75233	34155.45
931.52895	34209.65
935.30295	33977.75
939.07433	33472.85
942.84309	32998.95
946.60924	32819.45
950.37278	32645.05
954.13371	32471.65
957.89203	32242.65
961.64774	32151.65
965.40086	32054.65
969.15137	32023.05
972.89929	31912.85
976.64461	31928.25
980.38733	31995.15
984.12747	32150.15
987.86502	32478.55
991.59999	32815.95
995.33237	33282.25
999.06217	34174.45
1002.78939	35287.25
1006.51404	36132.15
1010.23611	36771.35
1013.95561	37159.25
1017.67255	37135.75
1021.38692	36815.75
1025.09872	36561.65
1028.80796	36885.85
1032.51465	37751.15
1036.21877	38583.55
1039.92035	38656.95
1043.61937	38149.45
1047.31584	37146.15
1051.00976	36108.25
1054.70114	35522.95
1058.38998	35325.65
1062.07627	35397.05
1065.76003	35499.15
1069.44126	35694.25
1073.11995	35957.65
1076.79611	36234.75
1080.46974	36495.75
1084.14085	36865.55
1087.80943	37280.85
1091.47549	37379.35
1095.13903	36987.45
1098.80005	36365.65
1102.45857	35709.65
1106.11456	35418.55
1109.76805	35522.45
1113.41903	35785.15
1117.06751	36278.55
1120.71348	36889.35
1124.35696	37485.65
1127.99793	38009.05
1131.63641	38144.45
1135.2724	37459.05
1138.90589	36794.45
1142.5369	36258.55
1146.16542	35952.75
1149.79145	35757.55
1153.415	35867.05
1157.03607	36162.95
1160.65467	36614.95
1164.27079	37490.85
1167.88443	38771.75
1171.49561	40695.85
1175.10432	43602.15
1178.71056	47515.65
1182.31434	51050.65
1185.91565	52954.65
1189.51451	52948.15
1193.11091	51105.25
1196.70485	48274.95
1200.29634	45870.55
1203.88538	44083.35
1207.47197	42489.45
1211.05612	41260.75
1214.63782	40635.85
1218.21708	40531.15
1221.79391	40810.25
1225.36829	41110.05
1228.94024	41225.85
1232.50976	41362.45
1236.07685	41333.45
1239.6415	41340.75
1243.20374	41312.65
1246.76355	41461.15
1250.32093	41881.05
1253.8759	42708.35
1257.42845	43769.75
1260.97859	44705.45
1264.52631	45505.85
1268.07163	46275.95
1271.61453	47268.45
1275.15503	48281.35
1278.69312	49240.35
1282.22882	50051.95
1285.76211	50813.95
1289.29301	51639.95
1292.82151	52509.95
1296.34761	53402.65
1299.87133	54951.55
1303.39266	57487.15
1306.9116	61355.25
1310.42815	65842.65
1313.94233	68966.95
1317.45412	69088.45
1320.96354	67105.35
1324.47058	64573.75
1327.97525	62176.05
1331.47754	60590.75
1334.97747	60243.05
1338.47502	60765.75
1341.97022	61600.25
1345.46305	62129.85
1348.95352	62419.25
1352.44163	63155.65
1355.92738	65394.85
1359.41078	69835.45
1362.89183	74599.75
1366.37053	73380.65
1369.84688	66152.65
1373.32088	58428.05
1376.79254	53401.25
1380.26186	50869.05
1383.72883	49628.95
1387.19347	48620.65
1390.65578	47616.75
1394.11575	47028.85
1397.57339	46993.45
1401.0287	47556.55
1404.48168	48525.25
1407.93234	49752.25
1411.38068	50868.65
1414.82669	51147.25
1418.27039	50452.85
1421.71177	49228.55
1425.15083	48096.05
1428.58758	47461.25
1432.02203	47326.15
1435.45416	47433.55
1438.88399	47617.45
1442.31151	47733.05
1445.73673	47945.25
1449.15965	48218.65
1452.58027	48174.95
1455.9986	47936.55
1459.41463	47734.75
1462.82837	48034.35
1466.23982	48684.75
1469.64898	49554.65
1473.05586	50187.35
1476.46045	50618.05
1479.86276	51154.45
1483.26279	51869.25
1486.66054	52654.55
1490.05602	53711.05
1493.44922	54807.85
1496.84016	56127.15
1500.22882	57686.95
1503.61521	59910.75
1506.99934	62792.55
1510.38121	65864.15
1513.76081	67491.85
1517.13816	66038.25
1520.51324	62038.45
1523.88607	57604.65
1527.25665	54444.45
1530.62498	52376.95
1533.99105	51147.45
1537.35488	50414.65
1540.71647	49957.35
1544.07581	49724.65
1547.4329	49556.05
1550.78776	49344.05
1554.14038	49166.25
1557.49077	49310.65
1560.83892	49578.65
1564.18484	49835.65
1567.52853	49885.55
1570.86999	49895.85
1574.20922	50012.55
1577.54624	49974.45
1580.88103	49325.95
1584.2136	48618.75
1587.54395	48887.25
1590.87208	50518.55
1594.19801	53287.75
1597.52172	56314.95
1600.84321	57608.25
1604.16251	56030.55
1607.47959	52880.95
1610.79447	49348.25
1614.10715	45997.35
1617.41763	43419.85
1620.7259	41817.05
1624.03199	41117.05
1627.33587	41306.65
1630.63757	42232.05
1633.93707	44045.15
1637.23439	46459.95
1640.52951	49219.35
1643.82246	51994.15
1647.11321	54356.05
1650.40179	55405.35
1653.68819	53455.05
1656.97241	48584.85
1660.25446	43425.85
1663.53433	39624.65
1666.81203	37225.95
1670.08756	35786.35
1673.36092	34831.15
1676.63211	34187.55
1679.90115	33753.25
1683.16801	33445.65
1686.43272	33223.35
1689.69527	33078.65
1692.95567	32872.25
1696.2139	32778.55
1699.46999	32739.65
1702.72392	32713.45
1705.97571	32689.25
1709.22535	32705.55
1712.47284	32722.85
1715.71819	32702.75
1718.96139	32695.15
1722.20246	32649.95
1725.44139	32570.45
1728.67818	32375.95
1731.91284	32260.25
1735.14537	32122.35
1738.37576	32004.75
1741.60403	31901.55
1744.83017	31758.95
1748.05418	31767.65
1751.27607	31697.75
1754.49584	31706.35
1757.71349	31617.65
1760.92903	31703.05
1764.14244	31594.05
1767.35375	31683.95
1770.56294	31617.65
1773.77002	31567.45
1776.97499	31558.85
1780.17785	31509.15
1783.37861	31541.45
1786.57727	31535.55
1789.77382	31428.55
1792.96828	31434.75
1796.16064	31406.55
1799.3509	31399.85
1802.53907	31385.55
1805.72514	31351.45
1808.90913	31303.35
1812.09102	31262.45
1815.27083	31173.35
1818.44856	31111.25
1821.6242	31082.35
1824.79776	31093.15
1827.96924	31095.85
1831.13864	31067.95
1834.30597	31101.95
1837.47122	31055.55
1840.6344	31098.65
1843.7955	31132.75
1846.95454	31109.05
1850.11151	31102.85
1853.26642	31129.65
1856.41926	31110.75
1859.57004	31141.25
1862.71876	31167.05
1865.86542	31164.75
1869.01003	31181.15
1872.15258	31181.75
1875.29308	31216.25
1878.43152	31251.25
1881.56792	31275.35
1884.70227	31289.15
1887.83457	31345.95
1890.96482	31311.95
1894.09304	31283.05
1897.21921	31305.75
1900.34335	31311.35
1903.46544	31298.15
1906.58551	31291.75
1909.70353	31285.45
1912.81953	31269.35
1915.93349	31294.35
1919.04543	31213.85
1922.15534	31167.65
1925.26322	31103.35
1928.36908	31020.05
1931.47292	30942.35
1934.57473	30857.45
1937.67453	30706.25
1940.77232	30681.65
1943.86808	30525.15
1946.96184	30443.75
1950.05358	30350.75
1953.14331	30246.15
1956.23103	30106.65
1959.31675	30069.65
1962.40046	29926.25
1965.48217	29829.85
1968.56188	29799.45
1971.63959	29678.65
1974.7153	29591.85
1977.78901	29487.95
1980.86073	29398.25
1983.93046	29316.85
1986.99819	29230.25
1990.06394	29132.15
1993.1277	29059.35
1996.18947	28937.35
1999.24925	28902.95
2002.30706	28810.35
2005.36288	28736.15
2008.41672	28713.45
2011.46859	28571.35
2014.51848	28526.85
2017.56639	28474.65
2020.61233	28383.95
2023.6563	28328.25
2026.6983	28315.75
2029.73833	28266.75
2032.7764	28174.75
2035.8125	28156.45
2038.84664	28085.95
2041.87881	28078.75
2044.90903	28063.75
2047.93729	28005.15
2050.96359	27994.65
2053.98794	27911.15
2057.01034	27894.25
2060.03078	27843.35
2063.04927	27872.75
2066.06582	27844.55
2069.08042	27820.65
2072.09307	27805.45
2075.10378	27772.05
2078.11255	27740.05
2081.11938	27723.55
2084.12426	27702.75
2087.12722	27658.45
2090.12824	27685.05
2093.12732	27688.55
2096.12447	27696.45
2099.11969	27694.95
2102.11299	27703.45
2105.10435	27726.25
2108.09379	27749.25
2111.08131	27737.75
2114.0669	27764.65
2117.05057	27787.25
2120.03233	27763.35
2123.01216	27842.55
2125.99008	27822.25
2128.96609	27856.05
2131.94018	27855.25
2134.91236	27895.45
2137.88263	27898.95
2140.851	27927.15
2143.81746	27941.45
2146.78201	27968.15
2149.74466	27987.05
2152.7054	27972.35
2155.66425	27971.95
2158.6212	27979.55
2161.57625	27982.95
2164.52941	27974.45
2167.48067	27955.85
2170.43004	27990.05
2173.37752	27982.85
2176.32311	27968.95
2179.26681	27962.65
2182.20863	27989.85
2185.14856	27961.55
2188.08661	27985.25
2191.02278	27950.85
2193.95707	27962.05
2196.88948	27986.95
2199.82001	27989.55
2202.74867	27984.85
2205.67545	27981.85
2208.60037	27952.45
2211.52341	27930.15
2214.44458	27913.75
2217.36388	27862.35
2220.28132	27822.75
2223.1969	27770.55
2226.11061	27698.75
2229.02246	27693.85
2231.93245	27629.25
2234.84058	27592.15
2237.74686	27547.75
2240.65128	27507.55
2243.55385	27450.15
2246.45456	27424.75
2249.35343	27402.05
2252.25044	27386.05
2255.14561	27374.95
2258.03893	27312.55
2260.93041	27283.35
2263.82004	27211.75
2266.70783	27186.75
2269.59378	27109.55
2272.4779	27028.25
2275.36017	26958.65
2278.24061	26956.05
2281.11922	26895.95
2283.996	26829.15
2286.87094	26792.25
2289.74405	26765.95
2292.61534	26736.15
2295.4848	26747.65
2298.35243	26768.35
2301.21824	26759.45
2304.08223	26796.55
2306.94439	26763.45
2309.80474	26750.95
2312.66327	26814.75
2315.51999	26744.55
2318.37489	26764.75
2321.22797	26733.75
2324.07925	26742.45
2326.92871	26714.35
2329.77637	26691.15
2332.62222	26682.25
2335.46626	26657.45
2338.3085	26642.55
2341.14893	26636.65
2343.98756	26660.85
2346.8244	26668.55
2349.65943	26664.75
2352.49267	26639.95
2355.32411	26634.45
2358.15376	26604.25
2360.98161	26601.55
2363.80768	26557.45
2366.63195	26511.35
2369.45444	26426.55
2372.27514	26387.35
2375.09405	26358.55
2377.91118	26335.35
2380.72652	26257.75
2383.54009	26200.95
2386.35187	26185.75
2389.16188	26115.05
2391.97011	26059.75
2394.77657	26057.45
2397.58125	26041.75
2400.38416	25995.35
2403.18529	25910.95
2405.98466	25849.35
2408.78226	25797.95
2411.57809	25789.75
2414.37216	25714.05
2417.16446	25679.75
2419.955	25644.45
2422.74378	25630.35
2425.5308	25616.05
2428.31606	25583.75
2431.09956	25578.45
2433.88131	25541.65
2436.6613	25528.95
2439.43954	25554.35
2442.21603	25504.55
2444.99077	25509.85
2447.76377	25529.35
2450.53501	25474.85
2453.30451	25461.15
2456.07226	25448.15
2458.83827	25446.75
2461.60254	25401.05
2464.36507	25401.55
2467.12586	25403.55
2469.88492	25378.65
2472.64224	25381.15
2475.39782	25359.25
2478.15167	25406.15
2480.90379	25389.15
2483.65417	25428.95
2486.40283	25429.35
2489.14976	25424.65
2491.89497	25414.05
2494.63845	25460.15
2497.3802	25437.15
2500.12024	25461.55
2502.85855	25442.55
2505.59514	25410.45
2508.33002	25352.45
2511.06318	25308.65
2513.79462	25291.95
2516.52435	25253.75
2519.25237	25253.35
2521.97867	25228.65
2524.70327	25185.15
2527.42616	25118.15
2530.14734	25151.55
2532.86681	25123.35
2535.58458	25075.85
2538.30065	25063.25
2541.01501	25038.55
2543.72768	25006.65
2546.43864	24994.65
2549.14791	24946.75
2551.85548	24957.45
2554.56136	24896.35
2557.26554	24913.25
2559.96803	24862.55
2562.66883	24870.55
2565.36794	24844.05
2568.06536	24824.65
2570.7611	24789.65
2573.45514	24743.05
2576.14751	24738.65
2578.83819	24717.05
2581.52719	24665.75
2584.21451	24711.05
2586.90015	24655.95
2589.58411	24706.85
2592.2664	24627.05
2594.94701	24592.65
2597.62594	24600.65
2600.30321	24568.95
2602.9788	24530.95
2605.65273	24555.65
2608.32498	24539.75
2610.99557	24523.95
2613.66449	24562.35
2616.33175	24506.25
2618.99734	24533.95
2621.66128	24506.65
2624.32355	24490.45
2626.98416	24493.95
2629.64311	24465.95
2632.30041	24535.25
2634.95605	24459.55
2637.61004	24420.65
2640.26238	24365.25
2642.91306	24332.25
2645.56209	24355.85
2648.20948	24293.25
2650.85521	24288.45
2653.4993	24299.45
2656.14175	24251.75
2658.78255	24275.65
2661.42171	24274.75
2664.05923	24311.25
2666.6951	24288.85
2669.32934	24360.65
2671.96194	24345.45
2674.59291	24394.35
2677.22224	24373.35
2679.84993	24412.35
2682.476	24365.15
2685.10043	24366.05
2687.72324	24360.75
2690.34441	24330.15
2692.96396	24315.15
2695.58188	24355.45
2698.19818	24310.35
2700.81285	24321.45
2703.4259	24268.85
2706.03733	24293.15
2708.64714	24290.25
2711.25533	24349.65
2713.86191	24306.25
2716.46687	24332.15
2719.07021	24300.35
2721.67194	24324.95
2724.27206	24304.75
2726.87057	24293.15
2729.46747	24297.05
2732.06276	24332.75
2734.65644	24303.95
2737.24852	24291.35
2739.83899	24257.65
2742.42786	24322.65
2745.01513	24291.35
2747.60079	24294.15
2750.18486	24285.35
2752.76733	24252.35
2755.3482	24265.85
2757.92747	24255.25
2760.50515	24250.45
2763.08123	24233.65
2765.65573	24147.55
2768.22863	24196.85
2770.79994	24138.85
2773.36967	24136.85
2775.9378	24142.65
2778.50435	24089.25
2781.06932	24084.05
2783.6327	24089.75
2786.1945	24029.65
2788.75471	24030.15
2791.31335	23969.55
2793.87041	23959.35
2796.42589	23881.85
2798.97979	23877.35
2801.53212	23828.95
2804.08288	23807.75
2806.63206	23770.65
2809.17967	23714.85
2811.72571	23658.15
2814.27018	23689.85
2816.81308	23711.75
2819.35442	23656.15
2821.89419	23631.45
2824.43239	23629.35
2826.96904	23611.35
2829.50412	23628.05
2832.03763	23559.95
2834.56959	23563.05
2837.1	23522.35
2839.62884	23538.65
2842.15613	23495.65
2844.68186	23537.55
2847.20604	23547.45
2849.72867	23576.15
2852.24974	23539.45
2854.76927	23469.55
2857.28724	23476.15
2859.80367	23431.75
2862.31855	23392.45
2864.83189	23420.95
2867.34368	23333.85
2869.85393	23400.55
2872.36264	23372.35
2874.8698	23328.55
2877.37543	23337.25
2879.87952	23372.95
2882.38207	23337.55
2884.88308	23361.05
2887.38256	23378.35
2889.88051	23364.65
2892.37692	23389.05
2894.8718	23330.45
2897.36515	23376.45
2899.85698	23353.55
2902.34727	23422.05
2904.83604	23422.35
2907.32328	23424.35
2909.809	23425.65
2912.29319	23440.85
2914.77587	23388.15
2917.25702	23408.85
2919.73665	23355.05
2922.21476	23383.55
2924.69136	23328.95
2927.16644	23375.45
2929.64	23301.45
2932.11205	23290.75
2934.58258	23215.35
2937.05161	23227.45
2939.51912	23255.85
2941.98513	23217.85
2944.44962	23164.25
2946.91261	23076.85
2949.37409	23100.95
2951.83407	23088.95
2954.29254	23042.75
2956.74951	23004.15
2959.20498	23008.45
2961.65895	22968.45
2964.11142	22913.65
2966.56239	22884.55
2969.01186	22893.05
2971.45984	22771.25
2973.90632	22777.15
2976.35131	22697.55
2978.7948	22679.75
2981.23681	22611.05
2983.67732	22570.55
2986.11635	22504.25
2988.55388	22471.35
2990.98993	22431.55
2993.4245	22420.45
2995.85758	22381.15
2998.28917	22303.55
3000.71928	22288.55
3003.14791	22271.75
3005.57506	22231.65
3008.00073	22170.25
3010.42493	22164.55
3012.84764	22122.25
3015.26888	22125.15
3017.68865	22079.45
3020.10694	22031.85
3022.52376	21964.15
3024.9391	21931.85
3027.35298	21929.15
3029.76539	21874.95
3032.17632	21822.25
3034.5858	21803.15
3036.9938	21742.85
3039.40034	21731.85
3041.80542	21717.45
3044.20903	21675.05
3046.61118	21665.85
3049.01187	21594.65
3051.4111	21597.35
3053.80888	21505.55
3056.20519	21515.95
3058.60005	21425.45
3060.99345	21415.65
3063.3854	21353.35
3065.7759	21268.05
3068.16494	21236.85
3070.55254	21137.75
3072.93868	21117.85
3075.32338	21043.35
3077.70662	21035.55
3080.08842	20991.05
3082.46878	20943.95
3084.84769	20922.65
3087.22515	20909.95
3089.60118	20849.55
3091.97576	20863.85
3094.3489	20877.15
3096.72061	20863.75
3099.09087	20844.55
3101.4597	20836.15
3103.82709	20790.05
3106.19305	20756.65
3108.55757	20733.05
3110.92066	20665.25
3113.28232	20645.95
3115.64255	20585.35
3118.00134	20543.35
3120.35871	20531.45
3122.71466	20468.75
3125.06917	20429.25
3127.42226	20376.55
3129.77393	20403.05
3132.12417	20358.45
3134.47299	20363.25
3136.82039	20343.25
3139.16636	20368.95
3141.51092	20364.65
3143.85406	20331.95
3146.19579	20344.65
3148.53609	20315.15
3150.87499	20352.65
3153.21246	20344.75
3155.54853	20314.65
3157.88318	20255.65
3160.21642	20344.25
3162.54826	20298.75
3164.87868	20253.95
3167.2077	20242.35
3169.5353	20220.65
3171.86151	20219.65
3174.18631	20177.05
3176.5097	20136.15
3178.83169	20113.25
3181.15228	20169.85
3183.47147	20062.65
3185.78926	20044.95
3188.10565	20080.55
3190.42065	20071.35
3192.73424	20070.45
3195.04645	20063.85
3197.35725	20078.15
3199.66667	20037.15
3201.97469	20079.55
3204.28132	20045.25
3206.58656	20091.75
3208.8904	20080.65
3211.19287	20085.55
3213.49394	20087.35
3215.79363	20050.25
3218.09193	20068.55
3220.38884	20065.45
3222.68438	20014.45
3224.97853	19984.95
3227.2713	19993.75
3229.56269	19960.75
3231.8527	19975.25
3234.14133	19884.25
3236.42858	19886.95
3238.71446	19823.85
