Data from AgNPs_FTO_APTES_UA_200uM_R6G_10uM_NaF_0.1M_Addition_RamanShift__7__16-08-27-499.txt Node

Date: Fri Dec 17 16:08:27 GMT 2021
User: TCL
Spectrometer: QEP01345
Trigger mode: 4
Integration Time (sec): 7.000000E0
Scans to average: 10
Electric dark correction enabled: true
Nonlinearity correction enabled: false
Boxcar width: 0
XAxis mode: Raman Shifts
Number of Pixels in Spectrum: 1044
>>>>>Begin Spectral Data<<<<<
46.04893	-0.025
50.45542	-0.325
54.85868	-1.125
59.25871	-0.225
63.6555	52.575
68.04907	57.475
72.43941	61.875
76.82654	63.175
81.21044	68.375
85.59113	70.275
89.96862	76.275
94.34289	76.875
98.71396	76.975
103.08183	81.475
107.4465	84.675
111.80798	82.575
116.16626	84.075
120.52136	83.975
124.87327	89.975
129.222	92.575
133.56755	91.375
137.90993	94.175
142.24913	101.175
146.58517	109.575
150.91804	119.275
155.24774	138.575
159.57429	164.775
163.89768	200.075
168.21792	250.575
172.53501	336.075
176.84895	458.675
181.15975	632.675
185.46741	881.075
189.77193	1207.975
194.07331	1610.375
198.37157	2099.775
202.6667	2583.175
206.9587	3081.075
211.24758	3582.175
215.53334	4059.375
219.81599	4550.475
224.09553	5121.275
228.37195	5777.075
232.64527	6454.675
236.91549	7239.875
241.18261	7991.075
245.44663	8710.475
249.70755	9312.075
253.96539	9858.075
258.22014	10296.575
262.4718	10658.175
266.72039	10922.375
270.96589	11015.775
275.20832	11000.075
279.44768	10887.075
283.68397	10738.475
287.91719	10541.375
292.14735	10394.175
296.37445	10370.375
300.59849	10413.975
304.81948	10479.075
309.03742	10487.975
313.25231	10390.275
317.46415	10189.275
321.67296	9923.375
325.87872	9718.575
330.08145	9623.575
334.28114	9615.875
338.47781	9715.575
342.67145	9834.075
346.86207	10007.175
351.04966	10217.975
355.23424	10481.675
359.4158	10716.175
363.59435	10871.475
367.76989	10988.775
371.94243	11133.175
376.11196	11212.975
380.27849	11318.975
384.44203	11325.575
388.60257	11384.275
392.76012	11409.275
396.91468	11525.075
401.06626	11652.575
405.21485	11746.975
409.36047	11667.475
413.50311	11474.975
417.64277	11247.975
421.77947	11087.575
425.9132	11050.175
430.04396	11016.475
434.17176	11037.375
438.2966	11068.375
442.41849	11167.975
446.53742	11271.575
450.6534	11392.375
454.76644	11496.975
458.87653	11561.875
462.98368	11574.075
467.08789	11551.675
471.18916	11535.675
475.2875	11493.575
479.38291	11396.475
483.4754	11345.975
487.56496	11275.375
491.6516	11259.475
495.73531	11267.975
499.81612	11276.375
503.89401	11320.875
507.96899	11345.775
512.04106	11397.675
516.11023	11472.275
520.1765	11516.275
524.23987	11488.075
528.30034	11400.775
532.35792	11359.775
536.41261	11264.975
540.46441	11194.575
544.51333	11149.575
548.55936	11215.975
552.60252	11282.775
556.64279	11375.975
560.6802	11461.275
564.71473	11430.175
568.7464	11494.275
572.7752	11570.175
576.80114	11560.675
580.82422	11547.575
584.84444	11633.875
588.86181	11704.275
592.87633	11670.275
596.888	11663.875
600.89682	11783.175
604.9028	12294.175
608.90594	13610.475
612.90624	15279.075
616.90371	14964.275
620.89834	12777.775
624.89015	11689.175
628.87913	11509.375
632.86528	11677.875
636.84862	11891.175
640.82913	11836.375
644.80683	11568.275
648.78172	11339.175
652.75379	11256.475
656.72306	11288.775
660.68952	11475.775
664.65319	11433.075
668.61405	11228.275
672.57211	11111.375
676.52738	11101.375
680.47986	11093.775
684.42955	11043.675
688.37646	11015.375
692.32058	11024.975
696.26192	11052.375
700.20048	11135.075
704.13626	11141.575
708.06928	11125.075
711.99952	11120.375
715.927	11106.075
719.85171	11103.175
723.77365	11110.575
727.69284	11055.975
731.60928	11005.075
735.52295	11003.975
739.43388	10960.175
743.34206	10999.575
747.24749	11015.175
751.15017	11000.275
755.05012	11060.275
758.94733	11227.775
762.8418	11620.175
766.73354	12378.275
770.62254	13326.275
774.50882	13929.775
778.39237	13549.375
782.27321	12563.775
786.15132	11717.875
790.02671	11211.575
793.89938	10986.775
797.76935	10858.775
801.6366	10826.375
805.50115	10782.775
809.36299	10795.875
813.22213	10819.075
817.07857	10793.275
820.93231	10771.375
824.78336	10757.675
828.63172	10707.675
832.47738	10702.775
836.32036	10679.875
840.16066	10658.375
843.99827	10614.675
847.8332	10610.775
851.66546	10624.875
855.49504	10572.475
859.32195	10589.875
863.1462	10562.875
866.96777	10561.575
870.78668	10583.275
874.60293	10576.175
878.41652	10599.875
882.22745	10613.075
886.03573	10654.075
889.84136	10683.875
893.64433	10643.075
897.44466	10612.775
901.24235	10566.475
905.0374	10512.375
908.8298	10469.675
912.61957	10435.475
916.40671	10469.175
920.19121	10450.675
923.97308	10467.075
927.75233	10501.175
931.52895	10514.375
935.30295	10481.775
939.07433	10364.975
942.84309	10226.575
946.60924	10146.475
950.37278	10088.475
954.13371	10029.275
957.89203	10011.675
961.64774	9987.475
965.40086	9947.675
969.15137	9931.175
972.89929	9923.575
976.64461	9925.475
980.38733	9873.175
984.12747	9873.175
987.86502	9882.075
991.59999	9895.975
995.33237	9932.375
999.06217	9960.275
1002.78939	10035.875
1006.51404	10105.575
1010.23611	10199.275
1013.95561	10275.175
1017.67255	10249.675
1021.38692	10234.575
1025.09872	10199.875
1028.80796	10116.475
1032.51465	10091.875
1036.21877	10094.475
1039.92035	10100.275
1043.61937	10136.475
1047.31584	10151.075
1051.00976	10157.475
1054.70114	10175.975
1058.38998	10196.775
1062.07627	10242.375
1065.76003	10317.575
1069.44126	10398.375
1073.11995	10533.375
1076.79611	10629.475
1080.46974	10665.975
1084.14085	10627.075
1087.80943	10657.075
1091.47549	10691.375
1095.13903	10660.075
1098.80005	10623.575
1102.45857	10477.575
1106.11456	10367.275
1109.76805	10314.875
1113.41903	10353.675
1117.06751	10462.675
1120.71348	10648.275
1124.35696	10802.175
1127.99793	10982.375
1131.63641	11144.375
1135.2724	10993.275
1138.90589	10789.175
1142.5369	10634.475
1146.16542	10469.875
1149.79145	10332.875
1153.415	10267.575
1157.03607	10201.175
1160.65467	10254.575
1164.27079	10378.975
1167.88443	10617.775
1171.49561	10949.875
1175.10432	11536.875
1178.71056	12318.075
1182.31434	13032.075
1185.91565	13267.375
1189.51451	13155.975
1193.11091	12776.775
1196.70485	12319.675
1200.29634	11917.475
1203.88538	11632.175
1207.47197	11293.175
1211.05612	10944.075
1214.63782	10713.975
1218.21708	10572.775
1221.79391	10472.375
1225.36829	10390.575
1228.94024	10382.275
1232.50976	10426.575
1236.07685	10431.275
1239.6415	10462.775
1243.20374	10484.975
1246.76355	10527.375
1250.32093	10602.675
1253.8759	10675.675
1257.42845	10806.075
1260.97859	10942.975
1264.52631	11099.775
1268.07163	11247.775
1271.61453	11368.675
1275.15503	11495.375
1278.69312	11569.575
1282.22882	11607.975
1285.76211	11680.675
1289.29301	11830.275
1292.82151	12010.975
1296.34761	12228.075
1299.87133	12571.875
1303.39266	13085.475
1306.9116	13747.175
1310.42815	14448.075
1313.94233	14851.575
1317.45412	14699.675
1320.96354	14258.775
1324.47058	13790.375
1327.97525	13242.275
1331.47754	12846.575
1334.97747	12611.675
1338.47502	12507.575
1341.97022	12601.175
1345.46305	12835.875
1348.95352	13219.575
1352.44163	13814.875
1355.92738	14604.075
1359.41078	15783.375
1362.89183	17077.475
1366.37053	17205.975
1369.84688	15672.275
1373.32088	13820.475
1376.79254	12526.375
1380.26186	11838.375
1383.72883	11401.675
1387.19347	11107.075
1390.65578	10874.875
1394.11575	10588.075
1397.57339	10389.975
1401.0287	10232.275
1404.48168	10138.075
1407.93234	10123.775
1411.38068	10075.775
1414.82669	10059.975
1418.27039	10030.875
1421.71177	9977.775
1425.15083	9872.975
1428.58758	9802.875
1432.02203	9760.975
1435.45416	9762.275
1438.88399	9790.475
1442.31151	9813.575
1445.73673	9833.275
1449.15965	9865.775
1452.58027	9874.575
1455.9986	9865.175
1459.41463	9904.875
1462.82837	9966.675
1466.23982	10104.875
1469.64898	10246.275
1473.05586	10399.675
1476.46045	10496.575
1479.86276	10641.675
1483.26279	10751.175
1486.66054	10910.875
1490.05602	11080.075
1493.44922	11426.175
1496.84016	11940.575
1500.22882	12792.075
1503.61521	13983.075
1506.99934	15265.975
1510.38121	16301.375
1513.76081	16563.675
1517.13816	15838.475
1520.51324	14528.875
1523.88607	13228.275
1527.25665	12302.075
1530.62498	11743.975
1533.99105	11411.875
1537.35488	11187.575
1540.71647	11022.075
1544.07581	10932.375
1547.4329	10881.875
1550.78776	10825.375
1554.14038	10852.475
1557.49077	10889.375
1560.83892	10977.575
1564.18484	11144.975
1567.52853	11323.375
1570.86999	11513.575
1574.20922	11670.275
1577.54624	11662.375
1580.88103	11459.275
1584.2136	11003.175
1587.54395	10642.875
1590.87208	10488.275
1594.19801	10556.275
1597.52172	10817.775
1600.84321	10997.675
1604.16251	10923.575
1607.47959	10676.075
1610.79447	10408.775
1614.10715	10095.475
1617.41763	9778.075
1620.7259	9533.075
1624.03199	9375.475
1627.33587	9301.875
1630.63757	9300.975
1633.93707	9419.575
1637.23439	9667.475
1640.52951	10085.075
1643.82246	10718.975
1647.11321	11563.075
1650.40179	12331.675
1653.68819	12427.375
1656.97241	11723.675
1660.25446	10731.575
1663.53433	9892.675
1666.81203	9323.975
1670.08756	8987.075
1673.36092	8774.975
1676.63211	8609.675
1679.90115	8508.775
1683.16801	8411.875
1686.43272	8374.375
1689.69527	8314.975
1692.95567	8265.475
1696.2139	8267.275
1699.46999	8262.075
1702.72392	8230.375
1705.97571	8215.775
1709.22535	8178.375
1712.47284	8133.075
1715.71819	8071.975
1718.96139	8033.575
1722.20246	7975.975
1725.44139	7914.875
1728.67818	7860.975
1731.91284	7797.375
1735.14537	7768.175
1738.37576	7729.475
1741.60403	7725.775
1744.83017	7685.775
1748.05418	7656.875
1751.27607	7633.975
1754.49584	7634.175
1757.71349	7604.475
1760.92903	7587.775
1764.14244	7589.775
1767.35375	7579.375
1770.56294	7567.975
1773.77002	7552.675
1776.97499	7550.375
1780.17785	7505.975
1783.37861	7495.675
1786.57727	7491.075
1789.77382	7454.175
1792.96828	7446.075
1796.16064	7427.275
1799.3509	7403.175
1802.53907	7392.475
1805.72514	7371.675
1808.90913	7354.175
1812.09102	7336.175
1815.27083	7284.975
1818.44856	7291.375
1821.6242	7265.475
1824.79776	7263.375
1827.96924	7230.775
1831.13864	7226.475
1834.30597	7227.775
1837.47122	7209.775
1840.6344	7210.375
1843.7955	7208.175
1846.95454	7201.175
1850.11151	7180.175
1853.26642	7179.175
1856.41926	7147.775
1859.57004	7136.375
1862.71876	7136.975
1865.86542	7130.375
1869.01003	7130.475
1872.15258	7102.875
1875.29308	7093.675
1878.43152	7077.875
1881.56792	7094.675
1884.70227	7057.675
1887.83457	7043.375
1890.96482	7030.875
1894.09304	7043.775
1897.21921	7003.275
1900.34335	7011.175
1903.46544	6988.175
1906.58551	6958.675
1909.70353	6946.175
1912.81953	6953.475
1915.93349	6942.675
1919.04543	6928.175
1922.15534	6906.175
1925.26322	6908.575
1928.36908	6884.775
1931.47292	6842.775
1934.57473	6831.975
1937.67453	6832.375
1940.77232	6821.275
1943.86808	6781.875
1946.96184	6778.075
1950.05358	6760.675
1953.14331	6739.175
1956.23103	6701.275
1959.31675	6702.975
1962.40046	6666.975
1965.48217	6654.075
1968.56188	6629.575
1971.63959	6615.075
1974.7153	6586.375
1977.78901	6552.875
1980.86073	6536.975
1983.93046	6519.075
1986.99819	6473.875
1990.06394	6474.375
1993.1277	6439.675
1996.18947	6421.575
1999.24925	6406.075
2002.30706	6388.075
2005.36288	6366.375
2008.41672	6339.675
2011.46859	6314.475
2014.51848	6313.575
2017.56639	6280.875
2020.61233	6260.775
2023.6563	6230.075
2026.6983	6226.075
2029.73833	6202.475
2032.7764	6181.975
2035.8125	6168.775
2038.84664	6167.275
2041.87881	6150.875
2044.90903	6138.175
2047.93729	6102.675
2050.96359	6104.775
2053.98794	6079.175
2057.01034	6079.975
2060.03078	6067.575
2063.04927	6081.175
2066.06582	6063.375
2069.08042	6037.375
2072.09307	6052.075
2075.10378	6014.875
2078.11255	6030.875
2081.11938	6027.875
2084.12426	6034.375
2087.12722	6031.275
2090.12824	5997.375
2093.12732	6007.475
2096.12447	6001.175
2099.11969	6022.575
2102.11299	6003.175
2105.10435	6005.775
2108.09379	6002.675
2111.08131	6005.275
2114.0669	6020.475
2117.05057	5999.775
2120.03233	6018.675
2123.01216	6030.875
2125.99008	6025.875
2128.96609	6016.475
2131.94018	6018.975
2134.91236	6036.575
2137.88263	6025.975
2140.851	6027.575
2143.81746	6010.675
2146.78201	6030.275
2149.74466	6011.875
2152.7054	5995.675
2155.66425	6013.875
2158.6212	5998.375
2161.57625	5998.375
2164.52941	5989.675
2167.48067	5983.075
2170.43004	5973.675
2173.37752	5977.775
2176.32311	5965.275
2179.26681	5983.075
2182.20863	5976.575
2185.14856	5957.075
2188.08661	5951.375
2191.02278	5948.475
2193.95707	5951.475
2196.88948	5928.075
2199.82001	5934.775
2202.74867	5904.975
2205.67545	5924.375
2208.60037	5885.575
2211.52341	5882.875
2214.44458	5863.875
2217.36388	5864.275
2220.28132	5845.475
2223.1969	5820.775
2226.11061	5817.775
2229.02246	5799.675
2231.93245	5790.975
2234.84058	5766.475
2237.74686	5759.775
2240.65128	5770.775
2243.55385	5746.775
2246.45456	5744.175
2249.35343	5736.275
2252.25044	5722.375
2255.14561	5702.075
2258.03893	5706.875
2260.93041	5690.175
2263.82004	5673.775
2266.70783	5671.675
2269.59378	5643.975
2272.4779	5636.975
2275.36017	5626.975
2278.24061	5609.175
2281.11922	5587.975
2283.996	5599.475
2286.87094	5582.575
2289.74405	5558.275
2292.61534	5538.275
2295.4848	5542.475
2298.35243	5513.275
2301.21824	5516.475
2304.08223	5508.375
2306.94439	5505.075
2309.80474	5502.175
2312.66327	5491.875
2315.51999	5473.775
2318.37489	5484.775
2321.22797	5462.575
2324.07925	5465.075
2326.92871	5443.875
2329.77637	5447.875
2332.62222	5430.075
2335.46626	5415.675
2338.3085	5385.875
2341.14893	5394.975
2343.98756	5384.475
2346.8244	5389.975
2349.65943	5351.675
2352.49267	5366.975
2355.32411	5368.875
2358.15376	5380.575
2360.98161	5350.275
2363.80768	5364.375
2366.63195	5359.075
2369.45444	5350.975
2372.27514	5349.075
2375.09405	5338.775
2377.91118	5330.375
2380.72652	5307.075
2383.54009	5299.075
2386.35187	5286.575
2389.16188	5260.475
2391.97011	5231.175
2394.77657	5215.575
2397.58125	5210.875
2400.38416	5199.975
2403.18529	5204.475
2405.98466	5176.875
2408.78226	5177.475
2411.57809	5146.875
2414.37216	5165.575
2417.16446	5144.575
2419.955	5136.575
2422.74378	5140.175
2425.5308	5138.675
2428.31606	5113.475
2431.09956	5117.575
2433.88131	5091.475
2436.6613	5104.175
2439.43954	5103.575
2442.21603	5090.475
2444.99077	5081.575
2447.76377	5084.975
2450.53501	5079.375
2453.30451	5075.475
2456.07226	5073.675
2458.83827	5051.575
2461.60254	5045.675
2464.36507	5046.175
2467.12586	5040.275
2469.88492	5026.475
2472.64224	5014.275
2475.39782	5015.075
2478.15167	5027.875
2480.90379	5018.875
2483.65417	4998.975
2486.40283	5004.575
2489.14976	4999.575
2491.89497	4984.675
2494.63845	4991.375
2497.3802	4993.875
2500.12024	4978.675
2502.85855	4968.575
2505.59514	4982.675
2508.33002	4963.175
2511.06318	4943.775
2513.79462	4931.875
2516.52435	4914.375
2519.25237	4899.275
2521.97867	4887.275
2524.70327	4884.975
2527.42616	4862.375
2530.14734	4862.275
2532.86681	4854.175
2535.58458	4837.375
2538.30065	4831.375
2541.01501	4834.075
2543.72768	4830.675
2546.43864	4810.475
2549.14791	4794.175
2551.85548	4793.075
2554.56136	4773.375
2557.26554	4774.575
2559.96803	4762.275
2562.66883	4743.775
2565.36794	4751.575
2568.06536	4739.575
2570.7611	4739.775
2573.45514	4723.075
2576.14751	4700.775
2578.83819	4687.375
2581.52719	4680.275
2584.21451	4692.975
2586.90015	4672.075
2589.58411	4665.975
2592.2664	4656.675
2594.94701	4637.075
2597.62594	4627.675
2600.30321	4604.075
2602.9788	4598.375
2605.65273	4581.175
2608.32498	4568.775
2610.99557	4571.475
2613.66449	4567.875
2616.33175	4577.375
2618.99734	4556.675
2621.66128	4555.475
2624.32355	4530.875
2626.98416	4543.775
2629.64311	4526.775
2632.30041	4531.575
2634.95605	4507.875
2637.61004	4515.475
2640.26238	4491.275
2642.91306	4490.075
2645.56209	4470.575
2648.20948	4479.475
2650.85521	4473.275
2653.4993	4473.175
2656.14175	4449.575
2658.78255	4474.375
2661.42171	4456.575
2664.05923	4459.275
2666.6951	4468.975
2669.32934	4465.775
2671.96194	4455.475
2674.59291	4438.075
2677.22224	4440.875
2679.84993	4439.975
2682.476	4445.575
2685.10043	4438.475
2687.72324	4439.275
2690.34441	4426.375
2692.96396	4422.775
2695.58188	4448.975
2698.19818	4421.775
2700.81285	4425.775
2703.4259	4420.075
2706.03733	4439.775
2708.64714	4414.075
2711.25533	4441.675
2713.86191	4416.675
2716.46687	4419.475
2719.07021	4412.375
2721.67194	4417.175
2724.27206	4396.775
2726.87057	4411.575
2729.46747	4411.375
2732.06276	4402.575
2734.65644	4390.775
2737.24852	4378.975
2739.83899	4371.975
2742.42786	4391.375
2745.01513	4361.875
2747.60079	4357.475
2750.18486	4353.175
2752.76733	4352.575
2755.3482	4361.075
2757.92747	4341.075
2760.50515	4325.775
2763.08123	4335.375
2765.65573	4308.475
2768.22863	4300.575
2770.79994	4285.775
2773.36967	4289.075
2775.9378	4300.875
2778.50435	4276.875
2781.06932	4264.075
2783.6327	4274.075
2786.1945	4271.775
2788.75471	4253.475
2791.31335	4240.875
2793.87041	4232.475
2796.42589	4207.375
2798.97979	4210.275
2801.53212	4181.975
2804.08288	4186.775
2806.63206	4179.975
2809.17967	4164.075
2811.72571	4162.075
2814.27018	4161.175
2816.81308	4145.775
2819.35442	4147.675
2821.89419	4136.275
2824.43239	4145.275
2826.96904	4150.875
2829.50412	4130.975
2832.03763	4123.975
2834.56959	4131.775
2837.1	4122.675
2839.62884	4126.075
2842.15613	4111.075
2844.68186	4121.775
2847.20604	4109.275
2849.72867	4123.575
2852.24974	4128.975
2854.76927	4121.975
2857.28724	4105.275
2859.80367	4111.375
2862.31855	4105.875
2864.83189	4107.675
2867.34368	4087.175
2869.85393	4094.575
2872.36264	4099.375
2874.8698	4100.875
2877.37543	4103.675
2879.87952	4099.375
2882.38207	4100.775
2884.88308	4084.675
2887.38256	4096.075
2889.88051	4086.275
2892.37692	4081.275
2894.8718	4082.175
2897.36515	4070.075
2899.85698	4068.975
2902.34727	4079.675
2904.83604	4079.275
2907.32328	4083.575
2909.809	4062.175
2912.29319	4080.475
2914.77587	4083.475
2917.25702	4067.875
2919.73665	4069.375
2922.21476	4046.275
2924.69136	4065.575
2927.16644	4067.275
2929.64	4061.275
2932.11205	4051.875
2934.58258	4029.275
2937.05161	4054.375
2939.51912	4026.975
2941.98513	4025.675
2944.44962	4014.775
2946.91261	4002.375
2949.37409	4005.375
2951.83407	4005.175
2954.29254	3995.375
2956.74951	3984.275
2959.20498	3988.875
2961.65895	3978.675
2964.11142	3987.175
2966.56239	3976.175
2969.01186	3969.975
2971.45984	3966.675
2973.90632	3944.875
2976.35131	3940.075
2978.7948	3932.775
2981.23681	3923.975
2983.67732	3914.175
2986.11635	3915.975
2988.55388	3909.475
2990.98993	3903.375
2993.4245	3891.375
2995.85758	3886.575
2998.28917	3893.375
3000.71928	3876.775
3003.14791	3869.675
3005.57506	3855.475
3008.00073	3866.375
3010.42493	3854.275
3012.84764	3851.075
3015.26888	3836.175
3017.68865	3852.875
3020.10694	3840.675
3022.52376	3838.175
3024.9391	3821.175
3027.35298	3806.575
3029.76539	3811.675
3032.17632	3809.475
3034.5858	3791.675
3036.9938	3783.975
3039.40034	3787.775
3041.80542	3786.775
3044.20903	3805.875
3046.61118	3785.675
3049.01187	3784.675
3051.4111	3763.675
3053.80888	3760.475
3056.20519	3772.575
3058.60005	3762.375
3060.99345	3758.375
3063.3854	3771.875
3065.7759	3765.975
3068.16494	3753.375
3070.55254	3736.075
3072.93868	3752.275
3075.32338	3720.975
3077.70662	3737.775
3080.08842	3722.175
3082.46878	3737.575
3084.84769	3731.675
3087.22515	3730.575
3089.60118	3739.575
3091.97576	3743.675
3094.3489	3745.175
3096.72061	3744.175
3099.09087	3755.375
3101.4597	3736.375
3103.82709	3752.775
3106.19305	3743.475
3108.55757	3750.175
3110.92066	3744.875
3113.28232	3735.675
3115.64255	3720.775
3118.00134	3732.575
3120.35871	3730.375
3122.71466	3728.575
3125.06917	3723.275
3127.42226	3721.275
3129.77393	3722.775
3132.12417	3732.175
3134.47299	3738.875
3136.82039	3746.375
3139.16636	3747.375
3141.51092	3756.475
3143.85406	3760.975
3146.19579	3760.675
3148.53609	3774.875
3150.87499	3786.975
3153.21246	3780.075
3155.54853	3793.075
3157.88318	3800.675
3160.21642	3804.375
3162.54826	3802.575
3164.87868	3807.875
3167.2077	3802.275
3169.5353	3810.375
3171.86151	3815.875
3174.18631	3817.575
3176.5097	3805.075
3178.83169	3812.175
3181.15228	3816.875
3183.47147	3812.175
3185.78926	3817.075
3188.10565	3814.575
3190.42065	3809.375
3192.73424	3821.475
3195.04645	3827.375
3197.35725	3836.575
