Data from AgNPs_FTO_APTES_UA_10uM_R6G_10uM_NaF_0.1M_Addition_RamanShift__31__13-46-07-337.txt Node

Date: Fri Dec 17 13:46:07 GMT 2021
User: TCL
Spectrometer: QEP01345
Trigger mode: 4
Integration Time (sec): 7.000000E0
Scans to average: 10
Electric dark correction enabled: true
Nonlinearity correction enabled: false
Boxcar width: 0
XAxis mode: Raman Shifts
Number of Pixels in Spectrum: 1044
>>>>>Begin Spectral Data<<<<<
46.04893	0.4375
50.45542	-0.6625
54.85868	-1.3625
59.25871	-0.0625
63.6555	51.2375
68.04907	50.3375
72.43941	50.7375
76.82654	55.8375
81.21044	57.9375
85.59113	57.3375
89.96862	64.1375
94.34289	62.4375
98.71396	67.7375
103.08183	67.9375
107.4465	71.3375
111.80798	70.7375
116.16626	72.6375
120.52136	72.7375
124.87327	78.2375
129.222	76.2375
133.56755	77.0375
137.90993	85.5375
142.24913	88.6375
146.58517	95.1375
150.91804	103.1375
155.24774	117.1375
159.57429	138.6375
163.89768	170.3375
168.21792	213.6375
172.53501	288.2375
176.84895	377.6375
181.15975	521.8375
185.46741	724.2375
189.77193	990.2375
194.07331	1312.6375
198.37157	1690.5375
202.6667	2093.7375
206.9587	2494.6375
211.24758	2881.1375
215.53334	3267.8375
219.81599	3732.1375
224.09553	4256.2375
228.37195	4828.5375
232.64527	5444.8375
236.91549	6083.5375
241.18261	6660.6375
245.44663	7123.7375
249.70755	7498.6375
253.96539	7836.0375
258.22014	8115.8375
262.4718	8387.3375
266.72039	8597.6375
270.96589	8733.4375
275.20832	8746.6375
279.44768	8647.4375
283.68397	8500.0375
287.91719	8361.8375
292.14735	8392.6375
296.37445	8547.2375
300.59849	8857.9375
304.81948	9280.7375
309.03742	9541.3375
313.25231	9512.0375
317.46415	9063.7375
321.67296	8395.4375
325.87872	7856.9375
330.08145	7610.1375
334.28114	7621.0375
338.47781	7744.8375
342.67145	7992.1375
346.86207	8345.5375
351.04966	8874.3375
355.23424	9431.0375
359.4158	9914.1375
363.59435	10179.9375
367.76989	10284.4375
371.94243	10346.5375
376.11196	10311.4375
380.27849	10305.9375
384.44203	10235.4375
388.60257	10106.7375
392.76012	10028.6375
396.91468	10078.9375
401.06626	10318.2375
405.21485	10526.3375
409.36047	10306.3375
413.50311	9820.4375
417.64277	9317.2375
421.77947	9043.1375
425.9132	8930.9375
430.04396	8912.0375
434.17176	8963.1375
438.2966	9079.3375
442.41849	9300.0375
446.53742	9514.5375
450.6534	9772.6375
454.76644	9915.1375
458.87653	9960.4375
462.98368	9919.8375
467.08789	9758.5375
471.18916	9571.8375
475.2875	9349.2375
479.38291	9231.4375
483.4754	9093.4375
487.56496	9042.6375
491.6516	8989.7375
495.73531	8977.9375
499.81612	9003.6375
503.89401	9087.5375
507.96899	9235.9375
512.04106	9419.5375
516.11023	9640.4375
520.1765	9772.7375
524.23987	9772.6375
528.30034	9563.4375
532.35792	9352.0375
536.41261	9155.4375
540.46441	8951.5375
544.51333	8875.8375
548.55936	8891.9375
552.60252	9043.3375
556.64279	9239.8375
560.6802	9331.9375
564.71473	9439.9375
568.7464	9784.2375
572.7752	9970.7375
576.80114	9765.0375
580.82422	9448.0375
584.84444	9333.0375
588.86181	9322.6375
592.87633	9366.9375
596.888	9454.5375
600.89682	9809.5375
604.9028	10895.8375
608.90594	13743.2375
612.90624	17485.1375
616.90371	17060.6375
620.89834	12331.8375
624.89015	10010.8375
628.87913	9557.4375
632.86528	9628.8375
636.84862	9812.9375
640.82913	9727.7375
644.80683	9397.3375
648.78172	9174.1375
652.75379	9214.9375
656.72306	9562.2375
660.68952	9997.3375
664.65319	9906.4375
668.61405	9430.2375
672.57211	9219.0375
676.52738	9201.2375
680.47986	9213.7375
684.42955	9197.2375
688.37646	9173.1375
692.32058	9196.4375
696.26192	9278.2375
700.20048	9375.2375
704.13626	9492.2375
708.06928	9484.3375
711.99952	9414.6375
715.927	9391.5375
719.85171	9406.8375
723.77365	9424.3375
727.69284	9371.1375
731.60928	9303.2375
735.52295	9310.4375
739.43388	9356.8375
743.34206	9402.0375
747.24749	9447.0375
751.15017	9514.8375
755.05012	9654.5375
758.94733	10052.8375
762.8418	10879.9375
766.73354	12345.7375
770.62254	14027.0375
774.50882	15082.1375
778.39237	14662.0375
782.27321	12960.7375
786.15132	11216.4375
790.02671	10267.9375
793.89938	9840.8375
797.76935	9669.3375
801.6366	9608.8375
805.50115	9556.1375
809.36299	9546.4375
813.22213	9563.6375
817.07857	9555.8375
820.93231	9534.9375
824.78336	9549.7375
828.63172	9561.8375
832.47738	9582.0375
836.32036	9562.5375
840.16066	9532.4375
843.99827	9504.8375
847.8332	9493.7375
851.66546	9489.6375
855.49504	9493.1375
859.32195	9467.0375
863.1462	9480.0375
866.96777	9491.9375
870.78668	9482.5375
874.60293	9503.1375
878.41652	9557.6375
882.22745	9614.2375
886.03573	9675.9375
889.84136	9679.5375
893.64433	9638.2375
897.44466	9604.8375
901.24235	9603.2375
905.0374	9557.9375
908.8298	9532.0375
912.61957	9518.4375
916.40671	9532.9375
920.19121	9572.8375
923.97308	9626.1375
927.75233	9697.2375
931.52895	9802.4375
935.30295	9741.7375
939.07433	9559.2375
942.84309	9390.4375
946.60924	9297.9375
950.37278	9220.0375
954.13371	9170.9375
957.89203	9168.1375
961.64774	9136.3375
965.40086	9114.9375
969.15137	9084.3375
972.89929	9090.2375
976.64461	9074.7375
980.38733	9090.4375
984.12747	9128.2375
987.86502	9143.8375
991.59999	9199.5375
995.33237	9260.3375
999.06217	9397.8375
1002.78939	9577.7375
1006.51404	9724.0375
1010.23611	9895.3375
1013.95561	10050.1375
1017.67255	10062.3375
1021.38692	9976.6375
1025.09872	9834.2375
1028.80796	9730.5375
1032.51465	9764.6375
1036.21877	9828.4375
1039.92035	9941.4375
1043.61937	9970.6375
1047.31584	9940.8375
1051.00976	9901.0375
1054.70114	9847.1375
1058.38998	9845.3375
1062.07627	9889.2375
1065.76003	9935.7375
1069.44126	9978.0375
1073.11995	10066.4375
1076.79611	10146.6375
1080.46974	10294.3375
1084.14085	10462.4375
1087.80943	10680.7375
1091.47549	10754.8375
1095.13903	10600.6375
1098.80005	10305.2375
1102.45857	10057.2375
1106.11456	10005.5375
1109.76805	10056.8375
1113.41903	10251.9375
1117.06751	10548.7375
1120.71348	10887.9375
1124.35696	11273.4375
1127.99793	11588.8375
1131.63641	11602.4375
1135.2724	11172.4375
1138.90589	10772.2375
1142.5369	10504.8375
1146.16542	10314.6375
1149.79145	10165.3375
1153.415	10136.6375
1157.03607	10203.6375
1160.65467	10351.6375
1164.27079	10579.2375
1167.88443	10963.4375
1171.49561	11618.1375
1175.10432	12674.4375
1178.71056	14234.7375
1182.31434	15466.8375
1185.91565	15817.8375
1189.51451	15440.6375
1193.11091	14525.9375
1196.70485	13469.4375
1200.29634	12760.3375
1203.88538	12242.1375
1207.47197	11693.6375
1211.05612	11202.8375
1214.63782	10935.2375
1218.21708	10798.2375
1221.79391	10794.1375
1225.36829	10871.2375
1228.94024	10986.2375
1232.50976	11102.1375
1236.07685	11209.8375
1239.6415	11283.4375
1243.20374	11270.9375
1246.76355	11301.9375
1250.32093	11351.9375
1253.8759	11514.3375
1257.42845	11720.4375
1260.97859	11960.9375
1264.52631	12223.8375
1268.07163	12486.8375
1271.61453	12756.2375
1275.15503	12926.9375
1278.69312	13010.1375
1282.22882	13060.5375
1285.76211	13230.3375
1289.29301	13526.6375
1292.82151	13845.3375
1296.34761	14162.8375
1299.87133	14630.0375
1303.39266	15535.0375
1306.9116	16932.9375
1310.42815	18546.3375
1313.94233	19532.2375
1317.45412	19124.0375
1320.96354	17996.9375
1324.47058	16733.7375
1327.97525	15643.1375
1331.47754	15005.2375
1334.97747	14815.9375
1338.47502	14950.6375
1341.97022	15308.9375
1345.46305	15832.0375
1348.95352	16699.1375
1352.44163	17877.6375
1355.92738	19497.3375
1359.41078	21866.3375
1362.89183	24175.3375
1366.37053	23701.1375
1369.84688	20491.2375
1373.32088	17197.4375
1376.79254	15127.2375
1380.26186	14034.4375
1383.72883	13479.7375
1387.19347	13022.4375
1390.65578	12531.7375
1394.11575	12133.7375
1397.57339	11897.2375
1401.0287	11899.2375
1404.48168	11970.9375
1407.93234	12213.5375
1411.38068	12409.5375
1414.82669	12519.8375
1418.27039	12475.2375
1421.71177	12330.7375
1425.15083	12189.1375
1428.58758	12135.2375
1432.02203	12143.5375
1435.45416	12236.0375
1438.88399	12275.0375
1442.31151	12256.7375
1445.73673	12307.7375
1449.15965	12358.8375
1452.58027	12314.9375
1455.9986	12177.0375
1459.41463	12145.6375
1462.82837	12209.3375
1466.23982	12356.6375
1469.64898	12533.1375
1473.05586	12704.0375
1476.46045	12808.8375
1479.86276	12980.7375
1483.26279	13247.8375
1486.66054	13601.0375
1490.05602	14035.2375
1493.44922	14655.0375
1496.84016	15585.3375
1500.22882	16982.9375
1503.61521	18767.6375
1506.99934	20724.3375
1510.38121	22466.2375
1513.76081	23047.6375
1517.13816	21870.1375
1520.51324	19398.5375
1523.88607	16987.4375
1527.25665	15300.5375
1530.62498	14397.2375
1533.99105	13834.3375
1537.35488	13479.4375
1540.71647	13325.6375
1544.07581	13301.1375
1547.4329	13308.1375
1550.78776	13299.1375
1554.14038	13317.7375
1557.49077	13380.4375
1560.83892	13520.3375
1564.18484	13784.9375
1567.52853	14097.0375
1570.86999	14444.1375
1574.20922	14714.2375
1577.54624	14695.8375
1580.88103	14157.8375
1584.2136	13364.2375
1587.54395	12903.7375
1590.87208	12911.8375
1594.19801	13419.9375
1597.52172	14132.2375
1600.84321	14490.8375
1604.16251	14215.2375
1607.47959	13575.3375
1610.79447	12877.5375
1614.10715	12130.6375
1617.41763	11580.9375
1620.7259	11227.4375
1624.03199	11058.1375
1627.33587	11082.8375
1630.63757	11233.3375
1633.93707	11611.5375
1637.23439	12150.0375
1640.52951	12920.8375
1643.82246	13948.6375
1647.11321	15169.6375
1650.40179	16133.5375
1653.68819	15940.5375
1656.97241	14403.8375
1660.25446	12606.6375
1663.53433	11324.2375
1666.81203	10593.5375
1670.08756	10130.0375
1673.36092	9863.2375
1676.63211	9686.5375
1679.90115	9547.6375
1683.16801	9442.1375
1686.43272	9364.6375
1689.69527	9314.6375
1692.95567	9310.2375
1696.2139	9283.1375
1699.46999	9274.2375
1702.72392	9259.2375
1705.97571	9232.5375
1709.22535	9219.2375
1712.47284	9200.7375
1715.71819	9225.2375
1718.96139	9205.7375
1722.20246	9193.8375
1725.44139	9179.7375
1728.67818	9131.1375
1731.91284	9072.2375
1735.14537	9035.6375
1738.37576	8987.8375
1741.60403	8953.9375
1744.83017	8935.5375
1748.05418	8912.0375
1751.27607	8897.8375
1754.49584	8875.5375
1757.71349	8909.2375
1760.92903	8901.8375
1764.14244	8878.8375
1767.35375	8883.3375
1770.56294	8852.4375
1773.77002	8834.1375
1776.97499	8828.2375
1780.17785	8798.3375
1783.37861	8782.9375
1786.57727	8782.4375
1789.77382	8754.9375
1792.96828	8744.5375
1796.16064	8734.3375
1799.3509	8737.4375
1802.53907	8719.8375
1805.72514	8700.6375
1808.90913	8695.8375
1812.09102	8685.7375
1815.27083	8650.7375
1818.44856	8621.6375
1821.6242	8632.4375
1824.79776	8598.3375
1827.96924	8604.7375
1831.13864	8597.5375
1834.30597	8599.3375
1837.47122	8604.5375
1840.6344	8570.5375
1843.7955	8587.7375
1846.95454	8587.3375
1850.11151	8571.8375
1853.26642	8557.0375
1856.41926	8548.9375
1859.57004	8559.5375
1862.71876	8600.2375
1865.86542	8563.6375
1869.01003	8578.5375
1872.15258	8558.9375
1875.29308	8561.8375
1878.43152	8564.2375
1881.56792	8570.5375
1884.70227	8555.3375
1887.83457	8592.2375
1890.96482	8571.5375
1894.09304	8565.4375
1897.21921	8559.4375
1900.34335	8571.6375
1903.46544	8571.8375
1906.58551	8556.1375
1909.70353	8575.4375
1912.81953	8559.9375
1915.93349	8541.6375
1919.04543	8547.3375
1922.15534	8516.4375
1925.26322	8507.8375
1928.36908	8494.5375
1931.47292	8485.9375
1934.57473	8459.1375
1937.67453	8403.9375
1940.77232	8382.0375
1943.86808	8355.5375
1946.96184	8312.2375
1950.05358	8298.5375
1953.14331	8278.1375
1956.23103	8254.0375
1959.31675	8219.0375
1962.40046	8180.9375
1965.48217	8158.9375
1968.56188	8145.7375
1971.63959	8132.3375
1974.7153	8083.9375
1977.78901	8072.0375
1980.86073	8065.3375
1983.93046	8033.8375
1986.99819	8002.0375
1990.06394	7959.2375
1993.1277	7956.4375
1996.18947	7918.8375
1999.24925	7902.0375
2002.30706	7869.2375
2005.36288	7847.4375
2008.41672	7847.6375
2011.46859	7820.4375
2014.51848	7812.6375
2017.56639	7775.1375
2020.61233	7758.7375
2023.6563	7736.0375
2026.6983	7718.4375
2029.73833	7701.4375
2032.7764	7682.7375
2035.8125	7662.0375
2038.84664	7647.4375
2041.87881	7633.7375
2044.90903	7605.6375
2047.93729	7608.9375
2050.96359	7587.6375
2053.98794	7574.7375
2057.01034	7577.0375
2060.03078	7576.2375
2063.04927	7563.3375
2066.06582	7579.4375
2069.08042	7556.2375
2072.09307	7549.0375
2075.10378	7557.7375
2078.11255	7532.2375
2081.11938	7546.6375
2084.12426	7524.3375
2087.12722	7541.7375
2090.12824	7519.9375
2093.12732	7535.8375
2096.12447	7527.2375
2099.11969	7527.4375
2102.11299	7531.9375
2105.10435	7534.0375
2108.09379	7523.4375
2111.08131	7537.4375
2114.0669	7538.9375
2117.05057	7548.7375
2120.03233	7549.8375
2123.01216	7574.1375
2125.99008	7557.2375
2128.96609	7585.9375
2131.94018	7588.5375
2134.91236	7571.5375
2137.88263	7578.6375
2140.851	7612.4375
2143.81746	7585.7375
2146.78201	7602.0375
2149.74466	7594.8375
2152.7054	7575.5375
2155.66425	7583.2375
2158.6212	7578.8375
2161.57625	7570.1375
2164.52941	7573.0375
2167.48067	7553.1375
2170.43004	7588.7375
2173.37752	7572.8375
2176.32311	7568.3375
2179.26681	7564.5375
2182.20863	7566.0375
2185.14856	7537.5375
2188.08661	7565.2375
2191.02278	7544.3375
2193.95707	7549.4375
2196.88948	7527.9375
2199.82001	7545.5375
2202.74867	7510.8375
2205.67545	7529.1375
2208.60037	7502.1375
2211.52341	7498.4375
2214.44458	7494.0375
2217.36388	7475.4375
2220.28132	7451.0375
2223.1969	7434.0375
2226.11061	7421.5375
2229.02246	7406.7375
2231.93245	7401.5375
2234.84058	7388.6375
2237.74686	7357.0375
2240.65128	7364.7375
2243.55385	7362.1375
2246.45456	7334.3375
2249.35343	7336.4375
2252.25044	7300.8375
2255.14561	7309.0375
2258.03893	7313.5375
2260.93041	7315.4375
2263.82004	7295.5375
2266.70783	7298.8375
2269.59378	7251.6375
2272.4779	7252.1375
2275.36017	7222.1375
2278.24061	7227.4375
2281.11922	7185.9375
2283.996	7197.4375
2286.87094	7167.3375
2289.74405	7153.4375
2292.61534	7146.8375
2295.4848	7112.7375
2298.35243	7119.3375
2301.21824	7109.3375
2304.08223	7106.0375
2306.94439	7082.8375
2309.80474	7097.1375
2312.66327	7090.7375
2315.51999	7067.4375
2318.37489	7066.8375
2321.22797	7048.3375
2324.07925	7067.7375
2326.92871	7038.4375
2329.77637	7038.8375
2332.62222	7010.1375
2335.46626	6991.1375
2338.3085	7014.1375
2341.14893	6991.3375
2343.98756	6978.5375
2346.8244	6987.4375
2349.65943	6993.6375
2352.49267	6978.3375
2355.32411	6978.9375
2358.15376	6970.3375
2360.98161	6977.7375
2363.80768	6978.9375
2366.63195	6977.6375
2369.45444	6968.6375
2372.27514	6977.1375
2375.09405	6985.8375
2377.91118	6948.3375
2380.72652	6934.1375
2383.54009	6910.1375
2386.35187	6879.3375
2389.16188	6849.2375
2391.97011	6857.5375
2394.77657	6818.5375
2397.58125	6777.2375
2400.38416	6796.4375
2403.18529	6768.0375
2405.98466	6760.8375
2408.78226	6744.7375
2411.57809	6730.1375
2414.37216	6725.2375
2417.16446	6711.6375
2419.955	6711.9375
2422.74378	6709.1375
2425.5308	6689.5375
2428.31606	6674.5375
2431.09956	6704.0375
2433.88131	6682.7375
2436.6613	6673.3375
2439.43954	6661.5375
2442.21603	6661.6375
2444.99077	6654.0375
2447.76377	6659.4375
2450.53501	6637.7375
2453.30451	6643.9375
2456.07226	6652.0375
2458.83827	6625.7375
2461.60254	6622.6375
2464.36507	6628.2375
2467.12586	6601.3375
2469.88492	6605.1375
2472.64224	6600.0375
2475.39782	6611.2375
2478.15167	6601.3375
2480.90379	6584.4375
2483.65417	6594.3375
2486.40283	6621.1375
2489.14976	6616.0375
2491.89497	6604.0375
2494.63845	6613.7375
2497.3802	6607.2375
2500.12024	6603.7375
2502.85855	6584.0375
2505.59514	6577.0375
2508.33002	6564.8375
2511.06318	6534.7375
2513.79462	6520.4375
2516.52435	6493.1375
2519.25237	6488.4375
2521.97867	6473.1375
2524.70327	6451.8375
2527.42616	6433.6375
2530.14734	6413.9375
2532.86681	6420.7375
2535.58458	6408.7375
2538.30065	6394.3375
2541.01501	6403.5375
2543.72768	6367.2375
2546.43864	6385.0375
2549.14791	6371.4375
2551.85548	6370.8375
2554.56136	6372.0375
2557.26554	6362.2375
2559.96803	6327.9375
2562.66883	6325.0375
2565.36794	6315.8375
2568.06536	6316.4375
2570.7611	6283.3375
2573.45514	6278.2375
2576.14751	6273.8375
2578.83819	6267.7375
2581.52719	6251.4375
2584.21451	6241.0375
2586.90015	6239.3375
2589.58411	6225.3375
2592.2664	6197.2375
2594.94701	6190.9375
2597.62594	6187.5375
2600.30321	6190.7375
2602.9788	6163.1375
2605.65273	6169.4375
2608.32498	6165.0375
2610.99557	6159.0375
2613.66449	6133.7375
2616.33175	6120.6375
2618.99734	6129.2375
2621.66128	6113.1375
2624.32355	6103.5375
2626.98416	6103.9375
2629.64311	6099.3375
2632.30041	6104.1375
2634.95605	6060.3375
2637.61004	6065.8375
2640.26238	6064.2375
2642.91306	6047.1375
2645.56209	6039.8375
2648.20948	6013.0375
2650.85521	6014.7375
2653.4993	6027.2375
2656.14175	6003.8375
2658.78255	6033.8375
2661.42171	6026.7375
2664.05923	6034.6375
2666.6951	6014.9375
2669.32934	6032.4375
2671.96194	6034.6375
2674.59291	6044.9375
2677.22224	6024.6375
2679.84993	6032.2375
2682.476	6030.3375
2685.10043	6035.6375
2687.72324	6028.7375
2690.34441	6026.0375
2692.96396	6013.2375
2695.58188	6033.0375
2698.19818	6020.8375
2700.81285	6030.0375
2703.4259	6050.3375
2706.03733	6044.0375
2708.64714	6030.1375
2711.25533	6045.9375
2713.86191	6049.2375
2716.46687	6033.1375
2719.07021	6023.4375
2721.67194	6040.9375
2724.27206	6036.6375
2726.87057	6052.1375
2729.46747	6036.3375
2732.06276	6038.3375
2734.65644	6014.7375
2737.24852	6007.7375
2739.83899	5993.7375
2742.42786	5988.8375
2745.01513	5961.2375
2747.60079	5986.5375
2750.18486	5972.6375
2752.76733	5961.3375
2755.3482	5947.3375
2757.92747	5952.3375
2760.50515	5943.6375
2763.08123	5953.3375
2765.65573	5932.3375
2768.22863	5904.7375
2770.79994	5896.8375
2773.36967	5902.9375
2775.9378	5895.0375
2778.50435	5879.3375
2781.06932	5876.6375
2783.6327	5877.3375
2786.1945	5863.4375
2788.75471	5867.7375
2791.31335	5838.3375
2793.87041	5853.4375
2796.42589	5829.6375
2798.97979	5826.7375
2801.53212	5819.9375
2804.08288	5804.0375
2806.63206	5812.8375
2809.17967	5813.5375
2811.72571	5808.5375
2814.27018	5813.9375
2816.81308	5800.0375
2819.35442	5799.3375
2821.89419	5807.7375
2824.43239	5806.1375
2826.96904	5799.8375
2829.50412	5813.8375
2832.03763	5791.6375
2834.56959	5781.2375
2837.1	5809.3375
2839.62884	5817.6375
2842.15613	5845.6375
2844.68186	5880.4375
2847.20604	5919.7375
2849.72867	5958.9375
2852.24974	5962.2375
2854.76927	5981.5375
2857.28724	5939.7375
2859.80367	5944.1375
2862.31855	5923.0375
2864.83189	5912.0375
2867.34368	5894.3375
2869.85393	5890.6375
2872.36264	5884.2375
2874.8698	5882.9375
2877.37543	5870.6375
2879.87952	5871.2375
2882.38207	5851.9375
2884.88308	5859.8375
2887.38256	5865.4375
2889.88051	5870.3375
2892.37692	5869.4375
2894.8718	5853.3375
2897.36515	5879.8375
2899.85698	5864.6375
2902.34727	5886.7375
2904.83604	5884.9375
2907.32328	5907.8375
2909.809	5871.4375
2912.29319	5884.4375
2914.77587	5866.2375
2917.25702	5856.7375
2919.73665	5832.8375
2922.21476	5825.5375
2924.69136	5822.4375
2927.16644	5812.6375
2929.64	5810.5375
2932.11205	5792.0375
2934.58258	5777.1375
2937.05161	5757.2375
2939.51912	5747.4375
2941.98513	5724.6375
2944.44962	5679.7375
2946.91261	5636.2375
2949.37409	5642.4375
2951.83407	5623.8375
2954.29254	5616.4375
2956.74951	5583.1375
2959.20498	5576.0375
2961.65895	5564.0375
2964.11142	5547.9375
2966.56239	5526.0375
2969.01186	5529.5375
2971.45984	5492.1375
2973.90632	5491.0375
2976.35131	5461.1375
2978.7948	5440.7375
2981.23681	5431.4375
2983.67732	5412.9375
2986.11635	5383.6375
2988.55388	5372.0375
2990.98993	5360.8375
2993.4245	5353.8375
2995.85758	5358.9375
2998.28917	5316.6375
3000.71928	5327.3375
3003.14791	5308.1375
3005.57506	5302.8375
3008.00073	5278.0375
3010.42493	5276.4375
3012.84764	5259.9375
3015.26888	5259.3375
3017.68865	5261.3375
3020.10694	5262.7375
3022.52376	5242.4375
3024.9391	5227.9375
3027.35298	5218.7375
3029.76539	5214.8375
3032.17632	5208.7375
3034.5858	5186.1375
3036.9938	5193.2375
3039.40034	5188.6375
3041.80542	5168.0375
3044.20903	5147.5375
3046.61118	5153.7375
3049.01187	5136.1375
3051.4111	5150.6375
3053.80888	5133.9375
3056.20519	5133.0375
3058.60005	5111.0375
3060.99345	5103.8375
3063.3854	5104.1375
3065.7759	5080.3375
3068.16494	5096.0375
3070.55254	5063.0375
3072.93868	5046.2375
3075.32338	5047.1375
3077.70662	5028.8375
3080.08842	5017.8375
3082.46878	5010.6375
3084.84769	4994.7375
3087.22515	4986.6375
3089.60118	4992.6375
3091.97576	4991.9375
3094.3489	4978.1375
3096.72061	4973.3375
3099.09087	4990.7375
3101.4597	4979.6375
3103.82709	4976.1375
