Data from AgNPs_FTO_APTES_UA_10uM_R6G_10uM_NaF_0.1M_Addition_RamanShift__10__13-21-37-309.txt Node

Date: Fri Dec 17 13:21:37 GMT 2021
User: TCL
Spectrometer: QEP01345
Trigger mode: 4
Integration Time (sec): 7.000000E0
Scans to average: 10
Electric dark correction enabled: true
Nonlinearity correction enabled: false
Boxcar width: 0
XAxis mode: Raman Shifts
Number of Pixels in Spectrum: 1044
>>>>>Begin Spectral Data<<<<<
46.04893	0.075
50.45542	0.275
54.85868	-2.225
59.25871	0.375
63.6555	90.875
68.04907	91.475
72.43941	97.275
76.82654	102.675
81.21044	100.575
85.59113	107.075
89.96862	111.775
94.34289	115.675
98.71396	124.375
103.08183	118.775
107.4465	126.075
111.80798	130.175
116.16626	133.575
120.52136	135.675
124.87327	147.975
129.222	152.275
133.56755	159.475
137.90993	177.275
142.24913	188.875
146.58517	215.775
150.91804	250.175
155.24774	299.175
159.57429	369.575
163.89768	478.475
168.21792	635.175
172.53501	859.575
176.84895	1195.975
181.15975	1679.975
185.46741	2351.775
189.77193	3257.375
194.07331	4368.175
198.37157	5662.575
202.6667	7013.275
206.9587	8357.375
211.24758	9684.075
215.53334	10970.775
219.81599	12365.775
224.09553	13875.375
228.37195	15510.475
232.64527	17344.675
236.91549	19348.075
241.18261	21356.775
245.44663	23320.375
249.70755	25131.375
253.96539	26627.975
258.22014	27920.775
262.4718	28898.975
266.72039	29563.175
270.96589	29938.875
275.20832	29930.975
279.44768	29656.175
283.68397	29276.275
287.91719	28930.775
292.14735	28655.575
296.37445	28470.675
300.59849	28389.975
304.81948	28401.175
309.03742	28383.375
313.25231	28260.375
317.46415	27885.575
321.67296	27493.475
325.87872	27069.075
330.08145	26941.975
334.28114	27046.775
338.47781	27267.175
342.67145	27588.975
346.86207	27970.875
351.04966	28490.675
355.23424	29006.275
359.4158	29420.475
363.59435	29868.575
367.76989	30164.575
371.94243	30329.475
376.11196	30432.675
380.27849	30611.575
384.44203	30770.875
388.60257	30980.475
392.76012	31221.675
396.91468	31579.875
401.06626	31927.175
405.21485	32198.275
409.36047	32152.275
413.50311	31792.975
417.64277	31583.475
421.77947	31561.575
425.9132	31681.275
430.04396	31865.375
434.17176	31938.375
438.2966	32101.675
442.41849	32379.875
446.53742	32749.475
450.6534	33160.775
454.76644	33539.775
458.87653	33758.375
462.98368	33818.775
467.08789	33733.775
471.18916	33578.075
475.2875	33276.375
479.38291	33025.175
483.4754	32806.875
487.56496	32684.775
491.6516	32541.775
495.73531	32486.575
499.81612	32552.075
503.89401	32739.175
507.96899	32891.975
512.04106	32977.775
516.11023	32993.375
520.1765	32901.475
524.23987	32847.575
528.30034	32657.975
532.35792	32519.875
536.41261	32379.275
540.46441	32187.575
544.51333	32124.775
548.55936	32319.475
552.60252	32617.675
556.64279	32976.075
560.6802	33193.975
564.71473	33293.575
568.7464	33386.875
572.7752	33679.175
576.80114	33978.875
580.82422	34446.775
584.84444	35009.875
588.86181	35463.675
592.87633	35794.775
596.888	35713.475
600.89682	35591.375
604.9028	36324.175
608.90594	38668.375
612.90624	41192.275
616.90371	39750.775
620.89834	35608.975
624.89015	33551.175
628.87913	33220.375
632.86528	33354.975
636.84862	33509.575
640.82913	33401.175
644.80683	32958.575
648.78172	32556.275
652.75379	32541.375
656.72306	32843.275
660.68952	33219.775
664.65319	33144.375
668.61405	32872.775
672.57211	32865.275
676.52738	33010.575
680.47986	33019.475
684.42955	32865.275
688.37646	32801.775
692.32058	32954.475
696.26192	33196.975
700.20048	33428.375
704.13626	33660.075
708.06928	33572.875
711.99952	33426.775
715.927	33299.175
719.85171	33321.475
723.77365	33271.375
727.69284	33103.275
731.60928	32804.675
735.52295	32661.075
739.43388	32633.775
743.34206	32690.675
747.24749	32795.175
751.15017	32906.675
755.05012	33138.775
758.94733	33635.875
762.8418	34597.175
766.73354	36150.975
770.62254	37703.475
774.50882	38331.475
778.39237	37633.675
782.27321	36181.375
786.15132	34838.475
790.02671	33874.975
793.89938	33369.275
797.76935	33097.275
801.6366	32950.775
805.50115	32859.275
809.36299	32772.675
813.22213	32630.775
817.07857	32509.075
820.93231	32461.475
824.78336	32439.775
828.63172	32454.975
832.47738	32429.575
836.32036	32426.875
840.16066	32407.975
843.99827	32408.975
847.8332	32382.475
851.66546	32429.775
855.49504	32426.275
859.32195	32475.675
863.1462	32529.375
866.96777	32497.775
870.78668	32569.875
874.60293	32597.975
878.41652	32653.175
882.22745	32778.675
886.03573	32866.175
889.84136	32945.975
893.64433	32897.175
897.44466	32768.675
901.24235	32685.475
905.0374	32678.075
908.8298	32623.375
912.61957	32622.775
916.40671	32698.075
920.19121	32804.875
923.97308	32953.675
927.75233	33034.175
931.52895	32993.875
935.30295	32789.575
939.07433	32479.475
942.84309	32269.975
946.60924	32087.575
950.37278	31986.775
954.13371	31940.475
957.89203	31850.675
961.64774	31879.875
965.40086	31769.875
969.15137	31759.275
972.89929	31731.175
976.64461	31722.575
980.38733	31720.075
984.12747	31744.575
987.86502	31811.575
991.59999	31903.575
995.33237	32079.375
999.06217	32357.875
1002.78939	32680.975
1006.51404	33057.675
1010.23611	33490.975
1013.95561	33756.375
1017.67255	33789.875
1021.38692	33638.075
1025.09872	33377.075
1028.80796	33125.475
1032.51465	33013.575
1036.21877	32977.175
1039.92035	33046.275
1043.61937	33143.575
1047.31584	33141.775
1051.00976	33197.475
1054.70114	33303.075
1058.38998	33394.775
1062.07627	33683.675
1065.76003	34018.875
1069.44126	34381.175
1073.11995	34862.675
1076.79611	35310.075
1080.46974	35594.375
1084.14085	35500.775
1087.80943	35574.375
1091.47549	35630.575
1095.13903	35607.075
1098.80005	35335.775
1102.45857	34955.675
1106.11456	34554.475
1109.76805	34310.575
1113.41903	34167.575
1117.06751	34147.575
1120.71348	34313.975
1124.35696	34510.875
1127.99793	34779.275
1131.63641	34979.575
1135.2724	34788.575
1138.90589	34597.075
1142.5369	34514.375
1146.16542	34446.575
1149.79145	34407.875
1153.415	34366.775
1157.03607	34438.275
1160.65467	34685.075
1164.27079	35293.075
1167.88443	36225.675
1171.49561	37341.675
1175.10432	38732.175
1178.71056	40496.275
1182.31434	42333.075
1185.91565	43684.275
1189.51451	44284.775
1193.11091	44116.775
1196.70485	43344.875
1200.29634	42189.175
1203.88538	41031.475
1207.47197	40067.075
1211.05612	39281.775
1214.63782	38603.575
1218.21708	37984.275
1221.79391	37409.075
1225.36829	37057.775
1228.94024	36858.775
1232.50976	36862.675
1236.07685	36791.375
1239.6415	36790.575
1243.20374	36839.675
1246.76355	36978.775
1250.32093	37246.075
1253.8759	37655.275
1257.42845	38286.075
1260.97859	39026.975
1264.52631	39728.675
1268.07163	40414.175
1271.61453	40977.575
1275.15503	41549.575
1278.69312	41898.775
1282.22882	42210.275
1285.76211	42561.375
1289.29301	43055.575
1292.82151	43708.675
1296.34761	44567.775
1299.87133	45672.875
1303.39266	46886.375
1306.9116	48415.375
1310.42815	49873.375
1313.94233	50721.275
1317.45412	50648.975
1320.96354	50079.475
1324.47058	49553.775
1327.97525	49099.875
1331.47754	48930.275
1334.97747	49028.475
1338.47502	49394.975
1341.97022	49980.475
1345.46305	50700.175
1348.95352	51405.175
1352.44163	51873.775
1355.92738	52224.275
1359.41078	52888.875
1362.89183	53466.775
1366.37053	52404.475
1369.84688	49344.075
1373.32088	45800.875
1376.79254	43181.975
1380.26186	41804.275
1383.72883	41222.675
1387.19347	40755.875
1390.65578	40265.375
1394.11575	39857.575
1397.57339	39616.475
1401.0287	39649.075
1404.48168	39691.975
1407.93234	39747.975
1411.38068	39720.775
1414.82669	39466.775
1418.27039	38891.875
1421.71177	38308.675
1425.15083	37812.775
1428.58758	37769.875
1432.02203	37874.775
1435.45416	38296.275
1438.88399	38694.475
1442.31151	39002.875
1445.73673	39093.775
1449.15965	39118.275
1452.58027	39156.875
1455.9986	39209.175
1459.41463	39404.775
1462.82837	39860.875
1466.23982	40417.775
1469.64898	40858.575
1473.05586	41135.775
1476.46045	41331.175
1479.86276	41301.275
1483.26279	41234.475
1486.66054	41323.175
1490.05602	41620.175
1493.44922	42127.675
1496.84016	42886.875
1500.22882	43976.175
1503.61521	45522.475
1506.99934	47105.175
1510.38121	48232.275
1513.76081	48182.975
1517.13816	46985.675
1520.51324	45285.075
1523.88607	43700.975
1527.25665	42701.775
1530.62498	42248.075
1533.99105	41875.675
1537.35488	41633.175
1540.71647	41228.075
1544.07581	40788.375
1547.4329	40453.275
1550.78776	40081.575
1554.14038	39803.475
1557.49077	39670.075
1560.83892	39638.475
1564.18484	39694.575
1567.52853	39813.875
1570.86999	40108.875
1574.20922	40477.275
1577.54624	40813.975
1580.88103	40677.575
1584.2136	40308.575
1587.54395	40140.875
1590.87208	40645.275
1594.19801	41589.775
1597.52172	42817.875
1600.84321	43513.275
1604.16251	42964.675
1607.47959	41671.675
1610.79447	40057.875
1614.10715	38228.775
1617.41763	36481.475
1620.7259	35153.575
1624.03199	34475.875
1627.33587	34229.275
1630.63757	34562.975
1633.93707	35483.275
1637.23439	37144.275
1640.52951	39563.175
1643.82246	42369.575
1647.11321	44510.075
1650.40179	44939.975
1653.68819	43183.275
1656.97241	39917.375
1660.25446	36561.275
1663.53433	34117.075
1666.81203	32555.575
1670.08756	31481.375
1673.36092	30883.175
1676.63211	30415.675
1679.90115	30101.475
1683.16801	29851.675
1686.43272	29688.775
1689.69527	29569.675
1692.95567	29437.575
1696.2139	29347.375
1699.46999	29311.575
1702.72392	29248.575
1705.97571	29205.675
1709.22535	29192.375
1712.47284	29097.275
1715.71819	29102.475
1718.96139	29072.375
1722.20246	29042.875
1725.44139	28927.375
1728.67818	28848.475
1731.91284	28681.875
1735.14537	28603.075
1738.37576	28510.075
1741.60403	28422.975
1744.83017	28339.575
1748.05418	28300.475
1751.27607	28258.075
1754.49584	28231.275
1757.71349	28210.775
1760.92903	28157.875
1764.14244	28169.975
1767.35375	28188.075
1770.56294	28140.175
1773.77002	28055.375
1776.97499	28019.675
1780.17785	27989.375
1783.37861	27951.475
1786.57727	27954.275
1789.77382	27907.675
1792.96828	27842.475
1796.16064	27815.875
1799.3509	27796.875
1802.53907	27717.375
1805.72514	27663.175
1808.90913	27580.575
1812.09102	27581.775
1815.27083	27535.675
1818.44856	27499.075
1821.6242	27485.075
1824.79776	27423.575
1827.96924	27438.375
1831.13864	27381.975
1834.30597	27449.875
1837.47122	27442.675
1840.6344	27395.875
1843.7955	27417.875
1846.95454	27412.075
1850.11151	27415.275
1853.26642	27310.875
1856.41926	27386.475
1859.57004	27315.275
1862.71876	27279.975
1865.86542	27254.175
1869.01003	27212.575
1872.15258	27184.875
1875.29308	27146.875
1878.43152	27088.175
1881.56792	27043.575
1884.70227	27035.475
1887.83457	27014.175
1890.96482	26979.775
1894.09304	26913.275
1897.21921	26863.175
1900.34335	26846.275
1903.46544	26824.975
1906.58551	26809.875
1909.70353	26728.275
1912.81953	26705.075
1915.93349	26609.675
1919.04543	26579.175
1922.15534	26514.275
1925.26322	26489.875
1928.36908	26485.475
1931.47292	26436.375
1934.57473	26331.475
1937.67453	26263.575
1940.77232	26186.875
1943.86808	26124.675
1946.96184	26048.675
1950.05358	25985.075
1953.14331	25970.575
1956.23103	25872.875
1959.31675	25822.175
1962.40046	25750.575
1965.48217	25670.175
1968.56188	25582.975
1971.63959	25518.675
1974.7153	25433.375
1977.78901	25357.875
1980.86073	25321.075
1983.93046	25232.275
1986.99819	25136.175
1990.06394	25079.575
1993.1277	24998.775
1996.18947	24865.875
1999.24925	24840.575
2002.30706	24775.475
2005.36288	24721.375
2008.41672	24632.075
2011.46859	24604.575
2014.51848	24535.375
2017.56639	24476.175
2020.61233	24392.175
2023.6563	24335.675
2026.6983	24308.475
2029.73833	24241.075
2032.7764	24183.075
2035.8125	24121.875
2038.84664	24069.675
2041.87881	24056.375
2044.90903	24017.075
2047.93729	23929.175
2050.96359	23929.875
2053.98794	23854.475
2057.01034	23861.775
2060.03078	23809.875
2063.04927	23792.675
2066.06582	23847.575
2069.08042	23791.275
2072.09307	23783.175
2075.10378	23772.275
2078.11255	23756.175
2081.11938	23752.175
2084.12426	23715.775
2087.12722	23767.275
2090.12824	23704.775
2093.12732	23713.775
2096.12447	23755.775
2099.11969	23725.775
2102.11299	23727.675
2105.10435	23756.875
2108.09379	23773.575
2111.08131	23820.175
2114.0669	23803.675
2117.05057	23837.875
2120.03233	23836.575
2123.01216	23868.875
2125.99008	23912.175
2128.96609	23882.375
2131.94018	23892.575
2134.91236	23920.975
2137.88263	23966.375
2140.851	23946.275
2143.81746	23983.275
2146.78201	24023.475
2149.74466	23992.675
2152.7054	23979.575
2155.66425	23976.675
2158.6212	23978.675
2161.57625	23960.275
2164.52941	23936.175
2167.48067	23916.775
2170.43004	23943.875
2173.37752	23949.175
2176.32311	23916.075
2179.26681	23940.775
2182.20863	23874.775
2185.14856	23911.475
2188.08661	23851.275
2191.02278	23860.875
2193.95707	23826.675
2196.88948	23856.875
2199.82001	23795.475
2202.74867	23797.475
2205.67545	23752.975
2208.60037	23750.775
2211.52341	23697.975
2214.44458	23715.475
2217.36388	23597.875
2220.28132	23580.475
2223.1969	23514.575
2226.11061	23502.375
2229.02246	23450.375
2231.93245	23462.575
2234.84058	23362.175
2237.74686	23340.475
2240.65128	23333.475
2243.55385	23267.975
2246.45456	23238.075
2249.35343	23246.075
2252.25044	23185.775
2255.14561	23138.075
2258.03893	23109.975
2260.93041	23115.975
2263.82004	23047.675
2266.70783	23018.975
2269.59378	22927.575
2272.4779	22931.175
2275.36017	22872.275
2278.24061	22850.375
2281.11922	22789.275
2283.996	22717.775
2286.87094	22693.675
2289.74405	22651.875
2292.61534	22623.675
2295.4848	22580.575
2298.35243	22580.775
2301.21824	22564.875
2304.08223	22555.175
2306.94439	22535.175
2309.80474	22519.975
2312.66327	22505.975
2315.51999	22482.075
2318.37489	22474.575
2321.22797	22425.075
2324.07925	22351.175
2326.92871	22339.075
2329.77637	22308.575
2332.62222	22266.975
2335.46626	22212.075
2338.3085	22209.275
2341.14893	22167.875
2343.98756	22157.175
2346.8244	22144.875
2349.65943	22144.875
2352.49267	22118.675
2355.32411	22110.975
2358.15376	22105.775
2360.98161	22086.475
2363.80768	22079.975
2366.63195	22059.975
2369.45444	22043.375
2372.27514	21998.275
2375.09405	21988.175
2377.91118	21950.075
2380.72652	21857.375
2383.54009	21841.175
2386.35187	21828.575
2389.16188	21767.175
2391.97011	21744.275
2394.77657	21704.475
2397.58125	21662.775
2400.38416	21634.975
2403.18529	21580.475
2405.98466	21554.875
2408.78226	21482.775
2411.57809	21491.675
2414.37216	21460.975
2417.16446	21478.275
2419.955	21412.175
2422.74378	21377.275
2425.5308	21400.575
2428.31606	21359.775
2431.09956	21380.875
2433.88131	21313.375
2436.6613	21314.575
2439.43954	21313.475
2442.21603	21303.975
2444.99077	21256.775
2447.76377	21276.775
2450.53501	21221.075
2453.30451	21190.975
2456.07226	21171.475
2458.83827	21163.175
2461.60254	21136.875
2464.36507	21134.975
2467.12586	21087.375
2469.88492	21059.575
2472.64224	21061.375
2475.39782	21039.375
2478.15167	21053.775
2480.90379	21009.675
2483.65417	20996.275
2486.40283	20975.475
2489.14976	21001.275
2491.89497	20963.975
2494.63845	20980.475
2497.3802	20921.575
2500.12024	20935.075
2502.85855	20861.275
2505.59514	20851.775
2508.33002	20868.775
2511.06318	20844.175
2513.79462	20821.175
2516.52435	20794.875
2519.25237	20763.375
2521.97867	20728.475
2524.70327	20758.675
2527.42616	20672.275
2530.14734	20666.575
2532.86681	20654.775
2535.58458	20644.875
2538.30065	20623.675
2541.01501	20545.175
2543.72768	20511.075
2546.43864	20480.775
2549.14791	20462.375
2551.85548	20427.775
2554.56136	20417.775
2557.26554	20396.775
2559.96803	20364.775
2562.66883	20340.875
2565.36794	20286.075
2568.06536	20282.375
2570.7611	20274.675
2573.45514	20219.675
2576.14751	20176.375
2578.83819	20139.875
2581.52719	20104.675
2584.21451	20060.075
2586.90015	20057.775
2589.58411	19993.375
2592.2664	19997.175
2594.94701	19892.175
2597.62594	19940.775
2600.30321	19865.575
2602.9788	19840.275
2605.65273	19771.075
2608.32498	19784.175
2610.99557	19744.875
2613.66449	19739.375
2616.33175	19697.775
2618.99734	19686.575
2621.66128	19647.875
2624.32355	19642.675
2626.98416	19617.075
2629.64311	19570.175
2632.30041	19594.575
2634.95605	19566.075
2637.61004	19509.975
2640.26238	19480.775
2642.91306	19504.875
2645.56209	19464.575
2648.20948	19475.475
2650.85521	19446.075
2653.4993	19411.975
2656.14175	19424.475
2658.78255	19441.575
2661.42171	19424.875
2664.05923	19422.775
2666.6951	19422.375
2669.32934	19433.075
2671.96194	19378.975
2674.59291	19396.475
2677.22224	19381.975
2679.84993	19431.075
2682.476	19395.175
2685.10043	19405.375
2687.72324	19333.475
2690.34441	19382.975
2692.96396	19377.575
2695.58188	19385.475
2698.19818	19371.075
2700.81285	19365.975
2703.4259	19368.675
2706.03733	19401.575
2708.64714	19410.875
2711.25533	19401.275
2713.86191	19390.075
2716.46687	19354.775
2719.07021	19360.775
2721.67194	19362.775
2724.27206	19330.075
2726.87057	19364.175
2729.46747	19372.075
2732.06276	19373.475
2734.65644	19333.675
2737.24852	19320.475
2739.83899	19297.875
2742.42786	19291.575
2745.01513	19241.775
2747.60079	19208.375
2750.18486	19202.675
2752.76733	19200.375
2755.3482	19179.575
2757.92747	19187.275
2760.50515	19138.675
2763.08123	19102.975
2765.65573	19109.175
2768.22863	19072.975
2770.79994	19051.475
2773.36967	19021.075
2775.9378	18973.875
2778.50435	18949.675
2781.06932	18911.875
2783.6327	18931.575
2786.1945	18874.475
2788.75471	18871.575
2791.31335	18796.475
2793.87041	18809.775
2796.42589	18713.275
2798.97979	18707.375
2801.53212	18644.675
2804.08288	18629.775
2806.63206	18535.475
2809.17967	18535.175
2811.72571	18543.675
2814.27018	18504.475
2816.81308	18470.175
2819.35442	18431.375
2821.89419	18389.775
2824.43239	18362.875
2826.96904	18344.375
2829.50412	18335.875
2832.03763	18271.275
2834.56959	18271.675
2837.1	18209.275
2839.62884	18236.375
2842.15613	18210.075
2844.68186	18240.375
2847.20604	18231.375
2849.72867	18226.175
2852.24974	18212.775
2854.76927	18172.675
2857.28724	18126.975
2859.80367	18123.375
2862.31855	18123.075
2864.83189	18075.675
2867.34368	18045.275
2869.85393	18040.475
2872.36264	18024.175
2874.8698	18050.475
2877.37543	18025.575
2879.87952	18056.375
2882.38207	18007.975
2884.88308	18013.275
2887.38256	18035.875
2889.88051	18011.375
2892.37692	18048.175
2894.8718	18002.775
2897.36515	18010.075
2899.85698	18012.675
2902.34727	18057.575
2904.83604	18046.175
2907.32328	18072.875
2909.809	17992.675
2912.29319	18020.275
2914.77587	18027.875
2917.25702	17996.475
2919.73665	18003.575
2922.21476	17955.075
2924.69136	17956.675
2927.16644	17994.175
2929.64	17954.175
2932.11205	17940.875
2934.58258	17848.675
2937.05161	17890.275
2939.51912	17886.575
2941.98513	17865.775
2944.44962	17816.275
2946.91261	17772.475
2949.37409	17787.475
2951.83407	17788.575
2954.29254	17785.175
2956.74951	17744.275
2959.20498	17725.975
2961.65895	17678.675
2964.11142	17663.375
2966.56239	17627.475
2969.01186	17643.775
2971.45984	17565.275
2973.90632	17560.775
2976.35131	17552.075
2978.7948	17509.075
2981.23681	17436.375
2983.67732	17415.375
2986.11635	17372.175
2988.55388	17339.375
2990.98993	17285.175
2993.4245	17273.675
2995.85758	17253.975
2998.28917	17228.875
3000.71928	17180.475
3003.14791	17130.075
3005.57506	17139.375
3008.00073	17077.475
3010.42493	17079.875
3012.84764	17049.275
3015.26888	17031.575
3017.68865	17008.275
3020.10694	16993.775
3022.52376	16952.475
3024.9391	16938.375
3027.35298	16925.375
3029.76539	16847.775
3032.17632	16795.675
3034.5858	16791.375
3036.9938	16807.975
3039.40034	16733.775
3041.80542	16738.875
3044.20903	16686.475
3046.61118	16677.975
3049.01187	16664.075
3051.4111	16639.875
3053.80888	16600.175
3056.20519	16586.275
3058.60005	16502.175
3060.99345	16522.475
3063.3854	16502.475
3065.7759	16432.075
3068.16494	16398.975
3070.55254	16352.175
3072.93868	16340.775
3075.32338	16276.275
3077.70662	16274.475
3080.08842	16253.475
3082.46878	16232.475
3084.84769	16222.475
3087.22515	16244.175
3089.60118	16198.975
3091.97576	16139.875
3094.3489	16148.175
3096.72061	16140.575
3099.09087	16124.375
3101.4597	16109.175
3103.82709	16091.175
3106.19305	16070.775
3108.55757	16066.175
3110.92066	16002.875
3113.28232	16011.175
3115.64255	15947.075
3118.00134	15925.275
3120.35871	15899.275
3122.71466	15810.875
3125.06917	15811.175
3127.42226	15792.375
