Data from AgNPs_FTO_APTES_UA_50uM_R6G_10uM_NaF_0.1M_Addition_RamanShift__1__14-37-27-395.txt Node

Date: Fri Dec 17 14:37:27 GMT 2021
User: TCL
Spectrometer: QEP01345
Trigger mode: 4
Integration Time (sec): 7.000000E0
Scans to average: 10
Electric dark correction enabled: true
Nonlinearity correction enabled: false
Boxcar width: 0
XAxis mode: Raman Shifts
Number of Pixels in Spectrum: 1044
>>>>>Begin Spectral Data<<<<<
46.04893	-0.7125
50.45542	-0.3125
54.85868	0.0875
59.25871	-0.6125
63.6555	108.0875
68.04907	107.9875
72.43941	115.2875
76.82654	119.9875
81.21044	120.6875
85.59113	126.1875
89.96862	131.7875
94.34289	138.4875
98.71396	138.6875
103.08183	139.0875
107.4465	148.4875
111.80798	153.0875
116.16626	155.8875
120.52136	160.8875
124.87327	169.2875
129.222	176.6875
133.56755	187.7875
137.90993	205.2875
142.24913	223.0875
146.58517	250.1875
150.91804	286.9875
155.24774	337.4875
159.57429	429.4875
163.89768	545.2875
168.21792	724.6875
172.53501	974.4875
176.84895	1354.5875
181.15975	1913.6875
185.46741	2663.4875
189.77193	3706.0875
194.07331	4949.0875
198.37157	6403.6875
202.6667	7913.3875
206.9587	9417.5875
211.24758	10908.1875
215.53334	12391.8875
219.81599	13938.8875
224.09553	15632.0875
228.37195	17544.0875
232.64527	19616.2875
236.91549	21809.9875
241.18261	24066.7875
245.44663	26172.8875
249.70755	28129.5875
253.96539	29856.6875
258.22014	31246.1875
262.4718	32390.0875
266.72039	33212.4875
270.96589	33553.9875
275.20832	33627.1875
279.44768	33300.9875
283.68397	32979.3875
287.91719	32523.8875
292.14735	32233.7875
296.37445	32124.7875
300.59849	32142.9875
304.81948	32254.0875
309.03742	32293.1875
313.25231	32139.1875
317.46415	31689.6875
321.67296	31083.2875
325.87872	30575.8875
330.08145	30408.7875
334.28114	30483.9875
338.47781	30669.8875
342.67145	31032.5875
346.86207	31492.2875
351.04966	32050.2875
355.23424	32726.6875
359.4158	33308.7875
363.59435	33786.9875
367.76989	34175.9875
371.94243	34408.0875
376.11196	34624.0875
380.27849	34802.5875
384.44203	34997.9875
388.60257	35228.4875
392.76012	35576.5875
396.91468	35982.2875
401.06626	36473.4875
405.21485	36879.2875
409.36047	36830.8875
413.50311	36533.7875
417.64277	36265.7875
421.77947	36176.2875
425.9132	36202.8875
430.04396	36322.6875
434.17176	36423.6875
438.2966	36641.5875
442.41849	37050.9875
446.53742	37686.4875
450.6534	38407.9875
454.76644	38971.4875
458.87653	39284.6875
462.98368	39236.6875
467.08789	38916.8875
471.18916	38563.5875
475.2875	38053.7875
479.38291	37621.2875
483.4754	37262.4875
487.56496	36966.4875
491.6516	36757.7875
495.73531	36712.5875
499.81612	36736.0875
503.89401	37041.5875
507.96899	37125.2875
512.04106	37160.8875
516.11023	37155.6875
520.1765	37029.5875
524.23987	36847.3875
528.30034	36608.7875
532.35792	36376.9875
536.41261	36092.2875
540.46441	35792.7875
544.51333	35680.3875
548.55936	35922.4875
552.60252	36346.4875
556.64279	36797.0875
560.6802	37173.0875
564.71473	37363.2875
568.7464	37672.0875
572.7752	38151.7875
576.80114	38717.9875
580.82422	39362.6875
584.84444	40222.7875
588.86181	41144.5875
592.87633	41659.3875
596.888	41535.9875
600.89682	41290.1875
604.9028	42208.8875
608.90594	45225.7875
612.90624	48230.6875
616.90371	46110.1875
620.89834	40368.1875
624.89015	37772.7875
628.87913	37416.2875
632.86528	37560.3875
636.84862	37554.7875
640.82913	37192.8875
644.80683	36591.5875
648.78172	36122.0875
652.75379	36167.0875
656.72306	36565.3875
660.68952	37085.1875
664.65319	36914.3875
668.61405	36489.4875
672.57211	36487.8875
676.52738	36668.1875
680.47986	36586.0875
684.42955	36407.5875
688.37646	36316.6875
692.32058	36491.9875
696.26192	36934.7875
700.20048	37302.3875
704.13626	37486.6875
708.06928	37338.2875
711.99952	37164.6875
715.927	37132.8875
719.85171	37214.9875
723.77365	37172.6875
727.69284	36802.0875
731.60928	36478.1875
735.52295	36295.5875
739.43388	36294.2875
743.34206	36395.2875
747.24749	36470.9875
751.15017	36700.4875
755.05012	37099.2875
758.94733	37684.4875
762.8418	38882.2875
766.73354	40767.7875
770.62254	42658.2875
774.50882	43372.3875
778.39237	42354.9875
782.27321	40298.2875
786.15132	38524.8875
790.02671	37421.0875
793.89938	36832.1875
797.76935	36597.2875
801.6366	36547.9875
805.50115	36496.2875
809.36299	36307.4875
813.22213	36155.3875
817.07857	36008.3875
820.93231	35877.3875
824.78336	35796.9875
828.63172	35851.2875
832.47738	35844.0875
836.32036	35882.0875
840.16066	35923.5875
843.99827	36035.9875
847.8332	35952.9875
851.66546	35935.4875
855.49504	35934.4875
859.32195	35986.6875
863.1462	35975.3875
866.96777	35889.5875
870.78668	35879.1875
874.60293	35916.8875
878.41652	35965.7875
882.22745	36098.9875
886.03573	36203.1875
889.84136	36187.0875
893.64433	36048.8875
897.44466	35883.9875
901.24235	35784.2875
905.0374	35695.8875
908.8298	35608.5875
912.61957	35636.9875
916.40671	35766.1875
920.19121	36022.4875
923.97308	36282.4875
927.75233	36430.3875
931.52895	36330.1875
935.30295	36181.0875
939.07433	35786.0875
942.84309	35501.4875
946.60924	35383.1875
950.37278	35284.1875
954.13371	35220.5875
957.89203	35160.8875
961.64774	35126.6875
965.40086	35068.6875
969.15137	35033.9875
972.89929	35045.6875
976.64461	35080.1875
980.38733	35182.3875
984.12747	35318.7875
987.86502	35534.0875
991.59999	35792.3875
995.33237	36167.8875
999.06217	36759.4875
1002.78939	37534.9875
1006.51404	38107.3875
1010.23611	38538.0875
1013.95561	38748.6875
1017.67255	38670.7875
1021.38692	38358.9875
1025.09872	38012.3875
1028.80796	37929.9875
1032.51465	38298.9875
1036.21877	38811.6875
1039.92035	38968.2875
1043.61937	38856.3875
1047.31584	38449.8875
1051.00976	37960.9875
1054.70114	37800.2875
1058.38998	37826.6875
1062.07627	37974.7875
1065.76003	38220.1875
1069.44126	38619.0875
1073.11995	39132.5875
1076.79611	39665.0875
1080.46974	39921.9875
1084.14085	40121.8875
1087.80943	40301.8875
1091.47549	40409.9875
1095.13903	40464.4875
1098.80005	40147.0875
1102.45857	39588.5875
1106.11456	39112.1875
1109.76805	38862.1875
1113.41903	38782.5875
1117.06751	38848.2875
1120.71348	38951.2875
1124.35696	39196.5875
1127.99793	39469.0875
1131.63641	39671.7875
1135.2724	39535.2875
1138.90589	39348.2875
1142.5369	39279.5875
1146.16542	39219.0875
1149.79145	39325.1875
1153.415	39357.7875
1157.03607	39581.8875
1160.65467	40177.3875
1164.27079	41268.0875
1167.88443	42568.5875
1171.49561	44158.8875
1175.10432	46095.2875
1178.71056	48633.1875
1182.31434	51144.7875
1185.91565	52601.9875
1189.51451	52885.0875
1193.11091	52056.6875
1196.70485	50663.2875
1200.29634	49121.4875
1203.88538	48008.3875
1207.47197	47183.5875
1211.05612	46473.7875
1214.63782	45716.6875
1218.21708	45069.2875
1221.79391	44390.8875
1225.36829	43854.4875
1228.94024	43548.5875
1232.50976	43249.4875
1236.07685	43087.3875
1239.6415	43009.3875
1243.20374	43092.2875
1246.76355	43466.0875
1250.32093	44043.0875
1253.8759	44817.7875
1257.42845	45683.7875
1260.97859	46654.6875
1264.52631	47664.8875
1268.07163	48790.9875
1271.61453	49837.1875
1275.15503	50785.8875
1278.69312	51632.1875
1282.22882	52238.4875
1285.76211	52876.2875
1289.29301	53694.4875
1292.82151	54779.0875
1296.34761	56265.0875
1299.87133	58246.6875
1303.39266	60573.3875
1306.9116	63129.0875
1310.42815	65374.4875
1313.94233	66618.1875
1317.45412	66326.2875
1320.96354	65162.7875
1324.47058	64111.5875
1327.97525	63332.0875
1331.47754	62794.9875
1334.97747	62816.8875
1338.47502	62887.2875
1341.97022	62744.2875
1345.46305	62319.7875
1348.95352	61947.1875
1352.44163	62219.0875
1355.92738	63262.0875
1359.41078	65326.1875
1362.89183	67266.7875
1366.37053	66398.0875
1369.84688	62074.0875
1373.32088	56896.7875
1376.79254	53158.1875
1380.26186	51335.2875
1383.72883	50793.6875
1387.19347	50433.2875
1390.65578	49692.7875
1394.11575	49126.4875
1397.57339	48915.0875
1401.0287	49155.6875
1404.48168	49723.4875
1407.93234	50073.4875
1411.38068	50097.9875
1414.82669	49565.4875
1418.27039	48678.3875
1421.71177	47610.7875
1425.15083	46808.4875
1428.58758	46470.4875
1432.02203	46774.5875
1435.45416	47612.3875
1438.88399	48512.9875
1442.31151	49213.9875
1445.73673	49458.1875
1449.15965	49602.0875
1452.58027	49477.1875
1455.9986	49365.5875
1459.41463	49507.9875
1462.82837	50178.6875
1466.23982	51011.7875
1469.64898	51852.8875
1473.05586	52471.7875
1476.46045	52651.4875
1479.86276	52637.3875
1483.26279	52470.0875
1486.66054	52417.7875
1490.05602	52675.0875
1493.44922	53047.7875
1496.84016	53769.2875
1500.22882	54800.0875
1503.61521	56231.0875
1506.99934	57881.0875
1510.38121	59145.0875
1513.76081	59321.4875
1517.13816	58074.9875
1520.51324	55804.3875
1523.88607	53664.6875
1527.25665	52267.0875
1530.62498	51646.6875
1533.99105	51258.4875
1537.35488	50864.8875
1540.71647	50340.0875
1544.07581	49802.6875
1547.4329	49298.0875
1550.78776	48847.1875
1554.14038	48499.5875
1557.49077	48394.4875
1560.83892	48279.2875
1564.18484	48200.4875
1567.52853	48301.3875
1570.86999	48526.7875
1574.20922	48992.9875
1577.54624	49327.7875
1580.88103	49281.5875
1584.2136	49259.4875
1587.54395	50096.8875
1590.87208	51779.6875
1594.19801	54272.1875
1597.52172	56726.5875
1600.84321	57628.6875
1604.16251	56054.5875
1607.47959	52992.1875
1610.79447	49669.2875
1614.10715	46582.3875
1617.41763	44019.2875
1620.7259	42325.7875
1624.03199	41416.3875
1627.33587	41316.1875
1630.63757	42014.9875
1633.93707	43716.7875
1637.23439	46437.0875
1640.52951	50238.8875
1643.82246	54660.8875
1647.11321	57995.5875
1650.40179	58513.4875
1653.68819	55473.5875
1656.97241	50182.3875
1660.25446	45005.2875
1663.53433	41248.4875
1666.81203	38821.8875
1670.08756	37319.0875
1673.36092	36353.4875
1676.63211	35664.3875
1679.90115	35242.1875
1683.16801	34888.4875
1686.43272	34584.8875
1689.69527	34426.9875
1692.95567	34242.1875
1696.2139	34187.1875
1699.46999	34120.4875
1702.72392	34028.1875
1705.97571	34007.3875
1709.22535	33970.7875
1712.47284	33914.2875
1715.71819	33858.5875
1718.96139	33817.1875
1722.20246	33739.6875
1725.44139	33631.2875
1728.67818	33512.0875
1731.91284	33347.1875
1735.14537	33320.3875
1738.37576	33189.2875
1741.60403	33082.8875
1744.83017	32959.2875
1748.05418	32908.6875
1751.27607	32881.2875
1754.49584	32873.0875
1757.71349	32868.1875
1760.92903	32822.3875
1764.14244	32808.5875
1767.35375	32778.9875
1770.56294	32801.3875
1773.77002	32696.0875
1776.97499	32707.3875
1780.17785	32672.1875
1783.37861	32635.4875
1786.57727	32628.6875
1789.77382	32587.4875
1792.96828	32526.0875
1796.16064	32468.5875
1799.3509	32397.6875
1802.53907	32388.2875
1805.72514	32284.4875
1808.90913	32238.3875
1812.09102	32184.6875
1815.27083	32153.7875
1818.44856	32141.7875
1821.6242	32044.1875
1824.79776	32000.7875
1827.96924	31963.8875
1831.13864	31979.9875
1834.30597	32008.5875
1837.47122	31998.1875
1840.6344	32016.5875
1843.7955	32015.0875
1846.95454	31965.8875
1850.11151	31960.4875
1853.26642	31953.1875
1856.41926	31971.5875
1859.57004	31941.2875
1862.71876	31899.0875
1865.86542	31926.9875
1869.01003	31865.0875
1872.15258	31891.3875
1875.29308	31815.3875
1878.43152	31772.2875
1881.56792	31731.8875
1884.70227	31736.5875
1887.83457	31719.7875
1890.96482	31682.0875
1894.09304	31649.4875
1897.21921	31623.4875
1900.34335	31628.0875
1903.46544	31615.3875
1906.58551	31603.9875
1909.70353	31546.7875
1912.81953	31499.8875
1915.93349	31458.2875
1919.04543	31423.0875
1922.15534	31347.4875
1925.26322	31291.0875
1928.36908	31266.6875
1931.47292	31202.7875
1934.57473	31108.7875
1937.67453	31068.2875
1940.77232	30969.8875
1943.86808	30846.9875
1946.96184	30833.1875
1950.05358	30803.0875
1953.14331	30738.1875
1956.23103	30685.6875
1959.31675	30585.4875
1962.40046	30544.4875
1965.48217	30475.1875
1968.56188	30374.2875
1971.63959	30313.0875
1974.7153	30186.7875
1977.78901	30103.3875
1980.86073	30035.7875
1983.93046	29944.2875
1986.99819	29880.5875
1990.06394	29729.5875
1993.1277	29702.9875
1996.18947	29582.3875
1999.24925	29571.7875
2002.30706	29462.9875
2005.36288	29349.4875
2008.41672	29286.0875
2011.46859	29180.6875
2014.51848	29187.0875
2017.56639	29109.6875
2020.61233	29033.7875
2023.6563	28962.5875
2026.6983	28972.0875
2029.73833	28874.5875
2032.7764	28812.6875
2035.8125	28783.2875
2038.84664	28729.1875
2041.87881	28720.9875
2044.90903	28675.5875
2047.93729	28595.6875
2050.96359	28588.3875
2053.98794	28553.6875
2057.01034	28500.9875
2060.03078	28508.9875
2063.04927	28450.9875
2066.06582	28440.1875
2069.08042	28436.1875
2072.09307	28471.2875
2075.10378	28451.0875
2078.11255	28425.1875
2081.11938	28464.8875
2084.12426	28391.0875
2087.12722	28380.3875
2090.12824	28344.1875
2093.12732	28393.0875
2096.12447	28411.1875
2099.11969	28416.4875
2102.11299	28453.2875
2105.10435	28459.2875
2108.09379	28496.5875
2111.08131	28513.3875
2114.0669	28539.9875
2117.05057	28566.8875
2120.03233	28617.8875
2123.01216	28659.0875
2125.99008	28635.7875
2128.96609	28690.1875
2131.94018	28709.8875
2134.91236	28735.8875
2137.88263	28738.8875
2140.851	28777.7875
2143.81746	28801.0875
2146.78201	28817.4875
2149.74466	28810.6875
2152.7054	28848.0875
2155.66425	28849.8875
2158.6212	28820.4875
2161.57625	28849.1875
2164.52941	28840.1875
2167.48067	28818.0875
2170.43004	28823.1875
2173.37752	28851.3875
2176.32311	28846.3875
2179.26681	28842.5875
2182.20863	28807.6875
2185.14856	28820.4875
2188.08661	28832.4875
2191.02278	28871.8875
2193.95707	28846.7875
2196.88948	28805.7875
2199.82001	28842.8875
2202.74867	28792.8875
2205.67545	28796.4875
2208.60037	28793.3875
2211.52341	28736.5875
2214.44458	28698.9875
2217.36388	28594.1875
2220.28132	28596.0875
2223.1969	28564.5875
2226.11061	28526.5875
2229.02246	28455.8875
2231.93245	28445.3875
2234.84058	28366.2875
2237.74686	28339.5875
2240.65128	28351.3875
2243.55385	28285.2875
2246.45456	28261.1875
2249.35343	28215.1875
2252.25044	28212.8875
2255.14561	28142.1875
2258.03893	28146.5875
2260.93041	28106.1875
2263.82004	28053.5875
2266.70783	27997.4875
2269.59378	27981.6875
2272.4779	27902.9875
2275.36017	27850.1875
2278.24061	27812.8875
2281.11922	27780.4875
2283.996	27727.2875
2286.87094	27692.3875
2289.74405	27653.8875
2292.61534	27631.3875
2295.4848	27617.3875
2298.35243	27574.0875
2301.21824	27583.6875
2304.08223	27601.9875
2306.94439	27581.3875
2309.80474	27618.1875
2312.66327	27575.6875
2315.51999	27608.0875
2318.37489	27588.2875
2321.22797	27516.9875
2324.07925	27508.4875
2326.92871	27485.5875
2329.77637	27509.1875
2332.62222	27423.5875
2335.46626	27400.1875
2338.3085	27338.7875
2341.14893	27382.2875
2343.98756	27352.9875
2346.8244	27338.1875
2349.65943	27309.5875
2352.49267	27306.9875
2355.32411	27285.4875
2358.15376	27291.7875
2360.98161	27292.0875
2363.80768	27267.6875
2366.63195	27245.2875
2369.45444	27186.5875
2372.27514	27152.1875
2375.09405	27107.2875
2377.91118	27109.3875
2380.72652	27056.2875
2383.54009	27019.6875
2386.35187	26978.6875
2389.16188	26941.4875
2391.97011	26865.9875
2394.77657	26878.8875
2397.58125	26788.9875
2400.38416	26772.2875
2403.18529	26754.7875
2405.98466	26745.5875
2408.78226	26690.6875
2411.57809	26657.2875
2414.37216	26679.2875
2417.16446	26659.2875
2419.955	26630.1875
2422.74378	26606.4875
2425.5308	26539.6875
2428.31606	26565.1875
2431.09956	26556.8875
2433.88131	26536.4875
2436.6613	26558.0875
2439.43954	26514.1875
2442.21603	26444.3875
2444.99077	26453.6875
2447.76377	26471.6875
2450.53501	26455.1875
2453.30451	26424.3875
2456.07226	26432.7875
2458.83827	26394.8875
2461.60254	26370.5875
2464.36507	26360.8875
2467.12586	26335.0875
2469.88492	26336.4875
2472.64224	26373.8875
2475.39782	26339.1875
2478.15167	26329.6875
2480.90379	26341.7875
2483.65417	26326.5875
2486.40283	26281.3875
2489.14976	26327.9875
2491.89497	26297.1875
2494.63845	26303.4875
2497.3802	26309.1875
2500.12024	26288.5875
2502.85855	26264.5875
2505.59514	26298.8875
2508.33002	26255.6875
2511.06318	26240.6875
2513.79462	26202.3875
2516.52435	26211.6875
2519.25237	26165.7875
2521.97867	26183.6875
2524.70327	26161.0875
2527.42616	26093.4875
2530.14734	26110.0875
2532.86681	26076.3875
2535.58458	26056.4875
2538.30065	26013.1875
2541.01501	26002.4875
2543.72768	25988.6875
2546.43864	26000.0875
2549.14791	25909.6875
2551.85548	25899.8875
2554.56136	25886.4875
2557.26554	25893.5875
2559.96803	25815.6875
2562.66883	25826.3875
2565.36794	25769.3875
2568.06536	25783.6875
2570.7611	25782.3875
2573.45514	25721.0875
2576.14751	25749.3875
2578.83819	25664.2875
2581.52719	25662.2875
2584.21451	25621.9875
2586.90015	25654.1875
2589.58411	25568.4875
2592.2664	25525.5875
2594.94701	25513.2875
2597.62594	25461.5875
2600.30321	25458.3875
2602.9788	25467.1875
2605.65273	25396.6875
2608.32498	25392.3875
2610.99557	25326.1875
2613.66449	25347.7875
2616.33175	25320.6875
2618.99734	25340.2875
2621.66128	25281.9875
2624.32355	25233.2875
2626.98416	25267.6875
2629.64311	25232.9875
2632.30041	25237.4875
2634.95605	25202.3875
2637.61004	25164.5875
2640.26238	25170.0875
2642.91306	25158.0875
2645.56209	25126.2875
2648.20948	25118.2875
2650.85521	25116.6875
2653.4993	25139.1875
2656.14175	25092.9875
2658.78255	25134.1875
2661.42171	25131.2875
2664.05923	25154.2875
2666.6951	25139.5875
2669.32934	25143.0875
2671.96194	25168.2875
2674.59291	25170.9875
2677.22224	25137.3875
2679.84993	25156.0875
2682.476	25107.1875
2685.10043	25160.3875
2687.72324	25090.1875
2690.34441	25115.6875
2692.96396	25116.2875
2695.58188	25142.2875
2698.19818	25129.5875
2700.81285	25118.5875
2703.4259	25122.0875
2706.03733	25168.0875
2708.64714	25118.5875
2711.25533	25160.9875
2713.86191	25160.9875
2716.46687	25236.3875
2719.07021	25184.3875
2721.67194	25156.6875
2724.27206	25124.8875
2726.87057	25153.6875
2729.46747	25153.9875
2732.06276	25184.9875
2734.65644	25105.9875
2737.24852	25186.7875
2739.83899	25137.4875
2742.42786	25133.1875
2745.01513	25096.5875
2747.60079	25101.0875
2750.18486	25100.7875
2752.76733	25099.7875
2755.3482	25094.2875
2757.92747	25108.0875
2760.50515	25030.2875
2763.08123	25033.6875
2765.65573	25003.0875
2768.22863	24981.6875
2770.79994	24951.9875
2773.36967	24955.4875
2775.9378	24920.5875
2778.50435	24940.2875
2781.06932	24872.5875
2783.6327	24852.4875
2786.1945	24862.4875
2788.75471	24834.9875
2791.31335	24729.0875
2793.87041	24729.2875
2796.42589	24657.9875
2798.97979	24658.7875
2801.53212	24589.4875
2804.08288	24583.4875
2806.63206	24522.3875
2809.17967	24451.2875
2811.72571	24438.4875
2814.27018	24426.1875
2816.81308	24389.9875
2819.35442	24337.0875
2821.89419	24305.7875
2824.43239	24291.4875
2826.96904	24260.5875
2829.50412	24280.8875
2832.03763	24213.9875
2834.56959	24179.2875
2837.1	24184.3875
2839.62884	24151.5875
2842.15613	24106.2875
2844.68186	24121.6875
2847.20604	24099.4875
2849.72867	24048.9875
2852.24974	24044.6875
2854.76927	24015.3875
2857.28724	24027.7875
2859.80367	23993.1875
2862.31855	23968.5875
2864.83189	23906.1875
2867.34368	23866.4875
2869.85393	23905.6875
2872.36264	23894.5875
2874.8698	23923.5875
2877.37543	23882.5875
2879.87952	23853.9875
2882.38207	23867.3875
2884.88308	23865.1875
2887.38256	23898.4875
2889.88051	23914.0875
2892.37692	23922.0875
2894.8718	23856.4875
2897.36515	23889.1875
2899.85698	23917.5875
2902.34727	23953.4875
2904.83604	23922.1875
2907.32328	23929.1875
2909.809	23933.4875
2912.29319	23985.7875
2914.77587	23968.4875
2917.25702	23943.1875
2919.73665	23928.1875
2922.21476	23932.4875
2924.69136	23884.6875
2927.16644	23896.5875
2929.64	23875.0875
2932.11205	23907.6875
2934.58258	23786.3875
2937.05161	23845.5875
2939.51912	23885.6875
2941.98513	23821.0875
2944.44962	23813.0875
2946.91261	23731.1875
2949.37409	23759.9875
2951.83407	23767.8875
2954.29254	23739.1875
2956.74951	23757.8875
2959.20498	23745.3875
2961.65895	23690.3875
2964.11142	23667.2875
2966.56239	23632.8875
2969.01186	23588.5875
2971.45984	23560.2875
2973.90632	23564.8875
2976.35131	23486.6875
2978.7948	23425.5875
2981.23681	23410.0875
2983.67732	23376.3875
2986.11635	23303.1875
2988.55388	23245.6875
2990.98993	23283.2875
2993.4245	23230.0875
2995.85758	23169.6875
2998.28917	23138.2875
3000.71928	23072.5875
3003.14791	23048.1875
3005.57506	22994.3875
3008.00073	22974.7875
3010.42493	22965.3875
3012.84764	22925.5875
3015.26888	22922.3875
3017.68865	22860.9875
3020.10694	22879.4875
3022.52376	22824.2875
