Data from AgNPs_FTO_APTES_UA_0uM_R6G_10uM_NaF_0.1M_Addition_RamanShift__42__10-45-17-129.txt Node

Date: Fri Dec 17 10:45:17 GMT 2021
User: TCL
Spectrometer: QEP01345
Trigger mode: 4
Integration Time (sec): 7.000000E0
Scans to average: 10
Electric dark correction enabled: true
Nonlinearity correction enabled: false
Boxcar width: 0
XAxis mode: Raman Shifts
Number of Pixels in Spectrum: 1044
>>>>>Begin Spectral Data<<<<<
46.04893	-1.325
50.45542	-1.425
54.85868	-2.325
59.25871	1.175
63.6555	76.975
68.04907	78.375
72.43941	82.175
76.82654	86.575
81.21044	86.875
85.59113	93.775
89.96862	96.075
94.34289	99.275
98.71396	101.275
103.08183	101.875
107.4465	109.375
111.80798	108.475
116.16626	114.175
120.52136	115.575
124.87327	121.875
129.222	129.675
133.56755	134.275
137.90993	148.575
142.24913	160.475
146.58517	179.775
150.91804	207.375
155.24774	251.575
159.57429	311.575
163.89768	395.775
168.21792	532.275
172.53501	713.075
176.84895	990.775
181.15975	1386.175
185.46741	1933.175
189.77193	2660.275
194.07331	3554.075
198.37157	4567.675
202.6667	5647.875
206.9587	6702.875
211.24758	7757.775
215.53334	8818.875
219.81599	9940.975
224.09553	11172.975
228.37195	12574.175
232.64527	14101.975
236.91549	15729.375
241.18261	17302.575
245.44663	18738.775
249.70755	19969.775
253.96539	21045.775
258.22014	21945.675
262.4718	22736.775
266.72039	23276.075
270.96589	23523.175
275.20832	23521.175
279.44768	23330.075
283.68397	23063.975
287.91719	22825.875
292.14735	22702.675
296.37445	22728.475
300.59849	22877.175
304.81948	23105.775
309.03742	23224.775
313.25231	23076.375
317.46415	22620.875
321.67296	21957.275
325.87872	21375.675
330.08145	21056.475
334.28114	21038.075
338.47781	21218.675
342.67145	21502.575
346.86207	21879.375
351.04966	22403.675
355.23424	22948.175
359.4158	23473.375
363.59435	23821.775
367.76989	24074.775
371.94243	24273.375
376.11196	24325.475
380.27849	24403.075
384.44203	24507.675
388.60257	24615.675
392.76012	24816.475
396.91468	25103.075
401.06626	25511.575
405.21485	25839.175
409.36047	25763.875
413.50311	25330.775
417.64277	24986.675
421.77947	24837.075
425.9132	24847.575
430.04396	24979.975
434.17176	25135.775
438.2966	25342.875
442.41849	25826.975
446.53742	26505.775
450.6534	27340.075
454.76644	27918.475
458.87653	28138.875
462.98368	27938.475
467.08789	27530.575
471.18916	27033.675
475.2875	26534.775
479.38291	26241.875
483.4754	25941.275
487.56496	25720.075
491.6516	25441.375
495.73531	25179.875
499.81612	25105.075
503.89401	25210.975
507.96899	25285.175
512.04106	25308.775
516.11023	25228.075
520.1765	25090.575
524.23987	24961.275
528.30034	24837.175
532.35792	24595.975
536.41261	24206.775
540.46441	23886.875
544.51333	23815.375
548.55936	24078.275
552.60252	24521.075
556.64279	25023.775
560.6802	25351.175
564.71473	25598.375
568.7464	26039.175
572.7752	26582.375
576.80114	26910.775
580.82422	27279.575
584.84444	27774.775
588.86181	28231.375
592.87633	28808.375
596.888	29238.675
600.89682	29471.975
604.9028	30709.175
608.90594	33859.475
612.90624	37046.375
616.90371	34808.575
620.89834	28797.675
624.89015	26067.975
628.87913	25753.175
632.86528	25715.675
636.84862	25360.975
640.82913	24847.575
644.80683	24125.775
648.78172	23672.275
652.75379	23607.675
656.72306	23954.975
660.68952	24513.375
664.65319	24397.075
668.61405	23854.275
672.57211	23667.475
676.52738	23659.575
680.47986	23631.775
684.42955	23475.075
688.37646	23426.875
692.32058	23563.475
696.26192	23832.275
700.20048	24160.875
704.13626	24330.075
708.06928	24182.475
711.99952	24014.275
715.927	23978.275
719.85171	24063.375
723.77365	23970.275
727.69284	23737.875
731.60928	23430.575
735.52295	23376.075
739.43388	23442.775
743.34206	23497.675
747.24749	23679.375
751.15017	23932.575
755.05012	24327.775
758.94733	25029.775
762.8418	26376.375
766.73354	28529.775
770.62254	30766.075
774.50882	31362.675
778.39237	29908.575
782.27321	27559.775
786.15132	25631.575
790.02671	24471.175
793.89938	23972.175
797.76935	23800.775
801.6366	23730.775
805.50115	23670.375
809.36299	23469.575
813.22213	23280.975
817.07857	23218.175
820.93231	23124.575
824.78336	23044.775
828.63172	23066.375
832.47738	23135.975
836.32036	23219.075
840.16066	23368.075
843.99827	23481.875
847.8332	23433.475
851.66546	23271.575
855.49504	23182.875
859.32195	23159.275
863.1462	23079.175
866.96777	22940.575
870.78668	22911.275
874.60293	22834.875
878.41652	22930.675
882.22745	23030.275
886.03573	23111.675
889.84136	23094.875
893.64433	23002.075
897.44466	22880.975
901.24235	22777.475
905.0374	22767.575
908.8298	22723.175
912.61957	22755.975
916.40671	22954.775
920.19121	23357.775
923.97308	23782.375
927.75233	24004.975
931.52895	24075.175
935.30295	23739.175
939.07433	23177.375
942.84309	22812.175
946.60924	22617.575
950.37278	22569.775
954.13371	22399.775
957.89203	22270.275
961.64774	22170.175
965.40086	22075.875
969.15137	21992.575
972.89929	21940.675
976.64461	21976.375
980.38733	22027.375
984.12747	22166.275
987.86502	22456.075
991.59999	22865.275
995.33237	23488.975
999.06217	24404.175
1002.78939	25422.275
1006.51404	26024.075
1010.23611	26215.375
1013.95561	26351.475
1017.67255	26260.575
1021.38692	25866.775
1025.09872	25703.275
1028.80796	26177.775
1032.51465	27260.675
1036.21877	28332.775
1039.92035	28433.875
1043.61937	27788.975
1047.31584	26730.975
1051.00976	25665.675
1054.70114	25060.875
1058.38998	24876.775
1062.07627	24867.675
1065.76003	24915.075
1069.44126	25060.575
1073.11995	25437.075
1076.79611	25794.675
1080.46974	26054.275
1084.14085	26327.975
1087.80943	26652.075
1091.47549	26873.475
1095.13903	26731.575
1098.80005	26246.475
1102.45857	25702.375
1106.11456	25301.775
1109.76805	25195.275
1113.41903	25288.975
1117.06751	25484.275
1120.71348	25756.975
1124.35696	25977.775
1127.99793	26319.475
1131.63641	26468.875
1135.2724	26260.175
1138.90589	25991.175
1142.5369	25896.375
1146.16542	25807.675
1149.79145	25812.575
1153.415	25948.175
1157.03607	26242.975
1160.65467	26811.675
1164.27079	27894.975
1167.88443	29344.775
1171.49561	31271.275
1175.10432	33881.175
1178.71056	37151.675
1182.31434	40198.875
1185.91565	41789.275
1189.51451	41539.475
1193.11091	39799.375
1196.70485	37565.075
1200.29634	35639.175
1203.88538	34355.175
1207.47197	33439.675
1211.05612	32683.275
1214.63782	32210.775
1218.21708	31939.575
1221.79391	31931.975
1225.36829	31935.875
1228.94024	31646.275
1232.50976	30942.875
1236.07685	30253.475
1239.6415	29957.875
1243.20374	29849.675
1246.76355	30115.975
1250.32093	30599.075
1253.8759	31389.875
1257.42845	32373.775
1260.97859	33342.875
1264.52631	34334.675
1268.07163	35346.575
1271.61453	36529.975
1275.15503	37767.475
1278.69312	39025.975
1282.22882	40034.675
1285.76211	40913.875
1289.29301	41732.275
1292.82151	42839.875
1296.34761	44437.275
1299.87133	46743.075
1303.39266	49767.875
1306.9116	53471.875
1310.42815	57133.875
1313.94233	59482.275
1317.45412	59552.075
1320.96354	57910.475
1324.47058	55896.975
1327.97525	53970.575
1331.47754	52479.975
1334.97747	51480.375
1338.47502	50790.975
1341.97022	50144.075
1345.46305	49228.675
1348.95352	48584.575
1352.44163	48771.575
1355.92738	50457.175
1359.41078	53766.575
1362.89183	56933.475
1366.37053	56561.975
1369.84688	51900.475
1373.32088	45819.775
1376.79254	41487.675
1380.26186	39496.875
1383.72883	38946.675
1387.19347	38599.175
1390.65578	37977.075
1394.11575	37633.175
1397.57339	37828.175
1401.0287	38529.475
1404.48168	39265.275
1407.93234	39555.675
1411.38068	39260.175
1414.82669	38299.475
1418.27039	36967.875
1421.71177	35664.975
1425.15083	34500.575
1428.58758	33885.075
1432.02203	33990.875
1435.45416	34717.475
1438.88399	35601.275
1442.31151	36345.275
1445.73673	36897.175
1449.15965	37300.975
1452.58027	37553.275
1455.9986	37471.675
1459.41463	37604.675
1462.82837	38220.875
1466.23982	39154.175
1469.64898	40043.575
1473.05586	40635.975
1476.46045	40764.275
1479.86276	40647.475
1483.26279	40358.775
1486.66054	40020.975
1490.05602	40068.275
1493.44922	40320.175
1496.84016	40743.075
1500.22882	41494.275
1503.61521	42879.175
1506.99934	44659.375
1510.38121	46343.675
1513.76081	46930.175
1517.13816	45866.775
1520.51324	43567.875
1523.88607	41373.875
1527.25665	39968.775
1530.62498	39215.975
1533.99105	38848.375
1537.35488	38571.775
1540.71647	38130.875
1544.07581	37643.975
1547.4329	36983.575
1550.78776	36477.475
1554.14038	36021.275
1557.49077	35735.975
1560.83892	35553.875
1564.18484	35546.075
1567.52853	35694.075
1570.86999	36001.375
1574.20922	36420.075
1577.54624	36767.975
1580.88103	36609.475
1584.2136	36566.075
1587.54395	37538.275
1590.87208	39547.875
1594.19801	42518.275
1597.52172	45644.475
1600.84321	46783.775
1604.16251	44689.375
1607.47959	40737.675
1610.79447	36769.375
1614.10715	33406.475
1617.41763	30812.375
1620.7259	29178.075
1624.03199	28408.075
1627.33587	28545.975
1630.63757	29452.175
1633.93707	31296.275
1637.23439	34164.975
1640.52951	38108.875
1643.82246	42542.875
1647.11321	45957.975
1650.40179	46499.675
1653.68819	43328.575
1656.97241	37809.475
1660.25446	32367.475
1663.53433	28337.775
1666.81203	25885.575
1670.08756	24278.875
1673.36092	23330.675
1676.63211	22701.875
1679.90115	22255.175
1683.16801	21923.575
1686.43272	21696.975
1689.69527	21524.975
1692.95567	21397.975
1696.2139	21271.275
1699.46999	21217.175
1702.72392	21169.975
1705.97571	21162.075
1709.22535	21110.875
1712.47284	21070.575
1715.71819	21118.875
1718.96139	21053.475
1722.20246	20929.075
1725.44139	20870.675
1728.67818	20776.175
1731.91284	20639.975
1735.14537	20518.475
1738.37576	20461.675
1741.60403	20383.275
1744.83017	20332.675
1748.05418	20286.175
1751.27607	20235.775
1754.49584	20202.675
1757.71349	20197.175
1760.92903	20177.375
1764.14244	20150.275
1767.35375	20146.175
1770.56294	20133.375
1773.77002	20082.675
1776.97499	20026.075
1780.17785	20014.675
1783.37861	20006.775
1786.57727	19970.875
1789.77382	19940.675
1792.96828	19896.975
1796.16064	19892.275
1799.3509	19857.575
1802.53907	19847.575
1805.72514	19779.775
1808.90913	19699.675
1812.09102	19674.475
1815.27083	19642.375
1818.44856	19602.575
1821.6242	19573.075
1824.79776	19581.675
1827.96924	19548.475
1831.13864	19507.275
1834.30597	19612.875
1837.47122	19527.375
1840.6344	19556.675
1843.7955	19565.075
1846.95454	19563.275
1850.11151	19519.875
1853.26642	19535.475
1856.41926	19514.575
1859.57004	19541.575
1862.71876	19481.975
1865.86542	19490.475
1869.01003	19520.275
1872.15258	19465.675
1875.29308	19498.775
1878.43152	19499.975
1881.56792	19500.475
1884.70227	19490.775
1887.83457	19467.575
1890.96482	19482.375
1894.09304	19465.675
1897.21921	19443.875
1900.34335	19434.275
1903.46544	19399.275
1906.58551	19448.475
1909.70353	19441.675
1912.81953	19430.575
1915.93349	19374.675
1919.04543	19325.975
1922.15534	19266.875
1925.26322	19217.075
1928.36908	19194.975
1931.47292	19152.175
1934.57473	19101.875
1937.67453	19047.575
1940.77232	18985.375
1943.86808	18940.375
1946.96184	18871.575
1950.05358	18827.275
1953.14331	18779.275
1956.23103	18697.375
1959.31675	18630.875
1962.40046	18587.575
1965.48217	18546.375
1968.56188	18520.975
1971.63959	18479.775
1974.7153	18428.975
1977.78901	18347.975
1980.86073	18287.975
1983.93046	18238.675
1986.99819	18169.075
1990.06394	18090.175
1993.1277	18088.275
1996.18947	18026.875
1999.24925	18010.575
2002.30706	17924.475
2005.36288	17861.775
2008.41672	17820.675
2011.46859	17778.675
2014.51848	17756.475
2017.56639	17731.075
2020.61233	17670.475
2023.6563	17664.175
2026.6983	17626.775
2029.73833	17600.275
2032.7764	17582.575
2035.8125	17582.875
2038.84664	17534.675
2041.87881	17561.275
2044.90903	17524.975
2047.93729	17490.175
2050.96359	17501.075
2053.98794	17442.975
2057.01034	17400.975
2060.03078	17392.975
2063.04927	17377.275
2066.06582	17362.975
2069.08042	17369.075
2072.09307	17358.375
2075.10378	17347.675
2078.11255	17318.975
2081.11938	17327.875
2084.12426	17305.175
2087.12722	17322.875
2090.12824	17300.775
2093.12732	17276.275
2096.12447	17284.475
2099.11969	17291.175
2102.11299	17318.175
2105.10435	17335.175
2108.09379	17302.775
2111.08131	17328.275
2114.0669	17343.475
2117.05057	17347.975
2120.03233	17367.075
2123.01216	17380.575
2125.99008	17378.875
2128.96609	17413.475
2131.94018	17444.475
2134.91236	17439.075
2137.88263	17476.075
2140.851	17438.875
2143.81746	17500.275
2146.78201	17458.775
2149.74466	17498.375
2152.7054	17519.275
2155.66425	17508.775
2158.6212	17483.775
2161.57625	17491.675
2164.52941	17511.575
2167.48067	17499.875
2170.43004	17511.075
2173.37752	17504.775
2176.32311	17478.875
2179.26681	17494.475
2182.20863	17508.575
2185.14856	17533.975
2188.08661	17531.275
2191.02278	17522.075
2193.95707	17522.375
2196.88948	17526.075
2199.82001	17529.275
2202.74867	17504.275
2205.67545	17544.875
2208.60037	17522.675
2211.52341	17532.075
2214.44458	17485.975
2217.36388	17495.475
2220.28132	17453.775
2223.1969	17432.975
2226.11061	17422.375
2229.02246	17396.075
2231.93245	17318.075
2234.84058	17292.175
2237.74686	17289.075
2240.65128	17285.175
2243.55385	17261.575
2246.45456	17243.575
2249.35343	17225.775
2252.25044	17190.975
2255.14561	17144.575
2258.03893	17146.875
2260.93041	17105.375
2263.82004	17051.775
2266.70783	17045.375
2269.59378	17001.775
2272.4779	16956.775
2275.36017	16905.375
2278.24061	16910.075
2281.11922	16889.175
2283.996	16865.675
2286.87094	16864.875
2289.74405	16811.175
2292.61534	16818.475
2295.4848	16812.475
2298.35243	16815.975
2301.21824	16841.375
2304.08223	16842.975
2306.94439	16905.675
2309.80474	16891.975
2312.66327	16916.675
2315.51999	16937.375
2318.37489	16893.575
2321.22797	16902.775
2324.07925	16884.075
2326.92871	16865.475
2329.77637	16888.275
2332.62222	16873.075
2335.46626	16878.875
2338.3085	16879.275
2341.14893	16879.675
2343.98756	16918.475
2346.8244	16900.375
2349.65943	16907.175
2352.49267	16912.575
2355.32411	16889.175
2358.15376	16857.175
2360.98161	16846.675
2363.80768	16804.775
2366.63195	16803.975
2369.45444	16795.575
2372.27514	16716.375
2375.09405	16694.975
2377.91118	16674.975
2380.72652	16655.575
2383.54009	16607.875
2386.35187	16581.475
2389.16188	16555.375
2391.97011	16526.375
2394.77657	16517.675
2397.58125	16467.375
2400.38416	16460.975
2403.18529	16427.875
2405.98466	16418.975
2408.78226	16409.375
2411.57809	16341.475
2414.37216	16299.375
2417.16446	16271.775
2419.955	16269.175
2422.74378	16240.775
2425.5308	16231.475
2428.31606	16196.675
2431.09956	16203.675
2433.88131	16197.575
2436.6613	16207.275
2439.43954	16206.275
2442.21603	16173.575
2444.99077	16213.975
2447.76377	16180.575
2450.53501	16148.775
2453.30451	16175.775
2456.07226	16151.275
2458.83827	16139.475
2461.60254	16159.675
2464.36507	16183.275
2467.12586	16145.375
2469.88492	16148.475
2472.64224	16188.575
2475.39782	16161.975
2478.15167	16203.975
2480.90379	16221.875
2483.65417	16238.775
2486.40283	16216.475
2489.14976	16211.675
2491.89497	16213.975
2494.63845	16246.475
2497.3802	16235.375
2500.12024	16225.375
2502.85855	16242.775
2505.59514	16241.575
2508.33002	16195.875
2511.06318	16199.375
2513.79462	16170.375
2516.52435	16154.675
2519.25237	16167.875
2521.97867	16134.675
2524.70327	16123.475
2527.42616	16120.475
2530.14734	16091.075
2532.86681	16093.475
2535.58458	16121.375
2538.30065	16125.975
2541.01501	16086.975
2543.72768	16053.275
2546.43864	16047.475
2549.14791	16033.575
2551.85548	16020.075
2554.56136	16028.275
2557.26554	16042.975
2559.96803	16007.975
2562.66883	15993.075
2565.36794	15976.875
2568.06536	16012.975
2570.7611	15956.975
2573.45514	15959.275
2576.14751	15957.675
2578.83819	15926.575
2581.52719	15969.075
2584.21451	15951.775
2586.90015	15961.575
2589.58411	15971.075
2592.2664	15928.275
2594.94701	15947.075
2597.62594	15926.475
2600.30321	15914.375
2602.9788	15890.275
2605.65273	15847.475
2608.32498	15902.275
2610.99557	15876.675
2613.66449	15875.775
2616.33175	15835.575
2618.99734	15872.675
2621.66128	15878.675
2624.32355	15873.575
2626.98416	15877.075
2629.64311	15874.075
2632.30041	15886.875
2634.95605	15872.675
2637.61004	15864.675
2640.26238	15867.275
2642.91306	15841.975
2645.56209	15787.975
2648.20948	15781.375
2650.85521	15742.875
2653.4993	15738.375
2656.14175	15766.975
2658.78255	15758.175
2661.42171	15748.375
2664.05923	15785.675
2666.6951	15773.275
2669.32934	15793.975
2671.96194	15793.175
2674.59291	15808.075
2677.22224	15798.075
2679.84993	15812.875
2682.476	15767.875
2685.10043	15734.675
2687.72324	15730.875
2690.34441	15715.675
2692.96396	15676.875
2695.58188	15691.575
2698.19818	15670.775
2700.81285	15670.975
2703.4259	15670.175
2706.03733	15705.775
2708.64714	15688.075
2711.25533	15698.475
2713.86191	15702.575
2716.46687	15739.775
2719.07021	15719.275
2721.67194	15714.975
2724.27206	15682.175
2726.87057	15716.775
2729.46747	15707.375
2732.06276	15698.975
2734.65644	15685.075
2737.24852	15697.575
2739.83899	15662.475
2742.42786	15707.575
2745.01513	15700.875
2747.60079	15663.075
2750.18486	15688.775
2752.76733	15688.775
2755.3482	15647.375
2757.92747	15659.175
2760.50515	15669.575
2763.08123	15650.075
2765.65573	15646.375
2768.22863	15670.775
2770.79994	15648.575
2773.36967	15665.275
2775.9378	15631.975
2778.50435	15657.275
2781.06932	15624.275
2783.6327	15595.375
2786.1945	15618.175
2788.75471	15591.775
2791.31335	15559.475
2793.87041	15538.275
2796.42589	15507.075
2798.97979	15507.375
2801.53212	15461.475
2804.08288	15444.375
2806.63206	15416.275
2809.17967	15394.175
2811.72571	15398.375
2814.27018	15342.775
2816.81308	15330.675
2819.35442	15331.375
2821.89419	15296.875
2824.43239	15317.575
2826.96904	15277.675
2829.50412	15248.375
2832.03763	15224.675
2834.56959	15229.575
2837.1	15191.075
2839.62884	15209.175
2842.15613	15221.475
2844.68186	15232.375
2847.20604	15234.475
2849.72867	15256.675
2852.24974	15238.775
2854.76927	15250.375
2857.28724	15223.275
2859.80367	15182.975
2862.31855	15172.775
2864.83189	15167.075
2867.34368	15162.075
2869.85393	15187.175
2872.36264	15153.775
2874.8698	15214.475
2877.37543	15184.975
2879.87952	15203.075
2882.38207	15207.175
2884.88308	15191.575
2887.38256	15224.275
2889.88051	15200.275
2892.37692	15195.175
2894.8718	15232.575
2897.36515	15241.875
2899.85698	15237.475
2902.34727	15247.975
2904.83604	15266.675
2907.32328	15316.475
2909.809	15289.375
2912.29319	15319.675
2914.77587	15321.375
2917.25702	15307.875
2919.73665	15284.575
2922.21476	15300.875
2924.69136	15279.175
2927.16644	15282.275
2929.64	15237.875
2932.11205	15222.975
2934.58258	15174.975
2937.05161	15210.975
2939.51912	15187.275
2941.98513	15161.675
2944.44962	15120.275
2946.91261	15037.875
2949.37409	15099.075
2951.83407	15046.475
2954.29254	15057.975
2956.74951	15045.875
2959.20498	15005.175
2961.65895	15000.075
2964.11142	14963.775
2966.56239	14950.875
2969.01186	14932.275
2971.45984	14877.175
2973.90632	14895.075
2976.35131	14845.975
2978.7948	14793.575
2981.23681	14743.775
2983.67732	14735.575
2986.11635	14689.575
2988.55388	14649.475
2990.98993	14640.575
2993.4245	14579.075
2995.85758	14552.475
2998.28917	14534.975
3000.71928	14514.775
3003.14791	14504.275
3005.57506	14489.175
3008.00073	14456.475
3010.42493	14447.075
3012.84764	14444.375
3015.26888	14401.275
3017.68865	14384.275
3020.10694	14374.275
3022.52376	14321.275
3024.9391	14308.475
3027.35298	14271.875
3029.76539	14261.575
3032.17632	14218.475
3034.5858	14238.875
3036.9938	14217.275
3039.40034	14201.075
3041.80542	14200.775
3044.20903	14172.375
3046.61118	14147.975
3049.01187	14136.475
3051.4111	14141.075
3053.80888	14087.375
3056.20519	14078.375
3058.60005	14070.475
3060.99345	14023.675
3063.3854	14001.575
3065.7759	13974.775
3068.16494	13939.175
3070.55254	13878.875
3072.93868	13888.375
3075.32338	13858.175
3077.70662	13841.575
3080.08842	13821.875
3082.46878	13806.075
3084.84769	13771.075
3087.22515	13773.975
3089.60118	13763.475
3091.97576	13755.875
3094.3489	13752.375
3096.72061	13733.475
3099.09087	13741.175
3101.4597	13703.175
3103.82709	13706.775
3106.19305	13687.175
3108.55757	13695.175
3110.92066	13665.375
3113.28232	13629.775
3115.64255	13612.175
3118.00134	13589.375
3120.35871	13587.675
3122.71466	13577.675
3125.06917	13540.575
3127.42226	13490.275
3129.77393	13573.075
