Data from AgNPs_FTO_APTES_UA_100uM_R6G_10uM_NaF_0.1M_Addition_RamanShift__35__15-57-57-487.txt Node

Date: Fri Dec 17 15:57:57 GMT 2021
User: TCL
Spectrometer: QEP01345
Trigger mode: 4
Integration Time (sec): 7.000000E0
Scans to average: 10
Electric dark correction enabled: true
Nonlinearity correction enabled: false
Boxcar width: 0
XAxis mode: Raman Shifts
Number of Pixels in Spectrum: 1044
>>>>>Begin Spectral Data<<<<<
46.04893	0.6875
50.45542	-0.2125
54.85868	-1.0125
59.25871	-0.2125
63.6555	50.6875
68.04907	53.7875
72.43941	54.8875
76.82654	62.5875
81.21044	63.2875
85.59113	68.1875
89.96862	69.2875
94.34289	73.0875
98.71396	76.9875
103.08183	76.2875
107.4465	79.0875
111.80798	78.0875
116.16626	81.0875
120.52136	80.9875
124.87327	85.4875
129.222	88.2875
133.56755	90.2875
137.90993	95.8875
142.24913	100.2875
146.58517	108.8875
150.91804	125.3875
155.24774	143.5875
159.57429	177.3875
163.89768	219.5875
168.21792	286.0875
172.53501	386.4875
176.84895	527.2875
181.15975	729.9875
185.46741	1024.7875
189.77193	1399.0875
194.07331	1879.7875
198.37157	2412.6875
202.6667	2992.3875
206.9587	3559.4875
211.24758	4108.7875
215.53334	4662.2875
219.81599	5255.3875
224.09553	5911.4875
228.37195	6624.9875
232.64527	7428.5875
236.91549	8316.6875
241.18261	9173.1875
245.44663	9979.6875
249.70755	10654.5875
253.96539	11291.5875
258.22014	11790.5875
262.4718	12208.2875
266.72039	12529.7875
270.96589	12698.3875
275.20832	12724.4875
279.44768	12603.2875
283.68397	12416.5875
287.91719	12177.1875
292.14735	12068.9875
296.37445	12052.0875
300.59849	12132.5875
304.81948	12262.8875
309.03742	12283.8875
313.25231	12129.1875
317.46415	11845.2875
321.67296	11482.5875
325.87872	11221.7875
330.08145	11120.4875
334.28114	11112.5875
338.47781	11192.3875
342.67145	11346.2875
346.86207	11554.5875
351.04966	11829.1875
355.23424	12129.5875
359.4158	12428.2875
363.59435	12649.9875
367.76989	12851.8875
371.94243	12987.2875
376.11196	13091.3875
380.27849	13176.5875
384.44203	13204.8875
388.60257	13263.6875
392.76012	13289.0875
396.91468	13387.5875
401.06626	13506.6875
405.21485	13617.7875
409.36047	13516.5875
413.50311	13192.5875
417.64277	12910.3875
421.77947	12693.6875
425.9132	12638.3875
430.04396	12605.6875
434.17176	12673.4875
438.2966	12767.1875
442.41849	12902.8875
446.53742	13043.5875
450.6534	13236.2875
454.76644	13378.6875
458.87653	13462.4875
462.98368	13455.0875
467.08789	13421.3875
471.18916	13330.0875
475.2875	13230.8875
479.38291	13159.4875
483.4754	13051.6875
487.56496	12985.1875
491.6516	12944.9875
495.73531	12911.5875
499.81612	12926.0875
503.89401	12962.8875
507.96899	13022.2875
512.04106	13118.6875
516.11023	13198.9875
520.1765	13237.9875
524.23987	13198.1875
528.30034	13110.6875
532.35792	13029.8875
536.41261	12944.1875
540.46441	12815.0875
544.51333	12762.2875
548.55936	12771.8875
552.60252	12864.3875
556.64279	13025.1875
560.6802	13131.6875
564.71473	13134.4875
568.7464	13208.4875
572.7752	13326.8875
576.80114	13285.9875
580.82422	13173.4875
584.84444	13178.1875
588.86181	13267.2875
592.87633	13321.2875
596.888	13401.6875
600.89682	13556.1875
604.9028	14171.7875
608.90594	15830.2875
612.90624	17933.0875
616.90371	17521.7875
620.89834	14671.9875
624.89015	13365.2875
628.87913	13151.3875
632.86528	13284.2875
636.84862	13470.9875
640.82913	13452.3875
644.80683	13142.8875
648.78172	12862.6875
652.75379	12719.8875
656.72306	12830.0875
660.68952	13040.9875
664.65319	12975.4875
668.61405	12712.2875
672.57211	12575.1875
676.52738	12557.4875
680.47986	12580.2875
684.42955	12543.2875
688.37646	12504.7875
692.32058	12499.3875
696.26192	12551.4875
700.20048	12620.7875
704.13626	12661.1875
708.06928	12691.8875
711.99952	12593.1875
715.927	12603.4875
719.85171	12618.8875
723.77365	12649.2875
727.69284	12604.4875
731.60928	12528.8875
735.52295	12515.1875
739.43388	12523.4875
743.34206	12518.8875
747.24749	12536.3875
751.15017	12537.4875
755.05012	12611.2875
758.94733	12788.9875
762.8418	13284.3875
766.73354	14242.1875
770.62254	15431.3875
774.50882	16166.6875
778.39237	15750.1875
782.27321	14476.6875
786.15132	13409.4875
790.02671	12782.9875
793.89938	12514.7875
797.76935	12373.8875
801.6366	12324.8875
805.50115	12296.6875
809.36299	12291.1875
813.22213	12244.7875
817.07857	12254.6875
820.93231	12247.4875
824.78336	12205.5875
828.63172	12180.3875
832.47738	12155.7875
836.32036	12151.9875
840.16066	12109.0875
843.99827	12113.7875
847.8332	12079.8875
851.66546	12083.6875
855.49504	12044.1875
859.32195	12060.1875
863.1462	12037.4875
866.96777	12055.1875
870.78668	12022.7875
874.60293	12041.6875
878.41652	12070.4875
882.22745	12105.0875
886.03573	12178.8875
889.84136	12213.1875
893.64433	12156.1875
897.44466	12082.9875
901.24235	12000.3875
905.0374	11973.5875
908.8298	11869.6875
912.61957	11871.8875
916.40671	11883.7875
920.19121	11922.1875
923.97308	11943.3875
927.75233	11972.7875
931.52895	11960.6875
935.30295	11909.2875
939.07433	11789.9875
942.84309	11663.1875
946.60924	11581.1875
950.37278	11509.8875
954.13371	11438.5875
957.89203	11409.4875
961.64774	11411.7875
965.40086	11357.8875
969.15137	11311.5875
972.89929	11310.1875
976.64461	11262.5875
980.38733	11260.2875
984.12747	11290.8875
987.86502	11293.5875
991.59999	11357.2875
995.33237	11369.1875
999.06217	11482.4875
1002.78939	11571.0875
1006.51404	11649.0875
1010.23611	11761.6875
1013.95561	11824.0875
1017.67255	11860.3875
1021.38692	11824.9875
1025.09872	11716.0875
1028.80796	11660.7875
1032.51465	11662.1875
1036.21877	11713.7875
1039.92035	11731.3875
1043.61937	11738.8875
1047.31584	11719.5875
1051.00976	11690.2875
1054.70114	11691.6875
1058.38998	11656.6875
1062.07627	11717.7875
1065.76003	11751.5875
1069.44126	11839.2875
1073.11995	11892.5875
1076.79611	12034.7875
1080.46974	12087.1875
1084.14085	12104.5875
1087.80943	12167.8875
1091.47549	12252.9875
1095.13903	12200.8875
1098.80005	12139.1875
1102.45857	11966.5875
1106.11456	11852.8875
1109.76805	11854.4875
1113.41903	11958.8875
1117.06751	12114.1875
1120.71348	12317.2875
1124.35696	12520.1875
1127.99793	12732.3875
1131.63641	12883.0875
1135.2724	12776.6875
1138.90589	12521.1875
1142.5369	12311.6875
1146.16542	12140.9875
1149.79145	11986.8875
1153.415	11900.9875
1157.03607	11874.3875
1160.65467	11978.1875
1164.27079	12151.9875
1167.88443	12474.7875
1171.49561	12923.5875
1175.10432	13715.0875
1178.71056	14712.2875
1182.31434	15596.2875
1185.91565	15929.8875
1189.51451	15739.8875
1193.11091	15163.4875
1196.70485	14531.5875
1200.29634	14073.5875
1203.88538	13748.7875
1207.47197	13385.9875
1211.05612	13013.6875
1214.63782	12737.9875
1218.21708	12567.8875
1221.79391	12419.7875
1225.36829	12330.0875
1228.94024	12274.6875
1232.50976	12247.3875
1236.07685	12219.5875
1239.6415	12204.1875
1243.20374	12242.9875
1246.76355	12322.1875
1250.32093	12412.3875
1253.8759	12544.9875
1257.42845	12744.3875
1260.97859	12921.3875
1264.52631	13164.9875
1268.07163	13348.6875
1271.61453	13529.8875
1275.15503	13702.9875
1278.69312	13824.6875
1282.22882	13889.3875
1285.76211	13978.4875
1289.29301	14197.7875
1292.82151	14504.1875
1296.34761	14930.6875
1299.87133	15462.0875
1303.39266	16190.0875
1306.9116	17117.2875
1310.42815	18050.3875
1313.94233	18554.5875
1317.45412	18353.2875
1320.96354	17655.2875
1324.47058	16933.2875
1327.97525	16231.9875
1331.47754	15673.5875
1334.97747	15397.7875
1338.47502	15319.4875
1341.97022	15425.9875
1345.46305	15697.9875
1348.95352	16185.9875
1352.44163	16943.0875
1355.92738	18018.7875
1359.41078	19543.4875
1362.89183	21253.1875
1366.37053	21370.7875
1369.84688	19244.3875
1373.32088	16719.2875
1376.79254	15008.8875
1380.26186	14196.5875
1383.72883	13808.0875
1387.19347	13521.0875
1390.65578	13281.1875
1394.11575	13025.9875
1397.57339	12835.0875
1401.0287	12799.7875
1404.48168	12746.0875
1407.93234	12693.0875
1411.38068	12577.1875
1414.82669	12439.4875
1418.27039	12344.2875
1421.71177	12189.5875
1425.15083	12044.8875
1428.58758	11916.0875
1432.02203	11883.8875
1435.45416	11957.3875
1438.88399	12068.0875
1442.31151	12126.3875
1445.73673	12193.9875
1449.15965	12268.3875
1452.58027	12283.4875
1455.9986	12279.0875
1459.41463	12296.0875
1462.82837	12363.1875
1466.23982	12518.6875
1469.64898	12672.7875
1473.05586	12807.5875
1476.46045	12923.4875
1479.86276	13005.0875
1483.26279	13078.3875
1486.66054	13185.7875
1490.05602	13365.8875
1493.44922	13659.9875
1496.84016	14191.4875
1500.22882	15022.3875
1503.61521	16213.8875
1506.99934	17645.9875
1510.38121	18913.8875
1513.76081	19380.8875
1517.13816	18677.0875
1520.51324	17214.8875
1523.88607	15691.7875
1527.25665	14678.9875
1530.62498	14106.4875
1533.99105	13770.5875
1537.35488	13529.2875
1540.71647	13378.8875
1544.07581	13217.9875
1547.4329	13123.5875
1550.78776	13065.3875
1554.14038	13044.2875
1557.49077	13111.0875
1560.83892	13255.2875
1564.18484	13372.8875
1567.52853	13558.8875
1570.86999	13757.1875
1574.20922	13967.2875
1577.54624	14031.2875
1580.88103	13773.9875
1584.2136	13343.4875
1587.54395	13005.5875
1590.87208	12954.3875
1594.19801	13182.6875
1597.52172	13564.5875
1600.84321	13830.3875
1604.16251	13586.8875
1607.47959	13173.1875
1610.79447	12677.4875
1614.10715	12186.6875
1617.41763	11711.0875
1620.7259	11353.9875
1624.03199	11155.3875
1627.33587	11094.6875
1630.63757	11172.7875
1633.93707	11402.6875
1637.23439	11811.6875
1640.52951	12488.5875
1643.82246	13416.7875
1647.11321	14519.7875
1650.40179	15389.1875
1653.68819	15348.7875
1656.97241	14234.1875
1660.25446	12768.7875
1663.53433	11705.9875
1666.81203	11025.7875
1670.08756	10575.5875
1673.36092	10311.3875
1676.63211	10124.9875
1679.90115	9993.6875
1683.16801	9895.2875
1686.43272	9825.9875
1689.69527	9777.2875
1692.95567	9740.7875
1696.2139	9717.4875
1699.46999	9703.3875
1702.72392	9687.8875
1705.97571	9615.0875
1709.22535	9536.8875
1712.47284	9490.2875
1715.71819	9428.1875
1718.96139	9414.6875
1722.20246	9364.9875
1725.44139	9314.4875
1728.67818	9253.4875
1731.91284	9215.1875
1735.14537	9159.8875
1738.37576	9136.5875
1741.60403	9120.6875
1744.83017	9105.1875
1748.05418	9067.4875
1751.27607	9055.6875
1754.49584	9030.9875
1757.71349	9035.5875
1760.92903	9019.6875
1764.14244	8999.5875
1767.35375	8984.5875
1770.56294	8972.2875
1773.77002	8973.1875
1776.97499	8967.7875
1780.17785	8917.1875
1783.37861	8900.3875
1786.57727	8885.2875
1789.77382	8867.7875
1792.96828	8840.1875
1796.16064	8825.2875
1799.3509	8830.1875
1802.53907	8810.8875
1805.72514	8786.3875
1808.90913	8740.6875
1812.09102	8741.6875
1815.27083	8716.2875
1818.44856	8688.2875
1821.6242	8658.9875
1824.79776	8664.7875
1827.96924	8638.9875
1831.13864	8650.2875
1834.30597	8625.4875
1837.47122	8616.3875
1840.6344	8614.1875
1843.7955	8622.0875
1846.95454	8599.9875
1850.11151	8580.0875
1853.26642	8574.8875
1856.41926	8570.0875
1859.57004	8540.4875
1862.71876	8536.9875
1865.86542	8546.2875
1869.01003	8537.0875
1872.15258	8521.7875
1875.29308	8501.2875
1878.43152	8503.8875
1881.56792	8475.6875
1884.70227	8491.8875
1887.83457	8461.2875
1890.96482	8452.6875
1894.09304	8425.0875
1897.21921	8437.4875
1900.34335	8415.7875
1903.46544	8417.3875
1906.58551	8400.1875
1909.70353	8396.0875
1912.81953	8378.6875
1915.93349	8360.2875
1919.04543	8325.5875
1922.15534	8316.4875
1925.26322	8320.5875
1928.36908	8313.3875
1931.47292	8240.8875
1934.57473	8247.5875
1937.67453	8219.4875
1940.77232	8203.7875
1943.86808	8201.1875
1946.96184	8191.4875
1950.05358	8149.3875
1953.14331	8134.9875
1956.23103	8100.8875
1959.31675	8079.9875
1962.40046	8061.1875
1965.48217	8044.9875
1968.56188	8027.5875
1971.63959	7990.0875
1974.7153	7962.6875
1977.78901	7914.9875
1980.86073	7919.2875
1983.93046	7885.8875
1986.99819	7859.6875
1990.06394	7848.5875
1993.1277	7825.2875
1996.18947	7785.0875
1999.24925	7771.3875
2002.30706	7726.4875
2005.36288	7724.9875
2008.41672	7688.0875
2011.46859	7673.7875
2014.51848	7648.7875
2017.56639	7617.2875
2020.61233	7616.2875
2023.6563	7582.3875
2026.6983	7577.0875
2029.73833	7531.0875
2032.7764	7536.9875
2035.8125	7518.9875
2038.84664	7498.0875
2041.87881	7495.8875
2044.90903	7464.7875
2047.93729	7457.8875
2050.96359	7453.5875
2053.98794	7432.4875
2057.01034	7399.2875
2060.03078	7396.2875
2063.04927	7392.1875
2066.06582	7394.8875
2069.08042	7387.8875
2072.09307	7390.6875
2075.10378	7367.0875
2078.11255	7354.1875
2081.11938	7365.8875
2084.12426	7359.9875
2087.12722	7357.7875
2090.12824	7364.0875
2093.12732	7339.7875
2096.12447	7347.1875
2099.11969	7353.1875
2102.11299	7363.0875
2105.10435	7353.3875
2108.09379	7354.0875
2111.08131	7368.6875
2114.0669	7366.3875
2117.05057	7371.7875
2120.03233	7365.5875
2123.01216	7378.1875
2125.99008	7382.6875
2128.96609	7401.4875
2131.94018	7399.2875
2134.91236	7393.5875
2137.88263	7409.5875
2140.851	7396.6875
2143.81746	7417.9875
2146.78201	7414.2875
2149.74466	7395.5875
2152.7054	7412.4875
2155.66425	7398.7875
2158.6212	7391.0875
2161.57625	7387.1875
2164.52941	7390.1875
2167.48067	7363.1875
2170.43004	7381.5875
2173.37752	7368.7875
2176.32311	7355.8875
2179.26681	7342.7875
2182.20863	7353.1875
2185.14856	7340.4875
2188.08661	7366.2875
2191.02278	7364.6875
2193.95707	7359.7875
2196.88948	7328.8875
2199.82001	7342.7875
2202.74867	7316.4875
2205.67545	7308.1875
2208.60037	7325.0875
2211.52341	7298.6875
2214.44458	7281.6875
2217.36388	7269.0875
2220.28132	7248.7875
2223.1969	7230.1875
2226.11061	7221.7875
2229.02246	7199.5875
2231.93245	7179.7875
2234.84058	7173.0875
2237.74686	7166.2875
2240.65128	7161.8875
2243.55385	7140.4875
2246.45456	7140.3875
2249.35343	7134.4875
2252.25044	7130.7875
2255.14561	7118.1875
2258.03893	7124.3875
2260.93041	7076.7875
2263.82004	7070.3875
2266.70783	7055.8875
2269.59378	7013.7875
2272.4779	7027.8875
2275.36017	6988.6875
2278.24061	7006.4875
2281.11922	6983.1875
2283.996	6978.8875
2286.87094	6941.6875
2289.74405	6938.9875
2292.61534	6942.2875
2295.4848	6918.8875
2298.35243	6929.1875
2301.21824	6902.5875
2304.08223	6917.3875
2306.94439	6884.0875
2309.80474	6910.5875
2312.66327	6882.2875
2315.51999	6879.4875
2318.37489	6875.9875
2321.22797	6875.3875
2324.07925	6847.7875
2326.92871	6850.3875
2329.77637	6835.4875
2332.62222	6811.2875
2335.46626	6812.5875
2338.3085	6792.7875
2341.14893	6784.2875
2343.98756	6780.8875
2346.8244	6774.8875
2349.65943	6763.3875
2352.49267	6775.5875
2355.32411	6761.7875
2358.15376	6765.7875
2360.98161	6762.0875
2363.80768	6748.6875
2366.63195	6763.0875
2369.45444	6730.2875
2372.27514	6745.4875
2375.09405	6723.4875
2377.91118	6726.7875
2380.72652	6689.5875
2383.54009	6684.6875
2386.35187	6674.1875
2389.16188	6640.6875
2391.97011	6634.4875
2394.77657	6595.8875
2397.58125	6585.8875
2400.38416	6591.2875
2403.18529	6577.3875
2405.98466	6557.7875
2408.78226	6553.1875
2411.57809	6551.5875
2414.37216	6509.4875
2417.16446	6549.9875
2419.955	6511.6875
2422.74378	6511.5875
2425.5308	6511.8875
2428.31606	6511.5875
2431.09956	6497.1875
2433.88131	6490.3875
2436.6613	6482.3875
2439.43954	6498.1875
2442.21603	6469.1875
2444.99077	6457.7875
2447.76377	6473.1875
2450.53501	6466.4875
2453.30451	6455.3875
2456.07226	6441.6875
2458.83827	6429.9875
2461.60254	6440.2875
2464.36507	6423.0875
2467.12586	6410.7875
2469.88492	6414.3875
2472.64224	6420.9875
2475.39782	6400.9875
2478.15167	6408.3875
2480.90379	6396.6875
2483.65417	6391.2875
2486.40283	6384.7875
2489.14976	6392.6875
2491.89497	6387.9875
2494.63845	6413.6875
2497.3802	6382.3875
2500.12024	6377.1875
2502.85855	6366.0875
2505.59514	6363.4875
2508.33002	6344.0875
2511.06318	6340.4875
2513.79462	6318.3875
2516.52435	6308.4875
2519.25237	6292.5875
2521.97867	6270.6875
2524.70327	6255.9875
2527.42616	6243.6875
2530.14734	6237.1875
2532.86681	6231.8875
2535.58458	6213.0875
2538.30065	6229.0875
2541.01501	6204.1875
2543.72768	6198.8875
2546.43864	6196.3875
2549.14791	6186.2875
2551.85548	6188.0875
2554.56136	6166.8875
2557.26554	6182.4875
2559.96803	6145.7875
2562.66883	6146.7875
2565.36794	6135.3875
2568.06536	6126.3875
2570.7611	6115.3875
2573.45514	6112.4875
2576.14751	6097.4875
2578.83819	6081.9875
2581.52719	6077.3875
2584.21451	6070.3875
2586.90015	6065.2875
2589.58411	6036.6875
2592.2664	6035.4875
2594.94701	5995.9875
2597.62594	5999.0875
2600.30321	5990.4875
2602.9788	6000.0875
2605.65273	5978.4875
2608.32498	5963.5875
2610.99557	5961.4875
2613.66449	5962.8875
2616.33175	5938.8875
2618.99734	5936.6875
2621.66128	5930.8875
2624.32355	5918.3875
2626.98416	5925.9875
2629.64311	5915.5875
2632.30041	5921.0875
2634.95605	5897.3875
2637.61004	5879.2875
2640.26238	5878.3875
2642.91306	5858.6875
2645.56209	5859.0875
2648.20948	5862.5875
2650.85521	5851.1875
2653.4993	5850.2875
2656.14175	5830.4875
2658.78255	5835.1875
2661.42171	5835.9875
2664.05923	5842.8875
2666.6951	5842.5875
2669.32934	5840.4875
2671.96194	5838.2875
2674.59291	5834.9875
2677.22224	5845.4875
2679.84993	5843.7875
2682.476	5832.8875
2685.10043	5836.8875
2687.72324	5828.2875
2690.34441	5822.6875
2692.96396	5818.3875
2695.58188	5805.4875
2698.19818	5804.1875
2700.81285	5824.2875
2703.4259	5830.9875
2706.03733	5832.0875
2708.64714	5834.7875
2711.25533	5844.9875
2713.86191	5824.9875
2716.46687	5815.8875
2719.07021	5824.8875
2721.67194	5826.3875
2724.27206	5808.1875
2726.87057	5812.8875
2729.46747	5808.5875
2732.06276	5797.2875
2734.65644	5793.2875
2737.24852	5782.9875
2739.83899	5768.5875
2742.42786	5787.1875
2745.01513	5775.6875
2747.60079	5759.4875
2750.18486	5764.9875
2752.76733	5769.0875
2755.3482	5739.4875
2757.92747	5759.0875
2760.50515	5741.1875
2763.08123	5736.5875
2765.65573	5711.5875
2768.22863	5710.8875
2770.79994	5711.8875
2773.36967	5694.3875
2775.9378	5709.0875
2778.50435	5699.7875
2781.06932	5693.1875
2783.6327	5679.8875
2786.1945	5659.7875
2788.75471	5643.7875
2791.31335	5617.1875
2793.87041	5620.5875
2796.42589	5623.7875
2798.97979	5613.9875
2801.53212	5577.1875
2804.08288	5588.5875
2806.63206	5578.1875
2809.17967	5563.2875
2811.72571	5543.8875
2814.27018	5556.8875
2816.81308	5534.3875
2819.35442	5529.8875
2821.89419	5512.5875
2824.43239	5532.4875
2826.96904	5511.4875
2829.50412	5493.5875
2832.03763	5502.2875
2834.56959	5521.2875
2837.1	5513.6875
2839.62884	5510.0875
2842.15613	5517.6875
2844.68186	5527.6875
2847.20604	5514.7875
2849.72867	5527.2875
2852.24974	5528.8875
2854.76927	5521.8875
2857.28724	5511.7875
2859.80367	5500.0875
2862.31855	5506.9875
2864.83189	5489.3875
2867.34368	5466.9875
2869.85393	5499.1875
2872.36264	5511.3875
2874.8698	5492.1875
2877.37543	5506.7875
2879.87952	5478.3875
2882.38207	5496.9875
2884.88308	5480.2875
2887.38256	5479.2875
2889.88051	5460.1875
2892.37692	5449.3875
2894.8718	5458.1875
2897.36515	5469.4875
2899.85698	5453.1875
2902.34727	5465.3875
2904.83604	5457.4875
2907.32328	5453.3875
2909.809	5457.6875
2912.29319	5445.7875
2914.77587	5469.9875
2917.25702	5464.8875
2919.73665	5458.4875
2922.21476	5463.4875
2924.69136	5442.4875
2927.16644	5459.9875
2929.64	5434.9875
2932.11205	5447.9875
2934.58258	5432.7875
2937.05161	5439.8875
2939.51912	5409.4875
2941.98513	5411.3875
2944.44962	5391.9875
2946.91261	5399.4875
2949.37409	5396.9875
2951.83407	5380.4875
2954.29254	5383.2875
2956.74951	5371.3875
2959.20498	5386.2875
2961.65895	5352.9875
2964.11142	5360.0875
2966.56239	5354.0875
2969.01186	5348.1875
2971.45984	5338.3875
2973.90632	5350.5875
2976.35131	5310.2875
2978.7948	5305.3875
2981.23681	5300.6875
2983.67732	5288.9875
2986.11635	5279.2875
2988.55388	5272.1875
2990.98993	5251.2875
2993.4245	5248.4875
2995.85758	5246.2875
2998.28917	5246.6875
3000.71928	5234.8875
3003.14791	5209.2875
3005.57506	5231.4875
3008.00073	5216.6875
3010.42493	5225.5875
3012.84764	5193.8875
3015.26888	5206.1875
3017.68865	5195.3875
3020.10694	5201.9875
3022.52376	5182.1875
3024.9391	5153.6875
3027.35298	5162.0875
3029.76539	5150.1875
3032.17632	5146.6875
3034.5858	5132.3875
3036.9938	5137.9875
3039.40034	5135.8875
3041.80542	5128.7875
3044.20903	5107.5875
3046.61118	5123.8875
3049.01187	5112.9875
3051.4111	5091.7875
3053.80888	5100.5875
3056.20519	5098.7875
3058.60005	5088.0875
3060.99345	5086.5875
3063.3854	5077.1875
3065.7759	5075.2875
3068.16494	5074.3875
3070.55254	5067.5875
3072.93868	5069.0875
3075.32338	5042.8875
3077.70662	5044.9875
3080.08842	5029.5875
3082.46878	5040.8875
