Data from AgNPs_FTO_APTES_UA_200uM_R6G_10uM_NaF_0.1M_Addition_RamanShift__8__16-09-37-500.txt Node

Date: Fri Dec 17 16:09:37 GMT 2021
User: TCL
Spectrometer: QEP01345
Trigger mode: 4
Integration Time (sec): 7.000000E0
Scans to average: 10
Electric dark correction enabled: true
Nonlinearity correction enabled: false
Boxcar width: 0
XAxis mode: Raman Shifts
Number of Pixels in Spectrum: 1044
>>>>>Begin Spectral Data<<<<<
46.04893	-0.625
50.45542	-0.425
54.85868	-1.325
59.25871	0.475
63.6555	55.375
68.04907	55.275
72.43941	57.475
76.82654	64.075
81.21044	70.775
85.59113	70.775
89.96862	74.175
94.34289	76.375
98.71396	77.075
103.08183	78.175
107.4465	86.475
111.80798	80.975
116.16626	86.075
120.52136	79.375
124.87327	87.475
129.222	89.275
133.56755	90.075
137.90993	96.175
142.24913	97.975
146.58517	103.175
150.91804	115.975
155.24774	135.375
159.57429	159.675
163.89768	193.975
168.21792	250.375
172.53501	331.375
176.84895	449.975
181.15975	615.675
185.46741	862.175
189.77193	1179.275
194.07331	1578.575
198.37157	2039.275
202.6667	2520.975
206.9587	3005.375
211.24758	3482.475
215.53334	3960.575
219.81599	4453.875
224.09553	5014.675
228.37195	5628.475
232.64527	6307.675
236.91549	7036.975
241.18261	7793.175
245.44663	8472.875
249.70755	9075.375
253.96539	9630.575
258.22014	10039.775
262.4718	10367.075
266.72039	10620.275
270.96589	10757.075
275.20832	10745.875
279.44768	10601.275
283.68397	10459.375
287.91719	10260.975
292.14735	10137.375
296.37445	10109.675
300.59849	10153.875
304.81948	10230.575
309.03742	10205.575
313.25231	10131.475
317.46415	9941.375
321.67296	9665.975
325.87872	9436.675
330.08145	9355.975
334.28114	9374.475
338.47781	9429.275
342.67145	9566.375
346.86207	9742.675
351.04966	9945.475
355.23424	10188.175
359.4158	10411.575
363.59435	10575.375
367.76989	10708.375
371.94243	10819.875
376.11196	10915.075
380.27849	10970.175
384.44203	11046.075
388.60257	11051.875
392.76012	11126.575
396.91468	11182.275
401.06626	11311.775
405.21485	11419.575
409.36047	11346.375
413.50311	11162.075
417.64277	10938.375
421.77947	10791.475
425.9132	10737.775
430.04396	10691.475
434.17176	10747.075
438.2966	10805.275
442.41849	10888.675
446.53742	10950.975
450.6534	11095.275
454.76644	11189.875
458.87653	11227.675
462.98368	11266.575
467.08789	11256.075
471.18916	11196.575
475.2875	11152.575
479.38291	11072.575
483.4754	11024.075
487.56496	10961.975
491.6516	10967.875
495.73531	10970.475
499.81612	10980.275
503.89401	10985.475
507.96899	11039.175
512.04106	11069.975
516.11023	11158.875
520.1765	11207.975
524.23987	11180.375
528.30034	11109.175
532.35792	11029.475
536.41261	10954.575
540.46441	10876.075
544.51333	10865.575
548.55936	10896.475
552.60252	10970.375
556.64279	11066.275
560.6802	11111.875
564.71473	11133.575
568.7464	11174.275
572.7752	11239.775
576.80114	11216.075
580.82422	11233.375
584.84444	11307.475
588.86181	11346.575
592.87633	11332.375
596.888	11317.875
600.89682	11411.075
604.9028	11927.875
608.90594	13204.875
612.90624	14857.075
616.90371	14556.375
620.89834	12409.875
624.89015	11359.075
628.87913	11209.975
632.86528	11357.675
636.84862	11545.775
640.82913	11515.475
644.80683	11263.875
648.78172	11004.975
652.75379	10910.275
656.72306	10986.175
660.68952	11129.575
664.65319	11098.175
668.61405	10889.175
672.57211	10802.675
676.52738	10774.175
680.47986	10767.875
684.42955	10732.775
688.37646	10685.475
692.32058	10679.875
696.26192	10738.175
700.20048	10762.375
704.13626	10816.375
708.06928	10791.875
711.99952	10786.275
715.927	10757.275
719.85171	10763.675
723.77365	10764.475
727.69284	10741.675
731.60928	10681.875
735.52295	10658.675
739.43388	10627.275
743.34206	10654.075
747.24749	10664.675
751.15017	10689.875
755.05012	10726.275
758.94733	10907.675
762.8418	11292.575
766.73354	12048.075
770.62254	12962.975
774.50882	13523.775
778.39237	13179.475
782.27321	12195.175
786.15132	11378.875
790.02671	10863.475
793.89938	10657.975
797.76935	10548.175
801.6366	10469.475
805.50115	10468.975
809.36299	10469.275
813.22213	10456.875
817.07857	10506.275
820.93231	10457.275
824.78336	10420.075
828.63172	10390.875
832.47738	10371.075
836.32036	10343.575
840.16066	10313.875
843.99827	10291.775
847.8332	10286.175
851.66546	10258.875
855.49504	10238.775
859.32195	10246.475
863.1462	10255.275
866.96777	10246.175
870.78668	10228.775
874.60293	10246.375
878.41652	10249.875
882.22745	10300.375
886.03573	10313.875
889.84136	10319.675
893.64433	10308.375
897.44466	10255.775
901.24235	10248.275
905.0374	10178.575
908.8298	10152.675
912.61957	10125.075
916.40671	10101.075
920.19121	10130.075
923.97308	10148.975
927.75233	10153.575
931.52895	10183.975
935.30295	10159.175
939.07433	10040.875
942.84309	9903.675
946.60924	9800.275
950.37278	9763.675
954.13371	9706.175
957.89203	9683.275
961.64774	9691.975
965.40086	9641.375
969.15137	9620.875
972.89929	9577.975
976.64461	9576.575
980.38733	9580.575
984.12747	9562.175
987.86502	9563.375
991.59999	9572.975
995.33237	9619.275
999.06217	9672.875
1002.78939	9728.175
1006.51404	9778.175
1010.23611	9853.875
1013.95561	9929.375
1017.67255	9928.775
1021.38692	9890.275
1025.09872	9868.775
1028.80796	9788.875
1032.51465	9764.875
1036.21877	9762.175
1039.92035	9753.675
1043.61937	9806.075
1047.31584	9814.175
1051.00976	9849.175
1054.70114	9851.675
1058.38998	9866.275
1062.07627	9911.575
1065.76003	9986.675
1069.44126	10067.475
1073.11995	10203.775
1076.79611	10264.075
1080.46974	10316.075
1084.14085	10295.675
1087.80943	10301.375
1091.47549	10346.275
1095.13903	10342.575
1098.80005	10260.675
1102.45857	10140.575
1106.11456	10036.875
1109.76805	9981.075
1113.41903	10017.475
1117.06751	10121.175
1120.71348	10290.175
1124.35696	10451.575
1127.99793	10631.375
1131.63641	10762.175
1135.2724	10666.075
1138.90589	10478.375
1142.5369	10308.475
1146.16542	10107.475
1149.79145	10001.775
1153.415	9906.475
1157.03607	9860.275
1160.65467	9927.975
1164.27079	10035.475
1167.88443	10245.475
1171.49561	10596.075
1175.10432	11179.075
1178.71056	11933.775
1182.31434	12595.975
1185.91565	12871.075
1189.51451	12752.775
1193.11091	12409.975
1196.70485	11917.475
1200.29634	11551.675
1203.88538	11260.175
1207.47197	10945.275
1211.05612	10595.075
1214.63782	10363.575
1218.21708	10223.775
1221.79391	10116.875
1225.36829	10078.275
1228.94024	10060.575
1232.50976	10080.975
1236.07685	10115.775
1239.6415	10112.775
1243.20374	10129.075
1246.76355	10179.975
1250.32093	10225.575
1253.8759	10313.675
1257.42845	10449.675
1260.97859	10568.375
1264.52631	10744.275
1268.07163	10876.875
1271.61453	11011.875
1275.15503	11099.875
1278.69312	11180.275
1282.22882	11196.375
1285.76211	11284.675
1289.29301	11427.875
1292.82151	11608.975
1296.34761	11814.975
1299.87133	12160.975
1303.39266	12619.475
1306.9116	13288.075
1310.42815	13974.875
1313.94233	14365.975
1317.45412	14228.475
1320.96354	13769.075
1324.47058	13284.575
1327.97525	12826.975
1331.47754	12411.275
1334.97747	12189.275
1338.47502	12108.175
1341.97022	12184.875
1345.46305	12429.875
1348.95352	12815.375
1352.44163	13410.275
1355.92738	14172.875
1359.41078	15295.775
1362.89183	16551.475
1366.37053	16733.875
1369.84688	15195.175
1373.32088	13408.375
1376.79254	12153.375
1380.26186	11426.075
1383.72883	11022.875
1387.19347	10751.275
1390.65578	10477.575
1394.11575	10246.575
1397.57339	10021.375
1401.0287	9898.675
1404.48168	9795.875
1407.93234	9749.975
1411.38068	9715.975
1414.82669	9717.875
1418.27039	9670.775
1421.71177	9625.575
1425.15083	9552.875
1428.58758	9467.675
1432.02203	9428.375
1435.45416	9424.875
1438.88399	9445.475
1442.31151	9463.675
1445.73673	9477.775
1449.15965	9523.875
1452.58027	9535.975
1455.9986	9530.575
1459.41463	9553.775
1462.82837	9623.375
1466.23982	9710.275
1469.64898	9884.475
1473.05586	10054.375
1476.46045	10141.375
1479.86276	10220.475
1483.26279	10389.675
1486.66054	10530.075
1490.05602	10728.275
1493.44922	11042.175
1496.84016	11534.175
1500.22882	12423.675
1503.61521	13528.375
1506.99934	14822.975
1510.38121	15826.975
1513.76081	16093.475
1517.13816	15390.675
1520.51324	14087.775
1523.88607	12802.275
1527.25665	11900.175
1530.62498	11361.675
1533.99105	11023.275
1537.35488	10814.375
1540.71647	10663.475
1544.07581	10578.375
1547.4329	10502.575
1550.78776	10492.075
1554.14038	10494.975
1557.49077	10553.475
1560.83892	10657.475
1564.18484	10770.175
1567.52853	10958.975
1570.86999	11146.475
1574.20922	11307.175
1577.54624	11310.575
1580.88103	11068.775
1584.2136	10648.275
1587.54395	10288.975
1590.87208	10123.575
1594.19801	10181.775
1597.52172	10446.275
1600.84321	10594.475
1604.16251	10558.175
1607.47959	10304.775
1610.79447	10054.975
1614.10715	9739.575
1617.41763	9443.475
1620.7259	9212.375
1624.03199	9051.975
1627.33587	8978.075
1630.63757	8976.775
1633.93707	9089.875
1637.23439	9318.775
1640.52951	9720.875
1643.82246	10332.175
1647.11321	11146.575
1650.40179	11907.075
1653.68819	12037.575
1656.97241	11355.175
1660.25446	10370.075
1663.53433	9566.475
1666.81203	9038.975
1670.08756	8696.875
1673.36092	8452.175
1676.63211	8322.975
1679.90115	8217.075
1683.16801	8135.675
1686.43272	8081.375
1689.69527	8030.875
1692.95567	7999.175
1696.2139	8006.075
1699.46999	7990.175
1702.72392	7938.375
1705.97571	7937.975
1709.22535	7891.075
1712.47284	7848.975
1715.71819	7792.875
1718.96139	7745.975
1722.20246	7698.975
1725.44139	7633.575
1728.67818	7568.875
1731.91284	7534.775
1735.14537	7483.475
1738.37576	7434.775
1741.60403	7419.475
1744.83017	7405.775
1748.05418	7372.275
1751.27607	7355.175
1754.49584	7341.275
1757.71349	7337.875
1760.92903	7325.075
1764.14244	7314.175
1767.35375	7304.875
1770.56294	7288.475
1773.77002	7287.575
1776.97499	7253.175
1780.17785	7233.775
1783.37861	7219.175
1786.57727	7217.375
1789.77382	7190.175
1792.96828	7157.575
1796.16064	7151.675
1799.3509	7148.475
1802.53907	7129.975
1805.72514	7092.475
1808.90913	7076.375
1812.09102	7059.175
1815.27083	7034.375
1818.44856	6999.575
1821.6242	6996.375
1824.79776	6990.875
1827.96924	6979.575
1831.13864	6943.575
1834.30597	6947.475
1837.47122	6935.675
1840.6344	6933.475
1843.7955	6946.675
1846.95454	6915.175
1850.11151	6907.475
1853.26642	6890.475
1856.41926	6900.075
1859.57004	6867.275
1862.71876	6879.475
1865.86542	6849.975
1869.01003	6847.275
1872.15258	6842.975
1875.29308	6821.375
1878.43152	6823.175
1881.56792	6797.775
1884.70227	6792.075
1887.83457	6780.675
1890.96482	6751.575
1894.09304	6745.775
1897.21921	6742.275
1900.34335	6737.475
1903.46544	6719.375
1906.58551	6707.675
1909.70353	6682.975
1912.81953	6693.275
1915.93349	6677.675
1919.04543	6657.175
1922.15534	6636.075
1925.26322	6645.775
1928.36908	6626.175
1931.47292	6598.075
1934.57473	6559.575
1937.67453	6554.375
1940.77232	6551.675
1943.86808	6517.075
1946.96184	6500.175
1950.05358	6495.775
1953.14331	6466.975
1956.23103	6448.675
1959.31675	6433.775
1962.40046	6394.975
1965.48217	6406.275
1968.56188	6377.975
1971.63959	6345.675
1974.7153	6332.175
1977.78901	6301.075
1980.86073	6278.175
1983.93046	6268.275
1986.99819	6238.175
1990.06394	6215.775
1993.1277	6197.075
1996.18947	6168.275
1999.24925	6156.475
2002.30706	6115.475
2005.36288	6107.975
2008.41672	6078.975
2011.46859	6070.475
2014.51848	6056.775
2017.56639	6011.175
2020.61233	6018.175
2023.6563	5979.675
2026.6983	5967.675
2029.73833	5967.875
2032.7764	5935.175
2035.8125	5930.775
2038.84664	5915.175
2041.87881	5876.975
2044.90903	5885.275
2047.93729	5864.375
2050.96359	5856.475
2053.98794	5839.375
2057.01034	5829.575
2060.03078	5830.575
2063.04927	5810.375
2066.06582	5816.475
2069.08042	5818.775
2072.09307	5803.775
2075.10378	5789.175
2078.11255	5797.375
2081.11938	5796.675
2084.12426	5780.075
2087.12722	5759.175
2090.12824	5769.575
2093.12732	5757.775
2096.12447	5771.175
2099.11969	5765.075
2102.11299	5755.475
2105.10435	5765.075
2108.09379	5754.875
2111.08131	5766.875
2114.0669	5759.175
2117.05057	5763.275
2120.03233	5777.475
2123.01216	5768.475
2125.99008	5773.775
2128.96609	5779.175
2131.94018	5759.075
2134.91236	5786.375
2137.88263	5781.175
2140.851	5779.975
2143.81746	5771.175
2146.78201	5769.375
2149.74466	5785.775
2152.7054	5752.875
2155.66425	5762.875
2158.6212	5759.775
2161.57625	5748.275
2164.52941	5773.275
2167.48067	5746.475
2170.43004	5746.675
2173.37752	5739.475
2176.32311	5736.575
2179.26681	5711.875
2182.20863	5724.075
2185.14856	5714.175
2188.08661	5718.875
2191.02278	5700.475
2193.95707	5697.375
2196.88948	5690.575
2199.82001	5680.275
2202.74867	5681.575
2205.67545	5694.475
2208.60037	5658.175
2211.52341	5654.775
2214.44458	5638.675
2217.36388	5628.575
2220.28132	5605.475
2223.1969	5578.075
2226.11061	5575.575
2229.02246	5560.475
2231.93245	5539.475
2234.84058	5553.275
2237.74686	5530.275
2240.65128	5542.575
2243.55385	5502.575
2246.45456	5514.175
2249.35343	5490.375
2252.25044	5475.975
2255.14561	5470.775
2258.03893	5472.575
2260.93041	5444.175
2263.82004	5447.975
2266.70783	5435.675
2269.59378	5400.775
2272.4779	5390.975
2275.36017	5389.975
2278.24061	5376.975
2281.11922	5362.275
2283.996	5372.575
2286.87094	5335.375
2289.74405	5311.575
2292.61534	5313.175
2295.4848	5307.375
2298.35243	5302.175
2301.21824	5287.575
2304.08223	5273.775
2306.94439	5278.375
2309.80474	5276.075
2312.66327	5250.375
2315.51999	5248.775
2318.37489	5253.075
2321.22797	5227.175
2324.07925	5227.275
2326.92871	5228.475
2329.77637	5216.575
2332.62222	5204.075
2335.46626	5181.675
2338.3085	5162.975
2341.14893	5147.475
2343.98756	5153.675
2346.8244	5152.975
2349.65943	5141.475
2352.49267	5144.875
2355.32411	5149.275
2358.15376	5139.575
2360.98161	5132.175
2363.80768	5150.675
2366.63195	5130.275
2369.45444	5125.275
2372.27514	5117.175
2375.09405	5105.175
2377.91118	5101.175
2380.72652	5086.775
2383.54009	5061.875
2386.35187	5053.175
2389.16188	5046.675
2391.97011	5019.675
2394.77657	5009.675
2397.58125	5006.975
2400.38416	4981.775
2403.18529	4963.175
2405.98466	4973.575
2408.78226	4944.375
2411.57809	4944.575
2414.37216	4933.575
2417.16446	4941.875
2419.955	4916.775
2422.74378	4921.675
2425.5308	4905.975
2428.31606	4913.775
2431.09956	4900.775
2433.88131	4905.375
2436.6613	4892.575
2439.43954	4886.575
2442.21603	4880.475
2444.99077	4871.075
2447.76377	4868.875
2450.53501	4867.575
2453.30451	4860.575
2456.07226	4848.175
2458.83827	4831.175
2461.60254	4844.775
2464.36507	4830.975
2467.12586	4825.575
2469.88492	4808.075
2472.64224	4810.375
2475.39782	4811.775
2478.15167	4809.775
2480.90379	4812.775
2483.65417	4790.375
2486.40283	4796.175
2489.14976	4788.375
2491.89497	4802.775
2494.63845	4779.375
2497.3802	4772.975
2500.12024	4750.675
2502.85855	4749.275
2505.59514	4749.575
2508.33002	4739.575
2511.06318	4742.075
2513.79462	4719.975
2516.52435	4706.175
2519.25237	4684.775
2521.97867	4685.375
2524.70327	4666.775
2527.42616	4657.075
2530.14734	4652.175
2532.86681	4630.575
2535.58458	4644.475
2538.30065	4632.375
2541.01501	4635.075
2543.72768	4603.075
2546.43864	4616.975
2549.14791	4592.475
2551.85548	4591.875
2554.56136	4574.775
2557.26554	4580.875
2559.96803	4566.175
2562.66883	4561.475
2565.36794	4548.675
2568.06536	4540.675
2570.7611	4536.875
2573.45514	4534.575
2576.14751	4510.875
2578.83819	4491.875
2581.52719	4485.875
2584.21451	4464.975
2586.90015	4481.175
2589.58411	4461.775
2592.2664	4456.375
2594.94701	4429.275
2597.62594	4433.675
2600.30321	4412.375
2602.9788	4407.475
2605.65273	4405.475
2608.32498	4392.375
2610.99557	4389.575
2613.66449	4360.775
2616.33175	4369.675
2618.99734	4365.175
2621.66128	4348.075
2624.32355	4343.375
2626.98416	4344.075
2629.64311	4338.375
2632.30041	4338.075
2634.95605	4318.275
2637.61004	4313.975
2640.26238	4302.275
2642.91306	4296.375
2645.56209	4300.075
2648.20948	4289.575
2650.85521	4286.275
2653.4993	4282.175
2656.14175	4279.775
2658.78255	4272.375
2661.42171	4290.775
2664.05923	4262.975
2666.6951	4272.375
2669.32934	4262.275
2671.96194	4266.075
2674.59291	4255.375
2677.22224	4251.375
2679.84993	4246.675
2682.476	4255.875
2685.10043	4245.075
2687.72324	4239.275
2690.34441	4247.075
2692.96396	4246.875
2695.58188	4248.775
2698.19818	4228.975
2700.81285	4237.475
2703.4259	4249.575
2706.03733	4239.775
2708.64714	4223.775
2711.25533	4230.575
2713.86191	4241.075
2716.46687	4237.775
2719.07021	4227.875
2721.67194	4224.375
2724.27206	4209.175
2726.87057	4209.475
2729.46747	4225.775
2732.06276	4193.775
2734.65644	4199.475
2737.24852	4202.775
2739.83899	4191.675
2742.42786	4193.575
2745.01513	4167.575
2747.60079	4176.375
2750.18486	4172.975
2752.76733	4178.175
2755.3482	4166.975
2757.92747	4157.375
2760.50515	4151.175
2763.08123	4126.875
2765.65573	4110.475
2768.22863	4125.875
2770.79994	4123.375
2773.36967	4113.675
2775.9378	4109.375
2778.50435	4094.075
2781.06932	4088.775
2783.6327	4089.275
2786.1945	4083.075
2788.75471	4061.475
2791.31335	4050.575
2793.87041	4032.375
2796.42589	4038.775
2798.97979	4029.975
2801.53212	4020.575
2804.08288	4012.375
2806.63206	4008.775
2809.17967	3975.775
2811.72571	3988.475
2814.27018	3988.375
2816.81308	3975.475
2819.35442	3970.175
2821.89419	3961.175
2824.43239	3955.275
2826.96904	3969.275
2829.50412	3953.275
2832.03763	3960.375
2834.56959	3947.875
2837.1	3932.175
2839.62884	3950.675
2842.15613	3942.775
2844.68186	3949.775
2847.20604	3953.675
2849.72867	3953.775
2852.24974	3962.075
2854.76927	3936.675
2857.28724	3928.875
2859.80367	3935.475
2862.31855	3936.475
2864.83189	3929.475
2867.34368	3921.775
2869.85393	3919.175
2872.36264	3927.975
2874.8698	3919.575
2877.37543	3925.775
2879.87952	3927.575
2882.38207	3912.875
2884.88308	3926.875
2887.38256	3917.875
2889.88051	3896.975
2892.37692	3907.375
2894.8718	3898.475
2897.36515	3912.275
2899.85698	3904.075
2902.34727	3909.775
2904.83604	3898.875
2907.32328	3906.375
2909.809	3895.075
2912.29319	3915.175
2914.77587	3897.775
2917.25702	3915.275
2919.73665	3893.675
2922.21476	3900.875
2924.69136	3894.875
2927.16644	3900.275
2929.64	3892.875
2932.11205	3879.475
2934.58258	3870.975
2937.05161	3865.675
2939.51912	3864.575
2941.98513	3858.775
2944.44962	3861.075
2946.91261	3818.975
2949.37409	3839.775
2951.83407	3835.975
2954.29254	3832.275
2956.74951	3838.775
2959.20498	3808.575
2961.65895	3812.775
2964.11142	3829.075
2966.56239	3809.975
2969.01186	3788.375
2971.45984	3789.675
2973.90632	3787.075
2976.35131	3772.175
2978.7948	3772.775
2981.23681	3770.275
2983.67732	3761.275
2986.11635	3749.175
2988.55388	3736.875
2990.98993	3734.275
2993.4245	3735.375
2995.85758	3720.175
2998.28917	3731.575
3000.71928	3720.075
3003.14791	3708.975
3005.57506	3705.475
3008.00073	3710.075
3010.42493	3696.275
3012.84764	3700.575
3015.26888	3699.075
3017.68865	3683.175
3020.10694	3688.475
3022.52376	3670.675
3024.9391	3672.775
3027.35298	3669.375
3029.76539	3663.475
3032.17632	3644.875
3034.5858	3643.075
3036.9938	3642.575
3039.40034	3625.575
3041.80542	3643.875
3044.20903	3630.575
3046.61118	3645.375
3049.01187	3618.575
3051.4111	3621.975
3053.80888	3612.975
3056.20519	3602.675
3058.60005	3629.575
3060.99345	3607.975
3063.3854	3612.775
3065.7759	3599.575
3068.16494	3593.775
3070.55254	3598.175
3072.93868	3602.475
3075.32338	3583.575
3077.70662	3594.075
3080.08842	3584.175
3082.46878	3604.775
3084.84769	3588.375
3087.22515	3591.275
3089.60118	3588.475
3091.97576	3592.075
3094.3489	3586.175
3096.72061	3587.875
3099.09087	3589.875
3101.4597	3608.575
3103.82709	3604.475
3106.19305	3601.075
3108.55757	3599.175
3110.92066	3582.175
3113.28232	3595.975
3115.64255	3572.375
3118.00134	3593.975
3120.35871	3579.175
3122.71466	3585.275
3125.06917	3579.475
3127.42226	3573.775
3129.77393	3578.175
3132.12417	3577.775
3134.47299	3597.275
3136.82039	3585.975
3139.16636	3597.275
3141.51092	3603.875
3143.85406	3625.775
3146.19579	3620.175
3148.53609	3618.675
3150.87499	3624.575
3153.21246	3638.175
3155.54853	3644.875
3157.88318	3663.175
3160.21642	3658.575
3162.54826	3665.175
3164.87868	3656.375
3167.2077	3664.375
3169.5353	3664.275
3171.86151	3661.275
3174.18631	3684.875
3176.5097	3678.775
3178.83169	3675.175
3181.15228	3656.275
3183.47147	3676.675
3185.78926	3669.175
3188.10565	3668.875
3190.42065	3675.175
3192.73424	3676.675
3195.04645	3669.575
3197.35725	3677.575
3199.66667	3666.775
3201.97469	3702.475
