Data from AgNPs_FTO_APTES_UA_100uM_R6G_10uM_NaF_0.1M_Addition_RamanShift__22__15-42-47-470.txt Node

Date: Fri Dec 17 15:42:47 GMT 2021
User: TCL
Spectrometer: QEP01345
Trigger mode: 4
Integration Time (sec): 7.000000E0
Scans to average: 10
Electric dark correction enabled: true
Nonlinearity correction enabled: false
Boxcar width: 0
XAxis mode: Raman Shifts
Number of Pixels in Spectrum: 1044
>>>>>Begin Spectral Data<<<<<
46.04893	0.375
50.45542	0.975
54.85868	-1.625
59.25871	1.075
63.6555	63.175
68.04907	67.475
72.43941	69.875
76.82654	75.075
81.21044	75.975
85.59113	78.675
89.96862	83.575
94.34289	84.475
98.71396	91.275
103.08183	88.375
107.4465	92.675
111.80798	90.175
116.16626	97.475
120.52136	95.175
124.87327	101.175
129.222	107.575
133.56755	110.175
137.90993	117.375
142.24913	125.475
146.58517	133.775
150.91804	149.175
155.24774	177.975
159.57429	217.575
163.89768	269.675
168.21792	354.775
172.53501	476.375
176.84895	657.175
181.15975	907.875
185.46741	1276.575
189.77193	1751.975
194.07331	2344.575
198.37157	3028.275
202.6667	3727.075
206.9587	4441.975
211.24758	5134.575
215.53334	5816.375
219.81599	6552.675
224.09553	7346.775
228.37195	8224.175
232.64527	9239.475
236.91549	10324.975
241.18261	11405.875
245.44663	12436.575
249.70755	13322.075
253.96539	14089.975
258.22014	14727.375
262.4718	15261.775
266.72039	15632.375
270.96589	15845.275
275.20832	15906.575
279.44768	15784.175
283.68397	15597.675
287.91719	15432.175
292.14735	15302.375
296.37445	15316.175
300.59849	15414.175
304.81948	15485.775
309.03742	15436.375
313.25231	15215.475
317.46415	14837.575
321.67296	14379.675
325.87872	14034.475
330.08145	13905.275
334.28114	13916.475
338.47781	14064.575
342.67145	14265.075
346.86207	14496.475
351.04966	14852.975
355.23424	15192.275
359.4158	15510.075
363.59435	15761.075
367.76989	15921.675
371.94243	16072.875
376.11196	16206.775
380.27849	16319.475
384.44203	16386.275
388.60257	16451.875
392.76012	16527.875
396.91468	16639.975
401.06626	16846.575
405.21485	17038.175
409.36047	16915.575
413.50311	16619.175
417.64277	16303.475
421.77947	16094.675
425.9132	16042.575
430.04396	16029.475
434.17176	16091.975
438.2966	16181.375
442.41849	16344.275
446.53742	16609.475
450.6534	16877.275
454.76644	17079.075
458.87653	17211.775
462.98368	17262.875
467.08789	17258.775
471.18916	17153.175
475.2875	17010.475
479.38291	16909.875
483.4754	16786.275
487.56496	16640.475
491.6516	16577.075
495.73531	16536.875
499.81612	16545.775
503.89401	16640.675
507.96899	16715.175
512.04106	16798.675
516.11023	16863.475
520.1765	16941.975
524.23987	16961.975
528.30034	16918.275
532.35792	16846.275
536.41261	16766.575
540.46441	16642.675
544.51333	16573.075
548.55936	16553.575
552.60252	16682.075
556.64279	16757.875
560.6802	16827.375
564.71473	16823.275
568.7464	16872.075
572.7752	16989.275
576.80114	16976.175
580.82422	16922.675
584.84444	16953.575
588.86181	16990.475
592.87633	17031.875
596.888	17140.275
600.89682	17440.975
604.9028	18268.675
608.90594	20315.175
612.90624	22685.475
616.90371	21983.175
620.89834	18568.575
624.89015	16990.675
628.87913	16752.075
632.86528	16934.075
636.84862	17148.775
640.82913	17085.875
644.80683	16736.375
648.78172	16379.575
652.75379	16240.075
656.72306	16383.775
660.68952	16653.075
664.65319	16641.775
668.61405	16441.275
672.57211	16479.275
676.52738	16529.675
680.47986	16511.375
684.42955	16362.575
688.37646	16187.275
692.32058	16108.975
696.26192	16146.475
700.20048	16214.275
704.13626	16270.375
708.06928	16274.975
711.99952	16221.975
715.927	16152.875
719.85171	16136.075
723.77365	16158.375
727.69284	16136.775
731.60928	16127.175
735.52295	16112.875
739.43388	16128.375
743.34206	16201.575
747.24749	16225.675
751.15017	16187.275
755.05012	16238.775
758.94733	16472.675
762.8418	17132.275
766.73354	18383.575
770.62254	19928.175
774.50882	20870.275
778.39237	20394.775
782.27321	18789.175
786.15132	17366.275
790.02671	16433.175
793.89938	15998.075
797.76935	15816.175
801.6366	15770.275
805.50115	15734.075
809.36299	15672.175
813.22213	15636.975
817.07857	15637.275
820.93231	15573.175
824.78336	15565.975
828.63172	15516.475
832.47738	15511.275
836.32036	15478.875
840.16066	15418.575
843.99827	15404.775
847.8332	15407.775
851.66546	15388.575
855.49504	15395.275
859.32195	15393.775
863.1462	15445.975
866.96777	15467.475
870.78668	15453.075
874.60293	15469.375
878.41652	15470.975
882.22745	15525.375
886.03573	15558.975
889.84136	15577.275
893.64433	15521.875
897.44466	15428.575
901.24235	15335.175
905.0374	15225.175
908.8298	15179.475
912.61957	15132.075
916.40671	15197.775
920.19121	15254.275
923.97308	15291.475
927.75233	15353.275
931.52895	15339.575
935.30295	15239.275
939.07433	15114.075
942.84309	14924.475
946.60924	14871.775
950.37278	14818.775
954.13371	14788.375
957.89203	14745.575
961.64774	14664.675
965.40086	14585.675
969.15137	14522.075
972.89929	14452.375
976.64461	14395.275
980.38733	14366.375
984.12747	14407.875
987.86502	14448.675
991.59999	14523.875
995.33237	14634.775
999.06217	14795.275
1002.78939	14998.775
1006.51404	15141.975
1010.23611	15340.375
1013.95561	15484.575
1017.67255	15587.075
1021.38692	15521.575
1025.09872	15394.775
1028.80796	15309.075
1032.51465	15366.375
1036.21877	15448.875
1039.92035	15489.475
1043.61937	15498.875
1047.31584	15449.175
1051.00976	15382.975
1054.70114	15326.175
1058.38998	15338.275
1062.07627	15382.675
1065.76003	15496.075
1069.44126	15586.275
1073.11995	15705.275
1076.79611	15801.775
1080.46974	15824.075
1084.14085	15834.575
1087.80943	15870.375
1091.47549	15935.075
1095.13903	15905.275
1098.80005	15779.375
1102.45857	15585.075
1106.11456	15441.675
1109.76805	15416.975
1113.41903	15527.775
1117.06751	15711.675
1120.71348	15967.675
1124.35696	16243.775
1127.99793	16542.275
1131.63641	16809.575
1135.2724	16705.675
1138.90589	16457.675
1142.5369	16220.875
1146.16542	15925.875
1149.79145	15705.275
1153.415	15538.575
1157.03607	15537.675
1160.65467	15721.475
1164.27079	16016.775
1167.88443	16502.875
1171.49561	17105.375
1175.10432	18047.775
1178.71056	19267.775
1182.31434	20437.075
1185.91565	21050.575
1189.51451	21105.475
1193.11091	20646.275
1196.70485	19846.075
1200.29634	19083.375
1203.88538	18411.575
1207.47197	17782.775
1211.05612	17176.275
1214.63782	16754.175
1218.21708	16572.675
1221.79391	16457.675
1225.36829	16437.875
1228.94024	16456.875
1232.50976	16421.075
1236.07685	16458.875
1239.6415	16459.375
1243.20374	16527.475
1246.76355	16603.575
1250.32093	16729.875
1253.8759	16952.575
1257.42845	17274.075
1260.97859	17521.275
1264.52631	17833.375
1268.07163	18152.075
1271.61453	18496.575
1275.15503	18797.575
1278.69312	19043.275
1282.22882	19194.975
1285.76211	19399.275
1289.29301	19740.675
1292.82151	20164.575
1296.34761	20720.675
1299.87133	21413.275
1303.39266	22342.575
1306.9116	23476.775
1310.42815	24594.775
1313.94233	25198.875
1317.45412	25009.475
1320.96354	24377.875
1324.47058	23576.575
1327.97525	22814.475
1331.47754	22281.775
1334.97747	22047.975
1338.47502	22115.475
1341.97022	22438.075
1345.46305	22911.175
1348.95352	23469.375
1352.44163	24218.575
1355.92738	25381.175
1359.41078	26837.875
1362.89183	28238.675
1366.37053	27892.775
1369.84688	25281.175
1373.32088	22367.275
1376.79254	20394.375
1380.26186	19404.275
1383.72883	18958.675
1387.19347	18608.475
1390.65578	18251.175
1394.11575	17992.475
1397.57339	17805.675
1401.0287	17753.575
1404.48168	17807.275
1407.93234	17898.775
1411.38068	17881.775
1414.82669	17763.075
1418.27039	17548.975
1421.71177	17305.775
1425.15083	16979.275
1428.58758	16790.275
1432.02203	16718.275
1435.45416	16823.375
1438.88399	16930.275
1442.31151	17047.075
1445.73673	17206.375
1449.15965	17370.475
1452.58027	17509.875
1455.9986	17622.575
1459.41463	17819.775
1462.82837	18028.975
1466.23982	18261.175
1469.64898	18481.875
1473.05586	18669.175
1476.46045	18742.375
1479.86276	18771.675
1483.26279	18828.875
1486.66054	18927.575
1490.05602	19122.175
1493.44922	19446.175
1496.84016	19974.275
1500.22882	20922.175
1503.61521	22147.075
1506.99934	23656.575
1510.38121	24957.575
1513.76081	25441.875
1517.13816	24632.875
1520.51324	23044.275
1523.88607	21415.475
1527.25665	20258.575
1530.62498	19620.875
1533.99105	19226.475
1537.35488	18966.975
1540.71647	18805.875
1544.07581	18671.475
1547.4329	18561.275
1550.78776	18492.775
1554.14038	18491.475
1557.49077	18624.475
1560.83892	18764.875
1564.18484	18956.175
1567.52853	19107.475
1570.86999	19227.275
1574.20922	19381.175
1577.54624	19433.975
1580.88103	19068.575
1584.2136	18573.675
1587.54395	18228.375
1590.87208	18243.675
1594.19801	18687.275
1597.52172	19339.275
1600.84321	19711.175
1604.16251	19442.175
1607.47959	18765.075
1610.79447	18037.375
1614.10715	17258.075
1617.41763	16502.775
1620.7259	15925.975
1624.03199	15602.575
1627.33587	15488.375
1630.63757	15597.075
1633.93707	15955.075
1637.23439	16613.875
1640.52951	17510.575
1643.82246	18662.975
1647.11321	19973.275
1650.40179	20770.775
1653.68819	20507.375
1656.97241	19075.575
1660.25446	17274.375
1663.53433	15853.175
1666.81203	14920.875
1670.08756	14337.375
1673.36092	13932.475
1676.63211	13634.175
1679.90115	13447.775
1683.16801	13288.675
1686.43272	13160.375
1689.69527	13075.975
1692.95567	13003.375
1696.2139	12979.775
1699.46999	12928.375
1702.72392	12855.475
1705.97571	12819.075
1709.22535	12751.675
1712.47284	12728.675
1715.71819	12708.575
1718.96139	12662.175
1722.20246	12601.475
1725.44139	12568.075
1728.67818	12499.075
1731.91284	12429.975
1735.14537	12386.575
1738.37576	12345.475
1741.60403	12317.775
1744.83017	12268.375
1748.05418	12239.375
1751.27607	12253.775
1754.49584	12226.375
1757.71349	12192.775
1760.92903	12221.375
1764.14244	12202.075
1767.35375	12174.375
1770.56294	12162.875
1773.77002	12145.775
1776.97499	12139.975
1780.17785	12092.175
1783.37861	12072.975
1786.57727	12051.175
1789.77382	12031.975
1792.96828	12003.775
1796.16064	11986.775
1799.3509	11959.975
1802.53907	11941.475
1805.72514	11947.575
1808.90913	11901.875
1812.09102	11887.275
1815.27083	11851.775
1818.44856	11812.575
1821.6242	11803.775
1824.79776	11795.875
1827.96924	11791.575
1831.13864	11770.975
1834.30597	11769.075
1837.47122	11763.275
1840.6344	11755.475
1843.7955	11764.875
1846.95454	11744.475
1850.11151	11725.375
1853.26642	11729.275
1856.41926	11718.875
1859.57004	11730.775
1862.71876	11707.875
1865.86542	11680.975
1869.01003	11707.175
1872.15258	11676.075
1875.29308	11641.975
1878.43152	11633.575
1881.56792	11640.975
1884.70227	11623.575
1887.83457	11615.375
1890.96482	11613.375
1894.09304	11585.675
1897.21921	11596.975
1900.34335	11577.875
1903.46544	11550.375
1906.58551	11575.075
1909.70353	11543.675
1912.81953	11541.775
1915.93349	11510.775
1919.04543	11499.775
1922.15534	11480.075
1925.26322	11471.075
1928.36908	11423.075
1931.47292	11404.375
1934.57473	11401.175
1937.67453	11346.775
1940.77232	11348.575
1943.86808	11329.175
1946.96184	11286.875
1950.05358	11243.275
1953.14331	11244.075
1956.23103	11228.075
1959.31675	11170.875
1962.40046	11146.675
1965.48217	11122.375
1968.56188	11111.575
1971.63959	11065.975
1974.7153	11037.375
1977.78901	10996.575
1980.86073	10968.075
1983.93046	10932.475
1986.99819	10894.575
1990.06394	10837.875
1993.1277	10814.275
1996.18947	10801.775
1999.24925	10766.675
2002.30706	10764.675
2005.36288	10721.575
2008.41672	10694.675
2011.46859	10661.775
2014.51848	10625.275
2017.56639	10613.275
2020.61233	10570.775
2023.6563	10557.375
2026.6983	10523.175
2029.73833	10508.675
2032.7764	10481.875
2035.8125	10447.675
2038.84664	10448.175
2041.87881	10432.975
2044.90903	10413.775
2047.93729	10388.475
2050.96359	10394.175
2053.98794	10340.175
2057.01034	10350.575
2060.03078	10363.875
2063.04927	10361.375
2066.06582	10351.475
2069.08042	10313.575
2072.09307	10312.275
2075.10378	10302.975
2078.11255	10315.475
2081.11938	10319.475
2084.12426	10307.775
2087.12722	10310.975
2090.12824	10288.075
2093.12732	10283.775
2096.12447	10292.375
2099.11969	10298.475
2102.11299	10303.375
2105.10435	10299.175
2108.09379	10309.575
2111.08131	10319.975
2114.0669	10339.475
2117.05057	10321.575
2120.03233	10354.375
2123.01216	10353.075
2125.99008	10371.675
2128.96609	10383.675
2131.94018	10395.575
2134.91236	10405.575
2137.88263	10413.175
2140.851	10400.075
2143.81746	10405.475
2146.78201	10430.075
2149.74466	10421.675
2152.7054	10411.475
2155.66425	10435.175
2158.6212	10395.475
2161.57625	10405.475
2164.52941	10373.675
2167.48067	10390.175
2170.43004	10384.175
2173.37752	10407.675
2176.32311	10419.675
2179.26681	10403.875
2182.20863	10384.775
2185.14856	10384.475
2188.08661	10388.175
2191.02278	10378.475
2193.95707	10352.475
2196.88948	10364.075
2199.82001	10385.475
2202.74867	10343.275
2205.67545	10336.475
2208.60037	10302.975
2211.52341	10306.475
2214.44458	10312.475
2217.36388	10270.275
2220.28132	10267.875
2223.1969	10267.975
2226.11061	10244.775
2229.02246	10214.575
2231.93245	10219.775
2234.84058	10183.975
2237.74686	10158.675
2240.65128	10188.175
2243.55385	10159.475
2246.45456	10172.775
2249.35343	10140.375
2252.25044	10118.075
2255.14561	10104.575
2258.03893	10094.475
2260.93041	10077.775
2263.82004	10063.875
2266.70783	10052.975
2269.59378	10023.575
2272.4779	10010.975
2275.36017	9978.975
2278.24061	9961.075
2281.11922	9938.975
2283.996	9943.775
2286.87094	9938.275
2289.74405	9890.675
2292.61534	9882.575
2295.4848	9881.875
2298.35243	9875.375
2301.21824	9872.875
2304.08223	9883.075
2306.94439	9880.275
2309.80474	9846.875
2312.66327	9877.675
2315.51999	9849.575
2318.37489	9852.375
2321.22797	9839.375
2324.07925	9815.275
2326.92871	9820.875
2329.77637	9810.775
2332.62222	9800.475
2335.46626	9766.775
2338.3085	9762.675
2341.14893	9741.475
2343.98756	9736.075
2346.8244	9742.875
2349.65943	9754.875
2352.49267	9751.275
2355.32411	9733.775
2358.15376	9739.775
2360.98161	9739.475
2363.80768	9727.375
2366.63195	9723.875
2369.45444	9711.375
2372.27514	9694.375
2375.09405	9693.375
2377.91118	9694.475
2380.72652	9679.075
2383.54009	9641.475
2386.35187	9629.375
2389.16188	9597.975
2391.97011	9568.375
2394.77657	9562.375
2397.58125	9555.175
2400.38416	9539.275
2403.18529	9519.175
2405.98466	9507.275
2408.78226	9494.375
2411.57809	9482.175
2414.37216	9480.475
2417.16446	9455.975
2419.955	9441.975
2422.74378	9461.675
2425.5308	9435.375
2428.31606	9428.975
2431.09956	9410.075
2433.88131	9428.475
2436.6613	9412.475
2439.43954	9408.575
2442.21603	9401.275
2444.99077	9396.375
2447.76377	9378.775
2450.53501	9391.675
2453.30451	9375.875
2456.07226	9352.075
2458.83827	9352.975
2461.60254	9365.875
2464.36507	9345.675
2467.12586	9343.975
2469.88492	9322.975
2472.64224	9334.375
2475.39782	9337.175
2478.15167	9342.475
2480.90379	9354.975
2483.65417	9341.375
2486.40283	9321.775
2489.14976	9338.075
2491.89497	9330.975
2494.63845	9354.875
2497.3802	9336.775
2500.12024	9321.075
2502.85855	9297.475
2505.59514	9307.975
2508.33002	9281.475
2511.06318	9277.875
2513.79462	9278.175
2516.52435	9266.575
2519.25237	9244.475
2521.97867	9229.075
2524.70327	9219.575
2527.42616	9175.675
2530.14734	9178.075
2532.86681	9181.975
2535.58458	9188.175
2538.30065	9157.775
2541.01501	9148.675
2543.72768	9162.175
2546.43864	9134.175
2549.14791	9130.275
2551.85548	9113.275
2554.56136	9093.175
2557.26554	9092.275
2559.96803	9092.675
2562.66883	9067.775
2565.36794	9075.075
2568.06536	9073.575
2570.7611	9049.975
2573.45514	9030.875
2576.14751	9011.075
2578.83819	9009.275
2581.52719	9024.575
2584.21451	8989.275
2586.90015	8988.175
2589.58411	8981.575
2592.2664	8981.375
2594.94701	8941.575
2597.62594	8944.875
2600.30321	8899.275
2602.9788	8919.675
2605.65273	8903.175
2608.32498	8889.475
2610.99557	8883.575
2613.66449	8880.575
2616.33175	8883.575
2618.99734	8884.475
2621.66128	8843.275
2624.32355	8861.675
2626.98416	8861.575
2629.64311	8853.875
2632.30041	8856.875
2634.95605	8840.375
2637.61004	8836.175
2640.26238	8808.175
2642.91306	8810.375
2645.56209	8796.675
2648.20948	8775.875
2650.85521	8778.975
2653.4993	8799.775
2656.14175	8768.575
2658.78255	8794.175
2661.42171	8789.075
2664.05923	8791.475
2666.6951	8775.875
2669.32934	8781.175
2671.96194	8770.175
2674.59291	8799.775
2677.22224	8805.775
2679.84993	8802.975
2682.476	8806.275
2685.10043	8790.575
2687.72324	8792.375
2690.34441	8791.075
2692.96396	8803.275
2695.58188	8813.975
2698.19818	8770.675
2700.81285	8779.975
2703.4259	8787.275
2706.03733	8815.775
2708.64714	8806.975
2711.25533	8815.975
2713.86191	8786.475
2716.46687	8815.175
2719.07021	8797.775
2721.67194	8804.175
2724.27206	8799.175
2726.87057	8799.675
2729.46747	8801.275
2732.06276	8773.475
2734.65644	8789.275
2737.24852	8795.275
2739.83899	8792.975
2742.42786	8797.775
2745.01513	8763.775
2747.60079	8770.175
2750.18486	8774.975
2752.76733	8765.575
2755.3482	8760.675
2757.92747	8763.775
2760.50515	8735.275
2763.08123	8746.575
2765.65573	8738.975
2768.22863	8725.175
2770.79994	8709.575
2773.36967	8693.575
2775.9378	8705.575
2778.50435	8689.575
2781.06932	8668.575
2783.6327	8686.275
2786.1945	8675.175
2788.75471	8663.275
2791.31335	8618.075
2793.87041	8617.075
2796.42589	8598.975
2798.97979	8584.175
2801.53212	8583.875
2804.08288	8589.275
2806.63206	8569.075
2809.17967	8529.875
2811.72571	8521.675
2814.27018	8512.375
2816.81308	8503.675
2819.35442	8501.275
2821.89419	8498.875
2824.43239	8491.175
2826.96904	8489.575
2829.50412	8490.875
2832.03763	8459.875
2834.56959	8457.575
2837.1	8460.675
2839.62884	8476.475
2842.15613	8455.775
2844.68186	8460.775
2847.20604	8459.875
2849.72867	8472.875
2852.24974	8461.275
2854.76927	8469.575
2857.28724	8444.075
2859.80367	8418.775
2862.31855	8415.875
2864.83189	8410.375
2867.34368	8406.775
2869.85393	8404.475
2872.36264	8418.375
2874.8698	8415.375
2877.37543	8403.675
2879.87952	8422.075
2882.38207	8414.475
2884.88308	8425.375
2887.38256	8410.075
2889.88051	8420.975
2892.37692	8421.475
2894.8718	8422.075
2897.36515	8423.475
2899.85698	8414.175
2902.34727	8423.075
2904.83604	8403.975
2907.32328	8396.675
2909.809	8396.075
2912.29319	8457.875
2914.77587	8410.075
2917.25702	8439.775
2919.73665	8422.275
2922.21476	8414.075
2924.69136	8421.575
2927.16644	8409.375
2929.64	8391.675
2932.11205	8395.575
2934.58258	8373.075
2937.05161	8403.575
2939.51912	8403.375
2941.98513	8381.275
2944.44962	8386.075
2946.91261	8329.675
2949.37409	8364.875
2951.83407	8374.575
2954.29254	8336.175
2956.74951	8317.675
2959.20498	8345.675
2961.65895	8339.475
2964.11142	8334.675
2966.56239	8287.675
2969.01186	8305.475
2971.45984	8284.275
2973.90632	8281.275
2976.35131	8263.775
2978.7948	8257.675
2981.23681	8241.375
2983.67732	8217.775
2986.11635	8202.575
2988.55388	8207.775
2990.98993	8205.275
2993.4245	8195.175
2995.85758	8179.575
2998.28917	8154.175
3000.71928	8147.475
3003.14791	8126.975
3005.57506	8126.075
3008.00073	8120.375
3010.42493	8112.375
3012.84764	8090.975
3015.26888	8119.275
3017.68865	8071.175
3020.10694	8085.775
3022.52376	8052.275
3024.9391	8052.575
3027.35298	8031.175
3029.76539	8020.175
3032.17632	8003.775
3034.5858	7998.175
3036.9938	7996.875
3039.40034	7984.575
3041.80542	7986.975
3044.20903	7979.775
3046.61118	7987.975
3049.01187	7949.075
3051.4111	7957.075
3053.80888	7924.875
3056.20519	7933.675
3058.60005	7905.675
3060.99345	7913.575
3063.3854	7922.675
3065.7759	7895.175
3068.16494	7889.375
3070.55254	7861.275
3072.93868	7867.275
3075.32338	7864.175
3077.70662	7841.675
3080.08842	7829.275
3082.46878	7814.375
3084.84769	7816.475
3087.22515	7830.075
3089.60118	7831.575
3091.97576	7831.175
3094.3489	7811.175
3096.72061	7808.475
3099.09087	7810.475
3101.4597	7808.575
3103.82709	7810.975
3106.19305	7796.975
3108.55757	7808.675
3110.92066	7791.275
3113.28232	7768.875
3115.64255	7769.475
3118.00134	7758.275
3120.35871	7744.375
3122.71466	7725.075
3125.06917	7724.575
3127.42226	7696.575
3129.77393	7734.975
3132.12417	7724.675
3134.47299	7740.175
3136.82039	7736.275
3139.16636	7749.475
3141.51092	7747.275
3143.85406	7749.775
3146.19579	7737.375
3148.53609	7750.275
3150.87499	7767.475
3153.21246	7781.975
3155.54853	7783.475
3157.88318	7805.975
3160.21642	7799.175
3162.54826	7790.475
3164.87868	7794.475
3167.2077	7806.575
3169.5353	7782.075
