Data from AgNPs_FTO_APTES_UA_1uM_R6G_10uM_NaF_0.1M_Addition_RamanShift__10__11-15-37-165.txt Node

Date: Fri Dec 17 11:15:37 GMT 2021
User: TCL
Spectrometer: QEP01345
Trigger mode: 4
Integration Time (sec): 7.000000E0
Scans to average: 10
Electric dark correction enabled: true
Nonlinearity correction enabled: false
Boxcar width: 0
XAxis mode: Raman Shifts
Number of Pixels in Spectrum: 1044
>>>>>Begin Spectral Data<<<<<
46.04893	-0.6875
50.45542	-0.2875
54.85868	-1.5875
59.25871	-0.3875
63.6555	100.7125
68.04907	102.3125
72.43941	109.3125
76.82654	118.9125
81.21044	116.9125
85.59113	120.7125
89.96862	128.7125
94.34289	133.7125
98.71396	137.7125
103.08183	140.5125
107.4465	149.2125
111.80798	146.6125
116.16626	152.4125
120.52136	150.7125
124.87327	160.9125
129.222	171.1125
133.56755	178.6125
137.90993	189.6125
142.24913	203.6125
146.58517	224.2125
150.91804	252.1125
155.24774	303.5125
159.57429	375.0125
163.89768	471.1125
168.21792	612.2125
172.53501	818.3125
176.84895	1134.2125
181.15975	1577.7125
185.46741	2219.6125
189.77193	3041.0125
194.07331	4078.4125
198.37157	5255.0125
202.6667	6470.5125
206.9587	7733.9125
211.24758	8962.3125
215.53334	10172.2125
219.81599	11435.8125
224.09553	12866.3125
228.37195	14443.0125
232.64527	16170.8125
236.91549	18019.8125
241.18261	19885.8125
245.44663	21645.6125
249.70755	23229.8125
253.96539	24649.7125
258.22014	25823.3125
262.4718	26721.6125
266.72039	27308.7125
270.96589	27587.1125
275.20832	27524.6125
279.44768	27254.6125
283.68397	26886.9125
287.91719	26517.4125
292.14735	26241.8125
296.37445	26056.5125
300.59849	26007.9125
304.81948	26010.6125
309.03742	26013.2125
313.25231	25887.3125
317.46415	25545.2125
321.67296	25104.1125
325.87872	24722.0125
330.08145	24624.5125
334.28114	24631.2125
338.47781	24829.1125
342.67145	25109.3125
346.86207	25441.7125
351.04966	25853.3125
355.23424	26298.0125
359.4158	26778.1125
363.59435	27115.2125
367.76989	27393.9125
371.94243	27559.8125
376.11196	27601.0125
380.27849	27658.9125
384.44203	27819.2125
388.60257	27967.4125
392.76012	28214.0125
396.91468	28529.8125
401.06626	28945.6125
405.21485	29234.2125
409.36047	29163.8125
413.50311	28859.5125
417.64277	28703.5125
421.77947	28753.7125
425.9132	28829.5125
430.04396	28977.2125
434.17176	29048.6125
438.2966	29173.8125
442.41849	29440.7125
446.53742	29863.9125
450.6534	30408.8125
454.76644	30758.5125
458.87653	30909.0125
462.98368	30963.7125
467.08789	30809.9125
471.18916	30575.2125
475.2875	30255.3125
479.38291	30076.1125
483.4754	29926.1125
487.56496	29842.1125
491.6516	29707.8125
495.73531	29537.3125
499.81612	29435.4125
503.89401	29584.6125
507.96899	29707.0125
512.04106	29765.4125
516.11023	29716.2125
520.1765	29511.0125
524.23987	29338.9125
528.30034	29108.4125
532.35792	28962.8125
536.41261	28752.6125
540.46441	28585.5125
544.51333	28525.6125
548.55936	28699.6125
552.60252	29013.7125
556.64279	29422.1125
560.6802	29668.9125
564.71473	29884.2125
568.7464	30215.0125
572.7752	30600.5125
576.80114	31090.2125
580.82422	31698.0125
584.84444	32470.1125
588.86181	33254.8125
592.87633	33900.0125
596.888	33814.9125
600.89682	33335.3125
604.9028	33811.8125
608.90594	35942.9125
612.90624	38168.7125
616.90371	36424.6125
620.89834	32115.4125
624.89015	30008.5125
628.87913	29637.4125
632.86528	29735.7125
636.84862	29773.3125
640.82913	29460.9125
644.80683	28996.7125
648.78172	28640.5125
652.75379	28563.4125
656.72306	28888.4125
660.68952	29270.5125
664.65319	29197.0125
668.61405	28854.3125
672.57211	28850.2125
676.52738	29015.8125
680.47986	28983.8125
684.42955	28803.0125
688.37646	28731.6125
692.32058	28877.7125
696.26192	29191.0125
700.20048	29534.0125
704.13626	29675.2125
708.06928	29665.0125
711.99952	29525.0125
715.927	29496.6125
719.85171	29491.5125
723.77365	29520.9125
727.69284	29225.5125
731.60928	28860.8125
735.52295	28750.4125
739.43388	28719.3125
743.34206	28786.3125
747.24749	28955.1125
751.15017	29063.8125
755.05012	29394.4125
758.94733	29951.7125
762.8418	30919.1125
766.73354	32435.9125
770.62254	33825.9125
774.50882	34241.0125
778.39237	33312.5125
782.27321	31902.2125
786.15132	30641.4125
790.02671	29788.1125
793.89938	29288.3125
797.76935	29089.4125
801.6366	28982.5125
805.50115	28887.5125
809.36299	28831.2125
813.22213	28665.9125
817.07857	28533.9125
820.93231	28458.4125
824.78336	28409.0125
828.63172	28326.3125
832.47738	28292.8125
836.32036	28286.4125
840.16066	28319.2125
843.99827	28313.5125
847.8332	28270.8125
851.66546	28290.0125
855.49504	28335.1125
859.32195	28371.1125
863.1462	28358.1125
866.96777	28388.4125
870.78668	28410.4125
874.60293	28501.6125
878.41652	28566.0125
882.22745	28684.0125
886.03573	28800.6125
889.84136	28890.6125
893.64433	28877.6125
897.44466	28815.0125
901.24235	28814.6125
905.0374	28775.6125
908.8298	28784.7125
912.61957	28801.8125
916.40671	28896.8125
920.19121	29186.6125
923.97308	29407.6125
927.75233	29497.2125
931.52895	29430.1125
935.30295	29125.7125
939.07433	28719.2125
942.84309	28378.4125
946.60924	28165.6125
950.37278	28072.1125
954.13371	28006.4125
957.89203	27961.7125
961.64774	27929.3125
965.40086	27870.7125
969.15137	27814.6125
972.89929	27759.8125
976.64461	27702.4125
980.38733	27673.6125
984.12747	27688.4125
987.86502	27722.8125
991.59999	27849.8125
995.33237	27977.6125
999.06217	28257.5125
1002.78939	28690.4125
1006.51404	29156.2125
1010.23611	29566.7125
1013.95561	29857.7125
1017.67255	29873.1125
1021.38692	29630.8125
1025.09872	29301.1125
1028.80796	29069.8125
1032.51465	29011.9125
1036.21877	29038.8125
1039.92035	29110.6125
1043.61937	29192.8125
1047.31584	29191.4125
1051.00976	29214.5125
1054.70114	29257.5125
1058.38998	29390.8125
1062.07627	29601.1125
1065.76003	29910.1125
1069.44126	30249.9125
1073.11995	30654.5125
1076.79611	31084.1125
1080.46974	31320.3125
1084.14085	31410.1125
1087.80943	31564.7125
1091.47549	31743.8125
1095.13903	31752.1125
1098.80005	31453.0125
1102.45857	30980.5125
1106.11456	30464.1125
1109.76805	30177.3125
1113.41903	30008.6125
1117.06751	29994.2125
1120.71348	30173.4125
1124.35696	30287.8125
1127.99793	30523.0125
1131.63641	30662.2125
1135.2724	30574.1125
1138.90589	30484.3125
1142.5369	30448.8125
1146.16542	30427.1125
1149.79145	30542.7125
1153.415	30630.2125
1157.03607	30808.2125
1160.65467	31259.7125
1164.27079	32157.1125
1167.88443	33227.8125
1171.49561	34534.6125
1175.10432	36107.0125
1178.71056	38110.9125
1182.31434	40101.1125
1185.91565	41373.9125
1189.51451	41787.7125
1193.11091	41395.1125
1196.70485	40401.5125
1200.29634	39095.2125
1203.88538	37993.6125
1207.47197	37197.5125
1211.05612	36631.1125
1214.63782	36090.8125
1218.21708	35485.1125
1221.79391	34752.9125
1225.36829	34252.6125
1228.94024	33995.6125
1232.50976	33759.3125
1236.07685	33688.3125
1239.6415	33491.1125
1243.20374	33600.6125
1246.76355	33731.7125
1250.32093	34051.3125
1253.8759	34558.1125
1257.42845	35285.4125
1260.97859	36171.2125
1264.52631	37072.1125
1268.07163	37942.5125
1271.61453	38707.1125
1275.15503	39435.8125
1278.69312	40035.4125
1282.22882	40514.0125
1285.76211	41164.8125
1289.29301	41927.3125
1292.82151	42944.8125
1296.34761	44119.3125
1299.87133	45609.9125
1303.39266	47260.6125
1306.9116	48930.7125
1310.42815	50428.8125
1313.94233	51294.5125
1317.45412	51284.4125
1320.96354	50776.3125
1324.47058	50551.7125
1327.97525	50398.3125
1331.47754	50376.7125
1334.97747	50411.1125
1338.47502	50380.8125
1341.97022	50328.8125
1345.46305	50134.0125
1348.95352	49952.3125
1352.44163	49794.3125
1355.92738	50080.9125
1359.41078	50845.6125
1362.89183	51853.1125
1366.37053	51241.2125
1369.84688	48394.0125
1373.32088	44611.2125
1376.79254	41749.0125
1380.26186	40387.4125
1383.72883	40079.8125
1387.19347	39903.6125
1390.65578	39441.7125
1394.11575	39180.1125
1397.57339	39059.9125
1401.0287	39334.1125
1404.48168	39561.8125
1407.93234	39649.4125
1411.38068	39381.2125
1414.82669	38738.6125
1418.27039	37840.2125
1421.71177	36991.5125
1425.15083	36319.3125
1428.58758	36088.8125
1432.02203	36383.0125
1435.45416	37011.4125
1438.88399	37663.1125
1442.31151	38128.7125
1445.73673	38268.0125
1449.15965	38376.7125
1452.58027	38376.9125
1455.9986	38320.3125
1459.41463	38457.2125
1462.82837	38943.8125
1466.23982	39522.1125
1469.64898	39940.6125
1473.05586	40171.7125
1476.46045	40238.8125
1479.86276	40074.4125
1483.26279	39981.0125
1486.66054	39906.5125
1490.05602	40200.3125
1493.44922	40652.6125
1496.84016	41125.6125
1500.22882	41855.0125
1503.61521	42892.6125
1506.99934	44025.2125
1510.38121	44875.4125
1513.76081	44958.0125
1517.13816	44191.9125
1520.51324	42918.2125
1523.88607	41713.4125
1527.25665	40942.2125
1530.62498	40624.8125
1533.99105	40352.1125
1537.35488	39908.5125
1540.71647	39260.2125
1544.07581	38635.8125
1547.4329	37965.3125
1550.78776	37474.2125
1554.14038	37235.4125
1557.49077	37042.7125
1560.83892	37085.8125
1564.18484	37168.1125
1567.52853	37255.4125
1570.86999	37504.1125
1574.20922	37974.2125
1577.54624	38476.1125
1580.88103	38620.8125
1584.2136	38803.4125
1587.54395	39403.7125
1590.87208	40485.9125
1594.19801	41932.3125
1597.52172	43363.6125
1600.84321	43624.1125
1604.16251	42205.1125
1607.47959	39933.3125
1610.79447	37629.3125
1614.10715	35402.4125
1617.41763	33425.8125
1620.7259	32078.5125
1624.03199	31404.9125
1627.33587	31441.8125
1630.63757	32043.0125
1633.93707	33448.8125
1637.23439	35753.0125
1640.52951	39103.8125
1643.82246	42837.4125
1647.11321	45568.6125
1650.40179	45780.1125
1653.68819	43168.7125
1656.97241	38748.9125
1660.25446	34581.3125
1663.53433	31473.0125
1666.81203	29499.1125
1670.08756	28285.5125
1673.36092	27487.7125
1676.63211	26947.1125
1679.90115	26602.7125
1683.16801	26332.0125
1686.43272	26099.0125
1689.69527	25915.1125
1692.95567	25785.5125
1696.2139	25713.8125
1699.46999	25668.3125
1702.72392	25593.0125
1705.97571	25558.4125
1709.22535	25518.6125
1712.47284	25524.2125
1715.71819	25513.5125
1718.96139	25446.8125
1722.20246	25382.5125
1725.44139	25322.1125
1728.67818	25190.8125
1731.91284	25106.3125
1735.14537	24991.3125
1738.37576	24878.1125
1741.60403	24832.6125
1744.83017	24769.5125
1748.05418	24711.6125
1751.27607	24665.4125
1754.49584	24629.7125
1757.71349	24637.0125
1760.92903	24588.8125
1764.14244	24532.0125
1767.35375	24521.0125
1770.56294	24558.4125
1773.77002	24458.7125
1776.97499	24424.9125
1780.17785	24409.0125
1783.37861	24396.0125
1786.57727	24385.6125
1789.77382	24355.4125
1792.96828	24299.3125
1796.16064	24233.0125
1799.3509	24227.3125
1802.53907	24205.5125
1805.72514	24105.8125
1808.90913	24071.1125
1812.09102	24009.3125
1815.27083	23978.6125
1818.44856	23979.5125
1821.6242	23922.3125
1824.79776	23984.6125
1827.96924	23956.2125
1831.13864	23951.6125
1834.30597	23942.2125
1837.47122	23937.6125
1840.6344	23986.2125
1843.7955	24019.1125
1846.95454	24020.5125
1850.11151	23972.4125
1853.26642	23966.5125
1856.41926	23912.9125
1859.57004	23913.7125
1862.71876	23865.2125
1865.86542	23870.7125
1869.01003	23784.1125
1872.15258	23764.8125
1875.29308	23786.6125
1878.43152	23740.2125
1881.56792	23662.3125
1884.70227	23631.0125
1887.83457	23604.1125
1890.96482	23584.8125
1894.09304	23530.4125
1897.21921	23513.0125
1900.34335	23450.4125
1903.46544	23428.8125
1906.58551	23428.5125
1909.70353	23370.2125
1912.81953	23344.8125
1915.93349	23298.6125
1919.04543	23212.5125
1922.15534	23176.9125
1925.26322	23072.1125
1928.36908	23079.7125
1931.47292	23022.5125
1934.57473	22954.8125
1937.67453	22896.3125
1940.77232	22891.5125
1943.86808	22805.1125
1946.96184	22790.8125
1950.05358	22703.7125
1953.14331	22630.6125
1956.23103	22544.2125
1959.31675	22487.5125
1962.40046	22420.6125
1965.48217	22388.9125
1968.56188	22314.2125
1971.63959	22289.8125
1974.7153	22190.0125
1977.78901	22104.1125
1980.86073	22022.5125
1983.93046	21989.4125
1986.99819	21896.0125
1990.06394	21858.3125
1993.1277	21828.7125
1996.18947	21757.0125
1999.24925	21717.3125
2002.30706	21594.1125
2005.36288	21533.0125
2008.41672	21473.9125
2011.46859	21426.9125
2014.51848	21376.1125
2017.56639	21340.5125
2020.61233	21293.7125
2023.6563	21252.5125
2026.6983	21200.1125
2029.73833	21188.7125
2032.7764	21089.2125
2035.8125	21059.4125
2038.84664	21040.1125
2041.87881	20999.9125
2044.90903	20965.5125
2047.93729	20900.0125
2050.96359	20896.4125
2053.98794	20830.7125
2057.01034	20847.9125
2060.03078	20826.1125
2063.04927	20795.7125
2066.06582	20802.1125
2069.08042	20789.1125
2072.09307	20772.5125
2075.10378	20776.8125
2078.11255	20738.4125
2081.11938	20785.4125
2084.12426	20719.6125
2087.12722	20749.6125
2090.12824	20734.6125
2093.12732	20743.9125
2096.12447	20761.6125
2099.11969	20753.5125
2102.11299	20755.4125
2105.10435	20738.4125
2108.09379	20755.7125
2111.08131	20786.9125
2114.0669	20808.3125
2117.05057	20828.8125
2120.03233	20807.2125
2123.01216	20823.4125
2125.99008	20870.1125
2128.96609	20893.9125
2131.94018	20860.0125
2134.91236	20852.8125
2137.88263	20889.3125
2140.851	20893.1125
2143.81746	20927.9125
2146.78201	20911.5125
2149.74466	20957.2125
2152.7054	20949.9125
2155.66425	20938.4125
2158.6212	20934.3125
2161.57625	20914.0125
2164.52941	20902.0125
2167.48067	20892.1125
2170.43004	20912.8125
2173.37752	20883.5125
2176.32311	20849.1125
2179.26681	20890.9125
2182.20863	20869.6125
2185.14856	20910.8125
2188.08661	20884.9125
2191.02278	20856.6125
2193.95707	20814.0125
2196.88948	20826.7125
2199.82001	20819.1125
2202.74867	20783.6125
2205.67545	20791.4125
2208.60037	20760.9125
2211.52341	20706.0125
2214.44458	20686.4125
2217.36388	20614.2125
2220.28132	20641.7125
2223.1969	20555.8125
2226.11061	20547.7125
2229.02246	20468.0125
2231.93245	20454.7125
2234.84058	20425.0125
2237.74686	20415.4125
2240.65128	20409.0125
2243.55385	20317.3125
2246.45456	20349.2125
2249.35343	20295.8125
2252.25044	20288.1125
2255.14561	20244.9125
2258.03893	20240.3125
2260.93041	20174.3125
2263.82004	20107.0125
2266.70783	20114.6125
2269.59378	20051.7125
2272.4779	20003.5125
2275.36017	19961.7125
2278.24061	19951.7125
2281.11922	19892.4125
2283.996	19865.6125
2286.87094	19824.7125
2289.74405	19797.7125
2292.61534	19739.2125
2295.4848	19745.8125
2298.35243	19730.7125
2301.21824	19722.4125
2304.08223	19727.1125
2306.94439	19700.8125
2309.80474	19687.7125
2312.66327	19683.1125
2315.51999	19660.8125
2318.37489	19649.4125
2321.22797	19619.7125
2324.07925	19598.3125
2326.92871	19538.7125
2329.77637	19545.6125
2332.62222	19540.8125
2335.46626	19492.5125
2338.3085	19466.7125
2341.14893	19449.1125
2343.98756	19440.3125
2346.8244	19418.8125
2349.65943	19427.1125
2352.49267	19383.5125
2355.32411	19388.4125
2358.15376	19347.0125
2360.98161	19325.2125
2363.80768	19295.4125
2366.63195	19309.6125
2369.45444	19312.5125
2372.27514	19274.7125
2375.09405	19264.8125
2377.91118	19235.1125
2380.72652	19188.8125
2383.54009	19157.0125
2386.35187	19142.2125
2389.16188	19076.5125
2391.97011	19070.0125
2394.77657	19032.5125
2397.58125	18969.8125
2400.38416	18953.3125
2403.18529	18914.9125
2405.98466	18919.6125
2408.78226	18885.5125
2411.57809	18845.4125
2414.37216	18853.5125
2417.16446	18812.5125
2419.955	18801.4125
2422.74378	18784.9125
2425.5308	18764.6125
2428.31606	18750.1125
2431.09956	18736.9125
2433.88131	18687.0125
2436.6613	18735.0125
2439.43954	18675.2125
2442.21603	18663.7125
2444.99077	18649.2125
2447.76377	18663.0125
2450.53501	18647.7125
2453.30451	18654.2125
2456.07226	18612.7125
2458.83827	18588.8125
2461.60254	18579.6125
2464.36507	18580.9125
2467.12586	18561.4125
2469.88492	18534.5125
2472.64224	18546.2125
2475.39782	18509.2125
2478.15167	18472.0125
2480.90379	18491.1125
2483.65417	18493.6125
2486.40283	18442.2125
2489.14976	18442.5125
2491.89497	18392.1125
2494.63845	18428.8125
2497.3802	18407.2125
2500.12024	18409.4125
2502.85855	18390.6125
2505.59514	18417.7125
2508.33002	18375.4125
2511.06318	18345.3125
2513.79462	18336.9125
2516.52435	18327.7125
2519.25237	18334.3125
2521.97867	18298.8125
2524.70327	18284.3125
2527.42616	18257.2125
2530.14734	18265.6125
2532.86681	18210.8125
2535.58458	18219.1125
2538.30065	18165.6125
2541.01501	18140.9125
2543.72768	18112.8125
2546.43864	18114.5125
2549.14791	18078.7125
2551.85548	18073.6125
2554.56136	18072.0125
2557.26554	18050.8125
2559.96803	17999.8125
2562.66883	17986.9125
2565.36794	17971.5125
2568.06536	17964.0125
2570.7611	17922.9125
2573.45514	17870.2125
2576.14751	17849.0125
2578.83819	17790.7125
2581.52719	17808.5125
2584.21451	17773.0125
2586.90015	17750.5125
2589.58411	17726.6125
2592.2664	17689.4125
2594.94701	17659.0125
2597.62594	17637.4125
2600.30321	17593.2125
2602.9788	17577.3125
2605.65273	17570.8125
2608.32498	17553.6125
2610.99557	17518.2125
2613.66449	17537.9125
2616.33175	17522.7125
2618.99734	17470.9125
2621.66128	17460.0125
2624.32355	17466.9125
2626.98416	17408.5125
2629.64311	17387.5125
2632.30041	17371.2125
2634.95605	17388.6125
2637.61004	17361.1125
2640.26238	17358.8125
2642.91306	17312.3125
2645.56209	17290.1125
2648.20948	17266.9125
2650.85521	17299.7125
2653.4993	17293.1125
2656.14175	17312.3125
2658.78255	17300.8125
2661.42171	17260.9125
2664.05923	17275.9125
2666.6951	17292.2125
2669.32934	17288.2125
2671.96194	17294.2125
2674.59291	17291.6125
2677.22224	17303.4125
2679.84993	17336.8125
2682.476	17302.6125
2685.10043	17269.2125
2687.72324	17260.1125
2690.34441	17295.8125
2692.96396	17266.1125
2695.58188	17238.2125
2698.19818	17240.8125
2700.81285	17288.5125
2703.4259	17262.8125
2706.03733	17234.2125
2708.64714	17236.5125
2711.25533	17276.4125
2713.86191	17255.4125
2716.46687	17241.9125
2719.07021	17264.9125
2721.67194	17275.8125
2724.27206	17241.2125
2726.87057	17245.4125
2729.46747	17248.8125
2732.06276	17269.0125
2734.65644	17205.7125
2737.24852	17232.9125
2739.83899	17204.7125
2742.42786	17249.6125
2745.01513	17211.5125
2747.60079	17198.9125
2750.18486	17205.0125
2752.76733	17208.9125
2755.3482	17168.7125
2757.92747	17157.5125
2760.50515	17117.8125
2763.08123	17125.8125
2765.65573	17106.1125
2768.22863	17102.9125
2770.79994	17100.5125
2773.36967	17059.6125
2775.9378	17065.3125
2778.50435	17045.6125
2781.06932	17001.2125
2783.6327	16980.3125
2786.1945	16965.0125
2788.75471	16939.7125
2791.31335	16913.9125
2793.87041	16870.0125
2796.42589	16790.7125
2798.97979	16823.0125
2801.53212	16767.7125
2804.08288	16741.3125
2806.63206	16717.3125
2809.17967	16665.3125
2811.72571	16643.4125
2814.27018	16631.6125
2816.81308	16596.7125
2819.35442	16607.0125
2821.89419	16545.5125
2824.43239	16551.0125
2826.96904	16501.8125
2829.50412	16511.0125
2832.03763	16460.6125
2834.56959	16468.8125
2837.1	16456.8125
2839.62884	16394.0125
2842.15613	16423.9125
2844.68186	16442.4125
2847.20604	16452.2125
2849.72867	16430.1125
2852.24974	16398.3125
2854.76927	16380.2125
2857.28724	16384.1125
2859.80367	16365.6125
2862.31855	16324.3125
2864.83189	16345.5125
2867.34368	16300.8125
2869.85393	16334.7125
2872.36264	16326.6125
2874.8698	16324.3125
2877.37543	16327.4125
2879.87952	16365.5125
2882.38207	16368.2125
2884.88308	16353.2125
2887.38256	16374.9125
2889.88051	16384.4125
2892.37692	16418.5125
2894.8718	16365.4125
2897.36515	16418.4125
2899.85698	16368.7125
2902.34727	16440.1125
2904.83604	16396.9125
2907.32328	16423.7125
2909.809	16415.7125
2912.29319	16413.3125
2914.77587	16412.5125
2917.25702	16431.7125
2919.73665	16391.4125
2922.21476	16421.5125
2924.69136	16382.4125
2927.16644	16384.7125
2929.64	16348.6125
2932.11205	16354.0125
2934.58258	16276.9125
2937.05161	16328.3125
2939.51912	16316.2125
2941.98513	16279.5125
2944.44962	16195.8125
2946.91261	16184.8125
2949.37409	16197.2125
2951.83407	16152.6125
2954.29254	16120.3125
2956.74951	16094.5125
2959.20498	16085.5125
2961.65895	16056.5125
2964.11142	16033.4125
2966.56239	15996.9125
2969.01186	15963.2125
2971.45984	15964.2125
2973.90632	15916.7125
2976.35131	15869.7125
2978.7948	15834.0125
2981.23681	15790.7125
2983.67732	15757.1125
2986.11635	15730.2125
2988.55388	15683.0125
2990.98993	15656.9125
2993.4245	15619.8125
2995.85758	15556.2125
2998.28917	15553.2125
3000.71928	15523.5125
3003.14791	15498.9125
3005.57506	15492.8125
3008.00073	15428.6125
3010.42493	15395.1125
3012.84764	15391.9125
3015.26888	15377.3125
3017.68865	15306.5125
3020.10694	15323.2125
3022.52376	15283.0125
