Data from AgNPs_FTO_APTES_UA_2uM_R6G_10uM_NaF_0.1M_Addition_RamanShift__4__11-48-17-202.txt Node

Date: Fri Dec 17 11:48:17 GMT 2021
User: TCL
Spectrometer: QEP01345
Trigger mode: 4
Integration Time (sec): 7.000000E0
Scans to average: 10
Electric dark correction enabled: true
Nonlinearity correction enabled: false
Boxcar width: 0
XAxis mode: Raman Shifts
Number of Pixels in Spectrum: 1044
>>>>>Begin Spectral Data<<<<<
46.04893	-1.15
50.45542	-2.05
54.85868	-0.95
59.25871	0.05
63.6555	127.65
68.04907	130.05
72.43941	137.75
76.82654	143.75
81.21044	147.25
85.59113	156.55
89.96862	159.65
94.34289	165.65
98.71396	171.85
103.08183	175.75
107.4465	179.35
111.80798	183.55
116.16626	188.35
120.52136	193.05
124.87327	202.65
129.222	205.65
133.56755	217.55
137.90993	237.65
142.24913	256.35
146.58517	285.95
150.91804	329.55
155.24774	390.65
159.57429	483.55
163.89768	609.25
168.21792	800.65
172.53501	1080.25
176.84895	1496.75
181.15975	2087.55
185.46741	2908.05
189.77193	4012.85
194.07331	5377.85
198.37157	6917.35
202.6667	8567.35
206.9587	10183.35
211.24758	11776.15
215.53334	13393.15
219.81599	15055.85
224.09553	16964.15
228.37195	18995.05
232.64527	21269.55
236.91549	23628.45
241.18261	26073.15
245.44663	28364.95
249.70755	30468.55
253.96539	32240.65
258.22014	33715.85
262.4718	34921.65
266.72039	35794.65
270.96589	36168.65
275.20832	36167.55
279.44768	35844.05
283.68397	35346.95
287.91719	34942.95
292.14735	34652.05
296.37445	34505.65
300.59849	34414.95
304.81948	34548.25
309.03742	34449.45
313.25231	34349.05
317.46415	34050.45
321.67296	33500.25
325.87872	33103.15
330.08145	32934.75
334.28114	32970.15
338.47781	33212.85
342.67145	33573.75
346.86207	34058.25
351.04966	34690.95
355.23424	35385.35
359.4158	36013.25
363.59435	36530.75
367.76989	36871.25
371.94243	37195.55
376.11196	37407.55
380.27849	37543.25
384.44203	37782.15
388.60257	38124.25
392.76012	38438.95
396.91468	38940.15
401.06626	39521.05
405.21485	39909.05
409.36047	39970.95
413.50311	39695.65
417.64277	39588.85
421.77947	39619.55
425.9132	39852.35
430.04396	40077.85
434.17176	40214.05
438.2966	40462.25
442.41849	41055.55
446.53742	41916.45
450.6534	42868.25
454.76644	43637.65
458.87653	43952.45
462.98368	43822.65
467.08789	43351.85
471.18916	42678.55
475.2875	41894.25
479.38291	41403.95
483.4754	41030.95
487.56496	40743.05
491.6516	40550.55
495.73531	40449.45
499.81612	40539.55
503.89401	40830.65
507.96899	41024.35
512.04106	40951.45
516.11023	40792.35
520.1765	40551.75
524.23987	40386.05
528.30034	40198.25
532.35792	39894.65
536.41261	39530.45
540.46441	39119.15
544.51333	39036.25
548.55936	39291.25
552.60252	39727.65
556.64279	40325.65
560.6802	40781.75
564.71473	41002.25
568.7464	41353.75
572.7752	41939.45
576.80114	42619.55
580.82422	43564.65
584.84444	44737.95
588.86181	46097.55
592.87633	47094.85
596.888	47057.05
600.89682	46503.75
604.9028	47219.95
608.90594	50421.15
612.90624	53238.25
616.90371	50610.95
620.89834	44560.45
624.89015	41793.55
628.87913	41322.25
632.86528	41181.75
636.84862	40918.45
640.82913	40314.15
644.80683	39589.45
648.78172	39162.85
652.75379	39232.15
656.72306	39674.55
660.68952	40224.35
664.65319	40060.55
668.61405	39652.75
672.57211	39802.35
676.52738	39989.95
680.47986	39882.15
684.42955	39563.25
688.37646	39451.65
692.32058	39827.75
696.26192	40523.65
700.20048	41082.95
704.13626	41223.65
708.06928	40905.05
711.99952	40553.45
715.927	40570.35
719.85171	40846.55
723.77365	40783.85
727.69284	40292.85
731.60928	39761.15
735.52295	39556.95
739.43388	39581.35
743.34206	39716.45
747.24749	39891.25
751.15017	40168.65
755.05012	40598.35
758.94733	41439.05
762.8418	42812.55
766.73354	44756.45
770.62254	46644.65
774.50882	47136.25
778.39237	45791.25
782.27321	43744.35
786.15132	42007.75
790.02671	40976.95
793.89938	40452.85
797.76935	40313.75
801.6366	40213.05
805.50115	40187.05
809.36299	40028.45
813.22213	39736.05
817.07857	39557.85
820.93231	39336.75
824.78336	39255.65
828.63172	39243.75
832.47738	39245.95
836.32036	39365.55
840.16066	39661.15
843.99827	39775.45
847.8332	39644.85
851.66546	39503.95
855.49504	39458.15
859.32195	39455.45
863.1462	39406.85
866.96777	39293.55
870.78668	39264.25
874.60293	39371.85
878.41652	39449.95
882.22745	39660.65
886.03573	39823.15
889.84136	39887.45
893.64433	39751.85
897.44466	39562.05
901.24235	39341.05
905.0374	39265.95
908.8298	39256.85
912.61957	39327.95
916.40671	39533.65
920.19121	39907.65
923.97308	40400.15
927.75233	40653.95
931.52895	40591.95
935.30295	40268.05
939.07433	39771.75
942.84309	39443.95
946.60924	39291.05
950.37278	39297.85
954.13371	39215.95
957.89203	39028.85
961.64774	38892.05
965.40086	38863.25
969.15137	38842.45
972.89929	38877.15
976.64461	38916.55
980.38733	39137.75
984.12747	39303.35
987.86502	39635.75
991.59999	39981.65
995.33237	40603.85
999.06217	41610.05
1002.78939	42850.45
1006.51404	43682.35
1010.23611	44187.95
1013.95561	44439.95
1017.67255	44327.35
1021.38692	43844.25
1025.09872	43506.55
1028.80796	43878.05
1032.51465	44995.75
1036.21877	46165.75
1039.92035	46493.65
1043.61937	46007.45
1047.31584	44948.25
1051.00976	43745.15
1054.70114	43068.45
1058.38998	42856.05
1062.07627	42946.85
1065.76003	43172.25
1069.44126	43525.05
1073.11995	44056.75
1076.79611	44678.95
1080.46974	45128.75
1084.14085	45347.05
1087.80943	45577.75
1091.47549	45602.65
1095.13903	45413.95
1098.80005	44894.65
1102.45857	44181.15
1106.11456	43636.95
1109.76805	43446.75
1113.41903	43427.95
1117.06751	43406.35
1120.71348	43547.65
1124.35696	43702.85
1127.99793	43950.65
1131.63641	44161.65
1135.2724	44131.25
1138.90589	43889.95
1142.5369	43940.95
1146.16542	44012.65
1149.79145	44091.25
1153.415	44295.65
1157.03607	44587.95
1160.65467	45399.15
1164.27079	46903.85
1167.88443	48824.15
1171.49561	50948.35
1175.10432	53446.85
1178.71056	56765.45
1182.31434	60171.45
1185.91565	62307.05
1189.51451	62565.05
1193.11091	61376.85
1196.70485	59420.85
1200.29634	57371.85
1203.88538	55908.85
1207.47197	55082.55
1211.05612	54249.85
1214.63782	53307.65
1218.21708	52565.05
1221.79391	51953.55
1225.36829	51456.85
1228.94024	50923.85
1232.50976	50274.95
1236.07685	49787.05
1239.6415	49480.55
1243.20374	49586.35
1246.76355	50008.95
1250.32093	50886.75
1253.8759	51862.25
1257.42845	53148.25
1260.97859	54498.05
1264.52631	56010.15
1268.07163	57639.95
1271.61453	59317.25
1275.15503	60915.25
1278.69312	62187.85
1282.22882	63142.25
1285.76211	63922.65
1289.29301	64881.85
1292.82151	66348.25
1296.34761	68362.35
1299.87133	71441.25
1303.39266	75101.85
1306.9116	79072.65
1310.42815	82013.25
1313.94233	83308.55
1317.45412	82784.15
1320.96354	81154.75
1324.47058	79895.25
1327.97525	78929.55
1331.47754	78415.45
1334.97747	78095.25
1338.47502	77701.45
1341.97022	76672.85
1345.46305	75222.25
1348.95352	74066.95
1352.44163	74023.65
1355.92738	75536.35
1359.41078	78599.45
1362.89183	80947.75
1366.37053	79834.55
1369.84688	74814.45
1373.32088	68336.85
1376.79254	63607.95
1380.26186	61580.95
1383.72883	61314.95
1387.19347	61150.25
1390.65578	60307.65
1394.11575	59716.25
1397.57339	59748.95
1401.0287	60256.25
1404.48168	61014.85
1407.93234	61534.25
1411.38068	61644.65
1414.82669	61034.65
1418.27039	59754.55
1421.71177	58102.05
1425.15083	56821.85
1428.58758	56373.35
1432.02203	56895.15
1435.45416	58146.45
1438.88399	59506.95
1442.31151	60410.45
1445.73673	60670.05
1449.15965	60746.75
1452.58027	60497.35
1455.9986	60039.65
1459.41463	60039.05
1462.82837	60721.95
1466.23982	61863.05
1469.64898	62998.55
1473.05586	63801.45
1476.46045	64181.55
1479.86276	64075.65
1483.26279	63791.45
1486.66054	63723.95
1490.05602	63949.05
1493.44922	64335.75
1496.84016	64382.05
1500.22882	64538.55
1503.61521	65166.75
1506.99934	66035.85
1510.38121	66796.85
1513.76081	66688.25
1517.13816	65457.45
1520.51324	63517.35
1523.88607	61946.75
1527.25665	61221.95
1530.62498	61129.15
1533.99105	61080.45
1537.35488	60838.95
1540.71647	60286.45
1544.07581	59501.65
1547.4329	58633.55
1550.78776	57958.95
1554.14038	57428.55
1557.49077	56975.15
1560.83892	56643.15
1564.18484	56384.95
1567.52853	56289.75
1570.86999	56484.85
1574.20922	57117.35
1577.54624	57792.15
1580.88103	58307.35
1584.2136	59125.45
1587.54395	60914.55
1590.87208	63926.85
1594.19801	67705.55
1597.52172	71127.15
1600.84321	72036.75
1604.16251	69231.75
1607.47959	64422.25
1610.79447	59324.65
1614.10715	54925.65
1617.41763	51469.15
1620.7259	49285.05
1624.03199	48387.65
1627.33587	48635.15
1630.63757	49957.15
1633.93707	52465.85
1637.23439	56286.55
1640.52951	61649.95
1643.82246	67438.25
1647.11321	71329.45
1650.40179	70900.75
1653.68819	65727.45
1656.97241	58384.25
1660.25446	51766.15
1663.53433	47206.05
1666.81203	44373.55
1670.08756	42574.45
1673.36092	41538.25
1676.63211	40735.45
1679.90115	40145.55
1683.16801	39784.25
1686.43272	39485.45
1689.69527	39305.35
1692.95567	39115.55
1696.2139	38920.45
1699.46999	38910.15
1702.72392	38802.45
1705.97571	38784.85
1709.22535	38794.55
1712.47284	38787.15
1715.71819	38792.45
1718.96139	38742.15
1722.20246	38649.55
1725.44139	38483.75
1728.67818	38343.05
1731.91284	38209.15
1735.14537	38010.85
1738.37576	37905.95
1741.60403	37793.25
1744.83017	37672.35
1748.05418	37626.95
1751.27607	37560.15
1754.49584	37494.65
1757.71349	37483.25
1760.92903	37506.25
1764.14244	37526.45
1767.35375	37510.65
1770.56294	37475.65
1773.77002	37473.55
1776.97499	37401.85
1780.17785	37388.65
1783.37861	37413.45
1786.57727	37391.25
1789.77382	37306.75
1792.96828	37215.85
1796.16064	37219.05
1799.3509	37153.95
1802.53907	37108.95
1805.72514	37012.55
1808.90913	36938.85
1812.09102	36939.45
1815.27083	36899.15
1818.44856	36879.45
1821.6242	36855.55
1824.79776	36809.45
1827.96924	36808.25
1831.13864	36845.35
1834.30597	36897.75
1837.47122	36881.65
1840.6344	36928.35
1843.7955	36944.65
1846.95454	36930.85
1850.11151	36917.35
1853.26642	36882.55
1856.41926	36834.85
1859.57004	36871.45
1862.71876	36872.65
1865.86542	36849.85
1869.01003	36795.95
1872.15258	36785.05
1875.29308	36791.45
1878.43152	36805.85
1881.56792	36803.65
1884.70227	36737.75
1887.83457	36798.75
1890.96482	36686.35
1894.09304	36638.45
1897.21921	36605.25
1900.34335	36597.75
1903.46544	36564.45
1906.58551	36517.15
1909.70353	36489.45
1912.81953	36451.55
1915.93349	36380.95
1919.04543	36312.95
1922.15534	36266.55
1925.26322	36222.45
1928.36908	36161.25
1931.47292	36070.35
1934.57473	36031.15
1937.67453	35909.85
1940.77232	35855.75
1943.86808	35792.05
1946.96184	35663.65
1950.05358	35630.25
1953.14331	35548.65
1956.23103	35489.55
1959.31675	35383.05
1962.40046	35321.75
1965.48217	35255.65
1968.56188	35204.65
1971.63959	35136.25
1974.7153	35008.75
1977.78901	34920.65
1980.86073	34830.05
1983.93046	34732.95
1986.99819	34651.55
1990.06394	34548.65
1993.1277	34457.45
1996.18947	34343.75
1999.24925	34270.45
2002.30706	34170.55
2005.36288	34092.65
2008.41672	34024.15
2011.46859	33953.65
2014.51848	33891.95
2017.56639	33765.15
2020.61233	33745.35
2023.6563	33683.65
2026.6983	33667.15
2029.73833	33637.85
2032.7764	33572.45
2035.8125	33543.85
2038.84664	33514.75
2041.87881	33497.35
2044.90903	33410.15
2047.93729	33410.65
2050.96359	33397.05
2053.98794	33299.85
2057.01034	33308.35
2060.03078	33283.85
2063.04927	33303.75
2066.06582	33282.85
2069.08042	33241.65
2072.09307	33246.75
2075.10378	33169.05
2078.11255	33151.35
2081.11938	33158.35
2084.12426	33140.45
2087.12722	33109.05
2090.12824	33135.45
2093.12732	33166.85
2096.12447	33229.35
2099.11969	33243.35
2102.11299	33278.45
2105.10435	33292.85
2108.09379	33313.65
2111.08131	33357.15
2114.0669	33370.15
2117.05057	33408.85
2120.03233	33407.25
2123.01216	33469.35
2125.99008	33473.35
2128.96609	33460.15
2131.94018	33550.85
2134.91236	33616.15
2137.88263	33631.15
2140.851	33622.85
2143.81746	33693.65
2146.78201	33779.45
2149.74466	33791.65
2152.7054	33793.15
2155.66425	33831.45
2158.6212	33785.55
2161.57625	33767.15
2164.52941	33787.55
2167.48067	33792.75
2170.43004	33798.35
2173.37752	33796.15
2176.32311	33858.95
2179.26681	33845.55
2182.20863	33789.35
2185.14856	33860.55
2188.08661	33865.05
2191.02278	33867.05
2193.95707	33885.85
2196.88948	33884.45
2199.82001	33913.05
2202.74867	33892.25
2205.67545	33898.85
2208.60037	33895.55
2211.52341	33826.35
2214.44458	33800.75
2217.36388	33744.85
2220.28132	33704.95
2223.1969	33643.05
2226.11061	33639.75
2229.02246	33591.85
2231.93245	33574.85
2234.84058	33495.65
2237.74686	33447.25
2240.65128	33423.85
2243.55385	33342.05
2246.45456	33336.25
2249.35343	33271.55
2252.25044	33261.05
2255.14561	33212.25
2258.03893	33220.65
2260.93041	33166.95
2263.82004	33090.45
2266.70783	33076.15
2269.59378	32996.45
2272.4779	32947.55
2275.36017	32870.15
2278.24061	32845.95
2281.11922	32807.85
2283.996	32717.15
2286.87094	32779.35
2289.74405	32710.25
2292.61534	32715.05
2295.4848	32723.95
2298.35243	32723.25
2301.21824	32742.25
2304.08223	32781.85
2306.94439	32778.55
2309.80474	32803.95
2312.66327	32807.15
2315.51999	32814.95
2318.37489	32782.45
2321.22797	32814.85
2324.07925	32792.75
2326.92871	32687.45
2329.77637	32681.65
2332.62222	32667.25
2335.46626	32686.65
2338.3085	32609.45
2341.14893	32694.95
2343.98756	32642.85
2346.8244	32700.95
2349.65943	32672.15
2352.49267	32597.45
2355.32411	32594.75
2358.15376	32556.55
2360.98161	32556.95
2363.80768	32503.85
2366.63195	32504.45
2369.45444	32430.45
2372.27514	32359.15
2375.09405	32348.35
2377.91118	32331.75
2380.72652	32256.55
2383.54009	32190.65
2386.35187	32191.45
2389.16188	32133.15
2391.97011	32136.95
2394.77657	32055.45
2397.58125	32050.15
2400.38416	32028.45
2403.18529	32002.85
2405.98466	31963.75
2408.78226	31876.55
2411.57809	31833.55
2414.37216	31832.15
2417.16446	31861.15
2419.955	31785.55
2422.74378	31754.65
2425.5308	31747.05
2428.31606	31716.45
2431.09956	31699.85
2433.88131	31650.95
2436.6613	31684.65
2439.43954	31696.85
2442.21603	31695.25
2444.99077	31696.25
2447.76377	31674.95
2450.53501	31660.55
2453.30451	31658.75
2456.07226	31702.95
2458.83827	31624.75
2461.60254	31669.05
2464.36507	31640.75
2467.12586	31596.95
2469.88492	31602.05
2472.64224	31590.45
2475.39782	31579.35
2478.15167	31640.45
2480.90379	31627.45
2483.65417	31647.95
2486.40283	31666.85
2489.14976	31643.15
2491.89497	31647.45
2494.63845	31648.45
2497.3802	31672.45
2500.12024	31657.15
2502.85855	31630.95
2505.59514	31645.95
2508.33002	31621.55
2511.06318	31573.95
2513.79462	31542.45
2516.52435	31517.65
2519.25237	31596.75
2521.97867	31623.45
2524.70327	31557.65
2527.42616	31459.45
2530.14734	31535.45
2532.86681	31527.05
2535.58458	31517.75
2538.30065	31452.45
2541.01501	31419.45
2543.72768	31388.05
2546.43864	31376.45
2549.14791	31334.25
2551.85548	31322.15
2554.56136	31278.05
2557.26554	31292.75
2559.96803	31209.25
2562.66883	31237.75
2565.36794	31247.05
2568.06536	31266.65
2570.7611	31266.55
2573.45514	31173.05
2576.14751	31192.75
2578.83819	31130.85
2581.52719	31141.25
2584.21451	31130.15
2586.90015	31132.65
2589.58411	31124.65
2592.2664	31039.65
2594.94701	30980.65
2597.62594	30977.55
2600.30321	30990.85
2602.9788	30950.15
2605.65273	30945.85
2608.32498	30954.55
2610.99557	30908.95
2613.66449	30956.95
2616.33175	30908.35
2618.99734	30923.85
2621.66128	30923.85
2624.32355	30840.25
2626.98416	30864.25
2629.64311	30823.75
2632.30041	30844.95
2634.95605	30774.05
2637.61004	30787.35
2640.26238	30719.35
2642.91306	30738.75
2645.56209	30694.65
2648.20948	30675.05
2650.85521	30705.75
2653.4993	30719.65
2656.14175	30678.95
2658.78255	30709.05
2661.42171	30738.15
2664.05923	30773.95
2666.6951	30789.15
2669.32934	30781.15
2671.96194	30779.35
2674.59291	30768.05
2677.22224	30759.05
2679.84993	30793.55
2682.476	30774.65
2685.10043	30806.85
2687.72324	30767.25
2690.34441	30794.35
2692.96396	30751.65
2695.58188	30736.15
2698.19818	30725.55
2700.81285	30767.55
2703.4259	30737.75
2706.03733	30758.45
2708.64714	30831.85
2711.25533	30829.95
2713.86191	30808.65
2716.46687	30862.35
2719.07021	30826.75
2721.67194	30891.15
2724.27206	30796.85
2726.87057	30869.05
2729.46747	30850.25
2732.06276	30900.75
2734.65644	30916.95
2737.24852	30897.55
2739.83899	30874.75
2742.42786	30899.55
2745.01513	30883.85
2747.60079	30878.75
2750.18486	30864.15
2752.76733	30869.85
2755.3482	30831.95
2757.92747	30855.15
2760.50515	30814.85
2763.08123	30856.25
2765.65573	30771.85
2768.22863	30777.55
2770.79994	30763.55
2773.36967	30752.75
2775.9378	30786.05
2778.50435	30729.85
2781.06932	30689.15
2783.6327	30708.65
2786.1945	30684.65
2788.75471	30670.85
2791.31335	30574.45
2793.87041	30540.25
2796.42589	30518.65
2798.97979	30503.95
2801.53212	30446.95
2804.08288	30445.25
2806.63206	30323.95
2809.17967	30317.45
2811.72571	30175.65
2814.27018	30227.55
2816.81308	30201.85
2819.35442	30142.75
2821.89419	30091.15
2824.43239	30049.15
2826.96904	30059.15
2829.50412	30032.75
2832.03763	29973.05
2834.56959	30011.65
2837.1	29940.65
2839.62884	29967.65
2842.15613	29891.75
2844.68186	29915.25
2847.20604	29902.75
2849.72867	29906.45
2852.24974	29823.85
2854.76927	29826.15
2857.28724	29850.95
2859.80367	29787.85
2862.31855	29752.75
2864.83189	29791.65
2867.34368	29771.85
2869.85393	29826.65
2872.36264	29799.05
2874.8698	29798.75
2877.37543	29838.75
2879.87952	29814.65
2882.38207	29906.55
2884.88308	29891.75
2887.38256	29870.75
2889.88051	29955.05
2892.37692	29941.45
2894.8718	29887.85
2897.36515	29945.15
2899.85698	29972.15
2902.34727	30048.55
2904.83604	30048.65
2907.32328	30095.85
2909.809	30062.85
2912.29319	30063.25
2914.77587	30082.35
2917.25702	30082.15
2919.73665	30046.05
2922.21476	30070.55
2924.69136	29997.65
2927.16644	30022.35
2929.64	29932.55
2932.11205	29937.55
2934.58258	29859.05
2937.05161	29941.55
2939.51912	29934.35
2941.98513	29899.65
2944.44962	29844.25
2946.91261	29737.35
2949.37409	29834.25
2951.83407	29801.25
2954.29254	29782.35
2956.74951	29761.65
2959.20498	29739.85
2961.65895	29685.95
2964.11142	29637.65
2966.56239	29612.95
2969.01186	29592.35
2971.45984	29521.65
2973.90632	29520.65
2976.35131	29468.95
2978.7948	29424.75
2981.23681	29382.05
2983.67732	29345.35
2986.11635	29320.95
2988.55388	29226.25
2990.98993	29200.95
2993.4245	29130.45
2995.85758	29117.15
2998.28917	29032.55
3000.71928	29019.95
3003.14791	28983.35
3005.57506	28966.75
3008.00073	28909.15
3010.42493	28905.75
3012.84764	28804.75
3015.26888	28802.75
3017.68865	28792.75
3020.10694	28789.75
3022.52376	28703.65
3024.9391	28642.25
3027.35298	28626.15
3029.76539	28588.35
3032.17632	28549.45
3034.5858	28572.65
3036.9938	28507.05
3039.40034	28458.45
3041.80542	28446.95
3044.20903	28421.35
3046.61118	28398.65
3049.01187	28369.15
3051.4111	28373.25
3053.80888	28254.15
3056.20519	28206.75
3058.60005	28172.95
3060.99345	28183.05
3063.3854	28106.15
3065.7759	28056.05
3068.16494	28004.75
3070.55254	27920.95
3072.93868	27917.45
3075.32338	27843.55
3077.70662	27904.85
3080.08842	27762.85
3082.46878	27812.45
3084.84769	27731.55
3087.22515	27728.85
3089.60118	27704.85
3091.97576	27695.75
3094.3489	27751.15
3096.72061	27727.15
3099.09087	27666.85
3101.4597	27666.25
3103.82709	27646.85
3106.19305	27607.85
3108.55757	27588.65
3110.92066	27518.75
3113.28232	27516.05
3115.64255	27460.15
3118.00134	27372.85
3120.35871	27355.95
3122.71466	27311.25
3125.06917	27243.85
3127.42226	27198.85
3129.77393	27202.15
3132.12417	27193.95
3134.47299	27176.35
3136.82039	27199.85
3139.16636	27201.05
3141.51092	27190.25
3143.85406	27184.65
3146.19579	27188.55
3148.53609	27191.55
3150.87499	27240.05
3153.21246	27218.75
3155.54853	27260.15
3157.88318	27156.95
3160.21642	27220.25
3162.54826	27183.75
3164.87868	27145.45
3167.2077	27145.05
3169.5353	27122.85
3171.86151	27111.25
3174.18631	27095.05
3176.5097	27047.85
3178.83169	27017.85
3181.15228	27048.05
3183.47147	26969.95
3185.78926	26984.95
3188.10565	26941.65
3190.42065	26949.95
3192.73424	26965.35
3195.04645	26909.95
3197.35725	26912.35
3199.66667	26948.45
3201.97469	26953.15
3204.28132	26916.35
3206.58656	27025.25
3208.8904	27022.35
3211.19287	26998.95
3213.49394	26964.35
3215.79363	26969.15
3218.09193	26966.75
3220.38884	26935.25
3222.68438	26905.15
3224.97853	26856.55
3227.2713	26817.25
3229.56269	26843.45
3231.8527	26836.35
3234.14133	26751.25
3236.42858	26736.35
3238.71446	26722.15
