Data from AgNPs_FTO_APTES_UA_2uM_R6G_10uM_NaF_0.1M_Addition_RamanShift__0__11-43-37-197.txt Node

Date: Fri Dec 17 11:43:37 GMT 2021
User: TCL
Spectrometer: QEP01345
Trigger mode: 4
Integration Time (sec): 7.000000E0
Scans to average: 10
Electric dark correction enabled: true
Nonlinearity correction enabled: false
Boxcar width: 0
XAxis mode: Raman Shifts
Number of Pixels in Spectrum: 1044
>>>>>Begin Spectral Data<<<<<
46.04893	1.025
50.45542	-0.975
54.85868	-0.475
59.25871	0.525
63.6555	57.125
68.04907	59.025
72.43941	63.025
76.82654	67.525
81.21044	69.625
85.59113	72.125
89.96862	72.925
94.34289	74.525
98.71396	76.525
103.08183	79.825
107.4465	81.125
111.80798	83.025
116.16626	88.225
120.52136	87.425
124.87327	92.125
129.222	97.725
133.56755	99.525
137.90993	107.125
142.24913	121.325
146.58517	126.425
150.91804	143.925
155.24774	169.225
159.57429	212.025
163.89768	265.425
168.21792	340.425
172.53501	461.925
176.84895	633.725
181.15975	886.025
185.46741	1238.425
189.77193	1718.925
194.07331	2303.625
198.37157	2971.525
202.6667	3670.725
206.9587	4385.225
211.24758	5074.025
215.53334	5765.925
219.81599	6506.625
224.09553	7303.525
228.37195	8222.025
232.64527	9176.925
236.91549	10199.825
241.18261	11229.425
245.44663	12200.925
249.70755	13114.125
253.96539	13896.925
258.22014	14517.325
262.4718	15043.625
266.72039	15425.625
270.96589	15587.725
275.20832	15587.925
279.44768	15433.125
283.68397	15216.825
287.91719	14983.425
292.14735	14848.325
296.37445	14800.625
300.59849	14839.225
304.81948	14926.625
309.03742	14982.325
313.25231	14996.525
317.46415	14812.225
321.67296	14539.125
325.87872	14303.625
330.08145	14227.525
334.28114	14261.025
338.47781	14396.525
342.67145	14547.725
346.86207	14791.325
351.04966	15095.225
355.23424	15407.725
359.4158	15702.525
363.59435	15944.925
367.76989	16094.825
371.94243	16203.625
376.11196	16285.025
380.27849	16336.525
384.44203	16415.025
388.60257	16482.925
392.76012	16594.025
396.91468	16776.425
401.06626	17007.225
405.21485	17215.225
409.36047	17192.325
413.50311	17076.225
417.64277	16937.225
421.77947	16945.825
425.9132	17054.625
430.04396	17216.525
434.17176	17277.325
438.2966	17333.125
442.41849	17427.525
446.53742	17670.425
450.6534	17971.125
454.76644	18219.725
458.87653	18290.725
462.98368	18244.725
467.08789	18129.525
471.18916	17961.125
475.2875	17753.625
479.38291	17596.125
483.4754	17500.625
487.56496	17437.025
491.6516	17405.525
495.73531	17401.325
499.81612	17382.525
503.89401	17441.725
507.96899	17482.025
512.04106	17391.625
516.11023	17470.525
520.1765	17457.525
524.23987	17457.325
528.30034	17452.525
532.35792	17402.425
536.41261	17291.325
540.46441	17128.525
544.51333	17029.625
548.55936	17094.425
552.60252	17204.525
556.64279	17417.625
560.6802	17562.225
564.71473	17634.325
568.7464	17679.925
572.7752	17788.625
576.80114	17824.625
580.82422	17835.725
584.84444	17975.025
588.86181	18287.125
592.87633	18680.125
596.888	18932.825
600.89682	19085.625
604.9028	19730.725
608.90594	21431.825
612.90624	23213.325
616.90371	22343.925
620.89834	19532.425
624.89015	18181.625
628.87913	17948.625
632.86528	17941.525
636.84862	17940.825
640.82913	17799.825
644.80683	17533.825
648.78172	17325.825
652.75379	17361.925
656.72306	17572.225
660.68952	17868.025
664.65319	17837.525
668.61405	17617.325
672.57211	17620.725
676.52738	17726.325
680.47986	17692.825
684.42955	17590.625
688.37646	17576.725
692.32058	17748.825
696.26192	18020.225
700.20048	18310.425
704.13626	18484.925
708.06928	18449.225
711.99952	18241.925
715.927	18149.125
719.85171	18108.425
723.77365	18089.525
727.69284	17861.125
731.60928	17747.325
735.52295	17654.725
739.43388	17692.225
743.34206	17730.725
747.24749	17762.325
751.15017	17770.525
755.05012	17884.425
758.94733	18134.325
762.8418	18706.825
766.73354	19576.325
770.62254	20519.525
774.50882	20965.725
778.39237	20616.225
782.27321	19757.725
786.15132	18890.425
790.02671	18349.425
793.89938	18047.725
797.76935	17936.525
801.6366	17881.825
805.50115	17799.425
809.36299	17809.725
813.22213	17719.825
817.07857	17683.725
820.93231	17662.625
824.78336	17670.725
828.63172	17714.725
832.47738	17747.425
836.32036	17783.825
840.16066	17848.525
843.99827	17900.625
847.8332	17843.025
851.66546	17836.025
855.49504	17802.825
859.32195	17805.425
863.1462	17843.325
866.96777	17808.225
870.78668	17777.725
874.60293	17808.325
878.41652	17858.325
882.22745	17876.825
886.03573	17988.925
889.84136	17962.225
893.64433	17929.025
897.44466	17878.125
901.24235	17824.125
905.0374	17760.825
908.8298	17795.625
912.61957	17787.025
916.40671	17832.125
920.19121	17890.625
923.97308	18054.225
927.75233	18173.925
931.52895	18202.225
935.30295	18144.125
939.07433	17990.525
942.84309	17848.325
946.60924	17771.725
950.37278	17735.825
954.13371	17679.425
957.89203	17579.825
961.64774	17549.625
965.40086	17524.825
969.15137	17569.825
972.89929	17540.825
976.64461	17645.325
980.38733	17710.125
984.12747	17817.625
987.86502	17984.925
991.59999	18091.625
995.33237	18293.225
999.06217	18484.325
1002.78939	18794.725
1006.51404	18971.225
1010.23611	19101.025
1013.95561	19165.125
1017.67255	19193.725
1021.38692	19099.825
1025.09872	19023.225
1028.80796	19143.025
1032.51465	19357.825
1036.21877	19693.125
1039.92035	19739.025
1043.61937	19640.725
1047.31584	19432.425
1051.00976	19176.125
1054.70114	19010.825
1058.38998	18925.125
1062.07627	18992.425
1065.76003	19111.625
1069.44126	19243.125
1073.11995	19478.925
1076.79611	19721.425
1080.46974	19854.525
1084.14085	19968.625
1087.80943	20016.725
1091.47549	20063.325
1095.13903	20004.925
1098.80005	19779.825
1102.45857	19542.425
1106.11456	19410.025
1109.76805	19318.825
1113.41903	19303.125
1117.06751	19348.825
1120.71348	19462.025
1124.35696	19564.325
1127.99793	19737.925
1131.63641	19767.825
1135.2724	19600.225
1138.90589	19435.325
1142.5369	19304.925
1146.16542	19249.225
1149.79145	19216.725
1153.415	19143.125
1157.03607	19153.025
1160.65467	19311.925
1164.27079	19613.125
1167.88443	20082.325
1171.49561	20728.825
1175.10432	21618.525
1178.71056	22751.725
1182.31434	23919.525
1185.91565	24576.525
1189.51451	24672.725
1193.11091	24343.225
1196.70485	23752.525
1200.29634	23134.625
1203.88538	22556.425
1207.47197	22010.425
1211.05612	21544.825
1214.63782	21214.025
1218.21708	21039.025
1221.79391	20962.025
1225.36829	20919.825
1228.94024	20849.625
1232.50976	20760.825
1236.07685	20685.625
1239.6415	20672.725
1243.20374	20764.925
1246.76355	20956.525
1250.32093	21217.425
1253.8759	21527.925
1257.42845	21911.825
1260.97859	22303.425
1264.52631	22737.325
1268.07163	23099.425
1271.61453	23490.725
1275.15503	23766.825
1278.69312	23986.725
1282.22882	24121.025
1285.76211	24279.125
1289.29301	24499.525
1292.82151	24838.525
1296.34761	25307.525
1299.87133	25944.325
1303.39266	26826.425
1306.9116	27953.725
1310.42815	29000.225
1313.94233	29690.825
1317.45412	29518.825
1320.96354	28928.125
1324.47058	28238.525
1327.97525	27560.925
1331.47754	26814.725
1334.97747	26498.225
1338.47502	26374.825
1341.97022	26354.425
1345.46305	26445.025
1348.95352	26831.825
1352.44163	27460.025
1355.92738	28377.825
1359.41078	29657.925
1362.89183	30830.825
1366.37053	30525.725
1369.84688	28568.125
1373.32088	26172.025
1376.79254	24512.425
1380.26186	23776.525
1383.72883	23510.625
1387.19347	23390.125
1390.65578	22982.725
1394.11575	22484.325
1397.57339	22172.625
1401.0287	21939.625
1404.48168	21877.325
1407.93234	21897.725
1411.38068	21939.425
1414.82669	21935.125
1418.27039	21794.825
1421.71177	21593.625
1425.15083	21387.525
1428.58758	21294.825
1432.02203	21382.925
1435.45416	21556.625
1438.88399	21738.625
1442.31151	21848.625
1445.73673	21947.325
1449.15965	21971.425
1452.58027	21811.025
1455.9986	21709.125
1459.41463	21719.825
1462.82837	21839.025
1466.23982	22100.525
1469.64898	22474.325
1473.05586	22739.725
1476.46045	22956.725
1479.86276	23061.425
1483.26279	23151.825
1486.66054	23294.925
1490.05602	23584.325
1493.44922	23837.425
1496.84016	24186.825
1500.22882	24700.325
1503.61521	25421.425
1506.99934	26337.325
1510.38121	27083.325
1513.76081	27422.725
1517.13816	26921.125
1520.51324	25806.225
1523.88607	24666.125
1527.25665	23803.625
1530.62498	23369.525
1533.99105	23086.925
1537.35488	22854.425
1540.71647	22608.325
1544.07581	22410.625
1547.4329	22258.525
1550.78776	22149.225
1554.14038	22139.125
1557.49077	22112.725
1560.83892	22142.225
1564.18484	22211.525
1567.52853	22328.225
1570.86999	22504.925
1574.20922	22707.825
1577.54624	22761.325
1580.88103	22656.225
1584.2136	22492.225
1587.54395	22568.625
1590.87208	23070.725
1594.19801	23881.125
1597.52172	24716.225
1600.84321	25110.625
1604.16251	24657.025
1607.47959	23683.125
1610.79447	22635.525
1614.10715	21564.225
1617.41763	20682.525
1620.7259	20184.225
1624.03199	19972.425
1627.33587	20005.825
1630.63757	20359.025
1633.93707	20928.325
1637.23439	21851.925
1640.52951	23089.325
1643.82246	24601.325
1647.11321	26008.025
1650.40179	26597.925
1653.68819	25839.225
1656.97241	23988.325
1660.25446	22106.825
1663.53433	20719.225
1666.81203	19837.325
1670.08756	19222.525
1673.36092	18730.025
1676.63211	18359.125
1679.90115	18100.825
1683.16801	17987.025
1686.43272	17927.725
1689.69527	18003.125
1692.95567	18235.125
1696.2139	18703.425
1699.46999	19146.125
1702.72392	19168.525
1705.97571	18692.825
1709.22535	18185.425
1712.47284	17839.725
1715.71819	17672.325
1718.96139	17517.625
1722.20246	17425.325
1725.44139	17388.825
1728.67818	17325.925
1731.91284	17239.425
1735.14537	17208.325
1738.37576	17232.225
1741.60403	17193.525
1744.83017	17185.625
1748.05418	17278.725
1751.27607	17416.525
1754.49584	17658.225
1757.71349	17927.025
1760.92903	18104.325
1764.14244	18059.125
1767.35375	18079.825
1770.56294	18067.525
1773.77002	17902.425
1776.97499	17570.425
1780.17785	17305.325
1783.37861	17103.625
1786.57727	17014.125
1789.77382	16925.125
1792.96828	16859.825
1796.16064	16811.625
1799.3509	16789.225
1802.53907	16759.925
1805.72514	16704.925
1808.90913	16675.325
1812.09102	16660.425
1815.27083	16618.025
1818.44856	16593.425
1821.6242	16594.225
1824.79776	16571.025
1827.96924	16571.425
1831.13864	16542.925
1834.30597	16577.425
1837.47122	16548.425
1840.6344	16560.525
1843.7955	16541.925
1846.95454	16531.525
1850.11151	16545.025
1853.26642	16542.125
1856.41926	16520.425
1859.57004	16535.425
1862.71876	16521.425
1865.86542	16491.125
1869.01003	16475.825
1872.15258	16471.525
1875.29308	16479.025
1878.43152	16455.025
1881.56792	16462.825
1884.70227	16474.825
1887.83457	16466.625
1890.96482	16467.725
1894.09304	16437.625
1897.21921	16408.625
1900.34335	16419.725
1903.46544	16419.825
1906.58551	16374.425
1909.70353	16356.625
1912.81953	16372.325
1915.93349	16322.825
1919.04543	16301.325
1922.15534	16271.425
1925.26322	16296.825
1928.36908	16251.925
1931.47292	16252.225
1934.57473	16222.325
1937.67453	16157.325
1940.77232	16159.925
1943.86808	16126.625
1946.96184	16073.525
1950.05358	16033.525
1953.14331	16020.125
1956.23103	15979.725
1959.31675	15939.825
1962.40046	15899.425
1965.48217	15879.725
1968.56188	15864.125
1971.63959	15849.325
1974.7153	15766.425
1977.78901	15718.925
1980.86073	15686.225
1983.93046	15648.725
1986.99819	15598.625
1990.06394	15583.325
1993.1277	15537.325
1996.18947	15474.225
1999.24925	15459.725
2002.30706	15423.325
2005.36288	15378.725
2008.41672	15354.325
2011.46859	15302.825
2014.51848	15270.825
2017.56639	15225.625
2020.61233	15195.525
2023.6563	15184.325
2026.6983	15185.325
2029.73833	15138.925
2032.7764	15121.725
2035.8125	15085.625
2038.84664	15076.125
2041.87881	15064.125
2044.90903	15047.825
2047.93729	15032.125
2050.96359	15024.225
2053.98794	15010.125
2057.01034	15006.325
2060.03078	14978.025
2063.04927	14950.625
2066.06582	15006.925
2069.08042	14971.125
2072.09307	14957.625
2075.10378	14961.525
2078.11255	14937.725
2081.11938	14947.325
2084.12426	14957.925
2087.12722	14944.025
2090.12824	14967.325
2093.12732	14948.525
2096.12447	14980.825
2099.11969	14989.125
2102.11299	15000.625
2105.10435	14999.625
2108.09379	15035.325
2111.08131	15047.425
2114.0669	15068.625
2117.05057	15087.325
2120.03233	15081.125
2123.01216	15100.825
2125.99008	15135.625
2128.96609	15150.925
2131.94018	15157.825
2134.91236	15164.325
2137.88263	15194.625
2140.851	15184.525
2143.81746	15226.925
2146.78201	15236.325
2149.74466	15241.225
2152.7054	15243.225
2155.66425	15249.425
2158.6212	15255.825
2161.57625	15231.525
2164.52941	15258.125
2167.48067	15290.625
2170.43004	15274.025
2173.37752	15273.725
2176.32311	15274.225
2179.26681	15271.425
2182.20863	15261.725
2185.14856	15271.525
2188.08661	15303.225
2191.02278	15298.725
2193.95707	15294.825
2196.88948	15300.925
2199.82001	15307.125
2202.74867	15282.125
2205.67545	15285.525
2208.60037	15281.425
2211.52341	15267.225
2214.44458	15238.625
2217.36388	15197.625
2220.28132	15193.225
2223.1969	15145.225
2226.11061	15165.025
2229.02246	15120.825
2231.93245	15101.925
2234.84058	15092.225
2237.74686	15097.125
2240.65128	15080.325
2243.55385	15073.225
2246.45456	15041.325
2249.35343	15028.025
2252.25044	15013.625
2255.14561	14990.225
2258.03893	15087.825
2260.93041	15150.725
2263.82004	15049.025
2266.70783	14991.225
2269.59378	14924.025
2272.4779	14894.925
2275.36017	14827.625
2278.24061	14832.325
2281.11922	14821.525
2283.996	14803.525
2286.87094	14771.925
2289.74405	14763.625
2292.61534	14784.725
2295.4848	14780.825
2298.35243	14751.325
2301.21824	14752.125
2304.08223	14766.525
2306.94439	14762.425
2309.80474	14778.625
2312.66327	14780.025
2315.51999	14750.525
2318.37489	14759.825
2321.22797	14754.625
2324.07925	14740.225
2326.92871	14729.725
2329.77637	14713.325
2332.62222	14683.525
2335.46626	14655.325
2338.3085	14679.525
2341.14893	14688.325
2343.98756	14686.125
2346.8244	14669.225
2349.65943	14652.125
2352.49267	14629.725
2355.32411	14597.225
2358.15376	14595.625
2360.98161	14585.225
2363.80768	14547.425
2366.63195	14581.925
2369.45444	14551.725
2372.27514	14507.625
2375.09405	14513.625
2377.91118	14500.425
2380.72652	14459.525
2383.54009	14470.225
2386.35187	14483.225
2389.16188	14448.325
2391.97011	14427.325
2394.77657	14394.225
2397.58125	14366.225
2400.38416	14370.225
2403.18529	14346.825
2405.98466	14352.025
2408.78226	14346.025
2411.57809	14319.625
2414.37216	14303.925
2417.16446	14281.425
2419.955	14262.425
2422.74378	14246.825
2425.5308	14240.625
2428.31606	14245.525
2431.09956	14216.325
2433.88131	14220.125
2436.6613	14225.625
2439.43954	14190.425
2442.21603	14219.325
2444.99077	14173.525
2447.76377	14151.425
2450.53501	14167.525
2453.30451	14193.125
2456.07226	14158.125
2458.83827	14160.325
2461.60254	14147.225
2464.36507	14162.225
2467.12586	14141.925
2469.88492	14119.225
2472.64224	14157.925
2475.39782	14221.825
2478.15167	14220.025
2480.90379	14141.925
2483.65417	14146.225
2486.40283	14132.625
2489.14976	14146.525
2491.89497	14096.725
2494.63845	14252.525
2497.3802	14242.025
2500.12024	14168.925
2502.85855	14147.625
2505.59514	14103.825
2508.33002	14076.025
2511.06318	14055.325
2513.79462	14029.625
2516.52435	14042.225
2519.25237	14059.125
2521.97867	14022.925
2524.70327	14028.425
2527.42616	13990.125
2530.14734	13974.025
2532.86681	13976.625
2535.58458	13956.725
2538.30065	13938.625
2541.01501	13941.025
2543.72768	13897.725
2546.43864	13915.125
2549.14791	13893.225
2551.85548	13871.625
2554.56136	13861.025
2557.26554	13819.725
2559.96803	13833.925
2562.66883	13824.425
2565.36794	13799.125
2568.06536	13824.725
2570.7611	13799.025
2573.45514	13754.225
2576.14751	13735.725
2578.83819	13733.525
2581.52719	13727.525
2584.21451	13703.325
2586.90015	13672.725
2589.58411	13675.725
2592.2664	13665.525
2594.94701	13622.825
2597.62594	13593.425
2600.30321	13590.425
2602.9788	13562.225
2605.65273	13559.225
2608.32498	13561.525
2610.99557	13552.725
2613.66449	13544.525
2616.33175	13533.925
2618.99734	13538.925
2621.66128	13515.725
2624.32355	13507.925
2626.98416	13485.825
2629.64311	13484.125
2632.30041	13497.225
2634.95605	13439.425
2637.61004	13445.425
2640.26238	13415.725
2642.91306	13403.525
2645.56209	13399.225
2648.20948	13416.725
2650.85521	13392.125
2653.4993	13395.025
2656.14175	13383.625
2658.78255	13421.425
2661.42171	13392.825
2664.05923	13404.925
2666.6951	13371.525
2669.32934	13395.125
2671.96194	13399.325
2674.59291	13383.825
2677.22224	13408.425
2679.84993	13401.325
2682.476	13358.225
2685.10043	13395.125
2687.72324	13399.925
2690.34441	13405.925
2692.96396	13370.125
2695.58188	13404.225
2698.19818	13424.125
2700.81285	13443.725
2703.4259	13639.425
2706.03733	14099.425
2708.64714	13776.925
2711.25533	13631.125
2713.86191	13553.125
2716.46687	13536.725
2719.07021	13460.425
2721.67194	13459.625
2724.27206	13416.725
2726.87057	13426.625
2729.46747	13403.925
2732.06276	13447.525
2734.65644	13420.925
2737.24852	13445.325
2739.83899	13426.525
2742.42786	13396.025
2745.01513	13392.025
2747.60079	13389.925
2750.18486	13372.425
2752.76733	13370.525
2755.3482	13385.325
2757.92747	13356.125
2760.50515	13332.525
2763.08123	13343.325
2765.65573	13307.025
2768.22863	13330.725
2770.79994	13301.925
2773.36967	13310.125
2775.9378	13294.625
2778.50435	13243.125
2781.06932	13263.725
2783.6327	13218.625
2786.1945	13243.225
2788.75471	13240.225
2791.31335	13217.925
2793.87041	13186.425
2796.42589	13124.025
2798.97979	13119.625
2801.53212	13123.425
2804.08288	13097.125
2806.63206	13087.625
2809.17967	13059.325
2811.72571	13030.025
2814.27018	13016.625
2816.81308	12976.625
2819.35442	12980.025
2821.89419	12967.725
2824.43239	12959.125
2826.96904	12939.925
2829.50412	12926.825
2832.03763	12909.425
2834.56959	12924.225
2837.1	12874.025
2839.62884	12914.525
2842.15613	12874.625
2844.68186	12930.225
2847.20604	12876.425
2849.72867	12906.725
2852.24974	12904.925
2854.76927	12990.925
2857.28724	13058.925
2859.80367	12990.125
2862.31855	12952.025
2864.83189	12946.825
2867.34368	12889.925
2869.85393	12896.625
2872.36264	12856.925
2874.8698	12869.825
2877.37543	12884.425
2879.87952	12868.625
2882.38207	12900.525
2884.88308	12903.725
2887.38256	12895.525
2889.88051	12900.525
2892.37692	12886.225
2894.8718	12910.025
2897.36515	12914.825
2899.85698	12906.525
2902.34727	12943.425
2904.83604	12953.625
2907.32328	12960.125
2909.809	12933.925
2912.29319	12962.625
2914.77587	12927.825
2917.25702	12942.425
2919.73665	12941.325
2922.21476	12925.225
2924.69136	12886.725
2927.16644	12906.525
2929.64	12874.025
2932.11205	12844.125
2934.58258	12829.925
2937.05161	12859.125
2939.51912	12832.525
2941.98513	12842.025
2944.44962	12818.625
2946.91261	12747.025
2949.37409	12797.725
2951.83407	12776.225
2954.29254	12773.225
2956.74951	12749.525
2959.20498	12742.625
2961.65895	12710.925
2964.11142	12701.225
2966.56239	12667.825
2969.01186	12691.625
2971.45984	12632.125
2973.90632	12632.525
2976.35131	12631.325
2978.7948	12623.725
2981.23681	12559.625
2983.67732	12552.925
2986.11635	12501.225
2988.55388	12529.225
2990.98993	12515.825
2993.4245	12474.025
2995.85758	12470.025
2998.28917	12429.825
3000.71928	12433.925
3003.14791	12397.825
3005.57506	12414.525
3008.00073	12398.725
3010.42493	12361.325
3012.84764	12351.825
3015.26888	12332.825
3017.68865	12322.025
3020.10694	12329.925
3022.52376	12301.225
3024.9391	12266.525
3027.35298	12257.825
3029.76539	12254.925
3032.17632	12211.025
3034.5858	12215.925
3036.9938	12181.225
3039.40034	12172.225
3041.80542	12182.725
3044.20903	12142.025
3046.61118	12161.225
3049.01187	12102.125
3051.4111	12125.925
3053.80888	12081.625
3056.20519	12059.725
3058.60005	12044.825
3060.99345	12036.625
3063.3854	12007.025
3065.7759	11995.125
3068.16494	11988.425
3070.55254	11943.925
3072.93868	11929.125
3075.32338	11934.825
3077.70662	11934.725
3080.08842	11901.125
3082.46878	11909.025
3084.84769	11868.425
3087.22515	11879.325
3089.60118	11879.625
3091.97576	11853.025
3094.3489	11885.925
3096.72061	11861.725
3099.09087	11886.325
3101.4597	11839.425
3103.82709	11826.225
3106.19305	11838.625
3108.55757	11827.325
3110.92066	11766.125
3113.28232	11771.925
3115.64255	11736.425
3118.00134	11717.025
3120.35871	11717.325
3122.71466	11671.325
3125.06917	11674.125
3127.42226	11640.625
3129.77393	11644.725
