Data from AgNPs_FTO_APTES_UA_5uM_R6G_10uM_NaF_0.1M_Addition_RamanShift__12__12-39-37-261.txt Node

Date: Fri Dec 17 12:39:37 GMT 2021
User: TCL
Spectrometer: QEP01345
Trigger mode: 4
Integration Time (sec): 7.000000E0
Scans to average: 10
Electric dark correction enabled: true
Nonlinearity correction enabled: false
Boxcar width: 0
XAxis mode: Raman Shifts
Number of Pixels in Spectrum: 1044
>>>>>Begin Spectral Data<<<<<
46.04893	-0.85
50.45542	-0.45
54.85868	-1.35
59.25871	-0.15
63.6555	112.45
68.04907	116.25
72.43941	122.55
76.82654	128.35
81.21044	134.55
85.59113	137.15
89.96862	141.55
94.34289	148.75
98.71396	156.45
103.08183	157.45
107.4465	160.85
111.80798	165.85
116.16626	172.15
120.52136	175.25
124.87327	187.75
129.222	190.05
133.56755	200.95
137.90993	219.35
142.24913	238.85
146.58517	260.55
150.91804	301.65
155.24774	353.45
159.57429	440.25
163.89768	553.95
168.21792	733.45
172.53501	992.35
176.84895	1364.55
181.15975	1911.75
185.46741	2677.25
189.77193	3669.95
194.07331	4952.95
198.37157	6378.85
202.6667	7901.05
206.9587	9388.55
211.24758	10853.15
215.53334	12281.05
219.81599	13802.65
224.09553	15420.55
228.37195	17337.95
232.64527	19372.95
236.91549	21572.45
241.18261	23824.05
245.44663	26051.75
249.70755	28047.15
253.96539	29798.35
258.22014	31222.75
262.4718	32402.05
266.72039	33123.95
270.96589	33504.45
275.20832	33537.15
279.44768	33307.65
283.68397	32973.15
287.91719	32622.25
292.14735	32318.55
296.37445	32053.65
300.59849	31966.85
304.81948	31923.35
309.03742	31864.65
313.25231	31708.15
317.46415	31381.45
321.67296	30999.75
325.87872	30603.35
330.08145	30454.85
334.28114	30535.15
338.47781	30723.15
342.67145	31087.45
346.86207	31443.05
351.04966	31844.45
355.23424	32344.05
359.4158	32799.85
363.59435	33134.75
367.76989	33395.85
371.94243	33566.15
376.11196	33716.65
380.27849	33881.65
384.44203	34095.95
388.60257	34345.95
392.76012	34659.45
396.91468	35059.95
401.06626	35540.25
405.21485	35877.05
409.36047	35920.25
413.50311	35676.75
417.64277	35533.15
421.77947	35599.85
425.9132	35886.25
430.04396	36094.95
434.17176	36259.65
438.2966	36403.85
442.41849	36671.95
446.53742	37141.45
450.6534	37640.95
454.76644	38057.35
458.87653	38303.85
462.98368	38314.25
467.08789	38207.15
471.18916	37957.15
475.2875	37651.45
479.38291	37354.25
483.4754	37135.25
487.56496	36861.65
491.6516	36629.75
495.73531	36525.85
499.81612	36523.65
503.89401	36706.65
507.96899	36916.75
512.04106	37106.35
516.11023	37077.15
520.1765	36837.05
524.23987	36586.45
528.30034	36358.15
532.35792	36107.15
536.41261	35915.15
540.46441	35791.25
544.51333	35781.95
548.55936	36033.35
552.60252	36509.45
556.64279	36981.75
560.6802	37234.85
564.71473	37383.55
568.7464	37687.05
572.7752	38243.15
576.80114	39012.85
580.82422	39944.65
584.84444	40877.15
588.86181	41712.35
592.87633	42269.75
596.888	42195.75
600.89682	41576.85
604.9028	41818.85
608.90594	43562.45
612.90624	45271.35
616.90371	43347.55
620.89834	39232.65
624.89015	37439.95
628.87913	37217.85
632.86528	37395.35
636.84862	37513.55
640.82913	37179.55
644.80683	36548.85
648.78172	36134.65
652.75379	36063.15
656.72306	36339.55
660.68952	36772.35
664.65319	36660.35
668.61405	36397.95
672.57211	36317.45
676.52738	36492.25
680.47986	36443.05
684.42955	36294.95
688.37646	36224.25
692.32058	36394.45
696.26192	36671.05
700.20048	36987.45
704.13626	37210.75
708.06928	37270.95
711.99952	37169.25
715.927	37023.95
719.85171	37024.55
723.77365	36873.75
727.69284	36565.25
731.60928	36262.75
735.52295	36121.15
739.43388	36058.65
743.34206	36129.55
747.24749	36266.95
751.15017	36495.45
755.05012	36837.75
758.94733	37485.45
762.8418	38569.15
766.73354	40200.55
770.62254	41838.15
774.50882	42049.25
778.39237	40986.55
782.27321	39405.95
786.15132	38045.35
790.02671	37157.15
793.89938	36601.45
797.76935	36385.65
801.6366	36260.25
805.50115	36133.35
809.36299	36071.95
813.22213	35851.35
817.07857	35734.85
820.93231	35645.95
824.78336	35614.85
828.63172	35582.05
832.47738	35557.85
836.32036	35529.95
840.16066	35471.05
843.99827	35498.35
847.8332	35516.45
851.66546	35560.65
855.49504	35628.55
859.32195	35655.35
863.1462	35637.85
866.96777	35671.25
870.78668	35641.75
874.60293	35693.35
878.41652	35771.25
882.22745	35796.05
886.03573	35994.75
889.84136	36010.15
893.64433	35952.15
897.44466	35876.35
901.24235	35842.15
905.0374	35796.35
908.8298	35807.65
912.61957	35847.25
916.40671	36034.45
920.19121	36261.55
923.97308	36468.45
927.75233	36441.85
931.52895	36238.45
935.30295	35883.45
939.07433	35497.65
942.84309	35257.15
946.60924	35078.65
950.37278	34984.45
954.13371	34958.85
957.89203	34914.95
961.64774	34862.15
965.40086	34832.45
969.15137	34809.25
972.89929	34712.25
976.64461	34636.85
980.38733	34647.55
984.12747	34676.35
987.86502	34771.75
991.59999	34817.15
995.33237	35071.15
999.06217	35392.15
1002.78939	35768.25
1006.51404	36316.85
1010.23611	36838.85
1013.95561	37085.95
1017.67255	37127.45
1021.38692	36854.55
1025.09872	36529.95
1028.80796	36134.15
1032.51465	35961.35
1036.21877	35894.95
1039.92035	35984.55
1043.61937	36126.95
1047.31584	36269.65
1051.00976	36335.65
1054.70114	36433.85
1058.38998	36659.15
1062.07627	36946.25
1065.76003	37364.15
1069.44126	37743.35
1073.11995	38242.35
1076.79611	38680.05
1080.46974	38910.35
1084.14085	38926.05
1087.80943	39086.65
1091.47549	39290.85
1095.13903	39393.15
1098.80005	39197.15
1102.45857	38668.55
1106.11456	38123.85
1109.76805	37764.15
1113.41903	37628.75
1117.06751	37549.05
1120.71348	37673.55
1124.35696	37857.05
1127.99793	38079.05
1131.63641	38302.25
1135.2724	38271.55
1138.90589	38218.15
1142.5369	38232.75
1146.16542	38392.35
1149.79145	38495.85
1153.415	38609.25
1157.03607	38766.15
1160.65467	39382.55
1164.27079	40332.25
1167.88443	41572.15
1171.49561	42931.75
1175.10432	44588.05
1178.71056	46555.75
1182.31434	48563.45
1185.91565	50053.45
1189.51451	50950.25
1193.11091	50976.95
1196.70485	50061.75
1200.29634	48673.45
1203.88538	47360.25
1207.47197	46388.25
1211.05612	45726.45
1214.63782	45064.85
1218.21708	44217.45
1221.79391	43404.85
1225.36829	42800.75
1228.94024	42431.45
1232.50976	42308.95
1236.07685	42323.15
1239.6415	42219.25
1243.20374	42274.45
1246.76355	42474.25
1250.32093	42852.75
1253.8759	43378.55
1257.42845	44223.45
1260.97859	45098.35
1264.52631	45968.45
1268.07163	46847.65
1271.61453	47633.95
1275.15503	48326.45
1278.69312	49111.25
1282.22882	49755.85
1285.76211	50485.35
1289.29301	51276.75
1292.82151	52287.85
1296.34761	53549.75
1299.87133	54991.05
1303.39266	56626.25
1306.9116	58292.75
1310.42815	59622.45
1313.94233	60432.85
1317.45412	60394.05
1320.96354	60219.75
1324.47058	60270.15
1327.97525	60424.35
1331.47754	60705.85
1334.97747	61116.55
1338.47502	61670.75
1341.97022	62439.15
1345.46305	62931.85
1348.95352	63206.35
1352.44163	62888.75
1355.92738	62516.15
1359.41078	62323.05
1362.89183	62154.65
1366.37053	60740.95
1369.84688	57656.25
1373.32088	54048.95
1376.79254	51130.55
1380.26186	49692.85
1383.72883	49206.55
1387.19347	48979.35
1390.65578	48536.55
1394.11575	48169.25
1397.57339	48162.25
1401.0287	48442.95
1404.48168	48759.95
1407.93234	48830.35
1411.38068	48458.65
1414.82669	47739.65
1418.27039	46634.15
1421.71177	45590.85
1425.15083	44773.75
1428.58758	44481.85
1432.02203	44664.55
1435.45416	45291.15
1438.88399	46056.25
1442.31151	46640.75
1445.73673	46904.15
1449.15965	47054.15
1452.58027	47177.15
1455.9986	47289.85
1459.41463	47672.15
1462.82837	48359.25
1466.23982	49081.25
1469.64898	49588.95
1473.05586	49881.15
1476.46045	49955.45
1479.86276	49721.65
1483.26279	49503.75
1486.66054	49397.45
1490.05602	49596.35
1493.44922	50023.85
1496.84016	50769.05
1500.22882	51714.05
1503.61521	52942.65
1506.99934	54135.75
1510.38121	54944.75
1513.76081	54917.45
1517.13816	54125.15
1520.51324	53065.35
1523.88607	52179.25
1527.25665	51687.35
1530.62498	51484.65
1533.99105	51239.45
1537.35488	50787.95
1540.71647	50128.05
1544.07581	49218.55
1547.4329	48411.45
1550.78776	47786.95
1554.14038	47244.15
1557.49077	46972.45
1560.83892	46912.15
1564.18484	46910.15
1567.52853	46921.75
1570.86999	47126.05
1574.20922	47527.25
1577.54624	47978.85
1580.88103	48027.05
1584.2136	48048.15
1587.54395	48490.05
1590.87208	49663.25
1594.19801	51179.95
1597.52172	52824.25
1600.84321	53297.85
1604.16251	52054.45
1607.47959	49948.85
1610.79447	47559.75
1614.10715	45039.05
1617.41763	42789.15
1620.7259	41036.05
1624.03199	40034.65
1627.33587	39729.25
1630.63757	40310.75
1633.93707	41827.65
1637.23439	44359.75
1640.52951	47911.95
1643.82246	51778.65
1647.11321	54635.25
1650.40179	54839.55
1653.68819	52154.95
1656.97241	47705.15
1660.25446	43170.45
1663.53433	39708.65
1666.81203	37393.65
1670.08756	35867.95
1673.36092	34846.55
1676.63211	34216.05
1679.90115	33765.85
1683.16801	33383.95
1686.43272	33134.25
1689.69527	32917.45
1692.95567	32746.65
1696.2139	32584.45
1699.46999	32511.85
1702.72392	32444.05
1705.97571	32388.25
1709.22535	32315.25
1712.47284	32286.45
1715.71819	32317.75
1718.96139	32174.45
1722.20246	32096.75
1725.44139	32023.15
1728.67818	31915.75
1731.91284	31744.15
1735.14537	31584.95
1738.37576	31497.85
1741.60403	31385.95
1744.83017	31273.35
1748.05418	31221.75
1751.27607	31143.75
1754.49584	31101.45
1757.71349	31103.15
1760.92903	31069.45
1764.14244	31063.05
1767.35375	31067.05
1770.56294	31034.85
1773.77002	30939.55
1776.97499	30917.65
1780.17785	30857.05
1783.37861	30823.75
1786.57727	30778.45
1789.77382	30694.65
1792.96828	30652.95
1796.16064	30647.75
1799.3509	30596.15
1802.53907	30528.45
1805.72514	30514.05
1808.90913	30381.95
1812.09102	30395.55
1815.27083	30302.05
1818.44856	30306.85
1821.6242	30246.65
1824.79776	30242.45
1827.96924	30228.25
1831.13864	30225.65
1834.30597	30233.05
1837.47122	30245.85
1840.6344	30210.35
1843.7955	30236.25
1846.95454	30211.25
1850.11151	30226.85
1853.26642	30196.95
1856.41926	30223.35
1859.57004	30184.05
1862.71876	30118.95
1865.86542	30084.45
1869.01003	30018.55
1872.15258	29981.65
1875.29308	29922.05
1878.43152	29892.45
1881.56792	29821.95
1884.70227	29838.55
1887.83457	29759.25
1890.96482	29707.25
1894.09304	29679.35
1897.21921	29602.55
1900.34335	29558.75
1903.46544	29560.85
1906.58551	29520.65
1909.70353	29467.25
1912.81953	29382.45
1915.93349	29296.15
1919.04543	29275.05
1922.15534	29244.55
1925.26322	29149.55
1928.36908	29094.15
1931.47292	29066.05
1934.57473	28953.05
1937.67453	28845.95
1940.77232	28819.35
1943.86808	28710.65
1946.96184	28675.45
1950.05358	28600.55
1953.14331	28539.35
1956.23103	28416.55
1959.31675	28368.75
1962.40046	28280.55
1965.48217	28240.45
1968.56188	28097.75
1971.63959	28028.75
1974.7153	27911.55
1977.78901	27856.95
1980.86073	27787.15
1983.93046	27666.25
1986.99819	27586.95
1990.06394	27542.15
1993.1277	27466.85
1996.18947	27358.85
1999.24925	27298.85
2002.30706	27189.65
2005.36288	27113.95
2008.41672	27085.45
2011.46859	27014.65
2014.51848	26895.15
2017.56639	26826.95
2020.61233	26808.55
2023.6563	26716.05
2026.6983	26650.45
2029.73833	26571.85
2032.7764	26528.75
2035.8125	26473.45
2038.84664	26396.75
2041.87881	26355.35
2044.90903	26306.95
2047.93729	26263.45
2050.96359	26246.75
2053.98794	26180.05
2057.01034	26151.35
2060.03078	26169.95
2063.04927	26121.85
2066.06582	26119.35
2069.08042	26073.15
2072.09307	26072.95
2075.10378	26042.45
2078.11255	26045.15
2081.11938	26016.35
2084.12426	25966.05
2087.12722	25957.45
2090.12824	25968.15
2093.12732	25923.65
2096.12447	26001.75
2099.11969	25974.95
2102.11299	26006.15
2105.10435	25976.05
2108.09379	26014.55
2111.08131	26020.65
2114.0669	26048.65
2117.05057	26060.45
2120.03233	26073.75
2123.01216	26077.85
2125.99008	26088.85
2128.96609	26122.15
2131.94018	26130.55
2134.91236	26148.35
2137.88263	26140.55
2140.851	26146.05
2143.81746	26165.45
2146.78201	26224.75
2149.74466	26174.35
2152.7054	26161.85
2155.66425	26162.75
2158.6212	26121.65
2161.57625	26135.25
2164.52941	26134.95
2167.48067	26123.75
2170.43004	26110.65
2173.37752	26087.75
2176.32311	26100.85
2179.26681	26042.25
2182.20863	26048.85
2185.14856	26087.55
2188.08661	26077.75
2191.02278	26052.75
2193.95707	26037.75
2196.88948	26040.45
2199.82001	25990.65
2202.74867	25941.25
2205.67545	25951.65
2208.60037	25873.05
2211.52341	25852.85
2214.44458	25822.35
2217.36388	25759.05
2220.28132	25748.65
2223.1969	25637.85
2226.11061	25631.05
2229.02246	25597.85
2231.93245	25545.65
2234.84058	25499.45
2237.74686	25473.55
2240.65128	25441.85
2243.55385	25425.65
2246.45456	25339.35
2249.35343	25302.45
2252.25044	25224.25
2255.14561	25232.15
2258.03893	25183.85
2260.93041	25131.85
2263.82004	25071.85
2266.70783	25032.65
2269.59378	24970.25
2272.4779	24921.75
2275.36017	24853.15
2278.24061	24822.25
2281.11922	24742.85
2283.996	24660.95
2286.87094	24694.35
2289.74405	24610.95
2292.61534	24612.05
2295.4848	24530.45
2298.35243	24563.55
2301.21824	24502.95
2304.08223	24514.75
2306.94439	24506.15
2309.80474	24442.75
2312.66327	24441.15
2315.51999	24415.55
2318.37489	24385.35
2321.22797	24367.25
2324.07925	24365.05
2326.92871	24322.85
2329.77637	24237.35
2332.62222	24191.15
2335.46626	24179.15
2338.3085	24130.55
2341.14893	24129.05
2343.98756	24102.85
2346.8244	24095.35
2349.65943	24113.15
2352.49267	24054.35
2355.32411	24058.95
2358.15376	23990.15
2360.98161	23970.75
2363.80768	23956.95
2366.63195	23938.65
2369.45444	23908.65
2372.27514	23918.05
2375.09405	23867.85
2377.91118	23852.05
2380.72652	23759.85
2383.54009	23697.05
2386.35187	23705.55
2389.16188	23614.35
2391.97011	23577.55
2394.77657	23515.75
2397.58125	23496.65
2400.38416	23435.85
2403.18529	23413.55
2405.98466	23405.55
2408.78226	23358.05
2411.57809	23331.55
2414.37216	23310.35
2417.16446	23306.85
2419.955	23272.35
2422.74378	23206.85
2425.5308	23170.35
2428.31606	23183.45
2431.09956	23198.75
2433.88131	23127.45
2436.6613	23135.05
2439.43954	23143.45
2442.21603	23104.75
2444.99077	23100.75
2447.76377	23074.75
2450.53501	23011.95
2453.30451	23040.75
2456.07226	23010.65
2458.83827	22947.85
2461.60254	22934.05
2464.36507	22904.05
2467.12586	22933.65
2469.88492	22886.55
2472.64224	22920.75
2475.39782	22875.15
2478.15167	22848.65
2480.90379	22779.35
2483.65417	22792.25
2486.40283	22777.45
2489.14976	22792.55
2491.89497	22751.25
2494.63845	22763.45
2497.3802	22700.55
2500.12024	22688.25
2502.85855	22651.15
2505.59514	22671.75
2508.33002	22657.45
2511.06318	22628.45
2513.79462	22582.95
2516.52435	22579.05
2519.25237	22610.35
2521.97867	22567.85
2524.70327	22580.95
2527.42616	22521.05
2530.14734	22498.95
2532.86681	22462.15
2535.58458	22454.55
2538.30065	22366.25
2541.01501	22341.95
2543.72768	22340.75
2546.43864	22333.95
2549.14791	22298.55
2551.85548	22235.95
2554.56136	22182.65
2557.26554	22176.65
2559.96803	22162.85
2562.66883	22109.05
2565.36794	22082.85
2568.06536	22033.95
2570.7611	22025.75
2573.45514	21987.95
2576.14751	21939.95
2578.83819	21918.65
2581.52719	21883.75
2584.21451	21816.25
2586.90015	21836.35
2589.58411	21766.65
2592.2664	21757.05
2594.94701	21691.05
2597.62594	21685.95
2600.30321	21628.55
2602.9788	21601.15
2605.65273	21539.55
2608.32498	21530.15
2610.99557	21505.15
2613.66449	21485.15
2616.33175	21499.85
2618.99734	21466.55
2621.66128	21446.05
2624.32355	21425.25
2626.98416	21336.25
2629.64311	21331.25
2632.30041	21348.15
2634.95605	21323.75
2637.61004	21259.95
2640.26238	21226.55
2642.91306	21236.15
2645.56209	21258.35
2648.20948	21265.65
2650.85521	21241.25
2653.4993	21221.25
2656.14175	21213.95
2658.78255	21203.45
2661.42171	21188.05
2664.05923	21238.05
2666.6951	21200.35
2669.32934	21217.95
2671.96194	21219.95
2674.59291	21214.15
2677.22224	21210.65
2679.84993	21190.15
2682.476	21202.65
2685.10043	21196.95
2687.72324	21155.45
2690.34441	21178.35
2692.96396	21147.95
2695.58188	21155.35
2698.19818	21130.85
2700.81285	21154.55
2703.4259	21111.05
2706.03733	21182.55
2708.64714	21148.45
2711.25533	21151.55
2713.86191	21118.15
2716.46687	21153.35
2719.07021	21156.15
2721.67194	21155.65
2724.27206	21091.05
2726.87057	21128.25
2729.46747	21138.65
2732.06276	21155.35
2734.65644	21154.95
2737.24852	21112.75
2739.83899	21092.55
2742.42786	21109.05
2745.01513	21051.55
2747.60079	21047.35
2750.18486	21034.45
2752.76733	21027.95
2755.3482	20970.85
2757.92747	20959.35
2760.50515	20944.05
2763.08123	20910.05
2765.65573	20856.15
2768.22863	20860.45
2770.79994	20842.45
2773.36967	20813.35
2775.9378	20773.55
2778.50435	20731.95
2781.06932	20730.65
2783.6327	20663.05
2786.1945	20649.75
2788.75471	20641.95
2791.31335	20559.95
2793.87041	20525.85
2796.42589	20494.45
2798.97979	20440.15
2801.53212	20385.85
2804.08288	20405.55
2806.63206	20294.45
2809.17967	20323.35
2811.72571	20257.05
2814.27018	20272.65
2816.81308	20235.05
2819.35442	20175.05
2821.89419	20123.05
2824.43239	20090.75
2826.96904	20069.95
2829.50412	20046.55
2832.03763	20003.65
2834.56959	20028.45
2837.1	19927.55
2839.62884	19938.25
2842.15613	19874.45
2844.68186	19909.55
2847.20604	19866.55
2849.72867	19892.05
2852.24974	19858.45
2854.76927	19836.75
2857.28724	19802.15
2859.80367	19757.95
2862.31855	19713.75
2864.83189	19721.85
2867.34368	19670.15
2869.85393	19685.75
2872.36264	19633.65
2874.8698	19645.95
2877.37543	19653.45
2879.87952	19662.35
2882.38207	19624.75
2884.88308	19627.65
2887.38256	19633.55
2889.88051	19650.15
2892.37692	19612.85
2894.8718	19601.15
2897.36515	19609.35
2899.85698	19582.45
2902.34727	19627.25
2904.83604	19621.75
2907.32328	19658.05
2909.809	19612.65
2912.29319	19590.45
2914.77587	19590.95
2917.25702	19616.85
2919.73665	19571.55
2922.21476	19594.65
2924.69136	19571.55
2927.16644	19548.95
2929.64	19521.85
2932.11205	19507.15
2934.58258	19407.75
2937.05161	19460.95
2939.51912	19485.55
2941.98513	19397.55
2944.44962	19403.25
2946.91261	19300.55
2949.37409	19383.45
2951.83407	19336.55
2954.29254	19327.65
2956.74951	19326.95
2959.20498	19271.45
2961.65895	19289.65
2964.11142	19257.15
2966.56239	19167.85
2969.01186	19175.45
2971.45984	19109.65
2973.90632	19106.85
2976.35131	19104.95
2978.7948	19063.65
2981.23681	19012.75
2983.67732	18966.25
2986.11635	18956.15
2988.55388	18912.75
2990.98993	18857.55
2993.4245	18801.55
2995.85758	18778.45
2998.28917	18752.55
3000.71928	18706.15
3003.14791	18661.95
3005.57506	18658.35
3008.00073	18615.55
3010.42493	18562.35
3012.84764	18562.45
3015.26888	18538.45
3017.68865	18526.15
3020.10694	18503.25
3022.52376	18407.95
3024.9391	18411.85
3027.35298	18353.75
3029.76539	18350.55
3032.17632	18296.75
3034.5858	18264.35
3036.9938	18252.65
3039.40034	18205.75
3041.80542	18227.65
3044.20903	18169.55
3046.61118	18144.15
3049.01187	18086.65
3051.4111	18099.85
3053.80888	18021.25
3056.20519	17995.15
3058.60005	17963.55
3060.99345	17945.75
3063.3854	17924.65
3065.7759	17873.05
3068.16494	17814.55
3070.55254	17719.05
3072.93868	17705.05
3075.32338	17623.25
3077.70662	17629.75
3080.08842	17594.25
3082.46878	17590.85
3084.84769	17529.45
3087.22515	17530.85
3089.60118	17475.95
3091.97576	17457.75
3094.3489	17477.95
3096.72061	17444.25
3099.09087	17427.95
3101.4597	17412.05
3103.82709	17413.95
3106.19305	17399.45
3108.55757	17365.05
3110.92066	17292.25
3113.28232	17252.15
3115.64255	17215.15
3118.00134	17188.15
3120.35871	17134.95
3122.71466	17117.75
3125.06917	17057.65
3127.42226	17016.05
3129.77393	17062.95
3132.12417	17029.05
3134.47299	17007.05
3136.82039	17000.25
3139.16636	16988.85
3141.51092	16963.75
3143.85406	17004.55
3146.19579	17015.95
3148.53609	16960.95
3150.87499	17004.45
3153.21246	17003.95
3155.54853	16995.65
3157.88318	16934.65
3160.21642	16945.35
3162.54826	16919.35
3164.87868	16888.55
3167.2077	16882.25
3169.5353	16859.35
3171.86151	16846.15
3174.18631	16858.75
3176.5097	16812.15
3178.83169	16788.15
3181.15228	16772.05
3183.47147	16729.55
3185.78926	16725.65
3188.10565	16719.45
3190.42065	16708.35
3192.73424	16702.35
3195.04645	16697.15
3197.35725	16675.25
3199.66667	16646.85
3201.97469	16682.65
3204.28132	16639.75
3206.58656	16690.25
3208.8904	16658.95
3211.19287	16666.15
3213.49394	16594.45
3215.79363	16610.85
3218.09193	16597.55
3220.38884	16580.55
3222.68438	16545.85
3224.97853	16540.95
3227.2713	16533.65
3229.56269	16487.25
3231.8527	16480.95
3234.14133	16419.55
3236.42858	16359.25
3238.71446	16348.35
