Data from AgNPs_FTO_APTES_UA_1uM_R6G_10uM_NaF_0.1M_Addition_RamanShift__9__11-14-27-163.txt Node

Date: Fri Dec 17 11:14:27 GMT 2021
User: TCL
Spectrometer: QEP01345
Trigger mode: 4
Integration Time (sec): 7.000000E0
Scans to average: 10
Electric dark correction enabled: true
Nonlinearity correction enabled: false
Boxcar width: 0
XAxis mode: Raman Shifts
Number of Pixels in Spectrum: 1044
>>>>>Begin Spectral Data<<<<<
46.04893	-1.2875
50.45542	-1.8875
54.85868	-0.9875
59.25871	0.2125
63.6555	99.1125
68.04907	99.5125
72.43941	110.3125
76.82654	112.9125
81.21044	117.0125
85.59113	122.1125
89.96862	128.9125
94.34289	132.1125
98.71396	139.7125
103.08183	141.2125
107.4465	144.3125
111.80798	143.0125
116.16626	146.2125
120.52136	151.6125
124.87327	163.3125
129.222	163.9125
133.56755	177.5125
137.90993	186.3125
142.24913	203.1125
146.58517	223.5125
150.91804	254.8125
155.24774	304.0125
159.57429	368.3125
163.89768	474.7125
168.21792	609.5125
172.53501	822.4125
176.84895	1136.2125
181.15975	1578.5125
185.46741	2211.1125
189.77193	3041.9125
194.07331	4061.8125
198.37157	5239.3125
202.6667	6480.1125
206.9587	7724.3125
211.24758	8949.6125
215.53334	10161.2125
219.81599	11432.5125
224.09553	12871.6125
228.37195	14444.9125
232.64527	16173.4125
236.91549	18015.5125
241.18261	19890.3125
245.44663	21671.0125
249.70755	23266.6125
253.96539	24649.4125
258.22014	25799.5125
262.4718	26711.0125
266.72039	27262.4125
270.96589	27528.1125
275.20832	27503.1125
279.44768	27247.8125
283.68397	26829.4125
287.91719	26507.2125
292.14735	26212.0125
296.37445	26056.8125
300.59849	26010.2125
304.81948	25996.4125
309.03742	26026.1125
313.25231	25862.2125
317.46415	25526.4125
321.67296	25117.6125
325.87872	24776.4125
330.08145	24636.6125
334.28114	24625.6125
338.47781	24844.5125
342.67145	25108.1125
346.86207	25438.6125
351.04966	25890.3125
355.23424	26368.2125
359.4158	26796.0125
363.59435	27221.8125
367.76989	27421.6125
371.94243	27574.0125
376.11196	27681.6125
380.27849	27708.3125
384.44203	27850.6125
388.60257	28015.5125
392.76012	28287.1125
396.91468	28613.7125
401.06626	29007.1125
405.21485	29255.1125
409.36047	29205.6125
413.50311	28911.4125
417.64277	28780.4125
421.77947	28769.2125
425.9132	28904.8125
430.04396	29053.2125
434.17176	29112.4125
438.2966	29242.8125
442.41849	29516.8125
446.53742	29981.0125
450.6534	30476.4125
454.76644	30912.1125
458.87653	31074.1125
462.98368	31112.4125
467.08789	30926.7125
471.18916	30711.2125
475.2875	30317.2125
479.38291	30079.7125
483.4754	29976.5125
487.56496	29793.8125
491.6516	29677.3125
495.73531	29568.8125
499.81612	29462.1125
503.89401	29621.1125
507.96899	29764.9125
512.04106	29779.5125
516.11023	29694.5125
520.1765	29575.5125
524.23987	29375.9125
528.30034	29123.5125
532.35792	29003.0125
536.41261	28762.0125
540.46441	28578.6125
544.51333	28561.1125
548.55936	28685.1125
552.60252	29064.6125
556.64279	29408.1125
560.6802	29724.4125
564.71473	29958.0125
568.7464	30211.6125
572.7752	30651.6125
576.80114	31128.3125
580.82422	31723.6125
584.84444	32518.6125
588.86181	33363.7125
592.87633	34040.2125
596.888	33967.5125
600.89682	33448.1125
604.9028	33873.5125
608.90594	36058.6125
612.90624	38349.7125
616.90371	36593.3125
620.89834	32164.3125
624.89015	30015.2125
628.87913	29606.0125
632.86528	29739.1125
636.84862	29730.8125
640.82913	29471.1125
644.80683	28963.6125
648.78172	28638.0125
652.75379	28594.9125
656.72306	28879.3125
660.68952	29261.8125
664.65319	29192.7125
668.61405	28844.5125
672.57211	28904.4125
676.52738	29019.6125
680.47986	28997.0125
684.42955	28834.2125
688.37646	28763.5125
692.32058	28833.4125
696.26192	29191.1125
700.20048	29557.3125
704.13626	29757.0125
708.06928	29697.1125
711.99952	29570.2125
715.927	29510.3125
719.85171	29563.8125
723.77365	29546.9125
727.69284	29241.4125
731.60928	28904.0125
735.52295	28751.3125
739.43388	28730.0125
743.34206	28802.2125
747.24749	28920.6125
751.15017	29120.4125
755.05012	29443.6125
758.94733	29947.5125
762.8418	30947.6125
766.73354	32432.9125
770.62254	33914.6125
774.50882	34353.5125
778.39237	33438.6125
782.27321	31954.8125
786.15132	30643.3125
790.02671	29835.8125
793.89938	29335.5125
797.76935	29140.0125
801.6366	28978.0125
805.50115	28978.4125
809.36299	28849.8125
813.22213	28687.9125
817.07857	28559.1125
820.93231	28480.9125
824.78336	28424.1125
828.63172	28371.2125
832.47738	28309.0125
836.32036	28326.4125
840.16066	28332.8125
843.99827	28326.3125
847.8332	28330.3125
851.66546	28341.9125
855.49504	28351.0125
859.32195	28416.9125
863.1462	28408.3125
866.96777	28396.5125
870.78668	28420.6125
874.60293	28514.1125
878.41652	28567.1125
882.22745	28725.3125
886.03573	28833.7125
889.84136	28879.4125
893.64433	28874.1125
897.44466	28857.1125
901.24235	28822.5125
905.0374	28773.4125
908.8298	28750.6125
912.61957	28810.9125
916.40671	28901.7125
920.19121	29166.4125
923.97308	29406.3125
927.75233	29461.7125
931.52895	29426.3125
935.30295	29139.4125
939.07433	28746.1125
942.84309	28396.6125
946.60924	28188.3125
950.37278	28107.9125
954.13371	28028.9125
957.89203	27977.3125
961.64774	27916.0125
965.40086	27858.8125
969.15137	27842.7125
972.89929	27780.9125
976.64461	27744.1125
980.38733	27727.4125
984.12747	27741.4125
987.86502	27782.7125
991.59999	27929.3125
995.33237	28081.8125
999.06217	28372.9125
1002.78939	28835.8125
1006.51404	29332.4125
1010.23611	29758.0125
1013.95561	30000.5125
1017.67255	29981.6125
1021.38692	29812.5125
1025.09872	29503.0125
1028.80796	29180.1125
1032.51465	29169.9125
1036.21877	29226.8125
1039.92035	29385.7125
1043.61937	29397.5125
1047.31584	29354.7125
1051.00976	29308.9125
1054.70114	29420.4125
1058.38998	29507.9125
1062.07627	29715.1125
1065.76003	30016.7125
1069.44126	30378.3125
1073.11995	30767.0125
1076.79611	31209.8125
1080.46974	31471.7125
1084.14085	31530.9125
1087.80943	31729.2125
1091.47549	31862.8125
1095.13903	31890.8125
1098.80005	31543.3125
1102.45857	31021.4125
1106.11456	30592.8125
1109.76805	30272.1125
1113.41903	30135.4125
1117.06751	30104.3125
1120.71348	30288.3125
1124.35696	30438.0125
1127.99793	30661.5125
1131.63641	30798.3125
1135.2724	30665.6125
1138.90589	30592.1125
1142.5369	30563.9125
1146.16542	30560.3125
1149.79145	30661.9125
1153.415	30724.9125
1157.03607	30946.2125
1160.65467	31443.8125
1164.27079	32298.7125
1167.88443	33452.2125
1171.49561	34759.6125
1175.10432	36381.1125
1178.71056	38441.8125
1182.31434	40462.0125
1185.91565	41776.7125
1189.51451	42151.6125
1193.11091	41741.1125
1196.70485	40631.7125
1200.29634	39294.2125
1203.88538	38182.2125
1207.47197	37422.0125
1211.05612	36832.1125
1214.63782	36292.7125
1218.21708	35640.3125
1221.79391	34975.1125
1225.36829	34453.4125
1228.94024	34200.2125
1232.50976	33989.6125
1236.07685	33813.7125
1239.6415	33727.2125
1243.20374	33745.7125
1246.76355	33962.9125
1250.32093	34261.7125
1253.8759	34750.7125
1257.42845	35520.5125
1260.97859	36397.0125
1264.52631	37341.7125
1268.07163	38207.8125
1271.61453	39068.6125
1275.15503	39757.4125
1278.69312	40451.3125
1282.22882	40955.1125
1285.76211	41541.7125
1289.29301	42353.6125
1292.82151	43302.5125
1296.34761	44579.0125
1299.87133	46152.5125
1303.39266	47837.7125
1306.9116	49587.9125
1310.42815	51186.8125
1313.94233	52054.0125
1317.45412	52096.8125
1320.96354	51574.4125
1324.47058	51221.4125
1327.97525	51047.6125
1331.47754	51042.4125
1334.97747	51011.9125
1338.47502	51019.5125
1341.97022	50757.5125
1345.46305	50527.9125
1348.95352	50255.8125
1352.44163	50073.3125
1355.92738	50529.3125
1359.41078	51457.9125
1362.89183	52537.9125
1366.37053	51986.3125
1369.84688	49004.7125
1373.32088	45085.8125
1376.79254	42131.7125
1380.26186	40754.2125
1383.72883	40437.5125
1387.19347	40298.0125
1390.65578	39862.4125
1394.11575	39512.3125
1397.57339	39486.5125
1401.0287	39790.3125
1404.48168	40026.4125
1407.93234	40113.5125
1411.38068	39878.5125
1414.82669	39269.6125
1418.27039	38310.7125
1421.71177	37472.2125
1425.15083	36804.7125
1428.58758	36559.8125
1432.02203	36852.9125
1435.45416	37501.9125
1438.88399	38258.6125
1442.31151	38689.7125
1445.73673	38859.9125
1449.15965	38945.1125
1452.58027	38850.0125
1455.9986	38771.7125
1459.41463	38976.5125
1462.82837	39406.4125
1466.23982	39955.0125
1469.64898	40465.4125
1473.05586	40629.6125
1476.46045	40762.4125
1479.86276	40635.6125
1483.26279	40471.2125
1486.66054	40436.1125
1490.05602	40688.9125
1493.44922	41121.4125
1496.84016	41561.5125
1500.22882	42308.1125
1503.61521	43303.9125
1506.99934	44415.4125
1510.38121	45284.7125
1513.76081	45397.2125
1517.13816	44616.4125
1520.51324	43227.8125
1523.88607	42017.9125
1527.25665	41237.3125
1530.62498	40963.3125
1533.99105	40575.5125
1537.35488	40153.6125
1540.71647	39555.4125
1544.07581	38873.8125
1547.4329	38229.8125
1550.78776	37795.4125
1554.14038	37493.3125
1557.49077	37422.5125
1560.83892	37415.7125
1564.18484	37451.4125
1567.52853	37537.9125
1570.86999	37744.2125
1574.20922	38240.0125
1577.54624	38755.7125
1580.88103	38947.2125
1584.2136	39149.9125
1587.54395	39808.2125
1590.87208	40960.0125
1594.19801	42512.8125
1597.52172	44059.6125
1600.84321	44329.3125
1604.16251	42798.0125
1607.47959	40500.5125
1610.79447	38050.2125
1614.10715	35655.0125
1617.41763	33669.0125
1620.7259	32325.6125
1624.03199	31642.7125
1627.33587	31704.3125
1630.63757	32365.6125
1633.93707	33825.2125
1637.23439	36225.3125
1640.52951	39602.4125
1643.82246	43478.8125
1647.11321	46343.5125
1650.40179	46514.0125
1653.68819	43702.7125
1656.97241	39126.4125
1660.25446	34886.5125
1663.53433	31731.4125
1666.81203	29683.9125
1670.08756	28514.2125
1673.36092	27699.8125
1676.63211	27143.9125
1679.90115	26781.4125
1683.16801	26508.6125
1686.43272	26270.9125
1689.69527	26134.0125
1692.95567	26000.2125
1696.2139	25879.3125
1699.46999	25819.6125
1702.72392	25792.1125
1705.97571	25810.2125
1709.22535	25759.1125
1712.47284	25725.7125
1715.71819	25706.2125
1718.96139	25654.3125
1722.20246	25620.5125
1725.44139	25492.4125
1728.67818	25423.2125
1731.91284	25281.7125
1735.14537	25168.2125
1738.37576	25071.6125
1741.60403	25013.6125
1744.83017	24951.9125
1748.05418	24890.6125
1751.27607	24850.0125
1754.49584	24823.9125
1757.71349	24803.3125
1760.92903	24822.4125
1764.14244	24736.9125
1767.35375	24758.3125
1770.56294	24706.2125
1773.77002	24663.0125
1776.97499	24610.7125
1780.17785	24583.1125
1783.37861	24585.1125
1786.57727	24543.8125
1789.77382	24529.1125
1792.96828	24475.6125
1796.16064	24456.7125
1799.3509	24426.1125
1802.53907	24357.1125
1805.72514	24345.2125
1808.90913	24254.7125
1812.09102	24203.0125
1815.27083	24153.2125
1818.44856	24164.3125
1821.6242	24156.3125
1824.79776	24127.0125
1827.96924	24146.0125
1831.13864	24118.0125
1834.30597	24145.3125
1837.47122	24174.0125
1840.6344	24221.8125
1843.7955	24242.1125
1846.95454	24203.8125
1850.11151	24190.8125
1853.26642	24144.5125
1856.41926	24133.4125
1859.57004	24145.3125
1862.71876	24071.8125
1865.86542	24045.5125
1869.01003	24031.2125
1872.15258	23986.0125
1875.29308	23987.1125
1878.43152	23952.3125
1881.56792	23912.9125
1884.70227	23864.7125
1887.83457	23860.1125
1890.96482	23803.2125
1894.09304	23753.3125
1897.21921	23721.9125
1900.34335	23670.4125
1903.46544	23642.3125
1906.58551	23612.1125
1909.70353	23574.8125
1912.81953	23546.6125
1915.93349	23493.9125
1919.04543	23428.3125
1922.15534	23413.8125
1925.26322	23346.8125
1928.36908	23267.3125
1931.47292	23247.6125
1934.57473	23176.6125
1937.67453	23135.5125
1940.77232	23074.2125
1943.86808	23042.1125
1946.96184	22946.7125
1950.05358	22912.3125
1953.14331	22840.3125
1956.23103	22791.4125
1959.31675	22721.2125
1962.40046	22642.7125
1965.48217	22603.0125
1968.56188	22538.7125
1971.63959	22470.4125
1974.7153	22398.7125
1977.78901	22341.1125
1980.86073	22256.7125
1983.93046	22184.8125
1986.99819	22122.1125
1990.06394	22060.7125
1993.1277	21998.4125
1996.18947	21961.3125
1999.24925	21886.0125
2002.30706	21807.5125
2005.36288	21782.1125
2008.41672	21733.5125
2011.46859	21654.0125
2014.51848	21571.2125
2017.56639	21525.3125
2020.61233	21462.9125
2023.6563	21489.4125
2026.6983	21438.7125
2029.73833	21334.0125
2032.7764	21329.8125
2035.8125	21332.3125
2038.84664	21263.2125
2041.87881	21234.3125
2044.90903	21221.2125
2047.93729	21144.7125
2050.96359	21134.6125
2053.98794	21096.6125
2057.01034	21060.1125
2060.03078	21039.2125
2063.04927	21031.3125
2066.06582	21004.5125
2069.08042	21008.3125
2072.09307	20986.0125
2075.10378	20984.6125
2078.11255	20967.0125
2081.11938	20984.5125
2084.12426	21004.3125
2087.12722	20940.7125
2090.12824	20959.2125
2093.12732	20966.5125
2096.12447	20964.5125
2099.11969	20965.2125
2102.11299	20981.9125
2105.10435	20996.1125
2108.09379	20977.9125
2111.08131	20978.8125
2114.0669	21059.3125
2117.05057	21048.2125
2120.03233	21014.8125
2123.01216	21071.1125
2125.99008	21078.6125
2128.96609	21105.9125
2131.94018	21097.0125
2134.91236	21110.6125
2137.88263	21157.1125
2140.851	21125.8125
2143.81746	21173.5125
2146.78201	21167.4125
2149.74466	21202.9125
2152.7054	21143.1125
2155.66425	21171.6125
2158.6212	21155.5125
2161.57625	21182.8125
2164.52941	21180.5125
2167.48067	21122.1125
2170.43004	21164.9125
2173.37752	21131.7125
2176.32311	21133.2125
2179.26681	21135.5125
2182.20863	21116.1125
2185.14856	21143.9125
2188.08661	21131.2125
2191.02278	21135.5125
2193.95707	21148.5125
2196.88948	21070.0125
2199.82001	21090.0125
2202.74867	21040.7125
2205.67545	21022.3125
2208.60037	20998.4125
2211.52341	20956.3125
2214.44458	20895.7125
2217.36388	20861.5125
2220.28132	20852.9125
2223.1969	20825.3125
2226.11061	20776.0125
2229.02246	20762.1125
2231.93245	20693.3125
2234.84058	20698.4125
2237.74686	20677.3125
2240.65128	20680.4125
2243.55385	20625.7125
2246.45456	20607.5125
2249.35343	20596.6125
2252.25044	20532.0125
2255.14561	20510.2125
2258.03893	20474.1125
2260.93041	20421.8125
2263.82004	20382.0125
2266.70783	20377.9125
2269.59378	20323.9125
2272.4779	20269.7125
2275.36017	20211.7125
2278.24061	20199.5125
2281.11922	20179.6125
2283.996	20131.4125
2286.87094	20135.1125
2289.74405	20050.1125
2292.61534	20035.6125
2295.4848	19979.9125
2298.35243	20033.8125
2301.21824	20000.0125
2304.08223	20022.2125
2306.94439	19978.6125
2309.80474	19974.1125
2312.66327	19952.7125
2315.51999	19958.8125
2318.37489	19932.4125
2321.22797	19907.9125
2324.07925	19893.2125
2326.92871	19850.6125
2329.77637	19826.7125
2332.62222	19793.5125
2335.46626	19772.5125
2338.3085	19763.3125
2341.14893	19732.1125
2343.98756	19727.5125
2346.8244	19739.7125
2349.65943	19703.4125
2352.49267	19688.0125
2355.32411	19675.6125
2358.15376	19654.3125
2360.98161	19632.5125
2363.80768	19595.3125
2366.63195	19581.4125
2369.45444	19554.9125
2372.27514	19562.2125
2375.09405	19534.7125
2377.91118	19535.4125
2380.72652	19510.7125
2383.54009	19447.7125
2386.35187	19426.7125
2389.16188	19395.0125
2391.97011	19324.0125
2394.77657	19305.8125
2397.58125	19275.8125
2400.38416	19219.2125
2403.18529	19225.7125
2405.98466	19221.0125
2408.78226	19175.5125
2411.57809	19140.4125
2414.37216	19126.7125
2417.16446	19095.8125
2419.955	19100.2125
2422.74378	19082.2125
2425.5308	19032.2125
2428.31606	19040.1125
2431.09956	19001.6125
2433.88131	18988.7125
2436.6613	19018.7125
2439.43954	18960.2125
2442.21603	18963.4125
2444.99077	18942.7125
2447.76377	18979.6125
2450.53501	18929.4125
2453.30451	18922.0125
2456.07226	18914.8125
2458.83827	18925.1125
2461.60254	18864.9125
2464.36507	18877.1125
2467.12586	18869.4125
2469.88492	18848.8125
2472.64224	18833.2125
2475.39782	18807.3125
2478.15167	18792.9125
2480.90379	18791.9125
2483.65417	18778.1125
2486.40283	18768.2125
2489.14976	18749.4125
2491.89497	18734.8125
2494.63845	18732.9125
2497.3802	18714.1125
2500.12024	18703.1125
2502.85855	18703.4125
2505.59514	18682.1125
2508.33002	18692.4125
2511.06318	18633.5125
2513.79462	18664.8125
2516.52435	18633.2125
2519.25237	18652.6125
2521.97867	18597.5125
2524.70327	18612.2125
2527.42616	18556.5125
2530.14734	18549.9125
2532.86681	18534.7125
2535.58458	18515.8125
2538.30065	18473.3125
2541.01501	18455.6125
2543.72768	18417.3125
2546.43864	18418.1125
2549.14791	18390.7125
2551.85548	18399.0125
2554.56136	18374.5125
2557.26554	18367.5125
2559.96803	18328.9125
2562.66883	18296.6125
2565.36794	18286.8125
2568.06536	18269.3125
2570.7611	18220.3125
2573.45514	18185.4125
2576.14751	18149.0125
2578.83819	18125.1125
2581.52719	18120.4125
2584.21451	18108.4125
2586.90015	18090.4125
2589.58411	18019.5125
2592.2664	18017.2125
2594.94701	17958.3125
2597.62594	17976.2125
2600.30321	17947.2125
2602.9788	17908.7125
2605.65273	17876.3125
2608.32498	17891.2125
2610.99557	17883.1125
2613.66449	17848.2125
2616.33175	17816.1125
2618.99734	17809.1125
2621.66128	17773.9125
2624.32355	17747.8125
2626.98416	17726.7125
2629.64311	17725.9125
2632.30041	17739.5125
2634.95605	17682.7125
2637.61004	17641.5125
2640.26238	17658.1125
2642.91306	17646.0125
2645.56209	17608.7125
2648.20948	17610.4125
2650.85521	17626.0125
2653.4993	17616.3125
2656.14175	17592.1125
2658.78255	17607.0125
2661.42171	17581.1125
2664.05923	17614.0125
2666.6951	17610.9125
2669.32934	17637.6125
2671.96194	17626.1125
2674.59291	17636.6125
2677.22224	17611.2125
2679.84993	17626.7125
2682.476	17614.2125
2685.10043	17612.3125
2687.72324	17606.1125
2690.34441	17592.9125
2692.96396	17568.2125
2695.58188	17622.3125
2698.19818	17560.5125
2700.81285	17601.4125
2703.4259	17593.5125
2706.03733	17560.6125
2708.64714	17588.3125
2711.25533	17624.2125
2713.86191	17594.8125
2716.46687	17621.5125
2719.07021	17624.8125
2721.67194	17618.0125
2724.27206	17601.0125
2726.87057	17618.0125
2729.46747	17620.6125
2732.06276	17610.8125
2734.65644	17580.9125
2737.24852	17590.4125
2739.83899	17580.8125
2742.42786	17588.9125
2745.01513	17542.9125
2747.60079	17544.2125
2750.18486	17548.5125
2752.76733	17534.3125
2755.3482	17510.6125
2757.92747	17532.7125
2760.50515	17517.5125
2763.08123	17514.2125
2765.65573	17476.5125
2768.22863	17500.5125
2770.79994	17448.7125
2773.36967	17438.1125
2775.9378	17401.0125
2778.50435	17372.6125
2781.06932	17376.6125
2783.6327	17341.3125
2786.1945	17332.5125
2788.75471	17329.5125
2791.31335	17247.5125
2793.87041	17252.8125
2796.42589	17187.8125
2798.97979	17160.6125
2801.53212	17106.8125
2804.08288	17107.4125
2806.63206	17066.4125
2809.17967	17053.5125
2811.72571	16999.1125
2814.27018	17005.6125
2816.81308	16946.0125
2819.35442	16956.5125
2821.89419	16885.9125
2824.43239	16889.2125
2826.96904	16894.2125
2829.50412	16852.4125
2832.03763	16837.3125
2834.56959	16801.1125
2837.1	16779.3125
2839.62884	16787.3125
2842.15613	16790.9125
2844.68186	16808.5125
2847.20604	16803.1125
2849.72867	16797.1125
2852.24974	16768.1125
2854.76927	16759.9125
2857.28724	16754.9125
2859.80367	16742.7125
2862.31855	16729.2125
2864.83189	16704.4125
2867.34368	16690.2125
2869.85393	16684.6125
2872.36264	16678.8125
2874.8698	16723.9125
2877.37543	16737.4125
2879.87952	16703.5125
2882.38207	16734.9125
2884.88308	16712.6125
2887.38256	16737.5125
2889.88051	16755.0125
2892.37692	16774.3125
2894.8718	16738.0125
2897.36515	16802.0125
2899.85698	16765.7125
2902.34727	16806.3125
2904.83604	16785.4125
2907.32328	16826.1125
2909.809	16775.2125
2912.29319	16805.6125
2914.77587	16779.8125
2917.25702	16785.6125
2919.73665	16763.3125
2922.21476	16766.7125
2924.69136	16754.2125
2927.16644	16779.3125
2929.64	16722.2125
2932.11205	16716.8125
2934.58258	16692.9125
2937.05161	16716.6125
2939.51912	16693.5125
2941.98513	16664.3125
2944.44962	16593.4125
2946.91261	16548.8125
2949.37409	16551.4125
2951.83407	16492.1125
2954.29254	16483.3125
2956.74951	16464.0125
2959.20498	16424.5125
2961.65895	16419.3125
2964.11142	16412.5125
2966.56239	16381.3125
2969.01186	16356.2125
2971.45984	16272.4125
2973.90632	16290.6125
2976.35131	16226.0125
2978.7948	16199.6125
2981.23681	16157.3125
2983.67732	16120.1125
2986.11635	16107.8125
2988.55388	16041.5125
2990.98993	15994.8125
2993.4245	15966.1125
2995.85758	15975.1125
2998.28917	15881.3125
3000.71928	15891.0125
3003.14791	15821.6125
3005.57506	15826.3125
3008.00073	15775.4125
3010.42493	15763.3125
3012.84764	15751.6125
3015.26888	15707.9125
3017.68865	15674.9125
3020.10694	15665.8125
3022.52376	15645.5125
3024.9391	15628.6125
