Data from AgNPs_FTO_APTES_UA_0uM_R6G_10uM_NaF_0.1M_Addition_RamanShift__40__10-42-57-127.txt Node

Date: Fri Dec 17 10:42:57 GMT 2021
User: TCL
Spectrometer: QEP01345
Trigger mode: 4
Integration Time (sec): 7.000000E0
Scans to average: 10
Electric dark correction enabled: true
Nonlinearity correction enabled: false
Boxcar width: 0
XAxis mode: Raman Shifts
Number of Pixels in Spectrum: 1044
>>>>>Begin Spectral Data<<<<<
46.04893	-1.825
50.45542	0.475
54.85868	-1.425
59.25871	-0.225
63.6555	76.475
68.04907	81.775
72.43941	86.775
76.82654	88.675
81.21044	90.075
85.59113	93.275
89.96862	96.975
94.34289	101.475
98.71396	104.975
103.08183	101.675
107.4465	110.675
111.80798	109.275
116.16626	114.075
120.52136	119.675
124.87327	125.775
129.222	129.975
133.56755	138.675
137.90993	150.375
142.24913	164.775
146.58517	182.375
150.91804	213.875
155.24774	251.175
159.57429	317.075
163.89768	400.775
168.21792	528.375
172.53501	717.575
176.84895	996.075
181.15975	1391.175
185.46741	1963.475
189.77193	2697.075
194.07331	3621.175
198.37157	4636.375
202.6667	5722.175
206.9587	6818.375
211.24758	7885.275
215.53334	8943.775
219.81599	10087.975
224.09553	11361.575
228.37195	12782.675
232.64527	14317.775
236.91549	15931.575
241.18261	17545.575
245.44663	18982.275
249.70755	20272.675
253.96539	21369.575
258.22014	22310.675
262.4718	23077.575
266.72039	23632.775
270.96589	23873.575
275.20832	23924.975
279.44768	23715.075
283.68397	23461.275
287.91719	23193.275
292.14735	23075.275
296.37445	23090.175
300.59849	23237.575
304.81948	23459.075
309.03742	23587.075
313.25231	23445.475
317.46415	22975.775
321.67296	22251.775
325.87872	21708.075
330.08145	21415.875
334.28114	21362.375
338.47781	21569.875
342.67145	21773.575
346.86207	22218.075
351.04966	22778.475
355.23424	23381.075
359.4158	23909.075
363.59435	24292.975
367.76989	24505.575
371.94243	24694.175
376.11196	24800.475
380.27849	24848.175
384.44203	24923.175
388.60257	25081.075
392.76012	25266.675
396.91468	25540.275
401.06626	25910.475
405.21485	26316.075
409.36047	26211.275
413.50311	25831.675
417.64277	25406.975
421.77947	25289.875
425.9132	25312.975
430.04396	25418.975
434.17176	25518.075
438.2966	25762.775
442.41849	26228.075
446.53742	26874.375
450.6534	27624.375
454.76644	28203.875
458.87653	28400.575
462.98368	28244.875
467.08789	27888.575
471.18916	27405.675
475.2875	26964.575
479.38291	26643.075
483.4754	26404.475
487.56496	26128.375
491.6516	25914.675
495.73531	25694.475
499.81612	25656.675
503.89401	25765.275
507.96899	25834.375
512.04106	25815.275
516.11023	25757.075
520.1765	25665.675
524.23987	25549.375
528.30034	25431.675
532.35792	25144.875
536.41261	24765.675
540.46441	24454.475
544.51333	24413.275
548.55936	24617.675
552.60252	25124.575
556.64279	25595.875
560.6802	25886.675
564.71473	26135.375
568.7464	26550.075
572.7752	27122.475
576.80114	27447.675
580.82422	27743.175
584.84444	28227.175
588.86181	28692.175
592.87633	29186.075
596.888	29527.175
600.89682	29740.075
604.9028	30986.775
608.90594	34248.775
612.90624	37511.975
616.90371	35392.675
620.89834	29383.775
624.89015	26670.575
628.87913	26357.475
632.86528	26283.775
636.84862	26046.475
640.82913	25584.675
644.80683	24884.275
648.78172	24448.175
652.75379	24363.175
656.72306	24746.775
660.68952	25259.075
664.65319	25180.275
668.61405	24653.175
672.57211	24457.875
676.52738	24439.875
680.47986	24389.075
684.42955	24276.675
688.37646	24189.875
692.32058	24332.175
696.26192	24575.475
700.20048	24917.175
704.13626	25143.175
708.06928	25025.375
711.99952	24818.675
715.927	24768.175
719.85171	24835.475
723.77365	24829.375
727.69284	24548.375
731.60928	24277.075
735.52295	24240.875
739.43388	24247.075
743.34206	24369.075
747.24749	24517.075
751.15017	24738.475
755.05012	25125.375
758.94733	25838.375
762.8418	27143.675
766.73354	29314.575
770.62254	31443.275
774.50882	32148.975
778.39237	30761.575
782.27321	28428.675
786.15132	26510.175
790.02671	25376.175
793.89938	24836.275
797.76935	24651.075
801.6366	24570.975
805.50115	24473.275
809.36299	24346.475
813.22213	24143.575
817.07857	24056.475
820.93231	24015.475
824.78336	23926.175
828.63172	23925.975
832.47738	23959.675
836.32036	24086.575
840.16066	24229.975
843.99827	24322.375
847.8332	24269.675
851.66546	24163.475
855.49504	24138.775
859.32195	24142.475
863.1462	24029.775
866.96777	23950.175
870.78668	23858.175
874.60293	23835.675
878.41652	23883.275
882.22745	23988.975
886.03573	24064.175
889.84136	24075.975
893.64433	23934.975
897.44466	23831.075
901.24235	23811.775
905.0374	23719.275
908.8298	23700.275
912.61957	23730.675
916.40671	23921.675
920.19121	24245.275
923.97308	24622.475
927.75233	24908.775
931.52895	24903.175
935.30295	24632.375
939.07433	24118.775
942.84309	23752.275
946.60924	23547.375
950.37278	23508.175
954.13371	23385.575
957.89203	23260.275
961.64774	23163.175
965.40086	23091.075
969.15137	23003.475
972.89929	22943.875
976.64461	22979.575
980.38733	23083.175
984.12747	23237.675
987.86502	23586.175
991.59999	24003.275
995.33237	24514.275
999.06217	25411.575
1002.78939	26259.175
1006.51404	26802.975
1010.23611	27010.675
1013.95561	27105.075
1017.67255	27030.775
1021.38692	26642.275
1025.09872	26467.575
1028.80796	26752.475
1032.51465	27735.175
1036.21877	28675.175
1039.92035	28784.075
1043.61937	28230.975
1047.31584	27391.075
1051.00976	26424.375
1054.70114	25890.175
1058.38998	25772.575
1062.07627	25818.375
1065.76003	25891.075
1069.44126	26117.675
1073.11995	26489.575
1076.79611	26887.475
1080.46974	27142.575
1084.14085	27404.175
1087.80943	27770.775
1091.47549	27994.575
1095.13903	27924.275
1098.80005	27479.575
1102.45857	26890.675
1106.11456	26473.575
1109.76805	26382.675
1113.41903	26418.675
1117.06751	26589.375
1120.71348	26871.975
1124.35696	27078.475
1127.99793	27443.575
1131.63641	27607.475
1135.2724	27388.275
1138.90589	27050.675
1142.5369	26902.875
1146.16542	26844.375
1149.79145	26800.075
1153.415	26922.775
1157.03607	27142.375
1160.65467	27700.975
1164.27079	28678.375
1167.88443	30115.575
1171.49561	31942.475
1175.10432	34409.375
1178.71056	37568.975
1182.31434	40485.275
1185.91565	41979.375
1189.51451	41704.975
1193.11091	40048.775
1196.70485	37923.275
1200.29634	36097.575
1203.88538	34883.675
1207.47197	34003.475
1211.05612	33323.875
1214.63782	32835.875
1218.21708	32616.275
1221.79391	32557.175
1225.36829	32538.175
1228.94024	32217.275
1232.50976	31589.975
1236.07685	30966.275
1239.6415	30753.175
1243.20374	30698.875
1246.76355	30956.375
1250.32093	31425.775
1253.8759	32182.875
1257.42845	33054.175
1260.97859	34015.175
1264.52631	34950.575
1268.07163	35939.475
1271.61453	37002.775
1275.15503	38168.975
1278.69312	39342.575
1282.22882	40247.375
1285.76211	41074.275
1289.29301	41884.275
1292.82151	42847.675
1296.34761	44369.975
1299.87133	46483.375
1303.39266	49348.975
1306.9116	52847.075
1310.42815	56226.875
1313.94233	58533.675
1317.45412	58544.975
1320.96354	57034.875
1324.47058	55155.575
1327.97525	53372.275
1331.47754	52078.775
1334.97747	51123.875
1338.47502	50602.675
1341.97022	49900.475
1345.46305	49143.975
1348.95352	48418.975
1352.44163	48634.975
1355.92738	50277.475
1359.41078	53398.775
1362.89183	56572.175
1366.37053	56251.675
1369.84688	51630.675
1373.32088	45803.175
1376.79254	41618.475
1380.26186	39669.575
1383.72883	39124.675
1387.19347	38656.775
1390.65578	38096.575
1394.11575	37723.375
1397.57339	37910.975
1401.0287	38462.375
1404.48168	39113.275
1407.93234	39369.975
1411.38068	39157.075
1414.82669	38297.475
1418.27039	37108.775
1421.71177	35801.075
1425.15083	34784.275
1428.58758	34235.475
1432.02203	34389.075
1435.45416	35009.475
1438.88399	35852.275
1442.31151	36586.875
1445.73673	37103.575
1449.15965	37498.175
1452.58027	37662.975
1455.9986	37652.475
1459.41463	37803.375
1462.82837	38388.175
1466.23982	39291.575
1469.64898	40122.975
1473.05586	40670.275
1476.46045	40841.875
1479.86276	40682.875
1483.26279	40402.975
1486.66054	40143.975
1490.05602	40221.175
1493.44922	40526.875
1496.84016	40995.475
1500.22882	42007.975
1503.61521	43405.775
1506.99934	45301.975
1510.38121	47026.575
1513.76081	47633.075
1517.13816	46511.375
1520.51324	44217.975
1523.88607	41825.575
1527.25665	40318.075
1530.62498	39537.275
1533.99105	39101.875
1537.35488	38766.475
1540.71647	38340.175
1544.07581	37904.875
1547.4329	37329.975
1550.78776	36862.975
1554.14038	36457.875
1557.49077	36257.175
1560.83892	36100.075
1564.18484	36140.575
1567.52853	36342.675
1570.86999	36635.175
1574.20922	37019.475
1577.54624	37343.175
1580.88103	37096.075
1584.2136	36990.375
1587.54395	37783.075
1590.87208	39676.475
1594.19801	42430.975
1597.52172	45352.375
1600.84321	46370.775
1604.16251	44424.275
1607.47959	40764.575
1610.79447	37075.575
1614.10715	33866.175
1617.41763	31443.175
1620.7259	29898.075
1624.03199	29193.775
1627.33587	29227.575
1630.63757	30092.975
1633.93707	31774.875
1637.23439	34496.075
1640.52951	38180.975
1643.82246	42413.075
1647.11321	45785.275
1650.40179	46407.075
1653.68819	43548.475
1656.97241	38205.475
1660.25446	32979.175
1663.53433	29124.175
1666.81203	26726.775
1670.08756	25240.475
1673.36092	24333.975
1676.63211	23708.375
1679.90115	23274.675
1683.16801	22956.975
1686.43272	22758.075
1689.69527	22572.375
1692.95567	22425.175
1696.2139	22341.175
1699.46999	22298.875
1702.72392	22265.575
1705.97571	22226.275
1709.22535	22159.375
1712.47284	22157.975
1715.71819	22159.375
1718.96139	22114.875
1722.20246	22054.075
1725.44139	21965.775
1728.67818	21822.575
1731.91284	21736.675
1735.14537	21599.375
1738.37576	21564.875
1741.60403	21461.475
1744.83017	21415.975
1748.05418	21377.275
1751.27607	21301.775
1754.49584	21280.575
1757.71349	21289.375
1760.92903	21298.775
1764.14244	21246.075
1767.35375	21221.475
1770.56294	21218.475
1773.77002	21169.375
1776.97499	21113.675
1780.17785	21078.075
1783.37861	21087.275
1786.57727	21113.475
1789.77382	21016.175
1792.96828	21016.475
1796.16064	20980.275
1799.3509	20930.075
1802.53907	20922.475
1805.72514	20867.275
1808.90913	20820.675
1812.09102	20760.075
1815.27083	20681.075
1818.44856	20700.275
1821.6242	20662.075
1824.79776	20661.175
1827.96924	20602.375
1831.13864	20593.575
1834.30597	20602.675
1837.47122	20635.675
1840.6344	20594.675
1843.7955	20640.775
1846.95454	20605.375
1850.11151	20578.175
1853.26642	20578.075
1856.41926	20603.075
1859.57004	20575.275
1862.71876	20549.375
1865.86542	20569.875
1869.01003	20566.075
1872.15258	20564.375
1875.29308	20534.775
1878.43152	20572.275
1881.56792	20540.075
1884.70227	20526.875
1887.83457	20576.775
1890.96482	20522.375
1894.09304	20493.275
1897.21921	20501.675
1900.34335	20499.475
1903.46544	20477.875
1906.58551	20486.175
1909.70353	20462.375
1912.81953	20464.175
1915.93349	20420.575
1919.04543	20383.375
1922.15534	20289.275
1925.26322	20239.275
1928.36908	20218.975
1931.47292	20191.075
1934.57473	20107.475
1937.67453	20067.675
1940.77232	20008.675
1943.86808	19972.275
1946.96184	19927.275
1950.05358	19861.275
1953.14331	19782.875
1956.23103	19770.175
1959.31675	19667.175
1962.40046	19624.775
1965.48217	19582.575
1968.56188	19524.175
1971.63959	19500.775
1974.7153	19442.175
1977.78901	19324.175
1980.86073	19297.875
1983.93046	19245.075
1986.99819	19180.975
1990.06394	19163.675
1993.1277	19077.775
1996.18947	19024.175
1999.24925	18978.675
2002.30706	18919.975
2005.36288	18843.775
2008.41672	18799.575
2011.46859	18764.475
2014.51848	18699.575
2017.56639	18680.375
2020.61233	18680.875
2023.6563	18638.275
2026.6983	18609.175
2029.73833	18565.375
2032.7764	18537.075
2035.8125	18535.275
2038.84664	18510.175
2041.87881	18513.075
2044.90903	18463.275
2047.93729	18436.375
2050.96359	18424.575
2053.98794	18376.375
2057.01034	18373.975
2060.03078	18344.675
2063.04927	18300.975
2066.06582	18300.175
2069.08042	18286.775
2072.09307	18291.875
2075.10378	18260.175
2078.11255	18199.075
2081.11938	18261.675
2084.12426	18272.375
2087.12722	18230.275
2090.12824	18261.375
2093.12732	18221.375
2096.12447	18236.575
2099.11969	18235.675
2102.11299	18285.075
2105.10435	18275.675
2108.09379	18255.575
2111.08131	18305.475
2114.0669	18268.775
2117.05057	18263.675
2120.03233	18300.075
2123.01216	18313.075
2125.99008	18332.875
2128.96609	18381.875
2131.94018	18409.375
2134.91236	18400.075
2137.88263	18426.975
2140.851	18400.275
2143.81746	18446.775
2146.78201	18468.175
2149.74466	18447.475
2152.7054	18451.975
2155.66425	18444.475
2158.6212	18451.775
2161.57625	18447.275
2164.52941	18441.275
2167.48067	18459.575
2170.43004	18453.475
2173.37752	18483.675
2176.32311	18464.175
2179.26681	18462.175
2182.20863	18452.675
2185.14856	18488.775
2188.08661	18467.975
2191.02278	18457.975
2193.95707	18489.475
2196.88948	18473.075
2199.82001	18493.775
2202.74867	18469.875
2205.67545	18495.175
2208.60037	18451.775
2211.52341	18482.975
2214.44458	18439.575
2217.36388	18398.775
2220.28132	18424.475
2223.1969	18355.275
2226.11061	18354.275
2229.02246	18334.475
2231.93245	18265.875
2234.84058	18236.475
2237.74686	18208.775
2240.65128	18174.275
2243.55385	18217.775
2246.45456	18160.375
2249.35343	18140.875
2252.25044	18081.475
2255.14561	18041.875
2258.03893	18041.675
2260.93041	18027.975
2263.82004	17976.275
2266.70783	17935.775
2269.59378	17904.675
2272.4779	17871.975
2275.36017	17835.375
2278.24061	17820.275
2281.11922	17800.275
2283.996	17796.175
2286.87094	17760.175
2289.74405	17714.275
2292.61534	17712.575
2295.4848	17704.275
2298.35243	17725.275
2301.21824	17709.575
2304.08223	17726.875
2306.94439	17735.775
2309.80474	17758.375
2312.66327	17755.875
2315.51999	17760.975
2318.37489	17767.575
2321.22797	17771.975
2324.07925	17740.375
2326.92871	17714.975
2329.77637	17738.475
2332.62222	17698.675
2335.46626	17738.975
2338.3085	17701.775
2341.14893	17728.575
2343.98756	17730.275
2346.8244	17718.875
2349.65943	17720.975
2352.49267	17693.275
2355.32411	17716.275
2358.15376	17661.075
2360.98161	17641.775
2363.80768	17656.675
2366.63195	17609.275
2369.45444	17587.775
2372.27514	17528.675
2375.09405	17546.375
2377.91118	17494.675
2380.72652	17466.875
2383.54009	17411.275
2386.35187	17391.975
2389.16188	17370.575
2391.97011	17358.575
2394.77657	17331.775
2397.58125	17285.075
2400.38416	17268.975
2403.18529	17239.175
2405.98466	17254.675
2408.78226	17187.875
2411.57809	17168.975
2414.37216	17136.075
2417.16446	17094.475
2419.955	17072.775
2422.74378	17029.075
2425.5308	17049.775
2428.31606	17023.675
2431.09956	17024.875
2433.88131	17019.375
2436.6613	17018.975
2439.43954	17002.675
2442.21603	16975.175
2444.99077	16978.475
2447.76377	16984.075
2450.53501	16984.375
2453.30451	17021.175
2456.07226	16957.975
2458.83827	16969.975
2461.60254	16963.675
2464.36507	16915.475
2467.12586	16946.875
2469.88492	16959.575
2472.64224	16942.975
2475.39782	16944.275
2478.15167	16967.775
2480.90379	16961.875
2483.65417	17003.975
2486.40283	16988.575
2489.14976	16983.575
2491.89497	16980.075
2494.63845	17009.175
2497.3802	17020.875
2500.12024	16980.075
2502.85855	16974.675
2505.59514	16954.875
2508.33002	16964.775
2511.06318	16940.475
2513.79462	16896.175
2516.52435	16887.375
2519.25237	16897.175
2521.97867	16882.175
2524.70327	16855.975
2527.42616	16846.075
2530.14734	16839.375
2532.86681	16825.175
2535.58458	16828.175
2538.30065	16820.275
2541.01501	16814.575
2543.72768	16793.875
2546.43864	16736.875
2549.14791	16755.075
2551.85548	16770.575
2554.56136	16718.675
2557.26554	16751.275
2559.96803	16709.775
2562.66883	16706.575
2565.36794	16701.075
2568.06536	16695.675
2570.7611	16683.275
2573.45514	16653.975
2576.14751	16671.375
2578.83819	16630.275
2581.52719	16675.375
2584.21451	16650.275
2586.90015	16655.275
2589.58411	16613.075
2592.2664	16603.175
2594.94701	16577.375
2597.62594	16564.175
2600.30321	16553.675
2602.9788	16543.375
2605.65273	16541.575
2608.32498	16551.775
2610.99557	16530.175
2613.66449	16519.675
2616.33175	16506.675
2618.99734	16516.675
2621.66128	16517.475
2624.32355	16507.975
2626.98416	16496.075
2629.64311	16500.175
2632.30041	16543.475
2634.95605	16478.275
2637.61004	16506.175
2640.26238	16444.375
2642.91306	16433.775
2645.56209	16382.375
2648.20948	16401.375
2650.85521	16369.575
2653.4993	16389.175
2656.14175	16345.275
2658.78255	16378.475
2661.42171	16353.375
2664.05923	16382.875
2666.6951	16381.175
2669.32934	16403.375
2671.96194	16435.775
2674.59291	16408.375
2677.22224	16385.975
2679.84993	16414.775
2682.476	16352.175
2685.10043	16367.575
2687.72324	16342.375
2690.34441	16334.775
2692.96396	16305.575
2695.58188	16306.975
2698.19818	16322.775
2700.81285	16304.675
2703.4259	16280.275
2706.03733	16328.975
2708.64714	16310.775
2711.25533	16339.775
2713.86191	16325.575
2716.46687	16327.375
2719.07021	16314.875
2721.67194	16311.375
2724.27206	16291.575
2726.87057	16310.375
2729.46747	16320.275
2732.06276	16354.875
2734.65644	16318.275
2737.24852	16341.275
2739.83899	16275.775
2742.42786	16298.575
2745.01513	16285.475
2747.60079	16303.675
2750.18486	16295.375
2752.76733	16289.175
2755.3482	16257.875
2757.92747	16260.275
2760.50515	16278.075
2763.08123	16245.675
2765.65573	16254.075
2768.22863	16222.575
2770.79994	16242.075
2773.36967	16233.175
2775.9378	16241.475
2778.50435	16238.875
2781.06932	16206.075
2783.6327	16224.075
2786.1945	16192.075
2788.75471	16197.275
2791.31335	16155.575
2793.87041	16144.375
2796.42589	16072.875
2798.97979	16048.875
2801.53212	16045.275
2804.08288	15999.375
2806.63206	15991.675
2809.17967	15961.775
2811.72571	15916.875
2814.27018	15904.575
2816.81308	15910.875
2819.35442	15878.275
2821.89419	15841.175
2824.43239	15829.475
2826.96904	15803.175
2829.50412	15770.475
2832.03763	15762.975
2834.56959	15756.475
2837.1	15753.175
2839.62884	15741.175
2842.15613	15729.375
2844.68186	15787.275
2847.20604	15750.875
2849.72867	15769.775
2852.24974	15766.575
2854.76927	15761.575
2857.28724	15739.775
2859.80367	15760.475
2862.31855	15697.375
2864.83189	15715.575
2867.34368	15671.875
2869.85393	15703.775
2872.36264	15701.975
2874.8698	15700.275
2877.37543	15697.875
2879.87952	15699.275
2882.38207	15730.275
2884.88308	15725.175
2887.38256	15715.875
2889.88051	15689.675
2892.37692	15731.075
2894.8718	15714.375
2897.36515	15745.875
2899.85698	15749.875
2902.34727	15736.475
2904.83604	15798.375
2907.32328	15827.075
2909.809	15797.675
2912.29319	15808.575
2914.77587	15806.975
2917.25702	15813.575
2919.73665	15760.875
2922.21476	15781.375
2924.69136	15751.075
2927.16644	15759.075
2929.64	15733.675
2932.11205	15732.975
2934.58258	15645.675
2937.05161	15705.875
2939.51912	15687.875
2941.98513	15632.675
2944.44962	15601.875
2946.91261	15564.675
2949.37409	15573.075
2951.83407	15578.875
2954.29254	15546.775
2956.74951	15510.475
2959.20498	15522.675
2961.65895	15497.675
2964.11142	15487.875
2966.56239	15399.075
2969.01186	15408.475
2971.45984	15401.975
2973.90632	15365.175
2976.35131	15326.975
2978.7948	15289.275
2981.23681	15268.175
2983.67732	15205.175
2986.11635	15173.475
2988.55388	15125.675
2990.98993	15080.575
2993.4245	15067.075
2995.85758	15057.075
2998.28917	15046.375
3000.71928	14987.975
3003.14791	14954.975
3005.57506	14969.275
3008.00073	14937.175
3010.42493	14930.675
3012.84764	14896.275
3015.26888	14896.775
3017.68865	14856.575
3020.10694	14844.975
3022.52376	14804.475
3024.9391	14783.575
3027.35298	14758.775
3029.76539	14745.175
3032.17632	14699.775
3034.5858	14693.275
3036.9938	14697.175
3039.40034	14684.575
3041.80542	14655.875
3044.20903	14646.175
3046.61118	14648.375
3049.01187	14599.275
3051.4111	14606.475
3053.80888	14572.475
3056.20519	14544.675
3058.60005	14490.675
3060.99345	14483.175
3063.3854	14437.375
3065.7759	14397.375
3068.16494	14412.475
3070.55254	14337.775
3072.93868	14362.575
3075.32338	14304.375
3077.70662	14286.375
3080.08842	14267.775
3082.46878	14255.575
3084.84769	14207.675
3087.22515	14195.275
3089.60118	14189.775
3091.97576	14166.175
3094.3489	14170.675
3096.72061	14179.975
3099.09087	14166.675
3101.4597	14155.575
3103.82709	14155.375
3106.19305	14121.075
3108.55757	14120.675
3110.92066	14087.075
3113.28232	14077.875
3115.64255	14020.675
3118.00134	13997.175
3120.35871	13990.675
3122.71466	13974.375
3125.06917	13962.875
3127.42226	13945.775
