Data from AgNPs_FTO_APTES_UA_10uM_R6G_10uM_NaF_0.1M_Addition_RamanShift__4__13-14-37-301.txt Node

Date: Fri Dec 17 13:14:37 GMT 2021
User: TCL
Spectrometer: QEP01345
Trigger mode: 4
Integration Time (sec): 7.000000E0
Scans to average: 10
Electric dark correction enabled: true
Nonlinearity correction enabled: false
Boxcar width: 0
XAxis mode: Raman Shifts
Number of Pixels in Spectrum: 1044
>>>>>Begin Spectral Data<<<<<
46.04893	-0.9625
50.45542	-1.4625
54.85868	-1.4625
59.25871	-0.0625
63.6555	95.9375
68.04907	99.7375
72.43941	103.7375
76.82654	107.0375
81.21044	111.0375
85.59113	113.5375
89.96862	120.7375
94.34289	122.1375
98.71396	128.5375
103.08183	127.0375
107.4465	132.9375
111.80798	138.2375
116.16626	142.0375
120.52136	146.0375
124.87327	157.1375
129.222	166.4375
133.56755	174.7375
137.90993	190.1375
142.24913	207.6375
146.58517	230.6375
150.91804	264.9375
155.24774	316.1375
159.57429	397.5375
163.89768	508.7375
168.21792	666.1375
172.53501	909.1375
176.84895	1266.9375
181.15975	1785.3375
185.46741	2499.2375
189.77193	3453.9375
194.07331	4628.1375
198.37157	5982.8375
202.6667	7395.2375
206.9587	8785.4375
211.24758	10185.0375
215.53334	11554.4375
219.81599	12976.1375
224.09553	14586.0375
228.37195	16365.9375
232.64527	18365.7375
236.91549	20406.3375
241.18261	22544.8375
245.44663	24556.3375
249.70755	26350.6375
253.96539	27866.2375
258.22014	29172.4375
262.4718	30202.7375
266.72039	30931.6375
270.96589	31244.2375
275.20832	31197.4375
279.44768	30905.3375
283.68397	30515.9375
287.91719	30110.8375
292.14735	29846.4375
296.37445	29706.3375
300.59849	29728.3375
304.81948	29801.3375
309.03742	29837.8375
313.25231	29621.9375
317.46415	29223.0375
321.67296	28695.3375
325.87872	28304.9375
330.08145	28152.8375
334.28114	28229.3375
338.47781	28457.7375
342.67145	28870.8375
346.86207	29322.9375
351.04966	29880.4375
355.23424	30521.9375
359.4158	31065.6375
363.59435	31544.3375
367.76989	31942.3375
371.94243	32196.1375
376.11196	32371.7375
380.27849	32479.5375
384.44203	32654.0375
388.60257	32972.7375
392.76012	33151.6375
396.91468	33469.5375
401.06626	33923.3375
405.21485	34201.1375
409.36047	34132.5375
413.50311	33809.7375
417.64277	33514.2375
421.77947	33490.5375
425.9132	33624.4375
430.04396	33756.1375
434.17176	33861.4375
438.2966	34097.3375
442.41849	34525.1375
446.53742	35104.7375
450.6534	35825.4375
454.76644	36375.6375
458.87653	36554.6375
462.98368	36512.4375
467.08789	36178.8375
471.18916	35719.7375
475.2875	35177.6375
479.38291	34743.3375
483.4754	34439.1375
487.56496	34306.4375
491.6516	34162.2375
495.73531	34181.1375
499.81612	34335.6375
503.89401	34586.6375
507.96899	34749.9375
512.04106	34783.6375
516.11023	34722.6375
520.1765	34658.6375
524.23987	34511.4375
528.30034	34359.6375
532.35792	34131.8375
536.41261	33882.9375
540.46441	33530.5375
544.51333	33472.8375
548.55936	33602.4375
552.60252	33956.2375
556.64279	34355.1375
560.6802	34652.6375
564.71473	34773.1375
568.7464	35002.6375
572.7752	35395.0375
576.80114	35832.4375
580.82422	36499.7375
584.84444	37344.2375
588.86181	38192.7375
592.87633	38733.9375
596.888	38636.0375
600.89682	38295.3375
604.9028	39158.5375
608.90594	42279.9375
612.90624	45498.1375
616.90371	43595.7375
620.89834	38168.2375
624.89015	35641.7375
628.87913	35253.4375
632.86528	35299.5375
636.84862	35209.8375
640.82913	34838.3375
644.80683	34268.7375
648.78172	33854.2375
652.75379	33780.2375
656.72306	34144.5375
660.68952	34597.7375
664.65319	34513.3375
668.61405	34131.1375
672.57211	34176.4375
676.52738	34385.9375
680.47986	34340.4375
684.42955	34121.1375
688.37646	34001.8375
692.32058	34271.2375
696.26192	34737.1375
700.20048	35211.8375
704.13626	35310.2375
708.06928	35064.1375
711.99952	34818.4375
715.927	34713.9375
719.85171	34848.2375
723.77365	34861.9375
727.69284	34510.3375
731.60928	34068.1375
735.52295	33914.6375
739.43388	33918.0375
743.34206	34059.3375
747.24749	34206.6375
751.15017	34334.6375
755.05012	34612.8375
758.94733	35238.9375
762.8418	36334.1375
766.73354	38162.5375
770.62254	39966.8375
774.50882	40802.1375
778.39237	40069.7375
782.27321	38248.9375
786.15132	36619.4375
790.02671	35551.9375
793.89938	35025.5375
797.76935	34777.6375
801.6366	34703.3375
805.50115	34600.9375
809.36299	34468.0375
813.22213	34207.4375
817.07857	33963.9375
820.93231	33836.7375
824.78336	33808.4375
828.63172	33822.7375
832.47738	33856.1375
836.32036	33908.6375
840.16066	34059.0375
843.99827	34197.1375
847.8332	34136.1375
851.66546	34016.5375
855.49504	33996.6375
859.32195	33975.3375
863.1462	34022.7375
866.96777	34003.9375
870.78668	33930.1375
874.60293	34015.8375
878.41652	34115.4375
882.22745	34248.6375
886.03573	34424.4375
889.84136	34568.2375
893.64433	34354.3375
897.44466	34170.4375
901.24235	34028.2375
905.0374	33911.5375
908.8298	33877.6375
912.61957	33905.1375
916.40671	33958.5375
920.19121	34237.9375
923.97308	34547.3375
927.75233	34799.4375
931.52895	34777.8375
935.30295	34558.3375
939.07433	34212.7375
942.84309	33881.2375
946.60924	33780.7375
950.37278	33708.2375
954.13371	33558.2375
957.89203	33395.0375
961.64774	33335.3375
965.40086	33329.3375
969.15137	33324.4375
972.89929	33320.5375
976.64461	33457.0375
980.38733	33564.1375
984.12747	33720.1375
987.86502	33925.4375
991.59999	34222.3375
995.33237	34656.9375
999.06217	35423.6375
1002.78939	36217.9375
1006.51404	36839.5375
1010.23611	37215.5375
1013.95561	37449.3375
1017.67255	37388.5375
1021.38692	37131.9375
1025.09872	36849.6375
1028.80796	37005.5375
1032.51465	37780.7375
1036.21877	38624.5375
1039.92035	38927.2375
1043.61937	38592.0375
1047.31584	37825.6375
1051.00976	36983.5375
1054.70114	36479.5375
1058.38998	36431.1375
1062.07627	36592.7375
1065.76003	36841.8375
1069.44126	37186.5375
1073.11995	37763.5375
1076.79611	38338.7375
1080.46974	38683.2375
1084.14085	38744.6375
1087.80943	38874.2375
1091.47549	38920.7375
1095.13903	38713.4375
1098.80005	38237.6375
1102.45857	37691.5375
1106.11456	37291.3375
1109.76805	37039.5375
1113.41903	37009.6375
1117.06751	37035.2375
1120.71348	37148.3375
1124.35696	37388.3375
1127.99793	37676.7375
1131.63641	37884.9375
1135.2724	37733.4375
1138.90589	37500.5375
1142.5369	37306.4375
1146.16542	37199.0375
1149.79145	37132.1375
1153.415	37069.8375
1157.03607	37259.3375
1160.65467	37763.3375
1164.27079	38691.8375
1167.88443	40062.6375
1171.49561	41598.3375
1175.10432	43619.2375
1178.71056	46260.7375
1182.31434	48996.4375
1185.91565	50743.8375
1189.51451	51208.8375
1193.11091	50452.6375
1196.70485	48854.2375
1200.29634	47220.7375
1203.88538	45993.4375
1207.47197	45040.6375
1211.05612	44164.9375
1214.63782	43377.9375
1218.21708	42662.3375
1221.79391	42222.8375
1225.36829	41898.5375
1228.94024	41486.7375
1232.50976	41107.9375
1236.07685	40717.5375
1239.6415	40539.8375
1243.20374	40611.7375
1246.76355	40915.5375
1250.32093	41535.9375
1253.8759	42203.5375
1257.42845	43228.9375
1260.97859	44281.2375
1264.52631	45429.2375
1268.07163	46744.4375
1271.61453	48102.6375
1275.15503	49253.8375
1278.69312	50191.8375
1282.22882	50556.2375
1285.76211	50782.2375
1289.29301	51205.7375
1292.82151	52137.2375
1296.34761	53450.4375
1299.87133	55565.4375
1303.39266	58256.6375
1306.9116	61217.5375
1310.42815	63825.9375
1313.94233	65136.5375
1317.45412	64511.1375
1320.96354	62991.3375
1324.47058	61557.4375
1327.97525	60428.5375
1331.47754	59656.8375
1334.97747	59341.9375
1338.47502	59264.7375
1341.97022	59214.0375
1345.46305	59169.5375
1348.95352	59200.7375
1352.44163	59571.5375
1355.92738	60677.8375
1359.41078	62642.7375
1362.89183	64264.0375
1366.37053	63095.2375
1369.84688	58794.6375
1373.32088	53728.2375
1376.79254	50109.4375
1380.26186	48356.7375
1383.72883	47838.9375
1387.19347	47549.2375
1390.65578	46965.3375
1394.11575	46468.7375
1397.57339	46347.0375
1401.0287	46600.7375
1404.48168	46894.3375
1407.93234	47188.5375
1411.38068	47243.0375
1414.82669	46835.3375
1418.27039	46048.8375
1421.71177	45074.2375
1425.15083	44467.2375
1428.58758	44431.9375
1432.02203	45052.1375
1435.45416	45942.9375
1438.88399	46814.5375
1442.31151	47303.2375
1445.73673	47339.6375
1449.15965	47261.6375
1452.58027	46991.9375
1455.9986	46830.9375
1459.41463	47042.9375
1462.82837	47780.5375
1466.23982	48634.1375
1469.64898	49259.5375
1473.05586	49707.6375
1476.46045	49789.3375
1479.86276	49617.2375
1483.26279	49328.7375
1486.66054	49300.2375
1490.05602	49639.8375
1493.44922	50086.3375
1496.84016	50502.9375
1500.22882	51264.1375
1503.61521	52549.5375
1506.99934	53987.3375
1510.38121	55165.1375
1513.76081	55160.2375
1517.13816	53828.7375
1520.51324	51665.8375
1523.88607	49719.1375
1527.25665	48546.8375
1530.62498	48092.6375
1533.99105	47782.6375
1537.35488	47655.9375
1540.71647	47331.6375
1544.07581	46771.0375
1547.4329	46437.1375
1550.78776	46114.8375
1554.14038	45765.7375
1557.49077	45618.5375
1560.83892	45521.7375
1564.18484	45514.7375
1567.52853	45624.4375
1570.86999	45938.7375
1574.20922	46360.1375
1577.54624	46805.9375
1580.88103	46891.2375
1584.2136	46975.7375
1587.54395	47604.6375
1590.87208	49251.4375
1594.19801	51567.3375
1597.52172	53920.6375
1600.84321	54726.0375
1604.16251	53273.9375
1607.47959	50355.9375
1610.79447	47125.5375
1614.10715	44064.6375
1617.41763	41499.7375
1620.7259	39891.9375
1624.03199	39066.2375
1627.33587	39159.4375
1630.63757	39955.7375
1633.93707	41632.8375
1637.23439	44277.6375
1640.52951	47942.2375
1643.82246	52034.4375
1647.11321	54954.7375
1650.40179	54895.7375
1653.68819	51617.4375
1656.97241	46398.5375
1660.25446	41671.0375
1663.53433	38396.9375
1666.81203	36426.9375
1670.08756	35107.6375
1673.36092	34333.8375
1676.63211	33775.5375
1679.90115	33394.9375
1683.16801	33073.4375
1686.43272	32873.1375
1689.69527	32746.0375
1692.95567	32569.1375
1696.2139	32509.2375
1699.46999	32475.8375
1702.72392	32451.8375
1705.97571	32413.1375
1709.22535	32380.3375
1712.47284	32350.7375
1715.71819	32322.1375
1718.96139	32286.3375
1722.20246	32193.5375
1725.44139	32121.5375
1728.67818	32004.9375
1731.91284	31871.5375
1735.14537	31782.2375
1738.37576	31693.0375
1741.60403	31555.8375
1744.83017	31483.0375
1748.05418	31469.4375
1751.27607	31471.8375
1754.49584	31333.1375
1757.71349	31352.9375
1760.92903	31324.3375
1764.14244	31352.3375
1767.35375	31357.3375
1770.56294	31304.1375
1773.77002	31306.4375
1776.97499	31240.3375
1780.17785	31206.3375
1783.37861	31197.0375
1786.57727	31155.8375
1789.77382	31113.7375
1792.96828	31075.5375
1796.16064	31078.2375
1799.3509	30994.0375
1802.53907	30991.3375
1805.72514	30863.0375
1808.90913	30835.3375
1812.09102	30786.2375
1815.27083	30762.7375
1818.44856	30712.2375
1821.6242	30691.2375
1824.79776	30664.6375
1827.96924	30673.2375
1831.13864	30692.5375
1834.30597	30687.0375
1837.47122	30722.8375
1840.6344	30717.2375
1843.7955	30726.9375
1846.95454	30763.4375
1850.11151	30702.8375
1853.26642	30665.1375
1856.41926	30659.2375
1859.57004	30695.9375
1862.71876	30661.5375
1865.86542	30616.2375
1869.01003	30613.1375
1872.15258	30532.9375
1875.29308	30563.0375
1878.43152	30520.7375
1881.56792	30485.1375
1884.70227	30487.5375
1887.83457	30479.6375
1890.96482	30431.9375
1894.09304	30358.9375
1897.21921	30367.6375
1900.34335	30317.3375
1903.46544	30295.8375
1906.58551	30280.9375
1909.70353	30209.7375
1912.81953	30184.6375
1915.93349	30148.3375
1919.04543	30036.0375
1922.15534	30067.5375
1925.26322	29970.3375
1928.36908	29909.9375
1931.47292	29908.6375
1934.57473	29819.6375
1937.67453	29748.9375
1940.77232	29661.2375
1943.86808	29626.2375
1946.96184	29505.3375
1950.05358	29445.5375
1953.14331	29440.6375
1956.23103	29290.0375
1959.31675	29241.3375
1962.40046	29209.3375
1965.48217	29124.8375
1968.56188	29042.9375
1971.63959	29008.5375
1974.7153	28927.4375
1977.78901	28820.4375
1980.86073	28758.1375
1983.93046	28679.5375
1986.99819	28606.7375
1990.06394	28563.7375
1993.1277	28446.0375
1996.18947	28349.8375
1999.24925	28289.6375
2002.30706	28231.7375
2005.36288	28162.0375
2008.41672	28128.3375
2011.46859	28091.2375
2014.51848	27955.4375
2017.56639	27910.8375
2020.61233	27815.8375
2023.6563	27806.2375
2026.6983	27738.1375
2029.73833	27710.9375
2032.7764	27679.2375
2035.8125	27617.0375
2038.84664	27596.4375
2041.87881	27582.6375
2044.90903	27539.1375
2047.93729	27464.2375
2050.96359	27439.4375
2053.98794	27371.7375
2057.01034	27404.6375
2060.03078	27392.9375
2063.04927	27356.0375
2066.06582	27372.4375
2069.08042	27343.4375
2072.09307	27308.8375
2075.10378	27281.8375
2078.11255	27285.9375
2081.11938	27296.2375
2084.12426	27261.9375
2087.12722	27211.3375
2090.12824	27310.9375
2093.12732	27292.4375
2096.12447	27292.0375
2099.11969	27295.2375
2102.11299	27289.0375
2105.10435	27318.3375
2108.09379	27375.6375
2111.08131	27415.3375
2114.0669	27404.1375
2117.05057	27448.2375
2120.03233	27425.5375
2123.01216	27461.7375
2125.99008	27544.5375
2128.96609	27533.0375
2131.94018	27544.5375
2134.91236	27632.4375
2137.88263	27629.5375
2140.851	27617.7375
2143.81746	27718.5375
2146.78201	27734.0375
2149.74466	27694.0375
2152.7054	27737.2375
2155.66425	27726.7375
2158.6212	27712.0375
2161.57625	27725.2375
2164.52941	27724.0375
2167.48067	27695.8375
2170.43004	27717.9375
2173.37752	27713.4375
2176.32311	27688.5375
2179.26681	27712.9375
2182.20863	27727.9375
2185.14856	27764.7375
2188.08661	27701.7375
2191.02278	27726.9375
2193.95707	27689.9375
2196.88948	27689.3375
2199.82001	27740.0375
2202.74867	27716.1375
2205.67545	27698.9375
2208.60037	27689.8375
2211.52341	27635.0375
2214.44458	27619.2375
2217.36388	27573.1375
2220.28132	27552.6375
2223.1969	27535.1375
2226.11061	27503.9375
2229.02246	27464.2375
2231.93245	27417.3375
2234.84058	27343.9375
2237.74686	27287.9375
2240.65128	27296.7375
2243.55385	27243.6375
2246.45456	27198.9375
2249.35343	27189.3375
2252.25044	27147.7375
2255.14561	27122.0375
2258.03893	27104.1375
2260.93041	27057.6375
2263.82004	26988.6375
2266.70783	26991.9375
2269.59378	26881.5375
2272.4779	26854.8375
2275.36017	26816.3375
2278.24061	26795.6375
2281.11922	26747.5375
2283.996	26666.5375
2286.87094	26678.4375
2289.74405	26652.4375
2292.61534	26637.2375
2295.4848	26622.4375
2298.35243	26609.7375
2301.21824	26595.3375
2304.08223	26638.7375
2306.94439	26616.3375
2309.80474	26674.1375
2312.66327	26670.0375
2315.51999	26652.7375
2318.37489	26622.2375
2321.22797	26632.3375
2324.07925	26585.5375
2326.92871	26562.8375
2329.77637	26503.1375
2332.62222	26473.6375
2335.46626	26461.9375
2338.3085	26453.5375
2341.14893	26465.1375
2343.98756	26504.8375
2346.8244	26456.5375
2349.65943	26439.1375
2352.49267	26400.4375
2355.32411	26393.9375
2358.15376	26372.0375
2360.98161	26310.3375
2363.80768	26270.4375
2366.63195	26298.0375
2369.45444	26196.0375
2372.27514	26241.1375
2375.09405	26198.2375
2377.91118	26144.6375
2380.72652	26071.2375
2383.54009	26061.5375
2386.35187	26018.2375
2389.16188	25997.3375
2391.97011	25947.8375
2394.77657	25900.8375
2397.58125	25910.0375
2400.38416	25841.4375
2403.18529	25818.3375
2405.98466	25802.4375
2408.78226	25704.6375
2411.57809	25686.4375
2414.37216	25661.0375
2417.16446	25652.2375
2419.955	25610.2375
2422.74378	25622.9375
2425.5308	25596.1375
2428.31606	25589.5375
2431.09956	25556.4375
2433.88131	25557.8375
2436.6613	25516.3375
2439.43954	25524.1375
2442.21603	25546.5375
2444.99077	25505.1375
2447.76377	25508.3375
2450.53501	25490.1375
2453.30451	25459.3375
2456.07226	25487.3375
2458.83827	25467.5375
2461.60254	25484.3375
2464.36507	25445.5375
2467.12586	25431.9375
2469.88492	25463.3375
2472.64224	25459.0375
2475.39782	25445.2375
2478.15167	25423.4375
2480.90379	25433.8375
2483.65417	25413.0375
2486.40283	25394.3375
2489.14976	25434.6375
2491.89497	25401.0375
2494.63845	25427.9375
2497.3802	25394.4375
2500.12024	25334.4375
2502.85855	25381.4375
2505.59514	25336.2375
2508.33002	25392.5375
2511.06318	25315.6375
2513.79462	25332.9375
2516.52435	25305.3375
2519.25237	25264.5375
2521.97867	25270.3375
2524.70327	25236.9375
2527.42616	25215.0375
2530.14734	25227.9375
2532.86681	25194.5375
2535.58458	25179.5375
2538.30065	25137.4375
2541.01501	25125.3375
2543.72768	25065.4375
2546.43864	25090.2375
2549.14791	25039.9375
2551.85548	25021.6375
2554.56136	24977.8375
2557.26554	24954.1375
2559.96803	24946.3375
2562.66883	24935.1375
2565.36794	24921.5375
2568.06536	24918.0375
2570.7611	24881.9375
2573.45514	24825.4375
2576.14751	24870.3375
2578.83819	24777.8375
2581.52719	24780.5375
2584.21451	24773.7375
2586.90015	24772.3375
2589.58411	24747.1375
2592.2664	24701.1375
2594.94701	24651.9375
2597.62594	24637.2375
2600.30321	24596.1375
2602.9788	24620.2375
2605.65273	24524.4375
2608.32498	24565.0375
2610.99557	24498.1375
2613.66449	24512.7375
2616.33175	24476.5375
2618.99734	24459.0375
2621.66128	24456.0375
2624.32355	24431.2375
2626.98416	24400.0375
2629.64311	24444.1375
2632.30041	24431.1375
2634.95605	24366.6375
2637.61004	24338.8375
2640.26238	24316.7375
2642.91306	24299.2375
2645.56209	24278.2375
2648.20948	24264.1375
2650.85521	24281.7375
2653.4993	24259.7375
2656.14175	24234.8375
2658.78255	24288.5375
2661.42171	24243.3375
2664.05923	24276.5375
2666.6951	24265.6375
2669.32934	24275.7375
2671.96194	24287.6375
2674.59291	24261.3375
2677.22224	24292.0375
2679.84993	24303.3375
2682.476	24280.2375
2685.10043	24286.7375
2687.72324	24255.4375
2690.34441	24254.4375
2692.96396	24227.3375
2695.58188	24260.1375
2698.19818	24259.7375
2700.81285	24246.8375
2703.4259	24243.0375
2706.03733	24274.3375
2708.64714	24278.4375
2711.25533	24300.8375
2713.86191	24300.2375
2716.46687	24315.7375
2719.07021	24301.2375
2721.67194	24292.6375
2724.27206	24238.5375
2726.87057	24326.0375
2729.46747	24377.2375
2732.06276	24298.5375
2734.65644	24320.6375
2737.24852	24272.9375
2739.83899	24267.2375
2742.42786	24305.3375
2745.01513	24291.8375
2747.60079	24275.2375
2750.18486	24258.7375
2752.76733	24256.3375
2755.3482	24215.9375
2757.92747	24231.9375
2760.50515	24178.2375
2763.08123	24176.3375
2765.65573	24185.6375
2768.22863	24118.5375
2770.79994	24155.5375
2773.36967	24117.6375
2775.9378	24081.7375
2778.50435	24073.6375
2781.06932	24039.6375
2783.6327	24041.8375
2786.1945	24054.1375
2788.75471	24000.6375
2791.31335	23920.8375
2793.87041	23929.1375
2796.42589	23809.1375
2798.97979	23807.3375
2801.53212	23729.5375
2804.08288	23751.0375
2806.63206	23667.4375
2809.17967	23650.1375
2811.72571	23640.1375
2814.27018	23635.7375
2816.81308	23574.5375
2819.35442	23501.5375
2821.89419	23444.9375
2824.43239	23462.0375
2826.96904	23460.6375
2829.50412	23455.7375
2832.03763	23408.6375
2834.56959	23383.6375
2837.1	23320.4375
2839.62884	23334.8375
2842.15613	23323.8375
2844.68186	23334.4375
2847.20604	23334.3375
2849.72867	23371.6375
2852.24974	23334.4375
2854.76927	23306.5375
2857.28724	23269.5375
2859.80367	23248.9375
2862.31855	23249.7375
2864.83189	23247.4375
2867.34368	23202.0375
2869.85393	23192.1375
2872.36264	23226.6375
2874.8698	23234.2375
2877.37543	23228.7375
2879.87952	23261.8375
2882.38207	23246.2375
2884.88308	23268.5375
2887.38256	23282.1375
2889.88051	23266.7375
2892.37692	23263.5375
2894.8718	23305.4375
2897.36515	23299.0375
2899.85698	23290.2375
2902.34727	23376.3375
2904.83604	23366.7375
2907.32328	23369.8375
2909.809	23385.1375
2912.29319	23392.4375
2914.77587	23375.5375
2917.25702	23359.2375
2919.73665	23340.1375
2922.21476	23377.3375
2924.69136	23296.8375
2927.16644	23329.6375
2929.64	23256.7375
2932.11205	23275.7375
2934.58258	23141.9375
2937.05161	23205.3375
2939.51912	23236.6375
2941.98513	23240.4375
2944.44962	23195.5375
2946.91261	23099.0375
2949.37409	23188.4375
2951.83407	23158.6375
2954.29254	23115.0375
2956.74951	23073.7375
2959.20498	23035.8375
2961.65895	22997.1375
2964.11142	23020.4375
2966.56239	22938.5375
2969.01186	22940.2375
2971.45984	22895.9375
2973.90632	22881.2375
2976.35131	22823.8375
2978.7948	22797.0375
2981.23681	22772.9375
2983.67732	22713.7375
2986.11635	22686.5375
2988.55388	22625.1375
2990.98993	22582.2375
2993.4245	22550.8375
2995.85758	22496.5375
2998.28917	22468.4375
3000.71928	22424.9375
3003.14791	22413.4375
3005.57506	22387.7375
3008.00073	22344.5375
3010.42493	22328.1375
3012.84764	22309.1375
3015.26888	22285.9375
3017.68865	22265.5375
3020.10694	22282.3375
3022.52376	22184.9375
