Data from AgNPs_FTO_APTES_UA_100uM_R6G_10uM_NaF_0.1M_Addition_RamanShift__29__15-50-57-479.txt Node

Date: Fri Dec 17 15:50:57 GMT 2021
User: TCL
Spectrometer: QEP01345
Trigger mode: 4
Integration Time (sec): 7.000000E0
Scans to average: 10
Electric dark correction enabled: true
Nonlinearity correction enabled: false
Boxcar width: 0
XAxis mode: Raman Shifts
Number of Pixels in Spectrum: 1044
>>>>>Begin Spectral Data<<<<<
46.04893	-1.1875
50.45542	0.2125
54.85868	-0.9875
59.25871	0.9125
63.6555	49.5125
68.04907	51.0125
72.43941	54.9125
76.82654	59.0125
81.21044	60.2125
85.59113	61.4125
89.96862	67.3125
94.34289	67.8125
98.71396	73.1125
103.08183	72.0125
107.4465	74.6125
111.80798	73.5125
116.16626	76.2125
120.52136	75.8125
124.87327	78.2125
129.222	82.7125
133.56755	83.8125
137.90993	85.5125
142.24913	87.5125
146.58517	99.0125
150.91804	103.1125
155.24774	120.8125
159.57429	145.3125
163.89768	179.1125
168.21792	227.9125
172.53501	300.1125
176.84895	413.7125
181.15975	561.2125
185.46741	776.0125
189.77193	1067.2125
194.07331	1431.5125
198.37157	1830.0125
202.6667	2273.0125
206.9587	2691.5125
211.24758	3109.9125
215.53334	3547.9125
219.81599	4002.3125
224.09553	4503.4125
228.37195	5086.2125
232.64527	5712.6125
236.91549	6374.9125
241.18261	6996.9125
245.44663	7536.5125
249.70755	8023.5125
253.96539	8431.5125
258.22014	8803.4125
262.4718	9099.2125
266.72039	9333.5125
270.96589	9457.9125
275.20832	9475.9125
279.44768	9379.8125
283.68397	9244.0125
287.91719	9105.6125
292.14735	9059.5125
296.37445	9128.1125
300.59849	9342.1125
304.81948	9606.5125
309.03742	9761.1125
313.25231	9701.5125
317.46415	9347.1125
321.67296	8836.1125
325.87872	8428.9125
330.08145	8251.9125
334.28114	8238.5125
338.47781	8352.8125
342.67145	8563.6125
346.86207	8804.2125
351.04966	9191.2125
355.23424	9604.2125
359.4158	9967.5125
363.59435	10169.9125
367.76989	10299.9125
371.94243	10371.4125
376.11196	10401.7125
380.27849	10415.4125
384.44203	10402.2125
388.60257	10309.6125
392.76012	10287.0125
396.91468	10332.2125
401.06626	10531.6125
405.21485	10688.6125
409.36047	10599.6125
413.50311	10190.5125
417.64277	9808.7125
421.77947	9563.0125
425.9132	9468.9125
430.04396	9443.1125
434.17176	9483.5125
438.2966	9549.1125
442.41849	9687.5125
446.53742	9846.0125
450.6534	9987.5125
454.76644	10109.0125
458.87653	10160.4125
462.98368	10142.5125
467.08789	10073.3125
471.18916	9978.8125
475.2875	9817.0125
479.38291	9747.7125
483.4754	9647.2125
487.56496	9593.2125
491.6516	9583.4125
495.73531	9551.9125
499.81612	9603.3125
503.89401	9665.5125
507.96899	9746.6125
512.04106	9876.3125
516.11023	10035.7125
520.1765	10127.7125
524.23987	10149.6125
528.30034	10011.9125
532.35792	9870.4125
536.41261	9744.0125
540.46441	9593.9125
544.51333	9500.5125
548.55936	9508.9125
552.60252	9610.9125
556.64279	9735.4125
560.6802	9807.6125
564.71473	9882.0125
568.7464	10060.9125
572.7752	10221.7125
576.80114	10044.0125
580.82422	9819.4125
584.84444	9749.5125
588.86181	9709.0125
592.87633	9735.8125
596.888	9789.7125
600.89682	10059.7125
604.9028	10885.6125
608.90594	13053.0125
612.90624	15915.9125
616.90371	15583.9125
620.89834	12042.8125
624.89015	10311.2125
628.87913	10053.4125
632.86528	10160.3125
636.84862	10319.8125
640.82913	10268.7125
644.80683	9966.0125
648.78172	9674.9125
652.75379	9624.3125
656.72306	9817.9125
660.68952	10089.6125
664.65319	10014.5125
668.61405	9699.3125
672.57211	9538.8125
676.52738	9518.8125
680.47986	9552.4125
684.42955	9495.5125
688.37646	9447.1125
692.32058	9475.1125
696.26192	9563.3125
700.20048	9623.3125
704.13626	9675.7125
708.06928	9663.5125
711.99952	9597.2125
715.927	9604.6125
719.85171	9601.5125
723.77365	9616.7125
727.69284	9596.8125
731.60928	9549.3125
735.52295	9530.2125
739.43388	9531.0125
743.34206	9558.5125
747.24749	9533.1125
751.15017	9611.2125
755.05012	9693.4125
758.94733	9953.0125
762.8418	10563.2125
766.73354	11709.8125
770.62254	13028.4125
774.50882	13889.2125
778.39237	13504.4125
782.27321	12122.5125
786.15132	10798.0125
790.02671	10067.8125
793.89938	9725.8125
797.76935	9585.0125
801.6366	9543.4125
805.50115	9554.9125
809.36299	9597.4125
813.22213	9613.9125
817.07857	9606.4125
820.93231	9535.9125
824.78336	9512.6125
828.63172	9473.2125
832.47738	9473.3125
836.32036	9447.1125
840.16066	9397.1125
843.99827	9386.7125
847.8332	9354.4125
851.66546	9366.1125
855.49504	9371.9125
859.32195	9326.0125
863.1462	9334.3125
866.96777	9306.7125
870.78668	9333.9125
874.60293	9362.2125
878.41652	9389.1125
882.22745	9490.2125
886.03573	9561.5125
889.84136	9529.0125
893.64433	9489.1125
897.44466	9424.0125
901.24235	9371.7125
905.0374	9317.9125
908.8298	9279.5125
912.61957	9242.3125
916.40671	9241.7125
920.19121	9267.2125
923.97308	9279.7125
927.75233	9333.3125
931.52895	9393.4125
935.30295	9352.9125
939.07433	9256.7125
942.84309	9077.3125
946.60924	8996.7125
950.37278	8936.7125
954.13371	8888.6125
957.89203	8858.5125
961.64774	8847.2125
965.40086	8781.4125
969.15137	8795.6125
972.89929	8778.2125
976.64461	8762.1125
980.38733	8756.6125
984.12747	8745.0125
987.86502	8779.7125
991.59999	8809.8125
995.33237	8837.8125
999.06217	8924.6125
1002.78939	9045.6125
1006.51404	9159.3125
1010.23611	9332.6125
1013.95561	9412.6125
1017.67255	9434.8125
1021.38692	9384.1125
1025.09872	9300.8125
1028.80796	9241.8125
1032.51465	9197.1125
1036.21877	9245.8125
1039.92035	9255.7125
1043.61937	9234.7125
1047.31584	9246.9125
1051.00976	9216.1125
1054.70114	9235.3125
1058.38998	9233.6125
1062.07627	9271.1125
1065.76003	9303.4125
1069.44126	9353.8125
1073.11995	9416.7125
1076.79611	9486.9125
1080.46974	9553.7125
1084.14085	9639.1125
1087.80943	9762.8125
1091.47549	9848.5125
1095.13903	9745.5125
1098.80005	9564.5125
1102.45857	9384.7125
1106.11456	9319.4125
1109.76805	9322.3125
1113.41903	9477.6125
1117.06751	9679.3125
1120.71348	9946.9125
1124.35696	10219.4125
1127.99793	10516.2125
1131.63641	10595.9125
1135.2724	10310.4125
1138.90589	10009.9125
1142.5369	9788.8125
1146.16542	9582.4125
1149.79145	9434.4125
1153.415	9347.7125
1157.03607	9362.9125
1160.65467	9430.7125
1164.27079	9607.4125
1167.88443	9877.7125
1171.49561	10302.8125
1175.10432	11103.0125
1178.71056	12227.2125
1182.31434	13177.4125
1185.91565	13453.9125
1189.51451	13191.2125
1193.11091	12531.5125
1196.70485	11791.9125
1200.29634	11286.8125
1203.88538	10989.4125
1207.47197	10568.7125
1211.05612	10170.2125
1214.63782	9899.8125
1218.21708	9748.2125
1221.79391	9663.6125
1225.36829	9654.4125
1228.94024	9673.6125
1232.50976	9694.4125
1236.07685	9732.1125
1239.6415	9782.4125
1243.20374	9817.1125
1246.76355	9879.8125
1250.32093	9962.1125
1253.8759	10088.8125
1257.42845	10248.4125
1260.97859	10403.2125
1264.52631	10546.7125
1268.07163	10692.2125
1271.61453	10851.6125
1275.15503	10991.0125
1278.69312	11029.4125
1282.22882	11015.2125
1285.76211	11112.0125
1289.29301	11314.4125
1292.82151	11540.8125
1296.34761	11833.7125
1299.87133	12220.1125
1303.39266	12917.4125
1306.9116	14002.1125
1310.42815	15244.7125
1313.94233	15949.9125
1317.45412	15668.6125
1320.96354	14785.0125
1324.47058	13766.6125
1327.97525	12890.3125
1331.47754	12331.1125
1334.97747	12108.3125
1338.47502	12166.0125
1341.97022	12436.0125
1345.46305	12899.5125
1348.95352	13550.4125
1352.44163	14432.1125
1355.92738	15687.8125
1359.41078	17565.2125
1362.89183	19530.5125
1366.37053	19430.8125
1369.84688	16966.1125
1373.32088	14368.4125
1376.79254	12638.9125
1380.26186	11739.6125
1383.72883	11285.4125
1387.19347	10973.2125
1390.65578	10644.7125
1394.11575	10369.8125
1397.57339	10156.2125
1401.0287	10054.4125
1404.48168	10075.1125
1407.93234	10142.8125
1411.38068	10184.6125
1414.82669	10241.5125
1418.27039	10249.4125
1421.71177	10159.7125
1425.15083	10046.4125
1428.58758	9943.1125
1432.02203	9912.1125
1435.45416	9966.6125
1438.88399	9972.3125
1442.31151	9969.6125
1445.73673	9970.3125
1449.15965	10004.7125
1452.58027	10018.0125
1455.9986	9936.0125
1459.41463	9921.3125
1462.82837	9963.7125
1466.23982	10096.3125
1469.64898	10247.4125
1473.05586	10371.1125
1476.46045	10482.0125
1479.86276	10640.5125
1483.26279	10876.1125
1486.66054	11133.9125
1490.05602	11419.9125
1493.44922	11842.5125
1496.84016	12529.5125
1500.22882	13559.8125
1503.61521	14982.8125
1506.99934	16617.0125
1510.38121	18092.8125
1513.76081	18668.8125
1517.13816	17883.2125
1520.51324	16023.9125
1523.88607	14094.0125
1527.25665	12753.2125
1530.62498	11985.1125
1533.99105	11520.2125
1537.35488	11274.6125
1540.71647	11168.7125
1544.07581	11136.2125
1547.4329	11146.4125
1550.78776	11188.6125
1554.14038	11234.8125
1557.49077	11290.1125
1560.83892	11431.5125
1564.18484	11634.6125
1567.52853	11913.6125
1570.86999	12148.4125
1574.20922	12343.4125
1577.54624	12343.4125
1580.88103	11934.4125
1584.2136	11274.0125
1587.54395	10837.1125
1590.87208	10743.9125
1594.19801	11000.4125
1597.52172	11443.4125
1600.84321	11696.1125
1604.16251	11532.1125
1607.47959	11123.6125
1610.79447	10728.8125
1614.10715	10287.5125
1617.41763	9853.9125
1620.7259	9591.3125
1624.03199	9424.4125
1627.33587	9422.0125
1630.63757	9446.3125
1633.93707	9677.2125
1637.23439	10032.4125
1640.52951	10546.0125
1643.82246	11331.1125
1647.11321	12386.1125
1650.40179	13360.5125
1653.68819	13458.5125
1656.97241	12350.7125
1660.25446	10934.1125
1663.53433	9884.2125
1666.81203	9244.0125
1670.08756	8859.3125
1673.36092	8629.4125
1676.63211	8477.7125
1679.90115	8346.0125
1683.16801	8231.1125
1686.43272	8181.2125
1689.69527	8155.7125
1692.95567	8104.8125
1696.2139	8115.5125
1699.46999	8102.9125
1702.72392	8044.3125
1705.97571	8008.7125
1709.22535	7971.9125
1712.47284	7969.2125
1715.71819	7955.1125
1718.96139	7958.2125
1722.20246	7952.2125
1725.44139	7908.1125
1728.67818	7860.3125
1731.91284	7818.2125
1735.14537	7799.8125
1738.37576	7754.5125
1741.60403	7757.5125
1744.83017	7738.1125
1748.05418	7700.9125
1751.27607	7679.9125
1754.49584	7675.2125
1757.71349	7682.0125
1760.92903	7651.3125
1764.14244	7664.4125
1767.35375	7664.4125
1770.56294	7646.9125
1773.77002	7631.5125
1776.97499	7623.6125
1780.17785	7566.0125
1783.37861	7565.3125
1786.57727	7551.4125
1789.77382	7555.2125
1792.96828	7542.5125
1796.16064	7522.1125
1799.3509	7517.6125
1802.53907	7512.7125
1805.72514	7496.7125
1808.90913	7465.3125
1812.09102	7432.1125
1815.27083	7427.0125
1818.44856	7415.9125
1821.6242	7391.8125
1824.79776	7384.6125
1827.96924	7359.7125
1831.13864	7400.7125
1834.30597	7389.5125
1837.47122	7376.2125
1840.6344	7374.8125
1843.7955	7350.6125
1846.95454	7366.8125
1850.11151	7335.3125
1853.26642	7348.1125
1856.41926	7347.7125
1859.57004	7335.2125
1862.71876	7337.0125
1865.86542	7329.2125
1869.01003	7327.2125
1872.15258	7313.9125
1875.29308	7319.8125
1878.43152	7282.4125
1881.56792	7306.7125
1884.70227	7288.2125
1887.83457	7263.1125
1890.96482	7282.6125
1894.09304	7265.7125
1897.21921	7252.3125
1900.34335	7257.4125
1903.46544	7233.4125
1906.58551	7239.3125
1909.70353	7248.5125
1912.81953	7222.3125
1915.93349	7217.9125
1919.04543	7192.6125
1922.15534	7198.8125
1925.26322	7183.6125
1928.36908	7182.7125
1931.47292	7156.1125
1934.57473	7133.9125
1937.67453	7122.7125
1940.77232	7097.1125
1943.86808	7080.9125
1946.96184	7087.0125
1950.05358	7074.2125
1953.14331	7051.1125
1956.23103	7032.8125
1959.31675	6999.2125
1962.40046	6964.6125
1965.48217	6970.6125
1968.56188	6965.9125
1971.63959	6917.4125
1974.7153	6909.7125
1977.78901	6896.0125
1980.86073	6877.6125
1983.93046	6838.7125
1986.99819	6835.3125
1990.06394	6831.4125
1993.1277	6792.2125
1996.18947	6762.0125
1999.24925	6744.6125
2002.30706	6727.4125
2005.36288	6705.7125
2008.41672	6686.3125
2011.46859	6673.8125
2014.51848	6648.7125
2017.56639	6623.0125
2020.61233	6623.5125
2023.6563	6598.6125
2026.6983	6581.0125
2029.73833	6566.1125
2032.7764	6556.5125
2035.8125	6537.9125
2038.84664	6514.5125
2041.87881	6524.1125
2044.90903	6505.5125
2047.93729	6488.6125
2050.96359	6494.8125
2053.98794	6460.1125
2057.01034	6446.0125
2060.03078	6459.4125
2063.04927	6444.0125
2066.06582	6456.8125
2069.08042	6441.5125
2072.09307	6446.6125
2075.10378	6441.4125
2078.11255	6413.1125
2081.11938	6434.9125
2084.12426	6427.5125
2087.12722	6425.9125
2090.12824	6414.1125
2093.12732	6420.0125
2096.12447	6415.1125
2099.11969	6411.5125
2102.11299	6430.2125
2105.10435	6429.0125
2108.09379	6426.2125
2111.08131	6439.2125
2114.0669	6429.7125
2117.05057	6439.5125
2120.03233	6434.6125
2123.01216	6440.1125
2125.99008	6466.9125
2128.96609	6462.1125
2131.94018	6464.4125
2134.91236	6467.0125
2137.88263	6472.6125
2140.851	6460.3125
2143.81746	6474.4125
2146.78201	6491.0125
2149.74466	6474.8125
2152.7054	6470.4125
2155.66425	6460.1125
2158.6212	6478.9125
2161.57625	6462.3125
2164.52941	6464.1125
2167.48067	6459.5125
2170.43004	6449.0125
2173.37752	6463.7125
2176.32311	6449.2125
2179.26681	6441.0125
2182.20863	6445.6125
2185.14856	6440.5125
2188.08661	6439.4125
2191.02278	6441.5125
2193.95707	6428.6125
2196.88948	6445.4125
2199.82001	6420.4125
2202.74867	6426.9125
2205.67545	6411.8125
2208.60037	6383.0125
2211.52341	6385.8125
2214.44458	6368.8125
2217.36388	6352.5125
2220.28132	6342.9125
2223.1969	6348.6125
2226.11061	6325.7125
2229.02246	6303.5125
2231.93245	6315.3125
2234.84058	6292.9125
2237.74686	6284.7125
2240.65128	6283.5125
2243.55385	6286.4125
2246.45456	6265.8125
2249.35343	6242.8125
2252.25044	6249.4125
2255.14561	6237.7125
2258.03893	6240.4125
2260.93041	6247.9125
2263.82004	6216.9125
2266.70783	6229.6125
2269.59378	6200.4125
2272.4779	6186.9125
2275.36017	6179.3125
2278.24061	6181.2125
2281.11922	6135.3125
2283.996	6145.8125
2286.87094	6129.1125
2289.74405	6121.9125
2292.61534	6100.2125
2295.4848	6092.8125
2298.35243	6080.2125
2301.21824	6079.1125
2304.08223	6080.3125
2306.94439	6081.7125
2309.80474	6051.0125
2312.66327	6058.1125
2315.51999	6043.4125
2318.37489	6060.6125
2321.22797	6022.6125
2324.07925	6033.7125
2326.92871	6011.0125
2329.77637	6028.4125
2332.62222	6010.0125
2335.46626	6009.8125
2338.3085	6008.2125
2341.14893	5971.1125
2343.98756	5980.2125
2346.8244	5956.5125
2349.65943	5973.8125
2352.49267	5982.0125
2355.32411	5968.5125
2358.15376	6002.8125
2360.98161	5977.7125
2363.80768	5976.7125
2366.63195	5970.0125
2369.45444	5972.9125
2372.27514	5972.0125
2375.09405	5976.4125
2377.91118	5953.4125
2380.72652	5945.5125
2383.54009	5918.7125
2386.35187	5896.5125
2389.16188	5873.5125
2391.97011	5858.9125
2394.77657	5845.1125
2397.58125	5836.1125
2400.38416	5849.3125
2403.18529	5811.1125
2405.98466	5819.1125
2408.78226	5809.0125
2411.57809	5790.4125
2414.37216	5776.0125
2417.16446	5777.2125
2419.955	5767.0125
2422.74378	5786.3125
2425.5308	5760.1125
2428.31606	5743.5125
2431.09956	5731.0125
2433.88131	5747.4125
2436.6613	5725.7125
2439.43954	5727.2125
2442.21603	5708.5125
2444.99077	5714.7125
2447.76377	5718.8125
2450.53501	5729.9125
2453.30451	5721.7125
2456.07226	5701.0125
2458.83827	5701.5125
2461.60254	5695.3125
2464.36507	5685.7125
2467.12586	5686.2125
2469.88492	5682.2125
2472.64224	5693.6125
2475.39782	5688.9125
2478.15167	5683.4125
2480.90379	5686.1125
2483.65417	5674.4125
2486.40283	5670.9125
2489.14976	5681.1125
2491.89497	5677.6125
2494.63845	5684.2125
2497.3802	5695.7125
2500.12024	5641.0125
2502.85855	5658.0125
2505.59514	5641.7125
2508.33002	5636.7125
2511.06318	5636.9125
2513.79462	5595.6125
2516.52435	5601.8125
2519.25237	5582.5125
2521.97867	5577.3125
2524.70327	5557.5125
2527.42616	5558.7125
2530.14734	5541.8125
2532.86681	5543.0125
2535.58458	5530.7125
2538.30065	5509.4125
2541.01501	5490.9125
2543.72768	5500.5125
2546.43864	5503.4125
2549.14791	5480.7125
2551.85548	5493.4125
2554.56136	5479.8125
2557.26554	5464.4125
2559.96803	5453.4125
2562.66883	5459.2125
2565.36794	5452.0125
2568.06536	5453.0125
2570.7611	5435.0125
2573.45514	5426.9125
2576.14751	5412.5125
2578.83819	5383.1125
2581.52719	5387.3125
2584.21451	5395.2125
2586.90015	5380.4125
2589.58411	5360.1125
2592.2664	5355.4125
2594.94701	5346.8125
2597.62594	5327.2125
2600.30321	5320.5125
2602.9788	5326.3125
2605.65273	5308.8125
2608.32498	5279.5125
2610.99557	5288.8125
2613.66449	5294.0125
2616.33175	5281.3125
2618.99734	5282.0125
2621.66128	5283.2125
2624.32355	5283.3125
2626.98416	5274.2125
2629.64311	5255.3125
2632.30041	5254.0125
2634.95605	5243.9125
2637.61004	5237.3125
2640.26238	5208.7125
2642.91306	5209.9125
2645.56209	5204.0125
2648.20948	5195.7125
2650.85521	5214.2125
2653.4993	5191.5125
2656.14175	5190.8125
2658.78255	5198.2125
2661.42171	5196.3125
2664.05923	5193.3125
2666.6951	5211.2125
2669.32934	5209.7125
2671.96194	5206.4125
2674.59291	5218.5125
2677.22224	5201.9125
2679.84993	5225.7125
2682.476	5200.8125
2685.10043	5221.9125
2687.72324	5214.4125
2690.34441	5187.7125
2692.96396	5205.6125
2695.58188	5197.0125
2698.19818	5204.5125
2700.81285	5203.5125
2703.4259	5214.1125
2706.03733	5222.3125
2708.64714	5208.9125
2711.25533	5195.2125
2713.86191	5206.5125
2716.46687	5221.4125
2719.07021	5214.6125
2721.67194	5200.9125
2724.27206	5199.7125
2726.87057	5199.2125
2729.46747	5207.5125
2732.06276	5194.2125
2734.65644	5177.8125
2737.24852	5186.4125
2739.83899	5184.0125
2742.42786	5177.2125
2745.01513	5164.3125
2747.60079	5164.4125
2750.18486	5157.6125
2752.76733	5152.2125
2755.3482	5160.0125
2757.92747	5148.1125
2760.50515	5146.4125
2763.08123	5132.0125
2765.65573	5125.2125
2768.22863	5115.4125
2770.79994	5113.1125
2773.36967	5115.5125
2775.9378	5124.5125
2778.50435	5096.6125
2781.06932	5081.3125
2783.6327	5085.0125
2786.1945	5075.4125
2788.75471	5083.4125
2791.31335	5043.1125
2793.87041	5045.1125
2796.42589	5036.8125
2798.97979	5046.2125
2801.53212	5022.1125
2804.08288	5015.8125
2806.63206	5015.0125
2809.17967	5007.7125
2811.72571	5007.9125
2814.27018	5004.8125
2816.81308	4986.4125
2819.35442	4988.5125
2821.89419	4992.4125
2824.43239	4990.5125
2826.96904	4977.5125
2829.50412	4996.4125
2832.03763	4958.5125
2834.56959	4970.5125
2837.1	4981.8125
2839.62884	4988.6125
2842.15613	4976.3125
2844.68186	4997.5125
2847.20604	5017.6125
2849.72867	5018.6125
2852.24974	5026.5125
2854.76927	5016.5125
2857.28724	5025.1125
2859.80367	5011.1125
2862.31855	5010.0125
2864.83189	4997.1125
2867.34368	5000.4125
2869.85393	4983.0125
2872.36264	4975.0125
2874.8698	4996.7125
2877.37543	4991.1125
2879.87952	4988.7125
2882.38207	4982.4125
2884.88308	4987.5125
2887.38256	4986.2125
2889.88051	4979.2125
2892.37692	4983.0125
2894.8718	4974.7125
2897.36515	4977.4125
2899.85698	4975.5125
2902.34727	4978.4125
2904.83604	4969.1125
2907.32328	4988.1125
2909.809	4976.7125
2912.29319	4999.6125
2914.77587	4997.7125
2917.25702	4989.3125
2919.73665	4984.1125
2922.21476	4965.0125
2924.69136	4962.7125
2927.16644	4961.9125
2929.64	4941.6125
2932.11205	4947.2125
2934.58258	4928.6125
2937.05161	4940.2125
2939.51912	4924.1125
2941.98513	4926.7125
2944.44962	4907.7125
2946.91261	4890.4125
2949.37409	4891.8125
2951.83407	4889.2125
2954.29254	4875.1125
2956.74951	4876.4125
2959.20498	4864.5125
2961.65895	4852.8125
2964.11142	4875.2125
2966.56239	4853.1125
2969.01186	4859.6125
2971.45984	4840.4125
2973.90632	4818.0125
2976.35131	4841.3125
2978.7948	4817.2125
2981.23681	4793.8125
2983.67732	4788.0125
2986.11635	4779.4125
2988.55388	4777.8125
2990.98993	4778.5125
2993.4245	4751.5125
2995.85758	4755.8125
2998.28917	4752.3125
3000.71928	4747.7125
3003.14791	4739.1125
3005.57506	4728.9125
3008.00073	4710.8125
3010.42493	4730.0125
3012.84764	4728.3125
3015.26888	4725.0125
3017.68865	4720.9125
3020.10694	4712.5125
3022.52376	4692.0125
3024.9391	4697.1125
3027.35298	4674.0125
3029.76539	4678.9125
3032.17632	4684.3125
3034.5858	4669.8125
3036.9938	4671.9125
3039.40034	4651.2125
3041.80542	4654.7125
3044.20903	4649.8125
3046.61118	4649.9125
3049.01187	4644.4125
3051.4111	4646.9125
3053.80888	4643.1125
3056.20519	4631.5125
3058.60005	4608.9125
3060.99345	4622.3125
3063.3854	4627.4125
3065.7759	4623.7125
3068.16494	4608.8125
3070.55254	4602.8125
3072.93868	4585.1125
3075.32338	4576.1125
3077.70662	4574.1125
3080.08842	4571.8125
3082.46878	4586.6125
3084.84769	4571.9125
3087.22515	4573.1125
3089.60118	4577.2125
3091.97576	4582.4125
3094.3489	4565.9125
3096.72061	4569.1125
3099.09087	4568.4125
3101.4597	4577.7125
3103.82709	4577.0125
3106.19305	4562.5125
