Data from AgNPs_FTO_APTES_UA_1uM_R6G_10uM_NaF_0.1M_Addition_RamanShift__3__11-07-27-155.txt Node

Date: Fri Dec 17 11:07:27 GMT 2021
User: TCL
Spectrometer: QEP01345
Trigger mode: 4
Integration Time (sec): 7.000000E0
Scans to average: 10
Electric dark correction enabled: true
Nonlinearity correction enabled: false
Boxcar width: 0
XAxis mode: Raman Shifts
Number of Pixels in Spectrum: 1044
>>>>>Begin Spectral Data<<<<<
46.04893	-0.875
50.45542	-0.375
54.85868	-1.375
59.25871	-0.975
63.6555	104.125
68.04907	108.725
72.43941	116.325
76.82654	122.925
81.21044	122.525
85.59113	133.525
89.96862	136.125
94.34289	139.725
98.71396	144.825
103.08183	152.625
107.4465	152.025
111.80798	155.725
116.16626	164.325
120.52136	160.125
124.87327	172.025
129.222	176.825
133.56755	183.125
137.90993	199.025
142.24913	208.625
146.58517	234.325
150.91804	261.725
155.24774	302.325
159.57429	375.325
163.89768	473.225
168.21792	611.525
172.53501	820.225
176.84895	1123.825
181.15975	1564.425
185.46741	2180.025
189.77193	3011.825
194.07331	4030.125
198.37157	5202.325
202.6667	6388.025
206.9587	7628.125
211.24758	8832.425
215.53334	10067.325
219.81599	11354.525
224.09553	12777.725
228.37195	14342.825
232.64527	16101.325
236.91549	17890.225
241.18261	19725.625
245.44663	21398.225
249.70755	22921.225
253.96539	24227.525
258.22014	25328.625
262.4718	26167.225
266.72039	26807.825
270.96589	27041.425
275.20832	27001.325
279.44768	26691.525
283.68397	26325.625
287.91719	25986.525
292.14735	25710.525
296.37445	25639.425
300.59849	25635.725
304.81948	25746.525
309.03742	25805.825
313.25231	25677.325
317.46415	25330.625
321.67296	24904.625
325.87872	24506.625
330.08145	24399.125
334.28114	24398.625
338.47781	24563.825
342.67145	24882.525
346.86207	25223.725
351.04966	25696.525
355.23424	26236.325
359.4158	26719.625
363.59435	27103.725
367.76989	27395.125
371.94243	27590.425
376.11196	27696.525
380.27849	27778.725
384.44203	27911.225
388.60257	28080.025
392.76012	28346.425
396.91468	28609.025
401.06626	29027.725
405.21485	29282.525
409.36047	29285.225
413.50311	29027.125
417.64277	28846.825
421.77947	28811.825
425.9132	28876.225
430.04396	28999.525
434.17176	29067.025
438.2966	29258.125
442.41849	29626.525
446.53742	30261.025
450.6534	30950.825
454.76644	31458.025
458.87653	31654.925
462.98368	31561.825
467.08789	31313.825
471.18916	30809.025
475.2875	30374.725
479.38291	30064.525
483.4754	29867.225
487.56496	29776.725
491.6516	29647.425
495.73531	29609.525
499.81612	29622.425
503.89401	29789.625
507.96899	29842.025
512.04106	29785.825
516.11023	29711.525
520.1765	29592.725
524.23987	29498.925
528.30034	29379.225
532.35792	29187.525
536.41261	28935.625
540.46441	28591.925
544.51333	28473.325
548.55936	28623.925
552.60252	28963.325
556.64279	29373.125
560.6802	29716.925
564.71473	29861.825
568.7464	30119.625
572.7752	30501.625
576.80114	30821.425
580.82422	31326.325
584.84444	32081.125
588.86181	32933.125
592.87633	33555.025
596.888	33616.225
600.89682	33390.925
604.9028	34210.825
608.90594	36985.225
612.90624	39808.325
616.90371	38007.225
620.89834	32941.625
624.89015	30562.125
628.87913	30147.825
632.86528	30107.225
636.84862	29896.025
640.82913	29565.225
644.80683	29019.025
648.78172	28684.425
652.75379	28699.525
656.72306	29039.825
660.68952	29525.425
664.65319	29438.525
668.61405	29074.825
672.57211	29111.525
676.52738	29271.225
680.47986	29237.425
684.42955	29000.425
688.37646	28903.925
692.32058	29159.625
696.26192	29604.625
700.20048	30088.325
704.13626	30234.025
708.06928	30041.325
711.99952	29776.725
715.927	29772.225
719.85171	29958.625
723.77365	29966.925
727.69284	29560.625
731.60928	29208.025
735.52295	29113.425
739.43388	29119.525
743.34206	29210.925
747.24749	29289.325
751.15017	29553.425
755.05012	29795.525
758.94733	30367.725
762.8418	31403.525
766.73354	32994.425
770.62254	34549.825
774.50882	35159.625
778.39237	34286.825
782.27321	32730.425
786.15132	31317.725
790.02671	30429.225
793.89938	29923.725
797.76935	29745.525
801.6366	29629.325
805.50115	29579.025
809.36299	29444.325
813.22213	29211.725
817.07857	29122.725
820.93231	28977.925
824.78336	28970.225
828.63172	28924.425
832.47738	28941.225
836.32036	29026.025
840.16066	29164.825
843.99827	29288.725
847.8332	29203.025
851.66546	29080.925
855.49504	29074.325
859.32195	29132.125
863.1462	29114.325
866.96777	29063.225
870.78668	29041.725
874.60293	29055.525
878.41652	29136.325
882.22745	29311.225
886.03573	29487.425
889.84136	29537.825
893.64433	29471.025
897.44466	29310.525
901.24235	29252.725
905.0374	29203.225
908.8298	29152.825
912.61957	29200.425
916.40671	29361.225
920.19121	29653.525
923.97308	29998.125
927.75233	30262.325
931.52895	30295.625
935.30295	30052.225
939.07433	29656.825
942.84309	29290.825
946.60924	29121.525
950.37278	29031.425
954.13371	28929.525
957.89203	28801.425
961.64774	28727.725
965.40086	28709.125
969.15137	28648.125
972.89929	28705.025
976.64461	28782.025
980.38733	28890.925
984.12747	28993.225
987.86502	29167.825
991.59999	29463.325
995.33237	29861.725
999.06217	30517.825
1002.78939	31304.425
1006.51404	31873.825
1010.23611	32185.325
1013.95561	32383.925
1017.67255	32359.125
1021.38692	32021.825
1025.09872	31773.225
1028.80796	31987.325
1032.51465	32778.125
1036.21877	33502.125
1039.92035	33778.325
1043.61937	33455.125
1047.31584	32778.125
1051.00976	32003.725
1054.70114	31619.125
1058.38998	31547.625
1062.07627	31638.025
1065.76003	31788.425
1069.44126	31998.625
1073.11995	32413.425
1076.79611	32876.625
1080.46974	33211.925
1084.14085	33390.125
1087.80943	33631.125
1091.47549	33674.825
1095.13903	33530.925
1098.80005	33030.125
1102.45857	32519.625
1106.11456	32077.525
1109.76805	31876.025
1113.41903	31822.225
1117.06751	31788.625
1120.71348	31955.525
1124.35696	32125.525
1127.99793	32333.225
1131.63641	32483.625
1135.2724	32346.125
1138.90589	32161.825
1142.5369	32060.325
1146.16542	32005.125
1149.79145	31995.925
1153.415	32094.025
1157.03607	32244.325
1160.65467	32801.425
1164.27079	33770.925
1167.88443	35039.325
1171.49561	36515.725
1175.10432	38496.425
1178.71056	41081.125
1182.31434	43692.225
1185.91565	45266.925
1189.51451	45446.625
1193.11091	44558.225
1196.70485	42961.825
1200.29634	41438.025
1203.88538	40248.225
1207.47197	39390.525
1211.05612	38599.725
1214.63782	37973.825
1218.21708	37422.825
1221.79391	37007.225
1225.36829	36815.525
1228.94024	36464.425
1232.50976	36071.125
1236.07685	35692.925
1239.6415	35492.825
1243.20374	35502.525
1246.76355	35776.725
1250.32093	36289.325
1253.8759	36931.725
1257.42845	37866.425
1260.97859	38893.025
1264.52631	40002.325
1268.07163	41184.725
1271.61453	42381.425
1275.15503	43504.325
1278.69312	44403.425
1282.22882	44874.225
1285.76211	45275.425
1289.29301	45857.925
1292.82151	46686.425
1296.34761	48012.425
1299.87133	49891.325
1303.39266	52396.925
1306.9116	55199.025
1310.42815	57589.025
1313.94233	58771.625
1317.45412	58419.125
1320.96354	57181.725
1324.47058	55975.625
1327.97525	55071.925
1331.47754	54574.525
1334.97747	54223.025
1338.47502	53860.625
1341.97022	53174.325
1345.46305	52416.825
1348.95352	51922.425
1352.44163	52106.625
1355.92738	53431.025
1359.41078	55777.025
1362.89183	57865.825
1366.37053	57416.225
1369.84688	53679.825
1373.32088	48838.825
1376.79254	45243.125
1380.26186	43657.025
1383.72883	43222.125
1387.19347	42962.325
1390.65578	42373.625
1394.11575	41844.925
1397.57339	41728.825
1401.0287	42068.425
1404.48168	42427.525
1407.93234	42631.225
1411.38068	42657.525
1414.82669	42225.725
1418.27039	41365.425
1421.71177	40505.625
1425.15083	39835.525
1428.58758	39598.725
1432.02203	40039.625
1435.45416	40806.825
1438.88399	41668.125
1442.31151	42209.525
1445.73673	42363.425
1449.15965	42374.825
1452.58027	42174.825
1455.9986	41884.825
1459.41463	41918.625
1462.82837	42320.325
1466.23982	43069.225
1469.64898	43731.725
1473.05586	44246.625
1476.46045	44462.525
1479.86276	44449.325
1483.26279	44284.125
1486.66054	44281.925
1490.05602	44648.125
1493.44922	45065.925
1496.84016	45286.625
1500.22882	45647.925
1503.61521	46425.625
1506.99934	47609.125
1510.38121	48539.425
1513.76081	48690.325
1517.13816	47637.225
1520.51324	45868.525
1523.88607	44186.225
1527.25665	43098.625
1530.62498	42703.025
1533.99105	42444.125
1537.35488	42148.225
1540.71647	41725.925
1544.07581	41217.125
1547.4329	40729.025
1550.78776	40384.225
1554.14038	40107.725
1557.49077	39970.725
1560.83892	39901.925
1564.18484	39896.825
1567.52853	40012.125
1570.86999	40265.125
1574.20922	40697.325
1577.54624	41159.825
1580.88103	41348.225
1584.2136	41564.825
1587.54395	42577.925
1590.87208	44433.625
1594.19801	46700.525
1597.52172	48891.825
1600.84321	49438.425
1604.16251	47590.625
1607.47959	44467.625
1610.79447	41393.125
1614.10715	38459.225
1617.41763	36186.625
1620.7259	34786.625
1624.03199	34197.425
1627.33587	34404.125
1630.63757	35207.925
1633.93707	36786.925
1637.23439	39295.925
1640.52951	42886.625
1643.82246	46879.325
1647.11321	49797.925
1650.40179	49863.825
1653.68819	46653.025
1656.97241	41643.425
1660.25446	37006.125
1663.53433	33746.525
1666.81203	31776.825
1670.08756	30590.325
1673.36092	29795.925
1676.63211	29320.225
1679.90115	28938.525
1683.16801	28671.225
1686.43272	28460.025
1689.69527	28332.625
1692.95567	28212.025
1696.2139	28149.025
1699.46999	28060.125
1702.72392	28030.525
1705.97571	28025.425
1709.22535	28001.125
1712.47284	28000.825
1715.71819	28010.125
1718.96139	27952.625
1722.20246	27871.225
1725.44139	27838.025
1728.67818	27678.325
1731.91284	27587.025
1735.14537	27480.425
1738.37576	27398.525
1741.60403	27307.825
1744.83017	27204.425
1748.05418	27166.225
1751.27607	27141.925
1754.49584	27102.925
1757.71349	27103.125
1760.92903	27098.225
1764.14244	27076.925
1767.35375	27102.325
1770.56294	27002.425
1773.77002	27013.925
1776.97499	26967.425
1780.17785	26996.525
1783.37861	26941.625
1786.57727	26944.825
1789.77382	26919.725
1792.96828	26897.825
1796.16064	26870.025
1799.3509	26817.925
1802.53907	26769.425
1805.72514	26743.725
1808.90913	26669.925
1812.09102	26650.025
1815.27083	26597.725
1818.44856	26578.725
1821.6242	26573.825
1824.79776	26531.525
1827.96924	26517.925
1831.13864	26540.525
1834.30597	26579.425
1837.47122	26558.225
1840.6344	26644.625
1843.7955	26622.925
1846.95454	26684.425
1850.11151	26597.625
1853.26642	26636.725
1856.41926	26591.925
1859.57004	26624.425
1862.71876	26563.625
1865.86542	26577.125
1869.01003	26571.825
1872.15258	26552.225
1875.29308	26547.425
1878.43152	26533.525
1881.56792	26521.525
1884.70227	26462.225
1887.83457	26467.925
1890.96482	26454.225
1894.09304	26399.625
1897.21921	26367.625
1900.34335	26346.125
1903.46544	26269.825
1906.58551	26294.825
1909.70353	26240.325
1912.81953	26205.925
1915.93349	26173.125
1919.04543	26057.025
1922.15534	25964.925
1925.26322	25966.425
1928.36908	25941.725
1931.47292	25915.125
1934.57473	25795.225
1937.67453	25799.525
1940.77232	25753.325
1943.86808	25728.025
1946.96184	25631.825
1950.05358	25567.025
1953.14331	25514.525
1956.23103	25484.325
1959.31675	25379.225
1962.40046	25308.925
1965.48217	25238.125
1968.56188	25209.525
1971.63959	25157.025
1974.7153	25074.325
1977.78901	24965.625
1980.86073	24908.225
1983.93046	24888.425
1986.99819	24745.225
1990.06394	24689.125
1993.1277	24689.225
1996.18947	24608.325
1999.24925	24560.725
2002.30706	24491.425
2005.36288	24414.325
2008.41672	24387.625
2011.46859	24339.725
2014.51848	24252.725
2017.56639	24218.325
2020.61233	24190.625
2023.6563	24145.325
2026.6983	24119.825
2029.73833	24051.525
2032.7764	23995.925
2035.8125	23997.825
2038.84664	23979.225
2041.87881	23975.325
2044.90903	23935.025
2047.93729	23916.625
2050.96359	23838.825
2053.98794	23826.325
2057.01034	23834.225
2060.03078	23804.925
2063.04927	23769.625
2066.06582	23787.225
2069.08042	23737.325
2072.09307	23736.825
2075.10378	23768.425
2078.11255	23680.525
2081.11938	23737.825
2084.12426	23722.225
2087.12722	23708.525
2090.12824	23705.925
2093.12732	23727.525
2096.12447	23749.525
2099.11969	23762.625
2102.11299	23788.325
2105.10435	23803.025
2108.09379	23798.925
2111.08131	23824.925
2114.0669	23811.225
2117.05057	23836.225
2120.03233	23859.825
2123.01216	23930.325
2125.99008	23909.825
2128.96609	23962.125
2131.94018	23957.725
2134.91236	23994.925
2137.88263	24007.725
2140.851	24060.525
2143.81746	24071.925
2146.78201	24091.625
2149.74466	24115.125
2152.7054	24148.325
2155.66425	24142.225
2158.6212	24107.225
2161.57625	24118.925
2164.52941	24101.525
2167.48067	24130.825
2170.43004	24135.525
2173.37752	24128.025
2176.32311	24162.625
2179.26681	24146.025
2182.20863	24129.225
2185.14856	24166.325
2188.08661	24162.525
2191.02278	24171.525
2193.95707	24151.725
2196.88948	24141.925
2199.82001	24184.225
2202.74867	24151.725
2205.67545	24148.125
2208.60037	24122.225
2211.52341	24120.925
2214.44458	24046.725
2217.36388	24032.625
2220.28132	24045.225
2223.1969	23959.125
2226.11061	23931.725
2229.02246	23943.725
2231.93245	23875.825
2234.84058	23837.725
2237.74686	23810.625
2240.65128	23816.725
2243.55385	23748.425
2246.45456	23765.425
2249.35343	23722.925
2252.25044	23695.125
2255.14561	23660.925
2258.03893	23652.425
2260.93041	23610.025
2263.82004	23559.925
2266.70783	23539.425
2269.59378	23496.325
2272.4779	23442.725
2275.36017	23398.025
2278.24061	23374.825
2281.11922	23332.725
2283.996	23347.325
2286.87094	23312.425
2289.74405	23256.725
2292.61534	23268.325
2295.4848	23220.825
2298.35243	23211.525
2301.21824	23233.425
2304.08223	23283.825
2306.94439	23317.225
2309.80474	23292.525
2312.66327	23267.425
2315.51999	23297.525
2318.37489	23275.725
2321.22797	23261.525
2324.07925	23232.625
2326.92871	23212.725
2329.77637	23200.125
2332.62222	23174.925
2335.46626	23173.425
2338.3085	23129.225
2341.14893	23162.625
2343.98756	23167.725
2346.8244	23161.525
2349.65943	23158.125
2352.49267	23096.825
2355.32411	23075.825
2358.15376	23063.025
2360.98161	23043.225
2363.80768	22989.225
2366.63195	22990.725
2369.45444	22945.725
2372.27514	22973.725
2375.09405	22950.125
2377.91118	22911.125
2380.72652	22846.225
2383.54009	22824.825
2386.35187	22810.425
2389.16188	22747.825
2391.97011	22715.925
2394.77657	22706.925
2397.58125	22683.425
2400.38416	22670.325
2403.18529	22622.425
2405.98466	22605.525
2408.78226	22557.425
2411.57809	22555.425
2414.37216	22475.425
2417.16446	22477.825
2419.955	22459.925
2422.74378	22472.425
2425.5308	22437.625
2428.31606	22421.825
2431.09956	22430.825
2433.88131	22395.325
2436.6613	22392.925
2439.43954	22376.325
2442.21603	22360.725
2444.99077	22339.825
2447.76377	22390.925
2450.53501	22331.325
2453.30451	22357.425
2456.07226	22295.925
2458.83827	22345.625
2461.60254	22335.225
2464.36507	22323.725
2467.12586	22327.025
2469.88492	22301.325
2472.64224	22291.925
2475.39782	22300.625
2478.15167	22308.925
2480.90379	22275.425
2483.65417	22315.525
2486.40283	22300.125
2489.14976	22326.925
2491.89497	22273.925
2494.63845	22316.525
2497.3802	22277.625
2500.12024	22264.325
2502.85855	22266.125
2505.59514	22242.125
2508.33002	22226.825
2511.06318	22217.025
2513.79462	22202.225
2516.52435	22239.425
2519.25237	22202.025
2521.97867	22185.025
2524.70327	22204.725
2527.42616	22130.125
2530.14734	22167.325
2532.86681	22128.825
2535.58458	22124.225
2538.30065	22086.225
2541.01501	22057.425
2543.72768	22038.225
2546.43864	22033.525
2549.14791	21996.225
2551.85548	22028.525
2554.56136	21995.725
2557.26554	21961.025
2559.96803	21972.725
2562.66883	21921.725
2565.36794	21928.225
2568.06536	21960.525
2570.7611	21927.825
2573.45514	21884.925
2576.14751	21842.525
2578.83819	21817.825
2581.52719	21825.425
2584.21451	21826.625
2586.90015	21809.925
2589.58411	21782.725
2592.2664	21754.525
2594.94701	21697.425
2597.62594	21701.025
2600.30321	21651.625
2602.9788	21654.925
2605.65273	21611.125
2608.32498	21648.625
2610.99557	21618.425
2613.66449	21627.825
2616.33175	21573.225
2618.99734	21579.425
2621.66128	21560.225
2624.32355	21551.425
2626.98416	21515.625
2629.64311	21537.425
2632.30041	21500.225
2634.95605	21504.525
2637.61004	21494.825
2640.26238	21446.425
2642.91306	21403.625
2645.56209	21370.325
2648.20948	21373.425
2650.85521	21362.725
2653.4993	21389.125
2656.14175	21404.825
2658.78255	21408.425
2661.42171	21371.825
2664.05923	21407.225
2666.6951	21412.025
2669.32934	21447.825
2671.96194	21451.725
2674.59291	21468.125
2677.22224	21429.025
2679.84993	21464.525
2682.476	21409.725
2685.10043	21440.025
2687.72324	21417.725
2690.34441	21417.425
2692.96396	21395.625
2695.58188	21409.625
2698.19818	21391.225
2700.81285	21432.925
2703.4259	21385.625
2706.03733	21407.025
2708.64714	21421.925
2711.25533	21434.225
2713.86191	21429.125
2716.46687	21476.725
2719.07021	21470.625
2721.67194	21497.625
2724.27206	21471.225
2726.87057	21481.525
2729.46747	21505.725
2732.06276	21538.125
2734.65644	21484.025
2737.24852	21503.925
2739.83899	21483.825
2742.42786	21458.625
2745.01513	21480.025
2747.60079	21491.425
2750.18486	21456.925
2752.76733	21472.025
2755.3482	21453.125
2757.92747	21464.825
2760.50515	21454.025
2763.08123	21485.125
2765.65573	21430.625
2768.22863	21419.625
2770.79994	21464.125
2773.36967	21419.525
2775.9378	21402.825
2778.50435	21355.025
2781.06932	21359.725
2783.6327	21321.325
2786.1945	21307.825
2788.75471	21296.525
2791.31335	21261.625
2793.87041	21257.725
2796.42589	21160.025
2798.97979	21172.425
2801.53212	21145.825
2804.08288	21117.725
2806.63206	21036.625
2809.17967	21070.425
2811.72571	21046.725
2814.27018	20969.725
2816.81308	20998.925
2819.35442	20945.625
2821.89419	20907.725
2824.43239	20897.825
2826.96904	20852.925
2829.50412	20829.025
2832.03763	20782.425
2834.56959	20809.325
2837.1	20783.225
2839.62884	20831.925
2842.15613	20805.325
2844.68186	20843.825
2847.20604	20843.125
2849.72867	20845.825
2852.24974	20799.825
2854.76927	20832.325
2857.28724	20812.325
2859.80367	20835.625
2862.31855	20812.225
2864.83189	20836.325
2867.34368	20814.725
2869.85393	20798.825
2872.36264	20849.625
2874.8698	20855.125
2877.37543	20844.825
2879.87952	20881.425
2882.38207	20922.425
2884.88308	20901.525
2887.38256	20955.825
2889.88051	20937.025
2892.37692	20990.125
2894.8718	20975.425
2897.36515	21005.925
2899.85698	20983.425
2902.34727	21033.425
2904.83604	21019.325
2907.32328	21077.825
2909.809	21056.325
2912.29319	21081.125
2914.77587	21067.725
2917.25702	21030.925
2919.73665	21033.025
2922.21476	21050.925
2924.69136	20994.225
2927.16644	21002.525
2929.64	20996.625
2932.11205	21003.525
2934.58258	20924.725
2937.05161	20969.925
2939.51912	20889.625
2941.98513	20909.225
2944.44962	20874.825
2946.91261	20767.025
2949.37409	20787.525
2951.83407	20763.325
2954.29254	20734.725
2956.74951	20699.025
2959.20498	20697.125
2961.65895	20640.825
2964.11142	20642.825
2966.56239	20551.725
2969.01186	20537.125
2971.45984	20478.025
2973.90632	20462.125
2976.35131	20416.425
2978.7948	20420.325
2981.23681	20331.425
2983.67732	20304.425
2986.11635	20286.725
2988.55388	20204.225
2990.98993	20170.425
2993.4245	20138.425
2995.85758	20082.625
2998.28917	20079.425
3000.71928	20059.225
3003.14791	19992.925
3005.57506	19938.625
3008.00073	19970.325
3010.42493	19929.425
3012.84764	19909.725
3015.26888	19880.225
3017.68865	19885.625
3020.10694	19855.725
3022.52376	19798.625
3024.9391	19804.225
3027.35298	19751.525
3029.76539	19705.925
3032.17632	19679.125
3034.5858	19685.325
3036.9938	19642.025
3039.40034	19639.425
3041.80542	19640.625
3044.20903	19622.925
3046.61118	19568.025
3049.01187	19534.925
3051.4111	19528.825
3053.80888	19487.525
3056.20519	19472.425
3058.60005	19390.525
3060.99345	19359.325
3063.3854	19390.825
3065.7759	19321.125
3068.16494	19267.525
3070.55254	19234.025
3072.93868	19211.525
3075.32338	19174.825
3077.70662	19179.325
3080.08842	19132.825
3082.46878	19134.525
3084.84769	19093.625
3087.22515	19094.325
3089.60118	19078.825
3091.97576	19090.225
3094.3489	19087.325
3096.72061	19076.025
3099.09087	19103.325
3101.4597	19046.925
3103.82709	19056.825
3106.19305	19018.625
3108.55757	18999.425
3110.92066	18954.525
3113.28232	18945.725
3115.64255	18897.725
3118.00134	18834.025
3120.35871	18840.525
3122.71466	18830.925
3125.06917	18803.025
3127.42226	18776.525
