Data from AgNPs_FTO_APTES_UA_100uM_R6G_10uM_NaF_0.1M_Addition_RamanShift__25__15-46-17-474.txt Node

Date: Fri Dec 17 15:46:17 GMT 2021
User: TCL
Spectrometer: QEP01345
Trigger mode: 4
Integration Time (sec): 7.000000E0
Scans to average: 10
Electric dark correction enabled: true
Nonlinearity correction enabled: false
Boxcar width: 0
XAxis mode: Raman Shifts
Number of Pixels in Spectrum: 1044
>>>>>Begin Spectral Data<<<<<
46.04893	0.0125
50.45542	-0.6875
54.85868	-0.6875
59.25871	0.7125
63.6555	64.7125
68.04907	67.9125
72.43941	71.1125
76.82654	75.1125
81.21044	78.2125
85.59113	80.6125
89.96862	82.8125
94.34289	88.0125
98.71396	92.6125
103.08183	89.5125
107.4465	97.5125
111.80798	93.8125
116.16626	101.2125
120.52136	98.2125
124.87327	105.3125
129.222	110.4125
133.56755	114.8125
137.90993	120.0125
142.24913	128.7125
146.58517	141.5125
150.91804	160.6125
155.24774	187.6125
159.57429	228.1125
163.89768	288.1125
168.21792	377.2125
172.53501	510.6125
176.84895	704.9125
181.15975	979.5125
185.46741	1380.1125
189.77193	1896.8125
194.07331	2550.1125
198.37157	3270.2125
202.6667	4046.0125
206.9587	4827.5125
211.24758	5586.4125
215.53334	6330.3125
219.81599	7086.2125
224.09553	7981.0125
228.37195	8937.8125
232.64527	9991.8125
236.91549	11155.1125
241.18261	12297.5125
245.44663	13362.5125
249.70755	14296.9125
253.96539	15124.2125
258.22014	15831.9125
262.4718	16396.7125
266.72039	16837.8125
270.96589	17028.4125
275.20832	17081.1125
279.44768	16991.9125
283.68397	16731.0125
287.91719	16523.5125
292.14735	16393.3125
296.37445	16427.3125
300.59849	16546.7125
304.81948	16720.3125
309.03742	16771.5125
313.25231	16594.0125
317.46415	16177.8125
321.67296	15577.9125
325.87872	15126.8125
330.08145	14956.8125
334.28114	14952.0125
338.47781	15104.1125
342.67145	15321.6125
346.86207	15631.9125
351.04966	16030.4125
355.23424	16536.8125
359.4158	16962.8125
363.59435	17236.7125
367.76989	17413.7125
371.94243	17567.2125
376.11196	17655.5125
380.27849	17725.0125
384.44203	17757.1125
388.60257	17768.1125
392.76012	17794.2125
396.91468	17909.3125
401.06626	18135.7125
405.21485	18343.1125
409.36047	18275.8125
413.50311	17833.4125
417.64277	17474.9125
421.77947	17208.7125
425.9132	17067.2125
430.04396	17084.7125
434.17176	17187.1125
438.2966	17273.5125
442.41849	17475.5125
446.53742	17697.7125
450.6534	17930.6125
454.76644	18086.2125
458.87653	18272.1125
462.98368	18245.0125
467.08789	18155.5125
471.18916	18052.7125
475.2875	17890.3125
479.38291	17714.2125
483.4754	17596.1125
487.56496	17508.9125
491.6516	17458.6125
495.73531	17410.6125
499.81612	17386.7125
503.89401	17488.0125
507.96899	17545.1125
512.04106	17670.0125
516.11023	17793.0125
520.1765	17878.7125
524.23987	17884.6125
528.30034	17758.3125
532.35792	17640.9125
536.41261	17502.6125
540.46441	17278.9125
544.51333	17248.6125
548.55936	17269.1125
552.60252	17411.2125
556.64279	17575.2125
560.6802	17665.0125
564.71473	17723.2125
568.7464	17847.6125
572.7752	17985.5125
576.80114	17883.7125
580.82422	17733.3125
584.84444	17673.9125
588.86181	17676.0125
592.87633	17682.5125
596.888	17790.2125
600.89682	18122.1125
604.9028	19063.8125
608.90594	21485.8125
612.90624	24521.2125
616.90371	23914.9125
620.89834	19900.9125
624.89015	17986.1125
628.87913	17695.2125
632.86528	17788.9125
636.84862	17962.1125
640.82913	17878.2125
644.80683	17497.7125
648.78172	17160.1125
652.75379	17082.3125
656.72306	17277.3125
660.68952	17583.9125
664.65319	17524.6125
668.61405	17247.9125
672.57211	17083.1125
676.52738	17107.2125
680.47986	17064.3125
684.42955	17008.6125
688.37646	16942.5125
692.32058	16934.8125
696.26192	16970.7125
700.20048	17024.8125
704.13626	17111.9125
708.06928	17068.6125
711.99952	17024.5125
715.927	16987.0125
719.85171	16996.3125
723.77365	16990.3125
727.69284	16925.0125
731.60928	16849.0125
735.52295	16833.4125
739.43388	16826.0125
743.34206	16856.7125
747.24749	16908.2125
751.15017	16903.8125
755.05012	17003.1125
758.94733	17313.8125
762.8418	18069.0125
766.73354	19457.3125
770.62254	21030.8125
774.50882	21990.5125
778.39237	21396.2125
782.27321	19657.1125
786.15132	18158.9125
790.02671	17245.9125
793.89938	16813.7125
797.76935	16628.9125
801.6366	16564.9125
805.50115	16539.4125
809.36299	16560.3125
813.22213	16533.7125
817.07857	16528.8125
820.93231	16479.0125
824.78336	16432.6125
828.63172	16374.5125
832.47738	16369.9125
836.32036	16338.3125
840.16066	16306.4125
843.99827	16271.1125
847.8332	16254.8125
851.66546	16230.7125
855.49504	16229.3125
859.32195	16241.3125
863.1462	16205.0125
866.96777	16190.2125
870.78668	16155.6125
874.60293	16172.5125
878.41652	16205.1125
882.22745	16263.0125
886.03573	16324.3125
889.84136	16298.2125
893.64433	16232.0125
897.44466	16133.1125
901.24235	16066.0125
905.0374	15994.1125
908.8298	15958.0125
912.61957	15928.3125
916.40671	15931.4125
920.19121	15976.8125
923.97308	16041.1125
927.75233	16042.2125
931.52895	16092.3125
935.30295	16007.1125
939.07433	15825.0125
942.84309	15631.2125
946.60924	15506.5125
950.37278	15439.6125
954.13371	15361.2125
957.89203	15307.2125
961.64774	15269.7125
965.40086	15222.4125
969.15137	15140.1125
972.89929	15105.9125
976.64461	15086.7125
980.38733	15054.6125
984.12747	15073.5125
987.86502	15120.6125
991.59999	15146.9125
995.33237	15212.6125
999.06217	15366.2125
1002.78939	15556.9125
1006.51404	15726.0125
1010.23611	15940.3125
1013.95561	16040.0125
1017.67255	16069.5125
1021.38692	16021.3125
1025.09872	15919.4125
1028.80796	15846.8125
1032.51465	15868.4125
1036.21877	15925.1125
1039.92035	15968.9125
1043.61937	15940.2125
1047.31584	15876.9125
1051.00976	15776.7125
1054.70114	15725.4125
1058.38998	15720.6125
1062.07627	15764.3125
1065.76003	15877.3125
1069.44126	15962.5125
1073.11995	16065.7125
1076.79611	16121.6125
1080.46974	16151.8125
1084.14085	16184.7125
1087.80943	16330.2125
1091.47549	16370.9125
1095.13903	16303.6125
1098.80005	16113.8125
1102.45857	15807.9125
1106.11456	15732.8125
1109.76805	15752.0125
1113.41903	15871.3125
1117.06751	16098.5125
1120.71348	16395.2125
1124.35696	16655.2125
1127.99793	16975.4125
1131.63641	17138.1125
1135.2724	16924.0125
1138.90589	16530.8125
1142.5369	16268.0125
1146.16542	16026.1125
1149.79145	15821.2125
1153.415	15735.9125
1157.03607	15733.5125
1160.65467	15866.1125
1164.27079	16109.4125
1167.88443	16510.5125
1171.49561	17169.1125
1175.10432	18113.4125
1178.71056	19513.1125
1182.31434	20772.4125
1185.91565	21326.6125
1189.51451	21166.9125
1193.11091	20488.3125
1196.70485	19527.6125
1200.29634	18790.7125
1203.88538	18216.5125
1207.47197	17614.5125
1211.05612	17033.8125
1214.63782	16674.2125
1218.21708	16442.8125
1221.79391	16345.6125
1225.36829	16354.5125
1228.94024	16343.9125
1232.50976	16346.0125
1236.07685	16368.7125
1239.6415	16428.8125
1243.20374	16491.4125
1246.76355	16534.4125
1250.32093	16665.4125
1253.8759	16852.5125
1257.42845	17123.5125
1260.97859	17390.7125
1264.52631	17608.0125
1268.07163	17850.0125
1271.61453	18110.6125
1275.15503	18332.8125
1278.69312	18466.9125
1282.22882	18550.3125
1285.76211	18737.9125
1289.29301	19007.6125
1292.82151	19384.5125
1296.34761	19820.1125
1299.87133	20449.7125
1303.39266	21413.3125
1306.9116	22765.0125
1310.42815	24184.6125
1313.94233	25067.0125
1317.45412	24877.6125
1320.96354	23950.6125
1324.47058	22867.0125
1327.97525	21918.8125
1331.47754	21210.7125
1334.97747	20981.5125
1338.47502	21042.7125
1341.97022	21356.6125
1345.46305	21809.9125
1348.95352	22376.4125
1352.44163	23237.6125
1355.92738	24467.7125
1359.41078	26498.3125
1362.89183	28733.1125
1366.37053	28695.2125
1369.84688	25708.9125
1373.32088	22348.6125
1376.79254	20189.2125
1380.26186	19068.5125
1383.72883	18518.6125
1387.19347	18183.4125
1390.65578	17825.7125
1394.11575	17455.9125
1397.57339	17243.4125
1401.0287	17165.9125
1404.48168	17259.8125
1407.93234	17334.5125
1411.38068	17377.3125
1414.82669	17342.8125
1418.27039	17199.9125
1421.71177	16989.9125
1425.15083	16750.5125
1428.58758	16551.3125
1432.02203	16496.7125
1435.45416	16526.3125
1438.88399	16597.1125
1442.31151	16624.4125
1445.73673	16724.1125
1449.15965	16794.6125
1452.58027	16830.2125
1455.9986	16838.6125
1459.41463	16866.4125
1462.82837	16994.5125
1466.23982	17198.6125
1469.64898	17462.5125
1473.05586	17652.5125
1476.46045	17785.0125
1479.86276	17936.2125
1483.26279	18152.5125
1486.66054	18377.1125
1490.05602	18666.4125
1493.44922	19062.9125
1496.84016	19745.7125
1500.22882	20825.0125
1503.61521	22323.0125
1506.99934	24162.2125
1510.38121	25931.4125
1513.76081	26661.3125
1517.13816	25837.9125
1520.51324	23809.4125
1523.88607	21646.4125
1527.25665	20098.1125
1530.62498	19207.1125
1533.99105	18676.8125
1537.35488	18392.2125
1540.71647	18208.9125
1544.07581	18108.5125
1547.4329	18069.5125
1550.78776	18060.9125
1554.14038	18078.0125
1557.49077	18189.7125
1560.83892	18393.3125
1564.18484	18597.6125
1567.52853	18821.6125
1570.86999	19028.6125
1574.20922	19231.1125
1577.54624	19264.4125
1580.88103	18860.0125
1584.2136	18151.8125
1587.54395	17706.1125
1590.87208	17701.4125
1594.19801	18081.7125
1597.52172	18778.3125
1600.84321	19109.3125
1604.16251	18825.1125
1607.47959	18207.3125
1610.79447	17522.4125
1614.10715	16782.8125
1617.41763	16083.7125
1620.7259	15576.5125
1624.03199	15262.0125
1627.33587	15193.0125
1630.63757	15316.8125
1633.93707	15644.4125
1637.23439	16233.2125
1640.52951	17069.7125
1643.82246	18219.7125
1647.11321	19585.0125
1650.40179	20679.4125
1653.68819	20603.9125
1656.97241	19067.2125
1660.25446	17134.1125
1663.53433	15639.3125
1666.81203	14720.0125
1670.08756	14149.3125
1673.36092	13775.4125
1676.63211	13501.2125
1679.90115	13323.3125
1683.16801	13149.6125
1686.43272	13051.4125
1689.69527	12950.2125
1692.95567	12920.3125
1696.2139	12874.6125
1699.46999	12841.6125
1702.72392	12774.8125
1705.97571	12723.7125
1709.22535	12675.2125
1712.47284	12646.5125
1715.71819	12611.3125
1718.96139	12571.0125
1722.20246	12561.3125
1725.44139	12493.8125
1728.67818	12436.7125
1731.91284	12381.6125
1735.14537	12327.9125
1738.37576	12295.2125
1741.60403	12226.8125
1744.83017	12185.5125
1748.05418	12189.7125
1751.27607	12155.0125
1754.49584	12156.8125
1757.71349	12156.0125
1760.92903	12141.6125
1764.14244	12130.5125
1767.35375	12080.8125
1770.56294	12098.9125
1773.77002	12090.4125
1776.97499	12040.8125
1780.17785	11992.6125
1783.37861	11999.4125
1786.57727	11980.3125
1789.77382	11946.8125
1792.96828	11898.9125
1796.16064	11887.7125
1799.3509	11870.6125
1802.53907	11868.6125
1805.72514	11820.1125
1808.90913	11776.3125
1812.09102	11774.2125
1815.27083	11758.3125
1818.44856	11716.3125
1821.6242	11711.9125
1824.79776	11661.8125
1827.96924	11673.9125
1831.13864	11653.6125
1834.30597	11647.5125
1837.47122	11631.1125
1840.6344	11640.3125
1843.7955	11610.0125
1846.95454	11625.5125
1850.11151	11575.9125
1853.26642	11590.8125
1856.41926	11576.1125
1859.57004	11586.4125
1862.71876	11574.6125
1865.86542	11559.7125
1869.01003	11546.2125
1872.15258	11527.9125
1875.29308	11504.8125
1878.43152	11498.6125
1881.56792	11490.9125
1884.70227	11474.0125
1887.83457	11476.5125
1890.96482	11444.9125
1894.09304	11437.9125
1897.21921	11433.4125
1900.34335	11436.3125
1903.46544	11420.9125
1906.58551	11430.1125
1909.70353	11371.3125
1912.81953	11405.5125
1915.93349	11351.5125
1919.04543	11342.1125
1922.15534	11322.2125
1925.26322	11294.0125
1928.36908	11274.1125
1931.47292	11233.6125
1934.57473	11214.9125
1937.67453	11186.4125
1940.77232	11164.3125
1943.86808	11138.7125
1946.96184	11109.2125
1950.05358	11074.2125
1953.14331	11074.0125
1956.23103	11019.7125
1959.31675	10961.7125
1962.40046	10960.9125
1965.48217	10922.2125
1968.56188	10908.9125
1971.63959	10859.9125
1974.7153	10861.4125
1977.78901	10790.2125
1980.86073	10750.1125
1983.93046	10729.9125
1986.99819	10686.6125
1990.06394	10664.6125
1993.1277	10639.5125
1996.18947	10596.9125
1999.24925	10572.2125
2002.30706	10559.1125
2005.36288	10473.2125
2008.41672	10484.9125
2011.46859	10443.5125
2014.51848	10410.4125
2017.56639	10372.9125
2020.61233	10345.2125
2023.6563	10350.0125
2026.6983	10301.0125
2029.73833	10290.8125
2032.7764	10253.9125
2035.8125	10237.1125
2038.84664	10227.4125
2041.87881	10204.0125
2044.90903	10220.7125
2047.93729	10181.7125
2050.96359	10147.6125
2053.98794	10139.6125
2057.01034	10122.1125
2060.03078	10119.3125
2063.04927	10115.2125
2066.06582	10096.5125
2069.08042	10109.4125
2072.09307	10072.8125
2075.10378	10076.1125
2078.11255	10076.2125
2081.11938	10070.9125
2084.12426	10054.8125
2087.12722	10048.6125
2090.12824	10045.3125
2093.12732	10026.7125
2096.12447	10021.7125
2099.11969	10018.5125
2102.11299	10039.9125
2105.10435	10041.6125
2108.09379	10040.2125
2111.08131	10075.7125
2114.0669	10088.6125
2117.05057	10058.7125
2120.03233	10074.8125
2123.01216	10072.2125
2125.99008	10113.0125
2128.96609	10090.0125
2131.94018	10115.7125
2134.91236	10123.6125
2137.88263	10136.9125
2140.851	10101.5125
2143.81746	10122.1125
2146.78201	10134.1125
2149.74466	10126.1125
2152.7054	10137.4125
2155.66425	10110.8125
2158.6212	10106.2125
2161.57625	10112.0125
2164.52941	10083.1125
2167.48067	10104.1125
2170.43004	10071.6125
2173.37752	10098.7125
2176.32311	10076.8125
2179.26681	10060.8125
2182.20863	10099.8125
2185.14856	10105.2125
2188.08661	10086.7125
2191.02278	10089.3125
2193.95707	10058.5125
2196.88948	10050.5125
2199.82001	10057.4125
2202.74867	10028.5125
2205.67545	10007.5125
2208.60037	10015.6125
2211.52341	9990.0125
2214.44458	9970.2125
2217.36388	9956.1125
2220.28132	9944.8125
2223.1969	9904.0125
2226.11061	9913.5125
2229.02246	9896.0125
2231.93245	9864.9125
2234.84058	9855.2125
2237.74686	9832.0125
2240.65128	9833.1125
2243.55385	9831.0125
2246.45456	9793.9125
2249.35343	9785.5125
2252.25044	9779.6125
2255.14561	9761.2125
2258.03893	9751.9125
2260.93041	9735.8125
2263.82004	9734.7125
2266.70783	9713.0125
2269.59378	9692.5125
2272.4779	9675.0125
2275.36017	9659.3125
2278.24061	9635.4125
2281.11922	9606.2125
2283.996	9591.7125
2286.87094	9582.1125
2289.74405	9548.6125
2292.61534	9535.8125
2295.4848	9520.7125
2298.35243	9540.3125
2301.21824	9516.8125
2304.08223	9517.5125
2306.94439	9493.7125
2309.80474	9501.9125
2312.66327	9490.7125
2315.51999	9484.4125
2318.37489	9472.7125
2321.22797	9450.6125
2324.07925	9449.7125
2326.92871	9446.9125
2329.77637	9462.3125
2332.62222	9410.0125
2335.46626	9419.7125
2338.3085	9398.3125
2341.14893	9393.9125
2343.98756	9387.1125
2346.8244	9372.9125
2349.65943	9377.3125
2352.49267	9363.8125
2355.32411	9394.8125
2358.15376	9386.6125
2360.98161	9379.6125
2363.80768	9355.5125
2366.63195	9355.1125
2369.45444	9337.1125
2372.27514	9325.0125
2375.09405	9313.5125
2377.91118	9303.5125
2380.72652	9279.4125
2383.54009	9262.3125
2386.35187	9243.0125
2389.16188	9209.5125
2391.97011	9181.9125
2394.77657	9164.2125
2397.58125	9159.9125
2400.38416	9149.4125
2403.18529	9124.1125
2405.98466	9132.5125
2408.78226	9093.3125
2411.57809	9088.6125
2414.37216	9065.6125
2417.16446	9088.7125
2419.955	9050.3125
2422.74378	9050.9125
2425.5308	9034.8125
2428.31606	9016.0125
2431.09956	9036.2125
2433.88131	9006.4125
2436.6613	8997.3125
2439.43954	9000.9125
2442.21603	8989.8125
2444.99077	8972.4125
2447.76377	9000.3125
2450.53501	8978.5125
2453.30451	8973.1125
2456.07226	8934.9125
2458.83827	8944.3125
2461.60254	8938.5125
2464.36507	8953.2125
2467.12586	8925.5125
2469.88492	8923.6125
2472.64224	8915.0125
2475.39782	8926.3125
2478.15167	8915.8125
2480.90379	8919.1125
2483.65417	8913.7125
2486.40283	8907.5125
2489.14976	8910.4125
2491.89497	8895.9125
2494.63845	8916.9125
2497.3802	8900.7125
2500.12024	8894.6125
2502.85855	8890.8125
2505.59514	8887.4125
2508.33002	8852.8125
2511.06318	8865.1125
2513.79462	8809.6125
2516.52435	8821.2125
2519.25237	8804.6125
2521.97867	8774.4125
2524.70327	8766.9125
2527.42616	8734.2125
2530.14734	8717.7125
2532.86681	8714.4125
2535.58458	8720.9125
2538.30065	8721.7125
2541.01501	8685.7125
2543.72768	8675.5125
2546.43864	8671.1125
2549.14791	8658.2125
2551.85548	8648.4125
2554.56136	8659.1125
2557.26554	8632.5125
2559.96803	8599.1125
2562.66883	8612.0125
2565.36794	8609.1125
2568.06536	8603.2125
2570.7611	8586.7125
2573.45514	8566.2125
2576.14751	8554.1125
2578.83819	8554.5125
2581.52719	8526.4125
2584.21451	8522.1125
2586.90015	8518.8125
2589.58411	8496.4125
2592.2664	8475.6125
2594.94701	8461.4125
2597.62594	8453.3125
2600.30321	8445.5125
2602.9788	8424.8125
2605.65273	8393.1125
2608.32498	8421.0125
2610.99557	8378.2125
2613.66449	8403.7125
2616.33175	8393.3125
2618.99734	8390.4125
2621.66128	8387.6125
2624.32355	8368.2125
2626.98416	8362.3125
2629.64311	8354.5125
2632.30041	8371.9125
2634.95605	8357.9125
2637.61004	8328.3125
2640.26238	8328.0125
2642.91306	8300.8125
2645.56209	8296.6125
2648.20948	8288.3125
2650.85521	8286.6125
2653.4993	8286.5125
2656.14175	8269.2125
2658.78255	8276.7125
2661.42171	8278.8125
2664.05923	8285.9125
2666.6951	8288.1125
2669.32934	8280.8125
2671.96194	8280.0125
2674.59291	8286.0125
2677.22224	8306.6125
2679.84993	8302.0125
2682.476	8300.3125
2685.10043	8305.5125
2687.72324	8251.0125
2690.34441	8289.2125
2692.96396	8294.4125
2695.58188	8308.9125
2698.19818	8272.6125
2700.81285	8284.8125
2703.4259	8281.5125
2706.03733	8307.0125
2708.64714	8295.9125
2711.25533	8287.0125
2713.86191	8279.7125
2716.46687	8275.5125
2719.07021	8287.4125
2721.67194	8276.9125
2724.27206	8263.5125
2726.87057	8274.5125
2729.46747	8274.0125
2732.06276	8273.7125
2734.65644	8253.5125
2737.24852	8265.4125
2739.83899	8258.1125
2742.42786	8244.1125
2745.01513	8249.6125
2747.60079	8228.6125
2750.18486	8234.5125
2752.76733	8230.4125
2755.3482	8197.1125
2757.92747	8220.7125
2760.50515	8205.5125
2763.08123	8203.3125
2765.65573	8182.3125
2768.22863	8201.8125
2770.79994	8166.3125
2773.36967	8157.5125
2775.9378	8162.0125
2778.50435	8163.7125
2781.06932	8117.8125
2783.6327	8135.6125
2786.1945	8131.0125
2788.75471	8113.3125
2791.31335	8101.4125
2793.87041	8068.6125
2796.42589	8049.6125
2798.97979	8042.4125
2801.53212	8035.2125
2804.08288	8029.5125
2806.63206	8011.5125
2809.17967	7988.1125
2811.72571	7970.2125
2814.27018	7963.9125
2816.81308	7958.6125
2819.35442	7975.3125
2821.89419	7938.7125
2824.43239	7921.1125
2826.96904	7937.0125
2829.50412	7952.1125
2832.03763	7910.1125
2834.56959	7929.3125
2837.1	7916.5125
2839.62884	7920.2125
2842.15613	7923.6125
2844.68186	7943.0125
2847.20604	7918.3125
2849.72867	7947.1125
2852.24974	7928.4125
2854.76927	7928.0125
2857.28724	7912.7125
2859.80367	7899.2125
2862.31855	7875.0125
2864.83189	7880.3125
2867.34368	7875.2125
2869.85393	7883.4125
2872.36264	7876.1125
2874.8698	7868.9125
2877.37543	7874.9125
2879.87952	7854.1125
2882.38207	7889.4125
2884.88308	7864.1125
2887.38256	7864.3125
2889.88051	7863.7125
2892.37692	7865.0125
2894.8718	7834.9125
2897.36515	7862.7125
2899.85698	7855.0125
2902.34727	7881.6125
2904.83604	7871.8125
2907.32328	7877.2125
2909.809	7856.7125
2912.29319	7866.1125
2914.77587	7878.3125
2917.25702	7886.5125
2919.73665	7866.2125
2922.21476	7886.0125
2924.69136	7862.4125
2927.16644	7846.3125
2929.64	7837.7125
2932.11205	7833.1125
2934.58258	7809.0125
2937.05161	7820.2125
2939.51912	7835.0125
2941.98513	7804.7125
2944.44962	7813.8125
2946.91261	7789.4125
2949.37409	7797.1125
2951.83407	7772.2125
2954.29254	7776.9125
2956.74951	7771.9125
2959.20498	7762.2125
2961.65895	7751.4125
2964.11142	7742.0125
2966.56239	7738.4125
2969.01186	7737.1125
2971.45984	7725.5125
2973.90632	7708.3125
2976.35131	7709.7125
2978.7948	7683.9125
2981.23681	7659.1125
2983.67732	7652.0125
2986.11635	7635.6125
2988.55388	7630.5125
2990.98993	7626.3125
2993.4245	7597.7125
2995.85758	7602.5125
2998.28917	7579.4125
3000.71928	7570.5125
3003.14791	7548.4125
3005.57506	7583.4125
3008.00073	7560.9125
3010.42493	7546.0125
3012.84764	7531.6125
3015.26888	7526.2125
3017.68865	7492.0125
3020.10694	7516.3125
3022.52376	7501.1125
3024.9391	7460.9125
3027.35298	7478.4125
3029.76539	7445.4125
3032.17632	7445.7125
3034.5858	7431.1125
3036.9938	7407.7125
3039.40034	7412.9125
3041.80542	7417.7125
3044.20903	7409.5125
3046.61118	7409.1125
3049.01187	7383.2125
3051.4111	7388.2125
3053.80888	7382.3125
3056.20519	7350.8125
3058.60005	7351.4125
3060.99345	7355.4125
