Data from AgNPs_FTO_APTES_UA_10uM_R6G_10uM_NaF_0.1M_Addition_RamanShift__15__13-27-27-316.txt Node

Date: Fri Dec 17 13:27:27 GMT 2021
User: TCL
Spectrometer: QEP01345
Trigger mode: 4
Integration Time (sec): 7.000000E0
Scans to average: 10
Electric dark correction enabled: true
Nonlinearity correction enabled: false
Boxcar width: 0
XAxis mode: Raman Shifts
Number of Pixels in Spectrum: 1044
>>>>>Begin Spectral Data<<<<<
46.04893	-0.775
50.45542	0.125
54.85868	-1.475
59.25871	-0.875
63.6555	90.025
68.04907	91.325
72.43941	94.525
76.82654	101.725
81.21044	102.525
85.59113	108.725
89.96862	108.725
94.34289	114.525
98.71396	120.425
103.08183	123.025
107.4465	124.025
111.80798	130.325
116.16626	135.425
120.52136	137.925
124.87327	147.525
129.222	154.925
133.56755	163.225
137.90993	180.125
142.24913	198.025
146.58517	221.325
150.91804	250.625
155.24774	304.025
159.57429	379.525
163.89768	494.325
168.21792	646.625
172.53501	885.225
176.84895	1233.725
181.15975	1730.725
185.46741	2432.925
189.77193	3370.325
194.07331	4507.825
198.37157	5834.025
202.6667	7220.625
206.9587	8606.925
211.24758	9961.125
215.53334	11306.025
219.81599	12713.425
224.09553	14271.125
228.37195	16005.325
232.64527	17920.625
236.91549	19940.425
241.18261	22033.025
245.44663	23969.025
249.70755	25686.825
253.96539	27148.425
258.22014	28409.625
262.4718	29441.525
266.72039	30173.625
270.96589	30525.225
275.20832	30525.325
279.44768	30253.025
283.68397	29853.425
287.91719	29503.525
292.14735	29233.425
296.37445	29146.725
300.59849	29269.625
304.81948	29489.625
309.03742	29522.425
313.25231	29311.925
317.46415	28764.825
321.67296	28046.225
325.87872	27384.425
330.08145	27129.125
334.28114	27181.525
338.47781	27445.225
342.67145	27787.625
346.86207	28363.325
351.04966	29012.525
355.23424	29676.125
359.4158	30299.025
363.59435	30747.425
367.76989	31066.025
371.94243	31285.525
376.11196	31475.725
380.27849	31544.325
384.44203	31663.425
388.60257	31826.025
392.76012	32004.325
396.91468	32313.225
401.06626	32726.225
405.21485	33007.125
409.36047	32791.025
413.50311	32264.625
417.64277	31727.725
421.77947	31507.025
425.9132	31480.125
430.04396	31570.825
434.17176	31652.525
438.2966	31836.025
442.41849	32187.825
446.53742	32694.925
450.6534	33165.525
454.76644	33663.325
458.87653	33927.125
462.98368	33890.425
467.08789	33772.025
471.18916	33560.625
475.2875	33139.725
479.38291	32854.025
483.4754	32607.825
487.56496	32401.525
491.6516	32181.725
495.73531	32106.925
499.81612	32121.925
503.89401	32366.225
507.96899	32572.425
512.04106	32705.725
516.11023	32830.225
520.1765	32777.525
524.23987	32679.825
528.30034	32461.225
532.35792	32248.725
536.41261	31992.725
540.46441	31701.825
544.51333	31591.925
548.55936	31826.025
552.60252	32204.125
556.64279	32620.625
560.6802	32931.725
564.71473	33057.025
568.7464	33281.325
572.7752	33618.025
576.80114	33738.925
580.82422	33915.925
584.84444	34158.025
588.86181	34438.425
592.87633	34557.625
596.888	34564.325
600.89682	34786.525
604.9028	36242.925
608.90594	39878.625
612.90624	43975.425
616.90371	42308.425
620.89834	36118.025
624.89015	33107.225
628.87913	32598.325
632.86528	32739.325
636.84862	32929.225
640.82913	32747.525
644.80683	32165.125
648.78172	31673.125
652.75379	31611.825
656.72306	32022.725
660.68952	32534.625
664.65319	32454.325
668.61405	31921.925
672.57211	31791.525
676.52738	31952.625
680.47986	31948.225
684.42955	31804.525
688.37646	31775.425
692.32058	31835.225
696.26192	32047.925
700.20048	32378.725
704.13626	32530.325
708.06928	32469.625
711.99952	32263.925
715.927	32205.925
719.85171	32239.725
723.77365	32175.225
727.69284	31952.525
731.60928	31693.525
735.52295	31597.025
739.43388	31562.625
743.34206	31669.625
747.24749	31702.825
751.15017	31814.325
755.05012	32069.625
758.94733	32700.825
762.8418	33971.425
766.73354	36164.725
770.62254	38491.025
774.50882	39499.125
778.39237	38535.025
782.27321	36300.625
786.15132	34278.025
790.02671	32915.925
793.89938	32272.425
797.76935	31946.225
801.6366	31789.525
805.50115	31700.425
809.36299	31559.125
813.22213	31336.325
817.07857	31292.625
820.93231	31190.725
824.78336	31134.725
828.63172	31225.425
832.47738	31170.825
836.32036	31159.525
840.16066	31136.325
843.99827	31198.725
847.8332	31156.925
851.66546	31176.625
855.49504	31119.425
859.32195	31137.825
863.1462	31191.725
866.96777	31147.525
870.78668	31116.825
874.60293	31193.225
878.41652	31238.825
882.22745	31335.825
886.03573	31423.525
889.84136	31509.125
893.64433	31416.025
897.44466	31347.625
901.24235	31221.625
905.0374	31151.325
908.8298	31044.325
912.61957	31039.025
916.40671	31135.925
920.19121	31294.825
923.97308	31460.925
927.75233	31562.025
931.52895	31585.825
935.30295	31447.925
939.07433	31056.425
942.84309	30740.725
946.60924	30594.925
950.37278	30467.425
954.13371	30369.425
957.89203	30262.625
961.64774	30302.325
965.40086	30163.025
969.15137	30152.725
972.89929	30100.525
976.64461	30155.425
980.38733	30145.225
984.12747	30164.725
987.86502	30347.025
991.59999	30516.325
995.33237	30758.925
999.06217	31081.525
1002.78939	31544.825
1006.51404	31908.025
1010.23611	32230.625
1013.95561	32447.125
1017.67255	32511.025
1021.38692	32346.625
1025.09872	32053.125
1028.80796	31904.425
1032.51465	32015.125
1036.21877	32254.525
1039.92035	32387.025
1043.61937	32336.625
1047.31584	32191.325
1051.00976	32031.325
1054.70114	31987.125
1058.38998	32057.725
1062.07627	32279.225
1065.76003	32617.525
1069.44126	32911.625
1073.11995	33373.225
1076.79611	33898.725
1080.46974	34106.025
1084.14085	34214.525
1087.80943	34369.325
1091.47549	34395.225
1095.13903	34274.325
1098.80005	33910.125
1102.45857	33460.725
1106.11456	33140.625
1109.76805	32962.225
1113.41903	32971.825
1117.06751	33119.825
1120.71348	33365.525
1124.35696	33671.725
1127.99793	34048.225
1131.63641	34249.325
1135.2724	33920.525
1138.90589	33560.625
1142.5369	33315.425
1146.16542	33143.825
1149.79145	32993.625
1153.415	32960.925
1157.03607	33072.125
1160.65467	33480.425
1164.27079	34208.325
1167.88443	35285.525
1171.49561	36754.425
1175.10432	38601.625
1178.71056	41152.725
1182.31434	43690.225
1185.91565	45125.325
1189.51451	45430.425
1193.11091	44619.125
1196.70485	43124.525
1200.29634	41559.925
1203.88538	40261.525
1207.47197	39033.025
1211.05612	38053.225
1214.63782	37267.525
1218.21708	36713.725
1221.79391	36328.925
1225.36829	36131.025
1228.94024	36007.525
1232.50976	35893.025
1236.07685	35790.225
1239.6415	35691.725
1243.20374	35746.325
1246.76355	35944.025
1250.32093	36270.825
1253.8759	36680.325
1257.42845	37361.925
1260.97859	38161.025
1264.52631	38977.625
1268.07163	39791.025
1271.61453	40588.325
1275.15503	41301.825
1278.69312	41844.125
1282.22882	42149.725
1285.76211	42475.925
1289.29301	43000.125
1292.82151	43724.825
1296.34761	44651.525
1299.87133	45990.925
1303.39266	47849.325
1306.9116	50194.225
1310.42815	52686.325
1313.94233	54098.025
1317.45412	53886.125
1320.96354	52859.825
1324.47058	51768.925
1327.97525	50720.025
1331.47754	50040.725
1334.97747	49748.625
1338.47502	49887.925
1341.97022	50450.825
1345.46305	51042.625
1348.95352	51830.525
1352.44163	52567.125
1355.92738	53650.925
1359.41078	55522.825
1362.89183	57576.925
1366.37053	56568.225
1369.84688	52018.025
1373.32088	47000.625
1376.79254	43566.825
1380.26186	41802.525
1383.72883	41049.525
1387.19347	40576.225
1390.65578	39930.925
1394.11575	39403.825
1397.57339	39160.225
1401.0287	39152.325
1404.48168	39267.325
1407.93234	39390.625
1411.38068	39379.925
1414.82669	39070.525
1418.27039	38570.025
1421.71177	37952.625
1425.15083	37460.025
1428.58758	37204.125
1432.02203	37308.925
1435.45416	37777.725
1438.88399	38250.025
1442.31151	38572.525
1445.73673	38725.225
1449.15965	38904.525
1452.58027	39014.925
1455.9986	38995.925
1459.41463	39198.925
1462.82837	39634.525
1466.23982	40250.725
1469.64898	40727.725
1473.05586	41096.125
1476.46045	41194.925
1479.86276	41200.925
1483.26279	41132.125
1486.66054	41305.925
1490.05602	41650.825
1493.44922	42316.725
1496.84016	43351.225
1500.22882	44972.425
1503.61521	47356.925
1506.99934	50034.325
1510.38121	52149.525
1513.76081	52488.925
1517.13816	50696.025
1520.51324	47649.025
1523.88607	44879.225
1527.25665	42965.225
1530.62498	41982.525
1533.99105	41446.325
1537.35488	41100.525
1540.71647	40693.825
1544.07581	40359.025
1547.4329	39992.725
1550.78776	39761.825
1554.14038	39614.425
1557.49077	39594.925
1560.83892	39738.225
1564.18484	39870.425
1567.52853	40260.125
1570.86999	40720.125
1574.20922	41168.125
1577.54624	41429.025
1580.88103	41107.625
1584.2136	40376.225
1587.54395	40075.325
1590.87208	40482.525
1594.19801	41600.325
1597.52172	43131.625
1600.84321	43842.725
1604.16251	43080.925
1607.47959	41546.525
1610.79447	39689.225
1614.10715	37697.225
1617.41763	35782.125
1620.7259	34436.725
1624.03199	33595.725
1627.33587	33398.925
1630.63757	33795.225
1633.93707	34847.125
1637.23439	36676.725
1640.52951	39355.525
1643.82246	42497.325
1647.11321	45280.325
1650.40179	46280.025
1653.68819	44687.125
1656.97241	40849.025
1660.25446	36719.925
1663.53433	33691.225
1666.81203	31741.625
1670.08756	30484.125
1673.36092	29683.825
1676.63211	29180.925
1679.90115	28833.225
1683.16801	28484.025
1686.43272	28307.525
1689.69527	28109.425
1692.95567	28030.525
1696.2139	27985.025
1699.46999	27901.625
1702.72392	27867.925
1705.97571	27790.525
1709.22535	27746.825
1712.47284	27695.325
1715.71819	27714.225
1718.96139	27619.425
1722.20246	27552.925
1725.44139	27461.725
1728.67818	27363.125
1731.91284	27244.125
1735.14537	27155.725
1738.37576	27068.425
1741.60403	26968.625
1744.83017	26841.725
1748.05418	26854.025
1751.27607	26781.725
1754.49584	26762.725
1757.71349	26706.325
1760.92903	26732.025
1764.14244	26675.525
1767.35375	26692.525
1770.56294	26670.025
1773.77002	26634.825
1776.97499	26598.925
1780.17785	26538.025
1783.37861	26463.925
1786.57727	26396.225
1789.77382	26402.925
1792.96828	26358.525
1796.16064	26296.025
1799.3509	26298.225
1802.53907	26218.925
1805.72514	26158.825
1808.90913	26131.325
1812.09102	26072.625
1815.27083	25974.525
1818.44856	25965.325
1821.6242	25918.825
1824.79776	25936.825
1827.96924	25942.625
1831.13864	25884.925
1834.30597	25930.925
1837.47122	25940.425
1840.6344	25910.725
1843.7955	25931.725
1846.95454	25928.825
1850.11151	25906.125
1853.26642	25888.725
1856.41926	25866.825
1859.57004	25846.225
1862.71876	25796.025
1865.86542	25781.325
1869.01003	25726.925
1872.15258	25689.025
1875.29308	25665.225
1878.43152	25658.425
1881.56792	25630.225
1884.70227	25609.225
1887.83457	25566.625
1890.96482	25537.625
1894.09304	25510.425
1897.21921	25499.125
1900.34335	25447.425
1903.46544	25410.125
1906.58551	25342.625
1909.70353	25343.225
1912.81953	25284.125
1915.93349	25217.425
1919.04543	25177.925
1922.15534	25127.825
1925.26322	25061.925
1928.36908	25029.025
1931.47292	24997.525
1934.57473	24919.225
1937.67453	24858.425
1940.77232	24806.025
1943.86808	24704.325
1946.96184	24672.325
1950.05358	24603.025
1953.14331	24567.825
1956.23103	24461.525
1959.31675	24420.025
1962.40046	24317.925
1965.48217	24280.425
1968.56188	24203.525
1971.63959	24110.525
1974.7153	24061.125
1977.78901	23986.025
1980.86073	23925.725
1983.93046	23849.825
1986.99819	23790.625
1990.06394	23713.925
1993.1277	23623.325
1996.18947	23549.225
1999.24925	23510.725
2002.30706	23435.025
2005.36288	23370.225
2008.41672	23304.025
2011.46859	23241.725
2014.51848	23190.025
2017.56639	23107.625
2020.61233	23062.425
2023.6563	23016.625
2026.6983	22964.325
2029.73833	22906.725
2032.7764	22864.125
2035.8125	22808.325
2038.84664	22730.825
2041.87881	22716.525
2044.90903	22689.725
2047.93729	22618.625
2050.96359	22585.125
2053.98794	22545.025
2057.01034	22511.525
2060.03078	22503.025
2063.04927	22515.925
2066.06582	22536.025
2069.08042	22538.825
2072.09307	22486.325
2075.10378	22470.425
2078.11255	22441.225
2081.11938	22441.925
2084.12426	22421.625
2087.12722	22409.425
2090.12824	22424.225
2093.12732	22396.525
2096.12447	22440.325
2099.11969	22433.325
2102.11299	22415.925
2105.10435	22457.325
2108.09379	22462.725
2111.08131	22454.925
2114.0669	22475.825
2117.05057	22483.125
2120.03233	22528.825
2123.01216	22561.225
2125.99008	22576.025
2128.96609	22565.225
2131.94018	22558.725
2134.91236	22580.925
2137.88263	22632.525
2140.851	22644.525
2143.81746	22660.525
2146.78201	22691.125
2149.74466	22656.125
2152.7054	22627.325
2155.66425	22632.425
2158.6212	22633.825
2161.57625	22634.725
2164.52941	22628.925
2167.48067	22589.825
2170.43004	22582.525
2173.37752	22569.825
2176.32311	22597.625
2179.26681	22575.625
2182.20863	22569.925
2185.14856	22578.325
2188.08661	22537.125
2191.02278	22548.225
2193.95707	22514.225
2196.88948	22524.525
2199.82001	22542.325
2202.74867	22478.325
2205.67545	22475.525
2208.60037	22455.425
2211.52341	22421.425
2214.44458	22392.525
2217.36388	22343.525
2220.28132	22289.725
2223.1969	22269.625
2226.11061	22204.825
2229.02246	22156.325
2231.93245	22144.325
2234.84058	22056.025
2237.74686	22053.425
2240.65128	22015.625
2243.55385	21994.025
2246.45456	21995.125
2249.35343	21956.525
2252.25044	21891.025
2255.14561	21878.125
2258.03893	21822.225
2260.93041	21808.325
2263.82004	21792.825
2266.70783	21747.825
2269.59378	21656.725
2272.4779	21675.525
2275.36017	21591.325
2278.24061	21550.225
2281.11922	21511.725
2283.996	21471.025
2286.87094	21436.325
2289.74405	21373.425
2292.61534	21369.225
2295.4848	21326.325
2298.35243	21360.325
2301.21824	21310.525
2304.08223	21305.825
2306.94439	21312.025
2309.80474	21310.325
2312.66327	21298.925
2315.51999	21237.725
2318.37489	21230.125
2321.22797	21211.125
2324.07925	21193.525
2326.92871	21142.225
2329.77637	21100.925
2332.62222	21070.025
2335.46626	21047.625
2338.3085	21013.625
2341.14893	21014.925
2343.98756	20992.625
2346.8244	20979.625
2349.65943	21002.625
2352.49267	20953.925
2355.32411	20976.525
2358.15376	20952.925
2360.98161	20928.125
2363.80768	20890.425
2366.63195	20915.525
2369.45444	20878.725
2372.27514	20872.325
2375.09405	20852.825
2377.91118	20775.225
2380.72652	20737.825
2383.54009	20702.525
2386.35187	20635.125
2389.16188	20625.025
2391.97011	20570.925
2394.77657	20544.025
2397.58125	20493.425
2400.38416	20432.625
2403.18529	20432.125
2405.98466	20395.125
2408.78226	20320.325
2411.57809	20318.325
2414.37216	20323.625
2417.16446	20315.825
2419.955	20255.325
2422.74378	20231.925
2425.5308	20222.925
2428.31606	20220.225
2431.09956	20208.825
2433.88131	20129.525
2436.6613	20157.625
2439.43954	20147.225
2442.21603	20140.725
2444.99077	20140.525
2447.76377	20100.125
2450.53501	20083.125
2453.30451	20072.825
2456.07226	20043.225
2458.83827	20037.425
2461.60254	19974.825
2464.36507	20008.425
2467.12586	19974.125
2469.88492	19975.425
2472.64224	19975.725
2475.39782	19940.725
2478.15167	19953.625
2480.90379	19935.625
2483.65417	19941.125
2486.40283	19933.725
2489.14976	19931.925
2491.89497	19852.525
2494.63845	19910.125
2497.3802	19859.025
2500.12024	19835.425
2502.85855	19840.825
2505.59514	19823.225
2508.33002	19803.125
2511.06318	19787.225
2513.79462	19739.625
2516.52435	19720.825
2519.25237	19719.625
2521.97867	19676.025
2524.70327	19626.325
2527.42616	19640.325
2530.14734	19614.225
2532.86681	19604.325
2535.58458	19565.225
2538.30065	19547.525
2541.01501	19492.525
2543.72768	19497.625
2546.43864	19486.325
2549.14791	19423.725
2551.85548	19385.025
2554.56136	19337.225
2557.26554	19336.425
2559.96803	19322.825
2562.66883	19264.125
2565.36794	19251.325
2568.06536	19252.225
2570.7611	19209.525
2573.45514	19161.525
2576.14751	19168.825
2578.83819	19110.725
2581.52719	19087.425
2584.21451	19097.025
2586.90015	19049.425
2589.58411	18993.725
2592.2664	18978.425
2594.94701	18941.525
2597.62594	18944.625
2600.30321	18867.125
2602.9788	18885.525
2605.65273	18867.125
2608.32498	18830.425
2610.99557	18801.825
2613.66449	18816.125
2616.33175	18730.525
2618.99734	18734.825
2621.66128	18725.325
2624.32355	18697.725
2626.98416	18651.125
2629.64311	18658.025
2632.30041	18672.025
2634.95605	18612.225
2637.61004	18586.425
2640.26238	18575.725
2642.91306	18560.825
2645.56209	18561.425
2648.20948	18517.425
2650.85521	18541.925
2653.4993	18496.725
2656.14175	18465.925
2658.78255	18494.025
2661.42171	18481.225
2664.05923	18532.425
2666.6951	18502.125
2669.32934	18529.925
2671.96194	18500.125
2674.59291	18504.225
2677.22224	18499.125
2679.84993	18507.425
2682.476	18467.625
2685.10043	18499.925
2687.72324	18417.525
2690.34441	18456.725
2692.96396	18405.325
2695.58188	18451.125
2698.19818	18427.525
2700.81285	18442.525
2703.4259	18454.925
2706.03733	18454.925
2708.64714	18485.425
2711.25533	18481.525
2713.86191	18450.625
2716.46687	18461.325
2719.07021	18433.025
2721.67194	18419.125
2724.27206	18419.825
2726.87057	18441.425
2729.46747	18452.725
2732.06276	18436.125
2734.65644	18394.425
2737.24852	18412.925
2739.83899	18358.225
2742.42786	18412.325
2745.01513	18349.825
2747.60079	18345.025
2750.18486	18332.125
2752.76733	18327.525
2755.3482	18260.725
2757.92747	18274.025
2760.50515	18242.625
2763.08123	18248.025
2765.65573	18207.025
2768.22863	18181.525
2770.79994	18157.825
2773.36967	18158.725
2775.9378	18121.325
2778.50435	18073.625
2781.06932	18080.225
2783.6327	18071.225
2786.1945	18058.325
2788.75471	18006.425
2791.31335	17971.125
2793.87041	17931.725
2796.42589	17894.325
2798.97979	17842.525
2801.53212	17806.025
2804.08288	17787.425
2806.63206	17739.625
2809.17967	17703.925
2811.72571	17701.325
2814.27018	17707.225
2816.81308	17660.025
2819.35442	17599.125
2821.89419	17571.225
2824.43239	17531.325
2826.96904	17537.025
2829.50412	17546.825
2832.03763	17476.325
2834.56959	17513.225
2837.1	17447.025
2839.62884	17462.425
2842.15613	17382.725
2844.68186	17457.325
2847.20604	17412.825
2849.72867	17435.225
2852.24974	17411.025
2854.76927	17417.925
2857.28724	17401.325
2859.80367	17324.625
2862.31855	17308.925
2864.83189	17288.525
2867.34368	17293.525
2869.85393	17292.325
2872.36264	17279.825
2874.8698	17294.725
2877.37543	17304.025
2879.87952	17311.125
2882.38207	17294.825
2884.88308	17272.425
2887.38256	17245.825
2889.88051	17249.925
2892.37692	17259.025
2894.8718	17262.325
2897.36515	17262.425
2899.85698	17255.025
2902.34727	17302.125
2904.83604	17287.625
2907.32328	17325.525
2909.809	17323.725
2912.29319	17294.125
2914.77587	17296.625
2917.25702	17283.425
2919.73665	17255.125
2922.21476	17253.725
2924.69136	17251.925
2927.16644	17243.925
2929.64	17215.325
2932.11205	17199.125
2934.58258	17138.325
2937.05161	17179.325
2939.51912	17153.025
2941.98513	17142.625
2944.44962	17099.125
2946.91261	17057.125
2949.37409	17078.525
2951.83407	17082.625
2954.29254	17074.425
2956.74951	17021.825
2959.20498	16974.325
2961.65895	16950.525
2964.11142	16977.425
2966.56239	16903.225
2969.01186	16928.725
2971.45984	16868.625
2973.90632	16844.125
2976.35131	16824.525
2978.7948	16798.325
2981.23681	16828.125
2983.67732	16712.725
2986.11635	16690.425
2988.55388	16640.125
2990.98993	16606.725
2993.4245	16582.025
2995.85758	16541.625
2998.28917	16512.125
3000.71928	16504.625
3003.14791	16449.025
3005.57506	16473.325
3008.00073	16424.625
3010.42493	16413.825
3012.84764	16414.925
3015.26888	16378.525
3017.68865	16338.425
3020.10694	16329.825
3022.52376	16304.725
3024.9391	16272.925
3027.35298	16244.925
3029.76539	16203.025
3032.17632	16190.525
3034.5858	16127.225
3036.9938	16129.825
3039.40034	16110.925
3041.80542	16084.925
3044.20903	16077.125
3046.61118	16048.425
3049.01187	16000.025
3051.4111	15997.825
3053.80888	15917.525
3056.20519	15928.725
3058.60005	15907.125
3060.99345	15903.225
3063.3854	15861.825
3065.7759	15780.325
3068.16494	15767.525
3070.55254	15718.225
3072.93868	15699.325
3075.32338	15662.425
3077.70662	15648.225
3080.08842	15633.425
3082.46878	15644.525
3084.84769	15573.025
3087.22515	15603.625
3089.60118	15539.125
3091.97576	15556.425
3094.3489	15533.325
3096.72061	15517.725
3099.09087	15509.425
3101.4597	15516.725
3103.82709	15505.025
3106.19305	15491.625
3108.55757	15476.225
3110.92066	15406.625
3113.28232	15411.725
3115.64255	15362.225
3118.00134	15315.625
3120.35871	15312.525
3122.71466	15269.725
3125.06917	15238.525
3127.42226	15217.325
