Data from AgNPs_FTO_APTES_UA_5uM_R6G_10uM_NaF_0.1M_Addition_RamanShift__27__12-57-07-281.txt Node

Date: Fri Dec 17 12:57:07 GMT 2021
User: TCL
Spectrometer: QEP01345
Trigger mode: 4
Integration Time (sec): 7.000000E0
Scans to average: 10
Electric dark correction enabled: true
Nonlinearity correction enabled: false
Boxcar width: 0
XAxis mode: Raman Shifts
Number of Pixels in Spectrum: 1044
>>>>>Begin Spectral Data<<<<<
46.04893	1.075
50.45542	-1.325
54.85868	-0.825
59.25871	-0.625
63.6555	100.375
68.04907	100.175
72.43941	104.275
76.82654	116.575
81.21044	115.575
85.59113	124.275
89.96862	124.775
94.34289	130.675
98.71396	136.375
103.08183	133.975
107.4465	140.675
111.80798	144.175
116.16626	147.675
120.52136	148.475
124.87327	157.875
129.222	163.675
133.56755	169.475
137.90993	180.275
142.24913	194.675
146.58517	218.475
150.91804	244.275
155.24774	286.975
159.57429	343.775
163.89768	436.375
168.21792	565.275
172.53501	762.875
176.84895	1044.075
181.15975	1448.375
185.46741	2023.275
189.77193	2785.075
194.07331	3710.775
198.37157	4784.575
202.6667	5922.175
206.9587	7049.275
211.24758	8142.275
215.53334	9272.275
219.81599	10485.875
224.09553	11845.775
228.37195	13405.975
232.64527	15043.175
236.91549	16792.775
241.18261	18498.575
245.44663	19971.075
249.70755	21206.375
253.96539	22296.575
258.22014	23268.575
262.4718	24083.575
266.72039	24764.375
270.96589	25145.175
275.20832	25264.475
279.44768	25117.575
283.68397	24832.475
287.91719	24571.975
292.14735	24526.175
296.37445	24697.075
300.59849	25162.975
304.81948	25765.075
309.03742	26181.875
313.25231	26092.075
317.46415	25243.775
321.67296	23927.275
325.87872	22861.875
330.08145	22377.275
334.28114	22342.375
338.47781	22638.075
342.67145	23101.875
346.86207	23810.575
351.04966	24840.875
355.23424	25960.175
359.4158	26925.875
363.59435	27487.775
367.76989	27689.375
371.94243	27758.875
376.11196	27811.475
380.27849	27776.175
384.44203	27671.375
388.60257	27543.475
392.76012	27613.375
396.91468	27952.275
401.06626	28545.775
405.21485	29059.575
409.36047	28826.975
413.50311	27971.875
417.64277	27138.675
421.77947	26732.775
425.9132	26624.075
430.04396	26740.375
434.17176	26860.175
438.2966	27201.675
442.41849	27669.075
446.53742	28349.975
450.6534	29097.175
454.76644	29672.575
458.87653	29940.075
462.98368	29861.875
467.08789	29528.975
471.18916	28941.675
475.2875	28224.475
479.38291	27665.175
483.4754	27277.275
487.56496	26948.375
491.6516	26676.675
495.73531	26556.075
499.81612	26531.375
503.89401	26732.575
507.96899	26920.975
512.04106	27152.675
516.11023	27354.375
520.1765	27502.475
524.23987	27430.975
528.30034	27085.275
532.35792	26674.675
536.41261	26279.675
540.46441	25898.075
544.51333	25778.675
548.55936	25966.675
552.60252	26429.975
556.64279	26897.175
560.6802	27130.575
564.71473	27382.775
568.7464	28017.475
572.7752	28635.475
576.80114	28502.675
580.82422	28262.875
584.84444	28147.375
588.86181	28140.775
592.87633	28288.775
596.888	28690.975
600.89682	29508.875
604.9028	31952.875
608.90594	37765.375
612.90624	44571.475
616.90371	42626.975
620.89834	32923.175
624.89015	28444.275
628.87913	27542.475
632.86528	27561.575
636.84862	27686.475
640.82913	27323.475
644.80683	26485.675
648.78172	25904.075
652.75379	25992.375
656.72306	26728.275
660.68952	27596.175
664.65319	27461.675
668.61405	26615.475
672.57211	26254.175
676.52738	26253.875
680.47986	26220.675
684.42955	26100.875
688.37646	26116.875
692.32058	26206.875
696.26192	26459.875
700.20048	26758.075
704.13626	26924.575
708.06928	26865.375
711.99952	26633.675
715.927	26513.875
719.85171	26534.975
723.77365	26476.375
727.69284	26267.475
731.60928	26044.075
735.52295	26034.575
739.43388	26169.475
743.34206	26289.575
747.24749	26506.875
751.15017	26735.875
755.05012	27204.575
758.94733	28153.875
762.8418	30119.375
766.73354	33306.075
770.62254	36721.475
774.50882	38097.475
778.39237	36442.875
782.27321	32819.075
786.15132	29609.775
790.02671	27701.075
793.89938	26858.075
797.76935	26516.575
801.6366	26366.975
805.50115	26233.775
809.36299	26123.375
813.22213	25997.375
817.07857	25958.075
820.93231	25946.175
824.78336	26049.275
828.63172	26121.075
832.47738	26190.775
836.32036	26195.375
840.16066	26146.775
843.99827	26170.775
847.8332	26124.475
851.66546	26101.775
855.49504	26061.375
859.32195	25986.775
863.1462	25901.975
866.96777	25818.475
870.78668	25805.275
874.60293	25845.975
878.41652	25860.375
882.22745	26001.175
886.03573	26060.775
889.84136	26025.575
893.64433	25921.575
897.44466	25763.275
901.24235	25790.475
905.0374	25794.375
908.8298	25777.675
912.61957	25813.475
916.40671	25990.375
920.19121	26229.875
923.97308	26511.775
927.75233	26705.375
931.52895	26807.775
935.30295	26521.675
939.07433	26017.975
942.84309	25616.875
946.60924	25435.175
950.37278	25309.675
954.13371	25159.875
957.89203	24997.375
961.64774	24933.475
965.40086	24875.375
969.15137	24790.775
972.89929	24707.875
976.64461	24736.375
980.38733	24785.975
984.12747	24892.875
987.86502	25097.175
991.59999	25348.475
995.33237	25768.975
999.06217	26476.175
1002.78939	27394.675
1006.51404	28212.875
1010.23611	28754.075
1013.95561	29028.875
1017.67255	29003.475
1021.38692	28674.375
1025.09872	28407.575
1028.80796	28571.775
1032.51465	29196.575
1036.21877	29727.875
1039.92035	29819.675
1043.61937	29483.975
1047.31584	28811.075
1051.00976	28051.875
1054.70114	27606.875
1058.38998	27457.575
1062.07627	27518.275
1065.76003	27629.975
1069.44126	27815.475
1073.11995	28055.075
1076.79611	28323.075
1080.46974	28535.475
1084.14085	28915.975
1087.80943	29326.275
1091.47549	29483.475
1095.13903	29196.175
1098.80005	28551.175
1102.45857	27963.875
1106.11456	27645.275
1109.76805	27716.875
1113.41903	28070.275
1117.06751	28506.675
1120.71348	29102.975
1124.35696	29648.875
1127.99793	30267.375
1131.63641	30371.075
1135.2724	29717.875
1138.90589	29032.175
1142.5369	28592.875
1146.16542	28276.775
1149.79145	28144.675
1153.415	28193.575
1157.03607	28464.475
1160.65467	28955.375
1164.27079	29770.875
1167.88443	31006.075
1171.49561	32799.875
1175.10432	35535.875
1178.71056	39281.475
1182.31434	42538.975
1185.91565	44083.975
1189.51451	43853.375
1193.11091	42071.675
1196.70485	39453.375
1200.29634	37246.875
1203.88538	35646.775
1207.47197	34132.275
1211.05612	32924.675
1214.63782	32338.775
1218.21708	32227.575
1221.79391	32365.675
1225.36829	32588.475
1228.94024	32727.375
1232.50976	32867.975
1236.07685	33007.775
1239.6415	32929.275
1243.20374	32946.475
1246.76355	32982.275
1250.32093	33310.575
1253.8759	34021.975
1257.42845	35009.075
1260.97859	35835.675
1264.52631	36574.475
1268.07163	37321.275
1271.61453	38157.575
1275.15503	39078.075
1278.69312	39878.275
1282.22882	40479.375
1285.76211	41198.275
1289.29301	41955.175
1292.82151	42795.875
1296.34761	43678.975
1299.87133	45057.375
1303.39266	47433.175
1306.9116	51055.075
1310.42815	55181.675
1313.94233	58174.675
1317.45412	58433.375
1320.96354	56593.575
1324.47058	54127.475
1327.97525	51862.175
1331.47754	50287.775
1334.97747	49793.675
1338.47502	50208.175
1341.97022	50817.275
1345.46305	51311.075
1348.95352	51806.975
1352.44163	52851.275
1355.92738	55205.475
1359.41078	59759.775
1362.89183	64565.575
1366.37053	63617.575
1369.84688	56565.875
1373.32088	48991.875
1376.79254	44108.275
1380.26186	41828.775
1383.72883	40694.475
1387.19347	39765.675
1390.65578	38812.575
1394.11575	38161.775
1397.57339	38043.075
1401.0287	38549.975
1404.48168	39352.575
1407.93234	40517.775
1411.38068	41324.475
1414.82669	41526.675
1418.27039	40925.075
1421.71177	39718.475
1425.15083	38760.375
1428.58758	38120.475
1432.02203	37926.875
1435.45416	38095.775
1438.88399	38272.175
1442.31151	38442.675
1445.73673	38649.275
1449.15965	38947.175
1452.58027	38895.875
1455.9986	38655.575
1459.41463	38513.675
1462.82837	38791.375
1466.23982	39442.075
1469.64898	40283.775
1473.05586	40841.075
1476.46045	41273.675
1479.86276	41744.775
1483.26279	42326.175
1486.66054	43034.475
1490.05602	43975.775
1493.44922	44928.875
1496.84016	46246.275
1500.22882	47897.575
1503.61521	50372.875
1506.99934	53422.575
1510.38121	56717.975
1513.76081	58534.675
1517.13816	57265.075
1520.51324	53210.175
1523.88607	48657.475
1527.25665	45339.675
1530.62498	43220.775
1533.99105	41951.175
1537.35488	41116.775
1540.71647	40633.775
1544.07581	40334.275
1547.4329	40112.375
1550.78776	39955.575
1554.14038	39809.875
1557.49077	40036.175
1560.83892	40356.075
1564.18484	40654.275
1567.52853	40915.475
1570.86999	41050.975
1574.20922	41214.475
1577.54624	41075.775
1580.88103	40384.475
1584.2136	39566.075
1587.54395	39558.375
1590.87208	40915.975
1594.19801	43276.875
1597.52172	45863.075
1600.84321	46884.475
1604.16251	45545.275
1607.47959	42725.575
1610.79447	39675.375
1614.10715	36843.575
1617.41763	34632.175
1620.7259	33154.675
1624.03199	32504.675
1627.33587	32654.975
1630.63757	33389.575
1633.93707	35014.275
1637.23439	37227.375
1640.52951	39879.575
1643.82246	42757.175
1647.11321	45320.475
1650.40179	46528.775
1653.68819	45008.975
1656.97241	40448.175
1660.25446	35366.475
1663.53433	31669.775
1666.81203	29375.175
1670.08756	27962.175
1673.36092	27054.475
1676.63211	26513.175
1679.90115	26091.475
1683.16801	25758.775
1686.43272	25563.675
1689.69527	25389.475
1692.95567	25275.675
1696.2139	25196.875
1699.46999	25126.275
1702.72392	25066.275
1705.97571	25090.075
1709.22535	25077.175
1712.47284	25072.175
1715.71819	25040.675
1718.96139	25050.175
1722.20246	24999.475
1725.44139	24927.675
1728.67818	24760.375
1731.91284	24674.075
1735.14537	24536.775
1738.37576	24429.575
1741.60403	24345.975
1744.83017	24275.575
1748.05418	24235.375
1751.27607	24191.075
1754.49584	24149.475
1757.71349	24131.475
1760.92903	24137.975
1764.14244	24132.875
1767.35375	24103.275
1770.56294	24094.875
1773.77002	24044.675
1776.97499	24052.775
1780.17785	24008.775
1783.37861	23976.275
1786.57727	23946.275
1789.77382	23878.975
1792.96828	23874.275
1796.16064	23896.575
1799.3509	23875.875
1802.53907	23815.575
1805.72514	23833.075
1808.90913	23706.475
1812.09102	23699.475
1815.27083	23683.975
1818.44856	23600.275
1821.6242	23606.675
1824.79776	23609.175
1827.96924	23589.575
1831.13864	23561.875
1834.30597	23567.975
1837.47122	23594.975
1840.6344	23600.875
1843.7955	23590.175
1846.95454	23582.575
1850.11151	23560.475
1853.26642	23620.275
1856.41926	23626.975
1859.57004	23662.875
1862.71876	23640.775
1865.86542	23637.175
1869.01003	23654.875
1872.15258	23684.075
1875.29308	23717.075
1878.43152	23704.375
1881.56792	23742.075
1884.70227	23788.875
1887.83457	23811.075
1890.96482	23800.775
1894.09304	23804.975
1897.21921	23818.575
1900.34335	23853.075
1903.46544	23808.575
1906.58551	23828.475
1909.70353	23824.175
1912.81953	23856.675
1915.93349	23805.175
1919.04543	23777.875
1922.15534	23813.175
1925.26322	23739.575
1928.36908	23634.575
1931.47292	23585.875
1934.57473	23422.875
1937.67453	23350.075
1940.77232	23228.175
1943.86808	23119.475
1946.96184	23054.275
1950.05358	22977.675
1953.14331	22849.575
1956.23103	22762.875
1959.31675	22723.475
1962.40046	22595.875
1965.48217	22558.475
1968.56188	22486.875
1971.63959	22418.975
1974.7153	22425.475
1977.78901	22261.575
1980.86073	22192.975
1983.93046	22116.175
1986.99819	22085.375
1990.06394	22012.975
1993.1277	21944.175
1996.18947	21890.675
1999.24925	21820.575
2002.30706	21751.075
2005.36288	21668.075
2008.41672	21666.075
2011.46859	21596.475
2014.51848	21511.775
2017.56639	21504.675
2020.61233	21451.275
2023.6563	21377.775
2026.6983	21353.575
2029.73833	21311.675
2032.7764	21212.775
2035.8125	21215.775
2038.84664	21143.975
2041.87881	21167.975
2044.90903	21123.275
2047.93729	21094.075
2050.96359	21098.475
2053.98794	21022.575
2057.01034	21024.175
2060.03078	20982.375
2063.04927	21003.875
2066.06582	20975.975
2069.08042	20941.575
2072.09307	20916.975
2075.10378	20902.675
2078.11255	20880.175
2081.11938	20834.775
2084.12426	20859.075
2087.12722	20849.675
2090.12824	20795.175
2093.12732	20820.775
2096.12447	20815.575
2099.11969	20837.675
2102.11299	20834.375
2105.10435	20818.075
2108.09379	20855.475
2111.08131	20862.975
2114.0669	20872.075
2117.05057	20880.175
2120.03233	20857.275
2123.01216	20914.275
2125.99008	20937.675
2128.96609	20937.075
2131.94018	20935.175
2134.91236	20985.775
2137.88263	20995.675
2140.851	20979.375
2143.81746	21022.675
2146.78201	21004.175
2149.74466	21050.075
2152.7054	20994.675
2155.66425	21008.975
2158.6212	21015.575
2161.57625	20980.975
2164.52941	20980.075
2167.48067	20964.175
2170.43004	20991.475
2173.37752	20975.975
2176.32311	20991.375
2179.26681	20968.075
2182.20863	20965.875
2185.14856	21020.275
2188.08661	20976.175
2191.02278	20986.575
2193.95707	20941.275
2196.88948	20981.675
2199.82001	21005.675
2202.74867	20959.575
2205.67545	20958.275
2208.60037	20944.875
2211.52341	20901.575
2214.44458	20873.175
2217.36388	20888.075
2220.28132	20864.875
2223.1969	20784.275
2226.11061	20742.575
2229.02246	20731.675
2231.93245	20664.675
2234.84058	20652.675
2237.74686	20626.375
2240.65128	20617.875
2243.55385	20562.875
2246.45456	20526.675
2249.35343	20508.275
2252.25044	20492.675
2255.14561	20484.775
2258.03893	20432.675
2260.93041	20391.675
2263.82004	20325.575
2266.70783	20322.275
2269.59378	20286.875
2272.4779	20252.075
2275.36017	20182.475
2278.24061	20144.475
2281.11922	20101.375
2283.996	20091.175
2286.87094	20065.475
2289.74405	20010.675
2292.61534	20018.475
2295.4848	19998.675
2298.35243	19979.975
2301.21824	19964.975
2304.08223	19975.875
2306.94439	20003.975
2309.80474	20008.975
2312.66327	20024.775
2315.51999	20006.575
2318.37489	20000.875
2321.22797	19997.475
2324.07925	19964.275
2326.92871	19944.775
2329.77637	19928.975
2332.62222	19916.875
2335.46626	19882.875
2338.3085	19885.175
2341.14893	19908.375
2343.98756	19957.775
2346.8244	19901.775
2349.65943	19928.375
2352.49267	19926.275
2355.32411	19928.675
2358.15376	19874.975
2360.98161	19884.275
2363.80768	19818.375
2366.63195	19816.075
2369.45444	19800.875
2372.27514	19759.275
2375.09405	19734.075
2377.91118	19672.075
2380.72652	19635.875
2383.54009	19592.375
2386.35187	19535.775
2389.16188	19492.875
2391.97011	19454.175
2394.77657	19420.975
2397.58125	19389.775
2400.38416	19359.575
2403.18529	19342.675
2405.98466	19274.675
2408.78226	19217.175
2411.57809	19213.675
2414.37216	19199.575
2417.16446	19177.475
2419.955	19148.075
2422.74378	19088.075
2425.5308	19100.875
2428.31606	19076.775
2431.09956	19094.275
2433.88131	19051.275
2436.6613	19026.175
2439.43954	19034.475
2442.21603	19040.675
2444.99077	19033.975
2447.76377	19030.075
2450.53501	18991.575
2453.30451	19016.075
2456.07226	18970.975
2458.83827	18961.275
2461.60254	18960.775
2464.36507	18961.075
2467.12586	18956.675
2469.88492	18925.775
2472.64224	18974.275
2475.39782	18946.575
2478.15167	18951.375
2480.90379	18946.975
2483.65417	18966.775
2486.40283	18974.275
2489.14976	19018.775
2491.89497	18984.875
2494.63845	19040.875
2497.3802	19013.575
2500.12024	18979.775
2502.85855	18986.475
2505.59514	18960.875
2508.33002	18962.775
2511.06318	18926.475
2513.79462	18888.975
2516.52435	18848.975
2519.25237	18837.275
2521.97867	18818.375
2524.70327	18791.975
2527.42616	18746.275
2530.14734	18753.275
2532.86681	18742.175
2535.58458	18724.575
2538.30065	18688.275
2541.01501	18713.475
2543.72768	18670.475
2546.43864	18682.675
2549.14791	18646.975
2551.85548	18611.675
2554.56136	18574.475
2557.26554	18571.875
2559.96803	18577.575
2562.66883	18560.775
2565.36794	18529.075
2568.06536	18484.775
2570.7611	18487.875
2573.45514	18466.075
2576.14751	18476.475
2578.83819	18434.275
2581.52719	18441.975
2584.21451	18433.175
2586.90015	18432.975
2589.58411	18409.675
2592.2664	18427.075
2594.94701	18370.875
2597.62594	18384.075
2600.30321	18339.375
2602.9788	18339.475
2605.65273	18305.075
2608.32498	18303.675
2610.99557	18327.175
2613.66449	18331.975
2616.33175	18299.375
2618.99734	18333.275
2621.66128	18284.275
2624.32355	18285.175
2626.98416	18307.775
2629.64311	18286.175
2632.30041	18299.575
2634.95605	18265.675
2637.61004	18247.975
2640.26238	18228.375
2642.91306	18189.275
2645.56209	18202.975
2648.20948	18167.175
2650.85521	18141.175
2653.4993	18122.875
2656.14175	18122.975
2658.78255	18131.575
2661.42171	18133.475
2664.05923	18164.275
2666.6951	18175.675
2669.32934	18180.075
2671.96194	18214.975
2674.59291	18215.175
2677.22224	18222.775
2679.84993	18235.975
2682.476	18206.375
2685.10043	18251.475
2687.72324	18182.475
2690.34441	18231.475
2692.96396	18189.875
2695.58188	18164.475
2698.19818	18157.975
2700.81285	18163.875
2703.4259	18149.775
2706.03733	18184.975
2708.64714	18147.275
2711.25533	18169.175
2713.86191	18149.075
2716.46687	18181.775
2719.07021	18175.475
2721.67194	18168.775
2724.27206	18150.975
2726.87057	18196.475
2729.46747	18185.075
2732.06276	18200.275
2734.65644	18195.475
2737.24852	18188.775
2739.83899	18165.675
2742.42786	18177.875
2745.01513	18139.075
2747.60079	18148.175
2750.18486	18128.775
2752.76733	18151.875
2755.3482	18168.475
2757.92747	18115.375
2760.50515	18074.175
2763.08123	18081.175
2765.65573	18042.475
2768.22863	18032.775
2770.79994	18017.175
2773.36967	18052.375
2775.9378	18014.975
2778.50435	17975.475
2781.06932	17927.475
2783.6327	17977.975
2786.1945	17934.675
2788.75471	17952.175
2791.31335	17892.075
2793.87041	17866.175
2796.42589	17827.375
2798.97979	17841.375
2801.53212	17766.175
2804.08288	17744.575
2806.63206	17735.775
2809.17967	17709.175
2811.72571	17712.275
2814.27018	17716.175
2816.81308	17705.375
2819.35442	17672.975
2821.89419	17622.575
2824.43239	17641.775
2826.96904	17652.175
2829.50412	17641.575
2832.03763	17622.875
2834.56959	17637.475
2837.1	17603.975
2839.62884	17570.275
2842.15613	17581.975
2844.68186	17633.775
2847.20604	17620.075
2849.72867	17628.575
2852.24974	17622.975
2854.76927	17585.775
2857.28724	17567.475
2859.80367	17567.375
2862.31855	17520.775
2864.83189	17496.175
2867.34368	17483.575
2869.85393	17491.975
2872.36264	17455.275
2874.8698	17476.375
2877.37543	17474.975
2879.87952	17491.875
2882.38207	17500.175
2884.88308	17479.075
2887.38256	17485.075
2889.88051	17446.275
2892.37692	17454.675
2894.8718	17429.275
2897.36515	17494.075
2899.85698	17461.475
2902.34727	17520.275
2904.83604	17494.375
2907.32328	17516.175
2909.809	17479.975
2912.29319	17556.075
2914.77587	17516.575
2917.25702	17492.675
2919.73665	17495.475
2922.21476	17481.475
2924.69136	17456.975
2927.16644	17478.375
2929.64	17405.575
2932.11205	17365.575
2934.58258	17334.575
2937.05161	17363.675
2939.51912	17345.275
2941.98513	17302.175
2944.44962	17305.275
2946.91261	17183.075
2949.37409	17233.075
2951.83407	17227.375
2954.29254	17198.975
2956.74951	17160.775
2959.20498	17141.975
2961.65895	17139.075
2964.11142	17105.375
2966.56239	17064.575
2969.01186	17050.975
2971.45984	16980.975
2973.90632	16969.875
2976.35131	16932.975
2978.7948	16903.675
2981.23681	16862.975
2983.67732	16819.375
2986.11635	16770.575
2988.55388	16769.175
2990.98993	16700.175
2993.4245	16676.975
2995.85758	16633.575
2998.28917	16616.375
3000.71928	16601.875
3003.14791	16552.975
3005.57506	16572.375
3008.00073	16504.975
3010.42493	16496.275
3012.84764	16445.775
3015.26888	16487.375
3017.68865	16423.575
3020.10694	16397.375
3022.52376	16354.475
3024.9391	16308.975
3027.35298	16297.775
3029.76539	16290.075
3032.17632	16248.175
3034.5858	16208.775
3036.9938	16160.275
3039.40034	16161.775
3041.80542	16160.775
3044.20903	16100.275
3046.61118	16092.475
3049.01187	16037.975
3051.4111	16030.975
3053.80888	16005.175
3056.20519	15952.475
3058.60005	15932.475
3060.99345	15906.975
3063.3854	15857.575
3065.7759	15770.675
3068.16494	15752.975
3070.55254	15695.175
3072.93868	15657.275
3075.32338	15639.075
3077.70662	15586.475
3080.08842	15584.775
3082.46878	15549.475
3084.84769	15506.475
3087.22515	15467.875
3089.60118	15459.175
3091.97576	15446.775
3094.3489	15462.375
3096.72061	15441.775
3099.09087	15437.375
3101.4597	15421.075
3103.82709	15397.775
3106.19305	15379.575
3108.55757	15339.475
3110.92066	15273.775
3113.28232	15283.775
3115.64255	15224.875
3118.00134	15185.375
3120.35871	15169.775
3122.71466	15108.675
3125.06917	15104.975
3127.42226	15080.275
