Data from AgNPs_FTO_APTES_UA_50uM_R6G_10uM_NaF_0.1M_Addition_RamanShift__21__15-00-47-422.txt Node

Date: Fri Dec 17 15:00:47 GMT 2021
User: TCL
Spectrometer: QEP01345
Trigger mode: 4
Integration Time (sec): 7.000000E0
Scans to average: 10
Electric dark correction enabled: true
Nonlinearity correction enabled: false
Boxcar width: 0
XAxis mode: Raman Shifts
Number of Pixels in Spectrum: 1044
>>>>>Begin Spectral Data<<<<<
46.04893	-0.6875
50.45542	-0.9875
54.85868	-0.9875
59.25871	0.5125
63.6555	91.9125
68.04907	94.1125
72.43941	102.4125
76.82654	106.1125
81.21044	103.6125
85.59113	110.5125
89.96862	116.6125
94.34289	116.8125
98.71396	124.0125
103.08183	123.3125
107.4465	130.4125
111.80798	131.1125
116.16626	136.4125
120.52136	138.5125
124.87327	149.1125
129.222	151.5125
133.56755	161.7125
137.90993	175.3125
142.24913	190.6125
146.58517	210.7125
150.91804	245.2125
155.24774	288.1125
159.57429	365.6125
163.89768	470.2125
168.21792	610.8125
172.53501	832.7125
176.84895	1163.4125
181.15975	1609.8125
185.46741	2255.8125
189.77193	3102.8125
194.07331	4146.1125
198.37157	5343.7125
202.6667	6590.5125
206.9587	7816.0125
211.24758	9023.8125
215.53334	10234.5125
219.81599	11507.9125
224.09553	12912.1125
228.37195	14503.7125
232.64527	16278.3125
236.91549	18153.2125
241.18261	20025.0125
245.44663	21793.2125
249.70755	23306.3125
253.96539	24710.0125
258.22014	25856.6125
262.4718	26780.3125
266.72039	27476.5125
270.96589	27855.4125
275.20832	27957.5125
279.44768	27872.9125
283.68397	27667.6125
287.91719	27447.5125
292.14735	27338.0125
296.37445	27409.2125
300.59849	27505.6125
304.81948	27580.6125
309.03742	27511.8125
313.25231	27177.8125
317.46415	26525.4125
321.67296	25712.9125
325.87872	25023.9125
330.08145	24714.9125
334.28114	24732.9125
338.47781	24920.0125
342.67145	25281.5125
346.86207	25720.7125
351.04966	26256.0125
355.23424	26846.4125
359.4158	27394.4125
363.59435	27756.1125
367.76989	28006.2125
371.94243	28138.5125
376.11196	28343.9125
380.27849	28467.1125
384.44203	28612.7125
388.60257	28748.8125
392.76012	29018.6125
396.91468	29310.9125
401.06626	29803.9125
405.21485	30162.8125
409.36047	30065.6125
413.50311	29590.3125
417.64277	29193.2125
421.77947	29007.2125
425.9132	29081.3125
430.04396	29241.7125
434.17176	29381.7125
438.2966	29607.3125
442.41849	30038.8125
446.53742	30649.2125
450.6534	31432.1125
454.76644	32009.7125
458.87653	32340.8125
462.98368	32303.1125
467.08789	32061.7125
471.18916	31641.1125
475.2875	31159.3125
479.38291	30797.5125
483.4754	30455.7125
487.56496	30038.5125
491.6516	29645.5125
495.73531	29397.1125
499.81612	29340.4125
503.89401	29496.5125
507.96899	29631.0125
512.04106	29666.8125
516.11023	29614.7125
520.1765	29512.6125
524.23987	29378.9125
528.30034	29121.3125
532.35792	28829.3125
536.41261	28580.2125
540.46441	28322.7125
544.51333	28293.0125
548.55936	28540.1125
552.60252	29063.2125
556.64279	29620.9125
560.6802	29955.2125
564.71473	30082.4125
568.7464	30448.1125
572.7752	31009.2125
576.80114	31287.1125
580.82422	31597.2125
584.84444	31812.5125
588.86181	31959.5125
592.87633	32254.4125
596.888	32534.7125
600.89682	32925.0125
604.9028	34413.8125
608.90594	37801.5125
612.90624	41097.8125
616.90371	38824.5125
620.89834	32608.8125
624.89015	29832.2125
628.87913	29406.1125
632.86528	29514.8125
636.84862	29594.8125
640.82913	29287.2125
644.80683	28546.5125
648.78172	27984.9125
652.75379	27831.8125
656.72306	28138.2125
660.68952	28644.2125
664.65319	28553.8125
668.61405	28092.8125
672.57211	27964.9125
676.52738	28012.6125
680.47986	27989.2125
684.42955	27867.3125
688.37646	27760.4125
692.32058	27884.3125
696.26192	28101.4125
700.20048	28388.8125
704.13626	28547.1125
708.06928	28457.4125
711.99952	28291.5125
715.927	28117.0125
719.85171	28125.8125
723.77365	28011.8125
727.69284	27823.2125
731.60928	27606.7125
735.52295	27483.8125
739.43388	27547.4125
743.34206	27631.2125
747.24749	27747.0125
751.15017	27975.0125
755.05012	28401.0125
758.94733	29186.6125
762.8418	30642.2125
766.73354	33059.9125
770.62254	35436.5125
774.50882	36246.7125
778.39237	34759.4125
782.27321	32037.0125
786.15132	29801.8125
790.02671	28463.5125
793.89938	27734.0125
797.76935	27481.5125
801.6366	27404.8125
805.50115	27346.5125
809.36299	27216.2125
813.22213	27045.3125
817.07857	26923.4125
820.93231	26866.7125
824.78336	26774.2125
828.63172	26766.5125
832.47738	26753.4125
836.32036	26754.2125
840.16066	26793.3125
843.99827	26783.6125
847.8332	26761.4125
851.66546	26699.6125
855.49504	26686.5125
859.32195	26699.9125
863.1462	26617.7125
866.96777	26525.0125
870.78668	26483.0125
874.60293	26447.4125
878.41652	26479.5125
882.22745	26569.5125
886.03573	26698.1125
889.84136	26637.5125
893.64433	26567.6125
897.44466	26459.2125
901.24235	26364.8125
905.0374	26246.4125
908.8298	26163.8125
912.61957	26180.5125
916.40671	26383.8125
920.19121	26673.8125
923.97308	26928.1125
927.75233	26977.0125
931.52895	26842.3125
935.30295	26605.8125
939.07433	26198.2125
942.84309	25893.0125
946.60924	25780.2125
950.37278	25633.5125
954.13371	25539.9125
957.89203	25429.2125
961.64774	25376.3125
965.40086	25287.8125
969.15137	25218.6125
972.89929	25153.2125
976.64461	25119.2125
980.38733	25138.8125
984.12747	25231.2125
987.86502	25410.5125
991.59999	25711.2125
995.33237	26093.1125
999.06217	26735.1125
1002.78939	27474.3125
1006.51404	28073.1125
1010.23611	28505.1125
1013.95561	28768.4125
1017.67255	28848.8125
1021.38692	28616.9125
1025.09872	28394.1125
1028.80796	28414.1125
1032.51465	28855.6125
1036.21877	29247.4125
1039.92035	29300.5125
1043.61937	29080.9125
1047.31584	28578.5125
1051.00976	28022.5125
1054.70114	27740.1125
1058.38998	27730.8125
1062.07627	27914.5125
1065.76003	28174.8125
1069.44126	28427.0125
1073.11995	28810.5125
1076.79611	29151.5125
1080.46974	29238.7125
1084.14085	29404.4125
1087.80943	29647.0125
1091.47549	29747.5125
1095.13903	29696.5125
1098.80005	29315.6125
1102.45857	28748.6125
1106.11456	28420.4125
1109.76805	28302.3125
1113.41903	28423.9125
1117.06751	28659.2125
1120.71348	29064.7125
1124.35696	29410.5125
1127.99793	29764.5125
1131.63641	29970.8125
1135.2724	29814.0125
1138.90589	29554.6125
1142.5369	29370.7125
1146.16542	29215.9125
1149.79145	29210.2125
1153.415	29348.8125
1157.03607	29652.7125
1160.65467	30347.2125
1164.27079	31335.9125
1167.88443	32738.4125
1171.49561	34633.6125
1175.10432	37098.0125
1178.71056	40174.0125
1182.31434	43086.4125
1185.91565	44981.9125
1189.51451	45400.4125
1193.11091	44409.2125
1196.70485	42610.6125
1200.29634	40564.1125
1203.88538	38876.0125
1207.47197	37350.4125
1211.05612	36070.1125
1214.63782	35296.1125
1218.21708	34948.6125
1221.79391	34864.4125
1225.36829	34851.7125
1228.94024	34760.4125
1232.50976	34508.8125
1236.07685	34363.8125
1239.6415	34256.2125
1243.20374	34229.2125
1246.76355	34393.9125
1250.32093	34736.3125
1253.8759	35465.3125
1257.42845	36409.6125
1260.97859	37325.9125
1264.52631	38193.7125
1268.07163	38994.7125
1271.61453	39960.3125
1275.15503	41020.5125
1278.69312	41995.2125
1282.22882	42777.9125
1285.76211	43488.8125
1289.29301	44337.8125
1292.82151	45366.6125
1296.34761	46726.0125
1299.87133	48655.2125
1303.39266	51112.1125
1306.9116	54038.1125
1310.42815	57037.0125
1313.94233	59091.0125
1317.45412	59498.3125
1320.96354	58705.2125
1324.47058	57660.5125
1327.97525	56565.6125
1331.47754	55936.2125
1334.97747	55920.0125
1338.47502	56386.1125
1341.97022	56993.9125
1345.46305	57168.8125
1348.95352	56760.8125
1352.44163	56341.2125
1355.92738	56696.0125
1359.41078	58478.6125
1362.89183	60482.7125
1366.37053	59327.8125
1369.84688	54556.3125
1373.32088	49164.7125
1376.79254	45412.4125
1380.26186	43614.6125
1383.72883	42941.7125
1387.19347	42565.6125
1390.65578	42092.0125
1394.11575	41885.5125
1397.57339	42096.5125
1401.0287	42703.3125
1404.48168	43534.4125
1407.93234	44225.5125
1411.38068	44366.6125
1414.82669	43794.4125
1418.27039	42564.1125
1421.71177	41090.1125
1425.15083	39799.4125
1428.58758	39011.1125
1432.02203	38903.6125
1435.45416	39306.5125
1438.88399	39862.4125
1442.31151	40471.3125
1445.73673	40999.2125
1449.15965	41528.6125
1452.58027	41886.6125
1455.9986	42166.1125
1459.41463	42575.6125
1462.82837	43183.1125
1466.23982	43926.4125
1469.64898	44714.5125
1473.05586	45216.4125
1476.46045	45378.4125
1479.86276	45227.9125
1483.26279	45168.2125
1486.66054	45139.9125
1490.05602	45466.2125
1493.44922	45769.1125
1496.84016	46395.9125
1500.22882	47371.2125
1503.61521	48848.3125
1506.99934	50726.7125
1510.38121	52454.1125
1513.76081	52932.7125
1517.13816	51693.2125
1520.51324	49287.1125
1523.88607	46965.7125
1527.25665	45350.1125
1530.62498	44587.6125
1533.99105	44116.9125
1537.35488	43903.7125
1540.71647	43561.2125
1544.07581	43160.2125
1547.4329	42675.9125
1550.78776	42227.8125
1554.14038	41927.8125
1557.49077	41890.7125
1560.83892	41837.3125
1564.18484	41787.7125
1567.52853	41738.6125
1570.86999	41774.1125
1574.20922	42095.2125
1577.54624	42370.0125
1580.88103	42133.8125
1584.2136	41882.0125
1587.54395	42284.7125
1590.87208	43657.6125
1594.19801	45863.1125
1597.52172	48342.6125
1600.84321	49346.0125
1604.16251	48031.8125
1607.47959	45420.8125
1610.79447	42444.9125
1614.10715	39349.0125
1617.41763	36714.8125
1620.7259	34696.9125
1624.03199	33567.1125
1627.33587	33338.9125
1630.63757	33996.8125
1633.93707	35688.3125
1637.23439	38292.0125
1640.52951	41679.2125
1643.82246	45403.4125
1647.11321	48056.8125
1650.40179	48452.9125
1653.68819	45900.3125
1656.97241	41079.0125
1660.25446	36066.4125
1663.53433	32336.8125
1666.81203	29853.7125
1670.08756	28279.2125
1673.36092	27237.5125
1676.63211	26462.8125
1679.90115	25989.3125
1683.16801	25578.9125
1686.43272	25287.9125
1689.69527	25068.2125
1692.95567	24892.8125
1696.2139	24820.1125
1699.46999	24676.6125
1702.72392	24582.8125
1705.97571	24499.1125
1709.22535	24432.8125
1712.47284	24392.9125
1715.71819	24336.7125
1718.96139	24283.7125
1722.20246	24167.0125
1725.44139	24045.2125
1728.67818	23935.1125
1731.91284	23847.3125
1735.14537	23719.9125
1738.37576	23630.7125
1741.60403	23522.3125
1744.83017	23460.7125
1748.05418	23440.8125
1751.27607	23380.3125
1754.49584	23347.2125
1757.71349	23366.6125
1760.92903	23282.0125
1764.14244	23248.7125
1767.35375	23302.2125
1770.56294	23240.1125
1773.77002	23214.4125
1776.97499	23182.7125
1780.17785	23146.5125
1783.37861	23105.3125
1786.57727	23083.2125
1789.77382	23041.6125
1792.96828	23018.0125
1796.16064	22967.6125
1799.3509	22929.7125
1802.53907	22899.7125
1805.72514	22834.8125
1808.90913	22786.5125
1812.09102	22784.3125
1815.27083	22722.0125
1818.44856	22695.9125
1821.6242	22656.4125
1824.79776	22625.0125
1827.96924	22623.1125
1831.13864	22620.9125
1834.30597	22625.7125
1837.47122	22642.8125
1840.6344	22631.3125
1843.7955	22641.4125
1846.95454	22646.5125
1850.11151	22640.2125
1853.26642	22648.4125
1856.41926	22672.0125
1859.57004	22651.3125
1862.71876	22647.5125
1865.86542	22651.0125
1869.01003	22647.3125
1872.15258	22645.0125
1875.29308	22589.4125
1878.43152	22590.3125
1881.56792	22597.4125
1884.70227	22615.9125
1887.83457	22611.6125
1890.96482	22604.3125
1894.09304	22538.1125
1897.21921	22555.2125
1900.34335	22588.5125
1903.46544	22564.1125
1906.58551	22537.1125
1909.70353	22538.6125
1912.81953	22500.9125
1915.93349	22447.2125
1919.04543	22425.9125
1922.15534	22354.4125
1925.26322	22316.9125
1928.36908	22288.6125
1931.47292	22203.6125
1934.57473	22155.0125
1937.67453	22075.3125
1940.77232	21986.2125
1943.86808	21916.6125
1946.96184	21860.3125
1950.05358	21816.0125
1953.14331	21756.3125
1956.23103	21657.0125
1959.31675	21607.6125
1962.40046	21578.3125
1965.48217	21520.9125
1968.56188	21463.7125
1971.63959	21384.6125
1974.7153	21310.0125
1977.78901	21270.0125
1980.86073	21215.2125
1983.93046	21146.4125
1986.99819	21070.0125
1990.06394	21035.2125
1993.1277	20946.0125
1996.18947	20884.1125
1999.24925	20851.6125
2002.30706	20788.8125
2005.36288	20695.6125
2008.41672	20692.4125
2011.46859	20666.4125
2014.51848	20590.9125
2017.56639	20489.1125
2020.61233	20482.3125
2023.6563	20417.9125
2026.6983	20425.2125
2029.73833	20356.8125
2032.7764	20291.1125
2035.8125	20301.8125
2038.84664	20247.2125
2041.87881	20232.4125
2044.90903	20245.5125
2047.93729	20199.6125
2050.96359	20178.8125
2053.98794	20152.8125
2057.01034	20093.6125
2060.03078	20096.6125
2063.04927	20075.8125
2066.06582	20043.0125
2069.08042	20082.5125
2072.09307	20043.4125
2075.10378	20016.7125
2078.11255	20022.9125
2081.11938	20022.0125
2084.12426	19986.9125
2087.12722	19938.8125
2090.12824	19935.8125
2093.12732	19930.2125
2096.12447	19959.8125
2099.11969	19952.5125
2102.11299	19954.6125
2105.10435	19979.1125
2108.09379	20026.5125
2111.08131	20014.3125
2114.0669	20018.2125
2117.05057	20039.1125
2120.03233	20076.3125
2123.01216	20099.3125
2125.99008	20106.4125
2128.96609	20091.4125
2131.94018	20155.3125
2134.91236	20148.3125
2137.88263	20154.9125
2140.851	20145.8125
2143.81746	20215.6125
2146.78201	20218.6125
2149.74466	20207.3125
2152.7054	20212.7125
2155.66425	20212.3125
2158.6212	20170.9125
2161.57625	20218.0125
2164.52941	20192.6125
2167.48067	20165.7125
2170.43004	20166.7125
2173.37752	20190.1125
2176.32311	20184.5125
2179.26681	20196.7125
2182.20863	20157.6125
2185.14856	20169.8125
2188.08661	20204.4125
2191.02278	20208.2125
2193.95707	20187.8125
2196.88948	20191.9125
2199.82001	20184.9125
2202.74867	20159.2125
2205.67545	20135.8125
2208.60037	20163.2125
2211.52341	20123.1125
2214.44458	20089.6125
2217.36388	20042.4125
2220.28132	20019.9125
2223.1969	20016.1125
2226.11061	19986.8125
2229.02246	19953.5125
2231.93245	19888.0125
2234.84058	19878.3125
2237.74686	19826.9125
2240.65128	19826.4125
2243.55385	19817.7125
2246.45456	19776.0125
2249.35343	19737.9125
2252.25044	19736.2125
2255.14561	19678.2125
2258.03893	19688.6125
2260.93041	19674.0125
2263.82004	19605.8125
2266.70783	19582.8125
2269.59378	19539.7125
2272.4779	19525.3125
2275.36017	19431.9125
2278.24061	19412.0125
2281.11922	19369.9125
2283.996	19378.3125
2286.87094	19322.7125
2289.74405	19275.3125
2292.61534	19281.0125
2295.4848	19280.1125
2298.35243	19274.5125
2301.21824	19267.4125
2304.08223	19311.7125
2306.94439	19304.6125
2309.80474	19287.0125
2312.66327	19264.7125
2315.51999	19305.8125
2318.37489	19290.3125
2321.22797	19263.6125
2324.07925	19271.5125
2326.92871	19253.4125
2329.77637	19239.5125
2332.62222	19235.9125
2335.46626	19195.6125
2338.3085	19235.3125
2341.14893	19190.5125
2343.98756	19211.0125
2346.8244	19191.5125
2349.65943	19205.6125
2352.49267	19186.8125
2355.32411	19205.0125
2358.15376	19170.2125
2360.98161	19187.6125
2363.80768	19184.3125
2366.63195	19172.5125
2369.45444	19126.7125
2372.27514	19096.6125
2375.09405	19067.2125
2377.91118	19059.5125
2380.72652	18998.7125
2383.54009	18948.5125
2386.35187	18917.6125
2389.16188	18892.0125
2391.97011	18827.7125
2394.77657	18869.1125
2397.58125	18818.7125
2400.38416	18775.3125
2403.18529	18763.5125
2405.98466	18744.7125
2408.78226	18724.7125
2411.57809	18696.4125
2414.37216	18674.0125
2417.16446	18641.8125
2419.955	18644.3125
2422.74378	18594.6125
2425.5308	18604.9125
2428.31606	18596.6125
2431.09956	18594.1125
2433.88131	18573.9125
2436.6613	18569.4125
2439.43954	18548.0125
2442.21603	18523.9125
2444.99077	18523.3125
2447.76377	18552.1125
2450.53501	18539.6125
2453.30451	18514.0125
2456.07226	18493.1125
2458.83827	18462.4125
2461.60254	18501.1125
2464.36507	18461.7125
2467.12586	18463.9125
2469.88492	18478.8125
2472.64224	18475.9125
2475.39782	18466.4125
2478.15167	18464.8125
2480.90379	18490.4125
2483.65417	18471.8125
2486.40283	18538.1125
2489.14976	18494.9125
2491.89497	18504.9125
2494.63845	18519.6125
2497.3802	18529.6125
2500.12024	18538.8125
2502.85855	18529.3125
2505.59514	18517.8125
2508.33002	18522.8125
2511.06318	18505.3125
2513.79462	18481.1125
2516.52435	18461.4125
2519.25237	18450.8125
2521.97867	18436.9125
2524.70327	18418.4125
2527.42616	18392.8125
2530.14734	18404.5125
2532.86681	18365.5125
2535.58458	18368.5125
2538.30065	18324.5125
2541.01501	18331.0125
2543.72768	18319.8125
2546.43864	18345.7125
2549.14791	18269.4125
2551.85548	18270.1125
2554.56136	18253.1125
2557.26554	18232.7125
2559.96803	18230.1125
2562.66883	18202.5125
2565.36794	18198.2125
2568.06536	18195.2125
2570.7611	18187.7125
2573.45514	18191.6125
2576.14751	18188.9125
2578.83819	18143.3125
2581.52719	18166.2125
2584.21451	18124.7125
2586.90015	18131.3125
2589.58411	18105.3125
2592.2664	18100.1125
2594.94701	18079.9125
2597.62594	18086.9125
2600.30321	18069.9125
2602.9788	18033.4125
2605.65273	18035.2125
2608.32498	18020.3125
2610.99557	18013.9125
2613.66449	18048.5125
2616.33175	18050.8125
2618.99734	18037.1125
2621.66128	18046.4125
2624.32355	18025.5125
2626.98416	18053.4125
2629.64311	18047.5125
2632.30041	18064.5125
2634.95605	17994.3125
2637.61004	18026.2125
2640.26238	17971.7125
2642.91306	17996.2125
2645.56209	17982.6125
2648.20948	17958.4125
2650.85521	17982.7125
2653.4993	17919.0125
2656.14175	17960.1125
2658.78255	17962.5125
2661.42171	17982.6125
2664.05923	18003.1125
2666.6951	18003.3125
2669.32934	18001.9125
2671.96194	18007.0125
2674.59291	18010.6125
2677.22224	18034.8125
2679.84993	18054.7125
2682.476	18030.9125
2685.10043	18011.5125
2687.72324	18004.8125
2690.34441	18031.9125
2692.96396	18004.5125
2695.58188	18017.3125
2698.19818	18033.7125
2700.81285	18035.0125
2703.4259	18007.2125
2706.03733	18043.6125
2708.64714	18024.9125
2711.25533	18032.3125
2713.86191	18031.4125
2716.46687	18060.4125
2719.07021	18070.6125
2721.67194	18082.2125
2724.27206	18023.9125
2726.87057	18044.5125
2729.46747	18043.7125
2732.06276	18043.6125
2734.65644	18043.0125
2737.24852	18046.7125
2739.83899	18052.0125
2742.42786	18063.7125
2745.01513	18051.0125
2747.60079	18057.0125
2750.18486	18028.7125
2752.76733	18043.6125
2755.3482	18058.8125
2757.92747	18042.2125
2760.50515	18040.3125
2763.08123	18005.2125
2765.65573	17983.0125
2768.22863	17965.5125
2770.79994	17988.1125
2773.36967	17995.7125
2775.9378	17974.5125
2778.50435	17939.1125
2781.06932	17936.9125
2783.6327	17973.1125
2786.1945	17938.3125
2788.75471	17933.0125
2791.31335	17880.7125
2793.87041	17846.5125
2796.42589	17809.0125
2798.97979	17837.7125
2801.53212	17775.4125
2804.08288	17797.9125
2806.63206	17719.4125
2809.17967	17711.4125
2811.72571	17691.7125
2814.27018	17679.2125
2816.81308	17651.3125
2819.35442	17662.4125
2821.89419	17628.0125
2824.43239	17632.2125
2826.96904	17620.1125
2829.50412	17615.3125
2832.03763	17583.4125
2834.56959	17563.7125
2837.1	17574.6125
2839.62884	17535.5125
2842.15613	17509.3125
2844.68186	17524.0125
2847.20604	17531.6125
2849.72867	17527.8125
2852.24974	17486.8125
2854.76927	17463.9125
2857.28724	17419.0125
2859.80367	17457.8125
2862.31855	17391.5125
2864.83189	17381.3125
2867.34368	17397.8125
2869.85393	17436.4125
2872.36264	17416.8125
2874.8698	17400.0125
2877.37543	17419.0125
2879.87952	17417.5125
2882.38207	17389.7125
2884.88308	17390.4125
2887.38256	17421.4125
2889.88051	17398.8125
2892.37692	17401.4125
2894.8718	17392.6125
2897.36515	17405.5125
2899.85698	17456.8125
2902.34727	17472.5125
2904.83604	17453.6125
2907.32328	17476.3125
2909.809	17452.0125
2912.29319	17499.1125
2914.77587	17507.9125
2917.25702	17478.9125
2919.73665	17469.3125
2922.21476	17479.0125
2924.69136	17455.9125
2927.16644	17459.0125
2929.64	17441.2125
2932.11205	17397.1125
2934.58258	17373.2125
2937.05161	17431.8125
2939.51912	17422.8125
2941.98513	17395.5125
2944.44962	17361.8125
2946.91261	17322.8125
2949.37409	17332.1125
2951.83407	17341.0125
2954.29254	17330.0125
2956.74951	17309.9125
2959.20498	17317.9125
2961.65895	17297.2125
2964.11142	17255.5125
2966.56239	17195.3125
2969.01186	17178.9125
2971.45984	17142.4125
2973.90632	17146.5125
2976.35131	17088.9125
2978.7948	17035.5125
2981.23681	17035.1125
2983.67732	17022.4125
2986.11635	16985.1125
2988.55388	16957.6125
2990.98993	16930.4125
2993.4245	16889.9125
2995.85758	16856.2125
2998.28917	16819.1125
3000.71928	16759.9125
3003.14791	16757.6125
3005.57506	16726.2125
3008.00073	16704.9125
3010.42493	16683.3125
3012.84764	16662.5125
3015.26888	16631.9125
3017.68865	16637.3125
3020.10694	16594.2125
3022.52376	16569.5125
