Data from AgNPs_FTO_APTES_UA_100uM_R6G_10uM_NaF_0.1M_Addition_RamanShift__21__15-41-37-468.txt Node

Date: Fri Dec 17 15:41:37 GMT 2021
User: TCL
Spectrometer: QEP01345
Trigger mode: 4
Integration Time (sec): 7.000000E0
Scans to average: 10
Electric dark correction enabled: true
Nonlinearity correction enabled: false
Boxcar width: 0
XAxis mode: Raman Shifts
Number of Pixels in Spectrum: 1044
>>>>>Begin Spectral Data<<<<<
46.04893	-1.625
50.45542	-0.325
54.85868	-1.525
59.25871	0.075
63.6555	63.175
68.04907	68.875
72.43941	67.975
76.82654	74.975
81.21044	72.175
85.59113	78.375
89.96862	83.275
94.34289	81.575
98.71396	89.275
103.08183	91.875
107.4465	93.275
111.80798	91.375
116.16626	94.375
120.52136	96.175
124.87327	101.875
129.222	106.375
133.56755	107.775
137.90993	116.475
142.24913	125.375
146.58517	136.175
150.91804	153.575
155.24774	180.275
159.57429	219.875
163.89768	273.275
168.21792	355.275
172.53501	481.975
176.84895	661.375
181.15975	923.175
185.46741	1284.175
189.77193	1772.475
194.07331	2375.075
198.37157	3063.075
202.6667	3779.875
206.9587	4504.875
211.24758	5208.675
215.53334	5897.375
219.81599	6623.275
224.09553	7427.875
228.37195	8357.175
232.64527	9379.175
236.91549	10468.675
241.18261	11589.475
245.44663	12601.075
249.70755	13521.175
253.96539	14300.175
258.22014	14970.275
262.4718	15476.675
266.72039	15878.775
270.96589	16067.575
275.20832	16143.375
279.44768	16035.775
283.68397	15830.675
287.91719	15656.375
292.14735	15527.675
296.37445	15537.675
300.59849	15603.775
304.81948	15684.675
309.03742	15631.775
313.25231	15439.775
317.46415	15064.775
321.67296	14603.075
325.87872	14249.175
330.08145	14121.375
334.28114	14111.475
338.47781	14256.175
342.67145	14474.675
346.86207	14728.475
351.04966	15081.175
355.23424	15447.575
359.4158	15740.675
363.59435	15972.275
367.76989	16149.775
371.94243	16348.575
376.11196	16426.375
380.27849	16576.575
384.44203	16637.575
388.60257	16737.175
392.76012	16791.375
396.91468	16918.875
401.06626	17154.875
405.21485	17344.775
409.36047	17221.775
413.50311	16929.475
417.64277	16596.575
421.77947	16409.075
425.9132	16321.575
430.04396	16272.875
434.17176	16359.775
438.2966	16477.675
442.41849	16671.275
446.53742	16923.075
450.6534	17160.475
454.76644	17407.575
458.87653	17542.475
462.98368	17599.075
467.08789	17563.175
471.18916	17462.475
475.2875	17339.775
479.38291	17208.975
483.4754	17104.175
487.56496	16975.375
491.6516	16876.375
495.73531	16846.575
499.81612	16872.075
503.89401	16934.475
507.96899	17040.875
512.04106	17091.375
516.11023	17210.775
520.1765	17294.075
524.23987	17269.875
528.30034	17202.375
532.35792	17163.275
536.41261	17067.075
540.46441	16965.075
544.51333	16870.075
548.55936	16876.875
552.60252	16947.275
556.64279	17065.575
560.6802	17141.075
564.71473	17105.975
568.7464	17184.275
572.7752	17285.375
576.80114	17258.075
580.82422	17233.275
584.84444	17254.375
588.86181	17291.375
592.87633	17321.975
596.888	17451.375
600.89682	17729.375
604.9028	18622.275
608.90594	20746.075
612.90624	23115.175
616.90371	22388.275
620.89834	18930.675
624.89015	17292.075
628.87913	17072.775
632.86528	17231.975
636.84862	17472.775
640.82913	17404.475
644.80683	17015.375
648.78172	16653.475
652.75379	16544.875
656.72306	16689.675
660.68952	16948.275
664.65319	16978.475
668.61405	16789.675
672.57211	16785.475
676.52738	16870.475
680.47986	16865.675
684.42955	16662.475
688.37646	16494.375
692.32058	16420.375
696.26192	16443.875
700.20048	16540.275
704.13626	16614.575
708.06928	16590.475
711.99952	16513.675
715.927	16420.375
719.85171	16448.875
723.77365	16448.675
727.69284	16434.275
731.60928	16413.875
735.52295	16394.275
739.43388	16426.475
743.34206	16505.175
747.24749	16519.475
751.15017	16504.275
755.05012	16536.675
758.94733	16775.275
762.8418	17454.575
766.73354	18758.275
770.62254	20315.875
774.50882	21289.775
778.39237	20827.275
782.27321	19170.275
786.15132	17692.175
790.02671	16778.275
793.89938	16307.075
797.76935	16106.875
801.6366	16060.175
805.50115	16006.375
809.36299	15974.175
813.22213	15932.275
817.07857	15902.275
820.93231	15852.775
824.78336	15825.075
828.63172	15811.675
832.47738	15787.175
836.32036	15739.075
840.16066	15709.275
843.99827	15700.675
847.8332	15698.375
851.66546	15666.575
855.49504	15684.375
859.32195	15676.975
863.1462	15698.575
866.96777	15763.275
870.78668	15758.575
874.60293	15755.075
878.41652	15745.375
882.22745	15786.675
886.03573	15850.075
889.84136	15862.675
893.64433	15809.575
897.44466	15704.275
901.24235	15659.275
905.0374	15525.975
908.8298	15457.375
912.61957	15393.175
916.40671	15460.475
920.19121	15544.675
923.97308	15575.975
927.75233	15626.775
931.52895	15618.975
935.30295	15544.775
939.07433	15389.375
942.84309	15246.975
946.60924	15164.475
950.37278	15128.475
954.13371	15098.375
957.89203	15016.875
961.64774	14940.075
965.40086	14858.875
969.15137	14801.275
972.89929	14711.175
976.64461	14662.375
980.38733	14655.375
984.12747	14669.075
987.86502	14742.075
991.59999	14801.475
995.33237	14880.175
999.06217	15074.875
1002.78939	15295.675
1006.51404	15481.575
1010.23611	15640.875
1013.95561	15820.175
1017.67255	15880.475
1021.38692	15859.275
1025.09872	15720.075
1028.80796	15611.375
1032.51465	15670.775
1036.21877	15807.275
1039.92035	15808.675
1043.61937	15856.075
1047.31584	15808.575
1051.00976	15723.875
1054.70114	15669.575
1058.38998	15645.075
1062.07627	15704.075
1065.76003	15838.875
1069.44126	15907.775
1073.11995	16033.875
1076.79611	16132.975
1080.46974	16152.475
1084.14085	16192.175
1087.80943	16211.775
1091.47549	16283.475
1095.13903	16241.875
1098.80005	16110.275
1102.45857	15887.175
1106.11456	15763.375
1109.76805	15779.875
1113.41903	15894.375
1117.06751	16080.375
1120.71348	16332.375
1124.35696	16583.875
1127.99793	16903.875
1131.63641	17159.875
1135.2724	17107.775
1138.90589	16866.375
1142.5369	16615.775
1146.16542	16289.275
1149.79145	16064.375
1153.415	15888.275
1157.03607	15896.575
1160.65467	16059.375
1164.27079	16400.175
1167.88443	16895.975
1171.49561	17511.275
1175.10432	18490.775
1178.71056	19723.375
1182.31434	20866.675
1185.91565	21564.275
1189.51451	21636.575
1193.11091	21174.375
1196.70485	20393.375
1200.29634	19558.775
1203.88538	18853.375
1207.47197	18208.975
1211.05612	17602.775
1214.63782	17186.275
1218.21708	16976.475
1221.79391	16871.875
1225.36829	16836.975
1228.94024	16835.375
1232.50976	16833.875
1236.07685	16852.375
1239.6415	16866.975
1243.20374	16931.375
1246.76355	17013.275
1250.32093	17137.875
1253.8759	17390.175
1257.42845	17740.075
1260.97859	18041.775
1264.52631	18324.175
1268.07163	18656.775
1271.61453	18988.175
1275.15503	19311.875
1278.69312	19590.275
1282.22882	19763.275
1285.76211	20061.075
1289.29301	20343.275
1292.82151	20770.975
1296.34761	21296.475
1299.87133	22041.975
1303.39266	22981.975
1306.9116	24121.675
1310.42815	25205.575
1313.94233	25838.875
1317.45412	25651.875
1320.96354	24995.375
1324.47058	24187.775
1327.97525	23425.375
1331.47754	22876.075
1334.97747	22653.275
1338.47502	22745.775
1341.97022	23119.575
1345.46305	23584.075
1348.95352	24140.275
1352.44163	25007.575
1355.92738	26122.475
1359.41078	27587.175
1362.89183	29003.375
1366.37053	28597.375
1369.84688	25890.475
1373.32088	22961.875
1376.79254	21000.475
1380.26186	19975.875
1383.72883	19426.775
1387.19347	19112.575
1390.65578	18797.375
1394.11575	18478.775
1397.57339	18311.175
1401.0287	18299.475
1404.48168	18329.075
1407.93234	18391.975
1411.38068	18414.675
1414.82669	18321.675
1418.27039	18083.275
1421.71177	17797.275
1425.15083	17486.275
1428.58758	17278.875
1432.02203	17249.975
1435.45416	17338.875
1438.88399	17459.175
1442.31151	17590.575
1445.73673	17723.575
1449.15965	17894.175
1452.58027	18046.875
1455.9986	18157.375
1459.41463	18377.075
1462.82837	18622.275
1466.23982	18864.775
1469.64898	19093.375
1473.05586	19266.275
1476.46045	19310.975
1479.86276	19375.375
1483.26279	19445.175
1486.66054	19553.375
1490.05602	19740.375
1493.44922	20046.175
1496.84016	20603.075
1500.22882	21502.475
1503.61521	22824.375
1506.99934	24310.775
1510.38121	25653.875
1513.76081	26085.375
1517.13816	25259.575
1520.51324	23641.775
1523.88607	22033.775
1527.25665	20873.275
1530.62498	20200.175
1533.99105	19811.775
1537.35488	19537.975
1540.71647	19371.275
1544.07581	19208.475
1547.4329	19114.975
1550.78776	19064.275
1554.14038	19046.275
1557.49077	19134.475
1560.83892	19323.475
1564.18484	19561.775
1567.52853	19700.475
1570.86999	19793.375
1574.20922	19953.775
1577.54624	20006.375
1580.88103	19635.375
1584.2136	19102.475
1587.54395	18782.675
1590.87208	18804.275
1594.19801	19227.475
1597.52172	19929.975
1600.84321	20314.775
1604.16251	20049.475
1607.47959	19353.175
1610.79447	18581.775
1614.10715	17798.375
1617.41763	17013.275
1620.7259	16437.475
1624.03199	16064.975
1627.33587	15977.875
1630.63757	16097.875
1633.93707	16465.075
1637.23439	17125.575
1640.52951	18032.675
1643.82246	19250.975
1647.11321	20501.175
1650.40179	21361.675
1653.68819	21078.075
1656.97241	19578.675
1660.25446	17739.975
1663.53433	16295.875
1666.81203	15359.375
1670.08756	14793.375
1673.36092	14363.875
1676.63211	14057.575
1679.90115	13883.775
1683.16801	13675.575
1686.43272	13564.175
1689.69527	13471.375
1692.95567	13411.575
1696.2139	13350.275
1699.46999	13313.475
1702.72392	13263.175
1705.97571	13196.475
1709.22535	13151.275
1712.47284	13102.375
1715.71819	13094.075
1718.96139	13071.675
1722.20246	12980.475
1725.44139	12934.975
1728.67818	12908.975
1731.91284	12806.775
1735.14537	12778.175
1738.37576	12746.975
1741.60403	12704.975
1744.83017	12670.675
1748.05418	12658.975
1751.27607	12636.875
1754.49584	12584.775
1757.71349	12626.475
1760.92903	12600.775
1764.14244	12565.775
1767.35375	12567.175
1770.56294	12570.675
1773.77002	12525.675
1776.97499	12520.675
1780.17785	12493.475
1783.37861	12473.175
1786.57727	12436.075
1789.77382	12401.175
1792.96828	12385.775
1796.16064	12381.975
1799.3509	12372.575
1802.53907	12331.875
1805.72514	12305.375
1808.90913	12278.275
1812.09102	12264.875
1815.27083	12218.275
1818.44856	12208.875
1821.6242	12177.475
1824.79776	12165.975
1827.96924	12160.475
1831.13864	12154.875
1834.30597	12134.575
1837.47122	12146.475
1840.6344	12118.575
1843.7955	12123.175
1846.95454	12086.275
1850.11151	12103.175
1853.26642	12117.675
1856.41926	12114.675
1859.57004	12086.175
1862.71876	12071.675
1865.86542	12070.275
1869.01003	12075.575
1872.15258	12043.875
1875.29308	12012.775
1878.43152	12022.975
1881.56792	12030.875
1884.70227	12001.775
1887.83457	12016.075
1890.96482	11996.975
1894.09304	11965.375
1897.21921	11969.775
1900.34335	11973.775
1903.46544	11964.075
1906.58551	11935.475
1909.70353	11935.675
1912.81953	11911.375
1915.93349	11909.375
1919.04543	11893.275
1922.15534	11845.375
1925.26322	11815.775
1928.36908	11786.175
1931.47292	11779.575
1934.57473	11742.975
1937.67453	11735.275
1940.77232	11723.175
1943.86808	11677.675
1946.96184	11655.975
1950.05358	11622.775
1953.14331	11607.375
1956.23103	11581.575
1959.31675	11546.175
1962.40046	11515.975
1965.48217	11475.975
1968.56188	11463.475
1971.63959	11395.575
1974.7153	11405.175
1977.78901	11362.975
1980.86073	11316.775
1983.93046	11287.575
1986.99819	11250.875
1990.06394	11220.075
1993.1277	11159.975
1996.18947	11192.175
1999.24925	11147.275
2002.30706	11090.075
2005.36288	11060.675
2008.41672	11055.075
2011.46859	11012.075
2014.51848	11009.475
2017.56639	10971.275
2020.61233	10934.775
2023.6563	10906.175
2026.6983	10861.575
2029.73833	10871.375
2032.7764	10834.775
2035.8125	10828.675
2038.84664	10811.275
2041.87881	10800.475
2044.90903	10753.175
2047.93729	10761.975
2050.96359	10744.375
2053.98794	10700.575
2057.01034	10691.975
2060.03078	10685.775
2063.04927	10684.475
2066.06582	10691.275
2069.08042	10673.175
2072.09307	10662.075
2075.10378	10658.675
2078.11255	10659.575
2081.11938	10655.375
2084.12426	10664.975
2087.12722	10668.175
2090.12824	10621.275
2093.12732	10627.675
2096.12447	10658.975
2099.11969	10669.375
2102.11299	10629.775
2105.10435	10635.675
2108.09379	10660.975
2111.08131	10680.375
2114.0669	10688.975
2117.05057	10698.275
2120.03233	10706.475
2123.01216	10715.175
2125.99008	10729.675
2128.96609	10728.575
2131.94018	10760.375
2134.91236	10741.075
2137.88263	10767.075
2140.851	10755.075
2143.81746	10788.375
2146.78201	10776.175
2149.74466	10766.775
2152.7054	10763.075
2155.66425	10754.375
2158.6212	10770.675
2161.57625	10762.775
2164.52941	10758.375
2167.48067	10727.075
2170.43004	10753.675
2173.37752	10751.275
2176.32311	10750.575
2179.26681	10750.175
2182.20863	10760.875
2185.14856	10757.675
2188.08661	10745.575
2191.02278	10758.075
2193.95707	10742.675
2196.88948	10732.575
2199.82001	10734.775
2202.74867	10710.375
2205.67545	10698.775
2208.60037	10715.575
2211.52341	10693.875
2214.44458	10668.675
2217.36388	10645.475
2220.28132	10649.075
2223.1969	10623.575
2226.11061	10622.075
2229.02246	10567.275
2231.93245	10555.775
2234.84058	10543.075
2237.74686	10555.375
2240.65128	10539.375
2243.55385	10531.375
2246.45456	10502.575
2249.35343	10498.675
2252.25044	10467.275
2255.14561	10475.175
2258.03893	10471.775
2260.93041	10463.775
2263.82004	10415.975
2266.70783	10418.875
2269.59378	10361.575
2272.4779	10368.775
2275.36017	10339.975
2278.24061	10319.975
2281.11922	10299.675
2283.996	10277.575
2286.87094	10285.975
2289.74405	10271.675
2292.61534	10255.975
2295.4848	10220.075
2298.35243	10241.775
2301.21824	10233.475
2304.08223	10238.075
2306.94439	10211.575
2309.80474	10204.375
2312.66327	10213.475
2315.51999	10200.175
2318.37489	10219.675
2321.22797	10173.475
2324.07925	10170.175
2326.92871	10165.175
2329.77637	10162.675
2332.62222	10172.875
2335.46626	10111.375
2338.3085	10111.775
2341.14893	10107.575
2343.98756	10105.875
2346.8244	10087.075
2349.65943	10101.775
2352.49267	10104.875
2355.32411	10111.875
2358.15376	10095.275
2360.98161	10085.675
2363.80768	10081.375
2366.63195	10090.075
2369.45444	10081.475
2372.27514	10053.375
2375.09405	10056.675
2377.91118	10027.975
2380.72652	10011.075
2383.54009	9981.575
2386.35187	9984.975
2389.16188	9964.675
2391.97011	9932.275
2394.77657	9913.975
2397.58125	9887.375
2400.38416	9867.975
2403.18529	9869.875
2405.98466	9850.475
2408.78226	9853.275
2411.57809	9821.175
2414.37216	9822.975
2417.16446	9816.875
2419.955	9785.575
2422.74378	9793.675
2425.5308	9794.675
2428.31606	9771.875
2431.09956	9781.475
2433.88131	9765.175
2436.6613	9780.975
2439.43954	9769.075
2442.21603	9740.575
2444.99077	9716.875
2447.76377	9745.775
2450.53501	9725.475
2453.30451	9737.475
2456.07226	9709.375
2458.83827	9717.075
2461.60254	9699.575
2464.36507	9705.375
2467.12586	9691.675
2469.88492	9673.275
2472.64224	9701.575
2475.39782	9682.175
2478.15167	9705.975
2480.90379	9693.575
2483.65417	9671.875
2486.40283	9686.375
2489.14976	9681.675
2491.89497	9672.175
2494.63845	9696.075
2497.3802	9664.075
2500.12024	9661.275
2502.85855	9656.675
2505.59514	9647.875
2508.33002	9648.075
2511.06318	9630.275
2513.79462	9633.675
2516.52435	9590.875
2519.25237	9612.375
2521.97867	9588.875
2524.70327	9578.275
2527.42616	9553.275
2530.14734	9527.675
2532.86681	9528.175
2535.58458	9526.975
2538.30065	9514.775
2541.01501	9485.175
2543.72768	9500.775
2546.43864	9473.875
2549.14791	9444.075
2551.85548	9465.075
2554.56136	9447.875
2557.26554	9441.775
2559.96803	9429.575
2562.66883	9414.375
2565.36794	9432.275
2568.06536	9427.775
2570.7611	9402.275
2573.45514	9367.675
2576.14751	9392.775
2578.83819	9364.275
2581.52719	9354.275
2584.21451	9354.675
2586.90015	9342.775
2589.58411	9332.675
2592.2664	9325.975
2594.94701	9275.975
2597.62594	9279.575
2600.30321	9254.875
2602.9788	9258.175
2605.65273	9227.275
2608.32498	9233.975
2610.99557	9208.375
2613.66449	9230.275
2616.33175	9220.375
2618.99734	9210.175
2621.66128	9196.375
2624.32355	9215.775
2626.98416	9196.375
2629.64311	9212.275
2632.30041	9202.975
2634.95605	9179.175
2637.61004	9173.275
2640.26238	9154.875
2642.91306	9129.775
2645.56209	9158.875
2648.20948	9140.575
2650.85521	9137.075
2653.4993	9134.875
2656.14175	9117.875
2658.78255	9124.275
2661.42171	9128.775
2664.05923	9139.275
2666.6951	9143.275
2669.32934	9127.375
2671.96194	9132.875
2674.59291	9154.375
2677.22224	9145.975
2679.84993	9154.675
2682.476	9144.075
2685.10043	9158.575
2687.72324	9126.275
2690.34441	9150.175
2692.96396	9136.175
2695.58188	9132.475
2698.19818	9127.775
2700.81285	9130.375
2703.4259	9147.575
2706.03733	9159.775
2708.64714	9152.475
2711.25533	9176.775
2713.86191	9145.275
2716.46687	9159.275
2719.07021	9144.975
2721.67194	9158.075
2724.27206	9141.975
2726.87057	9143.875
2729.46747	9156.575
2732.06276	9139.075
2734.65644	9135.675
2737.24852	9147.075
2739.83899	9125.275
2742.42786	9139.675
2745.01513	9124.875
2747.60079	9109.975
2750.18486	9117.675
2752.76733	9122.575
2755.3482	9105.475
2757.92747	9102.075
2760.50515	9086.775
2763.08123	9079.875
2765.65573	9089.775
2768.22863	9054.775
2770.79994	9050.575
2773.36967	9033.175
2775.9378	9053.775
2778.50435	9096.975
2781.06932	9034.375
2783.6327	9050.075
2786.1945	8996.175
2788.75471	9015.875
2791.31335	8958.775
2793.87041	8971.975
2796.42589	8944.075
2798.97979	8948.375
2801.53212	8926.875
2804.08288	8916.875
2806.63206	8904.975
2809.17967	8898.775
2811.72571	8888.775
2814.27018	8862.475
2816.81308	8842.475
2819.35442	8849.375
2821.89419	8838.875
2824.43239	8815.475
2826.96904	8815.775
2829.50412	8835.275
2832.03763	8814.075
2834.56959	8827.875
2837.1	8803.175
2839.62884	8802.575
2842.15613	8809.275
2844.68186	8812.175
2847.20604	8805.275
2849.72867	8799.975
2852.24974	8815.075
2854.76927	8785.575
2857.28724	8782.075
2859.80367	8770.275
2862.31855	8770.175
2864.83189	8766.975
2867.34368	8735.075
2869.85393	8756.175
2872.36264	8757.375
2874.8698	8758.475
2877.37543	8773.475
2879.87952	8749.775
2882.38207	8768.075
2884.88308	8742.875
2887.38256	8756.875
2889.88051	8731.475
2892.37692	8754.575
2894.8718	8755.775
2897.36515	8749.075
2899.85698	8746.975
2902.34727	8768.875
2904.83604	8750.875
2907.32328	8758.775
2909.809	8736.475
2912.29319	8775.875
2914.77587	8766.875
2917.25702	8785.275
2919.73665	8768.075
2922.21476	8782.975
2924.69136	8764.875
2927.16644	8755.675
2929.64	8736.375
2932.11205	8730.975
2934.58258	8735.075
2937.05161	8752.775
2939.51912	8746.475
2941.98513	8741.075
2944.44962	8707.975
2946.91261	8688.275
2949.37409	8693.675
2951.83407	8694.775
2954.29254	8671.275
2956.74951	8708.775
2959.20498	8686.675
2961.65895	8660.975
2964.11142	8674.775
2966.56239	8642.575
2969.01186	8657.175
2971.45984	8630.675
2973.90632	8617.575
2976.35131	8605.975
2978.7948	8609.475
2981.23681	8580.075
2983.67732	8582.875
2986.11635	8547.175
2988.55388	8528.575
2990.98993	8539.875
2993.4245	8505.875
2995.85758	8511.275
2998.28917	8497.475
3000.71928	8476.475
3003.14791	8469.675
3005.57506	8484.675
3008.00073	8468.375
3010.42493	8433.675
3012.84764	8440.275
3015.26888	8423.875
3017.68865	8428.975
3020.10694	8418.575
3022.52376	8385.075
3024.9391	8379.675
3027.35298	8363.675
3029.76539	8344.475
3032.17632	8333.675
3034.5858	8359.175
3036.9938	8347.575
3039.40034	8310.875
3041.80542	8323.175
3044.20903	8293.575
3046.61118	8304.175
3049.01187	8291.675
3051.4111	8286.775
3053.80888	8271.975
3056.20519	8270.275
3058.60005	8242.275
3060.99345	8232.275
3063.3854	8227.475
3065.7759	8206.075
3068.16494	8222.975
3070.55254	8187.575
3072.93868	8171.475
3075.32338	8165.075
3077.70662	8169.675
3080.08842	8163.275
3082.46878	8156.375
3084.84769	8155.775
3087.22515	8148.975
3089.60118	8145.075
3091.97576	8144.775
3094.3489	8123.675
3096.72061	8158.175
3099.09087	8149.175
3101.4597	8141.275
3103.82709	8143.975
3106.19305	8148.575
3108.55757	8099.875
3110.92066	8103.075
3113.28232	8095.575
3115.64255	8084.475
3118.00134	8075.275
3120.35871	8084.375
3122.71466	8075.875
3125.06917	8041.075
3127.42226	8035.975
3129.77393	8054.675
3132.12417	8035.775
3134.47299	8057.775
3136.82039	8062.075
3139.16636	8060.075
3141.51092	8065.375
3143.85406	8054.975
3146.19579	8093.775
3148.53609	8076.875
3150.87499	8078.475
3153.21246	8085.875
3155.54853	8097.975
3157.88318	8106.275
3160.21642	8109.775
3162.54826	8120.975
