Data from AgNPs_FTO_APTES_UA_0uM_R6G_10uM_NaF_0.1M_Addition_RamanShift__26__10-25-27-107.txt Node

Date: Fri Dec 17 10:25:27 GMT 2021
User: TCL
Spectrometer: QEP01345
Trigger mode: 4
Integration Time (sec): 7.000000E0
Scans to average: 10
Electric dark correction enabled: true
Nonlinearity correction enabled: false
Boxcar width: 0
XAxis mode: Raman Shifts
Number of Pixels in Spectrum: 1044
>>>>>Begin Spectral Data<<<<<
46.04893	0.175
50.45542	0.275
54.85868	-0.725
59.25871	0.675
63.6555	41.075
68.04907	40.775
72.43941	46.775
76.82654	47.175
81.21044	49.375
85.59113	49.475
89.96862	52.975
94.34289	56.175
98.71396	57.575
103.08183	57.775
107.4465	58.475
111.80798	57.175
116.16626	61.175
120.52136	57.975
124.87327	63.675
129.222	65.475
133.56755	65.275
137.90993	70.475
142.24913	73.475
146.58517	73.575
150.91804	82.275
155.24774	92.575
159.57429	118.475
163.89768	138.775
168.21792	172.275
172.53501	225.475
176.84895	300.375
181.15975	408.675
185.46741	566.475
189.77193	782.275
194.07331	1029.675
198.37157	1323.475
202.6667	1634.875
206.9587	1935.975
211.24758	2238.075
215.53334	2535.175
219.81599	2850.475
224.09553	3201.175
228.37195	3587.175
232.64527	4004.375
236.91549	4461.275
241.18261	4898.675
245.44663	5291.975
249.70755	5616.175
253.96539	5907.075
258.22014	6178.675
262.4718	6385.775
266.72039	6531.075
270.96589	6595.675
275.20832	6615.675
279.44768	6520.875
283.68397	6406.875
287.91719	6282.775
292.14735	6230.575
296.37445	6241.675
300.59849	6334.875
304.81948	6428.475
309.03742	6525.475
313.25231	6497.475
317.46415	6381.475
321.67296	6157.875
325.87872	5997.975
330.08145	5936.475
334.28114	5934.375
338.47781	5989.975
342.67145	6086.075
346.86207	6205.675
351.04966	6399.175
355.23424	6598.875
359.4158	6806.175
363.59435	6936.275
367.76989	7031.475
371.94243	7074.175
376.11196	7088.675
380.27849	7112.075
384.44203	7121.175
388.60257	7072.175
392.76012	7051.575
396.91468	7069.675
401.06626	7158.675
405.21485	7239.975
409.36047	7214.175
413.50311	7015.575
417.64277	6878.275
421.77947	6786.375
425.9132	6751.775
430.04396	6783.475
434.17176	6866.075
438.2966	6997.475
442.41849	7210.375
446.53742	7475.875
450.6534	7761.175
454.76644	7911.875
458.87653	7899.775
462.98368	7741.875
467.08789	7552.875
471.18916	7365.975
475.2875	7188.375
479.38291	7047.175
483.4754	6946.775
487.56496	6903.975
491.6516	6863.975
495.73531	6847.275
499.81612	6859.275
503.89401	6895.475
507.96899	6942.775
512.04106	6994.775
516.11023	7070.575
520.1765	7153.575
524.23987	7166.175
528.30034	7153.775
532.35792	7073.275
536.41261	6992.575
540.46441	6861.175
544.51333	6822.075
548.55936	6860.875
552.60252	6927.375
556.64279	7063.275
560.6802	7126.275
564.71473	7119.675
568.7464	7127.475
572.7752	7187.475
576.80114	7077.975
580.82422	7012.075
584.84444	7091.075
588.86181	7318.475
592.87633	7723.575
596.888	7956.575
600.89682	7930.275
604.9028	8165.075
608.90594	9171.875
612.90624	10536.975
616.90371	10257.575
620.89834	8282.975
624.89015	7307.675
628.87913	7122.375
632.86528	7081.075
636.84862	7010.375
640.82913	6918.275
644.80683	6790.775
648.78172	6700.875
652.75379	6769.175
656.72306	6934.075
660.68952	7150.075
664.65319	7085.375
668.61405	6890.575
672.57211	6845.475
676.52738	6817.975
680.47986	6798.675
684.42955	6762.475
688.37646	6747.075
692.32058	6789.875
696.26192	6866.675
700.20048	6974.275
704.13626	7025.675
708.06928	6990.575
711.99952	6934.475
715.927	6908.375
719.85171	6925.275
723.77365	6909.975
727.69284	6921.275
731.60928	6849.775
735.52295	6876.275
739.43388	6898.375
743.34206	6918.575
747.24749	6925.575
751.15017	6929.775
755.05012	6992.975
758.94733	7138.675
762.8418	7484.975
766.73354	8074.075
770.62254	8827.375
774.50882	9312.575
778.39237	9127.875
782.27321	8420.575
786.15132	7693.575
790.02671	7272.075
793.89938	7056.775
797.76935	7026.875
801.6366	6963.775
805.50115	6944.475
809.36299	6914.675
813.22213	6904.575
817.07857	6893.875
820.93231	6896.475
824.78336	6906.575
828.63172	6908.475
832.47738	6934.875
836.32036	6965.975
840.16066	6969.775
843.99827	6948.875
847.8332	6959.675
851.66546	6926.175
855.49504	6919.975
859.32195	6913.175
863.1462	6898.675
866.96777	6858.075
870.78668	6845.875
874.60293	6840.375
878.41652	6869.675
882.22745	6912.275
886.03573	6926.875
889.84136	6913.475
893.64433	6901.875
897.44466	6863.075
901.24235	6873.375
905.0374	6852.175
908.8298	6847.875
912.61957	6833.975
916.40671	6880.475
920.19121	6920.075
923.97308	6982.075
927.75233	7031.275
931.52895	7091.875
935.30295	7062.475
939.07433	6934.275
942.84309	6801.275
946.60924	6769.075
950.37278	6716.275
954.13371	6680.375
957.89203	6648.775
961.64774	6615.275
965.40086	6592.275
969.15137	6566.075
972.89929	6571.875
976.64461	6580.975
980.38733	6609.275
984.12747	6620.175
987.86502	6675.675
991.59999	6749.575
995.33237	6821.975
999.06217	6959.075
1002.78939	7092.675
1006.51404	7164.075
1010.23611	7186.275
1013.95561	7222.175
1017.67255	7251.875
1021.38692	7171.475
1025.09872	7092.275
1028.80796	7091.275
1032.51465	7221.675
1036.21877	7342.375
1039.92035	7439.275
1043.61937	7393.975
1047.31584	7332.575
1051.00976	7210.475
1054.70114	7133.675
1058.38998	7069.675
1062.07627	7041.775
1065.76003	6999.775
1069.44126	7012.875
1073.11995	7064.675
1076.79611	7126.975
1080.46974	7228.275
1084.14085	7313.575
1087.80943	7408.875
1091.47549	7438.975
1095.13903	7365.775
1098.80005	7195.775
1102.45857	7080.075
1106.11456	7045.675
1109.76805	7094.175
1113.41903	7167.975
1117.06751	7272.775
1120.71348	7408.175
1124.35696	7516.275
1127.99793	7639.875
1131.63641	7629.575
1135.2724	7440.575
1138.90589	7265.275
1142.5369	7117.375
1146.16542	7044.175
1149.79145	7006.975
1153.415	6994.075
1157.03607	7011.875
1160.65467	7051.975
1164.27079	7211.275
1167.88443	7480.375
1171.49561	7932.375
1175.10432	8557.775
1178.71056	9428.575
1182.31434	10208.475
1185.91565	10540.075
1189.51451	10390.475
1193.11091	9822.075
1196.70485	9227.175
1200.29634	8728.575
1203.88538	8310.375
1207.47197	7960.175
1211.05612	7677.275
1214.63782	7573.075
1218.21708	7611.075
1221.79391	7708.375
1225.36829	7773.175
1228.94024	7720.075
1232.50976	7572.075
1236.07685	7455.975
1239.6415	7416.375
1243.20374	7424.675
1246.76355	7483.875
1250.32093	7550.975
1253.8759	7685.575
1257.42845	7865.675
1260.97859	8072.975
1264.52631	8306.575
1268.07163	8510.075
1271.61453	8656.575
1275.15503	8789.275
1278.69312	8867.575
1282.22882	8940.475
1285.76211	9033.375
1289.29301	9226.875
1292.82151	9463.175
1296.34761	9740.275
1299.87133	10118.875
1303.39266	10666.075
1306.9116	11523.375
1310.42815	12541.175
1313.94233	13185.775
1317.45412	13091.175
1320.96354	12383.875
1324.47058	11490.675
1327.97525	10638.575
1331.47754	10090.575
1334.97747	9823.575
1338.47502	9787.375
1341.97022	9866.275
1345.46305	9925.675
1348.95352	10266.075
1352.44163	10994.575
1355.92738	12042.375
1359.41078	13381.375
1362.89183	14636.875
1366.37053	14615.675
1369.84688	13045.575
1373.32088	11109.075
1376.79254	9814.175
1380.26186	9236.475
1383.72883	9012.175
1387.19347	8811.175
1390.65578	8504.275
1394.11575	8239.675
1397.57339	8126.075
1401.0287	8102.075
1404.48168	8142.475
1407.93234	8198.275
1411.38068	8217.775
1414.82669	8244.575
1418.27039	8176.675
1421.71177	8079.875
1425.15083	7988.875
1428.58758	7958.175
1432.02203	8040.975
1435.45416	8171.875
1438.88399	8269.175
1442.31151	8280.075
1445.73673	8285.575
1449.15965	8261.175
1452.58027	8182.675
1455.9986	8045.075
1459.41463	7944.475
1462.82837	7972.275
1466.23982	8123.775
1469.64898	8338.475
1473.05586	8511.175
1476.46045	8621.775
1479.86276	8722.275
1483.26279	8845.875
1486.66054	8904.075
1490.05602	8992.475
1493.44922	9116.875
1496.84016	9265.775
1500.22882	9591.775
1503.61521	10169.575
1506.99934	10978.675
1510.38121	11737.875
1513.76081	12094.075
1517.13816	11718.075
1520.51324	10769.875
1523.88607	9758.575
1527.25665	9103.875
1530.62498	8795.775
1533.99105	8613.375
1537.35488	8500.975
1540.71647	8392.275
1544.07581	8306.775
1547.4329	8274.175
1550.78776	8195.675
1554.14038	8128.775
1557.49077	8063.775
1560.83892	8087.975
1564.18484	8173.675
1567.52853	8316.375
1570.86999	8499.275
1574.20922	8686.475
1577.54624	8740.875
1580.88103	8536.175
1584.2136	8218.875
1587.54395	8086.675
1590.87208	8259.075
1594.19801	8727.575
1597.52172	9390.475
1600.84321	9829.375
1604.16251	9732.075
1607.47959	9152.275
1610.79447	8425.675
1614.10715	7742.275
1617.41763	7284.175
1620.7259	7029.075
1624.03199	6917.575
1627.33587	6943.975
1630.63757	7052.175
1633.93707	7235.875
1637.23439	7643.775
1640.52951	8251.075
1643.82246	9081.275
1647.11321	9923.575
1650.40179	10298.675
1653.68819	9898.775
1656.97241	8823.775
1660.25446	7736.275
1663.53433	6983.675
1666.81203	6591.375
1670.08756	6335.675
1673.36092	6198.075
1676.63211	6099.575
1679.90115	6019.575
1683.16801	5973.175
1686.43272	5943.775
1689.69527	5891.375
1692.95567	5885.975
1696.2139	5878.575
1699.46999	5862.575
1702.72392	5855.175
1705.97571	5829.075
1709.22535	5822.575
1712.47284	5842.375
1715.71819	5840.675
1718.96139	5824.075
1722.20246	5808.675
1725.44139	5814.675
1728.67818	5777.475
1731.91284	5739.275
1735.14537	5709.875
1738.37576	5674.375
1741.60403	5647.775
1744.83017	5658.075
1748.05418	5649.575
1751.27607	5621.575
1754.49584	5607.975
1757.71349	5620.075
1760.92903	5596.375
1764.14244	5603.175
1767.35375	5591.875
1770.56294	5579.575
1773.77002	5561.675
1776.97499	5573.675
1780.17785	5543.475
1783.37861	5551.275
1786.57727	5538.675
1789.77382	5533.575
1792.96828	5514.675
1796.16064	5518.375
1799.3509	5503.475
1802.53907	5518.475
1805.72514	5489.075
1808.90913	5461.275
1812.09102	5451.475
1815.27083	5435.275
1818.44856	5428.475
1821.6242	5409.575
1824.79776	5421.575
1827.96924	5402.075
1831.13864	5392.975
1834.30597	5403.775
1837.47122	5386.575
1840.6344	5395.175
1843.7955	5382.275
1846.95454	5381.175
1850.11151	5362.975
1853.26642	5344.375
1856.41926	5377.575
1859.57004	5366.375
1862.71876	5357.675
1865.86542	5350.275
1869.01003	5361.875
1872.15258	5336.375
1875.29308	5349.275
1878.43152	5341.975
1881.56792	5365.575
1884.70227	5347.575
1887.83457	5333.075
1890.96482	5324.175
1894.09304	5316.975
1897.21921	5311.675
1900.34335	5316.575
1903.46544	5314.875
1906.58551	5311.675
1909.70353	5308.175
1912.81953	5301.175
1915.93349	5291.775
1919.04543	5285.575
1922.15534	5271.575
1925.26322	5266.775
1928.36908	5255.675
1931.47292	5252.475
1934.57473	5237.575
1937.67453	5224.075
1940.77232	5200.675
1943.86808	5195.175
1946.96184	5194.275
1950.05358	5174.775
1953.14331	5153.475
1956.23103	5148.775
1959.31675	5129.575
1962.40046	5123.675
1965.48217	5107.275
1968.56188	5090.675
1971.63959	5107.775
1974.7153	5067.475
1977.78901	5034.975
1980.86073	5034.775
1983.93046	5015.875
1986.99819	4991.975
1990.06394	4971.875
1993.1277	4969.475
1996.18947	4964.075
1999.24925	4952.275
2002.30706	4924.575
2005.36288	4909.975
2008.41672	4911.475
2011.46859	4884.375
2014.51848	4869.675
2017.56639	4843.675
2020.61233	4839.875
2023.6563	4832.775
2026.6983	4842.175
2029.73833	4817.775
2032.7764	4803.675
2035.8125	4796.275
2038.84664	4814.775
2041.87881	4805.375
2044.90903	4797.475
2047.93729	4783.075
2050.96359	4782.875
2053.98794	4775.275
2057.01034	4768.675
2060.03078	4760.075
2063.04927	4757.375
2066.06582	4745.875
2069.08042	4749.275
2072.09307	4744.675
2075.10378	4724.775
2078.11255	4722.875
2081.11938	4733.975
2084.12426	4739.675
2087.12722	4727.175
2090.12824	4711.375
2093.12732	4740.975
2096.12447	4752.575
2099.11969	4742.975
2102.11299	4740.975
2105.10435	4748.475
2108.09379	4740.775
2111.08131	4755.675
2114.0669	4754.675
2117.05057	4747.375
2120.03233	4747.975
2123.01216	4761.275
2125.99008	4759.775
2128.96609	4752.075
2131.94018	4766.275
2134.91236	4770.575
2137.88263	4769.575
2140.851	4751.475
2143.81746	4765.775
2146.78201	4766.075
2149.74466	4771.175
2152.7054	4766.775
2155.66425	4763.475
2158.6212	4763.275
2161.57625	4766.575
2164.52941	4760.575
2167.48067	4757.675
2170.43004	4763.675
2173.37752	4771.675
2176.32311	4759.875
2179.26681	4753.075
2182.20863	4761.875
2185.14856	4764.975
2188.08661	4746.475
2191.02278	4763.675
2193.95707	4758.775
2196.88948	4769.575
2199.82001	4754.775
2202.74867	4756.975
2205.67545	4748.975
2208.60037	4749.475
2211.52341	4728.675
2214.44458	4740.675
2217.36388	4717.875
2220.28132	4713.775
2223.1969	4701.175
2226.11061	4686.975
2229.02246	4693.775
2231.93245	4686.275
2234.84058	4662.075
2237.74686	4653.775
2240.65128	4659.275
2243.55385	4664.375
2246.45456	4647.875
2249.35343	4647.075
2252.25044	4627.575
2255.14561	4621.875
2258.03893	4619.775
2260.93041	4596.275
2263.82004	4587.275
2266.70783	4584.975
2269.59378	4583.775
2272.4779	4582.075
2275.36017	4561.975
2278.24061	4555.575
2281.11922	4559.275
2283.996	4545.775
2286.87094	4543.175
2289.74405	4507.975
2292.61534	4528.375
2295.4848	4528.575
2298.35243	4507.875
2301.21824	4504.575
2304.08223	4503.875
2306.94439	4504.075
2309.80474	4507.975
2312.66327	4502.975
2315.51999	4496.275
2318.37489	4487.675
2321.22797	4488.575
2324.07925	4498.675
2326.92871	4477.175
2329.77637	4487.875
2332.62222	4460.175
2335.46626	4463.875
2338.3085	4440.275
2341.14893	4443.975
2343.98756	4444.375
2346.8244	4448.675
2349.65943	4462.175
2352.49267	4441.375
2355.32411	4441.875
2358.15376	4443.475
2360.98161	4432.975
2363.80768	4449.275
2366.63195	4423.175
2369.45444	4415.475
2372.27514	4418.275
2375.09405	4421.275
2377.91118	4405.975
2380.72652	4397.275
2383.54009	4407.075
2386.35187	4385.075
2389.16188	4374.875
2391.97011	4355.975
2394.77657	4368.175
2397.58125	4333.175
2400.38416	4321.675
2403.18529	4335.575
2405.98466	4331.875
2408.78226	4322.275
2411.57809	4307.275
2414.37216	4285.975
2417.16446	4301.875
2419.955	4292.675
2422.74378	4288.675
2425.5308	4271.675
2428.31606	4271.875
2431.09956	4267.075
2433.88131	4253.575
2436.6613	4271.475
2439.43954	4267.175
2442.21603	4247.675
2444.99077	4263.975
2447.76377	4261.175
2450.53501	4251.575
2453.30451	4246.675
2456.07226	4230.275
2458.83827	4243.175
2461.60254	4238.575
2464.36507	4219.975
2467.12586	4230.175
2469.88492	4215.575
2472.64224	4205.975
2475.39782	4211.575
2478.15167	4207.775
2480.90379	4219.275
2483.65417	4227.875
2486.40283	4217.375
2489.14976	4219.475
2491.89497	4216.475
2494.63845	4218.475
2497.3802	4222.975
2500.12024	4204.175
2502.85855	4200.275
2505.59514	4195.475
2508.33002	4194.075
2511.06318	4174.375
2513.79462	4169.575
2516.52435	4169.875
2519.25237	4142.875
2521.97867	4142.775
2524.70327	4143.975
2527.42616	4127.475
2530.14734	4132.575
2532.86681	4133.375
2535.58458	4131.375
2538.30065	4119.775
2541.01501	4107.075
2543.72768	4118.875
2546.43864	4101.775
2549.14791	4107.275
2551.85548	4100.875
2554.56136	4099.575
2557.26554	4095.975
2559.96803	4074.375
2562.66883	4082.475
2565.36794	4069.075
2568.06536	4079.175
2570.7611	4056.175
2573.45514	4058.675
2576.14751	4058.375
2578.83819	4045.375
2581.52719	4049.175
2584.21451	4055.975
2586.90015	4039.975
2589.58411	4028.275
2592.2664	4028.575
2594.94701	4041.975
2597.62594	4010.475
2600.30321	4010.975
2602.9788	4002.175
2605.65273	3974.475
2608.32498	4002.175
2610.99557	3983.975
2613.66449	3994.475
2616.33175	3969.575
2618.99734	3984.775
2621.66128	3983.775
2624.32355	3979.075
2626.98416	3979.975
2629.64311	3963.175
2632.30041	3961.375
2634.95605	3971.875
2637.61004	3953.475
2640.26238	3947.675
2642.91306	3935.575
2645.56209	3923.375
2648.20948	3921.075
2650.85521	3927.575
2653.4993	3920.675
2656.14175	3920.475
2658.78255	3921.775
2661.42171	3930.375
2664.05923	3919.275
2666.6951	3934.775
2669.32934	3927.475
2671.96194	3939.575
2674.59291	3941.375
2677.22224	3930.875
2679.84993	3940.175
2682.476	3936.175
2685.10043	3931.875
2687.72324	3926.775
2690.34441	3939.875
2692.96396	3964.875
2695.58188	3937.475
2698.19818	3941.975
2700.81285	3940.775
2703.4259	3934.575
2706.03733	3929.375
2708.64714	3946.275
2711.25533	3949.175
2713.86191	3945.775
2716.46687	3964.375
2719.07021	3965.375
2721.67194	3979.375
2724.27206	3968.475
2726.87057	3988.475
2729.46747	3977.975
2732.06276	3981.775
2734.65644	3982.575
2737.24852	3973.675
2739.83899	3981.975
2742.42786	3978.575
2745.01513	3967.875
2747.60079	3976.675
2750.18486	3967.275
2752.76733	3978.775
2755.3482	3960.075
2757.92747	3985.775
2760.50515	3972.575
2763.08123	3970.075
2765.65573	3964.975
2768.22863	3972.775
2770.79994	3974.775
2773.36967	3995.675
2775.9378	3981.275
2778.50435	3972.775
2781.06932	3982.775
2783.6327	3990.275
2786.1945	3992.575
2788.75471	4008.375
2791.31335	3992.175
2793.87041	3998.175
2796.42589	4017.875
2798.97979	3997.975
2801.53212	3999.975
2804.08288	4015.175
2806.63206	4005.575
2809.17967	4024.575
2811.72571	4030.375
2814.27018	4043.275
2816.81308	4042.175
2819.35442	4038.775
2821.89419	4031.675
2824.43239	4038.175
2826.96904	4031.775
2829.50412	4036.375
2832.03763	4018.775
2834.56959	4044.475
2837.1	4044.075
2839.62884	4079.975
2842.15613	4105.775
2844.68186	4136.275
2847.20604	4203.675
2849.72867	4253.375
2852.24974	4256.675
2854.76927	4249.575
2857.28724	4254.975
2859.80367	4250.975
2862.31855	4225.075
2864.83189	4228.875
2867.34368	4213.275
2869.85393	4203.075
2872.36264	4219.675
2874.8698	4223.975
2877.37543	4213.175
2879.87952	4215.675
2882.38207	4207.175
2884.88308	4206.775
2887.38256	4199.675
2889.88051	4219.875
2892.37692	4201.575
2894.8718	4204.475
2897.36515	4207.575
2899.85698	4196.075
2902.34727	4212.675
2904.83604	4192.975
2907.32328	4195.675
2909.809	4191.075
2912.29319	4196.075
2914.77587	4183.275
2917.25702	4194.675
2919.73665	4183.575
2922.21476	4181.675
2924.69136	4181.475
2927.16644	4174.575
2929.64	4149.175
2932.11205	4156.375
2934.58258	4123.175
2937.05161	4120.075
2939.51912	4086.375
2941.98513	4054.175
2944.44962	4005.175
2946.91261	3950.475
2949.37409	3937.375
2951.83407	3892.275
2954.29254	3884.775
2956.74951	3855.275
2959.20498	3822.975
2961.65895	3826.675
2964.11142	3810.575
2966.56239	3785.575
2969.01186	3786.375
2971.45984	3761.075
2973.90632	3758.575
2976.35131	3735.175
2978.7948	3720.075
2981.23681	3707.075
2983.67732	3673.875
2986.11635	3675.875
2988.55388	3641.475
2990.98993	3638.375
2993.4245	3629.775
2995.85758	3621.075
2998.28917	3614.275
3000.71928	3621.275
3003.14791	3601.675
3005.57506	3594.075
3008.00073	3588.775
3010.42493	3590.875
3012.84764	3585.075
3015.26888	3592.975
3017.68865	3582.575
3020.10694	3580.575
3022.52376	3556.275
3024.9391	3548.275
3027.35298	3554.675
3029.76539	3559.275
3032.17632	3531.875
3034.5858	3546.275
3036.9938	3550.675
3039.40034	3544.275
3041.80542	3543.675
3044.20903	3533.675
3046.61118	3533.375
3049.01187	3534.075
3051.4111	3541.775
3053.80888	3518.475
3056.20519	3521.275
3058.60005	3531.675
3060.99345	3524.375
3063.3854	3517.375
3065.7759	3517.075
3068.16494	3501.575
3070.55254	3510.975
3072.93868	3513.675
3075.32338	3517.075
3077.70662	3509.275
3080.08842	3492.575
3082.46878	3483.075
3084.84769	3505.675
3087.22515	3487.475
3089.60118	3479.975
3091.97576	3492.775
3094.3489	3491.475
3096.72061	3491.375
3099.09087	3484.675
3101.4597	3470.275
3103.82709	3476.575
3106.19305	3463.675
3108.55757	3470.375
3110.92066	3474.175
3113.28232	3471.775
3115.64255	3470.675
3118.00134	3466.075
3120.35871	3471.675
3122.71466	3467.075
3125.06917	3469.975
3127.42226	3473.275
3129.77393	3489.375
3132.12417	3493.875
3134.47299	3491.275
3136.82039	3490.175
3139.16636	3494.375
3141.51092	3510.575
3143.85406	3515.375
3146.19579	3515.775
3148.53609	3501.875
3150.87499	3529.075
3153.21246	3519.875
3155.54853	3533.975
3157.88318	3523.375
3160.21642	3538.775
3162.54826	3536.475
3164.87868	3537.675
3167.2077	3562.375
3169.5353	3553.675
3171.86151	3556.675
3174.18631	3564.775
3176.5097	3551.875
3178.83169	3546.675
3181.15228	3559.875
3183.47147	3570.475
3185.78926	3569.775
3188.10565	3581.275
3190.42065	3571.875
3192.73424	3590.375
3195.04645	3589.975
3197.35725	3597.875
3199.66667	3600.075
3201.97469	3602.375
3204.28132	3607.575
3206.58656	3605.275
3208.8904	3615.175
3211.19287	3605.475
3213.49394	3605.275
3215.79363	3613.275
3218.09193	3625.375
3220.38884	3611.075
3222.68438	3629.575
3224.97853	3611.975
3227.2713	3608.975
3229.56269	3618.675
3231.8527	3611.975
3234.14133	3616.375
