Data from AgNPs_FTO_APTES_UA_2uM_R6G_10uM_NaF_0.1M_Addition_RamanShift__5__11-49-27-203.txt Node

Date: Fri Dec 17 11:49:27 GMT 2021
User: TCL
Spectrometer: QEP01345
Trigger mode: 4
Integration Time (sec): 7.000000E0
Scans to average: 10
Electric dark correction enabled: true
Nonlinearity correction enabled: false
Boxcar width: 0
XAxis mode: Raman Shifts
Number of Pixels in Spectrum: 1044
>>>>>Begin Spectral Data<<<<<
46.04893	-2.4125
50.45542	-0.9125
54.85868	-1.7125
59.25871	0.2875
63.6555	127.2875
68.04907	129.1875
72.43941	132.9875
76.82654	145.2875
81.21044	145.5875
85.59113	150.8875
89.96862	158.6875
94.34289	162.4875
98.71396	165.9875
103.08183	169.2875
107.4465	173.1875
111.80798	176.4875
116.16626	183.1875
120.52136	185.1875
124.87327	204.1875
129.222	209.1875
133.56755	209.0875
137.90993	237.0875
142.24913	254.3875
146.58517	280.5875
150.91804	323.3875
155.24774	381.3875
159.57429	469.3875
163.89768	601.7875
168.21792	791.6875
172.53501	1064.2875
176.84895	1471.5875
181.15975	2059.7875
185.46741	2888.9875
189.77193	3975.9875
194.07331	5315.6875
198.37157	6861.1875
202.6667	8461.9875
206.9587	10086.4875
211.24758	11640.5875
215.53334	13231.1875
219.81599	14896.3875
224.09553	16760.8875
228.37195	18785.5875
232.64527	21014.6875
236.91549	23407.7875
241.18261	25808.1875
245.44663	28052.8875
249.70755	30118.2875
253.96539	31919.7875
258.22014	33368.4875
262.4718	34573.8875
266.72039	35377.8875
270.96589	35768.2875
275.20832	35817.2875
279.44768	35446.7875
283.68397	35000.3875
287.91719	34533.7875
292.14735	34264.5875
296.37445	34078.6875
300.59849	34081.8875
304.81948	34136.7875
309.03742	34129.2875
313.25231	33988.3875
317.46415	33631.2875
321.67296	33183.9875
325.87872	32770.1875
330.08145	32578.1875
334.28114	32613.7875
338.47781	32815.4875
342.67145	33208.8875
346.86207	33669.8875
351.04966	34337.6875
355.23424	35011.5875
359.4158	35575.4875
363.59435	36112.4875
367.76989	36390.1875
371.94243	36667.7875
376.11196	36899.5875
380.27849	37037.0875
384.44203	37302.4875
388.60257	37600.6875
392.76012	37929.3875
396.91468	38392.4875
401.06626	39011.6875
405.21485	39436.5875
409.36047	39421.5875
413.50311	39194.1875
417.64277	39086.9875
421.77947	39162.1875
425.9132	39392.3875
430.04396	39600.3875
434.17176	39747.2875
438.2966	39924.2875
442.41849	40457.1875
446.53742	41299.4875
450.6534	42284.5875
454.76644	42998.5875
458.87653	43351.9875
462.98368	43187.9875
467.08789	42719.2875
471.18916	42067.5875
475.2875	41380.0875
479.38291	40851.3875
483.4754	40529.2875
487.56496	40250.4875
491.6516	39974.2875
495.73531	39899.8875
499.81612	39960.8875
503.89401	40292.6875
507.96899	40461.6875
512.04106	40464.9875
516.11023	40240.6875
520.1765	39999.3875
524.23987	39825.4875
528.30034	39577.8875
532.35792	39269.1875
536.41261	38953.9875
540.46441	38567.1875
544.51333	38400.2875
548.55936	38675.6875
552.60252	39211.8875
556.64279	39785.3875
560.6802	40160.6875
564.71473	40423.4875
568.7464	40731.0875
572.7752	41320.9875
576.80114	42099.3875
580.82422	43045.9875
584.84444	44326.1875
588.86181	45602.5875
592.87633	46629.9875
596.888	46516.4875
600.89682	45911.5875
604.9028	46582.6875
608.90594	49610.5875
612.90624	52377.6875
616.90371	49720.8875
620.89834	43753.5875
624.89015	41076.5875
628.87913	40630.4875
632.86528	40547.7875
636.84862	40202.8875
640.82913	39681.9875
644.80683	38933.7875
648.78172	38513.6875
652.75379	38542.5875
656.72306	39047.8875
660.68952	39555.0875
664.65319	39393.7875
668.61405	38965.4875
672.57211	39082.6875
676.52738	39282.7875
680.47986	39166.5875
684.42955	38864.8875
688.37646	38781.0875
692.32058	39157.7875
696.26192	39772.5875
700.20048	40368.9875
704.13626	40527.7875
708.06928	40205.8875
711.99952	39874.2875
715.927	39877.4875
719.85171	40097.4875
723.77365	40046.3875
727.69284	39564.1875
731.60928	39075.2875
735.52295	38921.4875
739.43388	38947.9875
743.34206	39021.3875
747.24749	39219.6875
751.15017	39450.2875
755.05012	39918.6875
758.94733	40719.4875
762.8418	42022.7875
766.73354	44031.3875
770.62254	45910.4875
774.50882	46341.4875
778.39237	44961.9875
782.27321	42930.1875
786.15132	41212.0875
790.02671	40133.0875
793.89938	39683.5875
797.76935	39538.5875
801.6366	39434.2875
805.50115	39400.9875
809.36299	39259.5875
813.22213	39033.8875
817.07857	38823.4875
820.93231	38574.4875
824.78336	38445.9875
828.63172	38417.3875
832.47738	38432.7875
836.32036	38581.5875
840.16066	38780.2875
843.99827	38908.3875
847.8332	38809.8875
851.66546	38673.9875
855.49504	38633.5875
859.32195	38673.0875
863.1462	38615.7875
866.96777	38492.7875
870.78668	38441.7875
874.60293	38560.8875
878.41652	38652.0875
882.22745	38836.1875
886.03573	39025.6875
889.84136	39084.8875
893.64433	38877.8875
897.44466	38684.8875
901.24235	38525.2875
905.0374	38442.1875
908.8298	38446.7875
912.61957	38461.0875
916.40671	38720.5875
920.19121	39069.1875
923.97308	39543.5875
927.75233	39786.0875
931.52895	39704.0875
935.30295	39338.4875
939.07433	38895.0875
942.84309	38561.4875
946.60924	38408.7875
950.37278	38401.0875
954.13371	38319.0875
957.89203	38080.1875
961.64774	38016.5875
965.40086	37979.8875
969.15137	37970.2875
972.89929	37957.5875
976.64461	38058.4875
980.38733	38206.0875
984.12747	38357.5875
987.86502	38661.2875
991.59999	39064.5875
995.33237	39621.2875
999.06217	40552.1875
1002.78939	41729.0875
1006.51404	42520.2875
1010.23611	43152.1875
1013.95561	43350.3875
1017.67255	43295.8875
1021.38692	42754.7875
1025.09872	42395.4875
1028.80796	42678.4875
1032.51465	43721.3875
1036.21877	44851.2875
1039.92035	45176.4875
1043.61937	44707.8875
1047.31584	43721.7875
1051.00976	42624.4875
1054.70114	41965.1875
1058.38998	41811.6875
1062.07627	41938.1875
1065.76003	42173.1875
1069.44126	42476.6875
1073.11995	43061.0875
1076.79611	43643.2875
1080.46974	43999.4875
1084.14085	44331.1875
1087.80943	44517.7875
1091.47549	44581.9875
1095.13903	44341.8875
1098.80005	43856.9875
1102.45857	43076.3875
1106.11456	42607.0875
1109.76805	42359.0875
1113.41903	42374.1875
1117.06751	42384.4875
1120.71348	42465.1875
1124.35696	42668.9875
1127.99793	42900.2875
1131.63641	43161.3875
1135.2724	43064.7875
1138.90589	42958.8875
1142.5369	42882.2875
1146.16542	43047.2875
1149.79145	43182.5875
1153.415	43290.7875
1157.03607	43654.5875
1160.65467	44545.3875
1164.27079	46063.9875
1167.88443	47905.5875
1171.49561	50049.3875
1175.10432	52454.4875
1178.71056	55681.0875
1182.31434	59019.4875
1185.91565	61140.3875
1189.51451	61419.1875
1193.11091	60234.5875
1196.70485	58329.3875
1200.29634	56352.6875
1203.88538	54982.5875
1207.47197	54080.9875
1211.05612	53273.6875
1214.63782	52344.2875
1218.21708	51598.1875
1221.79391	50917.0875
1225.36829	50393.1875
1228.94024	49902.0875
1232.50976	49299.8875
1236.07685	48767.1875
1239.6415	48462.7875
1243.20374	48549.1875
1246.76355	48988.7875
1250.32093	49838.2875
1253.8759	50811.3875
1257.42845	52048.4875
1260.97859	53394.9875
1264.52631	54817.4875
1268.07163	56451.7875
1271.61453	58116.6875
1275.15503	59612.0875
1278.69312	60936.0875
1282.22882	61835.0875
1285.76211	62743.4875
1289.29301	63707.0875
1292.82151	65213.3875
1296.34761	67308.9875
1299.87133	70312.6875
1303.39266	73943.6875
1306.9116	77773.9875
1310.42815	80608.2875
1313.94233	81866.5875
1317.45412	81367.3875
1320.96354	79888.0875
1324.47058	78680.0875
1327.97525	77869.6875
1331.47754	77521.0875
1334.97747	77235.4875
1338.47502	76882.7875
1341.97022	75863.2875
1345.46305	74387.6875
1348.95352	73241.4875
1352.44163	73128.6875
1355.92738	74509.5875
1359.41078	77396.4875
1362.89183	79596.0875
1366.37053	78486.4875
1369.84688	73529.1875
1373.32088	67199.4875
1376.79254	62538.2875
1380.26186	60456.4875
1383.72883	60326.8875
1387.19347	60108.2875
1390.65578	59410.2875
1394.11575	58807.6875
1397.57339	58876.7875
1401.0287	59428.2875
1404.48168	60202.0875
1407.93234	60751.8875
1411.38068	60851.5875
1414.82669	60089.5875
1418.27039	58740.0875
1421.71177	57123.4875
1425.15083	55751.6875
1428.58758	55319.7875
1432.02203	55841.4875
1435.45416	57058.3875
1438.88399	58451.3875
1442.31151	59382.5875
1445.73673	59683.4875
1449.15965	59694.3875
1452.58027	59428.5875
1455.9986	59027.4875
1459.41463	59043.6875
1462.82837	59750.3875
1466.23982	60857.4875
1469.64898	61968.1875
1473.05586	62741.8875
1476.46045	63063.6875
1479.86276	62980.8875
1483.26279	62593.3875
1486.66054	62534.8875
1490.05602	62823.1875
1493.44922	63171.4875
1496.84016	63239.2875
1500.22882	63408.7875
1503.61521	63981.3875
1506.99934	64827.8875
1510.38121	65504.4875
1513.76081	65434.6875
1517.13816	64155.4875
1520.51324	62381.9875
1523.88607	60941.9875
1527.25665	60244.3875
1530.62498	60227.8875
1533.99105	60246.7875
1537.35488	60004.2875
1540.71647	59337.5875
1544.07581	58543.8875
1547.4329	57670.0875
1550.78776	56884.6875
1554.14038	56369.0875
1557.49077	55964.1875
1560.83892	55555.9875
1564.18484	55309.3875
1567.52853	55196.2875
1570.86999	55428.7875
1574.20922	56093.5875
1577.54624	56763.1875
1580.88103	57293.3875
1584.2136	58098.7875
1587.54395	59862.6875
1590.87208	62865.7875
1594.19801	66546.9875
1597.52172	69874.3875
1600.84321	70761.1875
1604.16251	68030.6875
1607.47959	63222.4875
1610.79447	58249.6875
1614.10715	53859.5875
1617.41763	50402.9875
1620.7259	48251.8875
1624.03199	47353.6875
1627.33587	47560.8875
1630.63757	48863.6875
1633.93707	51355.5875
1637.23439	55288.4875
1640.52951	60645.0875
1643.82246	66412.9875
1647.11321	70280.5875
1650.40179	69844.5875
1653.68819	64706.7875
1656.97241	57308.3875
1660.25446	50708.9875
1663.53433	46223.7875
1666.81203	43372.6875
1670.08756	41599.3875
1673.36092	40436.8875
1676.63211	39665.6875
1679.90115	39140.3875
1683.16801	38718.8875
1686.43272	38369.5875
1689.69527	38232.6875
1692.95567	37984.2875
1696.2139	37858.3875
1699.46999	37787.0875
1702.72392	37723.9875
1705.97571	37731.4875
1709.22535	37691.5875
1712.47284	37691.1875
1715.71819	37661.6875
1718.96139	37664.7875
1722.20246	37475.6875
1725.44139	37404.4875
1728.67818	37265.3875
1731.91284	37044.4875
1735.14537	36922.5875
1738.37576	36809.2875
1741.60403	36660.1875
1744.83017	36583.1875
1748.05418	36540.1875
1751.27607	36455.7875
1754.49584	36370.0875
1757.71349	36418.0875
1760.92903	36420.8875
1764.14244	36379.3875
1767.35375	36353.5875
1770.56294	36386.4875
1773.77002	36326.6875
1776.97499	36306.2875
1780.17785	36238.8875
1783.37861	36252.5875
1786.57727	36237.4875
1789.77382	36187.0875
1792.96828	36131.5875
1796.16064	36049.5875
1799.3509	36027.7875
1802.53907	36027.7875
1805.72514	35911.0875
1808.90913	35884.7875
1812.09102	35847.9875
1815.27083	35776.5875
1818.44856	35752.5875
1821.6242	35745.2875
1824.79776	35712.4875
1827.96924	35712.3875
1831.13864	35710.2875
1834.30597	35816.3875
1837.47122	35777.6875
1840.6344	35803.4875
1843.7955	35834.5875
1846.95454	35779.6875
1850.11151	35806.0875
1853.26642	35770.6875
1856.41926	35805.5875
1859.57004	35796.3875
1862.71876	35742.1875
1865.86542	35745.1875
1869.01003	35653.4875
1872.15258	35656.1875
1875.29308	35688.1875
1878.43152	35686.7875
1881.56792	35642.1875
1884.70227	35630.1875
1887.83457	35633.4875
1890.96482	35584.8875
1894.09304	35547.8875
1897.21921	35485.8875
1900.34335	35466.4875
1903.46544	35412.4875
1906.58551	35394.3875
1909.70353	35314.9875
1912.81953	35294.3875
1915.93349	35223.4875
1919.04543	35157.9875
1922.15534	35086.3875
1925.26322	35051.8875
1928.36908	34997.4875
1931.47292	34951.9875
1934.57473	34858.0875
1937.67453	34763.9875
1940.77232	34753.5875
1943.86808	34651.2875
1946.96184	34600.9875
1950.05358	34500.0875
1953.14331	34442.1875
1956.23103	34294.6875
1959.31675	34244.5875
1962.40046	34136.6875
1965.48217	34135.2875
1968.56188	34032.7875
1971.63959	33996.6875
1974.7153	33888.2875
1977.78901	33780.6875
1980.86073	33701.9875
1983.93046	33546.1875
1986.99819	33460.6875
1990.06394	33426.1875
1993.1277	33335.6875
1996.18947	33211.1875
1999.24925	33158.6875
2002.30706	33098.5875
2005.36288	32985.3875
2008.41672	32953.2875
2011.46859	32841.4875
2014.51848	32774.4875
2017.56639	32709.1875
2020.61233	32612.7875
2023.6563	32590.4875
2026.6983	32608.0875
2029.73833	32471.5875
2032.7764	32414.3875
2035.8125	32410.1875
2038.84664	32397.1875
2041.87881	32391.5875
2044.90903	32346.6875
2047.93729	32311.0875
2050.96359	32288.5875
2053.98794	32211.8875
2057.01034	32213.3875
2060.03078	32181.5875
2063.04927	32142.1875
2066.06582	32148.8875
2069.08042	32160.8875
2072.09307	32119.2875
2075.10378	32098.8875
2078.11255	32054.6875
2081.11938	32046.6875
2084.12426	32057.6875
2087.12722	32008.6875
2090.12824	32047.6875
2093.12732	32063.6875
2096.12447	32105.4875
2099.11969	32112.5875
2102.11299	32135.3875
2105.10435	32176.2875
2108.09379	32192.1875
2111.08131	32253.7875
2114.0669	32282.9875
2117.05057	32263.0875
2120.03233	32312.1875
2123.01216	32310.5875
2125.99008	32379.6875
2128.96609	32407.0875
2131.94018	32439.1875
2134.91236	32472.5875
2137.88263	32450.3875
2140.851	32518.3875
2143.81746	32562.6875
2146.78201	32557.1875
2149.74466	32615.1875
2152.7054	32615.1875
2155.66425	32634.0875
2158.6212	32627.4875
2161.57625	32618.6875
2164.52941	32649.9875
2167.48067	32623.4875
2170.43004	32646.4875
2173.37752	32678.8875
2176.32311	32682.2875
2179.26681	32664.9875
2182.20863	32666.7875
2185.14856	32643.8875
2188.08661	32697.4875
2191.02278	32726.7875
2193.95707	32707.2875
2196.88948	32705.6875
2199.82001	32753.0875
2202.74867	32712.3875
2205.67545	32696.2875
2208.60037	32719.9875
2211.52341	32646.4875
2214.44458	32652.0875
2217.36388	32561.3875
2220.28132	32544.4875
2223.1969	32491.4875
2226.11061	32473.8875
2229.02246	32447.0875
2231.93245	32399.6875
2234.84058	32318.7875
2237.74686	32299.3875
2240.65128	32256.5875
2243.55385	32227.5875
2246.45456	32154.2875
2249.35343	32105.3875
2252.25044	32100.7875
2255.14561	32054.4875
2258.03893	32079.4875
2260.93041	31975.6875
2263.82004	31930.1875
2266.70783	31909.4875
2269.59378	31816.3875
2272.4779	31775.6875
2275.36017	31718.8875
2278.24061	31715.8875
2281.11922	31656.4875
2283.996	31591.8875
2286.87094	31631.9875
2289.74405	31586.5875
2292.61534	31534.3875
2295.4848	31547.4875
2298.35243	31600.2875
2301.21824	31563.5875
2304.08223	31598.7875
2306.94439	31630.7875
2309.80474	31643.3875
2312.66327	31615.0875
2315.51999	31592.1875
2318.37489	31625.2875
2321.22797	31647.4875
2324.07925	31637.7875
2326.92871	31581.3875
2329.77637	31527.1875
2332.62222	31458.0875
2335.46626	31477.3875
2338.3085	31494.0875
2341.14893	31515.5875
2343.98756	31517.1875
2346.8244	31534.8875
2349.65943	31485.6875
2352.49267	31430.4875
2355.32411	31437.1875
2358.15376	31405.5875
2360.98161	31415.9875
2363.80768	31320.2875
2366.63195	31296.5875
2369.45444	31271.8875
2372.27514	31175.8875
2375.09405	31201.1875
2377.91118	31136.9875
2380.72652	31072.0875
2383.54009	31048.9875
2386.35187	31034.3875
2389.16188	31010.0875
2391.97011	30966.0875
2394.77657	30888.5875
2397.58125	30904.6875
2400.38416	30834.6875
2403.18529	30812.4875
2405.98466	30775.2875
2408.78226	30729.4875
2411.57809	30722.2875
2414.37216	30660.4875
2417.16446	30675.7875
2419.955	30611.3875
2422.74378	30595.2875
2425.5308	30584.8875
2428.31606	30586.5875
2431.09956	30550.8875
2433.88131	30482.3875
2436.6613	30524.9875
2439.43954	30592.2875
2442.21603	30531.2875
2444.99077	30482.4875
2447.76377	30519.3875
2450.53501	30491.2875
2453.30451	30525.5875
2456.07226	30521.9875
2458.83827	30520.9875
2461.60254	30480.4875
2464.36507	30485.6875
2467.12586	30485.7875
2469.88492	30437.2875
2472.64224	30482.6875
2475.39782	30455.5875
2478.15167	30453.5875
2480.90379	30470.2875
2483.65417	30496.3875
2486.40283	30462.7875
2489.14976	30497.2875
2491.89497	30447.7875
2494.63845	30520.3875
2497.3802	30465.6875
2500.12024	30481.0875
2502.85855	30441.0875
2505.59514	30477.9875
2508.33002	30457.2875
2511.06318	30445.6875
2513.79462	30407.1875
2516.52435	30395.4875
2519.25237	30440.4875
2521.97867	30451.9875
2524.70327	30407.0875
2527.42616	30357.3875
2530.14734	30393.0875
2532.86681	30350.6875
2535.58458	30322.7875
2538.30065	30339.6875
2541.01501	30267.4875
2543.72768	30236.1875
2546.43864	30257.5875
2549.14791	30188.4875
2551.85548	30146.3875
2554.56136	30178.4875
2557.26554	30125.3875
2559.96803	30088.9875
2562.66883	30066.3875
2565.36794	30140.1875
2568.06536	30098.2875
2570.7611	30098.1875
2573.45514	30004.4875
2576.14751	30055.7875
2578.83819	30016.3875
2581.52719	30033.0875
2584.21451	29972.8875
2586.90015	30005.5875
2589.58411	29931.5875
2592.2664	29941.9875
2594.94701	29862.9875
2597.62594	29891.1875
2600.30321	29802.9875
2602.9788	29830.7875
2605.65273	29810.7875
2608.32498	29807.6875
2610.99557	29783.7875
2613.66449	29783.6875
2616.33175	29752.5875
2618.99734	29766.2875
2621.66128	29756.4875
2624.32355	29713.0875
2626.98416	29666.2875
2629.64311	29716.3875
2632.30041	29708.8875
2634.95605	29643.7875
2637.61004	29614.7875
2640.26238	29593.1875
2642.91306	29567.7875
2645.56209	29528.4875
2648.20948	29570.7875
2650.85521	29557.6875
2653.4993	29568.0875
2656.14175	29553.2875
2658.78255	29586.1875
2661.42171	29566.2875
2664.05923	29622.1875
2666.6951	29632.9875
2669.32934	29631.7875
2671.96194	29643.9875
2674.59291	29674.3875
2677.22224	29677.7875
2679.84993	29632.9875
2682.476	29657.2875
2685.10043	29687.1875
2687.72324	29616.5875
2690.34441	29636.5875
2692.96396	29620.8875
2695.58188	29631.5875
2698.19818	29603.8875
2700.81285	29647.4875
2703.4259	29606.9875
2706.03733	29588.2875
2708.64714	29646.0875
2711.25533	29716.0875
2713.86191	29687.6875
2716.46687	29682.8875
2719.07021	29679.0875
2721.67194	29702.3875
2724.27206	29613.8875
2726.87057	29726.6875
2729.46747	29709.2875
2732.06276	29736.9875
2734.65644	29761.1875
2737.24852	29731.3875
2739.83899	29746.0875
2742.42786	29745.9875
2745.01513	29706.2875
2747.60079	29720.0875
2750.18486	29719.5875
2752.76733	29731.0875
2755.3482	29679.4875
2757.92747	29682.1875
2760.50515	29680.7875
2763.08123	29667.9875
2765.65573	29625.1875
2768.22863	29638.8875
2770.79994	29600.2875
2773.36967	29651.1875
2775.9378	29598.0875
2778.50435	29593.3875
2781.06932	29558.5875
2783.6327	29551.0875
2786.1945	29556.3875
2788.75471	29541.0875
2791.31335	29475.2875
2793.87041	29401.0875
2796.42589	29339.9875
2798.97979	29361.7875
2801.53212	29275.8875
2804.08288	29304.8875
2806.63206	29169.3875
2809.17967	29169.7875
2811.72571	29087.2875
2814.27018	29132.9875
2816.81308	29077.0875
2819.35442	29007.0875
2821.89419	28943.6875
2824.43239	28916.1875
2826.96904	28870.2875
2829.50412	28893.2875
2832.03763	28835.6875
2834.56959	28839.0875
2837.1	28769.1875
2839.62884	28812.3875
2842.15613	28757.2875
2844.68186	28807.6875
2847.20604	28784.3875
2849.72867	28782.6875
2852.24974	28703.1875
2854.76927	28675.5875
2857.28724	28706.6875
2859.80367	28697.2875
2862.31855	28676.1875
2864.83189	28671.7875
2867.34368	28644.3875
2869.85393	28682.8875
2872.36264	28692.7875
2874.8698	28655.8875
2877.37543	28685.0875
2879.87952	28695.6875
2882.38207	28699.7875
2884.88308	28753.5875
2887.38256	28771.5875
2889.88051	28748.4875
2892.37692	28761.6875
2894.8718	28769.8875
2897.36515	28816.7875
2899.85698	28795.4875
2902.34727	28889.6875
2904.83604	28905.3875
2907.32328	28915.1875
2909.809	28911.1875
2912.29319	28942.6875
2914.77587	28909.3875
2917.25702	28896.4875
2919.73665	28861.5875
2922.21476	28912.1875
2924.69136	28859.9875
2927.16644	28865.4875
2929.64	28774.5875
2932.11205	28812.6875
2934.58258	28687.0875
2937.05161	28814.8875
2939.51912	28767.9875
2941.98513	28766.2875
2944.44962	28734.9875
2946.91261	28614.9875
2949.37409	28686.8875
2951.83407	28642.3875
2954.29254	28643.4875
2956.74951	28573.8875
2959.20498	28585.8875
2961.65895	28478.6875
2964.11142	28552.2875
2966.56239	28467.2875
2969.01186	28476.8875
2971.45984	28389.4875
2973.90632	28387.0875
2976.35131	28365.4875
2978.7948	28331.2875
2981.23681	28242.2875
2983.67732	28173.9875
2986.11635	28109.9875
2988.55388	28093.3875
2990.98993	28069.5875
2993.4245	28015.8875
2995.85758	27985.5875
2998.28917	27922.0875
3000.71928	27855.4875
3003.14791	27873.1875
3005.57506	27846.2875
3008.00073	27795.2875
3010.42493	27761.2875
3012.84764	27685.4875
3015.26888	27652.4875
3017.68865	27629.6875
3020.10694	27638.0875
3022.52376	27584.6875
