Data from AgNPs_FTO_APTES_UA_200uM_R6G_10uM_NaF_0.1M_Addition_RamanShift__25__16-29-27-523.txt Node

Date: Fri Dec 17 16:29:27 GMT 2021
User: TCL
Spectrometer: QEP01345
Trigger mode: 4
Integration Time (sec): 7.000000E0
Scans to average: 10
Electric dark correction enabled: true
Nonlinearity correction enabled: false
Boxcar width: 0
XAxis mode: Raman Shifts
Number of Pixels in Spectrum: 1044
>>>>>Begin Spectral Data<<<<<
46.04893	0.6375
50.45542	-1.6625
54.85868	0.5375
59.25871	0.8375
63.6555	45.9375
68.04907	50.1375
72.43941	50.8375
76.82654	53.6375
81.21044	55.8375
85.59113	59.0375
89.96862	62.9375
94.34289	63.1375
98.71396	65.3375
103.08183	68.0375
107.4465	72.1375
111.80798	73.1375
116.16626	73.0375
120.52136	71.4375
124.87327	79.5375
129.222	82.7375
133.56755	85.6375
137.90993	88.7375
142.24913	99.1375
146.58517	105.7375
150.91804	125.4375
155.24774	147.0375
159.57429	182.5375
163.89768	231.9375
168.21792	304.2375
172.53501	400.5375
176.84895	559.2375
181.15975	780.7375
185.46741	1098.7375
189.77193	1526.7375
194.07331	2042.5375
198.37157	2632.8375
202.6667	3275.1375
206.9587	3878.0375
211.24758	4488.7375
215.53334	5088.3375
219.81599	5727.9375
224.09553	6420.2375
228.37195	7162.5375
232.64527	8011.1375
236.91549	8894.3375
241.18261	9830.6375
245.44663	10681.3375
249.70755	11481.1375
253.96539	12155.2375
258.22014	12743.5375
262.4718	13216.4375
266.72039	13540.2375
270.96589	13715.4375
275.20832	13716.1375
279.44768	13588.7375
283.68397	13403.6375
287.91719	13194.1375
292.14735	13080.7375
296.37445	13053.0375
300.59849	13089.8375
304.81948	13219.5375
309.03742	13243.5375
313.25231	13093.7375
317.46415	12779.5375
321.67296	12434.0375
325.87872	12139.5375
330.08145	12016.6375
334.28114	12051.5375
338.47781	12155.1375
342.67145	12313.0375
346.86207	12494.4375
351.04966	12824.1375
355.23424	13131.1375
359.4158	13447.2375
363.59435	13683.7375
367.76989	13839.6375
371.94243	13955.8375
376.11196	14077.6375
380.27849	14160.1375
384.44203	14190.9375
388.60257	14182.6375
392.76012	14227.2375
396.91468	14335.6375
401.06626	14461.8375
405.21485	14608.2375
409.36047	14518.6375
413.50311	14286.9375
417.64277	14029.0375
421.77947	13827.0375
425.9132	13747.8375
430.04396	13741.2375
434.17176	13773.8375
438.2966	13869.8375
442.41849	13987.2375
446.53742	14098.9375
450.6534	14246.4375
454.76644	14356.2375
458.87653	14428.5375
462.98368	14456.2375
467.08789	14428.3375
471.18916	14379.3375
475.2875	14315.9375
479.38291	14241.3375
483.4754	14156.8375
487.56496	14139.9375
491.6516	14102.6375
495.73531	14097.8375
499.81612	14089.3375
503.89401	14098.3375
507.96899	14140.0375
512.04106	14220.9375
516.11023	14313.6375
520.1765	14401.7375
524.23987	14430.4375
528.30034	14361.6375
532.35792	14289.1375
536.41261	14166.6375
540.46441	14016.1375
544.51333	13946.8375
548.55936	13944.6375
552.60252	13977.8375
556.64279	14105.9375
560.6802	14166.2375
564.71473	14173.8375
568.7464	14285.0375
572.7752	14331.2375
576.80114	14276.9375
580.82422	14135.4375
584.84444	14091.8375
588.86181	14126.2375
592.87633	14104.0375
596.888	14185.3375
600.89682	14343.2375
604.9028	14955.8375
608.90594	16565.9375
612.90624	18667.8375
616.90371	18405.6375
620.89834	15800.6375
624.89015	14537.0375
628.87913	14389.8375
632.86528	14508.3375
636.84862	14726.1375
640.82913	14612.1375
644.80683	14297.0375
648.78172	13988.9375
652.75379	13878.3375
656.72306	13975.1375
660.68952	14180.7375
664.65319	14115.7375
668.61405	13914.4375
672.57211	13798.8375
676.52738	13812.6375
680.47986	13780.2375
684.42955	13717.3375
688.37646	13661.2375
692.32058	13656.3375
696.26192	13685.8375
700.20048	13723.2375
704.13626	13758.2375
708.06928	13724.1375
711.99952	13691.8375
715.927	13640.0375
719.85171	13664.2375
723.77365	13651.7375
727.69284	13612.2375
731.60928	13528.8375
735.52295	13515.6375
739.43388	13489.0375
743.34206	13524.1375
747.24749	13503.3375
751.15017	13497.9375
755.05012	13535.2375
758.94733	13712.3375
762.8418	14180.2375
766.73354	15061.0375
770.62254	16161.0375
774.50882	16835.1375
778.39237	16451.3375
782.27321	15334.8375
786.15132	14271.7375
790.02671	13681.8375
793.89938	13411.5375
797.76935	13293.5375
801.6366	13280.8375
805.50115	13272.9375
809.36299	13329.0375
813.22213	13321.6375
817.07857	13312.2375
820.93231	13199.6375
824.78336	13135.3375
828.63172	13063.8375
832.47738	13016.5375
836.32036	12988.7375
840.16066	12974.5375
843.99827	12930.9375
847.8332	12890.0375
851.66546	12884.8375
855.49504	12871.8375
859.32195	12828.6375
863.1462	12810.3375
866.96777	12817.6375
870.78668	12802.6375
874.60293	12834.9375
878.41652	12889.7375
882.22745	12922.2375
886.03573	12970.1375
889.84136	12959.6375
893.64433	12906.4375
897.44466	12784.1375
901.24235	12685.1375
905.0374	12619.8375
908.8298	12545.9375
912.61957	12500.6375
916.40671	12481.9375
920.19121	12494.8375
923.97308	12491.6375
927.75233	12507.2375
931.52895	12544.9375
935.30295	12516.4375
939.07433	12377.6375
942.84309	12237.2375
946.60924	12147.3375
950.37278	12105.6375
954.13371	12038.1375
957.89203	11987.5375
961.64774	11948.7375
965.40086	11874.2375
969.15137	11850.4375
972.89929	11802.2375
976.64461	11769.9375
980.38733	11761.5375
984.12747	11750.9375
987.86502	11746.2375
991.59999	11774.1375
995.33237	11782.3375
999.06217	11865.6375
1002.78939	11968.8375
1006.51404	12053.7375
1010.23611	12168.3375
1013.95561	12252.4375
1017.67255	12297.5375
1021.38692	12242.3375
1025.09872	12157.4375
1028.80796	12073.6375
1032.51465	12041.1375
1036.21877	12031.0375
1039.92035	12046.5375
1043.61937	12020.7375
1047.31584	12003.5375
1051.00976	11999.2375
1054.70114	11961.0375
1058.38998	11959.0375
1062.07627	12003.4375
1065.76003	12074.1375
1069.44126	12132.5375
1073.11995	12193.1375
1076.79611	12268.0375
1080.46974	12246.6375
1084.14085	12243.8375
1087.80943	12291.2375
1091.47549	12256.6375
1095.13903	12205.6375
1098.80005	12064.7375
1102.45857	11909.1375
1106.11456	11801.0375
1109.76805	11816.1375
1113.41903	11905.6375
1117.06751	12050.0375
1120.71348	12288.4375
1124.35696	12499.7375
1127.99793	12746.3375
1131.63641	12913.6375
1135.2724	12777.5375
1138.90589	12528.4375
1142.5369	12336.4375
1146.16542	12083.4375
1149.79145	11888.1375
1153.415	11739.6375
1157.03607	11665.0375
1160.65467	11708.7375
1164.27079	11835.5375
1167.88443	12074.0375
1171.49561	12440.7375
1175.10432	13039.0375
1178.71056	13893.6375
1182.31434	14714.4375
1185.91565	15035.4375
1189.51451	14875.4375
1193.11091	14403.5375
1196.70485	13848.1375
1200.29634	13399.6375
1203.88538	13089.3375
1207.47197	12730.7375
1211.05612	12302.1375
1214.63782	12053.3375
1218.21708	11894.3375
1221.79391	11758.6375
1225.36829	11722.3375
1228.94024	11726.4375
1232.50976	11730.6375
1236.07685	11723.0375
1239.6415	11764.4375
1243.20374	11775.1375
1246.76355	11812.8375
1250.32093	11896.3375
1253.8759	11968.6375
1257.42845	12091.1375
1260.97859	12216.9375
1264.52631	12346.7375
1268.07163	12505.7375
1271.61453	12652.6375
1275.15503	12756.7375
1278.69312	12798.6375
1282.22882	12817.1375
1285.76211	12910.3375
1289.29301	13067.7375
1292.82151	13298.2375
1296.34761	13539.0375
1299.87133	13913.8375
1303.39266	14470.5375
1306.9116	15310.0375
1310.42815	16257.3375
1313.94233	16838.3375
1317.45412	16677.5375
1320.96354	16033.1375
1324.47058	15294.1375
1327.97525	14612.7375
1331.47754	14128.1375
1334.97747	13878.1375
1338.47502	13871.5375
1341.97022	13996.8375
1345.46305	14309.7375
1348.95352	14736.5375
1352.44163	15410.8375
1355.92738	16357.3375
1359.41078	17763.2375
1362.89183	19393.8375
1366.37053	19502.4375
1369.84688	17623.1375
1373.32088	15348.1375
1376.79254	13882.2375
1380.26186	13110.9375
1383.72883	12692.8375
1387.19347	12396.4375
1390.65578	12137.8375
1394.11575	11866.0375
1397.57339	11676.6375
1401.0287	11599.9375
1404.48168	11554.8375
1407.93234	11543.5375
1411.38068	11521.2375
1414.82669	11482.7375
1418.27039	11417.9375
1421.71177	11343.5375
1425.15083	11238.2375
1428.58758	11119.1375
1432.02203	11095.5375
1435.45416	11088.9375
1438.88399	11108.3375
1442.31151	11090.5375
1445.73673	11103.4375
1449.15965	11123.1375
1452.58027	11131.3375
1455.9986	11102.5375
1459.41463	11114.5375
1462.82837	11180.1375
1466.23982	11250.6375
1469.64898	11388.7375
1473.05586	11499.8375
1476.46045	11606.8375
1479.86276	11697.0375
1483.26279	11845.8375
1486.66054	12022.0375
1490.05602	12227.9375
1493.44922	12556.8375
1496.84016	13018.2375
1500.22882	13805.3375
1503.61521	14855.7375
1506.99934	16160.4375
1510.38121	17375.7375
1513.76081	17921.1375
1517.13816	17324.5375
1520.51324	15903.2375
1523.88607	14411.5375
1527.25665	13367.0375
1530.62498	12704.3375
1533.99105	12367.8375
1537.35488	12142.3375
1540.71647	12019.3375
1544.07581	11967.0375
1547.4329	11942.1375
1550.78776	11976.9375
1554.14038	12009.6375
1557.49077	12110.4375
1560.83892	12209.3375
1564.18484	12388.3375
1567.52853	12572.8375
1570.86999	12743.8375
1574.20922	12921.9375
1577.54624	12940.8375
1580.88103	12700.1375
1584.2136	12187.8375
1587.54395	11807.1375
1590.87208	11652.9375
1594.19801	11802.8375
1597.52172	12112.2375
1600.84321	12351.8375
1604.16251	12190.2375
1607.47959	11872.5375
1610.79447	11504.4375
1614.10715	11118.5375
1617.41763	10791.1375
1620.7259	10525.8375
1624.03199	10379.7375
1627.33587	10327.7375
1630.63757	10343.8375
1633.93707	10516.9375
1637.23439	10820.5375
1640.52951	11265.1375
1643.82246	11916.1375
1647.11321	12828.2375
1650.40179	13599.1375
1653.68819	13759.9375
1656.97241	12876.0375
1660.25446	11695.3375
1663.53433	10767.5375
1666.81203	10205.1375
1670.08756	9845.6375
1673.36092	9599.0375
1676.63211	9405.7375
1679.90115	9288.4375
1683.16801	9208.4375
1686.43272	9135.9375
1689.69527	9100.8375
1692.95567	9065.6375
1696.2139	9017.0375
1699.46999	9017.6375
1702.72392	8944.0375
1705.97571	8891.7375
1709.22535	8825.9375
1712.47284	8790.0375
1715.71819	8728.7375
1718.96139	8715.6375
1722.20246	8682.7375
1725.44139	8619.5375
1728.67818	8581.4375
1731.91284	8520.7375
1735.14537	8487.2375
1738.37576	8451.3375
1741.60403	8418.3375
1744.83017	8394.6375
1748.05418	8376.4375
1751.27607	8360.0375
1754.49584	8336.3375
1757.71349	8325.9375
1760.92903	8324.0375
1764.14244	8323.0375
1767.35375	8318.0375
1770.56294	8290.6375
1773.77002	8249.9375
1776.97499	8234.9375
1780.17785	8198.9375
1783.37861	8168.0375
1786.57727	8148.3375
1789.77382	8142.0375
1792.96828	8123.5375
1796.16064	8087.5375
1799.3509	8078.4375
1802.53907	8066.5375
1805.72514	8026.3375
1808.90913	8002.0375
1812.09102	7966.9375
1815.27083	7973.8375
1818.44856	7945.8375
1821.6242	7917.2375
1824.79776	7889.6375
1827.96924	7895.1375
1831.13864	7889.8375
1834.30597	7871.4375
1837.47122	7853.0375
1840.6344	7833.9375
1843.7955	7859.8375
1846.95454	7815.0375
1850.11151	7809.5375
1853.26642	7784.6375
1856.41926	7795.3375
1859.57004	7773.3375
1862.71876	7765.3375
1865.86542	7768.6375
1869.01003	7763.7375
1872.15258	7733.8375
1875.29308	7727.3375
1878.43152	7711.7375
1881.56792	7703.3375
1884.70227	7692.6375
1887.83457	7698.9375
1890.96482	7662.1375
1894.09304	7645.1375
1897.21921	7637.9375
1900.34335	7630.8375
1903.46544	7605.1375
1906.58551	7596.2375
1909.70353	7591.3375
1912.81953	7564.9375
1915.93349	7571.5375
1919.04543	7545.1375
1922.15534	7534.0375
1925.26322	7509.9375
1928.36908	7499.1375
1931.47292	7475.7375
1934.57473	7477.7375
1937.67453	7436.1375
1940.77232	7429.7375
1943.86808	7389.8375
1946.96184	7384.8375
1950.05358	7356.7375
1953.14331	7323.5375
1956.23103	7325.0375
1959.31675	7282.2375
1962.40046	7263.8375
1965.48217	7247.2375
1968.56188	7211.9375
1971.63959	7206.0375
1974.7153	7153.8375
1977.78901	7130.9375
1980.86073	7114.0375
1983.93046	7107.1375
1986.99819	7068.1375
1990.06394	7040.9375
1993.1277	7033.5375
1996.18947	6971.7375
1999.24925	6985.5375
2002.30706	6938.6375
2005.36288	6918.4375
2008.41672	6919.1375
2011.46859	6884.5375
2014.51848	6864.8375
2017.56639	6843.8375
2020.61233	6818.3375
2023.6563	6796.9375
2026.6983	6775.9375
2029.73833	6772.5375
2032.7764	6756.5375
2035.8125	6722.5375
2038.84664	6709.1375
2041.87881	6696.4375
2044.90903	6683.1375
2047.93729	6658.2375
2050.96359	6651.7375
2053.98794	6623.5375
2057.01034	6617.9375
2060.03078	6616.1375
2063.04927	6607.2375
2066.06582	6601.6375
2069.08042	6598.9375
2072.09307	6587.0375
2075.10378	6572.2375
2078.11255	6569.9375
2081.11938	6581.7375
2084.12426	6564.1375
2087.12722	6562.8375
2090.12824	6529.5375
2093.12732	6552.6375
2096.12447	6548.2375
2099.11969	6540.3375
2102.11299	6533.5375
2105.10435	6543.9375
2108.09379	6539.9375
2111.08131	6537.0375
2114.0669	6547.9375
2117.05057	6540.5375
2120.03233	6542.6375
2123.01216	6545.9375
2125.99008	6564.7375
2128.96609	6553.7375
2131.94018	6563.0375
2134.91236	6564.6375
2137.88263	6572.9375
2140.851	6553.3375
2143.81746	6560.7375
2146.78201	6571.9375
2149.74466	6553.7375
2152.7054	6535.3375
2155.66425	6555.1375
2158.6212	6537.7375
2161.57625	6551.3375
2164.52941	6538.6375
2167.48067	6513.0375
2170.43004	6534.8375
2173.37752	6519.6375
2176.32311	6524.1375
2179.26681	6496.9375
2182.20863	6506.4375
2185.14856	6501.6375
2188.08661	6498.0375
2191.02278	6489.9375
2193.95707	6473.5375
2196.88948	6467.0375
2199.82001	6463.7375
2202.74867	6458.0375
2205.67545	6437.0375
2208.60037	6428.7375
2211.52341	6417.5375
2214.44458	6403.5375
2217.36388	6387.5375
2220.28132	6386.2375
2223.1969	6345.3375
2226.11061	6370.8375
2229.02246	6343.0375
2231.93245	6308.3375
2234.84058	6294.0375
2237.74686	6293.9375
2240.65128	6291.2375
2243.55385	6285.6375
2246.45456	6257.5375
2249.35343	6234.9375
2252.25044	6240.1375
2255.14561	6236.7375
2258.03893	6245.6375
2260.93041	6226.7375
2263.82004	6218.5375
2266.70783	6201.7375
2269.59378	6163.9375
2272.4779	6170.1375
2275.36017	6125.2375
2278.24061	6142.2375
2281.11922	6125.1375
2283.996	6084.2375
2286.87094	6078.4375
2289.74405	6062.1375
2292.61534	6062.7375
2295.4848	6048.9375
2298.35243	6041.6375
2301.21824	6033.0375
2304.08223	6042.6375
2306.94439	6023.9375
2309.80474	6010.8375
2312.66327	6007.9375
2315.51999	5994.1375
2318.37489	5998.8375
2321.22797	5985.1375
2324.07925	5974.4375
2326.92871	5966.5375
2329.77637	5978.6375
2332.62222	5946.8375
2335.46626	5924.4375
2338.3085	5919.1375
2341.14893	5916.4375
2343.98756	5905.7375
2346.8244	5899.7375
2349.65943	5888.7375
2352.49267	5898.0375
2355.32411	5871.7375
2358.15376	5889.1375
2360.98161	5890.0375
2363.80768	5894.2375
2366.63195	5885.3375
2369.45444	5863.0375
2372.27514	5864.8375
2375.09405	5852.2375
2377.91118	5831.1375
2380.72652	5828.8375
2383.54009	5808.6375
2386.35187	5793.5375
2389.16188	5771.5375
2391.97011	5762.4375
2394.77657	5729.9375
2397.58125	5728.8375
2400.38416	5701.5375
2403.18529	5699.5375
2405.98466	5694.6375
2408.78226	5663.1375
2411.57809	5672.4375
2414.37216	5649.3375
2417.16446	5653.0375
2419.955	5635.2375
2422.74378	5637.1375
2425.5308	5617.8375
2428.31606	5618.6375
2431.09956	5622.2375
2433.88131	5618.4375
2436.6613	5596.9375
2439.43954	5605.4375
2442.21603	5598.5375
2444.99077	5580.3375
2447.76377	5581.3375
2450.53501	5583.3375
2453.30451	5568.6375
2456.07226	5562.3375
2458.83827	5546.3375
2461.60254	5540.5375
2464.36507	5537.7375
2467.12586	5522.9375
2469.88492	5532.2375
2472.64224	5518.8375
2475.39782	5505.9375
2478.15167	5529.6375
2480.90379	5520.0375
2483.65417	5507.1375
2486.40283	5494.5375
2489.14976	5506.5375
2491.89497	5488.7375
2494.63845	5503.8375
2497.3802	5493.1375
2500.12024	5477.6375
2502.85855	5469.5375
2505.59514	5473.4375
2508.33002	5465.5375
2511.06318	5431.8375
2513.79462	5414.3375
2516.52435	5423.5375
2519.25237	5408.3375
2521.97867	5391.8375
2524.70327	5379.6375
2527.42616	5369.8375
2530.14734	5351.4375
2532.86681	5348.6375
2535.58458	5338.6375
2538.30065	5325.6375
2541.01501	5314.7375
2543.72768	5320.0375
2546.43864	5296.4375
2549.14791	5290.5375
2551.85548	5272.7375
2554.56136	5275.7375
2557.26554	5264.1375
2559.96803	5251.9375
2562.66883	5250.2375
2565.36794	5236.3375
2568.06536	5232.2375
2570.7611	5222.0375
2573.45514	5205.7375
2576.14751	5212.5375
2578.83819	5183.5375
2581.52719	5178.9375
2584.21451	5186.4375
2586.90015	5164.0375
2589.58411	5170.6375
2592.2664	5144.7375
2594.94701	5131.3375
2597.62594	5127.6375
2600.30321	5113.6375
2602.9788	5091.5375
2605.65273	5098.5375
2608.32498	5103.2375
2610.99557	5058.8375
2613.66449	5081.6375
2616.33175	5077.8375
2618.99734	5069.3375
2621.66128	5053.7375
2624.32355	5045.3375
2626.98416	5023.3375
2629.64311	5030.8375
2632.30041	5045.1375
2634.95605	5023.9375
2637.61004	5015.1375
2640.26238	4997.9375
2642.91306	5000.2375
2645.56209	4991.9375
2648.20948	4981.5375
2650.85521	4969.6375
2653.4993	4955.6375
2656.14175	4963.2375
2658.78255	4961.8375
2661.42171	4958.9375
2664.05923	4965.5375
2666.6951	4964.0375
2669.32934	4954.8375
2671.96194	4942.8375
2674.59291	4956.3375
2677.22224	4956.0375
2679.84993	4963.6375
2682.476	4966.8375
2685.10043	4956.5375
2687.72324	4929.1375
2690.34441	4932.5375
2692.96396	4933.5375
2695.58188	4943.1375
2698.19818	4932.3375
2700.81285	4951.3375
2703.4259	4940.1375
2706.03733	4963.1375
2708.64714	4947.9375
2711.25533	4935.8375
2713.86191	4907.5375
2716.46687	4950.3375
2719.07021	4947.4375
2721.67194	4941.4375
2724.27206	4923.3375
2726.87057	4916.8375
2729.46747	4923.7375
2732.06276	4909.2375
2734.65644	4896.3375
2737.24852	4898.6375
2739.83899	4885.7375
2742.42786	4897.3375
2745.01513	4884.4375
2747.60079	4895.4375
2750.18486	4871.7375
2752.76733	4875.6375
2755.3482	4853.6375
2757.92747	4846.1375
2760.50515	4853.3375
2763.08123	4853.5375
2765.65573	4832.7375
2768.22863	4831.4375
2770.79994	4818.2375
2773.36967	4821.4375
2775.9378	4816.5375
2778.50435	4800.6375
2781.06932	4799.2375
2783.6327	4800.2375
2786.1945	4779.1375
2788.75471	4779.1375
2791.31335	4743.5375
2793.87041	4768.7375
2796.42589	4743.7375
2798.97979	4727.9375
2801.53212	4716.3375
2804.08288	4702.7375
2806.63206	4694.6375
2809.17967	4682.7375
2811.72571	4704.9375
2814.27018	4693.3375
2816.81308	4670.6375
2819.35442	4670.1375
2821.89419	4663.6375
2824.43239	4662.1375
2826.96904	4669.3375
2829.50412	4638.9375
2832.03763	4647.0375
2834.56959	4650.0375
2837.1	4634.4375
2839.62884	4641.4375
2842.15613	4637.3375
2844.68186	4650.8375
2847.20604	4643.7375
2849.72867	4643.1375
2852.24974	4642.0375
2854.76927	4646.2375
2857.28724	4634.2375
2859.80367	4625.1375
2862.31855	4622.6375
2864.83189	4617.0375
2867.34368	4607.3375
2869.85393	4618.0375
2872.36264	4623.7375
2874.8698	4619.6375
2877.37543	4608.4375
2879.87952	4634.2375
2882.38207	4604.9375
2884.88308	4611.1375
2887.38256	4605.9375
2889.88051	4602.7375
2892.37692	4593.9375
2894.8718	4583.7375
2897.36515	4608.2375
2899.85698	4577.9375
2902.34727	4588.2375
2904.83604	4597.6375
2907.32328	4607.1375
2909.809	4586.0375
2912.29319	4601.7375
2914.77587	4589.6375
2917.25702	4594.3375
2919.73665	4590.1375
2922.21476	4592.8375
2924.69136	4596.0375
2927.16644	4584.6375
2929.64	4570.0375
2932.11205	4570.9375
2934.58258	4552.9375
2937.05161	4578.6375
2939.51912	4563.3375
2941.98513	4564.2375
2944.44962	4549.2375
2946.91261	4522.9375
2949.37409	4529.0375
2951.83407	4529.7375
2954.29254	4514.5375
2956.74951	4520.8375
2959.20498	4511.6375
2961.65895	4502.1375
2964.11142	4499.2375
2966.56239	4496.9375
2969.01186	4493.0375
2971.45984	4485.6375
2973.90632	4483.4375
2976.35131	4463.3375
2978.7948	4463.8375
2981.23681	4445.9375
2983.67732	4440.6375
2986.11635	4433.6375
2988.55388	4415.8375
2990.98993	4442.7375
2993.4245	4409.0375
2995.85758	4412.4375
2998.28917	4399.4375
3000.71928	4395.0375
3003.14791	4392.8375
3005.57506	4393.8375
3008.00073	4390.6375
3010.42493	4364.3375
3012.84764	4377.8375
3015.26888	4377.1375
3017.68865	4369.1375
3020.10694	4348.7375
3022.52376	4357.3375
3024.9391	4355.9375
3027.35298	4332.0375
3029.76539	4336.4375
3032.17632	4323.3375
3034.5858	4325.8375
3036.9938	4304.2375
3039.40034	4309.5375
3041.80542	4305.6375
3044.20903	4291.1375
3046.61118	4308.7375
3049.01187	4290.8375
3051.4111	4299.0375
3053.80888	4286.3375
3056.20519	4288.8375
3058.60005	4273.0375
3060.99345	4258.7375
3063.3854	4260.0375
3065.7759	4262.9375
3068.16494	4251.6375
3070.55254	4235.5375
3072.93868	4253.0375
3075.32338	4237.4375
3077.70662	4238.5375
3080.08842	4224.8375
3082.46878	4224.3375
