Data from AgNPs_FTO_APTES_UA_200uM_R6G_10uM_NaF_0.1M_Addition_RamanShift__18__16-21-17-514.txt Node

Date: Fri Dec 17 16:21:17 GMT 2021
User: TCL
Spectrometer: QEP01345
Trigger mode: 4
Integration Time (sec): 7.000000E0
Scans to average: 10
Electric dark correction enabled: true
Nonlinearity correction enabled: false
Boxcar width: 0
XAxis mode: Raman Shifts
Number of Pixels in Spectrum: 1044
>>>>>Begin Spectral Data<<<<<
46.04893	0.9125
50.45542	-0.8875
54.85868	-1.3875
59.25871	0.2125
63.6555	45.3125
68.04907	46.4125
72.43941	50.4125
76.82654	55.1125
81.21044	52.1125
85.59113	56.8125
89.96862	60.8125
94.34289	60.3125
98.71396	62.0125
103.08183	66.5125
107.4465	68.7125
111.80798	68.6125
116.16626	67.1125
120.52136	67.3125
124.87327	70.4125
129.222	78.9125
133.56755	78.8125
137.90993	82.6125
142.24913	89.3125
146.58517	99.5125
150.91804	116.1125
155.24774	132.3125
159.57429	162.9125
163.89768	206.9125
168.21792	267.4125
172.53501	357.3125
176.84895	490.2125
181.15975	678.5125
185.46741	964.2125
189.77193	1320.3125
194.07331	1779.1125
198.37157	2297.7125
202.6667	2841.8125
206.9587	3391.7125
211.24758	3927.6125
215.53334	4459.5125
219.81599	5011.2125
224.09553	5633.5125
228.37195	6327.9125
232.64527	7105.3125
236.91549	7927.0125
241.18261	8767.0125
245.44663	9549.3125
249.70755	10204.5125
253.96539	10759.6125
258.22014	11250.0125
262.4718	11625.3125
266.72039	11896.0125
270.96589	12038.5125
275.20832	12026.6125
279.44768	11900.6125
283.68397	11705.2125
287.91719	11507.7125
292.14735	11375.5125
296.37445	11380.2125
300.59849	11450.7125
304.81948	11538.5125
309.03742	11502.8125
313.25231	11367.8125
317.46415	11076.7125
321.67296	10724.3125
325.87872	10462.7125
330.08145	10372.7125
334.28114	10387.4125
338.47781	10504.8125
342.67145	10624.0125
346.86207	10851.6125
351.04966	11082.2125
355.23424	11371.7125
359.4158	11649.6125
363.59435	11855.8125
367.76989	12022.4125
371.94243	12141.7125
376.11196	12257.0125
380.27849	12362.7125
384.44203	12389.8125
388.60257	12466.6125
392.76012	12528.2125
396.91468	12600.1125
401.06626	12732.4125
405.21485	12819.2125
409.36047	12721.8125
413.50311	12457.9125
417.64277	12149.2125
421.77947	11972.6125
425.9132	11861.7125
430.04396	11840.1125
434.17176	11845.2125
438.2966	11892.4125
442.41849	12016.2125
446.53742	12149.3125
450.6534	12295.5125
454.76644	12453.8125
458.87653	12568.9125
462.98368	12594.1125
467.08789	12588.8125
471.18916	12558.6125
475.2875	12492.0125
479.38291	12429.2125
483.4754	12331.4125
487.56496	12299.1125
491.6516	12233.6125
495.73531	12233.1125
499.81612	12270.3125
503.89401	12348.3125
507.96899	12413.5125
512.04106	12471.9125
516.11023	12575.6125
520.1765	12647.2125
524.23987	12613.0125
528.30034	12568.5125
532.35792	12553.5125
536.41261	12498.5125
540.46441	12425.7125
544.51333	12346.6125
548.55936	12357.0125
552.60252	12351.8125
556.64279	12412.0125
560.6802	12409.0125
564.71473	12378.8125
568.7464	12409.9125
572.7752	12469.7125
576.80114	12445.0125
580.82422	12324.3125
584.84444	12367.0125
588.86181	12393.7125
592.87633	12416.8125
596.888	12448.2125
600.89682	12697.7125
604.9028	13393.6125
608.90594	15058.8125
612.90624	17078.8125
616.90371	16647.5125
620.89834	13947.9125
624.89015	12671.1125
628.87913	12482.6125
632.86528	12660.4125
636.84862	12914.1125
640.82913	12900.4125
644.80683	12581.9125
648.78172	12219.1125
652.75379	12056.9125
656.72306	12152.2125
660.68952	12367.5125
664.65319	12339.5125
668.61405	12164.4125
672.57211	12149.4125
676.52738	12206.1125
680.47986	12211.6125
684.42955	12107.7125
688.37646	11985.3125
692.32058	11910.1125
696.26192	11914.5125
700.20048	11926.6125
704.13626	11970.3125
708.06928	11938.0125
711.99952	11902.0125
715.927	11873.6125
719.85171	11908.9125
723.77365	11904.9125
727.69284	11914.5125
731.60928	11897.7125
735.52295	11879.1125
739.43388	11877.5125
743.34206	11919.3125
747.24749	11921.5125
751.15017	11841.3125
755.05012	11799.0125
758.94733	11946.2125
762.8418	12464.4125
766.73354	13371.6125
770.62254	14644.5125
774.50882	15532.3125
778.39237	15261.4125
782.27321	13956.9125
786.15132	12800.2125
790.02671	12043.5125
793.89938	11692.3125
797.76935	11539.8125
801.6366	11470.9125
805.50115	11499.8125
809.36299	11422.5125
813.22213	11415.0125
817.07857	11392.9125
820.93231	11328.5125
824.78336	11279.1125
828.63172	11242.3125
832.47738	11220.4125
836.32036	11199.9125
840.16066	11124.8125
843.99827	11121.7125
847.8332	11057.9125
851.66546	11057.9125
855.49504	11061.7125
859.32195	11105.6125
863.1462	11140.1125
866.96777	11172.5125
870.78668	11150.8125
874.60293	11174.9125
878.41652	11196.0125
882.22745	11202.0125
886.03573	11270.1125
889.84136	11290.7125
893.64433	11254.4125
897.44466	11182.9125
901.24235	11075.2125
905.0374	10980.0125
908.8298	10889.0125
912.61957	10847.4125
916.40671	10822.2125
920.19121	10837.0125
923.97308	10886.6125
927.75233	10937.2125
931.52895	10975.9125
935.30295	10874.9125
939.07433	10763.9125
942.84309	10640.4125
946.60924	10576.0125
950.37278	10545.0125
954.13371	10500.0125
957.89203	10455.7125
961.64774	10421.2125
965.40086	10372.9125
969.15137	10298.0125
972.89929	10247.2125
976.64461	10201.9125
980.38733	10184.7125
984.12747	10176.5125
987.86502	10182.5125
991.59999	10213.1125
995.33237	10244.5125
999.06217	10300.6125
1002.78939	10425.3125
1006.51404	10497.0125
1010.23611	10618.5125
1013.95561	10757.1125
1017.67255	10817.3125
1021.38692	10787.5125
1025.09872	10680.2125
1028.80796	10549.7125
1032.51465	10492.8125
1036.21877	10510.1125
1039.92035	10534.4125
1043.61937	10579.9125
1047.31584	10624.7125
1051.00976	10646.4125
1054.70114	10648.1125
1058.38998	10647.2125
1062.07627	10691.2125
1065.76003	10808.5125
1069.44126	10849.6125
1073.11995	11011.7125
1076.79611	11075.9125
1080.46974	11097.1125
1084.14085	11052.2125
1087.80943	11083.0125
1091.47549	11089.1125
1095.13903	11071.9125
1098.80005	10981.3125
1102.45857	10857.6125
1106.11456	10765.3125
1109.76805	10736.7125
1113.41903	10835.9125
1117.06751	10983.2125
1120.71348	11214.2125
1124.35696	11441.5125
1127.99793	11724.2125
1131.63641	11990.1125
1135.2724	11936.4125
1138.90589	11740.9125
1142.5369	11503.2125
1146.16542	11244.4125
1149.79145	10963.1125
1153.415	10806.8125
1157.03607	10768.2125
1160.65467	10819.9125
1164.27079	11010.5125
1167.88443	11359.6125
1171.49561	11772.2125
1175.10432	12472.5125
1178.71056	13392.4125
1182.31434	14206.1125
1185.91565	14549.7125
1189.51451	14456.7125
1193.11091	13994.9125
1196.70485	13396.6125
1200.29634	12897.4125
1203.88538	12489.5125
1207.47197	12046.5125
1211.05612	11585.7125
1214.63782	11295.8125
1218.21708	11106.3125
1221.79391	10985.2125
1225.36829	10948.2125
1228.94024	10965.7125
1232.50976	10939.7125
1236.07685	10959.5125
1239.6415	11004.2125
1243.20374	11011.1125
1246.76355	11062.8125
1250.32093	11147.0125
1253.8759	11260.8125
1257.42845	11448.6125
1260.97859	11668.1125
1264.52631	11886.3125
1268.07163	12108.9125
1271.61453	12346.6125
1275.15503	12548.5125
1278.69312	12694.1125
1282.22882	12820.5125
1285.76211	12975.7125
1289.29301	13244.3125
1292.82151	13568.9125
1296.34761	13918.8125
1299.87133	14387.9125
1303.39266	14993.6125
1306.9116	15719.6125
1310.42815	16523.2125
1313.94233	16886.0125
1317.45412	16663.7125
1320.96354	16042.6125
1324.47058	15375.4125
1327.97525	14732.4125
1331.47754	14239.3125
1334.97747	13916.6125
1338.47502	13847.4125
1341.97022	14029.1125
1345.46305	14391.9125
1348.95352	15019.7125
1352.44163	15948.8125
1355.92738	17127.8125
1359.41078	18481.7125
1362.89183	19880.3125
1366.37053	19775.2125
1369.84688	17694.8125
1373.32088	15330.1125
1376.79254	13754.4125
1380.26186	12940.4125
1383.72883	12481.8125
1387.19347	12187.4125
1390.65578	11869.0125
1394.11575	11583.1125
1397.57339	11414.1125
1401.0287	11279.2125
1404.48168	11225.9125
1407.93234	11170.5125
1411.38068	11099.8125
1414.82669	11023.5125
1418.27039	10928.4125
1421.71177	10830.8125
1425.15083	10723.1125
1428.58758	10591.3125
1432.02203	10585.6125
1435.45416	10635.3125
1438.88399	10741.5125
1442.31151	10812.8125
1445.73673	10893.5125
1449.15965	10997.0125
1452.58027	11073.8125
1455.9986	11144.0125
1459.41463	11269.5125
1462.82837	11381.1125
1466.23982	11463.8125
1469.64898	11634.2125
1473.05586	11720.7125
1476.46045	11768.8125
1479.86276	11806.2125
1483.26279	11882.7125
1486.66054	11972.0125
1490.05602	12148.3125
1493.44922	12438.7125
1496.84016	12936.8125
1500.22882	13770.3125
1503.61521	14942.3125
1506.99934	16291.4125
1510.38121	17469.1125
1513.76081	17881.5125
1517.13816	17183.2125
1520.51324	15756.7125
1523.88607	14275.2125
1527.25665	13287.4125
1530.62498	12686.9125
1533.99105	12351.7125
1537.35488	12116.4125
1540.71647	11955.4125
1544.07581	11823.9125
1547.4329	11759.6125
1550.78776	11714.9125
1554.14038	11730.8125
1557.49077	11867.1125
1560.83892	12050.7125
1564.18484	12226.7125
1567.52853	12392.5125
1570.86999	12592.4125
1574.20922	12765.0125
1577.54624	12776.3125
1580.88103	12536.8125
1584.2136	12028.6125
1587.54395	11643.7125
1590.87208	11473.6125
1594.19801	11574.7125
1597.52172	11934.1125
1600.84321	12153.5125
1604.16251	12033.2125
1607.47959	11663.1125
1610.79447	11283.3125
1614.10715	10902.4125
1617.41763	10506.5125
1620.7259	10184.3125
1624.03199	9978.1125
1627.33587	9919.4125
1630.63757	9954.5125
1633.93707	10160.4125
1637.23439	10489.3125
1640.52951	11064.1125
1643.82246	11884.4125
1647.11321	12877.8125
1650.40179	13695.4125
1653.68819	13748.1125
1656.97241	12811.2125
1660.25446	11564.8125
1663.53433	10563.7125
1666.81203	9907.8125
1670.08756	9500.7125
1673.36092	9218.6125
1676.63211	9014.8125
1679.90115	8905.3125
1683.16801	8803.0125
1686.43272	8710.6125
1689.69527	8667.6125
1692.95567	8605.0125
1696.2139	8584.3125
1699.46999	8534.9125
1702.72392	8494.2125
1705.97571	8413.0125
1709.22535	8357.9125
1712.47284	8293.3125
1715.71819	8276.7125
1718.96139	8249.7125
1722.20246	8178.7125
1725.44139	8129.5125
1728.67818	8077.8125
1731.91284	8043.8125
1735.14537	7989.5125
1738.37576	7945.6125
1741.60403	7919.9125
1744.83017	7881.9125
1748.05418	7879.2125
1751.27607	7856.1125
1754.49584	7834.0125
1757.71349	7812.1125
1760.92903	7812.7125
1764.14244	7806.2125
1767.35375	7787.1125
1770.56294	7775.6125
1773.77002	7773.8125
1776.97499	7732.5125
1780.17785	7691.4125
1783.37861	7660.1125
1786.57727	7653.5125
1789.77382	7651.3125
1792.96828	7631.0125
1796.16064	7592.3125
1799.3509	7580.6125
1802.53907	7577.8125
1805.72514	7527.5125
1808.90913	7511.5125
1812.09102	7508.0125
1815.27083	7466.8125
1818.44856	7446.2125
1821.6242	7447.2125
1824.79776	7434.7125
1827.96924	7396.3125
1831.13864	7377.1125
1834.30597	7402.6125
1837.47122	7368.9125
1840.6344	7384.6125
1843.7955	7362.1125
1846.95454	7359.2125
1850.11151	7342.4125
1853.26642	7339.8125
1856.41926	7328.2125
1859.57004	7298.3125
1862.71876	7311.3125
1865.86542	7315.3125
1869.01003	7283.5125
1872.15258	7266.7125
1875.29308	7267.7125
1878.43152	7264.9125
1881.56792	7270.2125
1884.70227	7267.2125
1887.83457	7238.2125
1890.96482	7251.4125
1894.09304	7196.9125
1897.21921	7208.6125
1900.34335	7204.0125
1903.46544	7174.6125
1906.58551	7173.8125
1909.70353	7162.3125
1912.81953	7148.4125
1915.93349	7135.3125
1919.04543	7128.5125
1922.15534	7109.3125
1925.26322	7090.1125
1928.36908	7082.0125
1931.47292	7048.1125
1934.57473	7029.0125
1937.67453	7013.3125
1940.77232	6986.2125
1943.86808	6986.8125
1946.96184	6966.1125
1950.05358	6936.0125
1953.14331	6933.3125
1956.23103	6903.8125
1959.31675	6885.5125
1962.40046	6878.3125
1965.48217	6855.5125
1968.56188	6855.4125
1971.63959	6812.4125
1974.7153	6796.2125
1977.78901	6757.7125
1980.86073	6742.5125
1983.93046	6720.8125
1986.99819	6685.6125
1990.06394	6668.2125
1993.1277	6654.3125
1996.18947	6633.0125
1999.24925	6629.4125
2002.30706	6589.1125
2005.36288	6574.6125
2008.41672	6556.6125
2011.46859	6533.9125
2014.51848	6503.9125
2017.56639	6487.5125
2020.61233	6472.1125
2023.6563	6435.2125
2026.6983	6427.5125
2029.73833	6428.3125
2032.7764	6401.1125
2035.8125	6386.6125
2038.84664	6365.5125
2041.87881	6378.0125
2044.90903	6355.7125
2047.93729	6348.0125
2050.96359	6325.7125
2053.98794	6306.6125
2057.01034	6279.0125
2060.03078	6302.7125
2063.04927	6294.1125
2066.06582	6290.3125
2069.08042	6272.6125
2072.09307	6275.0125
2075.10378	6258.0125
2078.11255	6272.3125
2081.11938	6254.7125
2084.12426	6261.2125
2087.12722	6251.0125
2090.12824	6238.0125
2093.12732	6230.9125
2096.12447	6252.3125
2099.11969	6243.5125
2102.11299	6233.8125
2105.10435	6238.3125
2108.09379	6242.0125
2111.08131	6248.4125
2114.0669	6257.3125
2117.05057	6265.6125
2120.03233	6259.1125
2123.01216	6263.4125
2125.99008	6267.8125
2128.96609	6262.7125
2131.94018	6288.7125
2134.91236	6283.6125
2137.88263	6281.5125
2140.851	6266.9125
2143.81746	6285.4125
2146.78201	6285.0125
2149.74466	6291.0125
2152.7054	6269.8125
2155.66425	6284.0125
2158.6212	6264.4125
2161.57625	6255.5125
2164.52941	6279.8125
2167.48067	6241.8125
2170.43004	6248.2125
2173.37752	6251.5125
2176.32311	6241.4125
2179.26681	6238.0125
2182.20863	6229.8125
2185.14856	6241.0125
2188.08661	6220.7125
2191.02278	6250.3125
2193.95707	6218.9125
2196.88948	6223.2125
2199.82001	6208.9125
2202.74867	6193.4125
2205.67545	6186.3125
2208.60037	6189.3125
2211.52341	6169.7125
2214.44458	6164.7125
2217.36388	6150.4125
2220.28132	6139.1125
2223.1969	6135.7125
2226.11061	6116.1125
2229.02246	6098.6125
2231.93245	6069.0125
2234.84058	6063.2125
2237.74686	6083.5125
2240.65128	6051.7125
2243.55385	6045.0125
2246.45456	6042.4125
2249.35343	6032.7125
2252.25044	6037.3125
2255.14561	6004.9125
2258.03893	6007.2125
2260.93041	5989.2125
2263.82004	5974.0125
2266.70783	5975.8125
2269.59378	5948.3125
2272.4779	5950.9125
2275.36017	5930.7125
2278.24061	5916.2125
2281.11922	5899.3125
2283.996	5888.6125
2286.87094	5866.0125
2289.74405	5856.8125
2292.61534	5859.7125
2295.4848	5864.4125
2298.35243	5829.5125
2301.21824	5825.2125
2304.08223	5834.9125
2306.94439	5841.3125
2309.80474	5825.7125
2312.66327	5822.7125
2315.51999	5810.6125
2318.37489	5806.2125
2321.22797	5805.9125
2324.07925	5791.3125
2326.92871	5783.6125
2329.77637	5765.0125
2332.62222	5766.9125
2335.46626	5745.4125
2338.3085	5721.5125
2341.14893	5732.9125
2343.98756	5713.4125
2346.8244	5715.8125
2349.65943	5702.2125
2352.49267	5699.9125
2355.32411	5717.4125
2358.15376	5731.2125
2360.98161	5725.5125
2363.80768	5734.9125
2366.63195	5699.1125
2369.45444	5693.8125
2372.27514	5686.1125
2375.09405	5700.2125
2377.91118	5695.2125
2380.72652	5670.8125
2383.54009	5643.8125
2386.35187	5644.0125
2389.16188	5610.6125
2391.97011	5591.8125
2394.77657	5567.2125
2397.58125	5575.1125
2400.38416	5580.1125
2403.18529	5568.7125
2405.98466	5548.9125
2408.78226	5528.7125
2411.57809	5526.8125
2414.37216	5529.8125
2417.16446	5521.5125
2419.955	5504.2125
2422.74378	5492.9125
2425.5308	5496.1125
2428.31606	5493.3125
2431.09956	5479.0125
2433.88131	5478.2125
2436.6613	5480.8125
2439.43954	5464.6125
2442.21603	5448.0125
2444.99077	5462.8125
2447.76377	5457.1125
2450.53501	5460.8125
2453.30451	5447.0125
2456.07226	5429.9125
2458.83827	5449.7125
2461.60254	5430.3125
2464.36507	5428.4125
2467.12586	5415.9125
2469.88492	5418.1125
2472.64224	5425.3125
2475.39782	5430.1125
2478.15167	5412.6125
2480.90379	5409.2125
2483.65417	5413.7125
2486.40283	5402.7125
2489.14976	5406.3125
2491.89497	5393.5125
2494.63845	5416.4125
2497.3802	5392.6125
2500.12024	5387.4125
2502.85855	5380.3125
2505.59514	5365.6125
2508.33002	5351.5125
2511.06318	5364.4125
2513.79462	5334.0125
2516.52435	5330.0125
2519.25237	5320.8125
2521.97867	5280.1125
2524.70327	5296.4125
2527.42616	5275.0125
2530.14734	5282.3125
2532.86681	5269.2125
2535.58458	5257.8125
2538.30065	5257.6125
2541.01501	5250.7125
2543.72768	5228.7125
2546.43864	5232.3125
2549.14791	5217.4125
2551.85548	5218.1125
2554.56136	5222.9125
2557.26554	5186.9125
2559.96803	5184.6125
2562.66883	5199.4125
2565.36794	5182.1125
2568.06536	5198.9125
2570.7611	5163.3125
2573.45514	5167.6125
2576.14751	5143.5125
2578.83819	5131.0125
2581.52719	5119.7125
2584.21451	5148.7125
2586.90015	5120.4125
2589.58411	5110.2125
2592.2664	5097.0125
2594.94701	5094.4125
2597.62594	5068.4125
2600.30321	5064.0125
2602.9788	5055.1125
2605.65273	5048.2125
2608.32498	5045.0125
2610.99557	5034.5125
2613.66449	5027.1125
2616.33175	5023.2125
2618.99734	5013.8125
2621.66128	5000.6125
2624.32355	4996.5125
2626.98416	5006.0125
2629.64311	4999.7125
2632.30041	4982.5125
2634.95605	4973.9125
2637.61004	4979.3125
2640.26238	4969.0125
2642.91306	4972.5125
2645.56209	4970.4125
2648.20948	4962.4125
2650.85521	4964.0125
2653.4993	4966.1125
2656.14175	4947.3125
2658.78255	4937.3125
2661.42171	4952.7125
2664.05923	4951.9125
2666.6951	4935.8125
2669.32934	4923.7125
2671.96194	4913.0125
2674.59291	4923.3125
2677.22224	4929.2125
2679.84993	4923.8125
2682.476	4936.6125
2685.10043	4931.4125
2687.72324	4913.0125
2690.34441	4916.1125
2692.96396	4920.7125
2695.58188	4919.0125
2698.19818	4913.7125
2700.81285	4920.3125
2703.4259	4939.2125
2706.03733	4965.2125
2708.64714	4931.7125
2711.25533	4922.1125
2713.86191	4929.3125
2716.46687	4949.1125
2719.07021	4916.0125
2721.67194	4940.6125
2724.27206	4904.0125
2726.87057	4914.1125
2729.46747	4912.9125
2732.06276	4921.8125
2734.65644	4898.4125
2737.24852	4892.1125
2739.83899	4881.9125
2742.42786	4887.9125
2745.01513	4877.8125
2747.60079	4877.3125
2750.18486	4878.8125
2752.76733	4892.4125
2755.3482	4879.6125
2757.92747	4866.2125
2760.50515	4852.4125
2763.08123	4844.8125
2765.65573	4827.9125
2768.22863	4829.2125
2770.79994	4819.9125
2773.36967	4827.9125
2775.9378	4833.2125
2778.50435	4809.2125
2781.06932	4804.0125
2783.6327	4807.5125
2786.1945	4778.1125
2788.75471	4800.5125
2791.31335	4782.6125
2793.87041	4762.7125
2796.42589	4749.0125
2798.97979	4733.2125
2801.53212	4729.7125
2804.08288	4721.9125
2806.63206	4710.0125
2809.17967	4700.8125
2811.72571	4696.3125
2814.27018	4705.8125
2816.81308	4691.0125
2819.35442	4695.6125
2821.89419	4686.6125
2824.43239	4668.3125
2826.96904	4689.4125
2829.50412	4678.9125
2832.03763	4673.6125
2834.56959	4671.0125
2837.1	4676.7125
2839.62884	4669.3125
2842.15613	4668.3125
2844.68186	4673.2125
2847.20604	4662.0125
2849.72867	4681.6125
2852.24974	4675.1125
2854.76927	4682.4125
2857.28724	4677.4125
2859.80367	4656.6125
2862.31855	4651.4125
2864.83189	4646.8125
2867.34368	4648.3125
2869.85393	4652.1125
2872.36264	4658.9125
2874.8698	4661.9125
2877.37543	4658.0125
2879.87952	4657.4125
2882.38207	4646.8125
2884.88308	4653.5125
2887.38256	4646.1125
2889.88051	4632.6125
2892.37692	4629.1125
2894.8718	4633.7125
2897.36515	4643.0125
2899.85698	4636.6125
2902.34727	4646.4125
2904.83604	4645.2125
2907.32328	4656.8125
2909.809	4633.4125
2912.29319	4644.6125
2914.77587	4636.3125
2917.25702	4642.9125
2919.73665	4645.2125
2922.21476	4652.3125
2924.69136	4638.0125
2927.16644	4640.6125
2929.64	4635.4125
2932.11205	4625.2125
2934.58258	4606.4125
2937.05161	4615.0125
2939.51912	4614.6125
2941.98513	4600.3125
2944.44962	4584.9125
2946.91261	4577.9125
2949.37409	4574.3125
2951.83407	4580.1125
2954.29254	4570.8125
2956.74951	4574.2125
2959.20498	4572.6125
2961.65895	4560.0125
2964.11142	4555.8125
2966.56239	4541.3125
2969.01186	4550.1125
2971.45984	4546.5125
2973.90632	4522.4125
2976.35131	4527.1125
2978.7948	4514.6125
2981.23681	4497.1125
2983.67732	4505.5125
2986.11635	4486.0125
2988.55388	4467.5125
2990.98993	4464.6125
2993.4245	4456.1125
2995.85758	4457.3125
2998.28917	4444.9125
3000.71928	4458.1125
3003.14791	4432.4125
3005.57506	4444.6125
3008.00073	4430.2125
3010.42493	4447.7125
3012.84764	4422.8125
3015.26888	4422.2125
3017.68865	4428.9125
3020.10694	4404.7125
3022.52376	4404.9125
3024.9391	4393.3125
3027.35298	4400.5125
3029.76539	4387.6125
3032.17632	4394.5125
3034.5858	4364.7125
3036.9938	4368.1125
3039.40034	4355.8125
3041.80542	4366.8125
3044.20903	4365.1125
3046.61118	4355.3125
3049.01187	4353.7125
3051.4111	4340.2125
3053.80888	4336.2125
3056.20519	4339.5125
3058.60005	4341.2125
3060.99345	4334.5125
3063.3854	4324.0125
3065.7759	4307.3125
3068.16494	4313.9125
3070.55254	4296.9125
3072.93868	4307.2125
3075.32338	4294.5125
3077.70662	4292.5125
3080.08842	4307.7125
3082.46878	4310.2125
