Data from AgNPs_FTO_APTES_UA_5uM_R6G_10uM_NaF_0.1M_Addition_RamanShift__13__12-40-47-261.txt Node

Date: Fri Dec 17 12:40:47 GMT 2021
User: TCL
Spectrometer: QEP01345
Trigger mode: 4
Integration Time (sec): 7.000000E0
Scans to average: 10
Electric dark correction enabled: true
Nonlinearity correction enabled: false
Boxcar width: 0
XAxis mode: Raman Shifts
Number of Pixels in Spectrum: 1044
>>>>>Begin Spectral Data<<<<<
46.04893	-0.475
50.45542	-1.675
54.85868	-1.475
59.25871	-0.075
63.6555	115.025
68.04907	120.925
72.43941	124.625
76.82654	134.225
81.21044	135.125
85.59113	140.525
89.96862	146.025
94.34289	149.725
98.71396	154.625
103.08183	157.625
107.4465	163.425
111.80798	167.425
116.16626	173.925
120.52136	180.225
124.87327	188.825
129.222	195.425
133.56755	205.225
137.90993	217.825
142.24913	238.025
146.58517	263.825
150.91804	307.025
155.24774	362.125
159.57429	453.025
163.89768	567.725
168.21792	749.025
172.53501	1013.925
176.84895	1395.425
181.15975	1966.625
185.46741	2757.925
189.77193	3795.925
194.07331	5100.025
198.37157	6556.525
202.6667	8142.525
206.9587	9696.225
211.24758	11193.625
215.53334	12663.325
219.81599	14228.825
224.09553	15944.325
228.37195	17820.625
232.64527	19952.525
236.91549	22183.925
241.18261	24553.125
245.44663	26814.525
249.70755	28893.225
253.96539	30699.925
258.22014	32221.325
262.4718	33410.925
266.72039	34188.625
270.96589	34588.025
275.20832	34648.325
279.44768	34380.125
283.68397	34035.625
287.91719	33673.225
292.14735	33299.925
296.37445	33141.625
300.59849	32950.525
304.81948	32886.425
309.03742	32806.125
313.25231	32703.225
317.46415	32341.325
321.67296	31874.025
325.87872	31516.725
330.08145	31352.825
334.28114	31423.625
338.47781	31664.025
342.67145	31988.625
346.86207	32395.225
351.04966	32844.725
355.23424	33341.325
359.4158	33779.625
363.59435	34217.525
367.76989	34451.725
371.94243	34662.225
376.11196	34820.325
380.27849	35035.225
384.44203	35167.325
388.60257	35447.225
392.76012	35745.525
396.91468	36182.425
401.06626	36620.025
405.21485	37011.925
409.36047	36973.825
413.50311	36733.425
417.64277	36574.325
421.77947	36649.225
425.9132	36876.725
430.04396	37087.425
434.17176	37283.325
438.2966	37427.325
442.41849	37689.825
446.53742	38133.825
450.6534	38696.725
454.76644	39129.825
458.87653	39355.825
462.98368	39424.125
467.08789	39281.425
471.18916	39117.225
475.2875	38794.725
479.38291	38508.225
483.4754	38222.425
487.56496	38062.925
491.6516	37852.025
495.73531	37674.925
499.81612	37637.925
503.89401	37869.625
507.96899	38051.425
512.04106	38236.925
516.11023	38208.625
520.1765	38029.525
524.23987	37755.425
528.30034	37513.325
532.35792	37280.125
536.41261	37107.325
540.46441	36922.325
544.51333	36984.725
548.55936	37265.525
552.60252	37675.825
556.64279	38155.825
560.6802	38433.125
564.71473	38624.825
568.7464	38900.625
572.7752	39415.625
576.80114	40145.325
580.82422	40959.925
584.84444	41765.025
588.86181	42451.125
592.87633	42941.125
596.888	42834.425
600.89682	42389.125
604.9028	42859.325
608.90594	44814.425
612.90624	46681.925
616.90371	44768.825
620.89834	40520.425
624.89015	38627.925
628.87913	38404.625
632.86528	38584.225
636.84862	38652.625
640.82913	38329.225
644.80683	37812.025
648.78172	37342.525
652.75379	37229.125
656.72306	37550.625
660.68952	37984.525
664.65319	37903.825
668.61405	37621.225
672.57211	37587.625
676.52738	37725.525
680.47986	37669.725
684.42955	37534.325
688.37646	37465.625
692.32058	37646.325
696.26192	37853.325
700.20048	38219.525
704.13626	38497.925
708.06928	38544.025
711.99952	38378.225
715.927	38279.325
719.85171	38252.525
723.77365	38145.625
727.69284	37873.225
731.60928	37539.825
735.52295	37340.725
739.43388	37348.225
743.34206	37447.825
747.24749	37542.025
751.15017	37739.825
755.05012	38113.425
758.94733	38792.825
762.8418	39869.725
766.73354	41541.125
770.62254	43125.925
774.50882	43471.525
778.39237	42455.625
782.27321	40842.525
786.15132	39447.325
790.02671	38447.825
793.89938	37913.525
797.76935	37692.025
801.6366	37520.525
805.50115	37440.325
809.36299	37322.125
813.22213	37176.925
817.07857	37110.825
820.93231	36960.625
824.78336	36892.825
828.63172	36885.125
832.47738	36862.625
836.32036	36851.625
840.16066	36814.425
843.99827	36783.425
847.8332	36845.325
851.66546	36848.925
855.49504	36949.525
859.32195	36972.525
863.1462	37021.525
866.96777	36981.625
870.78668	37017.925
874.60293	37067.525
878.41652	37118.825
882.22745	37189.925
886.03573	37284.325
889.84136	37329.325
893.64433	37323.825
897.44466	37213.425
901.24235	37148.725
905.0374	37112.425
908.8298	37114.225
912.61957	37220.725
916.40671	37343.425
920.19121	37566.325
923.97308	37781.625
927.75233	37726.625
931.52895	37509.925
935.30295	37228.725
939.07433	36851.025
942.84309	36554.825
946.60924	36375.325
950.37278	36333.725
954.13371	36264.525
957.89203	36212.825
961.64774	36229.825
965.40086	36142.125
969.15137	36111.525
972.89929	36034.925
976.64461	35961.525
980.38733	35983.925
984.12747	35975.725
987.86502	36121.025
991.59999	36208.625
995.33237	36394.525
999.06217	36668.025
1002.78939	37103.825
1006.51404	37602.325
1010.23611	38087.325
1013.95561	38360.225
1017.67255	38414.825
1021.38692	38126.525
1025.09872	37769.725
1028.80796	37445.525
1032.51465	37268.225
1036.21877	37217.925
1039.92035	37334.025
1043.61937	37429.525
1047.31584	37562.825
1051.00976	37641.625
1054.70114	37802.925
1058.38998	37997.325
1062.07627	38269.325
1065.76003	38722.125
1069.44126	39094.225
1073.11995	39542.125
1076.79611	40012.425
1080.46974	40242.525
1084.14085	40331.025
1087.80943	40410.625
1091.47549	40621.625
1095.13903	40693.425
1098.80005	40490.625
1102.45857	40004.925
1106.11456	39434.725
1109.76805	39118.625
1113.41903	38920.925
1117.06751	38949.925
1120.71348	39033.625
1124.35696	39203.325
1127.99793	39485.525
1131.63641	39672.125
1135.2724	39620.225
1138.90589	39546.525
1142.5369	39577.625
1146.16542	39606.125
1149.79145	39722.225
1153.415	39851.525
1157.03607	40007.625
1160.65467	40552.525
1164.27079	41468.825
1167.88443	42724.125
1171.49561	44080.125
1175.10432	45748.725
1178.71056	47844.725
1182.31434	49789.625
1185.91565	51389.525
1189.51451	52148.025
1193.11091	52144.425
1196.70485	51257.825
1200.29634	49774.225
1203.88538	48477.725
1207.47197	47523.725
1211.05612	46789.925
1214.63782	46067.525
1218.21708	45274.325
1221.79391	44480.125
1225.36829	43895.325
1228.94024	43600.725
1232.50976	43514.225
1236.07685	43502.325
1239.6415	43443.925
1243.20374	43487.725
1246.76355	43698.525
1250.32093	44073.725
1253.8759	44538.225
1257.42845	45327.925
1260.97859	46193.325
1264.52631	47052.225
1268.07163	47878.325
1271.61453	48646.325
1275.15503	49392.725
1278.69312	50152.425
1282.22882	50780.525
1285.76211	51434.225
1289.29301	52162.825
1292.82151	53144.825
1296.34761	54363.025
1299.87133	55706.225
1303.39266	57318.025
1306.9116	58957.425
1310.42815	60299.425
1313.94233	61188.825
1317.45412	61297.425
1320.96354	61097.925
1324.47058	61102.825
1327.97525	61213.225
1331.47754	61465.425
1334.97747	61867.725
1338.47502	62372.925
1341.97022	63121.225
1345.46305	63756.825
1348.95352	64001.825
1352.44163	63725.525
1355.92738	63408.425
1359.41078	63344.225
1362.89183	63270.625
1366.37053	61838.025
1369.84688	58744.825
1373.32088	55037.025
1376.79254	52120.025
1380.26186	50687.925
1383.72883	50177.925
1387.19347	49842.225
1390.65578	49409.925
1394.11575	49038.125
1397.57339	48984.925
1401.0287	49199.325
1404.48168	49401.125
1407.93234	49493.925
1411.38068	49189.025
1414.82669	48528.125
1418.27039	47570.825
1421.71177	46506.725
1425.15083	45623.225
1428.58758	45391.725
1432.02203	45577.825
1435.45416	46163.725
1438.88399	46835.125
1442.31151	47363.525
1445.73673	47672.825
1449.15965	47827.025
1452.58027	47946.125
1455.9986	48076.125
1459.41463	48468.625
1462.82837	49083.025
1466.23982	49751.925
1469.64898	50289.725
1473.05586	50588.425
1476.46045	50646.525
1479.86276	50530.525
1483.26279	50348.525
1486.66054	50283.725
1490.05602	50469.225
1493.44922	50951.425
1496.84016	51666.525
1500.22882	52733.925
1503.61521	54065.925
1506.99934	55364.525
1510.38121	56271.025
1513.76081	56275.425
1517.13816	55372.525
1520.51324	54122.025
1523.88607	53102.025
1527.25665	52541.425
1530.62498	52228.325
1533.99105	52008.725
1537.35488	51565.425
1540.71647	50912.525
1544.07581	50082.825
1547.4329	49295.925
1550.78776	48646.825
1554.14038	48214.725
1557.49077	47998.925
1560.83892	47943.925
1564.18484	47987.825
1567.52853	47994.925
1570.86999	48198.925
1574.20922	48604.125
1577.54624	48985.225
1580.88103	49059.525
1584.2136	48997.225
1587.54395	49384.025
1590.87208	50381.525
1594.19801	51850.125
1597.52172	53358.125
1600.84321	53940.325
1604.16251	52754.125
1607.47959	50699.225
1610.79447	48397.925
1614.10715	46052.425
1617.41763	43794.325
1620.7259	42063.525
1624.03199	41026.025
1627.33587	40792.825
1630.63757	41320.925
1633.93707	42747.025
1637.23439	45117.625
1640.52951	48505.025
1643.82246	52297.325
1647.11321	55023.025
1650.40179	55385.125
1653.68819	52844.325
1656.97241	48571.325
1660.25446	44219.225
1663.53433	40776.825
1666.81203	38454.625
1670.08756	36967.125
1673.36092	35914.325
1676.63211	35311.125
1679.90115	34831.725
1683.16801	34446.625
1686.43272	34253.325
1689.69527	34011.625
1692.95567	33803.325
1696.2139	33705.525
1699.46999	33617.625
1702.72392	33495.325
1705.97571	33498.125
1709.22535	33450.025
1712.47284	33412.625
1715.71819	33363.825
1718.96139	33294.225
1722.20246	33197.525
1725.44139	33094.625
1728.67818	32992.525
1731.91284	32838.725
1735.14537	32715.425
1738.37576	32562.325
1741.60403	32447.725
1744.83017	32380.425
1748.05418	32318.625
1751.27607	32259.625
1754.49584	32247.625
1757.71349	32187.625
1760.92903	32151.525
1764.14244	32132.525
1767.35375	32124.225
1770.56294	32102.925
1773.77002	32012.125
1776.97499	32025.025
1780.17785	31903.625
1783.37861	31947.725
1786.57727	31835.725
1789.77382	31793.325
1792.96828	31770.125
1796.16064	31719.525
1799.3509	31686.425
1802.53907	31628.825
1805.72514	31543.825
1808.90913	31465.025
1812.09102	31409.825
1815.27083	31382.325
1818.44856	31342.425
1821.6242	31302.525
1824.79776	31301.625
1827.96924	31322.725
1831.13864	31301.825
1834.30597	31299.025
1837.47122	31291.525
1840.6344	31309.925
1843.7955	31357.525
1846.95454	31319.225
1850.11151	31284.925
1853.26642	31251.525
1856.41926	31206.325
1859.57004	31260.325
1862.71876	31224.525
1865.86542	31127.425
1869.01003	31058.125
1872.15258	30978.425
1875.29308	31016.225
1878.43152	30941.925
1881.56792	30894.025
1884.70227	30874.125
1887.83457	30785.525
1890.96482	30755.925
1894.09304	30707.225
1897.21921	30657.625
1900.34335	30643.825
1903.46544	30569.525
1906.58551	30505.925
1909.70353	30448.125
1912.81953	30403.725
1915.93349	30321.425
1919.04543	30290.525
1922.15534	30211.325
1925.26322	30144.125
1928.36908	30126.825
1931.47292	30056.725
1934.57473	29979.225
1937.67453	29884.925
1940.77232	29801.025
1943.86808	29695.525
1946.96184	29654.725
1950.05358	29575.725
1953.14331	29490.125
1956.23103	29422.125
1959.31675	29351.925
1962.40046	29259.125
1965.48217	29153.325
1968.56188	29134.125
1971.63959	28965.925
1974.7153	28913.425
1977.78901	28835.725
1980.86073	28730.125
1983.93046	28625.425
1986.99819	28531.625
1990.06394	28469.225
1993.1277	28415.825
1996.18947	28293.625
1999.24925	28250.525
2002.30706	28147.225
2005.36288	28025.325
2008.41672	27997.925
2011.46859	27921.225
2014.51848	27892.025
2017.56639	27747.525
2020.61233	27711.925
2023.6563	27633.625
2026.6983	27554.325
2029.73833	27460.225
2032.7764	27398.725
2035.8125	27362.425
2038.84664	27274.525
2041.87881	27245.525
2044.90903	27241.325
2047.93729	27178.425
2050.96359	27118.925
2053.98794	27084.625
2057.01034	27028.425
2060.03078	27032.825
2063.04927	26998.725
2066.06582	27000.025
2069.08042	26978.825
2072.09307	26960.525
2075.10378	26936.725
2078.11255	26905.625
2081.11938	26912.525
2084.12426	26855.925
2087.12722	26864.325
2090.12824	26841.825
2093.12732	26816.825
2096.12447	26876.225
2099.11969	26826.925
2102.11299	26893.125
2105.10435	26858.425
2108.09379	26891.925
2111.08131	26908.125
2114.0669	26968.325
2117.05057	26996.225
2120.03233	26927.525
2123.01216	26972.325
2125.99008	27000.625
2128.96609	27030.125
2131.94018	27024.725
2134.91236	27036.425
2137.88263	27052.925
2140.851	27057.225
2143.81746	27058.525
2146.78201	27075.525
2149.74466	27071.525
2152.7054	27044.625
2155.66425	27063.725
2158.6212	27055.825
2161.57625	27021.025
2164.52941	27068.625
2167.48067	26997.225
2170.43004	26988.925
2173.37752	27015.725
2176.32311	26965.425
2179.26681	26964.725
2182.20863	26939.925
2185.14856	26949.925
2188.08661	26962.625
2191.02278	26932.125
2193.95707	26931.925
2196.88948	26898.925
2199.82001	26868.625
2202.74867	26847.525
2205.67545	26840.725
2208.60037	26762.925
2211.52341	26738.825
2214.44458	26720.025
2217.36388	26621.825
2220.28132	26572.425
2223.1969	26539.725
2226.11061	26473.225
2229.02246	26412.225
2231.93245	26429.025
2234.84058	26361.025
2237.74686	26289.625
2240.65128	26270.725
2243.55385	26212.525
2246.45456	26216.825
2249.35343	26139.725
2252.25044	26126.425
2255.14561	26074.725
2258.03893	26025.925
2260.93041	25973.625
2263.82004	25916.225
2266.70783	25894.325
2269.59378	25794.725
2272.4779	25720.825
2275.36017	25678.725
2278.24061	25618.325
2281.11922	25564.425
2283.996	25491.925
2286.87094	25508.425
2289.74405	25447.825
2292.61534	25418.525
2295.4848	25385.025
2298.35243	25396.725
2301.21824	25350.525
2304.08223	25322.925
2306.94439	25314.825
2309.80474	25290.025
2312.66327	25242.625
2315.51999	25231.225
2318.37489	25214.125
2321.22797	25175.425
2324.07925	25143.225
2326.92871	25126.425
2329.77637	25056.325
2332.62222	25013.125
2335.46626	24967.325
2338.3085	24944.525
2341.14893	24920.825
2343.98756	24898.425
2346.8244	24892.925
2349.65943	24859.625
2352.49267	24814.025
2355.32411	24821.525
2358.15376	24774.825
2360.98161	24776.325
2363.80768	24763.225
2366.63195	24746.925
2369.45444	24716.125
2372.27514	24661.925
2375.09405	24669.625
2377.91118	24585.725
2380.72652	24573.225
2383.54009	24532.125
2386.35187	24440.525
2389.16188	24371.125
2391.97011	24365.925
2394.77657	24326.725
2397.58125	24237.125
2400.38416	24238.825
2403.18529	24213.325
2405.98466	24148.625
2408.78226	24099.425
2411.57809	24126.325
2414.37216	24078.125
2417.16446	24059.125
2419.955	24022.025
2422.74378	23995.225
2425.5308	23967.325
2428.31606	23959.125
2431.09956	23925.725
2433.88131	23867.625
2436.6613	23881.625
2439.43954	23865.225
2442.21603	23827.325
2444.99077	23803.325
2447.76377	23803.525
2450.53501	23763.225
2453.30451	23743.925
2456.07226	23726.425
2458.83827	23695.525
2461.60254	23664.625
2464.36507	23646.525
2467.12586	23639.425
2469.88492	23636.825
2472.64224	23593.125
2475.39782	23594.225
2478.15167	23584.325
2480.90379	23518.225
2483.65417	23514.825
2486.40283	23516.425
2489.14976	23509.825
2491.89497	23473.925
2494.63845	23483.725
2497.3802	23403.325
2500.12024	23421.725
2502.85855	23434.825
2505.59514	23333.925
2508.33002	23371.225
2511.06318	23325.125
2513.79462	23291.225
2516.52435	23297.825
2519.25237	23281.325
2521.97867	23248.625
2524.70327	23250.825
2527.42616	23204.725
2530.14734	23187.125
2532.86681	23143.825
2535.58458	23131.125
2538.30065	23093.125
2541.01501	23043.125
2543.72768	22993.525
2546.43864	22964.925
2549.14791	22947.725
2551.85548	22915.825
2554.56136	22873.225
2557.26554	22828.025
2559.96803	22806.325
2562.66883	22779.225
2565.36794	22757.725
2568.06536	22726.425
2570.7611	22678.425
2573.45514	22639.625
2576.14751	22606.625
2578.83819	22555.325
2581.52719	22511.025
2584.21451	22522.925
2586.90015	22466.725
2589.58411	22424.825
2592.2664	22408.425
2594.94701	22326.625
2597.62594	22300.025
2600.30321	22223.725
2602.9788	22228.025
2605.65273	22181.025
2608.32498	22159.225
2610.99557	22149.125
2613.66449	22140.025
2616.33175	22071.525
2618.99734	22074.925
2621.66128	22031.325
2624.32355	22017.825
2626.98416	21993.225
2629.64311	21954.625
2632.30041	21975.925
2634.95605	21912.325
2637.61004	21898.025
2640.26238	21855.625
2642.91306	21864.325
2645.56209	21855.425
2648.20948	21847.425
2650.85521	21844.725
2653.4993	21874.225
2656.14175	21801.825
2658.78255	21796.625
2661.42171	21796.225
2664.05923	21829.525
2666.6951	21783.325
2669.32934	21821.025
2671.96194	21792.025
2674.59291	21810.925
2677.22224	21777.625
2679.84993	21798.225
2682.476	21750.225
2685.10043	21779.925
2687.72324	21754.425
2690.34441	21748.825
2692.96396	21722.725
2695.58188	21776.025
2698.19818	21734.025
2700.81285	21781.825
2703.4259	21727.625
2706.03733	21743.125
2708.64714	21701.625
2711.25533	21736.025
2713.86191	21743.625
2716.46687	21766.725
2719.07021	21686.625
2721.67194	21715.625
2724.27206	21686.925
2726.87057	21712.125
2729.46747	21755.925
2732.06276	21763.925
2734.65644	21749.425
2737.24852	21698.425
2739.83899	21662.525
2742.42786	21685.225
2745.01513	21599.325
2747.60079	21608.625
2750.18486	21603.525
2752.76733	21602.325
2755.3482	21532.725
2757.92747	21565.725
2760.50515	21481.425
2763.08123	21462.425
2765.65573	21445.125
2768.22863	21428.425
2770.79994	21406.325
2773.36967	21373.625
2775.9378	21359.825
2778.50435	21298.525
2781.06932	21235.725
2783.6327	21229.325
2786.1945	21253.025
2788.75471	21171.925
2791.31335	21093.825
2793.87041	21074.125
2796.42589	21010.425
2798.97979	21021.625
2801.53212	20956.325
2804.08288	20897.225
2806.63206	20856.825
2809.17967	20841.125
2811.72571	20772.625
2814.27018	20774.725
2816.81308	20739.125
2819.35442	20716.625
2821.89419	20616.125
2824.43239	20630.725
2826.96904	20579.225
2829.50412	20573.025
2832.03763	20552.325
2834.56959	20504.625
2837.1	20469.225
2839.62884	20449.425
2842.15613	20392.325
2844.68186	20443.025
2847.20604	20409.225
2849.72867	20408.925
2852.24974	20380.525
2854.76927	20327.025
2857.28724	20276.925
2859.80367	20293.425
2862.31855	20242.725
2864.83189	20211.525
2867.34368	20204.625
2869.85393	20183.325
2872.36264	20149.125
2874.8698	20153.125
2877.37543	20187.825
2879.87952	20159.725
2882.38207	20155.625
2884.88308	20123.725
2887.38256	20149.225
2889.88051	20125.225
2892.37692	20114.725
2894.8718	20091.825
2897.36515	20089.725
2899.85698	20075.225
2902.34727	20129.825
2904.83604	20126.025
2907.32328	20134.725
2909.809	20105.725
2912.29319	20123.325
2914.77587	20106.825
2917.25702	20103.425
2919.73665	20055.825
2922.21476	20090.025
2924.69136	20021.225
2927.16644	20023.525
2929.64	20007.325
2932.11205	19979.625
2934.58258	19880.425
2937.05161	19962.225
2939.51912	19961.425
2941.98513	19929.725
2944.44962	19871.225
2946.91261	19834.025
2949.37409	19843.625
2951.83407	19861.025
2954.29254	19804.225
2956.74951	19816.925
2959.20498	19781.125
2961.65895	19744.925
2964.11142	19737.825
2966.56239	19675.325
2969.01186	19691.225
2971.45984	19606.125
2973.90632	19622.225
2976.35131	19576.525
2978.7948	19559.825
2981.23681	19504.725
2983.67732	19442.525
2986.11635	19393.225
2988.55388	19359.025
2990.98993	19339.525
2993.4245	19288.325
2995.85758	19254.025
2998.28917	19225.225
3000.71928	19166.825
3003.14791	19125.225
3005.57506	19096.625
3008.00073	19050.025
3010.42493	19008.225
3012.84764	19020.925
3015.26888	19020.325
3017.68865	18954.925
3020.10694	18946.825
3022.52376	18894.125
3024.9391	18859.125
3027.35298	18848.125
3029.76539	18762.625
3032.17632	18734.725
3034.5858	18699.025
3036.9938	18703.025
3039.40034	18691.025
3041.80542	18677.825
3044.20903	18628.525
3046.61118	18592.925
3049.01187	18545.725
3051.4111	18560.225
3053.80888	18494.725
3056.20519	18470.225
3058.60005	18424.325
3060.99345	18381.625
3063.3854	18346.025
3065.7759	18294.025
3068.16494	18222.925
3070.55254	18167.925
3072.93868	18170.925
3075.32338	18139.625
3077.70662	18092.825
3080.08842	18014.925
3082.46878	18036.725
3084.84769	17974.625
3087.22515	18005.325
3089.60118	17935.125
3091.97576	17920.825
3094.3489	17917.225
3096.72061	17900.825
3099.09087	17916.725
3101.4597	17839.625
3103.82709	17834.125
3106.19305	17815.425
3108.55757	17801.825
3110.92066	17736.425
3113.28232	17695.025
3115.64255	17648.425
3118.00134	17615.725
3120.35871	17592.125
3122.71466	17529.625
3125.06917	17495.725
3127.42226	17483.525
