Data from AgNPs_FTO_APTES_UA_50uM_R6G_10uM_NaF_0.1M_Addition_RamanShift__25__15-05-27-427.txt Node

Date: Fri Dec 17 15:05:27 GMT 2021
User: TCL
Spectrometer: QEP01345
Trigger mode: 4
Integration Time (sec): 7.000000E0
Scans to average: 10
Electric dark correction enabled: true
Nonlinearity correction enabled: false
Boxcar width: 0
XAxis mode: Raman Shifts
Number of Pixels in Spectrum: 1044
>>>>>Begin Spectral Data<<<<<
46.04893	0.1625
50.45542	-1.2375
54.85868	-0.8375
59.25871	0.3625
63.6555	88.6625
68.04907	90.7625
72.43941	89.1625
76.82654	99.7625
81.21044	100.8625
85.59113	104.2625
89.96862	110.6625
94.34289	114.3625
98.71396	117.0625
103.08183	116.6625
107.4465	127.1625
111.80798	122.8625
116.16626	127.3625
120.52136	129.1625
124.87327	141.5625
129.222	144.0625
133.56755	149.0625
137.90993	164.1625
142.24913	178.2625
146.58517	195.4625
150.91804	228.2625
155.24774	265.6625
159.57429	333.6625
163.89768	422.5625
168.21792	557.4625
172.53501	757.1625
176.84895	1042.7625
181.15975	1457.4625
185.46741	2033.1625
189.77193	2800.1625
194.07331	3741.6625
198.37157	4806.3625
202.6667	5936.0625
206.9587	7053.7625
211.24758	8146.2625
215.53334	9249.5625
219.81599	10415.8625
224.09553	11738.0625
228.37195	13210.6625
232.64527	14805.7625
236.91549	16524.7625
241.18261	18224.8625
245.44663	19761.4625
249.70755	21194.6625
253.96539	22395.6625
258.22014	23411.0625
262.4718	24293.8625
266.72039	24887.5625
270.96589	25241.5625
275.20832	25360.1625
279.44768	25296.0625
283.68397	25114.3625
287.91719	24893.0625
292.14735	24818.4625
296.37445	24879.1625
300.59849	25065.4625
304.81948	25266.5625
309.03742	25340.1625
313.25231	25069.8625
317.46415	24378.4625
321.67296	23511.3625
325.87872	22846.6625
330.08145	22492.5625
334.28114	22498.4625
338.47781	22752.5625
342.67145	23129.9625
346.86207	23640.2625
351.04966	24282.6625
355.23424	24991.6625
359.4158	25565.5625
363.59435	26014.8625
367.76989	26233.7625
371.94243	26416.1625
376.11196	26530.5625
380.27849	26601.1625
384.44203	26714.2625
388.60257	26759.7625
392.76012	26888.1625
396.91468	27218.2625
401.06626	27738.9625
405.21485	28075.9625
409.36047	27997.1625
413.50311	27463.7625
417.64277	26985.2625
421.77947	26782.5625
425.9132	26783.2625
430.04396	26913.5625
434.17176	27083.2625
438.2966	27378.0625
442.41849	27763.2625
446.53742	28357.7625
450.6534	29066.2625
454.76644	29642.0625
458.87653	29875.6625
462.98368	29845.3625
467.08789	29615.9625
471.18916	29163.9625
475.2875	28702.8625
479.38291	28327.7625
483.4754	27974.3625
487.56496	27634.7625
491.6516	27302.7625
495.73531	27144.0625
499.81612	27091.9625
503.89401	27270.6625
507.96899	27355.6625
512.04106	27386.6625
516.11023	27440.1625
520.1765	27459.5625
524.23987	27363.3625
528.30034	27078.0625
532.35792	26854.5625
536.41261	26582.3625
540.46441	26280.1625
544.51333	26235.8625
548.55936	26433.5625
552.60252	26910.3625
556.64279	27397.7625
560.6802	27705.1625
564.71473	27830.1625
568.7464	28230.9625
572.7752	28712.2625
576.80114	28870.2625
580.82422	28900.9625
584.84444	29043.7625
588.86181	29196.7625
592.87633	29440.0625
596.888	29762.8625
600.89682	30290.9625
604.9028	31920.9625
608.90594	35803.8625
612.90624	39994.1625
616.90371	38034.9625
620.89834	31292.0625
624.89015	28174.6625
628.87913	27607.9625
632.86528	27708.4625
636.84862	27840.3625
640.82913	27502.3625
644.80683	26850.0625
648.78172	26290.8625
652.75379	26203.1625
656.72306	26670.5625
660.68952	27265.5625
664.65319	27210.8625
668.61405	26677.4625
672.57211	26460.5625
676.52738	26527.5625
680.47986	26491.7625
684.42955	26373.3625
688.37646	26290.3625
692.32058	26399.0625
696.26192	26625.8625
700.20048	26891.2625
704.13626	27007.4625
708.06928	26976.5625
711.99952	26777.9625
715.927	26674.7625
719.85171	26669.1625
723.77365	26608.6625
727.69284	26416.4625
731.60928	26229.6625
735.52295	26179.5625
739.43388	26232.5625
743.34206	26353.3625
747.24749	26495.8625
751.15017	26727.1625
755.05012	27100.4625
758.94733	27903.4625
762.8418	29449.6625
766.73354	31926.2625
770.62254	34399.0625
774.50882	35393.6625
778.39237	33902.1625
782.27321	31081.4625
786.15132	28688.4625
790.02671	27259.9625
793.89938	26595.1625
797.76935	26327.1625
801.6366	26221.1625
805.50115	26127.0625
809.36299	26033.2625
813.22213	25995.0625
817.07857	25930.0625
820.93231	25894.8625
824.78336	25882.4625
828.63172	25884.6625
832.47738	25917.7625
836.32036	25938.0625
840.16066	25934.0625
843.99827	25933.2625
847.8332	25882.4625
851.66546	25854.8625
855.49504	25832.6625
859.32195	25779.8625
863.1462	25725.8625
866.96777	25642.0625
870.78668	25587.3625
874.60293	25594.2625
878.41652	25631.5625
882.22745	25744.3625
886.03573	25816.6625
889.84136	25774.3625
893.64433	25721.2625
897.44466	25611.5625
901.24235	25542.3625
905.0374	25500.5625
908.8298	25426.2625
912.61957	25460.2625
916.40671	25643.6625
920.19121	25899.9625
923.97308	26112.6625
927.75233	26212.7625
931.52895	26109.8625
935.30295	25915.2625
939.07433	25556.0625
942.84309	25236.1625
946.60924	25059.4625
950.37278	24974.2625
954.13371	24848.9625
957.89203	24742.7625
961.64774	24680.7625
965.40086	24605.4625
969.15137	24548.6625
972.89929	24477.9625
976.64461	24463.7625
980.38733	24558.2625
984.12747	24613.8625
987.86502	24749.5625
991.59999	24981.1625
995.33237	25337.9625
999.06217	25959.6625
1002.78939	26645.7625
1006.51404	27309.6625
1010.23611	27799.8625
1013.95561	28123.6625
1017.67255	28167.0625
1021.38692	27944.0625
1025.09872	27746.2625
1028.80796	27788.4625
1032.51465	28205.7625
1036.21877	28552.3625
1039.92035	28576.0625
1043.61937	28347.4625
1047.31584	27841.2625
1051.00976	27328.1625
1054.70114	27018.2625
1058.38998	27001.6625
1062.07627	27213.7625
1065.76003	27362.8625
1069.44126	27630.9625
1073.11995	27900.9625
1076.79611	28113.0625
1080.46974	28239.9625
1084.14085	28411.5625
1087.80943	28682.4625
1091.47549	28805.2625
1095.13903	28607.7625
1098.80005	28199.3625
1102.45857	27674.8625
1106.11456	27341.6625
1109.76805	27367.4625
1113.41903	27561.8625
1117.06751	27877.2625
1120.71348	28315.4625
1124.35696	28707.1625
1127.99793	29144.3625
1131.63641	29285.0625
1135.2724	28954.1625
1138.90589	28564.6625
1142.5369	28259.8625
1146.16542	28057.3625
1149.79145	28009.4625
1153.415	28134.6625
1157.03607	28410.6625
1160.65467	28889.4625
1164.27079	29698.0625
1167.88443	30928.3625
1171.49561	32552.3625
1175.10432	34875.6625
1178.71056	37846.7625
1182.31434	40584.4625
1185.91565	42101.8625
1189.51451	42290.0625
1193.11091	41160.5625
1196.70485	39292.9625
1200.29634	37472.5625
1203.88538	35935.9625
1207.47197	34579.4625
1211.05612	33461.7625
1214.63782	32812.5625
1218.21708	32582.8625
1221.79391	32659.7625
1225.36829	32733.5625
1228.94024	32688.2625
1232.50976	32581.5625
1236.07685	32575.6625
1239.6415	32553.2625
1243.20374	32611.7625
1246.76355	32719.3625
1250.32093	33046.5625
1253.8759	33669.0625
1257.42845	34559.1625
1260.97859	35366.7625
1264.52631	35934.9625
1268.07163	36644.0625
1271.61453	37405.6625
1275.15503	38233.9625
1278.69312	39003.4625
1282.22882	39639.5625
1285.76211	40313.1625
1289.29301	41060.1625
1292.82151	42007.2625
1296.34761	43144.5625
1299.87133	44808.2625
1303.39266	47064.9625
1306.9116	50021.7625
1310.42815	53154.9625
1313.94233	55294.3625
1317.45412	55462.7625
1320.96354	54365.3625
1324.47058	52956.6625
1327.97525	51517.5625
1331.47754	50604.7625
1334.97747	50514.9625
1338.47502	51042.0625
1341.97022	51801.4625
1345.46305	52064.3625
1348.95352	52014.9625
1352.44163	52007.2625
1355.92738	53051.1625
1359.41078	55618.9625
1362.89183	58497.7625
1366.37053	57584.2625
1369.84688	52353.6625
1373.32088	46848.2625
1376.79254	42927.4625
1380.26186	41104.8625
1383.72883	40347.3625
1387.19347	39796.7625
1390.65578	39259.5625
1394.11575	38924.6625
1397.57339	39148.8625
1401.0287	39694.3625
1404.48168	40521.9625
1407.93234	41444.5625
1411.38068	41913.1625
1414.82669	41680.8625
1418.27039	40684.4625
1421.71177	39378.7625
1425.15083	38192.6625
1428.58758	37483.0625
1432.02203	37304.7625
1435.45416	37528.7625
1438.88399	37798.5625
1442.31151	38216.6625
1445.73673	38556.2625
1449.15965	38964.0625
1452.58027	39219.3625
1455.9986	39210.4625
1459.41463	39443.2625
1462.82837	39897.3625
1466.23982	40581.3625
1469.64898	41303.7625
1473.05586	41862.7625
1476.46045	42114.4625
1479.86276	42326.9625
1483.26279	42545.9625
1486.66054	42837.7625
1490.05602	43435.0625
1493.44922	44060.5625
1496.84016	44873.9625
1500.22882	46169.9625
1503.61521	47861.7625
1506.99934	50056.8625
1510.38121	52063.4625
1513.76081	52752.9625
1517.13816	51291.7625
1520.51324	48331.5625
1523.88607	45477.6625
1527.25665	43529.7625
1530.62498	42328.6625
1533.99105	41823.6625
1537.35488	41409.1625
1540.71647	41148.6625
1544.07581	40888.3625
1547.4329	40591.3625
1550.78776	40276.1625
1554.14038	40189.3625
1557.49077	40222.1625
1560.83892	40304.0625
1564.18484	40337.7625
1567.52853	40341.7625
1570.86999	40358.4625
1574.20922	40625.7625
1577.54624	40694.2625
1580.88103	40192.9625
1584.2136	39633.1625
1587.54395	39918.4625
1590.87208	41107.5625
1594.19801	43219.9625
1597.52172	45561.2625
1600.84321	46594.8625
1604.16251	45521.9625
1607.47959	43133.1625
1610.79447	40357.5625
1614.10715	37574.2625
1617.41763	35274.2625
1620.7259	33631.4625
1624.03199	32718.0625
1627.33587	32670.2625
1630.63757	33241.2625
1633.93707	34718.3625
1637.23439	36929.3625
1640.52951	39702.8625
1643.82246	42748.5625
1647.11321	45165.8625
1650.40179	45899.9625
1653.68819	43866.5625
1656.97241	39620.0625
1660.25446	35007.0625
1663.53433	31649.1625
1666.81203	29500.5625
1670.08756	28080.6625
1673.36092	27185.7625
1676.63211	26600.8625
1679.90115	26168.3625
1683.16801	25808.4625
1686.43272	25565.4625
1689.69527	25388.2625
1692.95567	25219.7625
1696.2139	25148.4625
1699.46999	25081.2625
1702.72392	25002.9625
1705.97571	24936.9625
1709.22535	24888.0625
1712.47284	24861.3625
1715.71819	24835.8625
1718.96139	24786.7625
1722.20246	24704.4625
1725.44139	24632.7625
1728.67818	24567.0625
1731.91284	24386.8625
1735.14537	24329.6625
1738.37576	24252.4625
1741.60403	24166.8625
1744.83017	24089.1625
1748.05418	24042.5625
1751.27607	23997.4625
1754.49584	23998.7625
1757.71349	24001.0625
1760.92903	23975.6625
1764.14244	23960.0625
1767.35375	23936.7625
1770.56294	23919.6625
1773.77002	23924.4625
1776.97499	23884.7625
1780.17785	23847.2625
1783.37861	23832.6625
1786.57727	23811.7625
1789.77382	23785.9625
1792.96828	23764.2625
1796.16064	23723.0625
1799.3509	23649.3625
1802.53907	23681.9625
1805.72514	23622.9625
1808.90913	23568.0625
1812.09102	23541.6625
1815.27083	23487.6625
1818.44856	23471.5625
1821.6242	23477.4625
1824.79776	23429.4625
1827.96924	23407.0625
1831.13864	23398.6625
1834.30597	23429.7625
1837.47122	23423.9625
1840.6344	23428.0625
1843.7955	23447.9625
1846.95454	23445.4625
1850.11151	23445.4625
1853.26642	23428.0625
1856.41926	23425.1625
1859.57004	23451.8625
1862.71876	23446.0625
1865.86542	23481.4625
1869.01003	23456.6625
1872.15258	23513.1625
1875.29308	23470.1625
1878.43152	23433.6625
1881.56792	23460.2625
1884.70227	23479.1625
1887.83457	23495.3625
1890.96482	23462.8625
1894.09304	23481.4625
1897.21921	23471.0625
1900.34335	23451.2625
1903.46544	23485.4625
1906.58551	23478.3625
1909.70353	23482.6625
1912.81953	23466.8625
1915.93349	23479.0625
1919.04543	23392.8625
1922.15534	23367.0625
1925.26322	23330.1625
1928.36908	23229.3625
1931.47292	23228.7625
1934.57473	23099.2625
1937.67453	23055.7625
1940.77232	22972.2625
1943.86808	22910.2625
1946.96184	22847.3625
1950.05358	22766.0625
1953.14331	22716.2625
1956.23103	22690.4625
1959.31675	22600.1625
1962.40046	22551.4625
1965.48217	22499.3625
1968.56188	22443.9625
1971.63959	22361.0625
1974.7153	22330.7625
1977.78901	22216.3625
1980.86073	22166.4625
1983.93046	22100.7625
1986.99819	22063.3625
1990.06394	21964.9625
1993.1277	21922.3625
1996.18947	21865.2625
1999.24925	21838.4625
2002.30706	21740.1625
2005.36288	21748.1625
2008.41672	21656.3625
2011.46859	21629.6625
2014.51848	21568.3625
2017.56639	21525.7625
2020.61233	21450.4625
2023.6563	21376.4625
2026.6983	21372.2625
2029.73833	21329.5625
2032.7764	21288.5625
2035.8125	21254.9625
2038.84664	21231.7625
2041.87881	21196.5625
2044.90903	21190.7625
2047.93729	21155.4625
2050.96359	21152.8625
2053.98794	21095.2625
2057.01034	21061.9625
2060.03078	21050.7625
2063.04927	21034.1625
2066.06582	21038.5625
2069.08042	20999.8625
2072.09307	21027.6625
2075.10378	20984.0625
2078.11255	20957.5625
2081.11938	20969.2625
2084.12426	20988.4625
2087.12722	20934.2625
2090.12824	20886.5625
2093.12732	20916.7625
2096.12447	20957.8625
2099.11969	20935.4625
2102.11299	20968.9625
2105.10435	21000.6625
2108.09379	20995.2625
2111.08131	20995.5625
2114.0669	20996.2625
2117.05057	21014.9625
2120.03233	21049.5625
2123.01216	21052.7625
2125.99008	21103.6625
2128.96609	21128.9625
2131.94018	21137.1625
2134.91236	21161.8625
2137.88263	21156.1625
2140.851	21196.7625
2143.81746	21204.4625
2146.78201	21215.6625
2149.74466	21247.7625
2152.7054	21231.0625
2155.66425	21174.4625
2158.6212	21228.2625
2161.57625	21252.4625
2164.52941	21204.8625
2167.48067	21190.9625
2170.43004	21216.4625
2173.37752	21211.1625
2176.32311	21200.4625
2179.26681	21220.9625
2182.20863	21217.0625
2185.14856	21227.1625
2188.08661	21184.9625
2191.02278	21233.7625
2193.95707	21214.6625
2196.88948	21238.2625
2199.82001	21192.8625
2202.74867	21195.8625
2205.67545	21187.8625
2208.60037	21200.4625
2211.52341	21161.7625
2214.44458	21170.4625
2217.36388	21126.7625
2220.28132	21118.1625
2223.1969	21041.0625
2226.11061	21081.7625
2229.02246	20990.2625
2231.93245	20956.4625
2234.84058	20892.3625
2237.74686	20889.3625
2240.65128	20880.1625
2243.55385	20853.9625
2246.45456	20823.3625
2249.35343	20813.1625
2252.25044	20808.4625
2255.14561	20757.9625
2258.03893	20825.1625
2260.93041	20721.5625
2263.82004	20675.7625
2266.70783	20660.1625
2269.59378	20615.3625
2272.4779	20549.9625
2275.36017	20504.4625
2278.24061	20513.2625
2281.11922	20472.5625
2283.996	20389.9625
2286.87094	20426.9625
2289.74405	20380.6625
2292.61534	20359.8625
2295.4848	20333.4625
2298.35243	20323.8625
2301.21824	20301.1625
2304.08223	20358.3625
2306.94439	20358.4625
2309.80474	20337.1625
2312.66327	20312.8625
2315.51999	20335.0625
2318.37489	20336.3625
2321.22797	20325.3625
2324.07925	20351.1625
2326.92871	20320.5625
2329.77637	20290.8625
2332.62222	20314.3625
2335.46626	20317.0625
2338.3085	20294.3625
2341.14893	20299.7625
2343.98756	20265.0625
2346.8244	20266.0625
2349.65943	20310.1625
2352.49267	20283.8625
2355.32411	20292.0625
2358.15376	20263.8625
2360.98161	20251.8625
2363.80768	20252.0625
2366.63195	20245.1625
2369.45444	20200.2625
2372.27514	20164.6625
2375.09405	20143.2625
2377.91118	20114.7625
2380.72652	20081.1625
2383.54009	20031.1625
2386.35187	20009.6625
2389.16188	19952.6625
2391.97011	19943.8625
2394.77657	19906.2625
2397.58125	19869.7625
2400.38416	19888.1625
2403.18529	19821.0625
2405.98466	19840.1625
2408.78226	19781.0625
2411.57809	19747.7625
2414.37216	19708.1625
2417.16446	19734.8625
2419.955	19683.1625
2422.74378	19680.3625
2425.5308	19666.6625
2428.31606	19635.7625
2431.09956	19637.1625
2433.88131	19626.6625
2436.6613	19637.5625
2439.43954	19600.4625
2442.21603	19587.6625
2444.99077	19565.4625
2447.76377	19572.7625
2450.53501	19563.5625
2453.30451	19528.7625
2456.07226	19522.2625
2458.83827	19532.8625
2461.60254	19536.1625
2464.36507	19527.1625
2467.12586	19501.4625
2469.88492	19513.1625
2472.64224	19537.2625
2475.39782	19496.7625
2478.15167	19484.6625
2480.90379	19537.0625
2483.65417	19537.1625
2486.40283	19553.9625
2489.14976	19581.6625
2491.89497	19559.6625
2494.63845	19610.0625
2497.3802	19526.1625
2500.12024	19567.0625
2502.85855	19590.4625
2505.59514	19594.1625
2508.33002	19540.7625
2511.06318	19557.3625
2513.79462	19544.9625
2516.52435	19535.3625
2519.25237	19488.4625
2521.97867	19472.7625
2524.70327	19454.7625
2527.42616	19433.2625
2530.14734	19417.0625
2532.86681	19380.2625
2535.58458	19404.4625
2538.30065	19361.8625
2541.01501	19354.7625
2543.72768	19319.0625
2546.43864	19308.9625
2549.14791	19284.5625
2551.85548	19269.5625
2554.56136	19239.9625
2557.26554	19230.5625
2559.96803	19252.4625
2562.66883	19211.2625
2565.36794	19224.8625
2568.06536	19210.8625
2570.7611	19179.1625
2573.45514	19195.0625
2576.14751	19185.3625
2578.83819	19148.3625
2581.52719	19161.9625
2584.21451	19135.4625
2586.90015	19150.7625
2589.58411	19127.2625
2592.2664	19125.9625
2594.94701	19075.2625
2597.62594	19066.7625
2600.30321	19042.4625
2602.9788	19061.9625
2605.65273	19046.7625
2608.32498	19032.2625
2610.99557	19029.6625
2613.66449	19059.2625
2616.33175	19057.0625
2618.99734	19039.3625
2621.66128	19045.8625
2624.32355	19026.4625
2626.98416	19016.0625
2629.64311	19022.6625
2632.30041	19053.3625
2634.95605	19009.9625
2637.61004	19029.2625
2640.26238	18986.2625
2642.91306	19007.1625
2645.56209	18956.2625
2648.20948	18936.9625
2650.85521	18939.7625
2653.4993	18938.5625
2656.14175	18920.2625
2658.78255	18953.2625
2661.42171	18961.5625
2664.05923	18970.9625
2666.6951	18969.1625
2669.32934	19007.6625
2671.96194	19026.7625
2674.59291	19032.0625
2677.22224	19028.2625
2679.84993	19041.3625
2682.476	19025.6625
2685.10043	19074.9625
2687.72324	19003.3625
2690.34441	19047.1625
2692.96396	19024.5625
2695.58188	19061.6625
2698.19818	19022.7625
2700.81285	19049.5625
2703.4259	19031.9625
2706.03733	19102.7625
2708.64714	19018.5625
2711.25533	19054.1625
2713.86191	19058.9625
2716.46687	19111.0625
2719.07021	19072.3625
2721.67194	19098.7625
2724.27206	19059.1625
2726.87057	19071.1625
2729.46747	19086.5625
2732.06276	19092.0625
2734.65644	19071.3625
2737.24852	19087.3625
2739.83899	19078.9625
2742.42786	19094.4625
2745.01513	19067.2625
2747.60079	19083.5625
2750.18486	19039.4625
2752.76733	19110.2625
2755.3482	19043.0625
2757.92747	19092.1625
2760.50515	19067.4625
2763.08123	19063.0625
2765.65573	19023.8625
2768.22863	19008.9625
2770.79994	19005.5625
2773.36967	18981.6625
2775.9378	19009.1625
2778.50435	18942.2625
2781.06932	18968.0625
2783.6327	18993.0625
2786.1945	18936.4625
2788.75471	18920.2625
2791.31335	18875.4625
2793.87041	18860.4625
2796.42589	18819.3625
2798.97979	18821.5625
2801.53212	18785.9625
2804.08288	18816.3625
2806.63206	18730.6625
2809.17967	18726.5625
2811.72571	18711.4625
2814.27018	18715.4625
2816.81308	18659.3625
2819.35442	18681.8625
2821.89419	18653.5625
2824.43239	18664.8625
2826.96904	18627.3625
2829.50412	18650.7625
2832.03763	18610.8625
2834.56959	18590.8625
2837.1	18575.1625
2839.62884	18559.1625
2842.15613	18552.7625
2844.68186	18551.0625
2847.20604	18538.4625
2849.72867	18557.4625
2852.24974	18525.9625
2854.76927	18518.6625
2857.28724	18487.7625
2859.80367	18485.3625
2862.31855	18450.0625
2864.83189	18430.1625
2867.34368	18380.6625
2869.85393	18431.5625
2872.36264	18415.2625
2874.8698	18405.2625
2877.37543	18426.9625
2879.87952	18391.3625
2882.38207	18424.9625
2884.88308	18418.5625
2887.38256	18431.7625
2889.88051	18459.6625
2892.37692	18423.3625
2894.8718	18447.3625
2897.36515	18432.3625
2899.85698	18449.4625
2902.34727	18495.1625
2904.83604	18475.9625
2907.32328	18487.9625
2909.809	18489.2625
2912.29319	18514.7625
2914.77587	18536.3625
2917.25702	18497.4625
2919.73665	18495.9625
2922.21476	18497.2625
2924.69136	18488.0625
2927.16644	18483.2625
2929.64	18462.0625
2932.11205	18464.1625
2934.58258	18429.8625
2937.05161	18465.7625
2939.51912	18416.4625
2941.98513	18407.6625
2944.44962	18396.3625
2946.91261	18327.7625
2949.37409	18375.5625
2951.83407	18361.1625
2954.29254	18355.6625
2956.74951	18346.5625
2959.20498	18327.1625
2961.65895	18282.7625
2964.11142	18291.6625
2966.56239	18235.7625
2969.01186	18225.4625
2971.45984	18184.3625
2973.90632	18137.8625
2976.35131	18115.5625
2978.7948	18083.9625
2981.23681	18047.0625
2983.67732	18028.9625
2986.11635	17993.8625
2988.55388	17966.2625
2990.98993	17943.4625
2993.4245	17907.3625
2995.85758	17854.8625
2998.28917	17848.6625
3000.71928	17816.4625
3003.14791	17771.8625
3005.57506	17752.4625
3008.00073	17732.7625
3010.42493	17702.8625
3012.84764	17681.3625
3015.26888	17669.5625
3017.68865	17633.1625
3020.10694	17629.2625
3022.52376	17557.5625
3024.9391	17549.3625
