Data from AgNPs_FTO_APTES_UA_100uM_R6G_10uM_NaF_0.1M_Addition_RamanShift__3__15-20-37-444.txt Node

Date: Fri Dec 17 15:20:37 GMT 2021
User: TCL
Spectrometer: QEP01345
Trigger mode: 4
Integration Time (sec): 7.000000E0
Scans to average: 10
Electric dark correction enabled: true
Nonlinearity correction enabled: false
Boxcar width: 0
XAxis mode: Raman Shifts
Number of Pixels in Spectrum: 1044
>>>>>Begin Spectral Data<<<<<
46.04893	-0.2875
50.45542	-0.6875
54.85868	-0.8875
59.25871	0.8125
63.6555	61.3125
68.04907	63.0125
72.43941	66.6125
76.82654	73.8125
81.21044	73.7125
85.59113	77.1125
89.96862	85.5125
94.34289	86.0125
98.71396	86.7125
103.08183	88.3125
107.4465	93.9125
111.80798	93.5125
116.16626	97.5125
120.52136	94.7125
124.87327	101.3125
129.222	101.6125
133.56755	103.1125
137.90993	112.3125
142.24913	120.4125
146.58517	131.0125
150.91804	147.9125
155.24774	171.3125
159.57429	210.8125
163.89768	261.2125
168.21792	334.0125
172.53501	446.1125
176.84895	613.6125
181.15975	850.4125
185.46741	1185.1125
189.77193	1630.9125
194.07331	2184.4125
198.37157	2820.0125
202.6667	3476.0125
206.9587	4132.0125
211.24758	4780.0125
215.53334	5424.2125
219.81599	6118.8125
224.09553	6862.4125
228.37195	7728.3125
232.64527	8647.0125
236.91549	9651.3125
241.18261	10658.4125
245.44663	11591.5125
249.70755	12356.4125
253.96539	13092.0125
258.22014	13660.0125
262.4718	14153.5125
266.72039	14500.4125
270.96589	14685.9125
275.20832	14721.9125
279.44768	14606.1125
283.68397	14428.4125
287.91719	14265.2125
292.14735	14160.2125
296.37445	14182.6125
300.59849	14272.0125
304.81948	14412.1125
309.03742	14400.5125
313.25231	14277.3125
317.46415	13943.1125
321.67296	13531.7125
325.87872	13148.3125
330.08145	12987.4125
334.28114	12969.5125
338.47781	13083.9125
342.67145	13233.2125
346.86207	13475.7125
351.04966	13769.2125
355.23424	14057.6125
359.4158	14337.5125
363.59435	14541.5125
367.76989	14667.7125
371.94243	14832.0125
376.11196	14900.0125
380.27849	14965.4125
384.44203	15007.6125
388.60257	15066.8125
392.76012	15177.0125
396.91468	15314.8125
401.06626	15553.1125
405.21485	15688.2125
409.36047	15587.7125
413.50311	15319.9125
417.64277	14991.5125
421.77947	14827.1125
425.9132	14800.3125
430.04396	14796.1125
434.17176	14851.1125
438.2966	14919.4125
442.41849	15079.3125
446.53742	15268.8125
450.6534	15525.6125
454.76644	15710.5125
458.87653	15836.0125
462.98368	15832.5125
467.08789	15787.7125
471.18916	15699.9125
475.2875	15588.5125
479.38291	15459.4125
483.4754	15342.4125
487.56496	15219.9125
491.6516	15103.1125
495.73531	15066.0125
499.81612	15063.2125
503.89401	15120.0125
507.96899	15143.5125
512.04106	15204.4125
516.11023	15260.5125
520.1765	15291.7125
524.23987	15215.8125
528.30034	15140.4125
532.35792	15016.8125
536.41261	14896.7125
540.46441	14804.9125
544.51333	14755.2125
548.55936	14870.6125
552.60252	15051.5125
556.64279	15280.2125
560.6802	15419.4125
564.71473	15444.3125
568.7464	15584.9125
572.7752	15734.0125
576.80114	15849.2125
580.82422	15912.1125
584.84444	16077.0125
588.86181	16138.6125
592.87633	16133.2125
596.888	16122.4125
600.89682	16320.7125
604.9028	17050.6125
608.90594	18849.6125
612.90624	20892.1125
616.90371	20084.0125
620.89834	16853.3125
624.89015	15399.7125
628.87913	15162.5125
632.86528	15349.9125
636.84862	15544.1125
640.82913	15433.5125
644.80683	15079.8125
648.78172	14753.9125
652.75379	14713.7125
656.72306	14843.8125
660.68952	15032.8125
664.65319	14985.7125
668.61405	14704.5125
672.57211	14600.3125
676.52738	14593.9125
680.47986	14630.0125
684.42955	14562.1125
688.37646	14497.1125
692.32058	14510.2125
696.26192	14605.9125
700.20048	14686.9125
704.13626	14810.0125
708.06928	14792.4125
711.99952	14730.3125
715.927	14715.1125
719.85171	14721.0125
723.77365	14699.7125
727.69284	14632.0125
731.60928	14498.2125
735.52295	14444.7125
739.43388	14457.6125
743.34206	14523.4125
747.24749	14515.0125
751.15017	14564.1125
755.05012	14745.6125
758.94733	15051.5125
762.8418	15752.1125
766.73354	16964.9125
770.62254	18263.8125
774.50882	18867.7125
778.39237	18250.4125
782.27321	16871.1125
786.15132	15672.4125
790.02671	14937.1125
793.89938	14583.1125
797.76935	14432.9125
801.6366	14394.6125
805.50115	14321.6125
809.36299	14316.5125
813.22213	14269.7125
817.07857	14260.4125
820.93231	14211.2125
824.78336	14192.8125
828.63172	14147.1125
832.47738	14144.2125
836.32036	14137.6125
840.16066	14121.0125
843.99827	14096.6125
847.8332	14075.0125
851.66546	14041.5125
855.49504	14049.0125
859.32195	14023.4125
863.1462	14059.8125
866.96777	14015.0125
870.78668	13984.9125
874.60293	13997.7125
878.41652	14063.0125
882.22745	14083.1125
886.03573	14133.9125
889.84136	14158.8125
893.64433	14123.9125
897.44466	14080.6125
901.24235	14052.3125
905.0374	13970.9125
908.8298	13927.7125
912.61957	13929.8125
916.40671	13990.8125
920.19121	14069.7125
923.97308	14122.1125
927.75233	14106.8125
931.52895	14115.0125
935.30295	13990.6125
939.07433	13856.1125
942.84309	13658.8125
946.60924	13565.5125
950.37278	13467.9125
954.13371	13419.3125
957.89203	13401.0125
961.64774	13388.1125
965.40086	13327.0125
969.15137	13318.6125
972.89929	13281.8125
976.64461	13251.8125
980.38733	13256.7125
984.12747	13261.5125
987.86502	13339.1125
991.59999	13413.1125
995.33237	13505.2125
999.06217	13650.2125
1002.78939	13830.2125
1006.51404	13957.6125
1010.23611	14101.4125
1013.95561	14193.5125
1017.67255	14211.0125
1021.38692	14152.6125
1025.09872	14051.8125
1028.80796	13997.4125
1032.51465	14008.6125
1036.21877	14079.5125
1039.92035	14137.8125
1043.61937	14157.4125
1047.31584	14129.0125
1051.00976	14095.7125
1054.70114	14072.9125
1058.38998	14102.3125
1062.07627	14231.4125
1065.76003	14347.4125
1069.44126	14524.7125
1073.11995	14723.0125
1076.79611	14928.3125
1080.46974	14960.6125
1084.14085	15003.1125
1087.80943	15028.7125
1091.47549	15139.0125
1095.13903	15129.1125
1098.80005	14948.0125
1102.45857	14737.7125
1106.11456	14516.1125
1109.76805	14404.7125
1113.41903	14448.2125
1117.06751	14596.8125
1120.71348	14789.5125
1124.35696	15019.0125
1127.99793	15245.5125
1131.63641	15398.3125
1135.2724	15258.0125
1138.90589	15059.2125
1142.5369	14909.3125
1146.16542	14806.5125
1149.79145	14726.2125
1153.415	14678.2125
1157.03607	14725.4125
1160.65467	14923.8125
1164.27079	15305.9125
1167.88443	15848.0125
1171.49561	16517.0125
1175.10432	17513.8125
1178.71056	18818.1125
1182.31434	19979.9125
1185.91565	20578.6125
1189.51451	20599.7125
1193.11091	20110.1125
1196.70485	19428.5125
1200.29634	18667.0125
1203.88538	18065.7125
1207.47197	17445.4125
1211.05612	16903.3125
1214.63782	16517.0125
1218.21708	16238.1125
1221.79391	16057.2125
1225.36829	15893.2125
1228.94024	15868.5125
1232.50976	15829.6125
1236.07685	15831.2125
1239.6415	15839.6125
1243.20374	15883.3125
1246.76355	15968.4125
1250.32093	16110.8125
1253.8759	16322.6125
1257.42845	16685.3125
1260.97859	17045.7125
1264.52631	17391.4125
1268.07163	17685.2125
1271.61453	18002.2125
1275.15503	18259.4125
1278.69312	18514.6125
1282.22882	18681.1125
1285.76211	18929.5125
1289.29301	19250.5125
1292.82151	19703.5125
1296.34761	20281.9125
1299.87133	20994.1125
1303.39266	21893.2125
1306.9116	22943.6125
1310.42815	24017.4125
1313.94233	24603.2125
1317.45412	24449.7125
1320.96354	23914.7125
1324.47058	23361.8125
1327.97525	22833.0125
1331.47754	22353.4125
1334.97747	22225.1125
1338.47502	22201.6125
1341.97022	22424.7125
1345.46305	22771.8125
1348.95352	23218.4125
1352.44163	23767.0125
1355.92738	24545.4125
1359.41078	25815.3125
1362.89183	27186.9125
1366.37053	27000.8125
1369.84688	24687.4125
1373.32088	22010.8125
1376.79254	20133.1125
1380.26186	19114.2125
1383.72883	18653.7125
1387.19347	18344.3125
1390.65578	18055.6125
1394.11575	17718.5125
1397.57339	17477.8125
1401.0287	17386.6125
1404.48168	17379.6125
1407.93234	17268.4125
1411.38068	17146.1125
1414.82669	16939.5125
1418.27039	16655.2125
1421.71177	16364.4125
1425.15083	16087.3125
1428.58758	15918.4125
1432.02203	15937.9125
1435.45416	16023.3125
1438.88399	16239.2125
1442.31151	16394.1125
1445.73673	16501.2125
1449.15965	16634.4125
1452.58027	16707.4125
1455.9986	16761.5125
1459.41463	16859.6125
1462.82837	17048.4125
1466.23982	17327.6125
1469.64898	17578.1125
1473.05586	17787.6125
1476.46045	17934.7125
1479.86276	18005.2125
1483.26279	18104.8125
1486.66054	18223.0125
1490.05602	18454.9125
1493.44922	18890.6125
1496.84016	19545.2125
1500.22882	20623.2125
1503.61521	22083.2125
1506.99934	23686.4125
1510.38121	24958.7125
1513.76081	25342.2125
1517.13816	24492.1125
1520.51324	22913.7125
1523.88607	21349.0125
1527.25665	20334.9125
1530.62498	19714.4125
1533.99105	19361.5125
1537.35488	19045.2125
1540.71647	18752.1125
1544.07581	18485.0125
1547.4329	18242.7125
1550.78776	17988.1125
1554.14038	17873.1125
1557.49077	17885.9125
1560.83892	17963.4125
1564.18484	18112.7125
1567.52853	18309.9125
1570.86999	18545.3125
1574.20922	18811.1125
1577.54624	18901.6125
1580.88103	18638.2125
1584.2136	18221.7125
1587.54395	17911.6125
1590.87208	17968.5125
1594.19801	18362.6125
1597.52172	19025.1125
1600.84321	19235.6125
1604.16251	18905.4125
1607.47959	18229.6125
1610.79447	17432.5125
1614.10715	16603.8125
1617.41763	15823.3125
1620.7259	15220.9125
1624.03199	14835.4125
1627.33587	14758.9125
1630.63757	14844.6125
1633.93707	15234.6125
1637.23439	15977.4125
1640.52951	17053.7125
1643.82246	18444.9125
1647.11321	19857.6125
1650.40179	20745.7125
1653.68819	20353.7125
1656.97241	18817.0125
1660.25446	16870.4125
1663.53433	15302.2125
1666.81203	14299.3125
1670.08756	13657.6125
1673.36092	13223.7125
1676.63211	12934.0125
1679.90115	12722.8125
1683.16801	12561.4125
1686.43272	12446.6125
1689.69527	12349.9125
1692.95567	12295.5125
1696.2139	12252.5125
1699.46999	12216.9125
1702.72392	12167.1125
1705.97571	12108.7125
1709.22535	12080.6125
1712.47284	12003.8125
1715.71819	11966.9125
1718.96139	11927.1125
1722.20246	11905.5125
1725.44139	11846.1125
1728.67818	11770.9125
1731.91284	11717.1125
1735.14537	11667.9125
1738.37576	11641.1125
1741.60403	11594.3125
1744.83017	11551.8125
1748.05418	11512.6125
1751.27607	11510.0125
1754.49584	11496.5125
1757.71349	11491.9125
1760.92903	11442.3125
1764.14244	11473.3125
1767.35375	11460.0125
1770.56294	11461.4125
1773.77002	11439.3125
1776.97499	11416.0125
1780.17785	11383.2125
1783.37861	11354.3125
1786.57727	11332.7125
1789.77382	11320.9125
1792.96828	11270.5125
1796.16064	11271.1125
1799.3509	11238.5125
1802.53907	11257.5125
1805.72514	11198.7125
1808.90913	11175.5125
1812.09102	11180.5125
1815.27083	11140.6125
1818.44856	11113.5125
1821.6242	11091.6125
1824.79776	11068.2125
1827.96924	11068.5125
1831.13864	11050.7125
1834.30597	11071.3125
1837.47122	11062.1125
1840.6344	11026.4125
1843.7955	11055.8125
1846.95454	11032.5125
1850.11151	11011.1125
1853.26642	11011.6125
1856.41926	11011.4125
1859.57004	10996.4125
1862.71876	10993.3125
1865.86542	10977.7125
1869.01003	10987.2125
1872.15258	10952.7125
1875.29308	10949.3125
1878.43152	10954.7125
1881.56792	10901.7125
1884.70227	10911.7125
1887.83457	10899.6125
1890.96482	10876.5125
1894.09304	10870.5125
1897.21921	10853.1125
1900.34335	10851.9125
1903.46544	10844.7125
1906.58551	10807.2125
1909.70353	10828.9125
1912.81953	10794.2125
1915.93349	10790.1125
1919.04543	10766.2125
1922.15534	10733.5125
1925.26322	10743.8125
1928.36908	10703.2125
1931.47292	10685.9125
1934.57473	10658.0125
1937.67453	10624.9125
1940.77232	10587.2125
1943.86808	10584.0125
1946.96184	10560.0125
1950.05358	10543.3125
1953.14331	10527.4125
1956.23103	10494.4125
1959.31675	10449.4125
1962.40046	10424.0125
1965.48217	10415.0125
1968.56188	10397.2125
1971.63959	10353.0125
1974.7153	10318.2125
1977.78901	10269.4125
1980.86073	10256.7125
1983.93046	10223.2125
1986.99819	10212.8125
1990.06394	10160.7125
1993.1277	10127.3125
1996.18947	10086.0125
1999.24925	10086.8125
2002.30706	10055.7125
2005.36288	10034.0125
2008.41672	10014.8125
2011.46859	9996.3125
2014.51848	9950.1125
2017.56639	9900.3125
2020.61233	9882.7125
2023.6563	9849.1125
2026.6983	9842.1125
2029.73833	9821.6125
2032.7764	9794.3125
2035.8125	9784.0125
2038.84664	9762.3125
2041.87881	9751.5125
2044.90903	9743.6125
2047.93729	9724.9125
2050.96359	9696.9125
2053.98794	9684.1125
2057.01034	9671.6125
2060.03078	9676.2125
2063.04927	9674.2125
2066.06582	9660.4125
2069.08042	9651.9125
2072.09307	9643.4125
2075.10378	9643.5125
2078.11255	9620.6125
2081.11938	9633.4125
2084.12426	9629.8125
2087.12722	9628.1125
2090.12824	9631.8125
2093.12732	9624.7125
2096.12447	9650.8125
2099.11969	9635.2125
2102.11299	9652.6125
2105.10435	9657.7125
2108.09379	9640.9125
2111.08131	9663.3125
2114.0669	9657.9125
2117.05057	9668.6125
2120.03233	9693.2125
2123.01216	9690.5125
2125.99008	9695.4125
2128.96609	9695.9125
2131.94018	9715.8125
2134.91236	9731.8125
2137.88263	9726.4125
2140.851	9710.5125
2143.81746	9734.2125
2146.78201	9730.8125
2149.74466	9724.8125
2152.7054	9733.7125
2155.66425	9731.0125
2158.6212	9753.3125
2161.57625	9731.2125
2164.52941	9749.8125
2167.48067	9729.0125
2170.43004	9734.4125
2173.37752	9731.4125
2176.32311	9715.4125
2179.26681	9723.9125
2182.20863	9711.6125
2185.14856	9722.9125
2188.08661	9724.1125
2191.02278	9715.8125
2193.95707	9701.6125
2196.88948	9691.9125
2199.82001	9700.8125
2202.74867	9685.1125
2205.67545	9655.1125
2208.60037	9672.1125
2211.52341	9653.7125
2214.44458	9642.5125
2217.36388	9596.4125
2220.28132	9623.1125
2223.1969	9579.4125
2226.11061	9568.7125
2229.02246	9540.7125
2231.93245	9523.3125
2234.84058	9532.6125
2237.74686	9521.5125
2240.65128	9511.1125
2243.55385	9489.3125
2246.45456	9477.4125
2249.35343	9473.3125
2252.25044	9457.1125
2255.14561	9433.7125
2258.03893	9458.3125
2260.93041	9433.0125
2263.82004	9396.6125
2266.70783	9399.2125
2269.59378	9352.7125
2272.4779	9369.8125
2275.36017	9311.1125
2278.24061	9322.0125
2281.11922	9284.5125
2283.996	9282.9125
2286.87094	9270.4125
2289.74405	9252.4125
2292.61534	9247.5125
2295.4848	9231.7125
2298.35243	9250.0125
2301.21824	9202.5125
2304.08223	9226.8125
2306.94439	9228.1125
2309.80474	9217.5125
2312.66327	9233.4125
2315.51999	9195.9125
2318.37489	9185.2125
2321.22797	9179.4125
2324.07925	9176.0125
2326.92871	9151.3125
2329.77637	9174.1125
2332.62222	9152.8125
2335.46626	9099.2125
2338.3085	9125.6125
2341.14893	9102.2125
2343.98756	9085.2125
2346.8244	9091.3125
2349.65943	9104.4125
2352.49267	9094.5125
2355.32411	9097.5125
2358.15376	9096.8125
2360.98161	9100.4125
2363.80768	9088.0125
2366.63195	9108.9125
2369.45444	9057.9125
2372.27514	9061.9125
2375.09405	9069.5125
2377.91118	9050.5125
2380.72652	9045.0125
2383.54009	8997.4125
2386.35187	9001.6125
2389.16188	8968.8125
2391.97011	8950.4125
2394.77657	8931.6125
2397.58125	8919.5125
2400.38416	8903.5125
2403.18529	8894.8125
2405.98466	8902.4125
2408.78226	8886.8125
2411.57809	8875.3125
2414.37216	8843.5125
2417.16446	8846.4125
2419.955	8832.5125
2422.74378	8824.7125
2425.5308	8805.5125
2428.31606	8820.4125
2431.09956	8808.8125
2433.88131	8802.5125
2436.6613	8823.7125
2439.43954	8798.9125
2442.21603	8799.1125
2444.99077	8748.9125
2447.76377	8795.6125
2450.53501	8768.5125
2453.30451	8797.9125
2456.07226	8750.5125
2458.83827	8782.7125
2461.60254	8763.8125
2464.36507	8749.2125
2467.12586	8731.5125
2469.88492	8748.8125
2472.64224	8749.1125
2475.39782	8741.0125
2478.15167	8738.7125
2480.90379	8742.6125
2483.65417	8772.6125
2486.40283	8733.4125
2489.14976	8731.7125
2491.89497	8707.1125
2494.63845	8734.2125
2497.3802	8726.5125
2500.12024	8716.1125
2502.85855	8716.4125
2505.59514	8715.3125
2508.33002	8687.5125
2511.06318	8689.6125
2513.79462	8693.3125
2516.52435	8650.4125
2519.25237	8654.3125
2521.97867	8639.1125
2524.70327	8620.0125
2527.42616	8602.9125
2530.14734	8612.5125
2532.86681	8575.6125
2535.58458	8565.4125
2538.30065	8577.3125
2541.01501	8556.8125
2543.72768	8565.8125
2546.43864	8555.4125
2549.14791	8529.8125
2551.85548	8529.6125
2554.56136	8509.9125
2557.26554	8501.4125
2559.96803	8503.2125
2562.66883	8480.4125
2565.36794	8509.5125
2568.06536	8491.4125
2570.7611	8482.4125
2573.45514	8446.8125
2576.14751	8431.0125
2578.83819	8428.3125
2581.52719	8440.0125
2584.21451	8414.1125
2586.90015	8407.5125
2589.58411	8384.7125
2592.2664	8372.0125
2594.94701	8350.3125
2597.62594	8356.8125
2600.30321	8333.4125
2602.9788	8338.4125
2605.65273	8314.4125
2608.32498	8299.3125
2610.99557	8307.9125
2613.66449	8290.8125
2616.33175	8284.5125
2618.99734	8274.8125
2621.66128	8261.2125
2624.32355	8257.7125
2626.98416	8257.8125
2629.64311	8254.1125
2632.30041	8242.6125
2634.95605	8238.6125
2637.61004	8207.0125
2640.26238	8198.2125
2642.91306	8192.5125
2645.56209	8213.1125
2648.20948	8185.9125
2650.85521	8195.0125
2653.4993	8202.5125
2656.14175	8193.4125
2658.78255	8192.5125
2661.42171	8175.0125
2664.05923	8185.3125
2666.6951	8180.8125
2669.32934	8213.9125
2671.96194	8188.2125
2674.59291	8203.4125
2677.22224	8180.3125
2679.84993	8210.0125
2682.476	8199.8125
2685.10043	8198.2125
2687.72324	8199.6125
2690.34441	8214.0125
2692.96396	8189.8125
2695.58188	8202.9125
2698.19818	8170.0125
2700.81285	8213.9125
2703.4259	8214.2125
2706.03733	8226.9125
2708.64714	8205.9125
2711.25533	8215.5125
2713.86191	8234.1125
2716.46687	8216.3125
2719.07021	8207.1125
2721.67194	8231.9125
2724.27206	8232.6125
2726.87057	8209.4125
2729.46747	8202.4125
2732.06276	8196.4125
2734.65644	8214.2125
2737.24852	8191.2125
2739.83899	8210.0125
2742.42786	8186.5125
2745.01513	8187.1125
2747.60079	8173.3125
2750.18486	8170.7125
2752.76733	8172.2125
2755.3482	8179.1125
2757.92747	8126.6125
2760.50515	8164.8125
2763.08123	8146.3125
2765.65573	8107.9125
2768.22863	8127.4125
2770.79994	8113.8125
2773.36967	8107.4125
2775.9378	8109.4125
2778.50435	8103.3125
2781.06932	8097.4125
2783.6327	8072.1125
2786.1945	8082.0125
2788.75471	8068.7125
2791.31335	8041.5125
2793.87041	8014.6125
2796.42589	8023.2125
2798.97979	7987.2125
2801.53212	7991.4125
2804.08288	7971.1125
2806.63206	7961.1125
2809.17967	7938.1125
2811.72571	7945.9125
2814.27018	7920.8125
2816.81308	7914.6125
2819.35442	7914.5125
2821.89419	7886.8125
2824.43239	7867.3125
2826.96904	7888.0125
2829.50412	7892.2125
2832.03763	7866.6125
2834.56959	7890.0125
2837.1	7859.6125
2839.62884	7866.9125
2842.15613	7869.2125
2844.68186	7874.3125
2847.20604	7887.3125
2849.72867	7885.0125
2852.24974	7879.7125
2854.76927	7868.0125
2857.28724	7873.6125
2859.80367	7888.5125
2862.31855	7858.9125
2864.83189	7848.2125
2867.34368	7822.8125
2869.85393	7832.6125
2872.36264	7855.1125
2874.8698	7849.9125
2877.37543	7835.1125
2879.87952	7838.7125
2882.38207	7849.8125
2884.88308	7843.6125
2887.38256	7842.9125
2889.88051	7830.1125
2892.37692	7842.4125
2894.8718	7840.5125
2897.36515	7841.3125
2899.85698	7839.6125
2902.34727	7850.0125
2904.83604	7841.3125
2907.32328	7854.1125
2909.809	7858.0125
2912.29319	7865.4125
2914.77587	7868.6125
2917.25702	7869.4125
2919.73665	7853.5125
2922.21476	7851.9125
2924.69136	7861.9125
2927.16644	7827.2125
2929.64	7839.0125
2932.11205	7848.2125
2934.58258	7831.9125
2937.05161	7823.2125
2939.51912	7819.3125
2941.98513	7819.7125
2944.44962	7796.8125
2946.91261	7753.8125
2949.37409	7770.6125
2951.83407	7780.7125
2954.29254	7761.2125
2956.74951	7771.2125
2959.20498	7743.1125
2961.65895	7736.2125
2964.11142	7719.4125
2966.56239	7733.2125
2969.01186	7722.1125
2971.45984	7708.9125
2973.90632	7717.5125
2976.35131	7683.5125
2978.7948	7680.8125
2981.23681	7668.0125
2983.67732	7638.6125
2986.11635	7615.6125
2988.55388	7609.0125
2990.98993	7643.3125
2993.4245	7596.4125
2995.85758	7591.4125
2998.28917	7585.1125
3000.71928	7557.1125
3003.14791	7554.8125
3005.57506	7549.4125
3008.00073	7529.3125
3010.42493	7522.2125
3012.84764	7545.2125
3015.26888	7521.0125
3017.68865	7515.1125
3020.10694	7495.8125
3022.52376	7502.9125
3024.9391	7476.0125
3027.35298	7449.5125
3029.76539	7455.3125
3032.17632	7447.7125
3034.5858	7422.1125
3036.9938	7414.0125
3039.40034	7408.0125
3041.80542	7418.2125
3044.20903	7406.5125
3046.61118	7396.6125
3049.01187	7387.3125
3051.4111	7383.6125
3053.80888	7385.1125
3056.20519	7373.3125
3058.60005	7341.5125
3060.99345	7344.7125
3063.3854	7348.9125
3065.7759	7332.2125
3068.16494	7324.0125
