Data from AgNPs_FTO_APTES_UA_100uM_R6G_10uM_NaF_0.1M_Addition_RamanShift__12__15-31-07-457.txt Node

Date: Fri Dec 17 15:31:07 GMT 2021
User: TCL
Spectrometer: QEP01345
Trigger mode: 4
Integration Time (sec): 7.000000E0
Scans to average: 10
Electric dark correction enabled: true
Nonlinearity correction enabled: false
Boxcar width: 0
XAxis mode: Raman Shifts
Number of Pixels in Spectrum: 1044
>>>>>Begin Spectral Data<<<<<
46.04893	0.4125
50.45542	-0.6875
54.85868	-1.1875
59.25871	0.4125
63.6555	62.3125
68.04907	66.6125
72.43941	69.5125
76.82654	75.1125
81.21044	78.2125
85.59113	81.5125
89.96862	86.8125
94.34289	87.0125
98.71396	93.0125
103.08183	92.5125
107.4465	96.0125
111.80798	95.7125
116.16626	99.4125
120.52136	98.9125
124.87327	103.7125
129.222	105.6125
133.56755	110.2125
137.90993	119.4125
142.24913	122.7125
146.58517	137.0125
150.91804	151.1125
155.24774	173.7125
159.57429	217.4125
163.89768	268.3125
168.21792	353.0125
172.53501	464.4125
176.84895	636.8125
181.15975	887.8125
185.46741	1254.0125
189.77193	1722.2125
194.07331	2301.9125
198.37157	2986.5125
202.6667	3692.6125
206.9587	4373.4125
211.24758	5076.8125
215.53334	5747.9125
219.81599	6448.5125
224.09553	7238.4125
228.37195	8084.9125
232.64527	9066.1125
236.91549	10093.2125
241.18261	11162.4125
245.44663	12179.8125
249.70755	13137.8125
253.96539	13968.8125
258.22014	14651.1125
262.4718	15172.9125
266.72039	15504.2125
270.96589	15690.4125
275.20832	15718.7125
279.44768	15583.7125
283.68397	15346.8125
287.91719	15137.5125
292.14735	14970.4125
296.37445	14870.2125
300.59849	14817.7125
304.81948	14830.7125
309.03742	14763.0125
313.25231	14675.6125
317.46415	14456.8125
321.67296	14216.3125
325.87872	14019.5125
330.08145	13963.0125
334.28114	14018.6125
338.47781	14178.3125
342.67145	14337.7125
346.86207	14520.9125
351.04966	14745.5125
355.23424	14985.3125
359.4158	15268.9125
363.59435	15438.4125
367.76989	15652.2125
371.94243	15778.8125
376.11196	15927.0125
380.27849	16024.6125
384.44203	16114.1125
388.60257	16201.5125
392.76012	16311.8125
396.91468	16412.2125
401.06626	16621.1125
405.21485	16754.9125
409.36047	16758.6125
413.50311	16575.5125
417.64277	16404.6125
421.77947	16309.7125
425.9132	16273.2125
430.04396	16302.6125
434.17176	16372.9125
438.2966	16466.2125
442.41849	16592.2125
446.53742	16729.9125
450.6534	16903.1125
454.76644	17099.7125
458.87653	17170.6125
462.98368	17289.9125
467.08789	17261.9125
471.18916	17233.5125
475.2875	17139.0125
479.38291	17049.0125
483.4754	16990.9125
487.56496	16933.3125
491.6516	16900.3125
495.73531	16878.6125
499.81612	16897.3125
503.89401	16981.4125
507.96899	17060.1125
512.04106	17122.7125
516.11023	17184.7125
520.1765	17181.9125
524.23987	17116.6125
528.30034	17062.2125
532.35792	17012.4125
536.41261	16906.1125
540.46441	16843.7125
544.51333	16848.0125
548.55936	16921.9125
552.60252	17028.7125
556.64279	17177.1125
560.6802	17270.7125
564.71473	17315.5125
568.7464	17329.6125
572.7752	17376.7125
576.80114	17385.1125
580.82422	17412.2125
584.84444	17532.4125
588.86181	17531.9125
592.87633	17533.5125
596.888	17578.5125
600.89682	17749.8125
604.9028	18296.6125
608.90594	19582.9125
612.90624	21022.3125
616.90371	20549.8125
620.89834	18511.6125
624.89015	17500.6125
628.87913	17306.1125
632.86528	17396.5125
636.84862	17501.9125
640.82913	17511.9125
644.80683	17312.6125
648.78172	17176.2125
652.75379	17107.7125
656.72306	17274.5125
660.68952	17451.5125
664.65319	17505.7125
668.61405	17370.5125
672.57211	17324.1125
676.52738	17383.1125
680.47986	17364.4125
684.42955	17298.5125
688.37646	17246.6125
692.32058	17258.4125
696.26192	17371.2125
700.20048	17462.3125
704.13626	17529.3125
708.06928	17515.7125
711.99952	17429.3125
715.927	17392.7125
719.85171	17340.2125
723.77365	17336.7125
727.69284	17251.5125
731.60928	17194.5125
735.52295	17156.4125
739.43388	17197.8125
743.34206	17217.3125
747.24749	17249.4125
751.15017	17301.5125
755.05012	17401.7125
758.94733	17558.5125
762.8418	17989.3125
766.73354	18735.3125
770.62254	19581.8125
774.50882	20046.0125
778.39237	19738.1125
782.27321	18917.0125
786.15132	18143.5125
790.02671	17618.8125
793.89938	17360.0125
797.76935	17209.8125
801.6366	17168.8125
805.50115	17160.5125
809.36299	17088.7125
813.22213	17071.3125
817.07857	17048.9125
820.93231	17054.9125
824.78336	17043.3125
828.63172	17031.8125
832.47738	17041.5125
836.32036	17007.0125
840.16066	17005.2125
843.99827	16985.5125
847.8332	16985.6125
851.66546	17001.5125
855.49504	17007.9125
859.32195	17005.3125
863.1462	16998.9125
866.96777	17001.4125
870.78668	16990.4125
874.60293	17049.9125
878.41652	17006.1125
882.22745	17032.8125
886.03573	17065.0125
889.84136	17086.1125
893.64433	17092.4125
897.44466	17040.9125
901.24235	17060.3125
905.0374	17038.7125
908.8298	16963.9125
912.61957	16955.4125
916.40671	17003.6125
920.19121	17017.5125
923.97308	17043.8125
927.75233	17051.9125
931.52895	17046.5125
935.30295	17004.1125
939.07433	16900.0125
942.84309	16763.1125
946.60924	16675.9125
950.37278	16619.6125
954.13371	16543.7125
957.89203	16546.5125
961.64774	16519.0125
965.40086	16484.1125
969.15137	16464.0125
972.89929	16475.7125
976.64461	16437.9125
980.38733	16409.7125
984.12747	16401.9125
987.86502	16433.2125
991.59999	16406.6125
995.33237	16479.6125
999.06217	16542.2125
1002.78939	16621.4125
1006.51404	16720.7125
1010.23611	16802.8125
1013.95561	16854.3125
1017.67255	16918.4125
1021.38692	16906.1125
1025.09872	16858.5125
1028.80796	16765.5125
1032.51465	16719.7125
1036.21877	16726.1125
1039.92035	16712.5125
1043.61937	16785.7125
1047.31584	16839.7125
1051.00976	16876.4125
1054.70114	16910.4125
1058.38998	16957.1125
1062.07627	17008.2125
1065.76003	17116.8125
1069.44126	17180.8125
1073.11995	17305.2125
1076.79611	17508.0125
1080.46974	17584.6125
1084.14085	17529.4125
1087.80943	17620.7125
1091.47549	17636.7125
1095.13903	17668.6125
1098.80005	17615.9125
1102.45857	17500.0125
1106.11456	17394.3125
1109.76805	17301.2125
1113.41903	17280.0125
1117.06751	17288.6125
1120.71348	17383.0125
1124.35696	17504.2125
1127.99793	17632.6125
1131.63641	17722.7125
1135.2724	17595.5125
1138.90589	17448.0125
1142.5369	17331.0125
1146.16542	17223.4125
1149.79145	17188.1125
1153.415	17128.1125
1157.03607	17105.0125
1160.65467	17195.1125
1164.27079	17352.7125
1167.88443	17663.8125
1171.49561	18048.9125
1175.10432	18638.4125
1178.71056	19386.6125
1182.31434	20098.1125
1185.91565	20552.0125
1189.51451	20649.4125
1193.11091	20468.3125
1196.70485	20092.4125
1200.29634	19699.2125
1203.88538	19264.2125
1207.47197	18825.3125
1211.05612	18343.2125
1214.63782	18103.2125
1218.21708	17897.3125
1221.79391	17762.3125
1225.36829	17620.4125
1228.94024	17628.0125
1232.50976	17640.3125
1236.07685	17678.4125
1239.6415	17729.2125
1243.20374	17737.8125
1246.76355	17814.6125
1250.32093	17884.1125
1253.8759	18011.0125
1257.42845	18166.5125
1260.97859	18338.6125
1264.52631	18540.6125
1268.07163	18721.4125
1271.61453	18854.8125
1275.15503	18956.9125
1278.69312	19078.3125
1282.22882	19090.5125
1285.76211	19140.0125
1289.29301	19276.8125
1292.82151	19500.1125
1296.34761	19706.5125
1299.87133	20021.2125
1303.39266	20483.3125
1306.9116	21114.3125
1310.42815	21723.3125
1313.94233	22114.7125
1317.45412	22034.3125
1320.96354	21794.7125
1324.47058	21413.1125
1327.97525	21089.2125
1331.47754	20823.3125
1334.97747	20723.8125
1338.47502	20795.3125
1341.97022	21078.8125
1345.46305	21544.6125
1348.95352	22052.7125
1352.44163	22526.1125
1355.92738	22973.0125
1359.41078	23603.6125
1362.89183	24301.7125
1366.37053	24140.9125
1369.84688	22684.3125
1373.32088	21041.3125
1376.79254	19878.1125
1380.26186	19170.6125
1383.72883	18739.2125
1387.19347	18446.8125
1390.65578	18146.4125
1394.11575	17850.3125
1397.57339	17632.5125
1401.0287	17489.5125
1404.48168	17417.6125
1407.93234	17387.5125
1411.38068	17327.9125
1414.82669	17288.1125
1418.27039	17204.1125
1421.71177	17071.9125
1425.15083	16893.4125
1428.58758	16776.0125
1432.02203	16721.2125
1435.45416	16667.6125
1438.88399	16715.2125
1442.31151	16707.8125
1445.73673	16799.5125
1449.15965	16814.4125
1452.58027	16859.4125
1455.9986	16895.2125
1459.41463	17007.2125
1462.82837	17095.3125
1466.23982	17323.4125
1469.64898	17521.5125
1473.05586	17693.5125
1476.46045	17844.2125
1479.86276	17949.3125
1483.26279	18058.1125
1486.66054	18219.6125
1490.05602	18361.2125
1493.44922	18691.8125
1496.84016	19217.0125
1500.22882	20071.1125
1503.61521	21132.3125
1506.99934	22252.7125
1510.38121	22989.7125
1513.76081	23046.7125
1517.13816	22335.6125
1520.51324	21267.3125
1523.88607	20263.2125
1527.25665	19541.0125
1530.62498	19107.2125
1533.99105	18845.3125
1537.35488	18660.3125
1540.71647	18513.9125
1544.07581	18367.5125
1547.4329	18305.0125
1550.78776	18242.4125
1554.14038	18186.3125
1557.49077	18177.3125
1560.83892	18244.7125
1564.18484	18394.4125
1567.52853	18523.2125
1570.86999	18668.2125
1574.20922	18770.6125
1577.54624	18813.9125
1580.88103	18522.0125
1584.2136	18127.6125
1587.54395	17825.2125
1590.87208	17748.8125
1594.19801	17885.3125
1597.52172	18232.1125
1600.84321	18385.5125
1604.16251	18313.2125
1607.47959	18085.9125
1610.79447	17764.1125
1614.10715	17362.1125
1617.41763	16912.5125
1620.7259	16509.9125
1624.03199	16242.8125
1627.33587	16119.6125
1630.63757	16053.7125
1633.93707	16182.5125
1637.23439	16469.5125
1640.52951	16934.8125
1643.82246	17655.3125
1647.11321	18495.4125
1650.40179	19088.0125
1653.68819	19104.4125
1656.97241	18348.6125
1660.25446	17286.0125
1663.53433	16402.0125
1666.81203	15833.6125
1670.08756	15391.5125
1673.36092	15113.6125
1676.63211	14930.9125
1679.90115	14767.6125
1683.16801	14634.6125
1686.43272	14546.8125
1689.69527	14457.0125
1692.95567	14409.5125
1696.2139	14369.5125
1699.46999	14359.4125
1702.72392	14294.5125
1705.97571	14297.5125
1709.22535	14234.9125
1712.47284	14225.6125
1715.71819	14215.6125
1718.96139	14203.4125
1722.20246	14155.6125
1725.44139	14133.2125
1728.67818	14043.6125
1731.91284	13995.0125
1735.14537	13949.1125
1738.37576	13912.9125
1741.60403	13858.2125
1744.83017	13844.2125
1748.05418	13785.0125
1751.27607	13744.5125
1754.49584	13745.8125
1757.71349	13728.5125
1760.92903	13687.0125
1764.14244	13684.8125
1767.35375	13687.5125
1770.56294	13658.7125
1773.77002	13645.5125
1776.97499	13602.3125
1780.17785	13579.1125
1783.37861	13571.0125
1786.57727	13523.1125
1789.77382	13481.8125
1792.96828	13463.6125
1796.16064	13436.3125
1799.3509	13412.1125
1802.53907	13407.0125
1805.72514	13370.2125
1808.90913	13333.4125
1812.09102	13284.1125
1815.27083	13238.0125
1818.44856	13238.0125
1821.6242	13214.2125
1824.79776	13164.6125
1827.96924	13171.4125
1831.13864	13174.5125
1834.30597	13147.1125
1837.47122	13116.1125
1840.6344	13090.9125
1843.7955	13097.6125
1846.95454	13088.0125
1850.11151	13058.1125
1853.26642	13050.1125
1856.41926	13083.2125
1859.57004	13024.9125
1862.71876	13008.0125
1865.86542	13001.9125
1869.01003	12966.3125
1872.15258	12982.3125
1875.29308	12934.6125
1878.43152	12897.5125
1881.56792	12910.7125
1884.70227	12883.7125
1887.83457	12880.4125
1890.96482	12809.0125
1894.09304	12807.8125
1897.21921	12813.5125
1900.34335	12770.2125
1903.46544	12774.9125
1906.58551	12757.0125
1909.70353	12745.7125
1912.81953	12688.8125
1915.93349	12655.7125
1919.04543	12667.4125
1922.15534	12645.6125
1925.26322	12616.0125
1928.36908	12593.2125
1931.47292	12581.1125
1934.57473	12514.6125
1937.67453	12483.5125
1940.77232	12441.9125
1943.86808	12438.9125
1946.96184	12404.5125
1950.05358	12387.8125
1953.14331	12314.1125
1956.23103	12305.9125
1959.31675	12251.7125
1962.40046	12214.3125
1965.48217	12189.8125
1968.56188	12156.6125
1971.63959	12091.7125
1974.7153	12060.1125
1977.78901	12025.5125
1980.86073	11982.0125
1983.93046	11965.6125
1986.99819	11909.8125
1990.06394	11870.8125
1993.1277	11814.7125
1996.18947	11779.0125
1999.24925	11770.8125
2002.30706	11723.5125
2005.36288	11675.6125
2008.41672	11645.0125
2011.46859	11612.7125
2014.51848	11582.7125
2017.56639	11529.1125
2020.61233	11497.8125
2023.6563	11441.0125
2026.6983	11434.0125
2029.73833	11422.9125
2032.7764	11348.8125
2035.8125	11349.4125
2038.84664	11302.1125
2041.87881	11304.3125
2044.90903	11290.0125
2047.93729	11233.8125
2050.96359	11227.8125
2053.98794	11196.5125
2057.01034	11177.1125
2060.03078	11154.6125
2063.04927	11168.4125
2066.06582	11147.3125
2069.08042	11129.3125
2072.09307	11125.2125
2075.10378	11105.0125
2078.11255	11088.5125
2081.11938	11106.6125
2084.12426	11081.8125
2087.12722	11109.5125
2090.12824	11073.3125
2093.12732	11047.5125
2096.12447	11042.0125
2099.11969	11056.9125
2102.11299	11078.1125
2105.10435	11051.6125
2108.09379	11055.3125
2111.08131	11063.9125
2114.0669	11069.7125
2117.05057	11087.0125
2120.03233	11094.0125
2123.01216	11101.2125
2125.99008	11100.7125
2128.96609	11089.6125
2131.94018	11117.0125
2134.91236	11106.6125
2137.88263	11119.8125
2140.851	11103.6125
2143.81746	11096.8125
2146.78201	11100.2125
2149.74466	11107.0125
2152.7054	11120.8125
2155.66425	11104.3125
2158.6212	11080.3125
2161.57625	11099.8125
2164.52941	11077.3125
2167.48067	11058.1125
2170.43004	11065.0125
2173.37752	11052.9125
2176.32311	11044.9125
2179.26681	11058.4125
2182.20863	11048.0125
2185.14856	11042.4125
2188.08661	11012.1125
2191.02278	11032.0125
2193.95707	10991.2125
2196.88948	10984.5125
2199.82001	10989.3125
2202.74867	10952.3125
2205.67545	10953.7125
2208.60037	10917.1125
2211.52341	10893.2125
2214.44458	10866.8125
2217.36388	10835.5125
2220.28132	10822.0125
2223.1969	10803.5125
2226.11061	10789.4125
2229.02246	10768.4125
2231.93245	10743.4125
2234.84058	10703.6125
2237.74686	10693.9125
2240.65128	10691.2125
2243.55385	10667.2125
2246.45456	10642.3125
2249.35343	10631.3125
2252.25044	10618.8125
2255.14561	10605.4125
2258.03893	10602.0125
2260.93041	10569.0125
2263.82004	10555.5125
2266.70783	10524.2125
2269.59378	10492.1125
2272.4779	10473.2125
2275.36017	10439.2125
2278.24061	10401.8125
2281.11922	10395.0125
2283.996	10358.3125
2286.87094	10359.6125
2289.74405	10326.2125
2292.61534	10294.3125
2295.4848	10294.1125
2298.35243	10271.6125
2301.21824	10262.2125
2304.08223	10258.0125
2306.94439	10259.3125
2309.80474	10227.9125
2312.66327	10225.7125
2315.51999	10203.6125
2318.37489	10203.4125
2321.22797	10164.8125
2324.07925	10181.8125
2326.92871	10121.0125
2329.77637	10123.7125
2332.62222	10089.2125
2335.46626	10081.2125
2338.3085	10056.1125
2341.14893	10050.5125
2343.98756	10022.9125
2346.8244	9995.5125
2349.65943	9983.4125
2352.49267	9979.4125
2355.32411	9975.8125
2358.15376	9982.6125
2360.98161	9942.8125
2363.80768	9963.1125
2366.63195	9937.1125
2369.45444	9926.3125
2372.27514	9918.2125
2375.09405	9903.2125
2377.91118	9904.5125
2380.72652	9857.2125
2383.54009	9850.2125
2386.35187	9812.8125
2389.16188	9789.1125
2391.97011	9757.2125
2394.77657	9742.8125
2397.58125	9716.2125
2400.38416	9708.7125
2403.18529	9678.9125
2405.98466	9703.6125
2408.78226	9659.8125
2411.57809	9631.7125
2414.37216	9628.1125
2417.16446	9612.5125
2419.955	9588.8125
2422.74378	9581.2125
2425.5308	9576.4125
2428.31606	9551.4125
2431.09956	9549.0125
2433.88131	9543.8125
2436.6613	9540.1125
2439.43954	9540.1125
2442.21603	9486.9125
2444.99077	9462.5125
2447.76377	9509.5125
2450.53501	9467.4125
2453.30451	9459.4125
2456.07226	9422.1125
2458.83827	9460.8125
2461.60254	9431.1125
2464.36507	9401.3125
2467.12586	9366.2125
2469.88492	9367.3125
2472.64224	9366.5125
2475.39782	9327.4125
2478.15167	9345.4125
2480.90379	9354.2125
2483.65417	9326.5125
2486.40283	9315.8125
2489.14976	9316.2125
2491.89497	9273.6125
2494.63845	9298.6125
2497.3802	9279.4125
2500.12024	9245.2125
2502.85855	9238.7125
2505.59514	9237.4125
2508.33002	9228.2125
2511.06318	9218.0125
2513.79462	9195.1125
2516.52435	9167.3125
2519.25237	9159.4125
2521.97867	9138.0125
2524.70327	9137.1125
2527.42616	9092.3125
2530.14734	9099.5125
2532.86681	9077.5125
2535.58458	9052.7125
2538.30065	9036.7125
2541.01501	9020.9125
2543.72768	9011.1125
2546.43864	8989.2125
2549.14791	8969.5125
2551.85548	8946.1125
2554.56136	8924.1125
2557.26554	8928.9125
2559.96803	8915.1125
2562.66883	8894.8125
2565.36794	8900.5125
2568.06536	8868.5125
2570.7611	8851.9125
2573.45514	8825.3125
2576.14751	8796.4125
2578.83819	8766.8125
2581.52719	8776.1125
2584.21451	8770.3125
2586.90015	8744.6125
2589.58411	8716.8125
2592.2664	8702.1125
2594.94701	8671.0125
2597.62594	8683.1125
2600.30321	8614.6125
2602.9788	8622.1125
2605.65273	8580.7125
2608.32498	8585.9125
2610.99557	8558.4125
2613.66449	8555.7125
2616.33175	8524.9125
2618.99734	8524.8125
2621.66128	8523.9125
2624.32355	8478.7125
2626.98416	8468.2125
2629.64311	8468.8125
2632.30041	8488.8125
2634.95605	8443.5125
2637.61004	8410.7125
2640.26238	8407.0125
2642.91306	8399.9125
2645.56209	8382.7125
2648.20948	8370.2125
2650.85521	8364.4125
2653.4993	8378.9125
2656.14175	8338.4125
2658.78255	8378.1125
2661.42171	8346.0125
2664.05923	8342.6125
2666.6951	8335.4125
2669.32934	8319.8125
2671.96194	8327.5125
2674.59291	8338.8125
2677.22224	8317.8125
2679.84993	8341.9125
2682.476	8333.3125
2685.10043	8317.3125
2687.72324	8298.6125
2690.34441	8301.6125
2692.96396	8311.3125
2695.58188	8299.4125
2698.19818	8284.1125
2700.81285	8286.4125
2703.4259	8283.0125
2706.03733	8273.5125
2708.64714	8279.4125
2711.25533	8267.7125
2713.86191	8278.5125
2716.46687	8275.4125
2719.07021	8249.1125
2721.67194	8275.5125
2724.27206	8252.8125
2726.87057	8239.2125
2729.46747	8249.5125
2732.06276	8211.0125
2734.65644	8193.6125
2737.24852	8203.9125
2739.83899	8215.7125
2742.42786	8191.6125
2745.01513	8162.5125
2747.60079	8160.8125
2750.18486	8162.6125
2752.76733	8148.4125
2755.3482	8119.8125
2757.92747	8124.3125
2760.50515	8113.7125
2763.08123	8103.1125
2765.65573	8096.9125
2768.22863	8074.6125
2770.79994	8062.3125
2773.36967	8055.2125
2775.9378	8049.9125
2778.50435	8020.4125
2781.06932	7986.1125
2783.6327	8003.1125
2786.1945	7979.4125
2788.75471	7975.7125
2791.31335	7915.2125
2793.87041	7918.6125
2796.42589	7873.0125
2798.97979	7877.3125
2801.53212	7868.0125
2804.08288	7853.4125
2806.63206	7825.1125
2809.17967	7817.2125
2811.72571	7781.4125
2814.27018	7757.2125
2816.81308	7761.3125
2819.35442	7757.7125
2821.89419	7711.9125
2824.43239	7708.5125
2826.96904	7687.1125
2829.50412	7686.8125
2832.03763	7689.2125
2834.56959	7678.8125
2837.1	7654.9125
2839.62884	7666.7125
2842.15613	7666.4125
2844.68186	7669.1125
2847.20604	7656.5125
2849.72867	7644.8125
2852.24974	7648.0125
2854.76927	7619.9125
2857.28724	7619.1125
2859.80367	7610.0125
2862.31855	7582.4125
2864.83189	7583.0125
2867.34368	7559.6125
2869.85393	7575.7125
2872.36264	7567.6125
2874.8698	7572.0125
2877.37543	7544.0125
2879.87952	7558.8125
2882.38207	7541.7125
2884.88308	7541.4125
2887.38256	7540.5125
2889.88051	7526.4125
2892.37692	7521.9125
2894.8718	7511.3125
2897.36515	7523.0125
2899.85698	7503.6125
2902.34727	7522.9125
2904.83604	7526.1125
2907.32328	7518.7125
2909.809	7482.4125
2912.29319	7515.3125
2914.77587	7506.2125
2917.25702	7505.5125
2919.73665	7490.5125
2922.21476	7489.2125
2924.69136	7481.8125
2927.16644	7467.6125
2929.64	7466.2125
2932.11205	7467.7125
2934.58258	7430.6125
2937.05161	7437.5125
2939.51912	7449.6125
2941.98513	7409.2125
2944.44962	7399.0125
2946.91261	7390.1125
2949.37409	7402.7125
2951.83407	7380.3125
2954.29254	7380.5125
2956.74951	7373.2125
2959.20498	7375.6125
2961.65895	7348.8125
2964.11142	7343.9125
2966.56239	7322.6125
2969.01186	7331.2125
2971.45984	7321.2125
2973.90632	7312.4125
2976.35131	7290.1125
2978.7948	7270.5125
2981.23681	7256.9125
2983.67732	7244.1125
2986.11635	7235.0125
2988.55388	7204.4125
2990.98993	7201.9125
2993.4245	7203.7125
2995.85758	7188.2125
2998.28917	7179.1125
3000.71928	7157.4125
3003.14791	7134.5125
3005.57506	7127.0125
3008.00073	7134.4125
3010.42493	7103.6125
3012.84764	7116.8125
3015.26888	7104.8125
3017.68865	7085.4125
3020.10694	7070.9125
3022.52376	7051.0125
3024.9391	7033.9125
3027.35298	7024.7125
3029.76539	6995.0125
3032.17632	6976.8125
3034.5858	6991.8125
3036.9938	6972.2125
3039.40034	6951.1125
3041.80542	6964.9125
3044.20903	6926.8125
3046.61118	6954.0125
3049.01187	6921.8125
3051.4111	6933.0125
3053.80888	6913.3125
3056.20519	6895.9125
