Data from AgNPs_FTO_APTES_UA_20uM_R6G_10uM_NaF_0.1M_Addition_RamanShift__30__14-30-27-387.txt Node

Date: Fri Dec 17 14:30:27 GMT 2021
User: TCL
Spectrometer: QEP01345
Trigger mode: 4
Integration Time (sec): 7.000000E0
Scans to average: 10
Electric dark correction enabled: true
Nonlinearity correction enabled: false
Boxcar width: 0
XAxis mode: Raman Shifts
Number of Pixels in Spectrum: 1044
>>>>>Begin Spectral Data<<<<<
46.04893	0.8875
50.45542	-0.4125
54.85868	-1.2125
59.25871	0.0875
63.6555	45.7875
68.04907	47.4875
72.43941	48.3875
76.82654	53.3875
81.21044	53.2875
85.59113	57.9875
89.96862	60.3875
94.34289	60.3875
98.71396	63.6875
103.08183	63.7875
107.4465	66.0875
111.80798	66.4875
116.16626	70.3875
120.52136	63.4875
124.87327	70.5875
129.222	72.6875
133.56755	76.0875
137.90993	77.9875
142.24913	82.8875
146.58517	88.2875
150.91804	93.6875
155.24774	106.3875
159.57429	127.5875
163.89768	156.2875
168.21792	199.8875
172.53501	262.9875
176.84895	354.3875
181.15975	478.8875
185.46741	667.8875
189.77193	922.7875
194.07331	1221.0875
198.37157	1575.3875
202.6667	1943.0875
206.9587	2311.8875
211.24758	2662.0875
215.53334	3027.2875
219.81599	3453.9875
224.09553	3904.2875
228.37195	4426.2875
232.64527	4993.4875
236.91549	5556.7875
241.18261	6117.0875
245.44663	6576.1875
249.70755	6956.4875
253.96539	7284.5875
258.22014	7563.8875
262.4718	7842.3875
266.72039	8056.0875
270.96589	8172.1875
275.20832	8175.0875
279.44768	8109.8875
283.68397	7974.7875
287.91719	7870.9875
292.14735	7886.4875
296.37445	8004.7875
300.59849	8247.2875
304.81948	8506.4875
309.03742	8694.0875
313.25231	8683.3875
317.46415	8343.9875
321.67296	7803.5875
325.87872	7379.0875
330.08145	7222.3875
334.28114	7215.1875
338.47781	7293.6875
342.67145	7514.2875
346.86207	7799.9875
351.04966	8194.5875
355.23424	8648.3875
359.4158	9029.9875
363.59435	9224.2875
367.76989	9351.0875
371.94243	9390.3875
376.11196	9421.7875
380.27849	9424.9875
384.44203	9378.1875
388.60257	9293.2875
392.76012	9226.7875
396.91468	9305.0875
401.06626	9512.9875
405.21485	9664.9875
409.36047	9566.8875
413.50311	9187.9875
417.64277	8809.9875
421.77947	8582.2875
425.9132	8523.8875
430.04396	8494.2875
434.17176	8552.0875
438.2966	8611.6875
442.41849	8779.2875
446.53742	8980.1875
450.6534	9186.2875
454.76644	9305.2875
458.87653	9355.6875
462.98368	9349.7875
467.08789	9245.5875
471.18916	9075.1875
475.2875	8916.4875
479.38291	8787.1875
483.4754	8702.0875
487.56496	8650.2875
491.6516	8612.8875
495.73531	8596.6875
499.81612	8630.7875
503.89401	8702.3875
507.96899	8812.9875
512.04106	8933.2875
516.11023	9085.7875
520.1765	9205.5875
524.23987	9200.9875
528.30034	9036.2875
532.35792	8904.0875
536.41261	8736.7875
540.46441	8581.2875
544.51333	8513.6875
548.55936	8544.8875
552.60252	8650.1875
556.64279	8822.9875
560.6802	8885.6875
564.71473	8970.5875
568.7464	9210.3875
572.7752	9385.9875
576.80114	9245.5875
580.82422	9051.7875
584.84444	8990.2875
588.86181	8984.6875
592.87633	9008.9875
596.888	9065.5875
600.89682	9353.3875
604.9028	10217.5875
608.90594	12450.4875
612.90624	15405.7875
616.90371	14981.0875
620.89834	11275.9875
624.89015	9496.9875
628.87913	9148.4875
632.86528	9200.7875
636.84862	9352.1875
640.82913	9282.3875
644.80683	8977.6875
648.78172	8785.3875
652.75379	8798.8875
656.72306	9042.5875
660.68952	9393.8875
664.65319	9338.0875
668.61405	9009.3875
672.57211	8828.5875
676.52738	8813.1875
680.47986	8809.8875
684.42955	8802.8875
688.37646	8802.3875
692.32058	8844.6875
696.26192	8908.2875
700.20048	8995.8875
704.13626	9064.7875
708.06928	9043.6875
711.99952	8994.4875
715.927	8990.4875
719.85171	8982.8875
723.77365	9011.1875
727.69284	8952.4875
731.60928	8902.2875
735.52295	8915.6875
739.43388	8916.7875
743.34206	8988.6875
747.24749	9023.1875
751.15017	9078.9875
755.05012	9200.7875
758.94733	9528.2875
762.8418	10196.8875
766.73354	11411.9875
770.62254	12744.3875
774.50882	13568.6875
778.39237	13172.1875
782.27321	11765.5875
786.15132	10409.8875
790.02671	9619.1875
793.89938	9281.8875
797.76935	9160.7875
801.6366	9115.4875
805.50115	9103.7875
809.36299	9093.7875
813.22213	9095.3875
817.07857	9086.3875
820.93231	9054.8875
824.78336	9058.6875
828.63172	9070.8875
832.47738	9093.0875
836.32036	9070.2875
840.16066	9027.7875
843.99827	9021.5875
847.8332	9020.7875
851.66546	9012.5875
855.49504	9013.1875
859.32195	9020.7875
863.1462	9015.7875
866.96777	8988.2875
870.78668	8993.4875
874.60293	9043.0875
878.41652	9073.1875
882.22745	9132.4875
886.03573	9178.3875
889.84136	9171.8875
893.64433	9134.5875
897.44466	9084.0875
901.24235	9082.1875
905.0374	9052.6875
908.8298	9029.2875
912.61957	9005.8875
916.40671	9018.4875
920.19121	9056.4875
923.97308	9106.3875
927.75233	9170.1875
931.52895	9223.9875
935.30295	9182.2875
939.07433	9049.1875
942.84309	8902.5875
946.60924	8805.3875
950.37278	8745.8875
954.13371	8718.6875
957.89203	8678.7875
961.64774	8683.3875
965.40086	8676.3875
969.15137	8652.2875
972.89929	8629.6875
976.64461	8630.2875
980.38733	8645.2875
984.12747	8653.1875
987.86502	8687.7875
991.59999	8750.1875
995.33237	8783.4875
999.06217	8906.3875
1002.78939	9071.6875
1006.51404	9230.5875
1010.23611	9353.3875
1013.95561	9518.9875
1017.67255	9486.7875
1021.38692	9417.3875
1025.09872	9305.2875
1028.80796	9273.6875
1032.51465	9312.6875
1036.21877	9371.2875
1039.92035	9457.9875
1043.61937	9437.0875
1047.31584	9391.6875
1051.00976	9344.4875
1054.70114	9328.8875
1058.38998	9318.1875
1062.07627	9329.9875
1065.76003	9401.1875
1069.44126	9462.4875
1073.11995	9541.2875
1076.79611	9596.3875
1080.46974	9707.1875
1084.14085	9825.5875
1087.80943	9969.9875
1091.47549	10040.6875
1095.13903	9910.4875
1098.80005	9695.9875
1102.45857	9501.8875
1106.11456	9436.9875
1109.76805	9469.1875
1113.41903	9617.6875
1117.06751	9850.5875
1120.71348	10093.6875
1124.35696	10372.1875
1127.99793	10657.5875
1131.63641	10665.8875
1135.2724	10374.8875
1138.90589	10061.0875
1142.5369	9843.5875
1146.16542	9696.8875
1149.79145	9570.8875
1153.415	9553.8875
1157.03607	9589.0875
1160.65467	9692.8875
1164.27079	9876.5875
1167.88443	10203.2875
1171.49561	10734.9875
1175.10432	11610.5875
1178.71056	12843.0875
1182.31434	13822.6875
1185.91565	14096.3875
1189.51451	13808.4875
1193.11091	13097.6875
1196.70485	12267.9875
1200.29634	11709.9875
1203.88538	11335.2875
1207.47197	10898.1875
1211.05612	10469.8875
1214.63782	10244.2875
1218.21708	10156.9875
1221.79391	10145.2875
1225.36829	10193.7875
1228.94024	10264.4875
1232.50976	10276.2875
1236.07685	10384.7875
1239.6415	10412.7875
1243.20374	10453.5875
1246.76355	10468.5875
1250.32093	10573.8875
1253.8759	10711.7875
1257.42845	10913.4875
1260.97859	11125.5875
1264.52631	11284.5875
1268.07163	11506.7875
1271.61453	11712.4875
1275.15503	11859.7875
1278.69312	11956.8875
1282.22882	12016.9875
1285.76211	12144.0875
1289.29301	12380.0875
1292.82151	12663.5875
1296.34761	12896.4875
1299.87133	13334.0875
1303.39266	14054.3875
1306.9116	15232.4875
1310.42815	16457.6875
1313.94233	17219.8875
1317.45412	16899.5875
1320.96354	15955.6875
1324.47058	14936.3875
1327.97525	14112.7875
1331.47754	13594.2875
1334.97747	13478.0875
1338.47502	13661.7875
1341.97022	14009.8875
1345.46305	14428.3875
1348.95352	15029.3875
1352.44163	15867.3875
1355.92738	17086.7875
1359.41078	19003.6875
1362.89183	20814.9875
1366.37053	20431.3875
1369.84688	17901.7875
1373.32088	15293.0875
1376.79254	13528.7875
1380.26186	12619.0875
1383.72883	12193.0875
1387.19347	11846.3875
1390.65578	11517.2875
1394.11575	11221.6875
1397.57339	11053.1875
1401.0287	11022.3875
1404.48168	11117.9875
1407.93234	11332.6875
1411.38068	11481.9875
1414.82669	11581.7875
1418.27039	11524.1875
1421.71177	11397.6875
1425.15083	11223.1875
1428.58758	11101.1875
1432.02203	11134.9875
1435.45416	11169.2875
1438.88399	11205.8875
1442.31151	11193.5875
1445.73673	11233.1875
1449.15965	11263.1875
1452.58027	11261.6875
1455.9986	11175.5875
1459.41463	11143.9875
1462.82837	11177.3875
1466.23982	11326.1875
1469.64898	11516.1875
1473.05586	11676.1875
1476.46045	11765.9875
1479.86276	11959.4875
1483.26279	12231.0875
1486.66054	12536.5875
1490.05602	12901.9875
1493.44922	13437.7875
1496.84016	14161.5875
1500.22882	15209.2875
1503.61521	16633.9875
1506.99934	18206.3875
1510.38121	19549.3875
1513.76081	19974.2875
1517.13816	19031.7875
1520.51324	17103.6875
1523.88607	15204.6875
1527.25665	13865.2875
1530.62498	13155.1875
1533.99105	12726.9875
1537.35488	12445.2875
1540.71647	12314.0875
1544.07581	12336.6875
1547.4329	12322.6875
1550.78776	12326.2875
1554.14038	12320.4875
1557.49077	12390.1875
1560.83892	12482.4875
1564.18484	12672.2875
1567.52853	12929.3875
1570.86999	13179.2875
1574.20922	13355.6875
1577.54624	13314.3875
1580.88103	12866.6875
1584.2136	12243.8875
1587.54395	11910.7875
1590.87208	11931.3875
1594.19801	12368.6875
1597.52172	12991.7875
1600.84321	13308.6875
1604.16251	13046.8875
1607.47959	12506.6875
1610.79447	11881.3875
1614.10715	11299.7875
1617.41763	10831.8875
1620.7259	10488.8875
1624.03199	10337.1875
1627.33587	10328.7875
1630.63757	10467.5875
1633.93707	10751.1875
1637.23439	11201.8875
1640.52951	11827.7875
1643.82246	12672.7875
1647.11321	13674.1875
1650.40179	14470.0875
1653.68819	14341.7875
1656.97241	13109.3875
1660.25446	11609.0875
1663.53433	10534.1875
1666.81203	9897.3875
1670.08756	9521.9875
1673.36092	9293.8875
1676.63211	9138.2875
1679.90115	9030.6875
1683.16801	8928.2875
1686.43272	8856.1875
1689.69527	8808.9875
1692.95567	8762.8875
1696.2139	8756.8875
1699.46999	8754.7875
1702.72392	8742.9875
1705.97571	8730.1875
1709.22535	8692.5875
1712.47284	8678.9875
1715.71819	8712.0875
1718.96139	8685.4875
1722.20246	8673.4875
1725.44139	8642.5875
1728.67818	8596.7875
1731.91284	8565.4875
1735.14537	8511.2875
1738.37576	8492.8875
1741.60403	8466.1875
1744.83017	8424.3875
1748.05418	8434.4875
1751.27607	8423.8875
1754.49584	8415.4875
1757.71349	8413.8875
1760.92903	8413.2875
1764.14244	8420.1875
1767.35375	8392.1875
1770.56294	8385.1875
1773.77002	8373.0875
1776.97499	8363.7875
1780.17785	8330.1875
1783.37861	8332.2875
1786.57727	8316.1875
1789.77382	8289.6875
1792.96828	8277.9875
1796.16064	8287.8875
1799.3509	8265.0875
1802.53907	8266.7875
1805.72514	8241.5875
1808.90913	8235.9875
1812.09102	8205.3875
1815.27083	8196.8875
1818.44856	8192.2875
1821.6242	8172.2875
1824.79776	8132.9875
1827.96924	8135.1875
1831.13864	8122.9875
1834.30597	8135.7875
1837.47122	8133.9875
1840.6344	8109.5875
1843.7955	8114.7875
1846.95454	8154.9875
1850.11151	8111.7875
1853.26642	8099.8875
1856.41926	8088.2875
1859.57004	8131.7875
1862.71876	8111.4875
1865.86542	8120.7875
1869.01003	8095.1875
1872.15258	8096.2875
1875.29308	8101.1875
1878.43152	8103.0875
1881.56792	8102.6875
1884.70227	8085.8875
1887.83457	8084.3875
1890.96482	8098.1875
1894.09304	8085.9875
1897.21921	8077.3875
1900.34335	8088.2875
1903.46544	8066.6875
1906.58551	8066.7875
1909.70353	8077.1875
1912.81953	8067.8875
1915.93349	8077.9875
1919.04543	8061.6875
1922.15534	8054.6875
1925.26322	8025.9875
1928.36908	8025.1875
1931.47292	8016.3875
1934.57473	7985.8875
1937.67453	7970.9875
1940.77232	7929.9875
1943.86808	7910.3875
1946.96184	7891.2875
1950.05358	7829.2875
1953.14331	7826.0875
1956.23103	7808.7875
1959.31675	7783.8875
1962.40046	7772.6875
1965.48217	7760.5875
1968.56188	7708.5875
1971.63959	7692.1875
1974.7153	7682.1875
1977.78901	7650.1875
1980.86073	7622.6875
1983.93046	7609.5875
1986.99819	7589.9875
1990.06394	7576.5875
1993.1277	7524.5875
1996.18947	7521.4875
1999.24925	7497.1875
2002.30706	7487.6875
2005.36288	7449.3875
2008.41672	7449.6875
2011.46859	7418.2875
2014.51848	7411.3875
2017.56639	7378.9875
2020.61233	7372.2875
2023.6563	7334.7875
2026.6983	7335.6875
2029.73833	7326.8875
2032.7764	7296.4875
2035.8125	7265.8875
2038.84664	7251.8875
2041.87881	7251.4875
2044.90903	7240.5875
2047.93729	7214.1875
2050.96359	7211.7875
2053.98794	7214.6875
2057.01034	7195.8875
2060.03078	7191.4875
2063.04927	7192.2875
2066.06582	7187.5875
2069.08042	7188.6875
2072.09307	7163.4875
2075.10378	7131.0875
2078.11255	7158.2875
2081.11938	7163.8875
2084.12426	7162.3875
2087.12722	7141.0875
2090.12824	7154.9875
2093.12732	7143.4875
2096.12447	7145.1875
2099.11969	7144.5875
2102.11299	7142.6875
2105.10435	7138.0875
2108.09379	7148.0875
2111.08131	7162.5875
2114.0669	7159.6875
2117.05057	7159.1875
2120.03233	7175.1875
2123.01216	7177.6875
2125.99008	7185.9875
2128.96609	7175.9875
2131.94018	7190.3875
2134.91236	7201.4875
2137.88263	7208.7875
2140.851	7223.3875
2143.81746	7222.1875
2146.78201	7217.6875
2149.74466	7209.9875
2152.7054	7215.8875
2155.66425	7213.5875
2158.6212	7179.6875
2161.57625	7207.4875
2164.52941	7198.1875
2167.48067	7209.2875
2170.43004	7180.8875
2173.37752	7188.1875
2176.32311	7185.9875
2179.26681	7186.0875
2182.20863	7188.4875
2185.14856	7180.0875
2188.08661	7162.3875
2191.02278	7195.9875
2193.95707	7159.9875
2196.88948	7157.8875
2199.82001	7157.8875
2202.74867	7152.4875
2205.67545	7146.3875
2208.60037	7153.4875
2211.52341	7143.5875
2214.44458	7110.0875
2217.36388	7094.3875
2220.28132	7102.4875
2223.1969	7073.5875
2226.11061	7070.7875
2229.02246	7069.3875
2231.93245	7035.2875
2234.84058	6998.8875
2237.74686	7009.6875
2240.65128	7000.3875
2243.55385	6977.8875
2246.45456	6958.9875
2249.35343	6976.8875
2252.25044	6954.8875
2255.14561	6957.3875
2258.03893	6955.7875
2260.93041	6944.1875
2263.82004	6913.4875
2266.70783	6920.3875
2269.59378	6901.3875
2272.4779	6875.5875
2275.36017	6878.6875
2278.24061	6862.1875
2281.11922	6825.1875
2283.996	6825.2875
2286.87094	6812.4875
2289.74405	6811.8875
2292.61534	6789.8875
2295.4848	6770.8875
2298.35243	6780.1875
2301.21824	6752.4875
2304.08223	6765.0875
2306.94439	6758.9875
2309.80474	6755.8875
2312.66327	6759.4875
2315.51999	6738.0875
2318.37489	6732.2875
2321.22797	6707.9875
2324.07925	6714.1875
2326.92871	6720.1875
2329.77637	6709.5875
2332.62222	6693.2875
2335.46626	6675.2875
2338.3085	6657.0875
2341.14893	6652.2875
2343.98756	6642.3875
2346.8244	6645.2875
2349.65943	6649.7875
2352.49267	6646.3875
2355.32411	6660.2875
2358.15376	6647.4875
2360.98161	6665.8875
2363.80768	6636.6875
2366.63195	6630.8875
2369.45444	6641.5875
2372.27514	6634.8875
2375.09405	6620.9875
2377.91118	6601.5875
2380.72652	6593.0875
2383.54009	6574.2875
2386.35187	6557.4875
2389.16188	6520.8875
2391.97011	6507.3875
2394.77657	6506.0875
2397.58125	6478.0875
2400.38416	6474.0875
2403.18529	6446.9875
2405.98466	6448.4875
2408.78226	6425.3875
2411.57809	6420.7875
2414.37216	6417.2875
2417.16446	6409.9875
2419.955	6378.6875
2422.74378	6377.0875
2425.5308	6375.4875
2428.31606	6374.2875
2431.09956	6362.9875
2433.88131	6353.8875
2436.6613	6366.3875
2439.43954	6355.4875
2442.21603	6347.2875
2444.99077	6337.5875
2447.76377	6345.0875
2450.53501	6336.5875
2453.30451	6315.0875
2456.07226	6323.8875
2458.83827	6304.6875
2461.60254	6314.4875
2464.36507	6294.4875
2467.12586	6287.5875
2469.88492	6290.8875
2472.64224	6271.4875
2475.39782	6292.0875
2478.15167	6293.6875
2480.90379	6280.9875
2483.65417	6277.9875
2486.40283	6300.5875
2489.14976	6282.6875
2491.89497	6295.0875
2494.63845	6301.4875
2497.3802	6285.0875
2500.12024	6257.8875
2502.85855	6256.2875
2505.59514	6250.5875
2508.33002	6246.8875
2511.06318	6210.9875
2513.79462	6190.7875
2516.52435	6188.8875
2519.25237	6183.8875
2521.97867	6157.1875
2524.70327	6148.7875
2527.42616	6128.7875
2530.14734	6132.6875
2532.86681	6120.0875
2535.58458	6107.9875
2538.30065	6091.6875
2541.01501	6101.0875
2543.72768	6071.1875
2546.43864	6089.7875
2549.14791	6063.0875
2551.85548	6064.6875
2554.56136	6063.7875
2557.26554	6049.2875
2559.96803	6047.6875
2562.66883	6020.3875
2565.36794	6004.9875
2568.06536	6020.7875
2570.7611	5990.1875
2573.45514	5985.0875
2576.14751	5978.2875
2578.83819	5962.7875
2581.52719	5959.4875
2584.21451	5941.3875
2586.90015	5930.4875
2589.58411	5936.2875
2592.2664	5932.9875
2594.94701	5896.7875
2597.62594	5899.2875
2600.30321	5881.8875
2602.9788	5882.4875
2605.65273	5858.2875
2608.32498	5863.0875
2610.99557	5872.9875
2613.66449	5848.2875
2616.33175	5848.5875
2618.99734	5843.9875
2621.66128	5835.9875
2624.32355	5810.2875
2626.98416	5810.0875
2629.64311	5808.8875
2632.30041	5821.7875
2634.95605	5810.9875
2637.61004	5771.6875
2640.26238	5756.2875
2642.91306	5763.3875
2645.56209	5766.5875
2648.20948	5735.2875
2650.85521	5740.9875
2653.4993	5732.8875
2656.14175	5736.1875
2658.78255	5745.4875
2661.42171	5748.3875
2664.05923	5729.2875
2666.6951	5733.6875
2669.32934	5742.8875
2671.96194	5747.5875
2674.59291	5743.4875
2677.22224	5732.6875
2679.84993	5746.7875
2682.476	5757.1875
2685.10043	5749.5875
2687.72324	5746.0875
2690.34441	5735.3875
2692.96396	5746.9875
2695.58188	5756.2875
2698.19818	5733.9875
2700.81285	5736.2875
2703.4259	5751.3875
2706.03733	5763.9875
2708.64714	5746.6875
2711.25533	5745.0875
2713.86191	5728.2875
2716.46687	5730.6875
2719.07021	5752.1875
2721.67194	5742.3875
2724.27206	5726.5875
2726.87057	5733.9875
2729.46747	5745.2875
2732.06276	5732.9875
2734.65644	5739.3875
2737.24852	5713.5875
2739.83899	5704.7875
2742.42786	5707.2875
2745.01513	5698.7875
2747.60079	5679.5875
2750.18486	5669.7875
2752.76733	5685.7875
2755.3482	5658.6875
2757.92747	5692.5875
2760.50515	5644.3875
2763.08123	5642.3875
2765.65573	5645.1875
2768.22863	5621.5875
2770.79994	5632.5875
2773.36967	5609.7875
2775.9378	5605.9875
2778.50435	5591.7875
2781.06932	5594.7875
2783.6327	5593.0875
2786.1945	5587.5875
2788.75471	5561.8875
2791.31335	5567.4875
2793.87041	5561.1875
2796.42589	5527.4875
2798.97979	5540.4875
2801.53212	5514.1875
2804.08288	5522.4875
2806.63206	5502.3875
2809.17967	5489.7875
2811.72571	5489.1875
2814.27018	5501.5875
2816.81308	5492.6875
2819.35442	5481.1875
2821.89419	5461.7875
2824.43239	5481.7875
2826.96904	5473.9875
2829.50412	5459.9875
2832.03763	5470.0875
2834.56959	5481.8875
2837.1	5449.9875
2839.62884	5457.6875
2842.15613	5473.9875
2844.68186	5496.6875
2847.20604	5514.5875
2849.72867	5542.8875
2852.24974	5549.5875
2854.76927	5552.8875
2857.28724	5531.1875
2859.80367	5507.4875
2862.31855	5515.7875
2864.83189	5506.5875
2867.34368	5484.9875
2869.85393	5492.4875
2872.36264	5471.3875
2874.8698	5477.5875
2877.37543	5464.2875
2879.87952	5458.7875
2882.38207	5468.2875
2884.88308	5463.5875
2887.38256	5468.9875
2889.88051	5450.5875
2892.37692	5459.2875
2894.8718	5443.6875
2897.36515	5471.6875
2899.85698	5464.3875
2902.34727	5482.5875
2904.83604	5473.9875
2907.32328	5494.3875
2909.809	5465.3875
2912.29319	5467.8875
2914.77587	5453.1875
2917.25702	5479.9875
2919.73665	5451.1875
2922.21476	5435.1875
2924.69136	5427.5875
2927.16644	5437.1875
2929.64	5411.0875
2932.11205	5421.8875
2934.58258	5380.4875
2937.05161	5382.2875
2939.51912	5378.3875
2941.98513	5371.1875
2944.44962	5349.3875
2946.91261	5327.2875
2949.37409	5320.2875
2951.83407	5326.0875
2954.29254	5303.9875
2956.74951	5289.7875
2959.20498	5294.9875
2961.65895	5274.1875
2964.11142	5260.8875
2966.56239	5245.6875
2969.01186	5252.4875
2971.45984	5235.6875
2973.90632	5205.3875
2976.35131	5217.0875
2978.7948	5195.8875
2981.23681	5189.5875
2983.67732	5171.7875
2986.11635	5148.2875
2988.55388	5151.0875
2990.98993	5132.9875
2993.4245	5124.2875
2995.85758	5132.1875
2998.28917	5098.8875
3000.71928	5101.3875
3003.14791	5087.0875
3005.57506	5074.2875
3008.00073	5067.8875
3010.42493	5068.4875
3012.84764	5068.2875
3015.26888	5059.6875
3017.68865	5034.3875
3020.10694	5053.4875
3022.52376	5022.3875
3024.9391	5015.8875
3027.35298	5013.3875
3029.76539	5011.2875
3032.17632	5000.4875
3034.5858	4990.6875
3036.9938	4988.2875
3039.40034	4975.7875
3041.80542	4964.1875
3044.20903	4949.2875
3046.61118	4967.8875
3049.01187	4932.7875
3051.4111	4932.4875
3053.80888	4912.3875
3056.20519	4932.1875
3058.60005	4912.3875
3060.99345	4924.7875
3063.3854	4899.7875
3065.7759	4904.0875
3068.16494	4878.9875
3070.55254	4891.4875
3072.93868	4858.5875
3075.32338	4859.4875
3077.70662	4857.3875
3080.08842	4848.2875
3082.46878	4831.0875
3084.84769	4816.6875
3087.22515	4810.1875
3089.60118	4828.7875
3091.97576	4818.6875
3094.3489	4821.5875
3096.72061	4819.7875
3099.09087	4828.8875
3101.4597	4808.4875
3103.82709	4817.1875
3106.19305	4813.9875
3108.55757	4815.8875
