Data from AgNPs_FTO_APTES_UA_200uM_R6G_10uM_NaF_0.1M_Addition_RamanShift__19__16-22-27-515.txt Node

Date: Fri Dec 17 16:22:27 GMT 2021
User: TCL
Spectrometer: QEP01345
Trigger mode: 4
Integration Time (sec): 7.000000E0
Scans to average: 10
Electric dark correction enabled: true
Nonlinearity correction enabled: false
Boxcar width: 0
XAxis mode: Raman Shifts
Number of Pixels in Spectrum: 1044
>>>>>Begin Spectral Data<<<<<
46.04893	0.325
50.45542	-0.275
54.85868	-0.375
59.25871	0.625
63.6555	47.025
68.04907	47.925
72.43941	48.725
76.82654	51.825
81.21044	56.525
85.59113	55.125
89.96862	62.125
94.34289	63.625
98.71396	63.725
103.08183	64.925
107.4465	69.425
111.80798	69.325
116.16626	68.025
120.52136	68.325
124.87327	73.425
129.222	76.625
133.56755	79.725
137.90993	82.925
142.24913	91.125
146.58517	97.925
150.91804	113.425
155.24774	128.925
159.57429	163.725
163.89768	205.325
168.21792	272.525
172.53501	352.025
176.84895	490.225
181.15975	676.125
185.46741	957.525
189.77193	1319.325
194.07331	1783.825
198.37157	2289.725
202.6667	2832.925
206.9587	3372.925
211.24758	3905.825
215.53334	4435.925
219.81599	5002.625
224.09553	5606.125
228.37195	6296.125
232.64527	7073.525
236.91549	7891.825
241.18261	8714.225
245.44663	9497.025
249.70755	10161.125
253.96539	10732.225
258.22014	11186.325
262.4718	11578.025
266.72039	11849.325
270.96589	12016.425
275.20832	12019.425
279.44768	11877.125
283.68397	11676.425
287.91719	11477.725
292.14735	11369.325
296.37445	11358.325
300.59849	11401.925
304.81948	11521.225
309.03742	11504.225
313.25231	11347.225
317.46415	11059.025
321.67296	10695.225
325.87872	10451.125
330.08145	10366.025
334.28114	10373.125
338.47781	10464.325
342.67145	10598.525
346.86207	10818.025
351.04966	11067.625
355.23424	11335.825
359.4158	11613.525
363.59435	11802.525
367.76989	11939.925
371.94243	12084.925
376.11196	12202.125
380.27849	12303.225
384.44203	12384.525
388.60257	12422.525
392.76012	12468.025
396.91468	12560.825
401.06626	12658.625
405.21485	12756.625
409.36047	12678.825
413.50311	12406.925
417.64277	12100.225
421.77947	11901.425
425.9132	11825.125
430.04396	11777.825
434.17176	11790.425
438.2966	11897.125
442.41849	11996.925
446.53742	12114.125
450.6534	12261.325
454.76644	12404.425
458.87653	12485.825
462.98368	12479.225
467.08789	12519.225
471.18916	12488.725
475.2875	12431.925
479.38291	12344.725
483.4754	12280.925
487.56496	12190.025
491.6516	12192.325
495.73531	12194.825
499.81612	12210.425
503.89401	12237.425
507.96899	12355.125
512.04106	12378.525
516.11023	12492.625
520.1765	12572.425
524.23987	12583.525
528.30034	12516.125
532.35792	12470.825
536.41261	12407.325
540.46441	12366.225
544.51333	12287.225
548.55936	12261.625
552.60252	12286.625
556.64279	12350.825
560.6802	12391.825
564.71473	12310.025
568.7464	12367.425
572.7752	12429.125
576.80114	12359.325
580.82422	12316.625
584.84444	12313.525
588.86181	12359.925
592.87633	12359.225
596.888	12423.125
600.89682	12640.325
604.9028	13308.225
608.90594	14930.625
612.90624	16944.225
616.90371	16510.025
620.89834	13861.925
624.89015	12589.625
628.87913	12381.825
632.86528	12607.225
636.84862	12851.825
640.82913	12837.925
644.80683	12496.925
648.78172	12158.425
652.75379	12016.425
656.72306	12088.425
660.68952	12286.025
664.65319	12284.225
668.61405	12064.425
672.57211	12067.325
676.52738	12112.925
680.47986	12093.225
684.42955	12011.225
688.37646	11892.725
692.32058	11844.625
696.26192	11854.725
700.20048	11873.725
704.13626	11917.825
708.06928	11881.125
711.99952	11841.425
715.927	11814.025
719.85171	11817.125
723.77365	11818.025
727.69284	11838.625
731.60928	11791.625
735.52295	11800.925
739.43388	11797.125
743.34206	11822.325
747.24749	11791.825
751.15017	11766.425
755.05012	11735.525
758.94733	11882.625
762.8418	12343.825
766.73354	13291.525
770.62254	14536.425
774.50882	15400.825
778.39237	15082.925
782.27321	13823.925
786.15132	12676.325
790.02671	11979.725
793.89938	11624.725
797.76935	11476.125
801.6366	11426.725
805.50115	11369.825
809.36299	11403.425
813.22213	11367.325
817.07857	11317.425
820.93231	11267.225
824.78336	11208.425
828.63172	11175.525
832.47738	11151.025
836.32036	11107.025
840.16066	11069.125
843.99827	11032.925
847.8332	11004.825
851.66546	11008.925
855.49504	11012.725
859.32195	11014.025
863.1462	11055.125
866.96777	11072.425
870.78668	11075.525
874.60293	11085.725
878.41652	11093.025
882.22745	11111.225
886.03573	11168.025
889.84136	11187.125
893.64433	11162.625
897.44466	11086.525
901.24235	10985.325
905.0374	10894.425
908.8298	10826.425
912.61957	10741.425
916.40671	10759.925
920.19121	10781.225
923.97308	10788.125
927.75233	10831.125
931.52895	10829.425
935.30295	10790.025
939.07433	10662.625
942.84309	10533.625
946.60924	10484.825
950.37278	10453.825
954.13371	10415.625
957.89203	10374.925
961.64774	10326.625
965.40086	10257.025
969.15137	10204.225
972.89929	10131.725
976.64461	10135.625
980.38733	10096.725
984.12747	10090.725
987.86502	10103.725
991.59999	10125.525
995.33237	10132.625
999.06217	10233.025
1002.78939	10316.025
1006.51404	10425.725
1010.23611	10530.125
1013.95561	10630.125
1017.67255	10699.125
1021.38692	10633.225
1025.09872	10539.525
1028.80796	10418.225
1032.51465	10374.025
1036.21877	10381.925
1039.92035	10401.525
1043.61937	10454.025
1047.31584	10481.625
1051.00976	10495.625
1054.70114	10509.725
1058.38998	10524.325
1062.07627	10568.225
1065.76003	10658.425
1069.44126	10729.325
1073.11995	10848.625
1076.79611	10935.425
1080.46974	10957.625
1084.14085	10914.725
1087.80943	10922.825
1091.47549	10950.225
1095.13903	10916.125
1098.80005	10836.025
1102.45857	10706.525
1106.11456	10610.025
1109.76805	10595.325
1113.41903	10682.625
1117.06751	10825.325
1120.71348	11061.325
1124.35696	11313.325
1127.99793	11531.225
1131.63641	11805.525
1135.2724	11750.225
1138.90589	11534.325
1142.5369	11301.625
1146.16542	11066.725
1149.79145	10811.125
1153.415	10646.225
1157.03607	10570.725
1160.65467	10663.425
1164.27079	10850.325
1167.88443	11175.725
1171.49561	11607.325
1175.10432	12258.125
1178.71056	13200.425
1182.31434	13978.325
1185.91565	14303.125
1189.51451	14185.825
1193.11091	13752.525
1196.70485	13163.725
1200.29634	12695.025
1203.88538	12278.125
1207.47197	11860.725
1211.05612	11416.825
1214.63782	11090.425
1218.21708	10941.425
1221.79391	10830.725
1225.36829	10788.825
1228.94024	10781.625
1232.50976	10763.725
1236.07685	10798.925
1239.6415	10809.425
1243.20374	10809.025
1246.76355	10871.225
1250.32093	10950.325
1253.8759	11055.225
1257.42845	11251.025
1260.97859	11457.525
1264.52631	11657.925
1268.07163	11858.525
1271.61453	12125.725
1275.15503	12271.625
1278.69312	12430.625
1282.22882	12538.825
1285.76211	12719.025
1289.29301	12958.425
1292.82151	13286.225
1296.34761	13669.025
1299.87133	14096.925
1303.39266	14686.325
1306.9116	15416.325
1310.42815	16175.225
1313.94233	16624.125
1317.45412	16377.825
1320.96354	15768.225
1324.47058	15107.425
1327.97525	14452.025
1331.47754	13942.425
1334.97747	13653.725
1338.47502	13593.825
1341.97022	13737.525
1345.46305	14085.925
1348.95352	14656.525
1352.44163	15613.925
1355.92738	16736.725
1359.41078	18135.825
1362.89183	19507.825
1366.37053	19434.925
1369.84688	17426.225
1373.32088	15075.325
1376.79254	13489.925
1380.26186	12699.725
1383.72883	12252.425
1387.19347	11928.625
1390.65578	11665.925
1394.11575	11387.325
1397.57339	11196.125
1401.0287	11054.525
1404.48168	11020.425
1407.93234	10970.125
1411.38068	10889.125
1414.82669	10788.325
1418.27039	10675.625
1421.71177	10624.925
1425.15083	10509.125
1428.58758	10385.525
1432.02203	10353.125
1435.45416	10423.125
1438.88399	10465.825
1442.31151	10572.625
1445.73673	10645.425
1449.15965	10744.225
1452.58027	10806.625
1455.9986	10869.225
1459.41463	10986.825
1462.82837	11103.725
1466.23982	11229.025
1469.64898	11332.425
1473.05586	11445.525
1476.46045	11481.725
1479.86276	11549.325
1483.26279	11593.025
1486.66054	11706.825
1490.05602	11859.725
1493.44922	12142.025
1496.84016	12624.125
1500.22882	13452.225
1503.61521	14631.925
1506.99934	15989.825
1510.38121	17173.225
1513.76081	17588.525
1517.13816	16922.125
1520.51324	15456.225
1523.88607	14032.625
1527.25665	13042.025
1530.62498	12423.725
1533.99105	12093.025
1537.35488	11844.725
1540.71647	11709.625
1544.07581	11534.825
1547.4329	11510.525
1550.78776	11455.925
1554.14038	11473.225
1557.49077	11604.125
1560.83892	11772.425
1564.18484	11959.425
1567.52853	12119.525
1570.86999	12323.225
1574.20922	12492.325
1577.54624	12514.525
1580.88103	12289.825
1584.2136	11774.525
1587.54395	11379.625
1590.87208	11238.825
1594.19801	11323.125
1597.52172	11672.925
1600.84321	11887.825
1604.16251	11749.925
1607.47959	11404.125
1610.79447	11025.625
1614.10715	10624.525
1617.41763	10263.525
1620.7259	9954.025
1624.03199	9742.225
1627.33587	9691.225
1630.63757	9737.325
1633.93707	9916.925
1637.23439	10266.225
1640.52951	10807.225
1643.82246	11606.525
1647.11321	12632.825
1650.40179	13443.225
1653.68819	13462.425
1656.97241	12553.525
1660.25446	11295.725
1663.53433	10338.125
1666.81203	9701.625
1670.08756	9291.525
1673.36092	9022.725
1676.63211	8827.625
1679.90115	8689.025
1683.16801	8612.525
1686.43272	8520.025
1689.69527	8451.625
1692.95567	8424.625
1696.2139	8385.925
1699.46999	8331.525
1702.72392	8280.725
1705.97571	8218.625
1709.22535	8144.225
1712.47284	8116.325
1715.71819	8040.725
1718.96139	8018.125
1722.20246	7976.425
1725.44139	7936.425
1728.67818	7865.225
1731.91284	7821.125
1735.14537	7791.825
1738.37576	7750.625
1741.60403	7716.225
1744.83017	7663.825
1748.05418	7657.825
1751.27607	7646.925
1754.49584	7620.125
1757.71349	7632.725
1760.92903	7623.525
1764.14244	7610.025
1767.35375	7603.125
1770.56294	7578.725
1773.77002	7548.525
1776.97499	7544.325
1780.17785	7516.325
1783.37861	7477.625
1786.57727	7444.925
1789.77382	7439.525
1792.96828	7412.225
1796.16064	7406.625
1799.3509	7381.925
1802.53907	7378.425
1805.72514	7337.025
1808.90913	7300.825
1812.09102	7307.725
1815.27083	7278.325
1818.44856	7245.125
1821.6242	7233.025
1824.79776	7204.325
1827.96924	7195.225
1831.13864	7202.525
1834.30597	7205.425
1837.47122	7171.825
1840.6344	7179.825
1843.7955	7168.625
1846.95454	7168.725
1850.11151	7149.625
1853.26642	7122.925
1856.41926	7130.125
1859.57004	7134.625
1862.71876	7095.725
1865.86542	7085.825
1869.01003	7094.925
1872.15258	7111.425
1875.29308	7066.625
1878.43152	7060.725
1881.56792	7041.325
1884.70227	7037.025
1887.83457	7036.625
1890.96482	7031.425
1894.09304	7012.425
1897.21921	7007.525
1900.34335	6989.225
1903.46544	6972.225
1906.58551	6968.625
1909.70353	6973.325
1912.81953	6947.225
1915.93349	6929.225
1919.04543	6906.625
1922.15534	6903.925
1925.26322	6886.725
1928.36908	6881.025
1931.47292	6842.525
1934.57473	6847.325
1937.67453	6823.825
1940.77232	6794.925
1943.86808	6759.325
1946.96184	6777.525
1950.05358	6752.425
1953.14331	6738.925
1956.23103	6712.625
1959.31675	6693.425
1962.40046	6659.525
1965.48217	6655.525
1968.56188	6633.925
1971.63959	6607.525
1974.7153	6593.825
1977.78901	6549.525
1980.86073	6547.125
1983.93046	6520.225
1986.99819	6477.025
1990.06394	6473.525
1993.1277	6456.225
1996.18947	6443.725
1999.24925	6408.825
2002.30706	6397.725
2005.36288	6374.225
2008.41672	6366.025
2011.46859	6348.625
2014.51848	6321.925
2017.56639	6301.425
2020.61233	6273.425
2023.6563	6263.425
2026.6983	6241.725
2029.73833	6225.425
2032.7764	6217.525
2035.8125	6191.725
2038.84664	6174.325
2041.87881	6171.825
2044.90903	6141.425
2047.93729	6127.425
2050.96359	6125.625
2053.98794	6128.525
2057.01034	6103.025
2060.03078	6099.225
2063.04927	6089.225
2066.06582	6112.725
2069.08042	6081.325
2072.09307	6076.025
2075.10378	6055.525
2078.11255	6045.025
2081.11938	6049.025
2084.12426	6038.825
2087.12722	6053.225
2090.12824	6045.125
2093.12732	6041.225
2096.12447	6053.325
2099.11969	6049.225
2102.11299	6043.825
2105.10435	6034.925
2108.09379	6036.325
2111.08131	6047.525
2114.0669	6046.025
2117.05057	6056.425
2120.03233	6056.325
2123.01216	6076.525
2125.99008	6073.225
2128.96609	6069.325
2131.94018	6092.625
2134.91236	6092.825
2137.88263	6084.925
2140.851	6075.925
2143.81746	6091.925
2146.78201	6079.825
2149.74466	6089.325
2152.7054	6069.825
2155.66425	6067.725
2158.6212	6067.125
2161.57625	6068.225
2164.52941	6063.625
2167.48067	6060.925
2170.43004	6045.625
2173.37752	6046.725
2176.32311	6038.525
2179.26681	6038.325
2182.20863	6027.625
2185.14856	6018.025
2188.08661	6025.825
2191.02278	6016.325
2193.95707	6005.825
2196.88948	6006.725
2199.82001	6007.025
2202.74867	5999.325
2205.67545	5973.925
2208.60037	5967.725
2211.52341	5965.325
2214.44458	5942.625
2217.36388	5929.825
2220.28132	5922.025
2223.1969	5917.125
2226.11061	5890.825
2229.02246	5897.125
2231.93245	5863.225
2234.84058	5851.225
2237.74686	5857.225
2240.65128	5848.225
2243.55385	5838.925
2246.45456	5832.425
2249.35343	5825.425
2252.25044	5821.525
2255.14561	5796.925
2258.03893	5811.025
2260.93041	5790.425
2263.82004	5783.025
2266.70783	5758.725
2269.59378	5735.525
2272.4779	5732.325
2275.36017	5714.525
2278.24061	5706.425
2281.11922	5699.925
2283.996	5707.625
2286.87094	5676.325
2289.74405	5646.925
2292.61534	5651.325
2295.4848	5640.025
2298.35243	5656.425
2301.21824	5623.725
2304.08223	5617.525
2306.94439	5631.525
2309.80474	5623.625
2312.66327	5597.825
2315.51999	5597.125
2318.37489	5594.825
2321.22797	5603.125
2324.07925	5573.125
2326.92871	5570.525
2329.77637	5564.925
2332.62222	5562.725
2335.46626	5531.225
2338.3085	5528.425
2341.14893	5530.925
2343.98756	5509.625
2346.8244	5512.825
2349.65943	5510.325
2352.49267	5507.125
2355.32411	5506.825
2358.15376	5493.525
2360.98161	5505.525
2363.80768	5516.125
2366.63195	5513.825
2369.45444	5498.425
2372.27514	5489.025
2375.09405	5497.825
2377.91118	5464.025
2380.72652	5456.725
2383.54009	5448.525
2386.35187	5416.125
2389.16188	5417.225
2391.97011	5375.125
2394.77657	5387.725
2397.58125	5357.325
2400.38416	5353.225
2403.18529	5345.225
2405.98466	5351.425
2408.78226	5330.025
2411.57809	5310.025
2414.37216	5315.325
2417.16446	5319.025
2419.955	5299.025
2422.74378	5314.625
2425.5308	5294.225
2428.31606	5295.425
2431.09956	5284.825
2433.88131	5284.925
2436.6613	5270.625
2439.43954	5263.225
2442.21603	5261.525
2444.99077	5255.725
2447.76377	5256.925
2450.53501	5241.025
2453.30451	5246.325
2456.07226	5226.925
2458.83827	5234.025
2461.60254	5211.625
2464.36507	5215.425
2467.12586	5229.825
2469.88492	5205.325
2472.64224	5230.825
2475.39782	5217.425
2478.15167	5212.425
2480.90379	5205.625
2483.65417	5188.025
2486.40283	5214.225
2489.14976	5191.325
2491.89497	5199.325
2494.63845	5205.525
2497.3802	5186.625
2500.12024	5161.625
2502.85855	5176.125
2505.59514	5155.925
2508.33002	5177.525
2511.06318	5148.925
2513.79462	5137.125
2516.52435	5122.725
2519.25237	5120.725
2521.97867	5096.725
2524.70327	5076.025
2527.42616	5074.725
2530.14734	5070.825
2532.86681	5053.825
2535.58458	5053.625
2538.30065	5050.725
2541.01501	5037.325
2543.72768	5034.625
2546.43864	5021.825
2549.14791	5021.825
2551.85548	5013.325
2554.56136	4997.325
2557.26554	4999.125
2559.96803	5000.425
2562.66883	4978.525
2565.36794	4989.225
2568.06536	4980.525
2570.7611	4968.225
2573.45514	4951.925
2576.14751	4937.925
2578.83819	4925.725
2581.52719	4932.225
2584.21451	4910.625
2586.90015	4910.925
2589.58411	4904.525
2592.2664	4913.725
2594.94701	4880.225
2597.62594	4868.225
2600.30321	4851.325
2602.9788	4852.225
2605.65273	4846.125
2608.32498	4859.125
2610.99557	4824.325
2613.66449	4823.625
2616.33175	4832.925
2618.99734	4822.325
2621.66128	4805.225
2624.32355	4796.325
2626.98416	4788.725
2629.64311	4803.925
2632.30041	4796.825
2634.95605	4791.625
2637.61004	4776.825
2640.26238	4773.225
2642.91306	4759.025
2645.56209	4753.825
2648.20948	4759.525
2650.85521	4751.725
2653.4993	4760.425
2656.14175	4745.225
2658.78255	4747.925
2661.42171	4751.525
2664.05923	4730.025
2666.6951	4741.425
2669.32934	4736.125
2671.96194	4745.825
2674.59291	4749.125
2677.22224	4742.125
2679.84993	4743.525
2682.476	4734.725
2685.10043	4745.225
2687.72324	4710.825
2690.34441	4722.425
2692.96396	4731.425
2695.58188	4736.925
2698.19818	4722.925
2700.81285	4726.625
2703.4259	4743.425
2706.03733	4753.025
2708.64714	4738.525
2711.25533	4742.725
2713.86191	4741.425
2716.46687	4727.225
2719.07021	4715.625
2721.67194	4727.925
2724.27206	4730.725
2726.87057	4719.925
2729.46747	4728.325
2732.06276	4709.425
2734.65644	4717.325
2737.24852	4697.125
2739.83899	4692.025
2742.42786	4692.425
2745.01513	4673.125
2747.60079	4680.425
2750.18486	4677.625
2752.76733	4674.625
2755.3482	4658.625
2757.92747	4662.125
2760.50515	4652.825
2763.08123	4658.425
2765.65573	4628.625
2768.22863	4630.525
2770.79994	4625.025
2773.36967	4617.325
2775.9378	4629.425
2778.50435	4618.825
2781.06932	4599.525
2783.6327	4602.825
2786.1945	4598.725
2788.75471	4577.125
2791.31335	4557.425
2793.87041	4564.125
2796.42589	4536.625
2798.97979	4542.625
2801.53212	4532.425
2804.08288	4538.125
2806.63206	4524.825
2809.17967	4516.325
2811.72571	4507.925
2814.27018	4492.925
2816.81308	4504.925
2819.35442	4491.725
2821.89419	4486.525
2824.43239	4490.325
2826.96904	4476.825
2829.50412	4477.825
2832.03763	4474.425
2834.56959	4487.225
2837.1	4467.025
2839.62884	4476.725
2842.15613	4458.025
2844.68186	4478.025
2847.20604	4468.025
2849.72867	4479.125
2852.24974	4471.525
2854.76927	4474.825
2857.28724	4468.825
2859.80367	4470.525
2862.31855	4457.925
2864.83189	4460.725
2867.34368	4443.525
2869.85393	4455.725
2872.36264	4463.025
2874.8698	4465.025
2877.37543	4465.825
2879.87952	4453.525
2882.38207	4446.225
2884.88308	4434.625
2887.38256	4443.225
2889.88051	4449.825
2892.37692	4441.725
2894.8718	4421.725
2897.36515	4442.225
2899.85698	4419.925
2902.34727	4437.625
2904.83604	4432.225
2907.32328	4446.825
2909.809	4440.825
2912.29319	4450.525
2914.77587	4438.325
2917.25702	4442.525
2919.73665	4429.625
2922.21476	4443.725
2924.69136	4432.425
2927.16644	4445.825
2929.64	4425.425
2932.11205	4437.325
2934.58258	4395.625
2937.05161	4420.025
2939.51912	4425.025
2941.98513	4400.225
2944.44962	4388.925
2946.91261	4381.125
2949.37409	4374.625
2951.83407	4363.425
2954.29254	4367.925
2956.74951	4373.725
2959.20498	4376.425
2961.65895	4355.125
2964.11142	4351.525
2966.56239	4351.725
2969.01186	4339.825
2971.45984	4339.925
2973.90632	4334.125
2976.35131	4330.825
2978.7948	4311.825
2981.23681	4302.925
2983.67732	4294.825
2986.11635	4284.225
2988.55388	4278.925
2990.98993	4286.425
2993.4245	4264.325
2995.85758	4273.825
2998.28917	4256.925
3000.71928	4248.825
3003.14791	4230.025
3005.57506	4226.825
3008.00073	4234.025
3010.42493	4236.525
3012.84764	4229.825
3015.26888	4234.025
3017.68865	4226.625
3020.10694	4212.425
3022.52376	4206.125
3024.9391	4190.425
3027.35298	4192.225
3029.76539	4186.225
3032.17632	4189.325
3034.5858	4183.225
3036.9938	4175.825
3039.40034	4158.725
3041.80542	4172.425
3044.20903	4156.825
3046.61118	4160.725
3049.01187	4148.825
3051.4111	4145.325
3053.80888	4150.725
3056.20519	4151.425
3058.60005	4146.025
3060.99345	4131.825
3063.3854	4136.525
3065.7759	4122.325
3068.16494	4125.525
3070.55254	4119.625
3072.93868	4119.725
3075.32338	4136.025
3077.70662	4098.225
3080.08842	4117.825
3082.46878	4112.825
3084.84769	4092.725
3087.22515	4116.225
3089.60118	4106.925
3091.97576	4115.025
3094.3489	4107.425
3096.72061	4123.125
3099.09087	4112.125
3101.4597	4115.025
3103.82709	4108.125
3106.19305	4125.225
3108.55757	4120.825
3110.92066	4111.725
3113.28232	4096.225
3115.64255	4092.025
3118.00134	4090.425
3120.35871	4096.025
3122.71466	4087.425
3125.06917	4083.225
3127.42226	4083.025
3129.77393	4084.125
3132.12417	4084.125
3134.47299	4111.925
3136.82039	4099.125
3139.16636	4119.425
3141.51092	4113.925
3143.85406	4138.825
3146.19579	4141.425
3148.53609	4139.325
3150.87499	4150.925
3153.21246	4141.625
3155.54853	4158.525
3157.88318	4167.225
3160.21642	4173.125
3162.54826	4167.725
3164.87868	4170.525
3167.2077	4178.225
3169.5353	4180.925
3171.86151	4186.525
3174.18631	4184.925
3176.5097	4187.025
3178.83169	4177.925
3181.15228	4191.625
3183.47147	4184.725
3185.78926	4182.025
3188.10565	4195.025
3190.42065	4191.625
3192.73424	4174.125
