Data from AgNPs_FTO_APTES_UA_0uM_R6G_10uM_NaF_0.1M_Addition_RamanShift__43__10-46-27-131.txt Node

Date: Fri Dec 17 10:46:27 GMT 2021
User: TCL
Spectrometer: QEP01345
Trigger mode: 4
Integration Time (sec): 7.000000E0
Scans to average: 10
Electric dark correction enabled: true
Nonlinearity correction enabled: false
Boxcar width: 0
XAxis mode: Raman Shifts
Number of Pixels in Spectrum: 1044
>>>>>Begin Spectral Data<<<<<
46.04893	-1.5625
50.45542	-0.9625
54.85868	-0.9625
59.25871	-0.1625
63.6555	79.6375
68.04907	80.9375
72.43941	82.8375
76.82654	87.8375
81.21044	88.6375
85.59113	92.5375
89.96862	96.7375
94.34289	99.7375
98.71396	105.4375
103.08183	103.8375
107.4465	107.6375
111.80798	110.6375
116.16626	116.3375
120.52136	114.2375
124.87327	126.5375
129.222	132.4375
133.56755	138.7375
137.90993	155.5375
142.24913	164.4375
146.58517	181.4375
150.91804	213.0375
155.24774	252.7375
159.57429	318.7375
163.89768	405.2375
168.21792	534.5375
172.53501	724.7375
176.84895	1006.9375
181.15975	1407.2375
185.46741	1967.7375
189.77193	2715.6375
194.07331	3637.1375
198.37157	4684.7375
202.6667	5756.9375
206.9587	6846.8375
211.24758	7934.2375
215.53334	8990.8375
219.81599	10144.0375
224.09553	11437.3375
228.37195	12848.0375
232.64527	14443.2375
236.91549	16061.4375
241.18261	17682.5375
245.44663	19118.7375
249.70755	20423.7375
253.96539	21508.0375
258.22014	22432.9375
262.4718	23243.9375
266.72039	23754.5375
270.96589	24099.7375
275.20832	24084.3375
279.44768	23894.4375
283.68397	23642.8375
287.91719	23417.0375
292.14735	23250.1375
296.37445	23292.6375
300.59849	23448.9375
304.81948	23651.4375
309.03742	23789.4375
313.25231	23637.4375
317.46415	23174.5375
321.67296	22514.7375
325.87872	21840.0375
330.08145	21568.3375
334.28114	21523.9375
338.47781	21699.9375
342.67145	22011.9375
346.86207	22434.4375
351.04966	22962.8375
355.23424	23560.2375
359.4158	24106.4375
363.59435	24455.9375
367.76989	24723.5375
371.94243	24833.7375
376.11196	24959.6375
380.27849	25056.5375
384.44203	25143.0375
388.60257	25259.6375
392.76012	25420.7375
396.91468	25727.9375
401.06626	26196.5375
405.21485	26502.6375
409.36047	26444.0375
413.50311	26053.7375
417.64277	25649.5375
421.77947	25504.2375
425.9132	25547.1375
430.04396	25660.1375
434.17176	25813.9375
438.2966	26069.0375
442.41849	26614.6375
446.53742	27297.2375
450.6534	28135.5375
454.76644	28727.8375
458.87653	28950.9375
462.98368	28781.2375
467.08789	28328.1375
471.18916	27850.3375
475.2875	27310.6375
479.38291	26952.5375
483.4754	26681.5375
487.56496	26423.0375
491.6516	26106.8375
495.73531	25848.8375
499.81612	25750.6375
503.89401	25902.7375
507.96899	25992.2375
512.04106	25940.7375
516.11023	25945.3375
520.1765	25801.5375
524.23987	25693.6375
528.30034	25544.1375
532.35792	25257.8375
536.41261	24900.3375
540.46441	24515.0375
544.51333	24446.6375
548.55936	24737.4375
552.60252	25181.7375
556.64279	25727.4375
560.6802	26043.0375
564.71473	26271.4375
568.7464	26722.9375
572.7752	27228.3375
576.80114	27598.7375
580.82422	27962.7375
584.84444	28459.8375
588.86181	28962.6375
592.87633	29519.1375
596.888	29966.7375
600.89682	30284.7375
604.9028	31500.0375
608.90594	34828.2375
612.90624	38076.7375
616.90371	35898.6375
620.89834	29614.1375
624.89015	26865.3375
628.87913	26496.5375
632.86528	26426.0375
636.84862	26057.3375
640.82913	25541.8375
644.80683	24823.6375
648.78172	24337.3375
652.75379	24246.2375
656.72306	24679.2375
660.68952	25204.4375
664.65319	25072.4375
668.61405	24530.8375
672.57211	24327.6375
676.52738	24361.1375
680.47986	24295.3375
684.42955	24136.1375
688.37646	24093.3375
692.32058	24216.4375
696.26192	24490.6375
700.20048	24882.7375
704.13626	25045.3375
708.06928	24919.9375
711.99952	24710.3375
715.927	24664.5375
719.85171	24740.9375
723.77365	24632.6375
727.69284	24400.3375
731.60928	24097.8375
735.52295	24075.2375
739.43388	24153.5375
743.34206	24210.3375
747.24749	24360.4375
751.15017	24638.7375
755.05012	25047.7375
758.94733	25776.2375
762.8418	27158.1375
766.73354	29401.5375
770.62254	31627.4375
774.50882	32287.9375
778.39237	30787.8375
782.27321	28334.3375
786.15132	26338.1375
790.02671	25218.1375
793.89938	24658.6375
797.76935	24466.0375
801.6366	24435.7375
805.50115	24370.0375
809.36299	24196.1375
813.22213	23985.4375
817.07857	23876.1375
820.93231	23798.0375
824.78336	23739.5375
828.63172	23741.9375
832.47738	23821.2375
836.32036	23879.2375
840.16066	24053.4375
843.99827	24204.2375
847.8332	24133.8375
851.66546	23921.9375
855.49504	23864.7375
859.32195	23850.2375
863.1462	23764.6375
866.96777	23638.2375
870.78668	23539.1375
874.60293	23543.7375
878.41652	23558.4375
882.22745	23689.7375
886.03573	23769.9375
889.84136	23762.4375
893.64433	23628.5375
897.44466	23540.5375
901.24235	23451.6375
905.0374	23428.7375
908.8298	23403.3375
912.61957	23424.9375
916.40671	23650.3375
920.19121	24021.8375
923.97308	24480.4375
927.75233	24770.8375
931.52895	24749.4375
935.30295	24424.2375
939.07433	23888.2375
942.84309	23456.5375
946.60924	23313.5375
950.37278	23243.7375
954.13371	23090.5375
957.89203	22901.4375
961.64774	22802.4375
965.40086	22705.3375
969.15137	22638.0375
972.89929	22549.3375
976.64461	22589.3375
980.38733	22656.6375
984.12747	22778.2375
987.86502	23087.3375
991.59999	23481.7375
995.33237	24099.8375
999.06217	25125.7375
1002.78939	26236.4375
1006.51404	26808.8375
1010.23611	27051.5375
1013.95561	27159.0375
1017.67255	27058.8375
1021.38692	26702.1375
1025.09872	26521.1375
1028.80796	27058.7375
1032.51465	28269.1375
1036.21877	29338.7375
1039.92035	29506.0375
1043.61937	28791.5375
1047.31584	27689.6375
1051.00976	26484.2375
1054.70114	25769.8375
1058.38998	25588.5375
1062.07627	25578.6375
1065.76003	25624.6375
1069.44126	25750.2375
1073.11995	26128.5375
1076.79611	26467.8375
1080.46974	26764.3375
1084.14085	26990.8375
1087.80943	27353.3375
1091.47549	27529.3375
1095.13903	27348.2375
1098.80005	26918.9375
1102.45857	26317.5375
1106.11456	25945.8375
1109.76805	25855.6375
1113.41903	25971.0375
1117.06751	26199.5375
1120.71348	26462.0375
1124.35696	26710.5375
1127.99793	27067.1375
1131.63641	27202.3375
1135.2724	26969.0375
1138.90589	26682.8375
1142.5369	26568.7375
1146.16542	26450.7375
1149.79145	26500.7375
1153.415	26605.1375
1157.03607	26877.8375
1160.65467	27502.2375
1164.27079	28561.2375
1167.88443	30069.4375
1171.49561	32056.0375
1175.10432	34767.9375
1178.71056	38162.0375
1182.31434	41330.3375
1185.91565	42980.5375
1189.51451	42728.7375
1193.11091	40942.0375
1196.70485	38601.7375
1200.29634	36598.2375
1203.88538	35291.7375
1207.47197	34252.5375
1211.05612	33544.1375
1214.63782	33044.2375
1218.21708	32789.6375
1221.79391	32763.9375
1225.36829	32839.3375
1228.94024	32472.1375
1232.50976	31768.8375
1236.07685	31128.1375
1239.6415	30780.9375
1243.20374	30702.0375
1246.76355	30929.4375
1250.32093	31414.8375
1253.8759	32242.0375
1257.42845	33280.7375
1260.97859	34326.1375
1264.52631	35224.2375
1268.07163	36322.3375
1271.61453	37474.7375
1275.15503	38805.2375
1278.69312	40106.0375
1282.22882	41161.8375
1285.76211	41998.6375
1289.29301	42867.6375
1292.82151	43982.8375
1296.34761	45643.8375
1299.87133	48047.1375
1303.39266	51161.7375
1306.9116	55023.8375
1310.42815	58792.1375
1313.94233	61216.2375
1317.45412	61228.0375
1320.96354	59489.1375
1324.47058	57472.0375
1327.97525	55391.6375
1331.47754	53826.4375
1334.97747	52868.2375
1338.47502	52261.2375
1341.97022	51680.7375
1345.46305	50799.8375
1348.95352	50153.0375
1352.44163	50297.5375
1355.92738	51964.7375
1359.41078	55419.0375
1362.89183	58771.1375
1366.37053	58359.7375
1369.84688	53450.4375
1373.32088	47218.0375
1376.79254	42706.0375
1380.26186	40681.3375
1383.72883	40095.9375
1387.19347	39695.0375
1390.65578	39045.6375
1394.11575	38646.5375
1397.57339	38935.9375
1401.0287	39669.3375
1404.48168	40441.3375
1407.93234	40800.5375
1411.38068	40586.9375
1414.82669	39771.3375
1418.27039	38350.6375
1421.71177	36966.5375
1425.15083	35731.1375
1428.58758	35049.7375
1432.02203	35133.8375
1435.45416	35855.6375
1438.88399	36676.0375
1442.31151	37474.0375
1445.73673	37989.3375
1449.15965	38472.5375
1452.58027	38628.3375
1455.9986	38589.9375
1459.41463	38701.6375
1462.82837	39304.7375
1466.23982	40238.0375
1469.64898	41156.3375
1473.05586	41800.7375
1476.46045	41983.1375
1479.86276	41895.1375
1483.26279	41558.6375
1486.66054	41327.6375
1490.05602	41386.9375
1493.44922	41650.0375
1496.84016	42059.1375
1500.22882	42792.1375
1503.61521	44185.1375
1506.99934	45910.9375
1510.38121	47571.3375
1513.76081	48305.3375
1517.13816	47225.6375
1520.51324	44896.6375
1523.88607	42600.1375
1527.25665	41110.0375
1530.62498	40394.9375
1533.99105	40005.6375
1537.35488	39720.0375
1540.71647	39320.8375
1544.07581	38789.9375
1547.4329	38157.8375
1550.78776	37557.5375
1554.14038	37120.3375
1557.49077	36830.4375
1560.83892	36660.4375
1564.18484	36616.5375
1567.52853	36742.6375
1570.86999	37025.8375
1574.20922	37447.1375
1577.54624	37757.3375
1580.88103	37618.0375
1584.2136	37612.9375
1587.54395	38609.5375
1590.87208	40801.6375
1594.19801	43876.0375
1597.52172	47063.9375
1600.84321	48273.3375
1604.16251	46165.9375
1607.47959	42093.8375
1610.79447	37968.4375
1614.10715	34424.0375
1617.41763	31780.0375
1620.7259	30108.0375
1624.03199	29338.8375
1627.33587	29395.2375
1630.63757	30366.2375
1633.93707	32300.4375
1637.23439	35248.3375
1640.52951	39125.5375
1643.82246	43585.5375
1647.11321	47010.3375
1650.40179	47545.5375
1653.68819	44341.0375
1656.97241	38696.7375
1660.25446	33205.9375
1663.53433	29131.7375
1666.81203	26557.3375
1670.08756	24970.0375
1673.36092	23981.9375
1676.63211	23344.6375
1679.90115	22904.6375
1683.16801	22590.0375
1686.43272	22301.7375
1689.69527	22112.9375
1692.95567	21996.7375
1696.2139	21886.8375
1699.46999	21808.3375
1702.72392	21820.3375
1705.97571	21726.5375
1709.22535	21730.6375
1712.47284	21708.7375
1715.71819	21710.1375
1718.96139	21660.8375
1722.20246	21580.8375
1725.44139	21463.1375
1728.67818	21384.1375
1731.91284	21226.2375
1735.14537	21160.3375
1738.37576	21045.3375
1741.60403	20966.2375
1744.83017	20933.0375
1748.05418	20861.2375
1751.27607	20804.8375
1754.49584	20769.3375
1757.71349	20787.2375
1760.92903	20777.8375
1764.14244	20738.2375
1767.35375	20718.5375
1770.56294	20711.7375
1773.77002	20636.6375
1776.97499	20651.4375
1780.17785	20607.4375
1783.37861	20601.7375
1786.57727	20575.3375
1789.77382	20532.8375
1792.96828	20516.7375
1796.16064	20453.1375
1799.3509	20471.9375
1802.53907	20419.8375
1805.72514	20333.7375
1808.90913	20298.4375
1812.09102	20264.4375
1815.27083	20204.5375
1818.44856	20183.9375
1821.6242	20134.8375
1824.79776	20126.1375
1827.96924	20125.6375
1831.13864	20150.6375
1834.30597	20127.9375
1837.47122	20113.9375
1840.6344	20143.0375
1843.7955	20133.9375
1846.95454	20150.9375
1850.11151	20146.6375
1853.26642	20136.8375
1856.41926	20149.5375
1859.57004	20099.8375
1862.71876	20086.6375
1865.86542	20090.0375
1869.01003	20104.9375
1872.15258	20096.4375
1875.29308	20098.2375
1878.43152	20122.0375
1881.56792	20103.9375
1884.70227	20081.5375
1887.83457	20089.3375
1890.96482	20074.5375
1894.09304	20023.4375
1897.21921	20072.2375
1900.34335	20039.9375
1903.46544	20025.8375
1906.58551	20061.0375
1909.70353	20032.4375
1912.81953	20017.9375
1915.93349	19988.5375
1919.04543	19911.1375
1922.15534	19890.7375
1925.26322	19832.3375
1928.36908	19784.6375
1931.47292	19798.3375
1934.57473	19714.7375
1937.67453	19636.3375
1940.77232	19570.0375
1943.86808	19516.6375
1946.96184	19456.4375
1950.05358	19424.0375
1953.14331	19347.3375
1956.23103	19262.3375
1959.31675	19227.1375
1962.40046	19200.2375
1965.48217	19120.5375
1968.56188	19077.1375
1971.63959	19041.0375
1974.7153	18979.7375
1977.78901	18916.7375
1980.86073	18877.2375
1983.93046	18795.4375
1986.99819	18725.3375
1990.06394	18694.6375
1993.1277	18643.8375
1996.18947	18588.8375
1999.24925	18546.5375
2002.30706	18471.9375
2005.36288	18428.0375
2008.41672	18383.1375
2011.46859	18339.9375
2014.51848	18303.1375
2017.56639	18246.3375
2020.61233	18238.2375
2023.6563	18215.7375
2026.6983	18169.9375
2029.73833	18152.8375
2032.7764	18141.5375
2035.8125	18118.3375
2038.84664	18104.5375
2041.87881	18120.0375
2044.90903	18075.1375
2047.93729	18024.9375
2050.96359	18040.8375
2053.98794	17987.2375
2057.01034	17979.5375
2060.03078	17953.8375
2063.04927	17922.8375
2066.06582	17915.1375
2069.08042	17916.1375
2072.09307	17878.5375
2075.10378	17841.7375
2078.11255	17859.3375
2081.11938	17836.6375
2084.12426	17842.2375
2087.12722	17836.9375
2090.12824	17812.1375
2093.12732	17820.8375
2096.12447	17819.7375
2099.11969	17808.3375
2102.11299	17845.7375
2105.10435	17880.1375
2108.09379	17837.0375
2111.08131	17864.7375
2114.0669	17882.1375
2117.05057	17898.9375
2120.03233	17892.6375
2123.01216	17900.1375
2125.99008	17905.9375
2128.96609	17946.7375
2131.94018	17955.0375
2134.91236	17982.6375
2137.88263	17970.7375
2140.851	17996.1375
2143.81746	18030.3375
2146.78201	18019.1375
2149.74466	18040.4375
2152.7054	18037.8375
2155.66425	18057.7375
2158.6212	18036.3375
2161.57625	18063.4375
2164.52941	18075.3375
2167.48067	18032.8375
2170.43004	18033.6375
2173.37752	18038.3375
2176.32311	18046.5375
2179.26681	18067.3375
2182.20863	18064.3375
2185.14856	18056.6375
2188.08661	18043.6375
2191.02278	18035.5375
2193.95707	18100.3375
2196.88948	18081.9375
2199.82001	18070.4375
2202.74867	18065.6375
2205.67545	18089.5375
2208.60037	18118.1375
2211.52341	18045.8375
2214.44458	18054.7375
2217.36388	17999.3375
2220.28132	18032.8375
2223.1969	17945.1375
2226.11061	17993.2375
2229.02246	17920.2375
2231.93245	17873.4375
2234.84058	17881.8375
2237.74686	17840.2375
2240.65128	17811.9375
2243.55385	17785.2375
2246.45456	17742.7375
2249.35343	17752.0375
2252.25044	17698.6375
2255.14561	17675.3375
2258.03893	17665.9375
2260.93041	17657.5375
2263.82004	17594.0375
2266.70783	17577.4375
2269.59378	17538.9375
2272.4779	17512.2375
2275.36017	17443.6375
2278.24061	17452.4375
2281.11922	17414.5375
2283.996	17421.1375
2286.87094	17387.2375
2289.74405	17337.1375
2292.61534	17344.4375
2295.4848	17320.4375
2298.35243	17340.6375
2301.21824	17349.6375
2304.08223	17360.8375
2306.94439	17415.2375
2309.80474	17398.8375
2312.66327	17452.8375
2315.51999	17444.1375
2318.37489	17457.2375
2321.22797	17439.6375
2324.07925	17432.6375
2326.92871	17406.4375
2329.77637	17419.8375
2332.62222	17434.1375
2335.46626	17406.1375
2338.3085	17443.1375
2341.14893	17418.1375
2343.98756	17438.0375
2346.8244	17439.9375
2349.65943	17470.7375
2352.49267	17430.8375
2355.32411	17461.6375
2358.15376	17374.5375
2360.98161	17381.9375
2363.80768	17354.6375
2366.63195	17357.1375
2369.45444	17276.5375
2372.27514	17255.7375
2375.09405	17235.3375
2377.91118	17201.3375
2380.72652	17141.7375
2383.54009	17142.3375
2386.35187	17128.0375
2389.16188	17053.5375
2391.97011	17030.4375
2394.77657	17037.2375
2397.58125	17013.5375
2400.38416	17000.4375
2403.18529	16964.5375
2405.98466	16974.4375
2408.78226	16881.3375
2411.57809	16862.3375
2414.37216	16807.3375
2417.16446	16793.0375
2419.955	16773.6375
2422.74378	16753.3375
2425.5308	16732.4375
2428.31606	16723.4375
2431.09956	16718.0375
2433.88131	16698.7375
2436.6613	16717.5375
2439.43954	16724.4375
2442.21603	16678.0375
2444.99077	16654.2375
2447.76377	16680.5375
2450.53501	16697.3375
2453.30451	16659.7375
2456.07226	16654.9375
2458.83827	16718.0375
2461.60254	16672.9375
2464.36507	16691.9375
2467.12586	16680.9375
2469.88492	16683.9375
2472.64224	16691.0375
2475.39782	16694.5375
2478.15167	16695.4375
2480.90379	16725.5375
2483.65417	16699.0375
2486.40283	16751.6375
2489.14976	16723.2375
2491.89497	16745.8375
2494.63845	16784.0375
2497.3802	16763.5375
2500.12024	16770.5375
2502.85855	16774.5375
2505.59514	16733.8375
2508.33002	16704.7375
2511.06318	16695.4375
2513.79462	16702.5375
2516.52435	16668.7375
2519.25237	16641.7375
2521.97867	16664.5375
2524.70327	16637.2375
2527.42616	16600.0375
2530.14734	16622.7375
2532.86681	16611.6375
2535.58458	16601.9375
2538.30065	16585.8375
2541.01501	16593.1375
2543.72768	16562.4375
2546.43864	16552.6375
2549.14791	16522.0375
2551.85548	16537.8375
2554.56136	16550.3375
2557.26554	16550.3375
2559.96803	16549.8375
2562.66883	16515.1375
2565.36794	16514.2375
2568.06536	16506.2375
2570.7611	16478.3375
2573.45514	16490.7375
2576.14751	16498.9375
2578.83819	16431.0375
2581.52719	16472.4375
2584.21451	16471.1375
2586.90015	16506.8375
2589.58411	16452.6375
2592.2664	16458.1375
2594.94701	16438.4375
2597.62594	16439.5375
2600.30321	16421.1375
2602.9788	16413.9375
2605.65273	16406.7375
2608.32498	16389.2375
2610.99557	16389.4375
2613.66449	16418.1375
2616.33175	16369.3375
2618.99734	16391.6375
2621.66128	16399.4375
2624.32355	16409.9375
2626.98416	16406.8375
2629.64311	16423.1375
2632.30041	16418.5375
2634.95605	16413.0375
2637.61004	16416.4375
2640.26238	16373.1375
2642.91306	16340.7375
2645.56209	16301.5375
2648.20948	16305.5375
2650.85521	16273.6375
2653.4993	16282.9375
2656.14175	16255.0375
2658.78255	16277.5375
2661.42171	16262.3375
2664.05923	16286.3375
2666.6951	16303.8375
2669.32934	16297.0375
2671.96194	16316.9375
2674.59291	16318.9375
2677.22224	16283.7375
2679.84993	16349.9375
2682.476	16278.0375
2685.10043	16275.6375
2687.72324	16235.9375
2690.34441	16237.0375
2692.96396	16228.0375
2695.58188	16213.1375
2698.19818	16176.2375
2700.81285	16205.9375
2703.4259	16167.4375
2706.03733	16207.8375
2708.64714	16201.4375
2711.25533	16216.7375
2713.86191	16192.8375
2716.46687	16226.3375
2719.07021	16210.3375
2721.67194	16232.4375
2724.27206	16224.3375
2726.87057	16221.4375
2729.46747	16241.1375
2732.06276	16226.2375
2734.65644	16238.7375
2737.24852	16194.1375
2739.83899	16197.7375
2742.42786	16211.5375
2745.01513	16195.8375
2747.60079	16207.6375
2750.18486	16211.9375
2752.76733	16203.5375
2755.3482	16171.9375
2757.92747	16178.4375
2760.50515	16161.2375
2763.08123	16189.1375
2765.65573	16157.3375
2768.22863	16168.0375
2770.79994	16149.2375
2773.36967	16189.8375
2775.9378	16172.8375
2778.50435	16142.1375
2781.06932	16139.5375
2783.6327	16154.5375
2786.1945	16147.7375
2788.75471	16113.8375
2791.31335	16073.0375
2793.87041	16083.9375
2796.42589	16015.7375
2798.97979	15999.4375
2801.53212	15962.7375
2804.08288	15976.5375
2806.63206	15942.6375
2809.17967	15917.3375
2811.72571	15894.8375
2814.27018	15884.7375
2816.81308	15874.1375
2819.35442	15859.0375
2821.89419	15825.8375
2824.43239	15828.8375
2826.96904	15809.6375
2829.50412	15773.7375
2832.03763	15739.0375
2834.56959	15776.5375
2837.1	15728.0375
2839.62884	15725.1375
2842.15613	15732.4375
2844.68186	15754.3375
2847.20604	15760.9375
2849.72867	15775.1375
2852.24974	15737.0375
2854.76927	15752.1375
2857.28724	15737.6375
2859.80367	15747.0375
2862.31855	15731.1375
2864.83189	15673.1375
2867.34368	15678.0375
2869.85393	15692.2375
2872.36264	15690.3375
2874.8698	15735.9375
2877.37543	15707.5375
2879.87952	15721.2375
2882.38207	15710.3375
2884.88308	15679.8375
2887.38256	15723.3375
2889.88051	15711.2375
2892.37692	15751.9375
2894.8718	15722.8375
2897.36515	15763.5375
2899.85698	15766.6375
2902.34727	15802.8375
2904.83604	15796.6375
2907.32328	15815.6375
2909.809	15836.1375
2912.29319	15864.6375
2914.77587	15833.3375
2917.25702	15849.9375
2919.73665	15803.2375
2922.21476	15812.1375
2924.69136	15814.9375
2927.16644	15810.0375
2929.64	15755.1375
2932.11205	15724.5375
2934.58258	15688.8375
2937.05161	15722.0375
2939.51912	15711.8375
2941.98513	15681.0375
2944.44962	15661.0375
2946.91261	15600.8375
2949.37409	15601.2375
2951.83407	15575.5375
2954.29254	15598.1375
2956.74951	15576.0375
2959.20498	15536.6375
2961.65895	15563.4375
2964.11142	15488.5375
2966.56239	15458.6375
2969.01186	15444.5375
2971.45984	15397.0375
2973.90632	15390.4375
2976.35131	15332.3375
2978.7948	15305.4375
2981.23681	15262.0375
2983.67732	15242.2375
2986.11635	15185.5375
2988.55388	15150.8375
2990.98993	15118.7375
2993.4245	15082.5375
2995.85758	15075.6375
2998.28917	15044.9375
3000.71928	15026.1375
3003.14791	14990.4375
3005.57506	14983.3375
3008.00073	14965.4375
3010.42493	14945.1375
3012.84764	14918.8375
3015.26888	14934.8375
3017.68865	14868.3375
3020.10694	14859.0375
3022.52376	14837.7375
3024.9391	14810.3375
