Data from AgNPs_FTO_APTES_UA_5uM_R6G_10uM_NaF_0.1M_Addition_RamanShift__34__13-05-17-290.txt Node

Date: Fri Dec 17 13:05:17 GMT 2021
User: TCL
Spectrometer: QEP01345
Trigger mode: 4
Integration Time (sec): 7.000000E0
Scans to average: 10
Electric dark correction enabled: true
Nonlinearity correction enabled: false
Boxcar width: 0
XAxis mode: Raman Shifts
Number of Pixels in Spectrum: 1044
>>>>>Begin Spectral Data<<<<<
46.04893	-1.175
50.45542	-2.075
54.85868	-1.375
59.25871	-0.375
63.6555	146.825
68.04907	152.725
72.43941	160.425
76.82654	170.125
81.21044	171.725
85.59113	179.125
89.96862	184.625
94.34289	188.225
98.71396	199.425
103.08183	198.825
107.4465	205.025
111.80798	210.825
116.16626	221.325
120.52136	226.825
124.87327	237.525
129.222	249.525
133.56755	259.025
137.90993	285.825
142.24913	310.225
146.58517	345.025
150.91804	394.125
155.24774	476.325
159.57429	589.325
163.89768	748.625
168.21792	997.525
172.53501	1341.425
176.84895	1874.425
181.15975	2633.125
185.46741	3677.525
189.77193	5068.225
194.07331	6797.525
198.37157	8760.725
202.6667	10825.625
206.9587	12886.325
211.24758	14875.925
215.53334	16891.425
219.81599	18985.325
224.09553	21302.125
228.37195	23894.125
232.64527	26703.625
236.91549	29681.225
241.18261	32749.125
245.44663	35666.225
249.70755	38271.425
253.96539	40591.125
258.22014	42490.025
262.4718	44115.525
266.72039	45158.425
270.96589	45707.525
275.20832	45727.425
279.44768	45388.025
283.68397	44891.125
287.91719	44320.325
292.14735	43974.925
296.37445	43720.725
300.59849	43625.125
304.81948	43730.925
309.03742	43770.525
313.25231	43744.725
317.46415	43380.225
321.67296	42917.225
325.87872	42538.325
330.08145	42404.825
334.28114	42441.825
338.47781	42783.125
342.67145	43280.725
346.86207	43905.525
351.04966	44671.425
355.23424	45472.625
359.4158	46170.525
363.59435	46846.925
367.76989	47263.225
371.94243	47623.625
376.11196	47935.925
380.27849	48152.225
384.44203	48501.525
388.60257	48919.425
392.76012	49366.025
396.91468	49926.125
401.06626	50593.325
405.21485	51161.225
409.36047	51178.825
413.50311	50994.525
417.64277	51065.125
421.77947	51259.425
425.9132	51604.825
430.04396	51861.625
434.17176	52115.625
438.2966	52389.325
442.41849	53080.925
446.53742	54353.925
450.6534	55781.125
454.76644	56735.425
458.87653	56941.825
462.98368	56557.425
467.08789	55712.825
471.18916	54755.025
475.2875	53597.825
479.38291	52720.725
483.4754	52048.425
487.56496	51577.425
491.6516	51325.625
495.73531	51192.925
499.81612	51365.825
503.89401	51810.425
507.96899	52127.325
512.04106	52120.625
516.11023	51943.225
520.1765	51592.525
524.23987	51246.325
528.30034	51060.825
532.35792	50740.425
536.41261	50331.425
540.46441	49787.825
544.51333	49697.725
548.55936	49934.225
552.60252	50617.225
556.64279	51402.925
560.6802	52117.625
564.71473	52484.325
568.7464	52884.625
572.7752	53840.525
576.80114	54988.025
580.82422	56742.925
584.84444	59145.725
588.86181	62023.425
592.87633	64262.625
596.888	64146.625
600.89682	61833.625
604.9028	61081.725
608.90594	63555.925
612.90624	66281.825
616.90371	63011.825
620.89834	56172.625
624.89015	53010.725
628.87913	52555.325
632.86528	52455.825
636.84862	52157.125
640.82913	51348.925
644.80683	50488.825
648.78172	49970.425
652.75379	50112.225
656.72306	50629.025
660.68952	51345.925
664.65319	51112.925
668.61405	50523.225
672.57211	50588.825
676.52738	50812.925
680.47986	50801.225
684.42955	50439.925
688.37646	50307.625
692.32058	50725.125
696.26192	51436.225
700.20048	52198.825
704.13626	52477.725
708.06928	52298.125
711.99952	51955.325
715.927	52031.725
719.85171	52291.225
723.77365	52157.125
727.69284	51558.625
731.60928	50893.125
735.52295	50686.625
739.43388	50710.925
743.34206	50818.125
747.24749	51082.725
751.15017	51440.425
755.05012	51997.525
758.94733	52989.825
762.8418	54534.825
766.73354	56816.925
770.62254	58825.225
774.50882	59244.725
778.39237	57739.925
782.27321	55300.625
786.15132	53288.325
790.02671	51954.725
793.89938	51347.025
797.76935	51198.125
801.6366	51093.625
805.50115	51110.825
809.36299	50915.425
813.22213	50595.225
817.07857	50258.725
820.93231	50038.525
824.78336	49938.025
828.63172	49980.825
832.47738	49926.125
836.32036	50028.025
840.16066	50158.425
843.99827	50352.725
847.8332	50296.125
851.66546	50211.025
855.49504	50277.725
859.32195	50334.325
863.1462	50286.825
866.96777	50130.625
870.78668	50126.725
874.60293	50227.225
878.41652	50225.525
882.22745	50414.325
886.03573	50570.225
889.84136	50611.525
893.64433	50305.925
897.44466	50059.325
901.24235	49900.325
905.0374	49755.925
908.8298	49775.925
912.61957	49822.925
916.40671	50158.325
920.19121	50642.025
923.97308	51141.525
927.75233	51362.525
931.52895	51196.125
935.30295	50638.525
939.07433	50139.525
942.84309	49718.525
946.60924	49652.325
950.37278	49640.625
954.13371	49623.125
957.89203	49431.825
961.64774	49355.825
965.40086	49304.025
969.15137	49407.825
972.89929	49416.525
976.64461	49459.525
980.38733	49763.025
984.12747	50023.425
987.86502	50332.125
991.59999	50715.925
995.33237	51258.425
999.06217	52285.725
1002.78939	53455.025
1006.51404	54597.325
1010.23611	55490.725
1013.95561	55842.725
1017.67255	55700.425
1021.38692	55030.325
1025.09872	54236.125
1028.80796	54259.925
1032.51465	55132.625
1036.21877	56132.425
1039.92035	56367.625
1043.61937	55972.925
1047.31584	55190.525
1051.00976	54214.225
1054.70114	53795.825
1058.38998	53708.725
1062.07627	53895.225
1065.76003	54153.525
1069.44126	54603.025
1073.11995	55311.025
1076.79611	56033.825
1080.46974	56444.525
1084.14085	56654.725
1087.80943	56962.525
1091.47549	57221.425
1095.13903	57096.525
1098.80005	56461.925
1102.45857	55713.925
1106.11456	55150.325
1109.76805	54881.925
1113.41903	54728.625
1117.06751	54786.925
1120.71348	54938.025
1124.35696	55174.625
1127.99793	55417.925
1131.63641	55746.025
1135.2724	55667.825
1138.90589	55641.225
1142.5369	55737.125
1146.16542	55951.125
1149.79145	56215.325
1153.415	56485.725
1157.03607	57006.025
1160.65467	58214.525
1164.27079	60199.925
1167.88443	62670.625
1171.49561	65078.625
1175.10432	67886.725
1178.71056	71616.625
1182.31434	75370.225
1185.91565	77416.925
1189.51451	77200.025
1193.11091	75710.125
1196.70485	73640.825
1200.29634	71672.425
1203.88538	70469.225
1207.47197	69878.225
1211.05612	69186.225
1214.63782	68141.925
1218.21708	67018.025
1221.79391	65919.525
1225.36829	65192.225
1228.94024	64488.425
1232.50976	63708.525
1236.07685	62954.625
1239.6415	62415.425
1243.20374	62450.825
1246.76355	62999.025
1250.32093	64043.125
1253.8759	65280.425
1257.42845	66764.625
1260.97859	68375.125
1264.52631	70105.025
1268.07163	71918.225
1271.61453	73967.025
1275.15503	75807.725
1278.69312	77455.925
1282.22882	78965.825
1285.76211	80499.225
1289.29301	82221.925
1292.82151	84600.425
1296.34761	87617.225
1299.87133	91729.025
1303.39266	96537.325
1306.9116	101143.625
1310.42815	104495.125
1313.94233	105980.925
1317.45412	104925.925
1320.96354	102783.925
1324.47058	100914.825
1327.97525	99706.725
1331.47754	99023.325
1334.97747	98715.725
1338.47502	98060.925
1341.97022	96543.325
1345.46305	94429.325
1348.95352	92714.925
1352.44163	92749.825
1355.92738	95053.625
1359.41078	99104.225
1362.89183	102087.025
1366.37053	100741.725
1369.84688	94573.325
1373.32088	86071.025
1376.79254	79847.125
1380.26186	77492.125
1383.72883	77458.125
1387.19347	77513.725
1390.65578	76621.625
1394.11575	76029.625
1397.57339	76408.325
1401.0287	77485.325
1404.48168	78708.225
1407.93234	79550.125
1411.38068	79434.225
1414.82669	78314.425
1418.27039	76391.425
1421.71177	74060.025
1425.15083	72254.225
1428.58758	71529.625
1432.02203	72302.825
1435.45416	74165.825
1438.88399	76241.725
1442.31151	77469.825
1445.73673	77863.625
1449.15965	77608.625
1452.58027	76986.725
1455.9986	76259.925
1459.41463	76148.925
1462.82837	77244.225
1466.23982	78872.525
1469.64898	80521.825
1473.05586	81620.625
1476.46045	82115.025
1479.86276	81861.025
1483.26279	81249.825
1486.66054	80844.025
1490.05602	80966.025
1493.44922	81156.125
1496.84016	81149.125
1500.22882	81262.825
1503.61521	81792.125
1506.99934	82531.725
1510.38121	83218.625
1513.76081	83099.825
1517.13816	81664.625
1520.51324	79822.925
1523.88607	78345.225
1527.25665	77988.025
1530.62498	78163.925
1533.99105	78247.725
1537.35488	77734.425
1540.71647	76644.925
1544.07581	75420.625
1547.4329	74144.925
1550.78776	73048.425
1554.14038	72237.425
1557.49077	71552.025
1560.83892	71090.125
1564.18484	70752.825
1567.52853	70654.925
1570.86999	71010.725
1574.20922	71814.225
1577.54624	72649.325
1580.88103	73163.825
1584.2136	74268.025
1587.54395	76875.525
1590.87208	81357.925
1594.19801	86766.525
1597.52172	91625.925
1600.84321	93100.225
1604.16251	89293.825
1607.47959	82467.225
1610.79447	75258.125
1614.10715	69249.125
1617.41763	64775.825
1620.7259	62207.825
1624.03199	61034.925
1627.33587	61336.325
1630.63757	62979.025
1633.93707	66294.425
1637.23439	71548.425
1640.52951	79150.625
1643.82246	87877.825
1647.11321	94122.025
1650.40179	93676.625
1653.68819	86257.225
1656.97241	75635.525
1660.25446	66477.725
1663.53433	60215.425
1666.81203	56439.425
1670.08756	54058.925
1673.36092	52593.025
1676.63211	51561.325
1679.90115	50925.625
1683.16801	50357.425
1686.43272	50044.525
1689.69527	49717.025
1692.95567	49451.025
1696.2139	49335.625
1699.46999	49225.825
1702.72392	49119.625
1705.97571	49068.425
1709.22535	49026.025
1712.47284	48936.725
1715.71819	48980.825
1718.96139	48982.125
1722.20246	48860.225
1725.44139	48661.525
1728.67818	48463.625
1731.91284	48242.025
1735.14537	48084.125
1738.37576	47910.625
1741.60403	47753.425
1744.83017	47572.325
1748.05418	47563.725
1751.27607	47498.025
1754.49584	47353.325
1757.71349	47380.625
1760.92903	47403.025
1764.14244	47361.725
1767.35375	47368.225
1770.56294	47347.325
1773.77002	47295.825
1776.97499	47257.225
1780.17785	47125.025
1783.37861	47137.525
1786.57727	47056.525
1789.77382	47004.525
1792.96828	46942.825
1796.16064	46868.125
1799.3509	46832.325
1802.53907	46787.125
1805.72514	46629.825
1808.90913	46590.325
1812.09102	46506.825
1815.27083	46480.125
1818.44856	46378.825
1821.6242	46409.425
1824.79776	46310.025
1827.96924	46363.525
1831.13864	46309.525
1834.30597	46313.925
1837.47122	46341.025
1840.6344	46355.525
1843.7955	46412.925
1846.95454	46264.825
1850.11151	46241.125
1853.26642	46280.925
1856.41926	46252.825
1859.57004	46251.425
1862.71876	46251.725
1865.86542	46128.225
1869.01003	46114.325
1872.15258	46080.625
1875.29308	46144.425
1878.43152	46114.525
1881.56792	46124.325
1884.70227	46089.025
1887.83457	46050.825
1890.96482	46086.025
1894.09304	45964.325
1897.21921	45920.425
1900.34335	45873.625
1903.46544	45846.625
1906.58551	45819.425
1909.70353	45746.725
1912.81953	45715.725
1915.93349	45640.025
1919.04543	45529.025
1922.15534	45490.825
1925.26322	45449.225
1928.36908	45331.725
1931.47292	45283.725
1934.57473	45137.625
1937.67453	45001.025
1940.77232	44935.725
1943.86808	44835.325
1946.96184	44755.225
1950.05358	44679.325
1953.14331	44592.725
1956.23103	44492.825
1959.31675	44381.925
1962.40046	44286.125
1965.48217	44190.925
1968.56188	44087.925
1971.63959	43937.725
1974.7153	43824.025
1977.78901	43716.425
1980.86073	43590.525
1983.93046	43477.525
1986.99819	43380.425
1990.06394	43288.525
1993.1277	43164.725
1996.18947	43013.525
1999.24925	42968.125
2002.30706	42793.325
2005.36288	42724.825
2008.41672	42650.825
2011.46859	42614.625
2014.51848	42465.625
2017.56639	42367.525
2020.61233	42291.725
2023.6563	42196.525
2026.6983	42136.825
2029.73833	42083.425
2032.7764	41983.525
2035.8125	41927.525
2038.84664	41877.525
2041.87881	41844.525
2044.90903	41785.325
2047.93729	41739.025
2050.96359	41704.225
2053.98794	41609.825
2057.01034	41616.525
2060.03078	41580.925
2063.04927	41527.325
2066.06582	41565.525
2069.08042	41542.825
2072.09307	41536.325
2075.10378	41447.425
2078.11255	41384.025
2081.11938	41456.225
2084.12426	41348.625
2087.12722	41362.125
2090.12824	41389.825
2093.12732	41395.625
2096.12447	41455.225
2099.11969	41456.925
2102.11299	41495.025
2105.10435	41481.025
2108.09379	41537.225
2111.08131	41614.425
2114.0669	41601.925
2117.05057	41685.525
2120.03233	41709.125
2123.01216	41742.325
2125.99008	41771.325
2128.96609	41801.925
2131.94018	41833.525
2134.91236	41844.125
2137.88263	41967.125
2140.851	41897.725
2143.81746	42008.225
2146.78201	42009.225
2149.74466	41997.325
2152.7054	42042.925
2155.66425	42045.125
2158.6212	42065.325
2161.57625	42049.925
2164.52941	42051.825
2167.48067	42031.725
2170.43004	42111.525
2173.37752	42072.825
2176.32311	42039.025
2179.26681	42060.425
2182.20863	42048.825
2185.14856	42147.625
2188.08661	42139.625
2191.02278	42072.225
2193.95707	42111.525
2196.88948	42106.525
2199.82001	42137.625
2202.74867	42046.125
2205.67545	42091.225
2208.60037	42012.625
2211.52341	41956.325
2214.44458	41925.925
2217.36388	41859.225
2220.28132	41791.925
2223.1969	41753.425
2226.11061	41657.225
2229.02246	41652.225
2231.93245	41566.025
2234.84058	41547.025
2237.74686	41494.125
2240.65128	41532.625
2243.55385	41436.325
2246.45456	41383.725
2249.35343	41318.525
2252.25044	41248.325
2255.14561	41155.425
2258.03893	41142.825
2260.93041	41056.525
2263.82004	40944.525
2266.70783	40924.925
2269.59378	40871.725
2272.4779	40740.825
2275.36017	40654.825
2278.24061	40645.225
2281.11922	40510.425
2283.996	40491.525
2286.87094	40481.225
2289.74405	40416.725
2292.61534	40413.525
2295.4848	40434.225
2298.35243	40495.825
2301.21824	40446.525
2304.08223	40468.925
2306.94439	40454.625
2309.80474	40505.925
2312.66327	40496.425
2315.51999	40406.625
2318.37489	40442.625
2321.22797	40402.025
2324.07925	40415.725
2326.92871	40325.725
2329.77637	40261.225
2332.62222	40249.225
2335.46626	40200.325
2338.3085	40149.625
2341.14893	40165.925
2343.98756	40228.225
2346.8244	40193.425
2349.65943	40223.025
2352.49267	40126.325
2355.32411	40100.825
2358.15376	40058.825
2360.98161	39990.325
2363.80768	40010.425
2366.63195	39923.825
2369.45444	39925.725
2372.27514	39796.925
2375.09405	39776.325
2377.91118	39790.625
2380.72652	39679.825
2383.54009	39595.225
2386.35187	39532.225
2389.16188	39496.225
2391.97011	39441.825
2394.77657	39453.125
2397.58125	39390.325
2400.38416	39293.625
2403.18529	39263.825
2405.98466	39259.025
2408.78226	39171.525
2411.57809	39164.325
2414.37216	39138.325
2417.16446	39090.025
2419.955	39069.125
2422.74378	39045.925
2425.5308	39006.825
2428.31606	39000.825
2431.09956	38975.225
2433.88131	38915.925
2436.6613	38950.025
2439.43954	38894.225
2442.21603	38908.325
2444.99077	38853.225
2447.76377	38882.225
2450.53501	38826.625
2453.30451	38852.925
2456.07226	38809.725
2458.83827	38765.425
2461.60254	38775.325
2464.36507	38747.525
2467.12586	38804.125
2469.88492	38814.225
2472.64224	38792.125
2475.39782	38794.725
2478.15167	38805.325
2480.90379	38779.725
2483.65417	38773.725
2486.40283	38768.425
2489.14976	38810.925
2491.89497	38760.625
2494.63845	38764.925
2497.3802	38747.725
2500.12024	38696.625
2502.85855	38672.925
2505.59514	38699.825
2508.33002	38711.125
2511.06318	38633.825
2513.79462	38642.925
2516.52435	38636.225
2519.25237	38630.325
2521.97867	38657.325
2524.70327	38613.725
2527.42616	38524.325
2530.14734	38568.825
2532.86681	38503.625
2535.58458	38511.425
2538.30065	38485.125
2541.01501	38411.825
2543.72768	38347.825
2546.43864	38382.725
2549.14791	38373.825
2551.85548	38295.825
2554.56136	38285.025
2557.26554	38230.925
2559.96803	38257.125
2562.66883	38184.925
2565.36794	38194.725
2568.06536	38199.825
2570.7611	38173.825
2573.45514	38054.125
2576.14751	38071.925
2578.83819	38041.325
2581.52719	38018.625
2584.21451	37963.625
2586.90015	38005.325
2589.58411	37940.325
2592.2664	37918.225
2594.94701	37847.425
2597.62594	37805.325
2600.30321	37767.925
2602.9788	37731.625
2605.65273	37697.825
2608.32498	37735.925
2610.99557	37692.425
2613.66449	37709.125
2616.33175	37640.125
2618.99734	37650.425
2621.66128	37646.225
2624.32355	37575.625
2626.98416	37577.725
2629.64311	37543.325
2632.30041	37573.125
2634.95605	37478.525
2637.61004	37411.925
2640.26238	37414.325
2642.91306	37410.125
2645.56209	37437.725
2648.20948	37388.125
2650.85521	37440.225
2653.4993	37415.725
2656.14175	37379.325
2658.78255	37424.325
2661.42171	37448.725
2664.05923	37465.525
2666.6951	37492.825
2669.32934	37517.725
2671.96194	37514.225
2674.59291	37547.825
2677.22224	37549.625
2679.84993	37526.225
2682.476	37461.025
2685.10043	37468.325
2687.72324	37365.425
2690.34441	37421.025
2692.96396	37435.025
2695.58188	37484.025
2698.19818	37436.625
2700.81285	37407.925
2703.4259	37352.925
2706.03733	37485.325
2708.64714	37538.825
2711.25533	37523.325
2713.86191	37552.425
2716.46687	37586.425
2719.07021	37573.925
2721.67194	37595.025
2724.27206	37504.825
2726.87057	37608.125
2729.46747	37684.425
2732.06276	37658.125
2734.65644	37655.225
2737.24852	37651.825
2739.83899	37622.125
2742.42786	37620.625
2745.01513	37542.325
2747.60079	37624.125
2750.18486	37596.825
2752.76733	37576.625
2755.3482	37464.425
2757.92747	37560.025
2760.50515	37467.525
2763.08123	37529.325
2765.65573	37452.025
2768.22863	37479.925
2770.79994	37464.025
2773.36967	37397.825
2775.9378	37342.725
2778.50435	37345.825
2781.06932	37272.425
2783.6327	37284.525
2786.1945	37255.525
2788.75471	37238.125
2791.31335	37113.925
2793.87041	37080.425
2796.42589	36970.025
2798.97979	37006.725
2801.53212	36919.825
2804.08288	36860.925
2806.63206	36756.325
2809.17967	36736.625
2811.72571	36670.625
2814.27018	36662.725
2816.81308	36614.625
2819.35442	36551.725
2821.89419	36405.825
2824.43239	36446.525
2826.96904	36421.125
2829.50412	36394.925
2832.03763	36307.725
2834.56959	36278.125
2837.1	36240.225
2839.62884	36198.725
2842.15613	36160.825
2844.68186	36196.025
2847.20604	36118.325
2849.72867	36128.625
2852.24974	36086.025
2854.76927	36046.925
2857.28724	35987.525
2859.80367	35942.625
2862.31855	35896.125
2864.83189	35899.825
2867.34368	35839.325
2869.85393	35812.025
2872.36264	35828.525
2874.8698	35804.625
2877.37543	35913.225
2879.87952	35869.725
2882.38207	35861.325
2884.88308	35853.625
2887.38256	35900.725
2889.88051	35929.425
2892.37692	35876.025
2894.8718	35867.825
2897.36515	35978.525
2899.85698	35941.625
2902.34727	36039.125
2904.83604	36028.325
2907.32328	36089.225
2909.809	36036.925
2912.29319	36079.125
2914.77587	36031.625
2917.25702	36053.625
2919.73665	36041.625
2922.21476	36013.025
2924.69136	35964.925
2927.16644	35946.725
2929.64	35894.325
2932.11205	35902.325
2934.58258	35725.025
2937.05161	35863.925
2939.51912	35853.125
2941.98513	35856.625
2944.44962	35793.925
2946.91261	35706.025
2949.37409	35856.325
2951.83407	35810.525
2954.29254	35739.425
2956.74951	35756.325
2959.20498	35727.325
2961.65895	35656.525
2964.11142	35681.025
2966.56239	35571.925
2969.01186	35574.625
2971.45984	35458.625
2973.90632	35429.925
2976.35131	35436.825
2978.7948	35400.825
2981.23681	35308.525
2983.67732	35211.125
2986.11635	35175.225
2988.55388	35160.225
2990.98993	35029.225
2993.4245	34966.225
2995.85758	34897.125
2998.28917	34845.125
3000.71928	34796.525
3003.14791	34725.125
3005.57506	34743.125
3008.00073	34699.325
3010.42493	34678.325
3012.84764	34638.125
3015.26888	34617.825
3017.68865	34572.725
3020.10694	34515.625
3022.52376	34437.025
3024.9391	34415.425
3027.35298	34396.725
3029.76539	34334.125
3032.17632	34261.925
3034.5858	34208.425
3036.9938	34197.325
3039.40034	34136.625
3041.80542	34169.925
3044.20903	34048.425
3046.61118	34050.825
3049.01187	33964.825
3051.4111	33968.825
3053.80888	33887.225
3056.20519	33849.525
3058.60005	33801.025
3060.99345	33836.825
3063.3854	33683.025
3065.7759	33571.225
3068.16494	33452.425
3070.55254	33385.825
3072.93868	33286.725
3075.32338	33269.425
3077.70662	33225.625
3080.08842	33164.625
3082.46878	33176.025
3084.84769	33076.225
3087.22515	33094.725
3089.60118	33045.425
3091.97576	32988.725
3094.3489	33047.325
3096.72061	32987.725
3099.09087	32935.525
3101.4597	32940.025
3103.82709	32917.825
3106.19305	32833.725
3108.55757	32819.925
3110.92066	32743.425
3113.28232	32682.825
3115.64255	32566.125
3118.00134	32525.825
3120.35871	32468.925
3122.71466	32426.325
3125.06917	32384.325
