Data from AgNPs_FTO_APTES_UA_100uM_R6G_10uM_NaF_0.1M_Addition_RamanShift__24__15-45-07-472.txt Node

Date: Fri Dec 17 15:45:07 GMT 2021
User: TCL
Spectrometer: QEP01345
Trigger mode: 4
Integration Time (sec): 7.000000E0
Scans to average: 10
Electric dark correction enabled: true
Nonlinearity correction enabled: false
Boxcar width: 0
XAxis mode: Raman Shifts
Number of Pixels in Spectrum: 1044
>>>>>Begin Spectral Data<<<<<
46.04893	-0.1375
50.45542	-0.4375
54.85868	-1.0375
59.25871	-0.0375
63.6555	66.1625
68.04907	67.4625
72.43941	71.3625
76.82654	77.9625
81.21044	76.9625
85.59113	81.6625
89.96862	85.6625
94.34289	88.8625
98.71396	92.0625
103.08183	93.1625
107.4465	94.9625
111.80798	97.7625
116.16626	102.5625
120.52136	104.0625
124.87327	107.5625
129.222	113.8625
133.56755	114.1625
137.90993	126.4625
142.24913	128.4625
146.58517	142.3625
150.91804	166.3625
155.24774	189.9625
159.57429	235.2625
163.89768	294.9625
168.21792	383.9625
172.53501	517.2625
176.84895	708.6625
181.15975	995.4625
185.46741	1387.4625
189.77193	1916.1625
194.07331	2565.2625
198.37157	3318.2625
202.6667	4095.7625
206.9587	4877.2625
211.24758	5635.6625
215.53334	6383.9625
219.81599	7182.5625
224.09553	8053.5625
228.37195	9038.7625
232.64527	10131.1625
236.91549	11278.0625
241.18261	12438.1625
245.44663	13536.4625
249.70755	14496.4625
253.96539	15334.0625
258.22014	16074.9625
262.4718	16642.4625
266.72039	17092.6625
270.96589	17327.5625
275.20832	17352.2625
279.44768	17238.1625
283.68397	17048.4625
287.91719	16816.9625
292.14735	16679.2625
296.37445	16704.6625
300.59849	16807.6625
304.81948	16950.8625
309.03742	17001.4625
313.25231	16790.2625
317.46415	16355.6625
321.67296	15832.8625
325.87872	15381.3625
330.08145	15212.0625
334.28114	15231.0625
338.47781	15390.7625
342.67145	15620.8625
346.86207	15899.6625
351.04966	16333.0625
355.23424	16753.8625
359.4158	17109.4625
363.59435	17430.8625
367.76989	17623.2625
371.94243	17775.0625
376.11196	17883.2625
380.27849	17971.4625
384.44203	18029.1625
388.60257	18044.0625
392.76012	18050.0625
396.91468	18242.8625
401.06626	18435.3625
405.21485	18642.3625
409.36047	18550.6625
413.50311	18226.9625
417.64277	17828.3625
421.77947	17612.0625
425.9132	17539.9625
430.04396	17515.7625
434.17176	17596.1625
438.2966	17718.2625
442.41849	17950.6625
446.53742	18152.5625
450.6534	18384.7625
454.76644	18600.5625
458.87653	18720.1625
462.98368	18755.1625
467.08789	18674.8625
471.18916	18570.1625
475.2875	18393.6625
479.38291	18287.7625
483.4754	18132.2625
487.56496	18026.0625
491.6516	17950.7625
495.73531	17908.6625
499.81612	17903.9625
503.89401	17964.4625
507.96899	18059.8625
512.04106	18159.5625
516.11023	18290.3625
520.1765	18386.2625
524.23987	18396.4625
528.30034	18248.7625
532.35792	18158.8625
536.41261	18026.7625
540.46441	17846.8625
544.51333	17766.4625
548.55936	17798.4625
552.60252	17920.1625
556.64279	18099.6625
560.6802	18187.1625
564.71473	18221.4625
568.7464	18350.1625
572.7752	18490.1625
576.80114	18423.5625
580.82422	18270.8625
584.84444	18251.2625
588.86181	18237.1625
592.87633	18294.4625
596.888	18393.2625
600.89682	18709.4625
604.9028	19649.4625
608.90594	22002.6625
612.90624	24827.3625
616.90371	24181.3625
620.89834	20290.9625
624.89015	18487.1625
628.87913	18181.3625
632.86528	18343.9625
636.84862	18547.3625
640.82913	18415.7625
644.80683	18051.6625
648.78172	17701.4625
652.75379	17597.2625
656.72306	17799.6625
660.68952	18109.3625
664.65319	18086.5625
668.61405	17817.6625
672.57211	17732.7625
676.52738	17738.3625
680.47986	17694.0625
684.42955	17559.3625
688.37646	17487.3625
692.32058	17490.0625
696.26192	17568.5625
700.20048	17604.2625
704.13626	17682.5625
708.06928	17695.3625
711.99952	17615.5625
715.927	17533.1625
719.85171	17549.1625
723.77365	17529.8625
727.69284	17507.1625
731.60928	17455.0625
735.52295	17387.1625
739.43388	17413.7625
743.34206	17481.8625
747.24749	17489.6625
751.15017	17490.2625
755.05012	17602.2625
758.94733	17898.9625
762.8418	18648.9625
766.73354	19951.9625
770.62254	21555.7625
774.50882	22451.9625
778.39237	21868.0625
782.27321	20198.5625
786.15132	18721.0625
790.02671	17826.4625
793.89938	17368.2625
797.76935	17167.9625
801.6366	17148.7625
805.50115	17117.7625
809.36299	17122.5625
813.22213	17079.5625
817.07857	17049.8625
820.93231	17034.2625
824.78336	16973.6625
828.63172	16965.3625
832.47738	16958.4625
836.32036	16878.8625
840.16066	16850.4625
843.99827	16852.8625
847.8332	16831.4625
851.66546	16819.8625
855.49504	16782.4625
859.32195	16810.9625
863.1462	16779.4625
866.96777	16792.1625
870.78668	16755.3625
874.60293	16754.5625
878.41652	16765.2625
882.22745	16846.3625
886.03573	16899.2625
889.84136	16892.4625
893.64433	16827.8625
897.44466	16738.6625
901.24235	16633.6625
905.0374	16568.0625
908.8298	16517.6625
912.61957	16483.8625
916.40671	16532.1625
920.19121	16549.5625
923.97308	16630.1625
927.75233	16622.7625
931.52895	16641.6625
935.30295	16607.0625
939.07433	16425.3625
942.84309	16239.4625
946.60924	16167.1625
950.37278	16038.6625
954.13371	15998.1625
957.89203	15926.6625
961.64774	15905.8625
965.40086	15833.6625
969.15137	15766.9625
972.89929	15719.8625
976.64461	15692.9625
980.38733	15655.3625
984.12747	15639.2625
987.86502	15706.9625
991.59999	15756.4625
995.33237	15860.2625
999.06217	16020.8625
1002.78939	16197.9625
1006.51404	16374.2625
1010.23611	16572.3625
1013.95561	16723.1625
1017.67255	16750.5625
1021.38692	16708.5625
1025.09872	16568.3625
1028.80796	16491.4625
1032.51465	16559.0625
1036.21877	16632.2625
1039.92035	16682.5625
1043.61937	16639.3625
1047.31584	16566.7625
1051.00976	16472.5625
1054.70114	16410.5625
1058.38998	16419.6625
1062.07627	16485.8625
1065.76003	16592.0625
1069.44126	16676.7625
1073.11995	16749.0625
1076.79611	16847.6625
1080.46974	16884.7625
1084.14085	16909.4625
1087.80943	17040.9625
1091.47549	17077.0625
1095.13903	16981.7625
1098.80005	16788.1625
1102.45857	16530.5625
1106.11456	16429.1625
1109.76805	16440.0625
1113.41903	16575.6625
1117.06751	16796.4625
1120.71348	17084.3625
1124.35696	17337.3625
1127.99793	17676.3625
1131.63641	17824.3625
1135.2724	17608.2625
1138.90589	17300.0625
1142.5369	17023.1625
1146.16542	16769.3625
1149.79145	16579.5625
1153.415	16446.3625
1157.03607	16484.7625
1160.65467	16604.7625
1164.27079	16878.8625
1167.88443	17343.2625
1171.49561	17949.1625
1175.10432	18897.0625
1178.71056	20269.6625
1182.31434	21538.0625
1185.91565	22120.6625
1189.51451	22041.7625
1193.11091	21444.4625
1196.70485	20505.6625
1200.29634	19722.5625
1203.88538	19085.7625
1207.47197	18522.7625
1211.05612	17900.5625
1214.63782	17554.5625
1218.21708	17315.1625
1221.79391	17256.9625
1225.36829	17229.9625
1228.94024	17217.7625
1232.50976	17230.1625
1236.07685	17250.5625
1239.6415	17266.1625
1243.20374	17329.6625
1246.76355	17451.3625
1250.32093	17527.2625
1253.8759	17764.2625
1257.42845	18056.1625
1260.97859	18323.7625
1264.52631	18580.6625
1268.07163	18819.9625
1271.61453	19114.6625
1275.15503	19339.8625
1278.69312	19544.1625
1282.22882	19623.5625
1285.76211	19808.9625
1289.29301	20100.3625
1292.82151	20499.2625
1296.34761	20943.4625
1299.87133	21624.5625
1303.39266	22534.5625
1306.9116	23828.5625
1310.42815	25180.3625
1313.94233	26039.5625
1317.45412	25839.8625
1320.96354	25047.0625
1324.47058	24051.9625
1327.97525	23093.5625
1331.47754	22482.0625
1334.97747	22272.1625
1338.47502	22355.0625
1341.97022	22735.9625
1345.46305	23185.7625
1348.95352	23723.6625
1352.44163	24504.1625
1355.92738	25708.3625
1359.41078	27522.9625
1362.89183	29524.5625
1366.37053	29389.3625
1369.84688	26465.9625
1373.32088	23277.8625
1376.79254	21167.9625
1380.26186	20078.6625
1383.72883	19522.3625
1387.19347	19165.3625
1390.65578	18826.1625
1394.11575	18494.2625
1397.57339	18306.6625
1401.0287	18266.1625
1404.48168	18299.5625
1407.93234	18390.3625
1411.38068	18451.3625
1414.82669	18422.5625
1418.27039	18263.7625
1421.71177	18022.1625
1425.15083	17756.8625
1428.58758	17564.6625
1432.02203	17501.5625
1435.45416	17530.1625
1438.88399	17608.1625
1442.31151	17677.7625
1445.73673	17746.5625
1449.15965	17869.9625
1452.58027	17929.2625
1455.9986	17940.5625
1459.41463	18006.4625
1462.82837	18149.0625
1466.23982	18373.4625
1469.64898	18606.2625
1473.05586	18829.8625
1476.46045	18973.5625
1479.86276	19086.8625
1483.26279	19243.4625
1486.66054	19498.9625
1490.05602	19771.5625
1493.44922	20169.8625
1496.84016	20803.5625
1500.22882	21846.2625
1503.61521	23279.6625
1506.99934	25029.5625
1510.38121	26691.1625
1513.76081	27290.5625
1517.13816	26462.1625
1520.51324	24590.9625
1523.88607	22571.7625
1527.25665	21123.3625
1530.62498	20270.8625
1533.99105	19813.8625
1537.35488	19472.6625
1540.71647	19350.5625
1544.07581	19215.6625
1547.4329	19180.4625
1550.78776	19104.5625
1554.14038	19159.7625
1557.49077	19276.3625
1560.83892	19470.2625
1564.18484	19667.1625
1567.52853	19852.4625
1570.86999	20073.6625
1574.20922	20228.1625
1577.54624	20207.9625
1580.88103	19843.1625
1584.2136	19234.2625
1587.54395	18817.6625
1590.87208	18836.2625
1594.19801	19231.1625
1597.52172	19915.8625
1600.84321	20282.5625
1604.16251	20016.1625
1607.47959	19387.6625
1610.79447	18650.0625
1614.10715	17866.5625
1617.41763	17142.0625
1620.7259	16593.8625
1624.03199	16254.1625
1627.33587	16193.2625
1630.63757	16271.0625
1633.93707	16658.0625
1637.23439	17286.8625
1640.52951	18125.2625
1643.82246	19313.5625
1647.11321	20622.1625
1650.40179	21652.5625
1653.68819	21480.5625
1656.97241	19944.0625
1660.25446	18058.3625
1663.53433	16584.3625
1666.81203	15645.3625
1670.08756	15087.0625
1673.36092	14686.6625
1676.63211	14379.2625
1679.90115	14169.8625
1683.16801	14005.7625
1686.43272	13917.4625
1689.69527	13828.9625
1692.95567	13764.8625
1696.2139	13732.3625
1699.46999	13682.0625
1702.72392	13639.6625
1705.97571	13584.4625
1709.22535	13532.4625
1712.47284	13494.1625
1715.71819	13478.4625
1718.96139	13425.2625
1722.20246	13409.9625
1725.44139	13378.4625
1728.67818	13321.9625
1731.91284	13226.0625
1735.14537	13163.0625
1738.37576	13148.3625
1741.60403	13079.4625
1744.83017	13065.0625
1748.05418	13032.5625
1751.27607	13019.1625
1754.49584	13019.9625
1757.71349	12996.0625
1760.92903	12997.4625
1764.14244	12971.1625
1767.35375	12959.1625
1770.56294	12963.1625
1773.77002	12936.6625
1776.97499	12895.5625
1780.17785	12866.8625
1783.37861	12837.7625
1786.57727	12836.5625
1789.77382	12799.0625
1792.96828	12782.6625
1796.16064	12751.1625
1799.3509	12744.2625
1802.53907	12728.2625
1805.72514	12691.9625
1808.90913	12665.8625
1812.09102	12634.9625
1815.27083	12616.5625
1818.44856	12563.1625
1821.6242	12576.3625
1824.79776	12547.3625
1827.96924	12528.9625
1831.13864	12510.5625
1834.30597	12508.8625
1837.47122	12512.7625
1840.6344	12470.1625
1843.7955	12467.5625
1846.95454	12444.9625
1850.11151	12468.7625
1853.26642	12451.7625
1856.41926	12466.8625
1859.57004	12432.5625
1862.71876	12420.3625
1865.86542	12425.2625
1869.01003	12409.4625
1872.15258	12395.2625
1875.29308	12384.2625
1878.43152	12354.0625
1881.56792	12356.0625
1884.70227	12343.9625
1887.83457	12323.1625
1890.96482	12334.5625
1894.09304	12328.2625
1897.21921	12310.1625
1900.34335	12301.2625
1903.46544	12294.2625
1906.58551	12290.3625
1909.70353	12263.8625
1912.81953	12247.5625
1915.93349	12238.8625
1919.04543	12213.4625
1922.15534	12195.1625
1925.26322	12193.9625
1928.36908	12145.8625
1931.47292	12125.3625
1934.57473	12075.7625
1937.67453	12049.6625
1940.77232	12029.9625
1943.86808	12029.0625
1946.96184	11963.5625
1950.05358	11955.4625
1953.14331	11929.4625
1956.23103	11891.1625
1959.31675	11840.5625
1962.40046	11821.9625
1965.48217	11806.5625
1968.56188	11765.2625
1971.63959	11729.1625
1974.7153	11707.9625
1977.78901	11648.2625
1980.86073	11617.1625
1983.93046	11586.5625
1986.99819	11545.2625
1990.06394	11524.3625
1993.1277	11482.7625
1996.18947	11432.9625
1999.24925	11429.5625
2002.30706	11360.4625
2005.36288	11331.2625
2008.41672	11317.4625
2011.46859	11297.6625
2014.51848	11264.9625
2017.56639	11225.2625
2020.61233	11206.8625
2023.6563	11180.9625
2026.6983	11152.4625
2029.73833	11140.0625
2032.7764	11103.4625
2035.8125	11080.9625
2038.84664	11045.8625
2041.87881	11039.6625
2044.90903	11024.5625
2047.93729	11008.9625
2050.96359	10983.4625
2053.98794	10992.2625
2057.01034	10944.3625
2060.03078	10930.7625
2063.04927	10941.1625
2066.06582	10927.2625
2069.08042	10906.5625
2072.09307	10933.9625
2075.10378	10909.7625
2078.11255	10911.1625
2081.11938	10894.1625
2084.12426	10875.4625
2087.12722	10888.1625
2090.12824	10886.9625
2093.12732	10879.9625
2096.12447	10883.3625
2099.11969	10884.0625
2102.11299	10868.1625
2105.10435	10888.5625
2108.09379	10891.9625
2111.08131	10904.2625
2114.0669	10900.0625
2117.05057	10911.0625
2120.03233	10937.5625
2123.01216	10921.9625
2125.99008	10937.9625
2128.96609	10960.1625
2131.94018	10957.7625
2134.91236	10958.0625
2137.88263	10987.2625
2140.851	10968.7625
2143.81746	10971.6625
2146.78201	10979.4625
2149.74466	10987.4625
2152.7054	10974.2625
2155.66425	10983.4625
2158.6212	10996.7625
2161.57625	10984.7625
2164.52941	10957.1625
2167.48067	10973.2625
2170.43004	10951.0625
2173.37752	10962.0625
2176.32311	10945.0625
2179.26681	10951.4625
2182.20863	10963.3625
2185.14856	10969.7625
2188.08661	10947.2625
2191.02278	10934.9625
2193.95707	10910.6625
2196.88948	10929.9625
2199.82001	10930.8625
2202.74867	10902.6625
2205.67545	10903.7625
2208.60037	10876.7625
2211.52341	10837.1625
2214.44458	10842.6625
2217.36388	10818.8625
2220.28132	10806.7625
2223.1969	10809.6625
2226.11061	10794.9625
2229.02246	10757.9625
2231.93245	10723.8625
2234.84058	10695.9625
2237.74686	10689.7625
2240.65128	10699.2625
2243.55385	10675.2625
2246.45456	10680.6625
2249.35343	10654.3625
2252.25044	10648.4625
2255.14561	10614.0625
2258.03893	10649.7625
2260.93041	10608.9625
2263.82004	10609.1625
2266.70783	10595.9625
2269.59378	10551.9625
2272.4779	10536.3625
2275.36017	10488.9625
2278.24061	10482.0625
2281.11922	10465.1625
2283.996	10435.2625
2286.87094	10428.2625
2289.74405	10382.3625
2292.61534	10386.9625
2295.4848	10386.9625
2298.35243	10371.7625
2301.21824	10371.9625
2304.08223	10358.8625
2306.94439	10379.4625
2309.80474	10351.6625
2312.66327	10346.6625
2315.51999	10352.2625
2318.37489	10371.7625
2321.22797	10301.6625
2324.07925	10294.2625
2326.92871	10291.9625
2329.77637	10291.7625
2332.62222	10278.3625
2335.46626	10274.2625
2338.3085	10248.7625
2341.14893	10250.3625
2343.98756	10240.0625
2346.8244	10209.7625
2349.65943	10217.2625
2352.49267	10207.4625
2355.32411	10237.7625
2358.15376	10223.0625
2360.98161	10224.5625
2363.80768	10210.3625
2366.63195	10181.2625
2369.45444	10183.8625
2372.27514	10178.0625
2375.09405	10161.8625
2377.91118	10146.9625
2380.72652	10150.4625
2383.54009	10118.2625
2386.35187	10088.4625
2389.16188	10068.5625
2391.97011	10041.9625
2394.77657	10019.0625
2397.58125	9993.6625
2400.38416	10011.3625
2403.18529	9973.4625
2405.98466	9970.7625
2408.78226	9958.7625
2411.57809	9942.4625
2414.37216	9925.4625
2417.16446	9908.6625
2419.955	9889.7625
2422.74378	9895.2625
2425.5308	9881.6625
2428.31606	9885.0625
2431.09956	9867.0625
2433.88131	9866.1625
2436.6613	9864.0625
2439.43954	9833.1625
2442.21603	9837.3625
2444.99077	9791.3625
2447.76377	9850.7625
2450.53501	9810.7625
2453.30451	9794.2625
2456.07226	9809.0625
2458.83827	9780.1625
2461.60254	9760.9625
2464.36507	9780.4625
2467.12586	9755.8625
2469.88492	9742.0625
2472.64224	9759.4625
2475.39782	9748.2625
2478.15167	9756.4625
2480.90379	9733.8625
2483.65417	9752.3625
2486.40283	9748.0625
2489.14976	9744.0625
2491.89497	9733.8625
2494.63845	9770.6625
2497.3802	9736.3625
2500.12024	9735.5625
2502.85855	9725.2625
2505.59514	9721.2625
2508.33002	9700.2625
2511.06318	9683.3625
2513.79462	9681.3625
2516.52435	9658.4625
2519.25237	9632.8625
2521.97867	9644.8625
2524.70327	9608.8625
2527.42616	9583.8625
2530.14734	9568.0625
2532.86681	9572.8625
2535.58458	9559.2625
2538.30065	9557.7625
2541.01501	9532.8625
2543.72768	9541.3625
2546.43864	9489.0625
2549.14791	9499.7625
2551.85548	9487.1625
2554.56136	9472.6625
2557.26554	9455.6625
2559.96803	9458.5625
2562.66883	9450.7625
2565.36794	9453.0625
2568.06536	9417.1625
2570.7611	9416.2625
2573.45514	9411.9625
2576.14751	9403.9625
2578.83819	9383.1625
2581.52719	9376.4625
2584.21451	9319.6625
2586.90015	9368.6625
2589.58411	9315.6625
2592.2664	9316.8625
2594.94701	9295.0625
2597.62594	9278.1625
2600.30321	9268.7625
2602.9788	9271.5625
2605.65273	9262.7625
2608.32498	9233.1625
2610.99557	9226.0625
2613.66449	9220.4625
2616.33175	9212.7625
2618.99734	9224.6625
2621.66128	9214.6625
2624.32355	9207.0625
2626.98416	9197.6625
2629.64311	9190.7625
2632.30041	9192.6625
2634.95605	9186.9625
2637.61004	9170.1625
2640.26238	9158.4625
2642.91306	9136.6625
2645.56209	9109.0625
2648.20948	9101.6625
2650.85521	9107.9625
2653.4993	9105.1625
2656.14175	9091.0625
2658.78255	9110.6625
2661.42171	9105.6625
2664.05923	9114.5625
2666.6951	9112.5625
2669.32934	9116.2625
2671.96194	9125.3625
2674.59291	9121.2625
2677.22224	9136.0625
2679.84993	9130.5625
2682.476	9129.1625
2685.10043	9124.1625
2687.72324	9129.6625
2690.34441	9129.6625
2692.96396	9145.6625
2695.58188	9152.0625
2698.19818	9122.2625
2700.81285	9106.8625
2703.4259	9136.2625
2706.03733	9162.3625
2708.64714	9123.0625
2711.25533	9126.2625
2713.86191	9124.0625
2716.46687	9128.6625
2719.07021	9134.2625
2721.67194	9122.9625
2724.27206	9109.9625
2726.87057	9104.8625
2729.46747	9113.8625
2732.06276	9117.7625
2734.65644	9078.3625
2737.24852	9125.1625
2739.83899	9086.2625
2742.42786	9102.3625
2745.01513	9077.8625
2747.60079	9084.2625
2750.18486	9041.7625
2752.76733	9055.6625
2755.3482	9066.6625
2757.92747	9049.3625
2760.50515	9069.6625
2763.08123	9055.0625
2765.65573	9038.1625
2768.22863	9035.7625
2770.79994	9029.6625
2773.36967	9022.0625
2775.9378	8993.2625
2778.50435	9001.9625
2781.06932	8999.0625
2783.6327	8965.5625
2786.1945	8955.3625
2788.75471	8961.7625
2791.31335	8931.6625
2793.87041	8903.8625
2796.42589	8890.5625
2798.97979	8902.7625
2801.53212	8869.5625
2804.08288	8856.6625
2806.63206	8818.8625
2809.17967	8807.9625
2811.72571	8807.0625
2814.27018	8812.9625
2816.81308	8802.0625
2819.35442	8769.2625
2821.89419	8765.1625
2824.43239	8776.1625
2826.96904	8766.0625
2829.50412	8770.3625
2832.03763	8744.1625
2834.56959	8764.1625
2837.1	8728.2625
2839.62884	8736.3625
2842.15613	8746.6625
2844.68186	8748.7625
2847.20604	8748.3625
2849.72867	8773.3625
2852.24974	8761.8625
2854.76927	8742.2625
2857.28724	8716.7625
2859.80367	8715.4625
2862.31855	8715.5625
2864.83189	8694.3625
2867.34368	8683.7625
2869.85393	8704.3625
2872.36264	8694.5625
2874.8698	8700.0625
2877.37543	8688.2625
2879.87952	8709.6625
2882.38207	8686.6625
2884.88308	8694.7625
2887.38256	8667.8625
2889.88051	8689.6625
2892.37692	8700.0625
2894.8718	8689.8625
2897.36515	8668.4625
2899.85698	8687.1625
2902.34727	8692.4625
2904.83604	8675.0625
2907.32328	8669.8625
2909.809	8672.0625
2912.29319	8695.2625
2914.77587	8701.9625
2917.25702	8693.7625
2919.73665	8681.9625
2922.21476	8680.8625
2924.69136	8671.8625
2927.16644	8675.2625
2929.64	8683.7625
2932.11205	8662.2625
2934.58258	8645.8625
2937.05161	8675.2625
2939.51912	8636.2625
2941.98513	8636.9625
2944.44962	8619.7625
2946.91261	8596.4625
2949.37409	8593.5625
2951.83407	8617.1625
2954.29254	8599.5625
2956.74951	8604.4625
2959.20498	8597.9625
2961.65895	8574.2625
2964.11142	8577.5625
2966.56239	8569.2625
2969.01186	8554.1625
2971.45984	8537.7625
2973.90632	8519.2625
2976.35131	8505.8625
2978.7948	8482.4625
2981.23681	8501.1625
2983.67732	8477.4625
2986.11635	8470.3625
2988.55388	8440.7625
2990.98993	8427.0625
2993.4245	8444.1625
2995.85758	8423.7625
2998.28917	8405.4625
3000.71928	8395.9625
3003.14791	8368.5625
3005.57506	8382.7625
3008.00073	8370.2625
3010.42493	8340.8625
3012.84764	8331.3625
3015.26888	8348.8625
3017.68865	8353.2625
3020.10694	8325.1625
3022.52376	8292.6625
3024.9391	8318.6625
3027.35298	8265.1625
3029.76539	8246.8625
3032.17632	8233.9625
3034.5858	8230.0625
3036.9938	8211.0625
3039.40034	8219.6625
3041.80542	8225.9625
3044.20903	8203.1625
3046.61118	8220.0625
3049.01187	8194.1625
3051.4111	8180.1625
3053.80888	8144.3625
