Data from AgNPs_FTO_APTES_UA_5uM_R6G_10uM_NaF_0.1M_Addition_RamanShift__36__13-07-37-293.txt Node

Date: Fri Dec 17 13:07:37 GMT 2021
User: TCL
Spectrometer: QEP01345
Trigger mode: 4
Integration Time (sec): 7.000000E0
Scans to average: 10
Electric dark correction enabled: true
Nonlinearity correction enabled: false
Boxcar width: 0
XAxis mode: Raman Shifts
Number of Pixels in Spectrum: 1044
>>>>>Begin Spectral Data<<<<<
46.04893	-2.175
50.45542	0.325
54.85868	-1.375
59.25871	-1.375
63.6555	150.225
68.04907	152.025
72.43941	158.125
76.82654	170.525
81.21044	167.525
85.59113	174.225
89.96862	185.525
94.34289	184.525
98.71396	192.025
103.08183	199.125
107.4465	204.425
111.80798	213.125
116.16626	216.125
120.52136	221.625
124.87327	235.625
129.222	247.725
133.56755	258.125
137.90993	281.525
142.24913	310.725
146.58517	349.425
150.91804	403.525
155.24774	479.125
159.57429	595.025
163.89768	763.025
168.21792	1013.225
172.53501	1373.325
176.84895	1895.125
181.15975	2668.125
185.46741	3737.125
189.77193	5145.625
194.07331	6882.225
198.37157	8894.425
202.6667	10995.825
206.9587	13059.825
211.24758	15062.325
215.53334	17080.025
219.81599	19180.225
224.09553	21532.425
228.37195	24124.325
232.64527	26929.825
236.91549	29920.425
241.18261	33038.525
245.44663	35998.525
249.70755	38675.725
253.96539	41025.425
258.22014	42974.625
262.4718	44572.325
266.72039	45688.025
270.96589	46162.525
275.20832	46229.625
279.44768	45932.425
283.68397	45368.825
287.91719	44916.925
292.14735	44509.125
296.37445	44316.425
300.59849	44249.925
304.81948	44281.325
309.03742	44301.525
313.25231	44123.525
317.46415	43777.825
321.67296	43300.925
325.87872	42934.125
330.08145	42685.925
334.28114	42743.925
338.47781	43039.125
342.67145	43517.525
346.86207	44083.825
351.04966	44824.125
355.23424	45623.925
359.4158	46343.125
363.59435	46980.725
367.76989	47463.525
371.94243	47702.525
376.11196	47974.525
380.27849	48209.925
384.44203	48513.025
388.60257	48979.525
392.76012	49474.725
396.91468	50055.725
401.06626	50738.325
405.21485	51324.625
409.36047	51404.725
413.50311	51214.025
417.64277	51338.425
421.77947	51701.925
425.9132	52073.925
430.04396	52359.325
434.17176	52568.525
438.2966	52757.425
442.41849	53269.625
446.53742	54322.725
450.6534	55453.125
454.76644	56400.025
458.87653	56704.425
462.98368	56401.525
467.08789	55660.925
471.18916	54767.625
475.2875	53675.825
479.38291	52881.225
483.4754	52239.225
487.56496	51802.325
491.6516	51452.825
495.73531	51356.025
499.81612	51483.325
503.89401	52034.025
507.96899	52436.525
512.04106	52536.025
516.11023	52288.325
520.1765	51831.725
524.23987	51284.225
528.30034	50830.225
532.35792	50414.025
536.41261	49997.525
540.46441	49632.125
544.51333	49534.525
548.55936	49893.225
552.60252	50557.825
556.64279	51360.725
560.6802	52069.125
564.71473	52542.525
568.7464	53131.625
572.7752	54277.925
576.80114	55853.425
580.82422	58032.125
584.84444	60771.025
588.86181	64012.325
592.87633	66304.425
596.888	65519.425
600.89682	62643.625
604.9028	61455.925
608.90594	63337.925
612.90624	65374.925
616.90371	61949.725
620.89834	55389.225
624.89015	52559.525
628.87913	52202.525
632.86528	52352.625
636.84862	52091.125
640.82913	51297.125
644.80683	50380.725
648.78172	49930.325
652.75379	50020.725
656.72306	50613.325
660.68952	51106.725
664.65319	50815.825
668.61405	50218.425
672.57211	50219.625
676.52738	50495.925
680.47986	50469.425
684.42955	50115.025
688.37646	49978.125
692.32058	50360.625
696.26192	51083.825
700.20048	51766.225
704.13626	52129.925
708.06928	52072.425
711.99952	51864.625
715.927	51858.025
719.85171	52057.525
723.77365	51996.325
727.69284	51339.825
731.60928	50648.225
735.52295	50313.925
739.43388	50307.125
743.34206	50415.725
747.24749	50728.825
751.15017	51089.725
755.05012	51732.525
758.94733	52719.325
762.8418	54401.325
766.73354	56607.725
770.62254	58576.025
774.50882	58741.525
778.39237	57055.025
782.27321	54631.925
786.15132	52700.525
790.02671	51436.925
793.89938	50819.525
797.76935	50652.325
801.6366	50576.625
805.50115	50601.525
809.36299	50427.625
813.22213	50016.125
817.07857	49663.425
820.93231	49421.025
824.78336	49247.425
828.63172	49193.125
832.47738	49113.625
836.32036	49113.225
840.16066	49188.825
843.99827	49235.125
847.8332	49285.125
851.66546	49260.825
855.49504	49411.025
859.32195	49419.025
863.1462	49393.625
866.96777	49327.125
870.78668	49311.725
874.60293	49390.225
878.41652	49432.625
882.22745	49565.125
886.03573	49731.325
889.84136	49801.425
893.64433	49593.725
897.44466	49315.125
901.24235	49193.325
905.0374	49085.925
908.8298	49070.325
912.61957	49119.925
916.40671	49407.125
920.19121	49952.825
923.97308	50383.925
927.75233	50547.025
931.52895	50114.225
935.30295	49524.425
939.07433	48948.925
942.84309	48551.025
946.60924	48413.325
950.37278	48432.825
954.13371	48451.425
957.89203	48345.525
961.64774	48336.125
965.40086	48321.725
969.15137	48325.625
972.89929	48250.725
976.64461	48264.325
980.38733	48354.125
984.12747	48507.725
987.86502	48742.925
991.59999	49024.725
995.33237	49394.125
999.06217	50203.325
1002.78939	51187.425
1006.51404	52252.025
1010.23611	53232.525
1013.95561	53702.125
1017.67255	53630.625
1021.38692	52986.525
1025.09872	52173.025
1028.80796	51703.325
1032.51465	51941.425
1036.21877	52232.625
1039.92035	52441.725
1043.61937	52421.725
1047.31584	52099.025
1051.00976	51740.325
1054.70114	51616.825
1058.38998	51784.525
1062.07627	52108.825
1065.76003	52609.225
1069.44126	53181.025
1073.11995	53972.925
1076.79611	54629.825
1080.46974	55055.125
1084.14085	55335.925
1087.80943	55705.825
1091.47549	56062.325
1095.13903	56121.925
1098.80005	55569.625
1102.45857	54589.325
1106.11456	53887.225
1109.76805	53485.425
1113.41903	53411.825
1117.06751	53373.925
1120.71348	53580.625
1124.35696	53851.025
1127.99793	54133.225
1131.63641	54438.325
1135.2724	54450.925
1138.90589	54515.325
1142.5369	54742.225
1146.16542	55106.325
1149.79145	55462.425
1153.415	55813.725
1157.03607	56495.425
1160.65467	57872.625
1164.27079	60228.725
1167.88443	62791.725
1171.49561	65224.725
1175.10432	67763.425
1178.71056	71024.525
1182.31434	74410.825
1185.91565	76311.325
1189.51451	76206.525
1193.11091	75033.525
1196.70485	73185.225
1200.29634	71345.925
1203.88538	70215.825
1207.47197	69948.625
1211.05612	69707.425
1214.63782	68787.425
1218.21708	67224.825
1221.79391	65565.925
1225.36829	64328.425
1228.94024	63538.025
1232.50976	62948.625
1236.07685	62370.625
1239.6415	61903.125
1243.20374	61897.525
1246.76355	62358.525
1250.32093	63338.325
1253.8759	64519.025
1257.42845	65975.825
1260.97859	67598.925
1264.52631	69418.325
1268.07163	71253.525
1271.61453	73140.025
1275.15503	74937.325
1278.69312	76630.625
1282.22882	78216.925
1285.76211	79949.625
1289.29301	81970.625
1292.82151	84585.825
1296.34761	87933.425
1299.87133	92129.225
1303.39266	96681.025
1306.9116	100696.625
1310.42815	103537.825
1313.94233	104653.125
1317.45412	103852.125
1320.96354	102406.425
1324.47058	101488.825
1327.97525	101395.225
1331.47754	101523.425
1334.97747	101754.525
1338.47502	101353.825
1341.97022	100282.625
1345.46305	98139.425
1348.95352	96232.225
1352.44163	95354.525
1355.92738	96302.625
1359.41078	99011.725
1362.89183	101002.825
1366.37053	99581.425
1369.84688	93816.225
1373.32088	85746.125
1376.79254	79608.425
1380.26186	77478.625
1383.72883	77565.825
1387.19347	77936.025
1390.65578	77370.425
1394.11575	76861.925
1397.57339	77697.925
1401.0287	79217.325
1404.48168	80793.825
1407.93234	81690.525
1411.38068	81203.125
1414.82669	79426.025
1418.27039	76860.525
1421.71177	74126.025
1425.15083	72080.225
1428.58758	71414.525
1432.02203	72289.925
1435.45416	74413.425
1438.88399	76650.825
1442.31151	78174.125
1445.73673	78504.525
1449.15965	78324.225
1452.58027	77728.025
1455.9986	77141.625
1459.41463	77250.525
1462.82837	78416.625
1466.23982	79905.725
1469.64898	81326.725
1473.05586	82222.325
1476.46045	82396.625
1479.86276	81722.325
1483.26279	80909.225
1486.66054	80288.425
1490.05602	80416.425
1493.44922	80588.725
1496.84016	80662.125
1500.22882	80835.825
1503.61521	81399.625
1506.99934	81964.625
1510.38121	82510.225
1513.76081	82317.925
1517.13816	81196.725
1520.51324	79988.625
1523.88607	79230.625
1527.25665	79455.825
1530.62498	79800.725
1533.99105	79870.725
1537.35488	79193.425
1540.71647	77903.725
1544.07581	76227.325
1547.4329	74594.325
1550.78776	73255.925
1554.14038	72165.125
1557.49077	71442.425
1560.83892	70962.625
1564.18484	70539.625
1567.52853	70378.425
1570.86999	70705.925
1574.20922	71685.925
1577.54624	72819.725
1580.88103	73507.425
1584.2136	74896.825
1587.54395	77767.125
1590.87208	82367.925
1594.19801	87614.825
1597.52172	92303.825
1600.84321	93304.025
1604.16251	89270.325
1607.47959	82233.825
1610.79447	75277.225
1614.10715	69292.925
1617.41763	64721.825
1620.7259	61823.225
1624.03199	60438.725
1627.33587	60668.625
1630.63757	62307.425
1633.93707	65846.025
1637.23439	71858.225
1640.52951	80309.025
1643.82246	89812.225
1647.11321	96328.225
1650.40179	95684.325
1653.68819	87593.225
1656.97241	76413.725
1660.25446	66501.125
1663.53433	59748.225
1666.81203	55573.725
1670.08756	52927.025
1673.36092	51300.325
1676.63211	50150.725
1679.90115	49411.625
1683.16801	48782.425
1686.43272	48375.025
1689.69527	48014.425
1692.95567	47770.825
1696.2139	47625.225
1699.46999	47468.625
1702.72392	47332.425
1705.97571	47308.225
1709.22535	47265.425
1712.47284	47161.925
1715.71819	47143.125
1718.96139	47089.025
1722.20246	46941.825
1725.44139	46778.125
1728.67818	46593.925
1731.91284	46323.725
1735.14537	46143.225
1738.37576	45928.425
1741.60403	45760.425
1744.83017	45596.825
1748.05418	45542.725
1751.27607	45466.825
1754.49584	45402.625
1757.71349	45362.825
1760.92903	45352.425
1764.14244	45356.325
1767.35375	45347.125
1770.56294	45303.925
1773.77002	45259.325
1776.97499	45194.025
1780.17785	45108.025
1783.37861	45075.425
1786.57727	44979.425
1789.77382	44866.025
1792.96828	44839.825
1796.16064	44791.825
1799.3509	44684.025
1802.53907	44616.825
1805.72514	44541.125
1808.90913	44444.525
1812.09102	44382.525
1815.27083	44316.725
1818.44856	44250.925
1821.6242	44195.925
1824.79776	44155.825
1827.96924	44173.225
1831.13864	44150.925
1834.30597	44142.225
1837.47122	44237.125
1840.6344	44223.725
1843.7955	44252.225
1846.95454	44166.925
1850.11151	44122.125
1853.26642	44087.825
1856.41926	44148.825
1859.57004	44105.725
1862.71876	44058.225
1865.86542	44003.525
1869.01003	43884.825
1872.15258	43899.825
1875.29308	43906.325
1878.43152	43857.025
1881.56792	43882.525
1884.70227	43799.825
1887.83457	43760.325
1890.96482	43740.125
1894.09304	43689.825
1897.21921	43604.625
1900.34335	43523.925
1903.46544	43514.225
1906.58551	43457.325
1909.70353	43411.025
1912.81953	43338.825
1915.93349	43275.925
1919.04543	43184.225
1922.15534	43141.225
1925.26322	43056.525
1928.36908	42974.425
1931.47292	42877.125
1934.57473	42754.525
1937.67453	42603.425
1940.77232	42552.525
1943.86808	42411.625
1946.96184	42408.325
1950.05358	42230.025
1953.14331	42173.525
1956.23103	42022.325
1959.31675	41934.625
1962.40046	41827.225
1965.48217	41742.725
1968.56188	41646.925
1971.63959	41524.225
1974.7153	41328.425
1977.78901	41218.525
1980.86073	41127.325
1983.93046	41019.225
1986.99819	40920.125
1990.06394	40862.525
1993.1277	40734.125
1996.18947	40617.825
1999.24925	40530.625
2002.30706	40346.225
2005.36288	40272.125
2008.41672	40209.425
2011.46859	40110.025
2014.51848	40010.625
2017.56639	39887.925
2020.61233	39846.625
2023.6563	39752.325
2026.6983	39683.025
2029.73833	39621.825
2032.7764	39531.025
2035.8125	39452.825
2038.84664	39382.525
2041.87881	39344.725
2044.90903	39277.525
2047.93729	39212.925
2050.96359	39140.725
2053.98794	39128.725
2057.01034	39074.125
2060.03078	39023.325
2063.04927	38989.525
2066.06582	38969.225
2069.08042	38938.725
2072.09307	38985.625
2075.10378	38914.025
2078.11255	38889.925
2081.11938	38861.325
2084.12426	38857.125
2087.12722	38795.025
2090.12824	38807.025
2093.12732	38802.125
2096.12447	38839.425
2099.11969	38869.225
2102.11299	38869.225
2105.10435	38922.025
2108.09379	38953.425
2111.08131	38993.225
2114.0669	38999.325
2117.05057	39038.925
2120.03233	39031.025
2123.01216	39105.025
2125.99008	39099.625
2128.96609	39121.225
2131.94018	39171.425
2134.91236	39160.425
2137.88263	39226.525
2140.851	39247.425
2143.81746	39282.025
2146.78201	39260.225
2149.74466	39271.325
2152.7054	39250.725
2155.66425	39282.025
2158.6212	39278.825
2161.57625	39275.125
2164.52941	39252.825
2167.48067	39266.525
2170.43004	39281.525
2173.37752	39281.525
2176.32311	39225.525
2179.26681	39236.825
2182.20863	39219.225
2185.14856	39313.225
2188.08661	39270.225
2191.02278	39257.025
2193.95707	39249.625
2196.88948	39197.425
2199.82001	39268.125
2202.74867	39168.225
2205.67545	39189.025
2208.60037	39098.625
2211.52341	39072.725
2214.44458	38988.125
2217.36388	38927.925
2220.28132	38856.025
2223.1969	38756.425
2226.11061	38729.325
2229.02246	38702.725
2231.93245	38633.525
2234.84058	38582.025
2237.74686	38588.425
2240.65128	38571.125
2243.55385	38487.025
2246.45456	38419.825
2249.35343	38342.025
2252.25044	38287.425
2255.14561	38221.125
2258.03893	38163.725
2260.93041	38062.425
2263.82004	37977.425
2266.70783	37888.225
2269.59378	37800.825
2272.4779	37742.625
2275.36017	37685.025
2278.24061	37641.325
2281.11922	37543.325
2283.996	37461.825
2286.87094	37485.425
2289.74405	37423.725
2292.61534	37386.825
2295.4848	37387.325
2298.35243	37370.425
2301.21824	37362.625
2304.08223	37338.625
2306.94439	37389.325
2309.80474	37333.225
2312.66327	37314.625
2315.51999	37268.225
2318.37489	37292.625
2321.22797	37262.525
2324.07925	37282.425
2326.92871	37127.825
2329.77637	37087.825
2332.62222	37078.025
2335.46626	37017.325
2338.3085	36972.925
2341.14893	36949.925
2343.98756	36993.925
2346.8244	36969.825
2349.65943	37004.125
2352.49267	36925.225
2355.32411	36879.325
2358.15376	36825.025
2360.98161	36787.625
2363.80768	36790.925
2366.63195	36772.125
2369.45444	36674.425
2372.27514	36691.125
2375.09405	36610.325
2377.91118	36600.325
2380.72652	36493.125
2383.54009	36355.125
2386.35187	36325.025
2389.16188	36304.325
2391.97011	36284.925
2394.77657	36225.525
2397.58125	36122.525
2400.38416	36171.325
2403.18529	36106.025
2405.98466	36041.325
2408.78226	35964.625
2411.57809	35968.725
2414.37216	35974.125
2417.16446	35943.425
2419.955	35865.325
2422.74378	35857.325
2425.5308	35811.825
2428.31606	35805.325
2431.09956	35780.625
2433.88131	35681.025
2436.6613	35694.125
2439.43954	35673.325
2442.21603	35680.125
2444.99077	35639.325
2447.76377	35709.625
2450.53501	35652.025
2453.30451	35630.925
2456.07226	35586.325
2458.83827	35583.525
2461.60254	35511.425
2464.36507	35539.125
2467.12586	35568.525
2469.88492	35571.725
2472.64224	35552.925
2475.39782	35539.925
2478.15167	35534.325
2480.90379	35444.125
2483.65417	35483.925
2486.40283	35446.625
2489.14976	35486.125
2491.89497	35460.325
2494.63845	35464.825
2497.3802	35401.925
2500.12024	35354.325
2502.85855	35402.025
2505.59514	35352.125
2508.33002	35352.025
2511.06318	35343.025
2513.79462	35316.625
2516.52435	35331.625
2519.25237	35301.625
2521.97867	35286.325
2524.70327	35293.925
2527.42616	35262.325
2530.14734	35246.525
2532.86681	35189.125
2535.58458	35165.525
2538.30065	35127.525
2541.01501	35063.925
2543.72768	35064.025
2546.43864	35020.425
2549.14791	35008.625
2551.85548	34977.825
2554.56136	34913.825
2557.26554	34852.325
2559.96803	34883.225
2562.66883	34899.525
2565.36794	34807.325
2568.06536	34834.525
2570.7611	34771.425
2573.45514	34730.225
2576.14751	34689.025
2578.83819	34628.925
2581.52719	34643.625
2584.21451	34582.725
2586.90015	34570.225
2589.58411	34533.225
2592.2664	34496.525
2594.94701	34442.625
2597.62594	34442.825
2600.30321	34313.025
2602.9788	34358.425
2605.65273	34256.125
2608.32498	34284.725
2610.99557	34261.425
2613.66449	34250.125
2616.33175	34246.725
2618.99734	34234.625
2621.66128	34216.325
2624.32355	34167.625
2626.98416	34108.725
2629.64311	34111.325
2632.30041	34173.725
2634.95605	34066.225
2637.61004	34065.025
2640.26238	34017.725
2642.91306	34041.825
2645.56209	34007.225
2648.20948	34004.625
2650.85521	34047.325
2653.4993	34004.125
2656.14175	33991.325
2658.78255	34033.925
2661.42171	34061.025
2664.05923	34081.525
2666.6951	34050.825
2669.32934	34093.625
2671.96194	34112.225
2674.59291	34082.525
2677.22224	34090.625
2679.84993	34057.325
2682.476	34029.525
2685.10043	34060.825
2687.72324	33999.725
2690.34441	34019.525
2692.96396	34011.325
2695.58188	34023.425
2698.19818	33976.525
2700.81285	34017.125
2703.4259	33971.325
2706.03733	34037.625
2708.64714	34070.325
2711.25533	34075.025
2713.86191	34078.825
2716.46687	34119.625
2719.07021	34116.025
2721.67194	34116.725
2724.27206	34037.325
2726.87057	34151.225
2729.46747	34183.825
2732.06276	34184.225
2734.65644	34169.225
2737.24852	34177.725
2739.83899	34110.225
2742.42786	34188.725
2745.01513	34094.525
2747.60079	34105.425
2750.18486	34094.225
2752.76733	34081.625
2755.3482	34014.725
2757.92747	34082.625
2760.50515	34026.525
2763.08123	33974.525
2765.65573	33942.625
2768.22863	33992.225
2770.79994	33913.425
2773.36967	33964.525
2775.9378	33871.925
2778.50435	33861.125
2781.06932	33770.125
2783.6327	33780.925
2786.1945	33739.725
2788.75471	33734.125
2791.31335	33619.225
2793.87041	33564.125
2796.42589	33484.225
2798.97979	33470.225
2801.53212	33405.525
2804.08288	33385.025
2806.63206	33266.025
2809.17967	33247.025
2811.72571	33213.025
2814.27018	33198.625
2816.81308	33095.525
2819.35442	33032.725
2821.89419	32939.725
2824.43239	32906.125
2826.96904	32895.225
2829.50412	32896.225
2832.03763	32748.325
2834.56959	32762.025
2837.1	32722.125
2839.62884	32681.125
2842.15613	32592.025
2844.68186	32661.625
2847.20604	32599.825
2849.72867	32608.525
2852.24974	32522.325
2854.76927	32545.725
2857.28724	32463.525
2859.80367	32409.725
2862.31855	32348.025
2864.83189	32366.025
2867.34368	32301.425
2869.85393	32293.125
2872.36264	32275.525
2874.8698	32280.125
2877.37543	32272.325
2879.87952	32282.425
2882.38207	32240.725
2884.88308	32266.525
2887.38256	32304.925
2889.88051	32287.225
2892.37692	32309.225
2894.8718	32285.525
2897.36515	32338.025
2899.85698	32287.825
2902.34727	32369.825
2904.83604	32375.525
2907.32328	32409.625
2909.809	32365.625
2912.29319	32374.525
2914.77587	32384.625
2917.25702	32421.125
2919.73665	32372.925
2922.21476	32366.125
2924.69136	32290.225
2927.16644	32285.725
2929.64	32274.125
2932.11205	32179.525
2934.58258	32127.025
2937.05161	32188.025
2939.51912	32249.625
2941.98513	32158.525
2944.44962	32106.525
2946.91261	32013.425
2949.37409	32119.925
2951.83407	32105.825
2954.29254	32100.025
2956.74951	32013.725
2959.20498	32030.025
2961.65895	31937.125
2964.11142	31976.125
2966.56239	31832.625
2969.01186	31836.125
2971.45984	31800.225
2973.90632	31765.825
2976.35131	31753.725
2978.7948	31644.225
2981.23681	31597.525
2983.67732	31570.625
2986.11635	31420.925
2988.55388	31388.025
2990.98993	31326.125
2993.4245	31227.725
2995.85758	31209.025
2998.28917	31086.325
3000.71928	31079.325
3003.14791	31038.925
3005.57506	30995.325
3008.00073	30953.225
3010.42493	30891.125
3012.84764	30890.925
3015.26888	30861.925
3017.68865	30790.625
3020.10694	30778.825
3022.52376	30606.325
3024.9391	30647.025
3027.35298	30576.525
3029.76539	30544.925
3032.17632	30497.925
3034.5858	30455.225
3036.9938	30459.325
3039.40034	30422.925
3041.80542	30374.325
3044.20903	30287.025
3046.61118	30267.325
3049.01187	30228.425
3051.4111	30248.925
3053.80888	30139.925
3056.20519	30088.025
3058.60005	30000.425
3060.99345	30018.525
3063.3854	29905.425
3065.7759	29765.125
3068.16494	29724.225
3070.55254	29576.725
3072.93868	29560.025
3075.32338	29483.525
3077.70662	29429.325
3080.08842	29329.825
3082.46878	29383.725
3084.84769	29259.925
3087.22515	29279.125
3089.60118	29240.425
3091.97576	29218.025
3094.3489	29156.325
3096.72061	29113.625
3099.09087	29123.825
3101.4597	29104.225
3103.82709	29075.825
3106.19305	29006.825
3108.55757	28938.725
3110.92066	28889.025
3113.28232	28858.925
3115.64255	28744.325
3118.00134	28686.025
3120.35871	28608.425
3122.71466	28594.125
3125.06917	28500.425
