Data from AgNPs_FTO_APTES_UA_5uM_R6G_10uM_NaF_0.1M_Addition_RamanShift__7__12-33-47-254.txt Node

Date: Fri Dec 17 12:33:47 GMT 2021
User: TCL
Spectrometer: QEP01345
Trigger mode: 4
Integration Time (sec): 7.000000E0
Scans to average: 10
Electric dark correction enabled: true
Nonlinearity correction enabled: false
Boxcar width: 0
XAxis mode: Raman Shifts
Number of Pixels in Spectrum: 1044
>>>>>Begin Spectral Data<<<<<
46.04893	0.2
50.45542	-0.8
54.85868	-2.1
59.25871	0.4
63.6555	117.7
68.04907	122.9
72.43941	129.2
76.82654	136.1
81.21044	137.1
85.59113	144.6
89.96862	154.1
94.34289	154.7
98.71396	163.8
103.08183	163.1
107.4465	170.1
111.80798	171.9
116.16626	177
120.52136	181.4
124.87327	193.2
129.222	203.3
133.56755	214.2
137.90993	227.6
142.24913	247.6
146.58517	274.8
150.91804	321
155.24774	377.7
159.57429	473.3
163.89768	591.6
168.21792	780.7
172.53501	1054.8
176.84895	1462.8
181.15975	2053.5
185.46741	2873.9
189.77193	3960.5
194.07331	5314.3
198.37157	6833.4
202.6667	8439.5
206.9587	10048
211.24758	11576.5
215.53334	13119.6
219.81599	14733.6
224.09553	16515.9
228.37195	18549.2
232.64527	20751.2
236.91549	23078.4
241.18261	25477.7
245.44663	27774.6
249.70755	29831.2
253.96539	31636.7
258.22014	33191.2
262.4718	34366.8
266.72039	35167.8
270.96589	35569
275.20832	35626.6
279.44768	35408
283.68397	35018
287.91719	34600
292.14735	34354.9
296.37445	34174.1
300.59849	34105.3
304.81948	34102.8
309.03742	34113.7
313.25231	34019.7
317.46415	33655.4
321.67296	33232.8
325.87872	32757.7
330.08145	32577.6
334.28114	32590.6
338.47781	32833.2
342.67145	33222
346.86207	33625.7
351.04966	34205
355.23424	34801.6
359.4158	35315.1
363.59435	35707.6
367.76989	36065.5
371.94243	36248.9
376.11196	36464
380.27849	36563.2
384.44203	36754.7
388.60257	37075.8
392.76012	37447.7
396.91468	37947.1
401.06626	38494.8
405.21485	38849.2
409.36047	38845.5
413.50311	38629.1
417.64277	38590.1
421.77947	38761.7
425.9132	39056.2
430.04396	39237.4
434.17176	39360.7
438.2966	39484.1
442.41849	39831.5
446.53742	40447.8
450.6534	41200.3
454.76644	41829.5
458.87653	42037.3
462.98368	42003.6
467.08789	41703.9
471.18916	41189.7
475.2875	40595
479.38291	40116.6
483.4754	39767.2
487.56496	39472.5
491.6516	39196.2
495.73531	39094.9
499.81612	39059.7
503.89401	39401.4
507.96899	39688.2
512.04106	39800.5
516.11023	39647.3
520.1765	39380.8
524.23987	39031
528.30034	38729
532.35792	38441.7
536.41261	38157.2
540.46441	37855.2
544.51333	37883.2
548.55936	38161.9
552.60252	38657.3
556.64279	39211.8
560.6802	39631.6
564.71473	39845.3
568.7464	40203.9
572.7752	40937.5
576.80114	41919.4
580.82422	43203.7
584.84444	44715
588.86181	46399.8
592.87633	47458
596.888	47077.2
600.89682	45717
604.9028	45684.8
608.90594	47714.1
612.90624	49744.3
616.90371	47263.4
620.89834	42058.7
624.89015	39789.8
628.87913	39483.2
632.86528	39700.7
636.84862	39668.7
640.82913	39207.6
644.80683	38490.4
648.78172	38080.6
652.75379	38077.2
656.72306	38499.9
660.68952	38919.5
664.65319	38723.6
668.61405	38315.3
672.57211	38358.7
676.52738	38509.3
680.47986	38496.4
684.42955	38304.5
688.37646	38222
692.32058	38380.6
696.26192	38840.9
700.20048	39357.3
704.13626	39557.4
708.06928	39462.7
711.99952	39367.2
715.927	39307.5
719.85171	39385.8
723.77365	39295.7
727.69284	38872.6
731.60928	38351.7
735.52295	38177
739.43388	38148.3
743.34206	38252.1
747.24749	38388.4
751.15017	38733.4
755.05012	39177.3
758.94733	39914.7
762.8418	41244
766.73354	43198.5
770.62254	44901.6
774.50882	45153.7
778.39237	43786.1
782.27321	41917.4
786.15132	40365.8
790.02671	39293.9
793.89938	38771.7
797.76935	38549.7
801.6366	38448.6
805.50115	38426.9
809.36299	38246.5
813.22213	37949.7
817.07857	37773.1
820.93231	37580.6
824.78336	37504.9
828.63172	37375.8
832.47738	37380.7
836.32036	37380.4
840.16066	37379.8
843.99827	37374.8
847.8332	37440.2
851.66546	37430.1
855.49504	37504.2
859.32195	37524.2
863.1462	37491
866.96777	37487.9
870.78668	37506.5
874.60293	37587.4
878.41652	37634.9
882.22745	37717.1
886.03573	37855.6
889.84136	37896.4
893.64433	37830.3
897.44466	37652.3
901.24235	37597.9
905.0374	37510.1
908.8298	37442.5
912.61957	37455.1
916.40671	37669.9
920.19121	37970.6
923.97308	38316.5
927.75233	38310.9
931.52895	38113.2
935.30295	37714.4
939.07433	37275.9
942.84309	36911.8
946.60924	36811.4
950.37278	36766.9
954.13371	36743.9
957.89203	36749.7
961.64774	36676.6
965.40086	36656
969.15137	36651
972.89929	36609.6
976.64461	36510.4
980.38733	36601.8
984.12747	36656
987.86502	36811.6
991.59999	36978.4
995.33237	37253.7
999.06217	37764.3
1002.78939	38359.8
1006.51404	39068.1
1010.23611	39696.6
1013.95561	40082.1
1017.67255	40079.1
1021.38692	39675.3
1025.09872	39210.6
1028.80796	38784.2
1032.51465	38756.9
1036.21877	38868.2
1039.92035	39019.6
1043.61937	39069.8
1047.31584	38955.8
1051.00976	38846
1054.70114	38893.2
1058.38998	39016.7
1062.07627	39417.1
1065.76003	39776.9
1069.44126	40293.2
1073.11995	40921.5
1076.79611	41450.7
1080.46974	41720.2
1084.14085	41922
1087.80943	42100.2
1091.47549	42314.2
1095.13903	42359.6
1098.80005	42013.2
1102.45857	41289.1
1106.11456	40719.5
1109.76805	40350.2
1113.41903	40226.1
1117.06751	40236.9
1120.71348	40372.9
1124.35696	40538.3
1127.99793	40871
1131.63641	41082.1
1135.2724	40991.7
1138.90589	41021.4
1142.5369	41108.5
1146.16542	41236
1149.79145	41423.1
1153.415	41669
1157.03607	42009.5
1160.65467	42837.2
1164.27079	44283.9
1167.88443	46051.1
1171.49561	47848.3
1175.10432	49917.1
1178.71056	52390.2
1182.31434	54979.6
1185.91565	56729.9
1189.51451	57167.2
1193.11091	56679.9
1196.70485	55314.2
1200.29634	53584.6
1203.88538	52270.9
1207.47197	51561.2
1211.05612	51024.6
1214.63782	50368.9
1218.21708	49288.2
1221.79391	48201.8
1225.36829	47462.9
1228.94024	46962.3
1232.50976	46682.4
1236.07685	46417.6
1239.6415	46264.3
1243.20374	46246.5
1246.76355	46525.4
1250.32093	47044.2
1253.8759	47884.1
1257.42845	48952.2
1260.97859	50104.3
1264.52631	51399.3
1268.07163	52617.7
1271.61453	53777.9
1275.15503	54848.5
1278.69312	55867.5
1282.22882	56805.5
1285.76211	57745.1
1289.29301	58964.9
1292.82151	60491.7
1296.34761	62486.9
1299.87133	64974.2
1303.39266	67734.8
1306.9116	70322.3
1310.42815	72338.1
1313.94233	73369.9
1317.45412	73172.1
1320.96354	72518.4
1324.47058	72250.3
1327.97525	72264.5
1331.47754	72494.2
1334.97747	72694.1
1338.47502	72824.6
1341.97022	72734.9
1345.46305	72280.7
1348.95352	71671.9
1352.44163	71057.5
1355.92738	71142.7
1359.41078	72168.4
1362.89183	72912.4
1366.37053	71613.3
1369.84688	67678.3
1373.32088	62326.1
1376.79254	58281.1
1380.26186	56543.8
1383.72883	56334.4
1387.19347	56337.2
1390.65578	55856.1
1394.11575	55523.1
1397.57339	55757.9
1401.0287	56531.2
1404.48168	57311.2
1407.93234	57682.2
1411.38068	57376.5
1414.82669	56221.3
1418.27039	54732.3
1421.71177	53069.7
1425.15083	51840
1428.58758	51471.6
1432.02203	52063.6
1435.45416	53171.1
1438.88399	54510.2
1442.31151	55343.4
1445.73673	55636.8
1449.15965	55613.8
1452.58027	55396.8
1455.9986	55249.2
1459.41463	55497.3
1462.82837	56326.5
1466.23982	57254.5
1469.64898	58074
1473.05586	58440.9
1476.46045	58438.2
1479.86276	58079.2
1483.26279	57645.1
1486.66054	57407.6
1490.05602	57650.2
1493.44922	58046.5
1496.84016	58467.8
1500.22882	59170.8
1503.61521	60090.2
1506.99934	61153.1
1510.38121	61859.8
1513.76081	61821.4
1517.13816	60851.7
1520.51324	59509
1523.88607	58648.4
1527.25665	58299.3
1530.62498	58245.2
1533.99105	58148.7
1537.35488	57648
1540.71647	56809
1544.07581	55799.3
1547.4329	54793.2
1550.78776	53841.7
1554.14038	53209.4
1557.49077	52769.7
1560.83892	52549
1564.18484	52373.4
1567.52853	52299.1
1570.86999	52444.5
1574.20922	53106.5
1577.54624	53801.2
1580.88103	54177.3
1584.2136	54641.8
1587.54395	55965
1590.87208	58246.9
1594.19801	61123.2
1597.52172	63901.1
1600.84321	64544.6
1604.16251	62409
1607.47959	58570.7
1610.79447	54611.1
1614.10715	50921.3
1617.41763	47774.2
1620.7259	45567
1624.03199	44473.2
1627.33587	44389.4
1630.63757	45312.8
1633.93707	47634.2
1637.23439	51441.3
1640.52951	56822.5
1643.82246	62700.9
1647.11321	66751.8
1650.40179	66530.1
1653.68819	61769.1
1656.97241	54855.8
1660.25446	48464.7
1663.53433	43923.5
1666.81203	41017.7
1670.08756	39188.5
1673.36092	37980.8
1676.63211	37183.7
1679.90115	36600.7
1683.16801	36162.9
1686.43272	35899.9
1689.69527	35693.7
1692.95567	35421.6
1696.2139	35308.9
1699.46999	35180.1
1702.72392	35136
1705.97571	35077.9
1709.22535	34996.7
1712.47284	34970.6
1715.71819	34962.8
1718.96139	34882.2
1722.20246	34755.7
1725.44139	34665.9
1728.67818	34527
1731.91284	34336.3
1735.14537	34215.3
1738.37576	34060.7
1741.60403	33941.9
1744.83017	33832.5
1748.05418	33743.8
1751.27607	33698.5
1754.49584	33667.2
1757.71349	33611.1
1760.92903	33588.8
1764.14244	33620.5
1767.35375	33596.2
1770.56294	33557
1773.77002	33534.6
1776.97499	33495.9
1780.17785	33391.7
1783.37861	33403.1
1786.57727	33318.1
1789.77382	33255
1792.96828	33215.6
1796.16064	33176.2
1799.3509	33171.8
1802.53907	33099.6
1805.72514	32993.2
1808.90913	32960.5
1812.09102	32899.9
1815.27083	32857
1818.44856	32789.8
1821.6242	32797.3
1824.79776	32801.2
1827.96924	32796.8
1831.13864	32788.8
1834.30597	32784
1837.47122	32806.5
1840.6344	32826.3
1843.7955	32836.8
1846.95454	32813.8
1850.11151	32766.8
1853.26642	32739.3
1856.41926	32753.6
1859.57004	32746.6
1862.71876	32704.8
1865.86542	32643.9
1869.01003	32588.9
1872.15258	32548.5
1875.29308	32538.2
1878.43152	32470.8
1881.56792	32476.9
1884.70227	32454.1
1887.83457	32384.4
1890.96482	32319.4
1894.09304	32266
1897.21921	32204.7
1900.34335	32201.8
1903.46544	32164.2
1906.58551	32106
1909.70353	32049.9
1912.81953	32004.8
1915.93349	31933.9
1919.04543	31870
1922.15534	31821.3
1925.26322	31752.6
1928.36908	31679.8
1931.47292	31567.9
1934.57473	31564.2
1937.67453	31452.6
1940.77232	31379.6
1943.86808	31288.1
1946.96184	31266.5
1950.05358	31156.6
1953.14331	31115.2
1956.23103	31034.1
1959.31675	30930.4
1962.40046	30853.7
1965.48217	30791.9
1968.56188	30704.4
1971.63959	30588.1
1974.7153	30495.7
1977.78901	30421
1980.86073	30355.4
1983.93046	30256.1
1986.99819	30151.7
1990.06394	30079.5
1993.1277	30039
1996.18947	29947.4
1999.24925	29919.6
2002.30706	29777.3
2005.36288	29682.8
2008.41672	29617.7
2011.46859	29502.5
2014.51848	29437.3
2017.56639	29390.4
2020.61233	29330.8
2023.6563	29247.5
2026.6983	29210.4
2029.73833	29172.9
2032.7764	29087.1
2035.8125	28980.8
2038.84664	28970.9
2041.87881	28897.1
2044.90903	28917.1
2047.93729	28837.3
2050.96359	28820
2053.98794	28776.9
2057.01034	28743
2060.03078	28724
2063.04927	28673.1
2066.06582	28655.3
2069.08042	28641.9
2072.09307	28674.3
2075.10378	28620.6
2078.11255	28584.3
2081.11938	28534.3
2084.12426	28561.4
2087.12722	28529.4
2090.12824	28530.6
2093.12732	28547.4
2096.12447	28589.6
2099.11969	28576.1
2102.11299	28593.1
2105.10435	28624.6
2108.09379	28584.6
2111.08131	28624.8
2114.0669	28705.6
2117.05057	28706.5
2120.03233	28728.5
2123.01216	28703
2125.99008	28749.6
2128.96609	28771.5
2131.94018	28758.2
2134.91236	28803.2
2137.88263	28844.1
2140.851	28843.9
2143.81746	28875.7
2146.78201	28844.2
2149.74466	28884.4
2152.7054	28873.7
2155.66425	28892.9
2158.6212	28867.2
2161.57625	28895.6
2164.52941	28844.3
2167.48067	28815.5
2170.43004	28830.6
2173.37752	28820.2
2176.32311	28813.2
2179.26681	28840.9
2182.20863	28791.6
2185.14856	28851.1
2188.08661	28786.5
2191.02278	28817.4
2193.95707	28804
2196.88948	28827.9
2199.82001	28766.4
2202.74867	28746.4
2205.67545	28729.5
2208.60037	28695.5
2211.52341	28635.3
2214.44458	28601.7
2217.36388	28477.8
2220.28132	28512
2223.1969	28431.4
2226.11061	28436.7
2229.02246	28378.2
2231.93245	28314.9
2234.84058	28302.2
2237.74686	28298.5
2240.65128	28224.3
2243.55385	28189.3
2246.45456	28147.7
2249.35343	28082.8
2252.25044	28042.5
2255.14561	28006.5
2258.03893	27950.5
2260.93041	27910.9
2263.82004	27831.4
2266.70783	27764.3
2269.59378	27710.9
2272.4779	27680.2
2275.36017	27607.2
2278.24061	27574.6
2281.11922	27500.8
2283.996	27433.6
2286.87094	27479
2289.74405	27394.2
2292.61534	27390.1
2295.4848	27354.7
2298.35243	27372.4
2301.21824	27351.3
2304.08223	27336.4
2306.94439	27310.7
2309.80474	27293.1
2312.66327	27296.6
2315.51999	27267.5
2318.37489	27281.4
2321.22797	27241.3
2324.07925	27206
2326.92871	27153.6
2329.77637	27089
2332.62222	27119.3
2335.46626	27065.9
2338.3085	27006.7
2341.14893	27038.7
2343.98756	26964.6
2346.8244	26983.8
2349.65943	26988.5
2352.49267	26952
2355.32411	26902.4
2358.15376	26951.4
2360.98161	26901.1
2363.80768	26842.7
2366.63195	26857.6
2369.45444	26843
2372.27514	26781
2375.09405	26786.4
2377.91118	26731
2380.72652	26658.2
2383.54009	26593.1
2386.35187	26571.1
2389.16188	26494.5
2391.97011	26501.5
2394.77657	26454.8
2397.58125	26392.7
2400.38416	26362.9
2403.18529	26350.8
2405.98466	26295.5
2408.78226	26229.1
2411.57809	26219
2414.37216	26226.3
2417.16446	26186
2419.955	26177.3
2422.74378	26156.1
2425.5308	26156.1
2428.31606	26079.8
2431.09956	26096.6
2433.88131	26034.2
2436.6613	26036.5
2439.43954	26018.6
2442.21603	26048.9
2444.99077	26004.2
2447.76377	26030
2450.53501	25996
2453.30451	26010
2456.07226	25916.7
2458.83827	25925.3
2461.60254	25905.6
2464.36507	25897.9
2467.12586	25900
2469.88492	25876.8
2472.64224	25874.7
2475.39782	25858.8
2478.15167	25845.3
2480.90379	25789.6
2483.65417	25782.5
2486.40283	25816.9
2489.14976	25804.9
2491.89497	25763
2494.63845	25792.2
2497.3802	25731.7
2500.12024	25722.7
2502.85855	25723.6
2505.59514	25703.7
2508.33002	25712.3
2511.06318	25703.5
2513.79462	25652
2516.52435	25631.5
2519.25237	25656
2521.97867	25650.6
2524.70327	25635.6
2527.42616	25599.3
2530.14734	25590.8
2532.86681	25548
2535.58458	25525.5
2538.30065	25458
2541.01501	25454.2
2543.72768	25404.9
2546.43864	25418.6
2549.14791	25403.1
2551.85548	25347.8
2554.56136	25298.9
2557.26554	25260.6
2559.96803	25283.1
2562.66883	25274.2
2565.36794	25207.8
2568.06536	25212.2
2570.7611	25138.1
2573.45514	25128.6
2576.14751	25118.8
2578.83819	25071.7
2581.52719	25043
2584.21451	25010.8
2586.90015	24986.6
2589.58411	24933.3
2592.2664	24941.7
2594.94701	24870
2597.62594	24831.9
2600.30321	24774.6
2602.9788	24788.2
2605.65273	24792.4
2608.32498	24758.9
2610.99557	24684.4
2613.66449	24732.1
2616.33175	24695.2
2618.99734	24664.6
2621.66128	24633.3
2624.32355	24622.6
2626.98416	24575.5
2629.64311	24567.2
2632.30041	24565.7
2634.95605	24525.7
2637.61004	24525.5
2640.26238	24476.4
2642.91306	24514.5
2645.56209	24485
2648.20948	24448.7
2650.85521	24471.7
2653.4993	24515.2
2656.14175	24461.6
2658.78255	24467.9
2661.42171	24488.2
2664.05923	24523.6
2666.6951	24520.4
2669.32934	24532
2671.96194	24508
2674.59291	24533.9
2677.22224	24524.3
2679.84993	24486
2682.476	24483.7
2685.10043	24488.4
2687.72324	24456.3
2690.34441	24500
2692.96396	24437.2
2695.58188	24461.3
2698.19818	24438.1
2700.81285	24470.6
2703.4259	24473.8
2706.03733	24483.7
2708.64714	24520
2711.25533	24538.6
2713.86191	24475
2716.46687	24532.8
2719.07021	24496.5
2721.67194	24537.2
2724.27206	24463.6
2726.87057	24506.1
2729.46747	24503.4
2732.06276	24574.9
2734.65644	24543.4
2737.24852	24528.9
2739.83899	24491.8
2742.42786	24544.9
2745.01513	24490.7
2747.60079	24499
2750.18486	24486.4
2752.76733	24468.7
2755.3482	24442.1
2757.92747	24389.1
2760.50515	24386.8
2763.08123	24365.6
2765.65573	24326.1
2768.22863	24324.2
2770.79994	24300.1
2773.36967	24281.8
2775.9378	24260.8
2778.50435	24221.5
2781.06932	24189.3
2783.6327	24155.2
2786.1945	24163.7
2788.75471	24127.5
2791.31335	24044.9
2793.87041	24002.4
2796.42589	23958.3
2798.97979	23952.8
2801.53212	23881.3
2804.08288	23859
2806.63206	23821.9
2809.17967	23773.8
2811.72571	23704.7
2814.27018	23727
2816.81308	23685.1
2819.35442	23629.6
2821.89419	23545.4
2824.43239	23558.4
2826.96904	23521.1
2829.50412	23472.6
2832.03763	23458.2
2834.56959	23440.4
2837.1	23388
2839.62884	23390.2
2842.15613	23354.5
2844.68186	23338.3
2847.20604	23316.2
2849.72867	23333
2852.24974	23309.7
2854.76927	23285.6
2857.28724	23217.4
2859.80367	23213.5
2862.31855	23188.1
2864.83189	23213.6
2867.34368	23120
2869.85393	23108
2872.36264	23106.7
2874.8698	23074.5
2877.37543	23111
2879.87952	23135.2
2882.38207	23076.9
2884.88308	23076.5
2887.38256	23079.4
2889.88051	23114.7
2892.37692	23118.2
2894.8718	23071.8
2897.36515	23135.2
2899.85698	23127.1
2902.34727	23162.5
2904.83604	23163.2
2907.32328	23212.3
2909.809	23187.2
2912.29319	23180.7
2914.77587	23169.2
2917.25702	23153.7
2919.73665	23133.2
2922.21476	23142.9
2924.69136	23085.3
2927.16644	23093.8
2929.64	23061
2932.11205	23026
2934.58258	22958.6
2937.05161	23020.3
2939.51912	23019.4
2941.98513	22986.8
2944.44962	22945.9
2946.91261	22877.9
2949.37409	22951.8
2951.83407	22904
2954.29254	22892.6
2956.74951	22867
2959.20498	22804.8
2961.65895	22768.4
2964.11142	22782.5
2966.56239	22716.5
2969.01186	22703.1
2971.45984	22664.9
2973.90632	22655.5
2976.35131	22620.6
2978.7948	22626.8
2981.23681	22561
2983.67732	22496.9
2986.11635	22397.8
2988.55388	22395.7
2990.98993	22349.4
2993.4245	22308.1
2995.85758	22277
2998.28917	22177.8
3000.71928	22152.8
3003.14791	22121.4
3005.57506	22107.6
3008.00073	22027.1
3010.42493	22019.8
3012.84764	21985.5
3015.26888	22012.9
3017.68865	21966.1
3020.10694	21911.1
3022.52376	21873.7
3024.9391	21839.2
3027.35298	21839.8
3029.76539	21784.5
3032.17632	21730.7
3034.5858	21699.5
3036.9938	21669.1
3039.40034	21661.6
3041.80542	21673.6
3044.20903	21549.8
3046.61118	21588.2
3049.01187	21483.4
3051.4111	21538.9
3053.80888	21481.4
3056.20519	21434.3
3058.60005	21383.5
3060.99345	21347.9
3063.3854	21333.3
3065.7759	21249.3
3068.16494	21216.6
3070.55254	21098.2
3072.93868	21078.2
3075.32338	21011.2
3077.70662	20971.3
3080.08842	20906.7
3082.46878	20960.4
3084.84769	20853.6
3087.22515	20855
3089.60118	20846.5
3091.97576	20832.5
3094.3489	20779.1
3096.72061	20763.2
3099.09087	20755.4
3101.4597	20737.9
3103.82709	20734.5
3106.19305	20693.5
3108.55757	20646.3
3110.92066	20613.3
3113.28232	20558.5
3115.64255	20533.3
3118.00134	20439.6
3120.35871	20448.1
3122.71466	20380.8
3125.06917	20320.4
3127.42226	20298.2
3129.77393	20295
3132.12417	20299.4
3134.47299	20300.6
3136.82039	20253.5
3139.16636	20257.2
3141.51092	20274.2
3143.85406	20265.6
3146.19579	20236.6
3148.53609	20256.7
3150.87499	20261.4
3153.21246	20239.8
3155.54853	20244.8
3157.88318	20208.8
3160.21642	20213.3
3162.54826	20210.9
3164.87868	20169.9
3167.2077	20129.1
3169.5353	20174.9
3171.86151	20091.5
3174.18631	20079.7
3176.5097	20072.9
3178.83169	20022.1
3181.15228	20025.5
3183.47147	20013.1
3185.78926	19964.9
3188.10565	19961.6
3190.42065	19958.4
3192.73424	19974.2
3195.04645	19961
3197.35725	19916.4
3199.66667	19921.8
3201.97469	19892.5
3204.28132	19886.8
3206.58656	19939.1
3208.8904	19927.1
3211.19287	19894.3
3213.49394	19887.9
3215.79363	19863.7
3218.09193	19854.1
3220.38884	19809.1
3222.68438	19800.1
3224.97853	19757.1
3227.2713	19752.4
3229.56269	19691.7
3231.8527	19711.1
3234.14133	19660.6
3236.42858	19617.2
3238.71446	19597.1
3240.99896	19575.4
3243.28209	19563.9
3245.56384	19517.5
3247.84423	19585.7
3250.12324	19553.1
3252.40088	19516.3
3254.67715	19474.9
3256.95205	19417.7
3259.22558	19404.2
3261.49775	19362.9
3263.76855	19338.5
3266.03799	19300.3
3268.30606	19277.8
3270.57277	19235.2
3272.83812	19205.6
3275.10211	19209
3277.36474	19176.2
3279.62601	19145.3
3281.88593	19141.4
3284.14448	19172.2
3286.40168	19135
3288.65753	19109.4
3290.91202	19045.6
3293.16516	18999.5
3295.41695	18963.9
3297.66738	18824.9
3299.91647	18744.4
3302.16421	18636.9
3304.4106	18572.2
3306.65564	18469.6
3308.89933	18360.8
3311.14169	18212
3313.38269	18049.9
3315.62236	18002.3
3317.86068	17849.6
3320.09766	17644.7
3322.3333	17493.6
3324.5676	17454.2
3326.80056	17212.5
3329.03219	17120.4
3331.26248	4.5
3333.49143	0.9
3335.71905	-1.9
