Data from AgNPs_FTO_APTES_UA_2uM_R6G_10uM_NaF_0.1M_Addition_RamanShift__19__12-05-47-222.txt Node

Date: Fri Dec 17 12:05:47 GMT 2021
User: TCL
Spectrometer: QEP01345
Trigger mode: 4
Integration Time (sec): 7.000000E0
Scans to average: 10
Electric dark correction enabled: true
Nonlinearity correction enabled: false
Boxcar width: 0
XAxis mode: Raman Shifts
Number of Pixels in Spectrum: 1044
>>>>>Begin Spectral Data<<<<<
46.04893	-0.575
50.45542	-0.975
54.85868	-1.875
59.25871	0.325
63.6555	110.425
68.04907	116.025
72.43941	115.525
76.82654	124.225
81.21044	129.425
85.59113	132.125
89.96862	140.425
94.34289	142.425
98.71396	144.425
103.08183	154.425
107.4465	160.725
111.80798	157.025
116.16626	163.825
120.52136	168.725
124.87327	176.525
129.222	186.725
133.56755	192.725
137.90993	209.425
142.24913	229.325
146.58517	255.025
150.91804	291.925
155.24774	348.625
159.57429	432.225
163.89768	543.625
168.21792	717.925
172.53501	966.025
176.84895	1334.825
181.15975	1869.925
185.46741	2617.325
189.77193	3597.325
194.07331	4806.225
198.37157	6185.625
202.6667	7655.625
206.9587	9083.525
211.24758	10491.925
215.53334	11930.525
219.81599	13427.125
224.09553	15124.225
228.37195	16981.925
232.64527	19024.225
236.91549	21203.425
241.18261	23347.125
245.44663	25332.625
249.70755	27090.625
253.96539	28594.925
258.22014	29851.425
262.4718	30928.025
266.72039	31711.325
270.96589	32122.525
275.20832	32136.825
279.44768	31849.225
283.68397	31495.025
287.91719	31091.325
292.14735	30901.525
296.37445	30898.525
300.59849	31026.425
304.81948	31194.725
309.03742	31229.425
313.25231	31012.425
317.46415	30378.725
321.67296	29509.525
325.87872	28733.925
330.08145	28404.825
334.28114	28390.525
338.47781	28617.525
342.67145	28995.325
346.86207	29546.925
351.04966	30227.925
355.23424	31020.825
359.4158	31657.025
363.59435	32137.825
367.76989	32476.725
371.94243	32668.125
376.11196	32728.425
380.27849	32849.925
384.44203	33028.325
388.60257	33108.325
392.76012	33381.225
396.91468	33753.725
401.06626	34301.325
405.21485	34686.425
409.36047	34520.325
413.50311	33926.625
417.64277	33368.025
421.77947	33116.225
425.9132	33133.525
430.04396	33309.225
434.17176	33438.025
438.2966	33721.925
442.41849	34226.725
446.53742	34958.625
450.6534	35880.525
454.76644	36606.225
458.87653	36898.525
462.98368	36804.825
467.08789	36456.925
471.18916	35932.825
475.2875	35332.425
479.38291	34952.425
483.4754	34594.525
487.56496	34252.125
491.6516	33872.725
495.73531	33638.625
499.81612	33579.525
503.89401	33811.125
507.96899	34030.525
512.04106	34097.925
516.11023	34072.925
520.1765	33980.525
524.23987	33831.725
528.30034	33476.525
532.35792	33135.525
536.41261	32662.125
540.46441	32287.225
544.51333	32178.325
548.55936	32429.825
552.60252	33011.325
556.64279	33644.625
560.6802	34018.725
564.71473	34184.825
568.7464	34563.725
572.7752	35156.125
576.80114	35529.025
580.82422	35940.125
584.84444	36305.625
588.86181	36717.825
592.87633	37074.725
596.888	37378.925
600.89682	37819.425
604.9028	39624.325
608.90594	43894.625
612.90624	48074.225
616.90371	45374.525
620.89834	37883.025
624.89015	34501.525
628.87913	34058.425
632.86528	33993.525
636.84862	33779.625
640.82913	33287.825
644.80683	32416.725
648.78172	31774.625
652.75379	31678.225
656.72306	32147.725
660.68952	32758.625
664.65319	32660.125
668.61405	31999.925
672.57211	31874.225
676.52738	31919.325
680.47986	31874.525
684.42955	31729.325
688.37646	31710.825
692.32058	31918.425
696.26192	32268.625
700.20048	32551.625
704.13626	32752.025
708.06928	32598.325
711.99952	32277.725
715.927	32178.625
719.85171	32299.725
723.77365	32133.725
727.69284	31795.325
731.60928	31437.225
735.52295	31314.325
739.43388	31339.025
743.34206	31451.625
747.24749	31614.425
751.15017	31843.425
755.05012	32334.825
758.94733	33141.225
762.8418	34774.825
766.73354	37569.525
770.62254	40261.725
774.50882	41223.225
778.39237	39491.725
782.27321	36553.625
786.15132	34083.625
790.02671	32648.825
793.89938	31948.625
797.76935	31697.225
801.6366	31584.725
805.50115	31462.625
809.36299	31259.325
813.22213	31030.125
817.07857	30821.225
820.93231	30694.025
824.78336	30643.025
828.63172	30618.825
832.47738	30607.125
836.32036	30636.125
840.16066	30803.025
843.99827	30906.525
847.8332	30849.125
851.66546	30668.725
855.49504	30598.925
859.32195	30605.725
863.1462	30543.225
866.96777	30463.625
870.78668	30381.825
874.60293	30358.525
878.41652	30418.825
882.22745	30509.625
886.03573	30646.925
889.84136	30679.725
893.64433	30558.625
897.44466	30399.625
901.24235	30315.325
905.0374	30193.125
908.8298	30122.825
912.61957	30154.425
916.40671	30395.525
920.19121	30771.325
923.97308	31154.725
927.75233	31335.425
931.52895	31348.025
935.30295	31041.825
939.07433	30461.325
942.84309	30040.325
946.60924	29818.325
950.37278	29738.425
954.13371	29602.225
957.89203	29450.125
961.64774	29358.425
965.40086	29281.525
969.15137	29239.125
972.89929	29171.625
976.64461	29121.925
980.38733	29220.825
984.12747	29338.525
987.86502	29632.625
991.59999	30019.025
995.33237	30616.025
999.06217	31606.225
1002.78939	32604.825
1006.51404	33268.825
1010.23611	33665.325
1013.95561	33867.925
1017.67255	33773.125
1021.38692	33371.525
1025.09872	33093.025
1028.80796	33390.025
1032.51465	34343.725
1036.21877	35244.125
1039.92035	35356.725
1043.61937	34861.525
1047.31584	33950.025
1051.00976	32997.825
1054.70114	32570.025
1058.38998	32496.725
1062.07627	32695.025
1065.76003	32922.425
1069.44126	33280.725
1073.11995	33718.225
1076.79611	34281.525
1080.46974	34646.625
1084.14085	34867.125
1087.80943	35107.325
1091.47549	35237.725
1095.13903	35026.625
1098.80005	34429.625
1102.45857	33723.025
1106.11456	33293.125
1109.76805	33074.825
1113.41903	33208.925
1117.06751	33383.425
1120.71348	33630.325
1124.35696	34005.525
1127.99793	34332.525
1131.63641	34597.125
1135.2724	34412.225
1138.90589	34009.425
1142.5369	33813.225
1146.16542	33687.625
1149.79145	33690.525
1153.415	33813.725
1157.03607	34152.525
1160.65467	34789.625
1164.27079	35944.025
1167.88443	37680.325
1171.49561	39945.025
1175.10432	42896.625
1178.71056	46771.325
1182.31434	50432.825
1185.91565	52614.425
1189.51451	52691.625
1193.11091	51130.725
1196.70485	48580.925
1200.29634	46178.025
1203.88538	44327.725
1207.47197	42913.025
1211.05612	41799.325
1214.63782	41036.125
1218.21708	40625.125
1221.79391	40514.525
1225.36829	40555.425
1228.94024	40343.625
1232.50976	39875.325
1236.07685	39438.925
1239.6415	39147.925
1243.20374	39037.325
1246.76355	39262.625
1250.32093	39760.425
1253.8759	40648.125
1257.42845	41732.125
1260.97859	42971.925
1264.52631	44129.925
1268.07163	45439.425
1271.61453	46781.625
1275.15503	48193.525
1278.69312	49493.525
1282.22882	50397.525
1285.76211	51008.725
1289.29301	51619.025
1292.82151	52586.025
1296.34761	53982.725
1299.87133	56235.825
1303.39266	59362.025
1306.9116	63427.025
1310.42815	67611.625
1313.94233	70391.725
1317.45412	70855.625
1320.96354	69456.225
1324.47058	67757.225
1327.97525	66124.725
1331.47754	64845.125
1334.97747	64245.125
1338.47502	64220.325
1341.97022	64245.025
1345.46305	63892.625
1348.95352	63336.525
1352.44163	63128.025
1355.92738	64200.825
1359.41078	67181.825
1362.89183	70143.825
1366.37053	69046.225
1369.84688	63243.525
1373.32088	56641.825
1376.79254	51979.225
1380.26186	49809.125
1383.72883	49056.725
1387.19347	48652.625
1390.65578	47831.825
1394.11575	47372.425
1397.57339	47386.025
1401.0287	47994.125
1404.48168	48711.025
1407.93234	49184.125
1411.38068	49088.625
1414.82669	48369.125
1418.27039	47053.725
1421.71177	45702.325
1425.15083	44493.825
1428.58758	43853.025
1432.02203	43928.125
1435.45416	44611.325
1438.88399	45556.525
1442.31151	46360.125
1445.73673	46880.525
1449.15965	47368.725
1452.58027	47579.925
1455.9986	47689.025
1459.41463	48004.225
1462.82837	48773.125
1466.23982	49893.525
1469.64898	50828.725
1473.05586	51452.525
1476.46045	51486.025
1479.86276	51215.925
1483.26279	50808.825
1486.66054	50545.425
1490.05602	50660.925
1493.44922	51033.725
1496.84016	51430.625
1500.22882	52618.825
1503.61521	54427.725
1506.99934	56764.625
1510.38121	58838.325
1513.76081	59414.925
1517.13816	57907.725
1520.51324	54910.525
1523.88607	52134.825
1527.25665	50238.725
1530.62498	49245.125
1533.99105	48859.725
1537.35488	48561.825
1540.71647	48207.025
1544.07581	47720.625
1547.4329	47203.725
1550.78776	46743.925
1554.14038	46364.525
1557.49077	46142.025
1560.83892	46025.425
1564.18484	46050.825
1567.52853	46159.225
1570.86999	46540.425
1574.20922	47149.125
1577.54624	47706.925
1580.88103	47612.725
1584.2136	47468.325
1587.54395	48042.025
1590.87208	49651.625
1594.19801	52396.725
1597.52172	55425.925
1600.84321	56551.725
1604.16251	54524.625
1607.47959	50892.325
1610.79447	47052.725
1614.10715	43415.825
1617.41763	40377.625
1620.7259	38247.125
1624.03199	37133.625
1627.33587	37133.625
1630.63757	38072.425
1633.93707	40176.325
1637.23439	43567.625
1640.52951	47841.125
1643.82246	52481.425
1647.11321	55804.125
1650.40179	56187.725
1653.68819	52772.325
1656.97241	46811.725
1660.25446	40828.925
1663.53433	36374.225
1666.81203	33521.525
1670.08756	31645.625
1673.36092	30464.425
1676.63211	29684.925
1679.90115	29160.225
1683.16801	28733.325
1686.43272	28461.825
1689.69527	28212.425
1692.95567	28029.825
1696.2139	27869.125
1699.46999	27749.725
1702.72392	27722.025
1705.97571	27629.225
1709.22535	27640.225
1712.47284	27608.325
1715.71819	27606.925
1718.96139	27516.925
1722.20246	27388.425
1725.44139	27299.925
1728.67818	27145.125
1731.91284	26973.825
1735.14537	26842.225
1738.37576	26744.225
1741.60403	26601.825
1744.83017	26505.425
1748.05418	26458.125
1751.27607	26417.125
1754.49584	26354.925
1757.71349	26336.825
1760.92903	26336.525
1764.14244	26279.525
1767.35375	26291.525
1770.56294	26229.525
1773.77002	26197.825
1776.97499	26182.625
1780.17785	26141.025
1783.37861	26141.325
1786.57727	26083.125
1789.77382	25993.125
1792.96828	25972.925
1796.16064	25919.325
1799.3509	25899.425
1802.53907	25870.425
1805.72514	25799.225
1808.90913	25742.425
1812.09102	25707.225
1815.27083	25616.225
1818.44856	25628.425
1821.6242	25595.725
1824.79776	25586.425
1827.96924	25606.025
1831.13864	25572.225
1834.30597	25609.025
1837.47122	25603.825
1840.6344	25622.425
1843.7955	25657.225
1846.95454	25635.825
1850.11151	25609.925
1853.26642	25631.625
1856.41926	25639.725
1859.57004	25660.825
1862.71876	25662.325
1865.86542	25617.725
1869.01003	25609.625
1872.15258	25599.625
1875.29308	25579.525
1878.43152	25573.625
1881.56792	25587.225
1884.70227	25573.125
1887.83457	25634.325
1890.96482	25618.325
1894.09304	25558.325
1897.21921	25509.325
1900.34335	25505.225
1903.46544	25510.925
1906.58551	25482.125
1909.70353	25439.025
1912.81953	25386.525
1915.93349	25319.125
1919.04543	25251.625
1922.15534	25199.525
1925.26322	25146.625
1928.36908	25062.825
1931.47292	24975.025
1934.57473	24921.725
1937.67453	24811.625
1940.77232	24742.525
1943.86808	24687.425
1946.96184	24630.825
1950.05358	24550.025
1953.14331	24458.725
1956.23103	24389.525
1959.31675	24283.725
1962.40046	24240.425
1965.48217	24203.725
1968.56188	24150.425
1971.63959	24062.725
1974.7153	24010.125
1977.78901	23919.925
1980.86073	23849.425
1983.93046	23781.925
1986.99819	23695.425
1990.06394	23658.925
1993.1277	23594.225
1996.18947	23464.325
1999.24925	23477.325
2002.30706	23366.225
2005.36288	23250.825
2008.41672	23239.325
2011.46859	23201.525
2014.51848	23143.525
2017.56639	23024.325
2020.61233	23007.025
2023.6563	22981.725
2026.6983	22942.725
2029.73833	22915.625
2032.7764	22862.425
2035.8125	22850.425
2038.84664	22839.925
2041.87881	22821.125
2044.90903	22764.025
2047.93729	22742.825
2050.96359	22761.525
2053.98794	22694.625
2057.01034	22673.525
2060.03078	22659.025
2063.04927	22649.825
2066.06582	22624.125
2069.08042	22642.825
2072.09307	22575.625
2075.10378	22584.125
2078.11255	22540.925
2081.11938	22529.225
2084.12426	22505.225
2087.12722	22477.425
2090.12824	22519.925
2093.12732	22504.425
2096.12447	22518.725
2099.11969	22559.925
2102.11299	22536.425
2105.10435	22531.925
2108.09379	22525.825
2111.08131	22621.025
2114.0669	22624.725
2117.05057	22627.725
2120.03233	22648.125
2123.01216	22647.725
2125.99008	22669.525
2128.96609	22706.225
2131.94018	22762.725
2134.91236	22762.725
2137.88263	22734.725
2140.851	22728.625
2143.81746	22782.625
2146.78201	22807.425
2149.74466	22806.525
2152.7054	22814.525
2155.66425	22823.925
2158.6212	22830.025
2161.57625	22793.125
2164.52941	22783.125
2167.48067	22773.525
2170.43004	22814.125
2173.37752	22802.925
2176.32311	22783.425
2179.26681	22804.925
2182.20863	22818.725
2185.14856	22811.625
2188.08661	22806.925
2191.02278	22810.225
2193.95707	22830.525
2196.88948	22800.625
2199.82001	22823.025
2202.74867	22792.825
2205.67545	22816.725
2208.60037	22798.225
2211.52341	22813.925
2214.44458	22762.325
2217.36388	22707.025
2220.28132	22686.225
2223.1969	22679.425
2226.11061	22634.325
2229.02246	22626.725
2231.93245	22569.825
2234.84058	22503.225
2237.74686	22465.125
2240.65128	22429.325
2243.55385	22401.425
2246.45456	22361.225
2249.35343	22344.825
2252.25044	22314.425
2255.14561	22307.925
2258.03893	22284.225
2260.93041	22240.025
2263.82004	22184.325
2266.70783	22175.025
2269.59378	22117.325
2272.4779	22083.925
2275.36017	22021.825
2278.24061	21979.725
2281.11922	21974.125
2283.996	21905.225
2286.87094	21898.525
2289.74405	21855.125
2292.61534	21897.625
2295.4848	21870.825
2298.35243	21883.625
2301.21824	21873.825
2304.08223	21921.925
2306.94439	21903.525
2309.80474	21910.225
2312.66327	21949.325
2315.51999	21928.525
2318.37489	21946.525
2321.22797	21949.325
2324.07925	21924.725
2326.92871	21885.125
2329.77637	21860.025
2332.62222	21873.725
2335.46626	21843.025
2338.3085	21866.325
2341.14893	21847.925
2343.98756	21896.525
2346.8244	21907.225
2349.65943	21904.125
2352.49267	21866.425
2355.32411	21887.825
2358.15376	21865.025
2360.98161	21825.725
2363.80768	21821.425
2366.63195	21772.025
2369.45444	21731.925
2372.27514	21691.625
2375.09405	21669.925
2377.91118	21617.725
2380.72652	21584.325
2383.54009	21485.025
2386.35187	21502.725
2389.16188	21476.825
2391.97011	21449.225
2394.77657	21416.825
2397.58125	21390.425
2400.38416	21364.625
2403.18529	21319.025
2405.98466	21306.925
2408.78226	21244.125
2411.57809	21247.325
2414.37216	21169.025
2417.16446	21171.925
2419.955	21117.525
2422.74378	21102.325
2425.5308	21105.225
2428.31606	21108.925
2431.09956	21111.725
2433.88131	21051.625
2436.6613	21068.025
2439.43954	21100.925
2442.21603	21091.625
2444.99077	21077.125
2447.76377	21076.925
2450.53501	21062.125
2453.30451	21059.925
2456.07226	21092.625
2458.83827	21061.225
2461.60254	21037.625
2464.36507	21014.425
2467.12586	21012.225
2469.88492	21029.125
2472.64224	21040.625
2475.39782	21006.725
2478.15167	21033.325
2480.90379	21040.625
2483.65417	21046.425
2486.40283	21081.325
2489.14976	21080.325
2491.89497	21105.825
2494.63845	21100.725
2497.3802	21092.925
2500.12024	21062.525
2502.85855	21077.225
2505.59514	21067.125
2508.33002	21034.825
2511.06318	21005.625
2513.79462	20972.425
2516.52435	20975.025
2519.25237	20991.025
2521.97867	20960.925
2524.70327	20946.325
2527.42616	20933.125
2530.14734	20927.125
2532.86681	20897.525
2535.58458	20912.225
2538.30065	20914.925
2541.01501	20863.725
2543.72768	20839.025
2546.43864	20849.525
2549.14791	20787.825
2551.85548	20795.225
2554.56136	20782.525
2557.26554	20754.425
2559.96803	20727.625
2562.66883	20721.925
2565.36794	20704.025
2568.06536	20720.325
2570.7611	20696.625
2573.45514	20667.525
2576.14751	20678.725
2578.83819	20643.725
2581.52719	20662.025
2584.21451	20665.125
2586.90015	20631.725
2589.58411	20620.925
2592.2664	20642.025
2594.94701	20583.625
2597.62594	20584.225
2600.30321	20553.925
2602.9788	20556.025
2605.65273	20521.225
2608.32498	20535.425
2610.99557	20531.725
2613.66449	20538.725
2616.33175	20519.825
2618.99734	20530.825
2621.66128	20533.225
2624.32355	20511.125
2626.98416	20504.625
2629.64311	20514.225
2632.30041	20544.025
2634.95605	20504.225
2637.61004	20470.125
2640.26238	20428.325
2642.91306	20441.425
2645.56209	20409.525
2648.20948	20415.025
2650.85521	20404.725
2653.4993	20378.925
2656.14175	20381.725
2658.78255	20421.625
2661.42171	20405.325
2664.05923	20448.425
2666.6951	20420.325
2669.32934	20466.425
2671.96194	20455.425
2674.59291	20479.725
2677.22224	20415.825
2679.84993	20434.025
2682.476	20422.225
2685.10043	20427.125
2687.72324	20395.825
2690.34441	20367.225
2692.96396	20358.725
2695.58188	20326.625
2698.19818	20343.525
2700.81285	20374.325
2703.4259	20339.025
2706.03733	20357.225
2708.64714	20366.625
2711.25533	20376.725
2713.86191	20377.725
2716.46687	20405.525
2719.07021	20385.925
2721.67194	20442.025
2724.27206	20381.525
2726.87057	20388.925
2729.46747	20432.425
2732.06276	20443.525
2734.65644	20425.825
2737.24852	20402.025
2739.83899	20369.625
2742.42786	20396.925
2745.01513	20391.025
2747.60079	20339.925
2750.18486	20342.025
2752.76733	20349.125
2755.3482	20338.725
2757.92747	20368.825
2760.50515	20330.925
2763.08123	20310.325
2765.65573	20273.925
2768.22863	20280.725
2770.79994	20277.725
2773.36967	20328.225
2775.9378	20287.225
2778.50435	20270.425
2781.06932	20208.125
2783.6327	20237.125
2786.1945	20229.825
2788.75471	20221.925
2791.31335	20140.925
2793.87041	20149.725
2796.42589	20081.025
2798.97979	20113.725
2801.53212	20015.425
2804.08288	19994.525
2806.63206	19952.725
2809.17967	19968.525
2811.72571	19928.625
2814.27018	19910.125
2816.81308	19907.325
2819.35442	19869.225
2821.89419	19817.525
2824.43239	19800.525
2826.96904	19801.325
2829.50412	19762.725
2832.03763	19717.425
2834.56959	19777.225
2837.1	19737.525
2839.62884	19726.925
2842.15613	19684.425
2844.68186	19708.325
2847.20604	19662.625
2849.72867	19715.225
2852.24974	19705.525
2854.76927	19650.325
2857.28724	19621.125
2859.80367	19618.425
2862.31855	19614.525
2864.83189	19618.625
2867.34368	19615.725
2869.85393	19629.325
2872.36264	19588.625
2874.8698	19608.025
2877.37543	19624.925
2879.87952	19600.525
2882.38207	19642.425
2884.88308	19641.125
2887.38256	19653.225
2889.88051	19666.025
2892.37692	19644.725
2894.8718	19629.225
2897.36515	19671.325
2899.85698	19651.425
2902.34727	19734.525
2904.83604	19782.625
2907.32328	19749.525
2909.809	19800.825
2912.29319	19785.625
2914.77587	19791.925
2917.25702	19825.525
2919.73665	19775.325
2922.21476	19803.025
2924.69136	19726.425
2927.16644	19719.025
2929.64	19681.325
2932.11205	19655.125
2934.58258	19580.325
2937.05161	19614.825
2939.51912	19636.325
2941.98513	19612.525
2944.44962	19563.525
2946.91261	19506.125
2949.37409	19550.525
2951.83407	19493.725
2954.29254	19498.225
2956.74951	19485.325
2959.20498	19460.025
2961.65895	19427.625
2964.11142	19427.125
2966.56239	19337.925
2969.01186	19364.825
2971.45984	19274.825
2973.90632	19314.625
2976.35131	19241.425
2978.7948	19206.225
2981.23681	19130.225
2983.67732	19114.725
2986.11635	19079.425
2988.55388	18995.425
2990.98993	18995.125
2993.4245	18946.125
2995.85758	18940.825
2998.28917	18914.525
3000.71928	18864.425
3003.14791	18854.825
3005.57506	18842.225
3008.00073	18779.525
3010.42493	18757.325
3012.84764	18700.225
3015.26888	18723.525
3017.68865	18671.225
3020.10694	18717.125
3022.52376	18627.825
3024.9391	18592.025
3027.35298	18571.225
3029.76539	18519.125
3032.17632	18530.425
3034.5858	18498.625
3036.9938	18474.525
3039.40034	18443.825
3041.80542	18479.725
3044.20903	18421.025
3046.61118	18454.625
3049.01187	18350.525
3051.4111	18373.625
3053.80888	18326.325
3056.20519	18304.825
3058.60005	18280.825
3060.99345	18253.425
3063.3854	18230.825
3065.7759	18176.225
3068.16494	18155.525
3070.55254	18104.125
3072.93868	18045.725
3075.32338	18007.025
3077.70662	17999.525
3080.08842	17975.525
3082.46878	17922.125
3084.84769	17906.125
3087.22515	17879.825
3089.60118	17887.225
3091.97576	17905.925
3094.3489	17904.125
3096.72061	17865.725
3099.09087	17875.225
3101.4597	17839.425
3103.82709	17886.025
3106.19305	17811.625
3108.55757	17818.825
3110.92066	17771.825
3113.28232	17744.225
3115.64255	17707.025
3118.00134	17644.325
3120.35871	17633.925
3122.71466	17595.925
3125.06917	17585.225
3127.42226	17536.325
