Data from AgNPs_FTO_APTES_UA_2uM_R6G_10uM_NaF_0.1M_Addition_RamanShift__16__12-02-17-218.txt Node

Date: Fri Dec 17 12:02:17 GMT 2021
User: TCL
Spectrometer: QEP01345
Trigger mode: 4
Integration Time (sec): 7.000000E0
Scans to average: 10
Electric dark correction enabled: true
Nonlinearity correction enabled: false
Boxcar width: 0
XAxis mode: Raman Shifts
Number of Pixels in Spectrum: 1044
>>>>>Begin Spectral Data<<<<<
46.04893	-1.4875
50.45542	0.2125
54.85868	-1.5875
59.25871	-0.5875
63.6555	115.3125
68.04907	115.7125
72.43941	125.9125
76.82654	131.3125
81.21044	134.9125
85.59113	138.0125
89.96862	145.3125
94.34289	148.3125
98.71396	153.1125
103.08183	157.7125
107.4465	163.2125
111.80798	167.6125
116.16626	172.1125
120.52136	178.9125
124.87327	184.9125
129.222	194.2125
133.56755	207.2125
137.90993	221.1125
142.24913	241.6125
146.58517	264.5125
150.91804	307.3125
155.24774	367.6125
159.57429	454.8125
163.89768	579.9125
168.21792	750.6125
172.53501	1029.0125
176.84895	1415.3125
181.15975	1988.7125
185.46741	2799.2125
189.77193	3848.5125
194.07331	5136.1125
198.37157	6601.6125
202.6667	8176.7125
206.9587	9713.1125
211.24758	11235.5125
215.53334	12738.6125
219.81599	14346.7125
224.09553	16154.3125
228.37195	18103.5125
232.64527	20295.0125
236.91549	22565.6125
241.18261	24865.0125
245.44663	27025.5125
249.70755	28934.9125
253.96539	30590.4125
258.22014	31968.8125
262.4718	33122.2125
266.72039	33931.6125
270.96589	34348.5125
275.20832	34397.6125
279.44768	34167.8125
283.68397	33696.1125
287.91719	33315.6125
292.14735	33073.0125
296.37445	33043.1125
300.59849	33113.6125
304.81948	33223.2125
309.03742	33271.9125
313.25231	32988.3125
317.46415	32350.6125
321.67296	31454.3125
325.87872	30709.5125
330.08145	30386.9125
334.28114	30411.0125
338.47781	30651.8125
342.67145	31059.6125
346.86207	31633.6125
351.04966	32382.2125
355.23424	33165.1125
359.4158	33840.0125
363.59435	34348.4125
367.76989	34700.2125
371.94243	34947.5125
376.11196	35010.7125
380.27849	35143.5125
384.44203	35283.5125
388.60257	35487.2125
392.76012	35699.6125
396.91468	36128.5125
401.06626	36711.9125
405.21485	37063.8125
409.36047	36899.7125
413.50311	36294.9125
417.64277	35818.4125
421.77947	35606.0125
425.9132	35571.9125
430.04396	35707.9125
434.17176	35873.1125
438.2966	36143.0125
442.41849	36585.8125
446.53742	37328.3125
450.6534	38123.5125
454.76644	38791.7125
458.87653	39135.1125
462.98368	39112.7125
467.08789	38889.5125
471.18916	38361.8125
475.2875	37863.6125
479.38291	37451.7125
483.4754	37170.8125
487.56496	36865.6125
491.6516	36488.4125
495.73531	36225.5125
499.81612	36234.9125
503.89401	36483.0125
507.96899	36671.2125
512.04106	36750.6125
516.11023	36669.0125
520.1765	36595.3125
524.23987	36445.4125
528.30034	36025.6125
532.35792	35754.3125
536.41261	35287.3125
540.46441	34921.5125
544.51333	34837.1125
548.55936	35121.3125
552.60252	35697.8125
556.64279	36271.0125
560.6802	36586.7125
564.71473	36813.8125
568.7464	37166.6125
572.7752	37793.0125
576.80114	38171.3125
580.82422	38540.4125
584.84444	38951.1125
588.86181	39241.6125
592.87633	39388.5125
596.888	39638.6125
600.89682	40114.0125
604.9028	41959.5125
608.90594	46226.0125
612.90624	50378.0125
616.90371	47685.4125
620.89834	40331.0125
624.89015	37026.4125
628.87913	36604.8125
632.86528	36572.2125
636.84862	36446.6125
640.82913	36053.2125
644.80683	35204.7125
648.78172	34626.7125
652.75379	34497.6125
656.72306	34956.7125
660.68952	35576.0125
664.65319	35493.1125
668.61405	34886.5125
672.57211	34732.1125
676.52738	34806.7125
680.47986	34773.5125
684.42955	34641.8125
688.37646	34571.5125
692.32058	34771.5125
696.26192	35068.0125
700.20048	35490.6125
704.13626	35647.3125
708.06928	35504.0125
711.99952	35173.7125
715.927	35121.0125
719.85171	35177.4125
723.77365	35097.6125
727.69284	34751.8125
731.60928	34373.8125
735.52295	34255.9125
739.43388	34211.1125
743.34206	34326.4125
747.24749	34424.5125
751.15017	34616.3125
755.05012	35137.1125
758.94733	35986.8125
762.8418	37618.6125
766.73354	40204.0125
770.62254	42868.9125
774.50882	43781.3125
778.39237	42190.6125
782.27321	39351.5125
786.15132	36971.3125
790.02671	35544.2125
793.89938	34854.4125
797.76935	34569.7125
801.6366	34420.2125
805.50115	34286.5125
809.36299	34104.7125
813.22213	33867.3125
817.07857	33704.9125
820.93231	33524.7125
824.78336	33499.6125
828.63172	33499.1125
832.47738	33459.3125
836.32036	33492.5125
840.16066	33593.2125
843.99827	33686.4125
847.8332	33594.1125
851.66546	33507.2125
855.49504	33499.2125
859.32195	33540.3125
863.1462	33461.0125
866.96777	33354.8125
870.78668	33330.2125
874.60293	33338.9125
878.41652	33329.3125
882.22745	33488.3125
886.03573	33592.3125
889.84136	33631.6125
893.64433	33524.0125
897.44466	33361.9125
901.24235	33263.6125
905.0374	33118.8125
908.8298	33068.9125
912.61957	33054.4125
916.40671	33225.6125
920.19121	33585.8125
923.97308	33941.6125
927.75233	34148.5125
931.52895	34053.2125
935.30295	33780.0125
939.07433	33312.0125
942.84309	32867.7125
946.60924	32676.3125
950.37278	32590.1125
954.13371	32514.4125
957.89203	32340.7125
961.64774	32258.2125
965.40086	32228.4125
969.15137	32081.9125
972.89929	32075.9125
976.64461	32094.0125
980.38733	32127.4125
984.12747	32314.9125
987.86502	32547.0125
991.59999	32937.2125
995.33237	33462.9125
999.06217	34254.1125
1002.78939	35140.5125
1006.51404	35720.1125
1010.23611	36142.1125
1013.95561	36381.3125
1017.67255	36294.1125
1021.38692	35898.2125
1025.09872	35553.3125
1028.80796	35714.3125
1032.51465	36324.7125
1036.21877	37067.5125
1039.92035	37253.4125
1043.61937	36849.0125
1047.31584	36188.4125
1051.00976	35474.1125
1054.70114	35174.8125
1058.38998	35191.4125
1062.07627	35443.5125
1065.76003	35715.7125
1069.44126	36065.3125
1073.11995	36642.7125
1076.79611	37157.0125
1080.46974	37493.7125
1084.14085	37730.5125
1087.80943	38051.6125
1091.47549	38188.5125
1095.13903	37947.4125
1098.80005	37451.6125
1102.45857	36821.0125
1106.11456	36312.4125
1109.76805	36086.9125
1113.41903	36163.1125
1117.06751	36292.5125
1120.71348	36533.1125
1124.35696	36799.1125
1127.99793	37199.4125
1131.63641	37387.6125
1135.2724	37213.9125
1138.90589	36836.7125
1142.5369	36616.2125
1146.16542	36552.5125
1149.79145	36483.8125
1153.415	36584.6125
1157.03607	36883.7125
1160.65467	37494.2125
1164.27079	38656.7125
1167.88443	40225.0125
1171.49561	42446.9125
1175.10432	45202.5125
1178.71056	48752.0125
1182.31434	52310.4125
1185.91565	54355.1125
1189.51451	54580.9125
1193.11091	53204.9125
1196.70485	50954.0125
1200.29634	48593.5125
1203.88538	46915.8125
1207.47197	45515.6125
1211.05612	44405.8125
1214.63782	43622.8125
1218.21708	43117.9125
1221.79391	42931.9125
1225.36829	42838.7125
1228.94024	42642.3125
1232.50976	42231.8125
1236.07685	41872.7125
1239.6415	41667.4125
1243.20374	41626.1125
1246.76355	41893.4125
1250.32093	42378.8125
1253.8759	43170.2125
1257.42845	44245.8125
1260.97859	45381.9125
1264.52631	46502.3125
1268.07163	47759.4125
1271.61453	49016.7125
1275.15503	50299.4125
1278.69312	51463.9125
1282.22882	52223.5125
1285.76211	52785.2125
1289.29301	53330.5125
1292.82151	54277.2125
1296.34761	55557.7125
1299.87133	57554.2125
1303.39266	60459.1125
1306.9116	64151.2125
1310.42815	67927.1125
1313.94233	70426.0125
1317.45412	70672.8125
1320.96354	69584.5125
1324.47058	68284.3125
1327.97525	66948.0125
1331.47754	66072.9125
1334.97747	65766.7125
1338.47502	65903.5125
1341.97022	66100.5125
1345.46305	65863.5125
1348.95352	65361.0125
1352.44163	65091.4125
1355.92738	65831.3125
1359.41078	68297.8125
1362.89183	70868.0125
1366.37053	69803.9125
1369.84688	64235.0125
1373.32088	58051.3125
1376.79254	53668.0125
1380.26186	51618.3125
1383.72883	50929.3125
1387.19347	50439.1125
1390.65578	49713.3125
1394.11575	49149.1125
1397.57339	49176.3125
1401.0287	49674.6125
1404.48168	50311.0125
1407.93234	50721.8125
1411.38068	50715.8125
1414.82669	50033.4125
1418.27039	48882.9125
1421.71177	47559.1125
1425.15083	46445.1125
1428.58758	45944.2125
1432.02203	46022.1125
1435.45416	46685.2125
1438.88399	47622.5125
1442.31151	48299.3125
1445.73673	48796.6125
1449.15965	49177.5125
1452.58027	49419.4125
1455.9986	49526.7125
1459.41463	49871.2125
1462.82837	50645.9125
1466.23982	51619.8125
1469.64898	52522.6125
1473.05586	53056.8125
1476.46045	53121.2125
1479.86276	52848.6125
1483.26279	52515.7125
1486.66054	52319.6125
1490.05602	52512.9125
1493.44922	52864.9125
1496.84016	53461.7125
1500.22882	54667.0125
1503.61521	56542.8125
1506.99934	58831.2125
1510.38121	60872.1125
1513.76081	61380.9125
1517.13816	59718.4125
1520.51324	56723.3125
1523.88607	53988.6125
1527.25665	52133.5125
1530.62498	51157.9125
1533.99105	50764.2125
1537.35488	50530.0125
1540.71647	50180.3125
1544.07581	49644.3125
1547.4329	49194.6125
1550.78776	48755.0125
1554.14038	48427.1125
1557.49077	48234.6125
1560.83892	48166.4125
1564.18484	48214.4125
1567.52853	48423.4125
1570.86999	48732.8125
1574.20922	49281.6125
1577.54624	49753.6125
1580.88103	49681.9125
1584.2136	49410.7125
1587.54395	49872.6125
1590.87208	51352.0125
1594.19801	53775.2125
1597.52172	56528.3125
1600.84321	57525.8125
1604.16251	55799.4125
1607.47959	52531.5125
1610.79447	48995.1125
1614.10715	45593.1125
1617.41763	42676.1125
1620.7259	40606.2125
1624.03199	39465.6125
1627.33587	39394.1125
1630.63757	40281.0125
1633.93707	42222.2125
1637.23439	45267.8125
1640.52951	49436.8125
1643.82246	53871.1125
1647.11321	57103.0125
1650.40179	57643.5125
1653.68819	54481.0125
1656.97241	48712.5125
1660.25446	42978.4125
1663.53433	38746.5125
1666.81203	35985.4125
1670.08756	34123.1125
1673.36092	33002.3125
1676.63211	32238.9125
1679.90115	31712.0125
1683.16801	31278.5125
1686.43272	31020.1125
1689.69527	30767.9125
1692.95567	30584.9125
1696.2139	30479.7125
1699.46999	30341.8125
1702.72392	30287.7125
1705.97571	30243.1125
1709.22535	30196.6125
1712.47284	30164.1125
1715.71819	30145.8125
1718.96139	30052.7125
1722.20246	29967.4125
1725.44139	29855.7125
1728.67818	29701.1125
1731.91284	29567.9125
1735.14537	29415.4125
1738.37576	29257.4125
1741.60403	29147.0125
1744.83017	29068.8125
1748.05418	28984.6125
1751.27607	28956.5125
1754.49584	28921.2125
1757.71349	28893.6125
1760.92903	28841.1125
1764.14244	28839.0125
1767.35375	28838.2125
1770.56294	28819.3125
1773.77002	28773.3125
1776.97499	28680.4125
1780.17785	28685.8125
1783.37861	28652.7125
1786.57727	28609.4125
1789.77382	28541.5125
1792.96828	28528.7125
1796.16064	28424.2125
1799.3509	28458.6125
1802.53907	28422.0125
1805.72514	28290.7125
1808.90913	28231.9125
1812.09102	28200.5125
1815.27083	28146.3125
1818.44856	28104.0125
1821.6242	28114.2125
1824.79776	28060.8125
1827.96924	28074.7125
1831.13864	28107.3125
1834.30597	28085.7125
1837.47122	28083.6125
1840.6344	28089.6125
1843.7955	28136.9125
1846.95454	28107.9125
1850.11151	28119.1125
1853.26642	28095.4125
1856.41926	28100.2125
1859.57004	28084.6125
1862.71876	28094.3125
1865.86542	28052.7125
1869.01003	28061.9125
1872.15258	28049.2125
1875.29308	28016.5125
1878.43152	28044.8125
1881.56792	28005.4125
1884.70227	28018.9125
1887.83457	27989.1125
1890.96482	27988.0125
1894.09304	27938.8125
1897.21921	27917.2125
1900.34335	27871.0125
1903.46544	27878.2125
1906.58551	27852.2125
1909.70353	27797.5125
1912.81953	27709.0125
1915.93349	27645.9125
1919.04543	27585.1125
1922.15534	27556.6125
1925.26322	27473.6125
1928.36908	27429.8125
1931.47292	27368.8125
1934.57473	27239.9125
1937.67453	27174.8125
1940.77232	27088.7125
1943.86808	27011.3125
1946.96184	26963.7125
1950.05358	26821.0125
1953.14331	26745.3125
1956.23103	26693.5125
1959.31675	26629.9125
1962.40046	26562.0125
1965.48217	26478.0125
1968.56188	26445.0125
1971.63959	26381.8125
1974.7153	26300.5125
1977.78901	26196.6125
1980.86073	26154.8125
1983.93046	26044.2125
1986.99819	25942.2125
1990.06394	25880.6125
1993.1277	25814.7125
1996.18947	25697.2125
1999.24925	25686.0125
2002.30706	25561.4125
2005.36288	25499.5125
2008.41672	25473.5125
2011.46859	25396.7125
2014.51848	25307.8125
2017.56639	25253.7125
2020.61233	25213.9125
2023.6563	25201.7125
2026.6983	25122.2125
2029.73833	25080.0125
2032.7764	25000.9125
2035.8125	25017.3125
2038.84664	24980.2125
2041.87881	24936.3125
2044.90903	24911.7125
2047.93729	24877.7125
2050.96359	24836.1125
2053.98794	24808.3125
2057.01034	24785.8125
2060.03078	24776.3125
2063.04927	24748.5125
2066.06582	24730.0125
2069.08042	24701.8125
2072.09307	24671.7125
2075.10378	24647.9125
2078.11255	24639.1125
2081.11938	24664.6125
2084.12426	24614.8125
2087.12722	24634.4125
2090.12824	24610.8125
2093.12732	24631.3125
2096.12447	24640.6125
2099.11969	24612.6125
2102.11299	24663.6125
2105.10435	24638.9125
2108.09379	24667.5125
2111.08131	24733.0125
2114.0669	24702.4125
2117.05057	24763.6125
2120.03233	24782.8125
2123.01216	24796.5125
2125.99008	24777.1125
2128.96609	24799.0125
2131.94018	24820.2125
2134.91236	24870.6125
2137.88263	24864.6125
2140.851	24862.5125
2143.81746	24913.9125
2146.78201	24932.0125
2149.74466	24916.7125
2152.7054	24926.6125
2155.66425	24908.1125
2158.6212	24922.2125
2161.57625	24912.7125
2164.52941	24940.7125
2167.48067	24892.0125
2170.43004	24923.1125
2173.37752	24933.0125
2176.32311	24905.2125
2179.26681	24898.1125
2182.20863	24893.3125
2185.14856	24931.4125
2188.08661	24922.2125
2191.02278	24921.9125
2193.95707	24872.2125
2196.88948	24918.5125
2199.82001	24902.9125
2202.74867	24865.2125
2205.67545	24884.2125
2208.60037	24837.9125
2211.52341	24854.0125
2214.44458	24831.7125
2217.36388	24743.1125
2220.28132	24764.9125
2223.1969	24685.0125
2226.11061	24662.0125
2229.02246	24639.9125
2231.93245	24575.6125
2234.84058	24512.4125
2237.74686	24452.7125
2240.65128	24484.9125
2243.55385	24425.8125
2246.45456	24381.4125
2249.35343	24339.0125
2252.25044	24283.2125
2255.14561	24300.0125
2258.03893	24286.4125
2260.93041	24220.0125
2263.82004	24177.6125
2266.70783	24174.8125
2269.59378	24126.1125
2272.4779	24030.2125
2275.36017	24005.4125
2278.24061	23964.0125
2281.11922	23920.4125
2283.996	23880.2125
2286.87094	23872.4125
2289.74405	23825.9125
2292.61534	23790.8125
2295.4848	23799.5125
2298.35243	23788.0125
2301.21824	23788.3125
2304.08223	23828.2125
2306.94439	23803.7125
2309.80474	23829.7125
2312.66327	23861.5125
2315.51999	23800.5125
2318.37489	23810.7125
2321.22797	23767.2125
2324.07925	23797.3125
2326.92871	23763.2125
2329.77637	23709.7125
2332.62222	23676.4125
2335.46626	23659.7125
2338.3085	23609.8125
2341.14893	23671.5125
2343.98756	23717.9125
2346.8244	23682.6125
2349.65943	23689.4125
2352.49267	23657.7125
2355.32411	23659.5125
2358.15376	23667.2125
2360.98161	23630.1125
2363.80768	23588.5125
2366.63195	23537.1125
2369.45444	23525.9125
2372.27514	23474.9125
2375.09405	23452.7125
2377.91118	23394.7125
2380.72652	23347.9125
2383.54009	23329.9125
2386.35187	23307.0125
2389.16188	23209.3125
2391.97011	23189.9125
2394.77657	23160.6125
2397.58125	23169.8125
2400.38416	23109.6125
2403.18529	23095.2125
2405.98466	23082.3125
2408.78226	23010.8125
2411.57809	22981.0125
2414.37216	22939.1125
2417.16446	22937.1125
2419.955	22860.7125
2422.74378	22882.3125
2425.5308	22873.5125
2428.31606	22882.3125
2431.09956	22821.0125
2433.88131	22788.0125
2436.6613	22823.3125
2439.43954	22840.8125
2442.21603	22820.1125
2444.99077	22805.0125
2447.76377	22801.3125
2450.53501	22801.0125
2453.30451	22786.3125
2456.07226	22795.3125
2458.83827	22784.2125
2461.60254	22741.0125
2464.36507	22735.8125
2467.12586	22730.0125
2469.88492	22739.2125
2472.64224	22732.6125
2475.39782	22722.2125
2478.15167	22699.0125
2480.90379	22704.6125
2483.65417	22780.5125
2486.40283	22746.6125
2489.14976	22751.4125
2491.89497	22713.4125
2494.63845	22741.7125
2497.3802	22744.2125
2500.12024	22714.8125
2502.85855	22719.2125
2505.59514	22685.3125
2508.33002	22702.3125
2511.06318	22645.5125
2513.79462	22629.7125
2516.52435	22588.3125
2519.25237	22611.9125
2521.97867	22618.3125
2524.70327	22590.2125
2527.42616	22521.3125
2530.14734	22572.1125
2532.86681	22553.3125
2535.58458	22488.7125
2538.30065	22504.3125
2541.01501	22476.3125
2543.72768	22436.9125
2546.43864	22420.3125
2549.14791	22374.6125
2551.85548	22421.3125
2554.56136	22344.0125
2557.26554	22364.6125
2559.96803	22308.3125
2562.66883	22272.0125
2565.36794	22293.2125
2568.06536	22285.8125
2570.7611	22260.9125
2573.45514	22227.4125
2576.14751	22194.6125
2578.83819	22151.5125
2581.52719	22157.7125
2584.21451	22149.6125
2586.90015	22173.4125
2589.58411	22131.1125
2592.2664	22116.1125
2594.94701	22061.9125
2597.62594	22057.5125
2600.30321	22017.1125
2602.9788	22042.8125
2605.65273	21976.4125
2608.32498	21991.2125
2610.99557	21964.2125
2613.66449	21968.3125
2616.33175	21929.9125
2618.99734	21988.9125
2621.66128	21943.4125
2624.32355	21935.3125
2626.98416	21966.1125
2629.64311	21942.6125
2632.30041	21933.4125
2634.95605	21917.9125
2637.61004	21867.8125
2640.26238	21835.2125
2642.91306	21851.0125
2645.56209	21833.7125
2648.20948	21817.2125
2650.85521	21806.3125
2653.4993	21788.4125
2656.14175	21772.2125
2658.78255	21783.8125
2661.42171	21790.1125
2664.05923	21850.2125
2666.6951	21815.4125
2669.32934	21857.1125
2671.96194	21829.5125
2674.59291	21864.9125
2677.22224	21818.2125
2679.84993	21821.5125
2682.476	21822.5125
2685.10043	21811.2125
2687.72324	21777.9125
2690.34441	21807.9125
2692.96396	21778.3125
2695.58188	21786.9125
2698.19818	21773.9125
2700.81285	21785.1125
2703.4259	21712.5125
2706.03733	21753.8125
2708.64714	21769.9125
2711.25533	21793.7125
2713.86191	21778.7125
2716.46687	21816.6125
2719.07021	21828.9125
2721.67194	21808.9125
2724.27206	21806.0125
2726.87057	21819.6125
2729.46747	21827.8125
2732.06276	21843.4125
2734.65644	21795.6125
2737.24852	21834.1125
2739.83899	21788.6125
2742.42786	21806.1125
2745.01513	21769.4125
2747.60079	21769.4125
2750.18486	21759.4125
2752.76733	21729.1125
2755.3482	21734.9125
2757.92747	21704.7125
2760.50515	21689.1125
2763.08123	21682.5125
2765.65573	21648.6125
2768.22863	21647.1125
2770.79994	21637.7125
2773.36967	21673.0125
2775.9378	21654.0125
2778.50435	21599.2125
2781.06932	21584.5125
2783.6327	21569.3125
2786.1945	21548.0125
2788.75471	21529.0125
2791.31335	21503.5125
2793.87041	21478.5125
2796.42589	21414.2125
2798.97979	21415.0125
2801.53212	21340.8125
2804.08288	21334.7125
2806.63206	21264.6125
2809.17967	21259.6125
2811.72571	21167.1125
2814.27018	21222.3125
2816.81308	21166.9125
2819.35442	21166.0125
2821.89419	21102.6125
2824.43239	21091.3125
2826.96904	21089.9125
2829.50412	21076.7125
2832.03763	21011.0125
2834.56959	21003.3125
2837.1	20959.0125
2839.62884	20964.5125
2842.15613	20918.7125
2844.68186	20925.8125
2847.20604	20941.2125
2849.72867	20916.3125
2852.24974	20918.9125
2854.76927	20884.9125
2857.28724	20843.1125
2859.80367	20853.3125
2862.31855	20821.1125
2864.83189	20825.0125
2867.34368	20824.4125
2869.85393	20837.5125
2872.36264	20840.4125
2874.8698	20810.7125
2877.37543	20838.6125
2879.87952	20863.3125
2882.38207	20848.3125
2884.88308	20835.5125
2887.38256	20855.2125
2889.88051	20837.8125
2892.37692	20880.3125
2894.8718	20852.7125
2897.36515	20861.7125
2899.85698	20894.4125
2902.34727	20926.3125
2904.83604	20951.4125
2907.32328	20951.2125
2909.809	20954.4125
2912.29319	20988.4125
2914.77587	20973.7125
2917.25702	20999.2125
2919.73665	20946.2125
2922.21476	20955.6125
2924.69136	20920.1125
2927.16644	20923.2125
2929.64	20840.7125
2932.11205	20840.1125
2934.58258	20786.3125
2937.05161	20805.7125
2939.51912	20817.4125
2941.98513	20760.2125
2944.44962	20705.5125
2946.91261	20648.7125
2949.37409	20714.4125
2951.83407	20678.1125
2954.29254	20652.3125
2956.74951	20635.7125
2959.20498	20619.6125
2961.65895	20590.4125
2964.11142	20567.6125
2966.56239	20520.0125
2969.01186	20504.4125
2971.45984	20422.7125
2973.90632	20455.0125
2976.35131	20409.1125
2978.7948	20362.5125
2981.23681	20330.8125
2983.67732	20267.2125
2986.11635	20237.6125
2988.55388	20189.4125
2990.98993	20161.0125
2993.4245	20107.2125
2995.85758	20085.0125
2998.28917	20034.4125
3000.71928	20032.3125
3003.14791	19999.3125
3005.57506	20003.4125
3008.00073	19940.6125
3010.42493	19907.3125
3012.84764	19879.8125
3015.26888	19868.1125
3017.68865	19851.8125
3020.10694	19803.9125
3022.52376	19756.5125
