Data from AgNPs_FTO_APTES_UA_200uM_R6G_10uM_NaF_0.1M_Addition_RamanShift__22__16-25-57-518.txt Node

Date: Fri Dec 17 16:25:57 GMT 2021
User: TCL
Spectrometer: QEP01345
Trigger mode: 4
Integration Time (sec): 7.000000E0
Scans to average: 10
Electric dark correction enabled: true
Nonlinearity correction enabled: false
Boxcar width: 0
XAxis mode: Raman Shifts
Number of Pixels in Spectrum: 1044
>>>>>Begin Spectral Data<<<<<
46.04893	-0.275
50.45542	-0.475
54.85868	-1.475
59.25871	-0.575
63.6555	48.425
68.04907	48.625
72.43941	51.925
76.82654	54.725
81.21044	56.125
85.59113	57.725
89.96862	63.825
94.34289	61.925
98.71396	66.625
103.08183	66.425
107.4465	71.025
111.80798	68.225
116.16626	75.825
120.52136	72.125
124.87327	79.425
129.222	80.025
133.56755	82.525
137.90993	88.125
142.24913	97.225
146.58517	104.325
150.91804	120.425
155.24774	143.125
159.57429	173.525
163.89768	223.625
168.21792	295.025
172.53501	394.625
176.84895	548.325
181.15975	768.225
185.46741	1073.825
189.77193	1480.225
194.07331	1991.325
198.37157	2579.425
202.6667	3178.525
206.9587	3788.325
211.24758	4392.225
215.53334	4982.225
219.81599	5605.425
224.09553	6298.225
228.37195	7020.625
232.64527	7882.425
236.91549	8770.425
241.18261	9688.125
245.44663	10561.225
249.70755	11323.925
253.96539	11975.325
258.22014	12562.525
262.4718	13001.025
266.72039	13316.625
270.96589	13497.225
275.20832	13518.325
279.44768	13404.125
283.68397	13187.625
287.91719	12998.125
292.14735	12871.425
296.37445	12827.625
300.59849	12885.525
304.81948	13005.125
309.03742	12968.425
313.25231	12820.025
317.46415	12510.325
321.67296	12157.525
325.87872	11878.625
330.08145	11799.225
334.28114	11818.425
338.47781	11952.825
342.67145	12105.425
346.86207	12323.225
351.04966	12590.325
355.23424	12880.225
359.4158	13170.825
363.59435	13381.525
367.76989	13525.725
371.94243	13665.325
376.11196	13781.025
380.27849	13867.525
384.44203	13950.125
388.60257	14012.325
392.76012	14040.925
396.91468	14135.225
401.06626	14263.925
405.21485	14391.025
409.36047	14311.925
413.50311	14081.125
417.64277	13831.525
421.77947	13653.425
425.9132	13580.825
430.04396	13546.225
434.17176	13564.725
438.2966	13665.325
442.41849	13795.725
446.53742	13939.025
450.6534	14082.225
454.76644	14198.325
458.87653	14283.825
462.98368	14328.725
467.08789	14310.925
471.18916	14283.825
475.2875	14210.625
479.38291	14158.625
483.4754	14100.525
487.56496	14050.025
491.6516	14003.925
495.73531	14041.125
499.81612	14013.725
503.89401	14075.825
507.96899	14108.525
512.04106	14172.125
516.11023	14269.225
520.1765	14346.025
524.23987	14363.325
528.30034	14307.425
532.35792	14263.325
536.41261	14158.225
540.46441	14061.025
544.51333	13996.525
548.55936	13974.325
552.60252	13971.125
556.64279	14092.025
560.6802	14116.625
564.71473	14120.725
568.7464	14184.925
572.7752	14221.825
576.80114	14175.025
580.82422	14086.225
584.84444	14109.225
588.86181	14096.225
592.87633	14137.925
596.888	14185.425
600.89682	14381.325
604.9028	15029.825
608.90594	16596.225
612.90624	18620.025
616.90371	18223.025
620.89834	15676.525
624.89015	14450.925
628.87913	14281.825
632.86528	14437.625
636.84862	14680.725
640.82913	14619.625
644.80683	14283.725
648.78172	13986.725
652.75379	13829.425
656.72306	13898.825
660.68952	14109.825
664.65319	14070.725
668.61405	13935.025
672.57211	13886.325
676.52738	13964.125
680.47986	13900.025
684.42955	13789.225
688.37646	13673.825
692.32058	13643.225
696.26192	13659.925
700.20048	13683.925
704.13626	13703.125
708.06928	13694.325
711.99952	13654.025
715.927	13615.925
719.85171	13622.825
723.77365	13603.325
727.69284	13579.725
731.60928	13561.725
735.52295	13515.925
739.43388	13521.325
743.34206	13580.125
747.24749	13542.525
751.15017	13519.325
755.05012	13537.325
758.94733	13710.925
762.8418	14156.825
766.73354	15071.625
770.62254	16185.125
774.50882	16990.925
778.39237	16662.825
782.27321	15468.125
786.15132	14362.325
790.02671	13683.825
793.89938	13375.525
797.76935	13242.825
801.6366	13211.325
805.50115	13210.025
809.36299	13207.625
813.22213	13203.025
817.07857	13174.025
820.93231	13097.025
824.78336	13062.625
828.63172	13007.125
832.47738	12949.125
836.32036	12885.325
840.16066	12877.325
843.99827	12836.825
847.8332	12809.825
851.66546	12799.125
855.49504	12801.925
859.32195	12788.125
863.1462	12817.225
866.96777	12808.825
870.78668	12812.725
874.60293	12824.025
878.41652	12854.325
882.22745	12887.025
886.03573	12941.325
889.84136	12988.925
893.64433	12917.425
897.44466	12800.625
901.24235	12692.825
905.0374	12609.425
908.8298	12516.725
912.61957	12458.225
916.40671	12482.025
920.19121	12470.425
923.97308	12487.725
927.75233	12551.025
931.52895	12517.825
935.30295	12479.325
939.07433	12359.325
942.84309	12240.025
946.60924	12189.325
950.37278	12138.725
954.13371	12104.225
957.89203	12072.025
961.64774	12016.925
965.40086	11951.025
969.15137	11885.025
972.89929	11807.125
976.64461	11804.325
980.38733	11759.625
984.12747	11728.425
987.86502	11759.725
991.59999	11772.225
995.33237	11842.925
999.06217	11907.425
1002.78939	12000.525
1006.51404	12082.125
1010.23611	12228.925
1013.95561	12279.525
1017.67255	12357.125
1021.38692	12298.325
1025.09872	12176.525
1028.80796	12123.825
1032.51465	12082.025
1036.21877	12108.925
1039.92035	12100.325
1043.61937	12127.025
1047.31584	12151.325
1051.00976	12126.725
1054.70114	12116.825
1058.38998	12099.325
1062.07627	12161.425
1065.76003	12222.525
1069.44126	12278.825
1073.11995	12394.625
1076.79611	12468.425
1080.46974	12479.325
1084.14085	12412.325
1087.80943	12437.525
1091.47549	12456.625
1095.13903	12420.925
1098.80005	12297.625
1102.45857	12127.925
1106.11456	12045.525
1109.76805	12041.825
1113.41903	12157.025
1117.06751	12276.725
1120.71348	12505.725
1124.35696	12732.225
1127.99793	13015.425
1131.63641	13223.125
1135.2724	13152.225
1138.90589	12946.125
1142.5369	12713.225
1146.16542	12443.525
1149.79145	12236.225
1153.415	12049.225
1157.03607	11956.225
1160.65467	12019.825
1164.27079	12179.525
1167.88443	12445.625
1171.49561	12883.325
1175.10432	13494.525
1178.71056	14362.525
1182.31434	15150.825
1185.91565	15489.025
1189.51451	15376.925
1193.11091	14942.425
1196.70485	14376.425
1200.29634	13923.025
1203.88538	13559.125
1207.47197	13126.625
1211.05612	12738.625
1214.63782	12429.025
1218.21708	12235.825
1221.79391	12155.425
1225.36829	12108.525
1228.94024	12114.725
1232.50976	12112.925
1236.07685	12106.825
1239.6415	12119.525
1243.20374	12176.425
1246.76355	12208.725
1250.32093	12269.625
1253.8759	12391.425
1257.42845	12542.025
1260.97859	12710.525
1264.52631	12881.825
1268.07163	13082.925
1271.61453	13272.025
1275.15503	13422.725
1278.69312	13550.025
1282.22882	13611.025
1285.76211	13745.525
1289.29301	13921.525
1292.82151	14191.725
1296.34761	14521.725
1299.87133	14933.225
1303.39266	15529.625
1306.9116	16293.325
1310.42815	17127.625
1313.94233	17629.725
1317.45412	17396.725
1320.96354	16816.525
1324.47058	16165.325
1327.97525	15496.925
1331.47754	15006.125
1334.97747	14761.125
1338.47502	14742.725
1341.97022	14859.525
1345.46305	15189.825
1348.95352	15672.725
1352.44163	16465.925
1355.92738	17488.725
1359.41078	18846.425
1362.89183	20260.625
1366.37053	20244.625
1369.84688	18254.325
1373.32088	16008.325
1376.79254	14536.125
1380.26186	13726.725
1383.72883	13311.725
1387.19347	13029.425
1390.65578	12742.625
1394.11575	12480.025
1397.57339	12314.425
1401.0287	12198.725
1404.48168	12155.625
1407.93234	12135.225
1411.38068	12050.625
1414.82669	12028.925
1418.27039	11923.325
1421.71177	11814.425
1425.15083	11686.725
1428.58758	11585.225
1432.02203	11551.025
1435.45416	11585.025
1438.88399	11622.525
1442.31151	11677.125
1445.73673	11688.125
1449.15965	11760.025
1452.58027	11814.225
1455.9986	11862.525
1459.41463	11955.425
1462.82837	12047.525
1466.23982	12155.025
1469.64898	12285.825
1473.05586	12377.225
1476.46045	12441.925
1479.86276	12530.425
1483.26279	12603.725
1486.66054	12747.925
1490.05602	12939.025
1493.44922	13216.025
1496.84016	13659.925
1500.22882	14413.525
1503.61521	15482.525
1506.99934	16729.025
1510.38121	17918.425
1513.76081	18350.025
1517.13816	17725.825
1520.51324	16370.825
1523.88607	14964.225
1527.25665	13967.925
1530.62498	13363.125
1533.99105	13034.125
1537.35488	12820.525
1540.71647	12652.825
1544.07581	12567.625
1547.4329	12553.825
1550.78776	12555.925
1554.14038	12587.925
1557.49077	12709.325
1560.83892	12844.125
1564.18484	13009.125
1567.52853	13174.325
1570.86999	13380.025
1574.20922	13513.425
1577.54624	13554.125
1580.88103	13288.825
1584.2136	12837.425
1587.54395	12463.725
1590.87208	12301.325
1594.19801	12434.025
1597.52172	12744.825
1600.84321	12983.125
1604.16251	12824.825
1607.47959	12470.525
1610.79447	12101.325
1614.10715	11710.825
1617.41763	11288.625
1620.7259	11062.025
1624.03199	10858.325
1627.33587	10788.625
1630.63757	10817.825
1633.93707	11012.625
1637.23439	11321.025
1640.52951	11827.025
1643.82246	12559.125
1647.11321	13506.425
1650.40179	14319.225
1653.68819	14374.325
1656.97241	13471.925
1660.25446	12273.625
1663.53433	11301.425
1666.81203	10678.225
1670.08756	10290.025
1673.36092	10043.725
1676.63211	9863.225
1679.90115	9735.625
1683.16801	9624.825
1686.43272	9555.325
1689.69527	9501.925
1692.95567	9483.325
1696.2139	9424.325
1699.46999	9394.625
1702.72392	9361.125
1705.97571	9287.425
1709.22535	9209.625
1712.47284	9162.125
1715.71819	9125.925
1718.96139	9095.725
1722.20246	9052.325
1725.44139	8977.725
1728.67818	8932.025
1731.91284	8886.625
1735.14537	8840.025
1738.37576	8794.625
1741.60403	8789.125
1744.83017	8741.225
1748.05418	8714.725
1751.27607	8718.225
1754.49584	8702.325
1757.71349	8695.125
1760.92903	8668.425
1764.14244	8671.025
1767.35375	8657.025
1770.56294	8630.425
1773.77002	8620.725
1776.97499	8600.325
1780.17785	8578.525
1783.37861	8530.325
1786.57727	8524.525
1789.77382	8493.425
1792.96828	8461.125
1796.16064	8472.625
1799.3509	8456.825
1802.53907	8410.325
1805.72514	8395.925
1808.90913	8349.925
1812.09102	8330.725
1815.27083	8311.125
1818.44856	8296.525
1821.6242	8296.125
1824.79776	8244.825
1827.96924	8248.425
1831.13864	8219.725
1834.30597	8239.025
1837.47122	8190.325
1840.6344	8221.225
1843.7955	8195.125
1846.95454	8175.525
1850.11151	8173.925
1853.26642	8173.925
1856.41926	8145.425
1859.57004	8136.725
1862.71876	8141.625
1865.86542	8118.025
1869.01003	8122.325
1872.15258	8099.425
1875.29308	8084.825
1878.43152	8061.325
1881.56792	8053.925
1884.70227	8068.125
1887.83457	8027.625
1890.96482	8049.225
1894.09304	8021.925
1897.21921	7990.625
1900.34335	7989.325
1903.46544	7982.525
1906.58551	7970.725
1909.70353	7965.225
1912.81953	7961.325
1915.93349	7943.025
1919.04543	7910.925
1922.15534	7892.925
1925.26322	7907.625
1928.36908	7876.425
1931.47292	7849.225
1934.57473	7814.025
1937.67453	7808.525
1940.77232	7760.725
1943.86808	7743.025
1946.96184	7744.925
1950.05358	7727.325
1953.14331	7706.825
1956.23103	7669.225
1959.31675	7662.625
1962.40046	7618.125
1965.48217	7619.025
1968.56188	7596.725
1971.63959	7579.525
1974.7153	7539.725
1977.78901	7501.825
1980.86073	7473.825
1983.93046	7447.525
1986.99819	7425.525
1990.06394	7424.325
1993.1277	7379.325
1996.18947	7369.125
1999.24925	7359.225
2002.30706	7306.725
2005.36288	7295.325
2008.41672	7256.225
2011.46859	7245.925
2014.51848	7223.325
2017.56639	7183.825
2020.61233	7174.225
2023.6563	7177.625
2026.6983	7126.125
2029.73833	7127.225
2032.7764	7103.225
2035.8125	7083.425
2038.84664	7064.725
2041.87881	7067.225
2044.90903	7049.125
2047.93729	7016.625
2050.96359	7026.325
2053.98794	6992.125
2057.01034	6995.525
2060.03078	6996.125
2063.04927	6972.625
2066.06582	6975.625
2069.08042	6961.825
2072.09307	6953.925
2075.10378	6948.625
2078.11255	6937.825
2081.11938	6933.025
2084.12426	6923.425
2087.12722	6930.825
2090.12824	6925.525
2093.12732	6914.025
2096.12447	6942.825
2099.11969	6905.325
2102.11299	6905.125
2105.10435	6912.725
2108.09379	6920.725
2111.08131	6926.225
2114.0669	6930.925
2117.05057	6926.025
2120.03233	6915.725
2123.01216	6941.025
2125.99008	6932.925
2128.96609	6940.425
2131.94018	6956.525
2134.91236	6955.225
2137.88263	6957.325
2140.851	6942.525
2143.81746	6959.925
2146.78201	6948.325
2149.74466	6947.225
2152.7054	6944.225
2155.66425	6933.325
2158.6212	6948.625
2161.57625	6925.225
2164.52941	6930.425
2167.48067	6933.225
2170.43004	6923.625
2173.37752	6920.725
2176.32311	6904.625
2179.26681	6907.425
2182.20863	6895.925
2185.14856	6894.225
2188.08661	6885.025
2191.02278	6896.025
2193.95707	6868.425
2196.88948	6886.125
2199.82001	6870.625
2202.74867	6863.925
2205.67545	6848.025
2208.60037	6848.225
2211.52341	6840.225
2214.44458	6810.125
2217.36388	6804.125
2220.28132	6794.525
2223.1969	6759.025
2226.11061	6748.425
2229.02246	6747.625
2231.93245	6732.425
2234.84058	6726.125
2237.74686	6703.725
2240.65128	6703.225
2243.55385	6684.625
2246.45456	6691.725
2249.35343	6671.225
2252.25044	6661.125
2255.14561	6666.025
2258.03893	6655.125
2260.93041	6644.725
2263.82004	6621.125
2266.70783	6583.325
2269.59378	6592.425
2272.4779	6565.325
2275.36017	6543.625
2278.24061	6530.025
2281.11922	6523.625
2283.996	6501.225
2286.87094	6502.525
2289.74405	6481.925
2292.61534	6483.025
2295.4848	6463.925
2298.35243	6464.025
2301.21824	6436.525
2304.08223	6451.125
2306.94439	6448.125
2309.80474	6448.425
2312.66327	6420.925
2315.51999	6415.425
2318.37489	6437.225
2321.22797	6421.425
2324.07925	6396.325
2326.92871	6394.025
2329.77637	6391.125
2332.62222	6363.225
2335.46626	6337.925
2338.3085	6335.925
2341.14893	6313.925
2343.98756	6326.025
2346.8244	6308.525
2349.65943	6306.925
2352.49267	6296.125
2355.32411	6311.725
2358.15376	6313.825
2360.98161	6305.325
2363.80768	6305.725
2366.63195	6309.725
2369.45444	6272.225
2372.27514	6268.925
2375.09405	6259.225
2377.91118	6263.525
2380.72652	6223.625
2383.54009	6239.825
2386.35187	6217.825
2389.16188	6182.325
2391.97011	6173.325
2394.77657	6152.625
2397.58125	6153.225
2400.38416	6137.925
2403.18529	6146.825
2405.98466	6107.025
2408.78226	6102.225
2411.57809	6094.125
2414.37216	6083.025
2417.16446	6095.125
2419.955	6060.625
2422.74378	6076.225
2425.5308	6063.325
2428.31606	6052.325
2431.09956	6043.425
2433.88131	6035.925
2436.6613	6036.725
2439.43954	6033.325
2442.21603	6018.925
2444.99077	6014.425
2447.76377	6026.025
2450.53501	5991.325
2453.30451	6004.925
2456.07226	5985.225
2458.83827	5984.825
2461.60254	5973.425
2464.36507	5983.925
2467.12586	5958.425
2469.88492	5970.825
2472.64224	5963.025
2475.39782	5954.125
2478.15167	5948.625
2480.90379	5965.725
2483.65417	5956.025
2486.40283	5956.025
2489.14976	5948.825
2491.89497	5920.025
2494.63845	5947.425
2497.3802	5945.825
2500.12024	5912.325
2502.85855	5919.825
2505.59514	5905.125
2508.33002	5901.325
2511.06318	5895.725
2513.79462	5873.025
2516.52435	5864.125
2519.25237	5839.125
2521.97867	5848.325
2524.70327	5821.325
2527.42616	5806.225
2530.14734	5799.825
2532.86681	5782.325
2535.58458	5768.125
2538.30065	5779.325
2541.01501	5765.925
2543.72768	5762.925
2546.43864	5752.925
2549.14791	5732.125
2551.85548	5732.025
2554.56136	5721.625
2557.26554	5712.625
2559.96803	5708.525
2562.66883	5703.625
2565.36794	5687.625
2568.06536	5679.225
2570.7611	5684.325
2573.45514	5650.925
2576.14751	5651.925
2578.83819	5635.525
2581.52719	5627.125
2584.21451	5631.525
2586.90015	5624.025
2589.58411	5608.125
2592.2664	5606.325
2594.94701	5583.025
2597.62594	5578.625
2600.30321	5547.925
2602.9788	5549.425
2605.65273	5546.925
2608.32498	5527.825
2610.99557	5531.525
2613.66449	5522.525
2616.33175	5498.925
2618.99734	5506.825
2621.66128	5501.425
2624.32355	5503.625
2626.98416	5472.525
2629.64311	5487.925
2632.30041	5475.925
2634.95605	5456.525
2637.61004	5479.825
2640.26238	5450.825
2642.91306	5440.925
2645.56209	5440.825
2648.20948	5444.025
2650.85521	5429.525
2653.4993	5417.625
2656.14175	5423.125
2658.78255	5423.425
2661.42171	5420.425
2664.05923	5429.125
2666.6951	5430.525
2669.32934	5425.225
2671.96194	5398.925
2674.59291	5402.225
2677.22224	5412.225
2679.84993	5406.125
2682.476	5397.725
2685.10043	5413.725
2687.72324	5394.725
2690.34441	5399.325
2692.96396	5419.125
2695.58188	5404.825
2698.19818	5380.125
2700.81285	5389.825
2703.4259	5400.325
2706.03733	5427.125
2708.64714	5402.225
2711.25533	5418.225
2713.86191	5390.825
2716.46687	5404.325
2719.07021	5418.825
2721.67194	5395.625
2724.27206	5401.225
2726.87057	5387.125
2729.46747	5380.925
2732.06276	5384.525
2734.65644	5375.525
2737.24852	5368.725
2739.83899	5356.425
2742.42786	5349.925
2745.01513	5360.525
2747.60079	5344.425
2750.18486	5335.925
2752.76733	5347.725
2755.3482	5331.425
2757.92747	5332.725
2760.50515	5325.925
2763.08123	5313.325
2765.65573	5315.225
2768.22863	5302.925
2770.79994	5287.725
2773.36967	5269.625
2775.9378	5281.025
2778.50435	5265.925
2781.06932	5252.225
2783.6327	5253.225
2786.1945	5264.925
2788.75471	5251.025
2791.31335	5219.725
2793.87041	5219.525
2796.42589	5184.025
2798.97979	5215.025
2801.53212	5187.325
2804.08288	5188.725
2806.63206	5167.525
2809.17967	5172.225
2811.72571	5145.025
2814.27018	5153.025
2816.81308	5126.925
2819.35442	5137.925
2821.89419	5110.925
2824.43239	5128.625
2826.96904	5119.425
2829.50412	5123.925
2832.03763	5119.925
2834.56959	5096.525
2837.1	5107.925
2839.62884	5101.925
2842.15613	5111.325
2844.68186	5109.825
2847.20604	5090.825
2849.72867	5138.525
2852.24974	5105.825
2854.76927	5108.125
2857.28724	5100.625
2859.80367	5087.225
2862.31855	5053.825
2864.83189	5078.325
2867.34368	5058.725
2869.85393	5059.325
2872.36264	5078.125
2874.8698	5083.125
2877.37543	5075.525
2879.87952	5080.425
2882.38207	5073.325
2884.88308	5065.025
2887.38256	5071.125
2889.88051	5050.025
2892.37692	5067.725
2894.8718	5059.325
2897.36515	5052.725
2899.85698	5055.225
2902.34727	5064.225
2904.83604	5064.025
2907.32328	5062.325
2909.809	5047.425
2912.29319	5068.025
2914.77587	5059.725
2917.25702	5057.725
2919.73665	5058.025
2922.21476	5056.525
2924.69136	5051.925
2927.16644	5057.025
2929.64	5054.825
2932.11205	5053.525
2934.58258	5035.825
2937.05161	5024.925
2939.51912	5044.525
2941.98513	5025.925
2944.44962	5015.125
2946.91261	4974.625
2949.37409	4991.725
2951.83407	5004.025
2954.29254	4997.325
2956.74951	4978.325
2959.20498	4984.925
2961.65895	4971.625
2964.11142	4971.225
2966.56239	4954.725
2969.01186	4981.125
2971.45984	4953.325
2973.90632	4952.725
2976.35131	4922.125
2978.7948	4913.425
2981.23681	4919.225
2983.67732	4912.125
2986.11635	4910.225
2988.55388	4903.825
2990.98993	4874.325
2993.4245	4876.325
2995.85758	4870.725
2998.28917	4851.525
3000.71928	4863.225
3003.14791	4859.525
3005.57506	4848.125
3008.00073	4850.525
3010.42493	4848.425
3012.84764	4837.625
3015.26888	4831.525
3017.68865	4830.225
3020.10694	4831.525
3022.52376	4806.425
3024.9391	4808.925
3027.35298	4805.925
3029.76539	4785.625
3032.17632	4776.325
3034.5858	4761.925
3036.9938	4769.225
3039.40034	4773.925
3041.80542	4756.225
3044.20903	4765.125
3046.61118	4772.125
3049.01187	4761.925
3051.4111	4751.225
3053.80888	4723.725
3056.20519	4732.325
3058.60005	4731.825
3060.99345	4726.225
3063.3854	4711.825
3065.7759	4707.925
3068.16494	4705.325
3070.55254	4697.625
3072.93868	4678.125
3075.32338	4684.025
3077.70662	4689.925
3080.08842	4671.825
3082.46878	4681.925
3084.84769	4673.025
3087.22515	4688.625
3089.60118	4681.825
3091.97576	4691.025
3094.3489	4693.725
3096.72061	4687.725
3099.09087	4689.725
3101.4597	4691.925
3103.82709	4688.225
3106.19305	4700.225
3108.55757	4693.225
3110.92066	4683.225
3113.28232	4656.725
3115.64255	4649.025
3118.00134	4663.525
3120.35871	4662.525
3122.71466	4668.825
3125.06917	4651.825
3127.42226	4651.625
3129.77393	4667.425
3132.12417	4655.425
3134.47299	4673.125
3136.82039	4666.725
3139.16636	4693.825
3141.51092	4669.425
3143.85406	4686.125
3146.19579	4703.325
3148.53609	4707.525
3150.87499	4708.225
3153.21246	4717.125
3155.54853	4735.325
3157.88318	4715.925
3160.21642	4735.625
3162.54826	4734.825
3164.87868	4735.025
3167.2077	4734.925
3169.5353	4735.525
3171.86151	4748.725
3174.18631	4734.325
3176.5097	4732.425
3178.83169	4744.225
3181.15228	4750.925
3183.47147	4738.125
3185.78926	4743.025
3188.10565	4730.525
3190.42065	4733.225
3192.73424	4748.425
