Data from AgNPs_FTO_APTES_UA_100uM_R6G_10uM_NaF_0.1M_Addition_RamanShift__9__15-27-37-453.txt Node

Date: Fri Dec 17 15:27:37 GMT 2021
User: TCL
Spectrometer: QEP01345
Trigger mode: 4
Integration Time (sec): 7.000000E0
Scans to average: 10
Electric dark correction enabled: true
Nonlinearity correction enabled: false
Boxcar width: 0
XAxis mode: Raman Shifts
Number of Pixels in Spectrum: 1044
>>>>>Begin Spectral Data<<<<<
46.04893	1.0125
50.45542	0.0125
54.85868	-1.0875
59.25871	0.0125
63.6555	60.7125
68.04907	62.0125
72.43941	64.8125
76.82654	68.5125
81.21044	71.3125
85.59113	75.2125
89.96862	78.7125
94.34289	85.0125
98.71396	81.2125
103.08183	83.4125
107.4465	88.0125
111.80798	89.2125
116.16626	94.1125
120.52136	88.9125
124.87327	97.1125
129.222	99.7125
133.56755	100.3125
137.90993	104.6125
142.24913	114.1125
146.58517	124.8125
150.91804	138.8125
155.24774	158.7125
159.57429	198.2125
163.89768	246.5125
168.21792	317.5125
172.53501	419.9125
176.84895	581.3125
181.15975	802.5125
185.46741	1122.2125
189.77193	1551.5125
194.07331	2073.4125
198.37157	2669.4125
202.6667	3302.5125
206.9587	3912.1125
211.24758	4546.3125
215.53334	5166.7125
219.81599	5801.4125
224.09553	6526.7125
228.37195	7325.7125
232.64527	8212.9125
236.91549	9162.6125
241.18261	10107.2125
245.44663	10990.5125
249.70755	11816.2125
253.96539	12479.8125
258.22014	13054.8125
262.4718	13509.7125
266.72039	13837.7125
270.96589	13998.5125
275.20832	14041.3125
279.44768	13959.6125
283.68397	13790.3125
287.91719	13672.9125
292.14735	13558.9125
296.37445	13558.4125
300.59849	13606.2125
304.81948	13688.3125
309.03742	13666.0125
313.25231	13500.8125
317.46415	13238.8125
321.67296	12891.3125
325.87872	12577.1125
330.08145	12434.8125
334.28114	12445.1125
338.47781	12531.0125
342.67145	12686.2125
346.86207	12895.9125
351.04966	13132.0125
355.23424	13368.8125
359.4158	13628.4125
363.59435	13789.3125
367.76989	13915.5125
371.94243	14040.5125
376.11196	14131.3125
380.27849	14185.4125
384.44203	14282.6125
388.60257	14323.0125
392.76012	14361.8125
396.91468	14509.4125
401.06626	14694.5125
405.21485	14785.8125
409.36047	14762.3125
413.50311	14505.6125
417.64277	14279.3125
421.77947	14135.7125
425.9132	14097.4125
430.04396	14122.4125
434.17176	14168.3125
438.2966	14254.3125
442.41849	14385.3125
446.53742	14510.5125
450.6534	14707.8125
454.76644	14900.3125
458.87653	15004.6125
462.98368	15063.3125
467.08789	15052.6125
471.18916	15007.0125
475.2875	14874.7125
479.38291	14740.4125
483.4754	14653.5125
487.56496	14541.6125
491.6516	14491.7125
495.73531	14419.1125
499.81612	14430.6125
503.89401	14491.6125
507.96899	14568.7125
512.04106	14592.1125
516.11023	14657.4125
520.1765	14708.5125
524.23987	14661.1125
528.30034	14551.5125
532.35792	14450.8125
536.41261	14393.4125
540.46441	14286.2125
544.51333	14270.1125
548.55936	14400.6125
552.60252	14563.9125
556.64279	14769.0125
560.6802	14844.7125
564.71473	14884.0125
568.7464	14972.1125
572.7752	15088.1125
576.80114	15150.8125
580.82422	15265.0125
584.84444	15355.2125
588.86181	15381.8125
592.87633	15305.8125
596.888	15346.1125
600.89682	15485.4125
604.9028	16109.2125
608.90594	17586.8125
612.90624	19341.4125
616.90371	18687.3125
620.89834	15988.2125
624.89015	14759.0125
628.87913	14584.5125
632.86528	14730.8125
636.84862	14940.7125
640.82913	14903.6125
644.80683	14627.8125
648.78172	14379.6125
652.75379	14263.9125
656.72306	14368.0125
660.68952	14577.5125
664.65319	14507.4125
668.61405	14311.7125
672.57211	14225.6125
676.52738	14213.1125
680.47986	14213.3125
684.42955	14178.2125
688.37646	14113.6125
692.32058	14129.5125
696.26192	14182.9125
700.20048	14285.3125
704.13626	14374.1125
708.06928	14371.0125
711.99952	14346.3125
715.927	14280.3125
719.85171	14285.9125
723.77365	14253.4125
727.69284	14190.6125
731.60928	14114.3125
735.52295	14061.2125
739.43388	14056.9125
743.34206	14066.3125
747.24749	14104.9125
751.15017	14164.2125
755.05012	14272.6125
758.94733	14532.5125
762.8418	15129.4125
766.73354	16154.4125
770.62254	17294.2125
774.50882	17830.1125
778.39237	17238.3125
782.27321	16073.1125
786.15132	15058.0125
790.02671	14443.2125
793.89938	14142.3125
797.76935	13995.0125
801.6366	13910.8125
805.50115	13896.4125
809.36299	13857.2125
813.22213	13816.4125
817.07857	13839.4125
820.93231	13813.6125
824.78336	13785.4125
828.63172	13775.3125
832.47738	13730.7125
836.32036	13721.7125
840.16066	13684.7125
843.99827	13664.2125
847.8332	13658.1125
851.66546	13626.0125
855.49504	13659.2125
859.32195	13609.5125
863.1462	13629.7125
866.96777	13616.3125
870.78668	13586.3125
874.60293	13634.9125
878.41652	13653.6125
882.22745	13677.5125
886.03573	13727.1125
889.84136	13752.4125
893.64433	13711.4125
897.44466	13711.7125
901.24235	13646.7125
905.0374	13586.1125
908.8298	13557.9125
912.61957	13562.0125
916.40671	13620.6125
920.19121	13658.1125
923.97308	13707.1125
927.75233	13683.5125
931.52895	13654.6125
935.30295	13585.9125
939.07433	13445.4125
942.84309	13327.5125
946.60924	13191.8125
950.37278	13124.0125
954.13371	13064.9125
957.89203	13046.1125
961.64774	13038.0125
965.40086	12983.6125
969.15137	12951.2125
972.89929	12949.6125
976.64461	12897.7125
980.38733	12911.1125
984.12747	12912.2125
987.86502	12921.2125
991.59999	12944.4125
995.33237	12984.5125
999.06217	13104.4125
1002.78939	13173.7125
1006.51404	13318.7125
1010.23611	13444.1125
1013.95561	13533.0125
1017.67255	13559.3125
1021.38692	13539.5125
1025.09872	13402.3125
1028.80796	13356.4125
1032.51465	13307.8125
1036.21877	13300.1125
1039.92035	13336.1125
1043.61937	13361.6125
1047.31584	13414.4125
1051.00976	13452.4125
1054.70114	13514.0125
1058.38998	13572.9125
1062.07627	13681.7125
1065.76003	13805.6125
1069.44126	13933.7125
1073.11995	14086.2125
1076.79611	14290.5125
1080.46974	14329.7125
1084.14085	14339.6125
1087.80943	14368.4125
1091.47549	14430.5125
1095.13903	14402.2125
1098.80005	14326.8125
1102.45857	14144.9125
1106.11456	13943.3125
1109.76805	13808.4125
1113.41903	13815.5125
1117.06751	13916.3125
1120.71348	14070.3125
1124.35696	14280.5125
1127.99793	14476.7125
1131.63641	14626.1125
1135.2724	14497.4125
1138.90589	14355.6125
1142.5369	14199.9125
1146.16542	14113.9125
1149.79145	14012.4125
1153.415	13981.3125
1157.03607	14010.9125
1160.65467	14131.6125
1164.27079	14396.6125
1167.88443	14765.6125
1171.49561	15370.7125
1175.10432	16176.0125
1178.71056	17187.5125
1182.31434	18193.1125
1185.91565	18683.6125
1189.51451	18775.1125
1193.11091	18511.9125
1196.70485	17952.0125
1200.29634	17363.1125
1203.88538	16855.3125
1207.47197	16257.9125
1211.05612	15724.3125
1214.63782	15345.6125
1218.21708	15075.9125
1221.79391	14847.3125
1225.36829	14784.0125
1228.94024	14718.5125
1232.50976	14692.7125
1236.07685	14747.2125
1239.6415	14799.6125
1243.20374	14836.2125
1246.76355	14931.3125
1250.32093	15000.1125
1253.8759	15188.8125
1257.42845	15444.0125
1260.97859	15740.1125
1264.52631	16016.4125
1268.07163	16215.6125
1271.61453	16452.2125
1275.15503	16622.5125
1278.69312	16745.5125
1282.22882	16850.1125
1285.76211	16990.9125
1289.29301	17224.0125
1292.82151	17565.4125
1296.34761	17928.6125
1299.87133	18468.5125
1303.39266	19062.1125
1306.9116	19857.1125
1310.42815	20683.2125
1313.94233	21185.8125
1317.45412	21116.8125
1320.96354	20732.7125
1324.47058	20393.9125
1327.97525	19998.3125
1331.47754	19716.1125
1334.97747	19578.9125
1338.47502	19719.7125
1341.97022	19995.5125
1345.46305	20446.1125
1348.95352	20932.2125
1352.44163	21456.5125
1355.92738	22032.4125
1359.41078	22931.3125
1362.89183	23997.2125
1366.37053	23796.3125
1369.84688	21924.7125
1373.32088	19709.9125
1376.79254	18143.0125
1380.26186	17288.4125
1383.72883	16823.1125
1387.19347	16523.2125
1390.65578	16244.2125
1394.11575	15934.1125
1397.57339	15686.7125
1401.0287	15509.0125
1404.48168	15417.8125
1407.93234	15323.1125
1411.38068	15218.3125
1414.82669	15069.1125
1418.27039	14884.4125
1421.71177	14665.2125
1425.15083	14478.5125
1428.58758	14302.2125
1432.02203	14240.8125
1435.45416	14317.8125
1438.88399	14453.6125
1442.31151	14527.8125
1445.73673	14612.5125
1449.15965	14713.7125
1452.58027	14844.8125
1455.9986	14853.3125
1459.41463	14976.7125
1462.82837	15152.6125
1466.23982	15379.3125
1469.64898	15666.8125
1473.05586	15885.1125
1476.46045	15982.3125
1479.86276	16116.9125
1483.26279	16223.5125
1486.66054	16351.8125
1490.05602	16584.5125
1493.44922	16931.5125
1496.84016	17530.3125
1500.22882	18550.2125
1503.61521	19871.6125
1506.99934	21320.1125
1510.38121	22455.0125
1513.76081	22711.9125
1517.13816	21913.5125
1520.51324	20591.6125
1523.88607	19272.5125
1527.25665	18370.1125
1530.62498	17781.0125
1533.99105	17462.0125
1537.35488	17198.3125
1540.71647	16941.4125
1544.07581	16718.5125
1547.4329	16549.5125
1550.78776	16332.2125
1554.14038	16222.8125
1557.49077	16224.9125
1560.83892	16314.1125
1564.18484	16423.1125
1567.52853	16590.9125
1570.86999	16793.2125
1574.20922	16997.5125
1577.54624	17017.2125
1580.88103	16728.0125
1584.2136	16234.3125
1587.54395	15909.3125
1590.87208	15790.6125
1594.19801	15999.8125
1597.52172	16474.9125
1600.84321	16727.2125
1604.16251	16519.9125
1607.47959	16102.6125
1610.79447	15619.3125
1614.10715	15022.3125
1617.41763	14428.8125
1620.7259	13934.2125
1624.03199	13590.1125
1627.33587	13442.7125
1630.63757	13438.6125
1633.93707	13668.9125
1637.23439	14163.2125
1640.52951	14873.1125
1643.82246	15891.9125
1647.11321	17029.1125
1650.40179	17872.3125
1653.68819	17778.8125
1656.97241	16684.5125
1660.25446	15182.8125
1663.53433	13981.5125
1666.81203	13123.3125
1670.08756	12610.7125
1673.36092	12231.5125
1676.63211	11993.7125
1679.90115	11775.6125
1683.16801	11642.6125
1686.43272	11531.9125
1689.69527	11469.7125
1692.95567	11398.0125
1696.2139	11381.1125
1699.46999	11345.8125
1702.72392	11295.0125
1705.97571	11269.1125
1709.22535	11220.1125
1712.47284	11136.9125
1715.71819	11090.1125
1718.96139	11064.6125
1722.20246	11011.0125
1725.44139	10944.8125
1728.67818	10886.8125
1731.91284	10812.3125
1735.14537	10793.6125
1738.37576	10744.9125
1741.60403	10674.1125
1744.83017	10689.4125
1748.05418	10622.1125
1751.27607	10618.7125
1754.49584	10588.7125
1757.71349	10598.0125
1760.92903	10582.9125
1764.14244	10537.9125
1767.35375	10528.9125
1770.56294	10530.4125
1773.77002	10531.2125
1776.97499	10498.4125
1780.17785	10460.1125
1783.37861	10420.3125
1786.57727	10414.3125
1789.77382	10409.8125
1792.96828	10348.9125
1796.16064	10352.6125
1799.3509	10322.6125
1802.53907	10311.5125
1805.72514	10274.6125
1808.90913	10246.5125
1812.09102	10218.8125
1815.27083	10199.0125
1818.44856	10184.8125
1821.6242	10147.0125
1824.79776	10139.0125
1827.96924	10119.1125
1831.13864	10098.3125
1834.30597	10134.3125
1837.47122	10094.9125
1840.6344	10075.7125
1843.7955	10096.0125
1846.95454	10069.1125
1850.11151	10061.0125
1853.26642	10058.9125
1856.41926	10045.3125
1859.57004	10021.2125
1862.71876	10006.8125
1865.86542	10010.2125
1869.01003	9991.8125
1872.15258	9964.4125
1875.29308	9944.4125
1878.43152	9938.4125
1881.56792	9920.0125
1884.70227	9893.6125
1887.83457	9892.8125
1890.96482	9888.0125
1894.09304	9857.0125
1897.21921	9819.9125
1900.34335	9849.1125
1903.46544	9791.2125
1906.58551	9803.7125
1909.70353	9776.4125
1912.81953	9773.5125
1915.93349	9739.5125
1919.04543	9714.0125
1922.15534	9707.9125
1925.26322	9696.0125
1928.36908	9664.9125
1931.47292	9666.5125
1934.57473	9610.0125
1937.67453	9584.0125
1940.77232	9569.9125
1943.86808	9543.7125
1946.96184	9524.9125
1950.05358	9482.1125
1953.14331	9475.1125
1956.23103	9446.8125
1959.31675	9426.3125
1962.40046	9396.7125
1965.48217	9350.9125
1968.56188	9341.6125
1971.63959	9309.7125
1974.7153	9250.3125
1977.78901	9228.3125
1980.86073	9217.8125
1983.93046	9184.3125
1986.99819	9169.4125
1990.06394	9111.7125
1993.1277	9091.3125
1996.18947	9052.9125
1999.24925	9046.3125
2002.30706	8988.4125
2005.36288	8962.4125
2008.41672	8956.6125
2011.46859	8910.2125
2014.51848	8895.9125
2017.56639	8870.4125
2020.61233	8812.9125
2023.6563	8815.2125
2026.6983	8779.6125
2029.73833	8769.8125
2032.7764	8742.4125
2035.8125	8723.8125
2038.84664	8694.9125
2041.87881	8691.1125
2044.90903	8678.3125
2047.93729	8647.0125
2050.96359	8642.3125
2053.98794	8616.7125
2057.01034	8599.9125
2060.03078	8594.9125
2063.04927	8586.1125
2066.06582	8582.8125
2069.08042	8571.5125
2072.09307	8562.2125
2075.10378	8537.6125
2078.11255	8524.4125
2081.11938	8570.6125
2084.12426	8561.5125
2087.12722	8527.0125
2090.12824	8520.1125
2093.12732	8516.4125
2096.12447	8535.5125
2099.11969	8535.7125
2102.11299	8523.7125
2105.10435	8520.5125
2108.09379	8525.8125
2111.08131	8540.7125
2114.0669	8535.2125
2117.05057	8522.4125
2120.03233	8548.5125
2123.01216	8527.7125
2125.99008	8556.5125
2128.96609	8559.7125
2131.94018	8551.5125
2134.91236	8576.9125
2137.88263	8549.1125
2140.851	8560.4125
2143.81746	8567.3125
2146.78201	8582.1125
2149.74466	8560.7125
2152.7054	8548.8125
2155.66425	8549.8125
2158.6212	8554.7125
2161.57625	8540.1125
2164.52941	8547.1125
2167.48067	8546.3125
2170.43004	8526.4125
2173.37752	8506.9125
2176.32311	8521.6125
2179.26681	8497.9125
2182.20863	8502.3125
2185.14856	8511.8125
2188.08661	8506.9125
2191.02278	8491.6125
2193.95707	8485.0125
2196.88948	8487.6125
2199.82001	8470.6125
2202.74867	8435.2125
2205.67545	8420.9125
2208.60037	8418.0125
2211.52341	8395.1125
2214.44458	8383.4125
2217.36388	8370.6125
2220.28132	8358.9125
2223.1969	8338.5125
2226.11061	8345.7125
2229.02246	8295.5125
2231.93245	8274.1125
2234.84058	8261.7125
2237.74686	8263.0125
2240.65128	8264.4125
2243.55385	8231.9125
2246.45456	8220.8125
2249.35343	8208.6125
2252.25044	8195.5125
2255.14561	8187.6125
2258.03893	8182.6125
2260.93041	8166.3125
2263.82004	8162.8125
2266.70783	8129.1125
2269.59378	8089.0125
2272.4779	8094.3125
2275.36017	8035.3125
2278.24061	8054.0125
2281.11922	8035.6125
2283.996	8013.9125
2286.87094	8008.8125
2289.74405	7965.4125
2292.61534	7957.8125
2295.4848	7951.6125
2298.35243	7944.1125
2301.21824	7944.4125
2304.08223	7931.3125
2306.94439	7896.5125
2309.80474	7900.3125
2312.66327	7916.3125
2315.51999	7898.8125
2318.37489	7886.9125
2321.22797	7861.3125
2324.07925	7858.7125
2326.92871	7832.8125
2329.77637	7834.1125
2332.62222	7805.8125
2335.46626	7795.4125
2338.3085	7793.0125
2341.14893	7785.0125
2343.98756	7752.4125
2346.8244	7771.1125
2349.65943	7751.5125
2352.49267	7787.1125
2355.32411	7740.6125
2358.15376	7765.7125
2360.98161	7740.2125
2363.80768	7746.5125
2366.63195	7740.0125
2369.45444	7735.6125
2372.27514	7715.1125
2375.09405	7685.5125
2377.91118	7703.0125
2380.72652	7685.9125
2383.54009	7668.0125
2386.35187	7647.7125
2389.16188	7607.6125
2391.97011	7589.9125
2394.77657	7582.4125
2397.58125	7569.0125
2400.38416	7535.2125
2403.18529	7521.0125
2405.98466	7518.5125
2408.78226	7500.8125
2411.57809	7512.4125
2414.37216	7502.4125
2417.16446	7486.4125
2419.955	7477.7125
2422.74378	7462.0125
2425.5308	7460.9125
2428.31606	7453.1125
2431.09956	7446.5125
2433.88131	7430.4125
2436.6613	7429.8125
2439.43954	7434.9125
2442.21603	7399.1125
2444.99077	7394.2125
2447.76377	7403.4125
2450.53501	7387.2125
2453.30451	7374.4125
2456.07226	7370.9125
2458.83827	7371.5125
2461.60254	7351.0125
2464.36507	7354.5125
2467.12586	7337.8125
2469.88492	7328.8125
2472.64224	7335.4125
2475.39782	7328.4125
2478.15167	7292.0125
2480.90379	7295.2125
2483.65417	7320.1125
2486.40283	7310.9125
2489.14976	7301.1125
2491.89497	7294.4125
2494.63845	7302.8125
2497.3802	7293.9125
2500.12024	7265.9125
2502.85855	7254.7125
2505.59514	7269.1125
2508.33002	7234.7125
2511.06318	7237.0125
2513.79462	7219.1125
2516.52435	7215.3125
2519.25237	7201.0125
2521.97867	7196.8125
2524.70327	7162.6125
2527.42616	7161.9125
2530.14734	7156.8125
2532.86681	7129.9125
2535.58458	7107.2125
2538.30065	7117.2125
2541.01501	7118.5125
2543.72768	7090.0125
2546.43864	7072.8125
2549.14791	7060.0125
2551.85548	7064.0125
2554.56136	7046.7125
2557.26554	7038.7125
2559.96803	7026.8125
2562.66883	7016.4125
2565.36794	7019.4125
2568.06536	7006.5125
2570.7611	6993.5125
2573.45514	6980.1125
2576.14751	6959.8125
2578.83819	6920.6125
2581.52719	6928.8125
2584.21451	6915.5125
2586.90015	6889.1125
2589.58411	6886.2125
2592.2664	6887.6125
2594.94701	6858.7125
2597.62594	6843.2125
2600.30321	6841.5125
2602.9788	6817.8125
2605.65273	6800.4125
2608.32498	6795.8125
2610.99557	6775.4125
2613.66449	6788.8125
2616.33175	6781.7125
2618.99734	6770.6125
2621.66128	6745.9125
2624.32355	6738.3125
2626.98416	6735.7125
2629.64311	6723.1125
2632.30041	6731.5125
2634.95605	6705.6125
2637.61004	6701.6125
2640.26238	6674.9125
2642.91306	6652.6125
2645.56209	6673.9125
2648.20948	6659.1125
2650.85521	6662.2125
2653.4993	6645.2125
2656.14175	6647.5125
2658.78255	6665.9125
2661.42171	6657.1125
2664.05923	6645.0125
2666.6951	6627.0125
2669.32934	6625.7125
2671.96194	6634.3125
2674.59291	6656.0125
2677.22224	6634.6125
2679.84993	6629.1125
2682.476	6636.8125
2685.10043	6630.9125
2687.72324	6620.8125
2690.34441	6649.7125
2692.96396	6641.9125
2695.58188	6628.5125
2698.19818	6597.6125
2700.81285	6624.8125
2703.4259	6629.5125
2706.03733	6625.5125
2708.64714	6624.3125
2711.25533	6629.4125
2713.86191	6619.3125
2716.46687	6613.9125
2719.07021	6614.2125
2721.67194	6601.9125
2724.27206	6604.7125
2726.87057	6613.5125
2729.46747	6613.0125
2732.06276	6568.7125
2734.65644	6585.3125
2737.24852	6578.5125
2739.83899	6593.0125
2742.42786	6573.7125
2745.01513	6555.7125
2747.60079	6559.0125
2750.18486	6530.7125
2752.76733	6537.3125
2755.3482	6544.6125
2757.92747	6528.4125
2760.50515	6526.1125
2763.08123	6505.8125
2765.65573	6502.4125
2768.22863	6504.4125
2770.79994	6486.5125
2773.36967	6472.2125
2775.9378	6469.7125
2778.50435	6452.6125
2781.06932	6436.8125
2783.6327	6449.8125
2786.1945	6427.4125
2788.75471	6409.2125
2791.31335	6393.0125
2793.87041	6371.0125
2796.42589	6343.0125
2798.97979	6360.8125
2801.53212	6333.0125
2804.08288	6355.5125
2806.63206	6331.1125
2809.17967	6296.3125
2811.72571	6289.1125
2814.27018	6285.8125
2816.81308	6265.9125
2819.35442	6258.8125
2821.89419	6258.6125
2824.43239	6250.3125
2826.96904	6228.7125
2829.50412	6246.5125
2832.03763	6222.1125
2834.56959	6234.0125
2837.1	6209.1125
2839.62884	6222.8125
2842.15613	6220.5125
2844.68186	6240.7125
2847.20604	6231.7125
2849.72867	6237.6125
2852.24974	6235.2125
2854.76927	6203.0125
2857.28724	6207.7125
2859.80367	6207.3125
2862.31855	6197.6125
2864.83189	6176.8125
2867.34368	6157.0125
2869.85393	6171.4125
2872.36264	6180.1125
2874.8698	6169.2125
2877.37543	6186.2125
2879.87952	6169.6125
2882.38207	6156.2125
2884.88308	6163.4125
2887.38256	6153.5125
2889.88051	6165.2125
2892.37692	6141.3125
2894.8718	6148.8125
2897.36515	6153.9125
2899.85698	6156.5125
2902.34727	6174.7125
2904.83604	6140.0125
2907.32328	6146.7125
2909.809	6159.1125
2912.29319	6154.5125
2914.77587	6162.8125
2917.25702	6161.8125
2919.73665	6152.8125
2922.21476	6135.3125
2924.69136	6128.7125
2927.16644	6134.7125
2929.64	6127.8125
2932.11205	6142.1125
2934.58258	6098.7125
2937.05161	6116.6125
2939.51912	6091.7125
2941.98513	6082.8125
2944.44962	6063.2125
2946.91261	6059.5125
2949.37409	6060.4125
2951.83407	6049.6125
2954.29254	6056.0125
2956.74951	6045.1125
2959.20498	6028.7125
2961.65895	6010.3125
2964.11142	6016.7125
2966.56239	5992.6125
2969.01186	5988.2125
2971.45984	5988.3125
2973.90632	5988.3125
2976.35131	5959.2125
2978.7948	5965.1125
2981.23681	5932.9125
2983.67732	5916.7125
2986.11635	5928.9125
2988.55388	5900.6125
2990.98993	5909.0125
2993.4245	5898.5125
2995.85758	5872.8125
2998.28917	5880.5125
3000.71928	5874.3125
3003.14791	5852.4125
3005.57506	5828.1125
3008.00073	5824.5125
3010.42493	5840.8125
3012.84764	5822.4125
3015.26888	5805.4125
3017.68865	5805.7125
3020.10694	5806.1125
3022.52376	5797.7125
3024.9391	5762.0125
3027.35298	5765.7125
3029.76539	5748.3125
3032.17632	5737.0125
3034.5858	5709.6125
3036.9938	5720.1125
3039.40034	5719.7125
3041.80542	5723.4125
3044.20903	5707.5125
3046.61118	5719.0125
3049.01187	5716.3125
3051.4111	5665.5125
3053.80888	5658.2125
3056.20519	5685.5125
3058.60005	5653.5125
3060.99345	5658.8125
3063.3854	5648.4125
3065.7759	5633.7125
3068.16494	5632.9125
3070.55254	5630.1125
3072.93868	5637.3125
3075.32338	5613.6125
