Data from AgNPs_FTO_APTES_UA_10uM_R6G_10uM_NaF_0.1M_Addition_RamanShift__3__13-13-27-300.txt Node

Date: Fri Dec 17 13:13:27 GMT 2021
User: TCL
Spectrometer: QEP01345
Trigger mode: 4
Integration Time (sec): 7.000000E0
Scans to average: 10
Electric dark correction enabled: true
Nonlinearity correction enabled: false
Boxcar width: 0
XAxis mode: Raman Shifts
Number of Pixels in Spectrum: 1044
>>>>>Begin Spectral Data<<<<<
46.04893	-1.15
50.45542	-1.35
54.85868	-0.95
59.25871	-0.15
63.6555	97.55
68.04907	101.75
72.43941	106.95
76.82654	112.65
81.21044	116.45
85.59113	116.85
89.96862	121.95
94.34289	130.75
98.71396	130.15
103.08183	133.15
107.4465	141.45
111.80798	142.15
116.16626	140.35
120.52136	151.35
124.87327	161.15
129.222	168.75
133.56755	176.75
137.90993	194.25
142.24913	211.45
146.58517	236.55
150.91804	279.05
155.24774	326.25
159.57429	403.15
163.89768	522.45
168.21792	686.65
172.53501	935.45
176.84895	1299.05
181.15975	1824.85
185.46741	2555.85
189.77193	3536.25
194.07331	4753.75
198.37157	6129.85
202.6667	7567.45
206.9587	9022.85
211.24758	10430.85
215.53334	11816.05
219.81599	13336.35
224.09553	14968.05
228.37195	16798.65
232.64527	18800.95
236.91549	20956.55
241.18261	23161.25
245.44663	25173.45
249.70755	27070.55
253.96539	28601.15
258.22014	29961.45
262.4718	31027.05
266.72039	31700.35
270.96589	32079.25
275.20832	32047.15
279.44768	31750.95
283.68397	31285.65
287.91719	30937.85
292.14735	30611.85
296.37445	30493.95
300.59849	30475.95
304.81948	30581.75
309.03742	30550.85
313.25231	30405.85
317.46415	30001.25
321.67296	29459.15
325.87872	29049.85
330.08145	28890.25
334.28114	28990.85
338.47781	29264.45
342.67145	29666.45
346.86207	30110.95
351.04966	30723.05
355.23424	31396.55
359.4158	31984.45
363.59435	32453.65
367.76989	32854.15
371.94243	33104.45
376.11196	33256.95
380.27849	33409.15
384.44203	33618.25
388.60257	33872.75
392.76012	34091.85
396.91468	34454.25
401.06626	34878.65
405.21485	35169.95
409.36047	35129.25
413.50311	34767.75
417.64277	34494.55
421.77947	34425.45
425.9132	34576.15
430.04396	34699.85
434.17176	34759.95
438.2966	35033.05
442.41849	35417.65
446.53742	36067.35
450.6534	36791.35
454.76644	37352.75
458.87653	37616.05
462.98368	37541.65
467.08789	37141.15
471.18916	36719.15
475.2875	36164.35
479.38291	35756.55
483.4754	35483.35
487.56496	35312.15
491.6516	35171.35
495.73531	35208.75
499.81612	35367.75
503.89401	35686.35
507.96899	35823.65
512.04106	35786.95
516.11023	35760.35
520.1765	35732.35
524.23987	35577.15
528.30034	35384.75
532.35792	35250.15
536.41261	34964.15
540.46441	34651.75
544.51333	34507.85
548.55936	34648.45
552.60252	35015.95
556.64279	35456.95
560.6802	35756.45
564.71473	35888.65
568.7464	36060.65
572.7752	36386.95
576.80114	36866.05
580.82422	37455.15
584.84444	38314.85
588.86181	39163.95
592.87633	39660.05
596.888	39591.25
600.89682	39369.15
604.9028	40331.85
608.90594	43519.05
612.90624	46879.25
616.90371	44963.75
620.89834	39406.55
624.89015	36815.25
628.87913	36464.55
632.86528	36426.85
636.84862	36399.75
640.82913	36014.45
644.80683	35477.25
648.78172	34981.35
652.75379	34968.55
656.72306	35345.75
660.68952	35824.95
664.65319	35760.75
668.61405	35306.65
672.57211	35373.15
676.52738	35560.65
680.47986	35583.15
684.42955	35342.35
688.37646	35221.65
692.32058	35489.25
696.26192	35954.35
700.20048	36373.85
704.13626	36573.95
708.06928	36291.05
711.99952	36006.15
715.927	35936.65
719.85171	36095.95
723.77365	36088.95
727.69284	35661.25
731.60928	35256.55
735.52295	35122.65
739.43388	35158.65
743.34206	35272.05
747.24749	35409.15
751.15017	35555.45
755.05012	35816.65
758.94733	36441.55
762.8418	37605.25
766.73354	39340.75
770.62254	41264.75
774.50882	42158.25
778.39237	41428.85
782.27321	39646.05
786.15132	37920.65
790.02671	36871.35
793.89938	36291.15
797.76935	36031.65
801.6366	35954.45
805.50115	35880.45
809.36299	35696.35
813.22213	35461.05
817.07857	35221.75
820.93231	35099.65
824.78336	35062.35
828.63172	35082.65
832.47738	35115.75
836.32036	35190.35
840.16066	35317.35
843.99827	35488.35
847.8332	35454.55
851.66546	35300.85
855.49504	35340.25
859.32195	35335.75
863.1462	35340.95
866.96777	35255.05
870.78668	35252.05
874.60293	35287.65
878.41652	35399.55
882.22745	35537.55
886.03573	35749.65
889.84136	35811.85
893.64433	35702.95
897.44466	35542.15
901.24235	35310.05
905.0374	35240.25
908.8298	35168.75
912.61957	35152.15
916.40671	35275.45
920.19121	35545.05
923.97308	35862.45
927.75233	36115.35
931.52895	36136.65
935.30295	35949.35
939.07433	35534.85
942.84309	35247.75
946.60924	35136.65
950.37278	35060.65
954.13371	34896.05
957.89203	34764.45
961.64774	34631.15
965.40086	34657.25
969.15137	34631.35
972.89929	34703.05
976.64461	34817.45
980.38733	34975.05
984.12747	35099.55
987.86502	35325.35
991.59999	35649.25
995.33237	36117.65
999.06217	36910.45
1002.78939	37769.35
1006.51404	38301.65
1010.23611	38672.85
1013.95561	38919.05
1017.67255	38873.05
1021.38692	38605.45
1025.09872	38348.85
1028.80796	38507.45
1032.51465	39338.65
1036.21877	40294.45
1039.92035	40549.65
1043.61937	40164.95
1047.31584	39415.95
1051.00976	38511.55
1054.70114	37988.05
1058.38998	37887.25
1062.07627	38072.25
1065.76003	38359.05
1069.44126	38660.25
1073.11995	39251.75
1076.79611	39879.75
1080.46974	40251.45
1084.14085	40394.35
1087.80943	40490.75
1091.47549	40464.55
1095.13903	40268.15
1098.80005	39799.65
1102.45857	39201.15
1106.11456	38840.35
1109.76805	38598.95
1113.41903	38516.55
1117.06751	38558.35
1120.71348	38686.55
1124.35696	38904.95
1127.99793	39167.65
1131.63641	39433.05
1135.2724	39228.75
1138.90589	38981.35
1142.5369	38805.05
1146.16542	38614.75
1149.79145	38550.75
1153.415	38543.65
1157.03607	38663.45
1160.65467	39108.15
1164.27079	40101.65
1167.88443	41376.95
1171.49561	42966.15
1175.10432	44969.95
1178.71056	47707.55
1182.31434	50417.35
1185.91565	52187.95
1189.51451	52723.25
1193.11091	51874.95
1196.70485	50339.75
1200.29634	48703.15
1203.88538	47373.75
1207.47197	46510.65
1211.05612	45597.05
1214.63782	44777.85
1218.21708	44083.75
1221.79391	43582.35
1225.36829	43332.25
1228.94024	42962.45
1232.50976	42526.15
1236.07685	42165.45
1239.6415	41902.95
1243.20374	42034.85
1246.76355	42366.45
1250.32093	42964.65
1253.8759	43709.35
1257.42845	44665.05
1260.97859	45770.35
1264.52631	46933.75
1268.07163	48298.25
1271.61453	49713.65
1275.15503	50962.85
1278.69312	51815.15
1282.22882	52172.05
1285.76211	52333.35
1289.29301	52731.25
1292.82151	53617.15
1296.34761	54922.25
1299.87133	57000.25
1303.39266	59586.55
1306.9116	62718.65
1310.42815	65316.35
1313.94233	66609.45
1317.45412	66036.15
1320.96354	64469.65
1324.47058	62984.05
1327.97525	61664.65
1331.47754	60893.95
1334.97747	60533.75
1338.47502	60503.65
1341.97022	60445.85
1345.46305	60439.25
1348.95352	60480.75
1352.44163	60976.45
1355.92738	62193.25
1359.41078	64212.65
1362.89183	65878.85
1366.37053	64700.45
1369.84688	60320.25
1373.32088	55126.75
1376.79254	51517.55
1380.26186	49765.65
1383.72883	49120.35
1387.19347	48800.55
1390.65578	48177.45
1394.11575	47628.85
1397.57339	47473.85
1401.0287	47640.35
1404.48168	47972.65
1407.93234	48294.95
1411.38068	48356.75
1414.82669	48016.45
1418.27039	47221.65
1421.71177	46340.05
1425.15083	45818.85
1428.58758	45789.75
1432.02203	46293.25
1435.45416	47221.95
1438.88399	48113.45
1442.31151	48510.15
1445.73673	48614.05
1449.15965	48476.05
1452.58027	48272.35
1455.9986	48088.25
1459.41463	48341.05
1462.82837	49063.05
1466.23982	49919.15
1469.64898	50577.85
1473.05586	51011.15
1476.46045	51185.65
1479.86276	50915.65
1483.26279	50690.95
1486.66054	50728.55
1490.05602	51057.05
1493.44922	51508.05
1496.84016	52003.75
1500.22882	52725.35
1503.61521	54057.45
1506.99934	55570.25
1510.38121	56788.95
1513.76081	56858.65
1517.13816	55400.25
1520.51324	53144.15
1523.88607	51125.95
1527.25665	49860.15
1530.62498	49334.65
1533.99105	49080.55
1537.35488	48845.95
1540.71647	48537.35
1544.07581	48070.85
1547.4329	47685.05
1550.78776	47355.25
1554.14038	47117.35
1557.49077	46968.55
1560.83892	46902.65
1564.18484	46857.35
1567.52853	47045.55
1570.86999	47353.35
1574.20922	47851.05
1577.54624	48227.55
1580.88103	48278.45
1584.2136	48312.85
1587.54395	48864.15
1590.87208	50507.45
1594.19801	52808.65
1597.52172	55217.25
1600.84321	56076.05
1604.16251	54590.15
1607.47959	51729.05
1610.79447	48462.15
1614.10715	45373.35
1617.41763	42852.35
1620.7259	41196.05
1624.03199	40416.95
1627.33587	40540.35
1630.63757	41339.75
1633.93707	42973.95
1637.23439	45559.95
1640.52951	49202.15
1643.82246	53208.15
1647.11321	56031.55
1650.40179	56102.05
1653.68819	52874.35
1656.97241	47833.45
1660.25446	43067.15
1663.53433	39809.25
1666.81203	37786.35
1670.08756	36531.95
1673.36092	35737.65
1676.63211	35234.75
1679.90115	34780.65
1683.16801	34490.15
1686.43272	34308.25
1689.69527	34166.85
1692.95567	34011.55
1696.2139	33985.85
1699.46999	33865.75
1702.72392	33839.45
1705.97571	33839.45
1709.22535	33806.25
1712.47284	33773.75
1715.71819	33769.65
1718.96139	33709.35
1722.20246	33609.25
1725.44139	33580.25
1728.67818	33461.05
1731.91284	33312.15
1735.14537	33183.65
1738.37576	33078.55
1741.60403	33009.75
1744.83017	32884.35
1748.05418	32872.95
1751.27607	32881.05
1754.49584	32757.65
1757.71349	32836.45
1760.92903	32787.05
1764.14244	32785.55
1767.35375	32812.15
1770.56294	32744.25
1773.77002	32752.65
1776.97499	32690.95
1780.17785	32624.45
1783.37861	32591.15
1786.57727	32539.45
1789.77382	32544.85
1792.96828	32508.85
1796.16064	32447.85
1799.3509	32435.25
1802.53907	32419.05
1805.72514	32347.35
1808.90913	32206.25
1812.09102	32243.75
1815.27083	32217.95
1818.44856	32143.35
1821.6242	32114.15
1824.79776	32086.25
1827.96924	32112.25
1831.13864	32066.95
1834.30597	32114.35
1837.47122	32131.95
1840.6344	32164.65
1843.7955	32129.35
1846.95454	32158.55
1850.11151	32148.75
1853.26642	32097.95
1856.41926	32071.55
1859.57004	32056.25
1862.71876	32065.15
1865.86542	32015.65
1869.01003	31976.85
1872.15258	31930.75
1875.29308	31975.55
1878.43152	31939.05
1881.56792	31944.85
1884.70227	31912.55
1887.83457	31890.05
1890.96482	31882.05
1894.09304	31789.85
1897.21921	31783.45
1900.34335	31745.95
1903.46544	31747.75
1906.58551	31720.45
1909.70353	31620.85
1912.81953	31597.45
1915.93349	31529.45
1919.04543	31457.65
1922.15534	31446.35
1925.26322	31409.95
1928.36908	31353.05
1931.47292	31321.25
1934.57473	31218.45
1937.67453	31131.25
1940.77232	31117.15
1943.86808	30996.55
1946.96184	30942.35
1950.05358	30873.45
1953.14331	30796.85
1956.23103	30703.75
1959.31675	30661.55
1962.40046	30595.05
1965.48217	30538.45
1968.56188	30463.65
1971.63959	30344.35
1974.7153	30280.45
1977.78901	30220.35
1980.86073	30124.45
1983.93046	30033.65
1986.99819	29943.55
1990.06394	29920.75
1993.1277	29844.45
1996.18947	29689.25
1999.24925	29674.35
2002.30706	29567.65
2005.36288	29490.95
2008.41672	29470.85
2011.46859	29424.45
2014.51848	29316.05
2017.56639	29266.45
2020.61233	29197.75
2023.6563	29139.75
2026.6983	29133.45
2029.73833	29028.15
2032.7764	28995.45
2035.8125	28935.85
2038.84664	28892.95
2041.87881	28886.85
2044.90903	28885.65
2047.93729	28781.35
2050.96359	28763.35
2053.98794	28704.35
2057.01034	28703.75
2060.03078	28702.05
2063.04927	28627.55
2066.06582	28673.85
2069.08042	28658.45
2072.09307	28667.05
2075.10378	28628.25
2078.11255	28564.45
2081.11938	28601.45
2084.12426	28582.05
2087.12722	28600.75
2090.12824	28575.35
2093.12732	28611.75
2096.12447	28616.25
2099.11969	28643.75
2102.11299	28652.35
2105.10435	28671.45
2108.09379	28707.15
2111.08131	28745.55
2114.0669	28691.65
2117.05057	28785.85
2120.03233	28791.55
2123.01216	28846.25
2125.99008	28878.45
2128.96609	28874.75
2131.94018	28876.75
2134.91236	29009.55
2137.88263	28987.35
2140.851	29043.85
2143.81746	29051.85
2146.78201	29093.65
2149.74466	29085.75
2152.7054	29091.85
2155.66425	29061.65
2158.6212	29062.85
2161.57625	29085.45
2164.52941	29111.75
2167.48067	29046.85
2170.43004	29098.15
2173.37752	29105.85
2176.32311	29092.05
2179.26681	29078.05
2182.20863	29082.45
2185.14856	29093.05
2188.08661	29094.75
2191.02278	29066.25
2193.95707	29094.05
2196.88948	29107.85
2199.82001	29094.85
2202.74867	29049.95
2205.67545	29082.35
2208.60037	29095.45
2211.52341	29031.55
2214.44458	29004.25
2217.36388	28952.45
2220.28132	28926.05
2223.1969	28909.65
2226.11061	28844.55
2229.02246	28798.05
2231.93245	28778.65
2234.84058	28731.55
2237.74686	28675.15
2240.65128	28676.55
2243.55385	28598.15
2246.45456	28584.25
2249.35343	28546.45
2252.25044	28508.85
2255.14561	28436.85
2258.03893	28449.05
2260.93041	28409.85
2263.82004	28351.15
2266.70783	28307.45
2269.59378	28247.15
2272.4779	28241.35
2275.36017	28160.85
2278.24061	28169.25
2281.11922	28102.05
2283.996	28041.05
2286.87094	28045.65
2289.74405	28019.45
2292.61534	27947.15
2295.4848	27955.65
2298.35243	27966.35
2301.21824	27940.85
2304.08223	28019.05
2306.94439	28024.45
2309.80474	28021.35
2312.66327	28023.45
2315.51999	27980.85
2318.37489	28011.35
2321.22797	27972.55
2324.07925	27912.25
2326.92871	27907.95
2329.77637	27867.85
2332.62222	27824.75
2335.46626	27779.55
2338.3085	27801.65
2341.14893	27826.25
2343.98756	27815.45
2346.8244	27795.45
2349.65943	27771.05
2352.49267	27719.35
2355.32411	27724.65
2358.15376	27685.05
2360.98161	27662.55
2363.80768	27641.05
2366.63195	27598.45
2369.45444	27552.95
2372.27514	27570.35
2375.09405	27532.25
2377.91118	27502.35
2380.72652	27405.25
2383.54009	27367.75
2386.35187	27339.55
2389.16188	27328.45
2391.97011	27286.55
2394.77657	27246.05
2397.58125	27210.25
2400.38416	27184.65
2403.18529	27133.95
2405.98466	27125.15
2408.78226	27031.15
2411.57809	27008.95
2414.37216	27038.15
2417.16446	26992.65
2419.955	26932.35
2422.74378	26953.95
2425.5308	26940.85
2428.31606	26930.65
2431.09956	26877.45
2433.88131	26865.45
2436.6613	26865.05
2439.43954	26848.85
2442.21603	26853.35
2444.99077	26788.95
2447.76377	26820.65
2450.53501	26781.35
2453.30451	26806.65
2456.07226	26791.55
2458.83827	26742.45
2461.60254	26760.45
2464.36507	26738.55
2467.12586	26721.15
2469.88492	26766.25
2472.64224	26734.75
2475.39782	26750.35
2478.15167	26752.15
2480.90379	26712.85
2483.65417	26708.75
2486.40283	26762.05
2489.14976	26752.85
2491.89497	26692.65
2494.63845	26737.15
2497.3802	26689.45
2500.12024	26671.95
2502.85855	26629.75
2505.59514	26627.85
2508.33002	26660.05
2511.06318	26627.95
2513.79462	26581.85
2516.52435	26563.45
2519.25237	26516.75
2521.97867	26585.45
2524.70327	26557.55
2527.42616	26488.55
2530.14734	26542.65
2532.86681	26491.75
2535.58458	26449.15
2538.30065	26440.05
2541.01501	26437.85
2543.72768	26412.95
2546.43864	26382.05
2549.14791	26335.55
2551.85548	26310.55
2554.56136	26266.95
2557.26554	26250.95
2559.96803	26224.25
2562.66883	26234.75
2565.36794	26156.95
2568.06536	26225.15
2570.7611	26148.55
2573.45514	26124.45
2576.14751	26151.55
2578.83819	26074.75
2581.52719	26079.55
2584.21451	26036.65
2586.90015	26041.75
2589.58411	25993.05
2592.2664	26003.65
2594.94701	25903.45
2597.62594	25927.05
2600.30321	25850.25
2602.9788	25832.65
2605.65273	25841.15
2608.32498	25820.05
2610.99557	25802.95
2613.66449	25786.35
2616.33175	25750.95
2618.99734	25746.75
2621.66128	25736.55
2624.32355	25681.25
2626.98416	25676.45
2629.64311	25664.15
2632.30041	25655.85
2634.95605	25628.85
2637.61004	25567.65
2640.26238	25561.05
2642.91306	25570.65
2645.56209	25531.45
2648.20948	25508.95
2650.85521	25501.15
2653.4993	25518.15
2656.14175	25475.15
2658.78255	25521.35
2661.42171	25521.85
2664.05923	25540.55
2666.6951	25531.15
2669.32934	25511.35
2671.96194	25549.85
2674.59291	25527.55
2677.22224	25534.25
2679.84993	25556.05
2682.476	25527.85
2685.10043	25545.15
2687.72324	25457.05
2690.34441	25490.85
2692.96396	25451.45
2695.58188	25469.35
2698.19818	25475.95
2700.81285	25499.25
2703.4259	25478.15
2706.03733	25521.55
2708.64714	25547.15
2711.25533	25589.05
2713.86191	25564.45
2716.46687	25606.05
2719.07021	25568.25
2721.67194	25556.05
2724.27206	25551.05
2726.87057	25581.25
2729.46747	25599.35
2732.06276	25581.55
2734.65644	25572.95
2737.24852	25545.15
2739.83899	25546.15
2742.42786	25532.75
2745.01513	25510.45
2747.60079	25501.95
2750.18486	25476.05
2752.76733	25507.45
2755.3482	25488.25
2757.92747	25486.75
2760.50515	25439.05
2763.08123	25417.65
2765.65573	25392.85
2768.22863	25398.25
2770.79994	25380.75
2773.36967	25359.85
2775.9378	25350.35
2778.50435	25316.65
2781.06932	25263.55
2783.6327	25272.65
2786.1945	25235.15
2788.75471	25220.35
2791.31335	25166.45
2793.87041	25091.75
2796.42589	25061.25
2798.97979	25023.65
2801.53212	24980.75
2804.08288	24977.45
2806.63206	24926.75
2809.17967	24829.05
2811.72571	24823.75
2814.27018	24835.35
2816.81308	24775.65
2819.35442	24724.35
2821.89419	24678.55
2824.43239	24661.45
2826.96904	24672.15
2829.50412	24653.75
2832.03763	24582.25
2834.56959	24583.45
2837.1	24549.05
2839.62884	24552.55
2842.15613	24514.25
2844.68186	24583.25
2847.20604	24516.95
2849.72867	24545.75
2852.24974	24552.55
2854.76927	24502.45
2857.28724	24490.45
2859.80367	24476.55
2862.31855	24475.45
2864.83189	24445.15
2867.34368	24390.35
2869.85393	24415.15
2872.36264	24408.15
2874.8698	24427.85
2877.37543	24455.45
2879.87952	24450.45
2882.38207	24472.15
2884.88308	24460.65
2887.38256	24482.35
2889.88051	24469.65
2892.37692	24428.25
2894.8718	24501.85
2897.36515	24506.45
2899.85698	24514.35
2902.34727	24583.75
2904.83604	24558.55
2907.32328	24604.35
2909.809	24592.35
2912.29319	24605.25
2914.77587	24555.05
2917.25702	24574.75
2919.73665	24544.25
2922.21476	24615.85
2924.69136	24525.75
2927.16644	24551.05
2929.64	24479.95
2932.11205	24452.25
2934.58258	24381.75
2937.05161	24393.15
2939.51912	24433.65
2941.98513	24396.15
2944.44962	24367.25
2946.91261	24280.65
2949.37409	24386.45
2951.83407	24324.35
2954.29254	24309.35
2956.74951	24289.85
2959.20498	24225.65
2961.65895	24195.55
2964.11142	24213.15
2966.56239	24140.45
2969.01186	24168.05
2971.45984	24090.25
2973.90632	24074.35
2976.35131	24039.75
2978.7948	24015.65
2981.23681	23921.05
2983.67732	23894.25
2986.11635	23877.15
2988.55388	23796.25
2990.98993	23820.45
2993.4245	23711.45
2995.85758	23728.05
2998.28917	23638.75
3000.71928	23623.05
3003.14791	23595.75
3005.57506	23599.35
3008.00073	23540.75
3010.42493	23547.35
3012.84764	23492.25
3015.26888	23514.25
3017.68865	23437.75
3020.10694	23429.45
3022.52376	23400.45
3024.9391	23382.35
3027.35298	23363.75
3029.76539	23294.95
3032.17632	23245.25
3034.5858	23207.95
3036.9938	23231.85
3039.40034	23178.85
3041.80542	23159.25
3044.20903	23102.05
3046.61118	23136.55
3049.01187	23053.95
3051.4111	23053.75
3053.80888	23008.75
3056.20519	22959.05
3058.60005	22932.05
3060.99345	22949.55
3063.3854	22865.05
3065.7759	22814.95
3068.16494	22797.55
3070.55254	22659.95
3072.93868	22696.25
3075.32338	22608.15
3077.70662	22620.45
3080.08842	22599.55
3082.46878	22586.35
3084.84769	22571.05
3087.22515	22565.85
3089.60118	22529.65
3091.97576	22512.35
3094.3489	22491.15
3096.72061	22503.65
3099.09087	22498.85
3101.4597	22481.55
3103.82709	22486.15
3106.19305	22452.55
3108.55757	22425.85
3110.92066	22371.85
3113.28232	22327.05
3115.64255	22292.25
3118.00134	22241.65
3120.35871	22188.95
3122.71466	22177.95
3125.06917	22130.25
3127.42226	22030.55
3129.77393	22100.85
3132.12417	22080.45
3134.47299	22092.65
3136.82039	22045.55
3139.16636	22073.75
3141.51092	22062.05
3143.85406	22092.95
3146.19579	22080.65
3148.53609	22117.25
3150.87499	22111.95
3153.21246	22105.15
3155.54853	22120.65
3157.88318	22094.15
3160.21642	22111.75
3162.54826	22087.95
3164.87868	22039.65
3167.2077	22071.75
3169.5353	22047.55
3171.86151	22047.15
3174.18631	22019.75
3176.5097	21969.85
3178.83169	21933.65
3181.15228	21922.95
3183.47147	21903.45
3185.78926	21885.05
3188.10565	21865.45
3190.42065	21862.55
3192.73424	21848.55
3195.04645	21837.55
3197.35725	21864.35
3199.66667	21851.65
3201.97469	21878.45
3204.28132	21884.45
3206.58656	21924.35
3208.8904	21890.95
3211.19287	21881.25
3213.49394	21886.15
3215.79363	21849.95
3218.09193	21870.35
3220.38884	21865.25
3222.68438	21856.45
3224.97853	21808.25
3227.2713	21778.45
3229.56269	21742.15
3231.8527	21763.65
3234.14133	21760.65
3236.42858	21662.65
3238.71446	21656.85
