Data from AgNPs_FTO_APTES_UA_20uM_R6G_10uM_NaF_0.1M_Addition_RamanShift__1__13-56-37-349.txt Node

Date: Fri Dec 17 13:56:37 GMT 2021
User: TCL
Spectrometer: QEP01345
Trigger mode: 4
Integration Time (sec): 7.000000E0
Scans to average: 10
Electric dark correction enabled: true
Nonlinearity correction enabled: false
Boxcar width: 0
XAxis mode: Raman Shifts
Number of Pixels in Spectrum: 1044
>>>>>Begin Spectral Data<<<<<
46.04893	-1.475
50.45542	0.225
54.85868	-0.675
59.25871	0.525
63.6555	81.425
68.04907	82.925
72.43941	87.425
76.82654	98.225
81.21044	97.025
85.59113	101.025
89.96862	105.725
94.34289	110.025
98.71396	111.725
103.08183	114.025
107.4465	120.525
111.80798	119.825
116.16626	122.825
120.52136	126.025
124.87327	134.225
129.222	145.125
133.56755	149.425
137.90993	165.425
142.24913	179.825
146.58517	200.925
150.91804	232.125
155.24774	281.625
159.57429	348.425
163.89768	443.025
168.21792	590.425
172.53501	801.925
176.84895	1122.925
181.15975	1570.625
185.46741	2225.925
189.77193	3074.325
194.07331	4111.625
198.37157	5312.525
202.6667	6589.725
206.9587	7848.925
211.24758	9078.825
215.53334	10330.825
219.81599	11632.825
224.09553	13026.325
228.37195	14640.225
232.64527	16366.625
236.91549	18202.925
241.18261	20070.725
245.44663	21779.725
249.70755	23343.525
253.96539	24643.125
258.22014	25800.725
262.4718	26704.125
266.72039	27362.925
270.96589	27622.825
275.20832	27633.425
279.44768	27348.725
283.68397	26973.025
287.91719	26598.425
292.14735	26351.725
296.37445	26316.125
300.59849	26397.525
304.81948	26566.325
309.03742	26734.025
313.25231	26634.725
317.46415	26306.025
321.67296	25705.125
325.87872	25273.625
330.08145	25072.425
334.28114	25107.125
338.47781	25330.925
342.67145	25723.925
346.86207	26186.525
351.04966	26762.225
355.23424	27345.525
359.4158	27888.825
363.59435	28331.025
367.76989	28636.325
371.94243	28777.525
376.11196	28882.025
380.27849	28976.025
384.44203	29119.525
388.60257	29269.125
392.76012	29473.825
396.91468	29739.125
401.06626	30134.525
405.21485	30477.725
409.36047	30395.525
413.50311	30030.425
417.64277	29684.225
421.77947	29530.525
425.9132	29516.825
430.04396	29596.425
434.17176	29636.025
438.2966	29845.225
442.41849	30163.025
446.53742	30712.625
450.6534	31239.225
454.76644	31687.725
458.87653	31863.125
462.98368	31804.325
467.08789	31599.225
471.18916	31314.625
475.2875	30938.325
479.38291	30568.725
483.4754	30267.225
487.56496	30035.225
491.6516	29959.825
495.73531	29974.425
499.81612	30027.125
503.89401	30229.825
507.96899	30341.825
512.04106	30422.325
516.11023	30425.125
520.1765	30373.925
524.23987	30309.625
528.30034	30158.825
532.35792	30059.025
536.41261	29822.725
540.46441	29551.925
544.51333	29402.925
548.55936	29535.025
552.60252	29825.625
556.64279	30267.825
560.6802	30526.525
564.71473	30627.825
568.7464	30781.825
572.7752	31072.925
576.80114	31268.725
580.82422	31703.625
584.84444	32331.225
588.86181	32988.025
592.87633	33359.025
596.888	33367.825
600.89682	33189.025
604.9028	34070.225
608.90594	37022.125
612.90624	40302.325
616.90371	38851.925
620.89834	33596.125
624.89015	31124.925
628.87913	30688.925
632.86528	30824.425
636.84862	30933.625
640.82913	30701.825
644.80683	30176.025
648.78172	29776.325
652.75379	29766.325
656.72306	30103.425
660.68952	30609.825
664.65319	30539.225
668.61405	30140.225
672.57211	30073.325
676.52738	30259.625
680.47986	30188.325
684.42955	29992.925
688.37646	29933.125
692.32058	30100.825
696.26192	30413.925
700.20048	30777.825
704.13626	30847.425
708.06928	30719.725
711.99952	30511.825
715.927	30517.025
719.85171	30637.125
723.77365	30594.625
727.69284	30290.625
731.60928	29971.925
735.52295	29808.125
739.43388	29861.325
743.34206	29915.925
747.24749	30016.225
751.15017	30140.525
755.05012	30368.125
758.94733	30903.225
762.8418	31947.825
766.73354	33687.525
770.62254	35482.525
774.50882	36302.025
778.39237	35523.025
782.27321	33828.225
786.15132	32129.525
790.02671	31031.325
793.89938	30489.025
797.76935	30307.225
801.6366	30137.925
805.50115	30117.825
809.36299	30001.925
813.22213	29833.925
817.07857	29735.825
820.93231	29661.025
824.78336	29632.025
828.63172	29628.525
832.47738	29672.925
836.32036	29655.925
840.16066	29663.225
843.99827	29637.425
847.8332	29661.325
851.66546	29635.725
855.49504	29620.625
859.32195	29690.925
863.1462	29644.025
866.96777	29632.425
870.78668	29658.725
874.60293	29717.225
878.41652	29780.325
882.22745	29891.925
886.03573	30040.725
889.84136	30045.625
893.64433	29908.925
897.44466	29739.725
901.24235	29643.325
905.0374	29588.825
908.8298	29509.725
912.61957	29485.525
916.40671	29549.325
920.19121	29671.125
923.97308	29844.125
927.75233	30015.625
931.52895	30073.525
935.30295	29893.725
939.07433	29591.725
942.84309	29354.125
946.60924	29223.025
950.37278	29152.225
954.13371	29079.525
957.89203	29046.025
961.64774	28993.125
965.40086	28946.325
969.15137	28935.925
972.89929	28940.225
976.64461	28957.925
980.38733	29054.925
984.12747	29121.425
987.86502	29283.625
991.59999	29413.625
995.33237	29727.525
999.06217	30031.525
1002.78939	30534.325
1006.51404	30907.525
1010.23611	31285.025
1013.95561	31449.225
1017.67255	31468.825
1021.38692	31356.225
1025.09872	31047.325
1028.80796	30894.225
1032.51465	31094.725
1036.21877	31391.925
1039.92035	31552.125
1043.61937	31480.925
1047.31584	31272.125
1051.00976	31043.425
1054.70114	30862.325
1058.38998	30929.625
1062.07627	31148.125
1065.76003	31308.325
1069.44126	31547.425
1073.11995	32008.925
1076.79611	32449.825
1080.46974	32786.425
1084.14085	32893.625
1087.80943	33029.325
1091.47549	33092.625
1095.13903	32949.925
1098.80005	32611.325
1102.45857	32182.625
1106.11456	31851.725
1109.76805	31694.625
1113.41903	31693.025
1117.06751	31775.225
1120.71348	32008.525
1124.35696	32252.125
1127.99793	32591.525
1131.63641	32670.125
1135.2724	32425.125
1138.90589	32133.825
1142.5369	31980.625
1146.16542	31885.425
1149.79145	31767.025
1153.415	31742.925
1157.03607	31810.825
1160.65467	32082.625
1164.27079	32790.825
1167.88443	33678.025
1171.49561	34894.125
1175.10432	36370.625
1178.71056	38474.325
1182.31434	40496.025
1185.91565	41697.925
1189.51451	41884.025
1193.11091	41325.125
1196.70485	40183.425
1200.29634	38965.025
1203.88538	37963.125
1207.47197	37037.325
1211.05612	36302.425
1214.63782	35649.225
1218.21708	35139.025
1221.79391	34778.825
1225.36829	34495.225
1228.94024	34367.325
1232.50976	34188.525
1236.07685	34085.025
1239.6415	34044.225
1243.20374	34074.125
1246.76355	34227.825
1250.32093	34579.525
1253.8759	35075.325
1257.42845	35675.925
1260.97859	36396.425
1264.52631	37128.925
1268.07163	37911.825
1271.61453	38742.325
1275.15503	39367.025
1278.69312	39920.225
1282.22882	40158.725
1285.76211	40549.725
1289.29301	41031.225
1292.82151	41718.125
1296.34761	42646.025
1299.87133	43987.425
1303.39266	45640.825
1306.9116	47758.025
1310.42815	49832.725
1313.94233	51073.625
1317.45412	50745.625
1320.96354	49489.825
1324.47058	48327.225
1327.97525	47280.425
1331.47754	46562.725
1334.97747	46394.125
1338.47502	46467.325
1341.97022	46586.125
1345.46305	46843.125
1348.95352	47303.625
1352.44163	48157.225
1355.92738	49377.325
1359.41078	51250.225
1362.89183	53113.225
1366.37053	52275.025
1369.84688	48500.325
1373.32088	44100.025
1376.79254	41036.825
1380.26186	39573.025
1383.72883	38943.725
1387.19347	38470.925
1390.65578	37846.725
1394.11575	37248.225
1397.57339	37014.125
1401.0287	37018.725
1404.48168	37169.025
1407.93234	37424.225
1411.38068	37557.525
1414.82669	37397.225
1418.27039	36972.125
1421.71177	36460.525
1425.15083	36031.725
1428.58758	35882.625
1432.02203	36135.725
1435.45416	36702.425
1438.88399	37185.525
1442.31151	37417.925
1445.73673	37457.525
1449.15965	37383.925
1452.58027	37294.225
1455.9986	37153.525
1459.41463	37262.625
1462.82837	37685.525
1466.23982	38332.825
1469.64898	38855.125
1473.05586	39264.525
1476.46045	39461.225
1479.86276	39547.825
1483.26279	39638.625
1486.66054	39817.425
1490.05602	40239.725
1493.44922	40897.325
1496.84016	41638.125
1500.22882	42877.725
1503.61521	44733.825
1506.99934	46726.125
1510.38121	48209.125
1513.76081	48307.025
1517.13816	46686.925
1520.51324	44173.225
1523.88607	41798.325
1527.25665	40316.925
1530.62498	39611.625
1533.99105	39232.125
1537.35488	38884.225
1540.71647	38552.225
1544.07581	38186.425
1547.4329	37863.125
1550.78776	37627.225
1554.14038	37355.725
1557.49077	37267.925
1560.83892	37287.725
1564.18484	37395.725
1567.52853	37758.525
1570.86999	38073.225
1574.20922	38430.125
1577.54624	38607.725
1580.88103	38346.425
1584.2136	37895.725
1587.54395	37915.425
1590.87208	38721.125
1594.19801	40134.925
1597.52172	41764.925
1600.84321	42574.225
1604.16251	41844.125
1607.47959	40178.325
1610.79447	38153.825
1614.10715	36160.425
1617.41763	34374.225
1620.7259	33145.525
1624.03199	32528.125
1627.33587	32393.225
1630.63757	32853.925
1633.93707	33845.425
1637.23439	35589.425
1640.52951	38174.225
1643.82246	41342.125
1647.11321	44027.925
1650.40179	44845.325
1653.68819	42982.825
1656.97241	39088.625
1660.25446	35277.425
1663.53433	32535.425
1666.81203	30860.125
1670.08756	29814.625
1673.36092	29130.125
1676.63211	28705.325
1679.90115	28420.325
1683.16801	28188.625
1686.43272	28001.325
1689.69527	27882.725
1692.95567	27710.225
1696.2139	27669.125
1699.46999	27612.725
1702.72392	27575.225
1705.97571	27538.425
1709.22535	27494.425
1712.47284	27499.625
1715.71819	27507.825
1718.96139	27487.025
1722.20246	27418.025
1725.44139	27355.325
1728.67818	27260.525
1731.91284	27133.525
1735.14537	26996.325
1738.37576	26934.125
1741.60403	26860.925
1744.83017	26793.425
1748.05418	26750.925
1751.27607	26705.425
1754.49584	26696.225
1757.71349	26682.525
1760.92903	26653.325
1764.14244	26660.225
1767.35375	26651.825
1770.56294	26624.625
1773.77002	26573.825
1776.97499	26528.325
1780.17785	26535.725
1783.37861	26457.025
1786.57727	26443.425
1789.77382	26394.225
1792.96828	26359.325
1796.16064	26337.425
1799.3509	26297.925
1802.53907	26312.425
1805.72514	26180.925
1808.90913	26154.925
1812.09102	26140.125
1815.27083	26093.125
1818.44856	26059.625
1821.6242	26040.825
1824.79776	26006.925
1827.96924	25973.925
1831.13864	25935.125
1834.30597	25989.925
1837.47122	25965.625
1840.6344	25914.425
1843.7955	25933.025
1846.95454	25927.625
1850.11151	25897.525
1853.26642	25878.925
1856.41926	25881.225
1859.57004	25885.325
1862.71876	25863.425
1865.86542	25813.225
1869.01003	25793.125
1872.15258	25750.125
1875.29308	25744.325
1878.43152	25664.325
1881.56792	25693.325
1884.70227	25704.625
1887.83457	25657.325
1890.96482	25638.525
1894.09304	25602.325
1897.21921	25543.125
1900.34335	25591.425
1903.46544	25536.125
1906.58551	25530.825
1909.70353	25464.325
1912.81953	25459.125
1915.93349	25419.825
1919.04543	25353.125
1922.15534	25338.525
1925.26322	25297.825
1928.36908	25261.825
1931.47292	25244.525
1934.57473	25169.325
1937.67453	25100.125
1940.77232	25039.225
1943.86808	24976.425
1946.96184	24961.725
1950.05358	24885.125
1953.14331	24801.325
1956.23103	24752.925
1959.31675	24699.325
1962.40046	24658.925
1965.48217	24570.725
1968.56188	24507.425
1971.63959	24430.525
1974.7153	24394.525
1977.78901	24290.325
1980.86073	24277.025
1983.93046	24194.925
1986.99819	24133.325
1990.06394	24083.925
1993.1277	23973.025
1996.18947	23896.525
1999.24925	23860.225
2002.30706	23777.325
2005.36288	23728.525
2008.41672	23652.425
2011.46859	23641.125
2014.51848	23564.025
2017.56639	23513.825
2020.61233	23444.925
2023.6563	23413.725
2026.6983	23347.825
2029.73833	23315.525
2032.7764	23279.425
2035.8125	23254.125
2038.84664	23179.325
2041.87881	23161.325
2044.90903	23128.425
2047.93729	23067.725
2050.96359	23067.625
2053.98794	22994.825
2057.01034	23004.925
2060.03078	22986.725
2063.04927	22959.725
2066.06582	22998.825
2069.08042	22947.125
2072.09307	22951.925
2075.10378	22911.125
2078.11255	22926.225
2081.11938	22937.325
2084.12426	22903.225
2087.12722	22912.225
2090.12824	22893.625
2093.12732	22853.825
2096.12447	22917.725
2099.11969	22939.725
2102.11299	22920.525
2105.10435	22932.325
2108.09379	22923.925
2111.08131	22987.025
2114.0669	22978.325
2117.05057	23015.625
2120.03233	23008.825
2123.01216	23068.025
2125.99008	23082.025
2128.96609	23071.125
2131.94018	23119.725
2134.91236	23174.825
2137.88263	23181.325
2140.851	23143.325
2143.81746	23186.925
2146.78201	23228.625
2149.74466	23218.425
2152.7054	23213.225
2155.66425	23243.625
2158.6212	23218.025
2161.57625	23212.125
2164.52941	23232.425
2167.48067	23231.525
2170.43004	23199.725
2173.37752	23219.525
2176.32311	23169.325
2179.26681	23205.125
2182.20863	23178.925
2185.14856	23204.125
2188.08661	23198.425
2191.02278	23215.725
2193.95707	23178.825
2196.88948	23178.725
2199.82001	23204.325
2202.74867	23136.725
2205.67545	23115.825
2208.60037	23116.625
2211.52341	23101.525
2214.44458	23056.625
2217.36388	23013.625
2220.28132	22962.425
2223.1969	22913.425
2226.11061	22905.825
2229.02246	22867.625
2231.93245	22824.725
2234.84058	22781.925
2237.74686	22766.525
2240.65128	22765.125
2243.55385	22722.725
2246.45456	22692.625
2249.35343	22683.425
2252.25044	22622.025
2255.14561	22580.325
2258.03893	22600.725
2260.93041	22534.825
2263.82004	22481.725
2266.70783	22480.925
2269.59378	22387.925
2272.4779	22387.325
2275.36017	22322.025
2278.24061	22326.725
2281.11922	22268.825
2283.996	22247.825
2286.87094	22221.725
2289.74405	22183.625
2292.61534	22175.425
2295.4848	22154.425
2298.35243	22117.525
2301.21824	22084.725
2304.08223	22137.325
2306.94439	22128.525
2309.80474	22093.625
2312.66327	22130.825
2315.51999	22093.525
2318.37489	22075.325
2321.22797	22037.425
2324.07925	22041.825
2326.92871	22001.425
2329.77637	21938.425
2332.62222	21925.725
2335.46626	21886.825
2338.3085	21866.425
2341.14893	21867.225
2343.98756	21844.825
2346.8244	21824.925
2349.65943	21790.225
2352.49267	21763.625
2355.32411	21784.525
2358.15376	21797.825
2360.98161	21769.525
2363.80768	21765.625
2366.63195	21713.525
2369.45444	21728.825
2372.27514	21713.025
2375.09405	21698.225
2377.91118	21635.325
2380.72652	21619.525
2383.54009	21570.225
2386.35187	21538.225
2389.16188	21518.425
2391.97011	21463.625
2394.77657	21453.525
2397.58125	21369.325
2400.38416	21348.625
2403.18529	21315.825
2405.98466	21290.025
2408.78226	21243.125
2411.57809	21262.525
2414.37216	21234.725
2417.16446	21229.925
2419.955	21173.625
2422.74378	21165.225
2425.5308	21151.825
2428.31606	21136.625
2431.09956	21149.925
2433.88131	21121.325
2436.6613	21154.325
2439.43954	21079.825
2442.21603	21095.925
2444.99077	21049.925
2447.76377	21121.325
2450.53501	21038.425
2453.30451	21058.225
2456.07226	21033.025
2458.83827	21039.925
2461.60254	20987.125
2464.36507	20937.625
2467.12586	20996.125
2469.88492	20976.025
2472.64224	20970.325
2475.39782	20965.725
2478.15167	20934.225
2480.90379	20909.225
2483.65417	20898.525
2486.40283	20896.025
2489.14976	20902.025
2491.89497	20843.525
2494.63845	20893.425
2497.3802	20883.825
2500.12024	20813.925
2502.85855	20819.825
2505.59514	20801.925
2508.33002	20817.825
2511.06318	20822.825
2513.79462	20765.925
2516.52435	20752.525
2519.25237	20722.525
2521.97867	20712.825
2524.70327	20716.725
2527.42616	20653.225
2530.14734	20652.225
2532.86681	20642.825
2535.58458	20624.925
2538.30065	20608.925
2541.01501	20578.325
2543.72768	20560.725
2546.43864	20543.025
2549.14791	20509.825
2551.85548	20470.125
2554.56136	20455.725
2557.26554	20425.825
2559.96803	20427.425
2562.66883	20395.425
2565.36794	20357.825
2568.06536	20361.225
2570.7611	20316.425
2573.45514	20289.225
2576.14751	20298.725
2578.83819	20248.125
2581.52719	20211.325
2584.21451	20176.825
2586.90015	20197.325
2589.58411	20104.725
2592.2664	20100.225
2594.94701	20071.125
2597.62594	20073.725
2600.30321	20039.225
2602.9788	20011.725
2605.65273	19951.825
2608.32498	19967.225
2610.99557	19963.325
2613.66449	19933.025
2616.33175	19893.825
2618.99734	19889.025
2621.66128	19862.325
2624.32355	19807.625
2626.98416	19816.225
2629.64311	19804.525
2632.30041	19827.825
2634.95605	19795.025
2637.61004	19746.425
2640.26238	19693.325
2642.91306	19693.625
2645.56209	19691.025
2648.20948	19666.225
2650.85521	19662.925
2653.4993	19705.625
2656.14175	19614.725
2658.78255	19677.225
2661.42171	19690.325
2664.05923	19684.725
2666.6951	19662.725
2669.32934	19676.925
2671.96194	19684.425
2674.59291	19696.425
2677.22224	19653.225
2679.84993	19660.825
2682.476	19677.925
2685.10043	19677.125
2687.72324	19632.125
2690.34441	19642.625
2692.96396	19640.625
2695.58188	19679.925
2698.19818	19651.225
2700.81285	19651.025
2703.4259	19649.625
2706.03733	19687.825
2708.64714	19705.625
2711.25533	19712.825
2713.86191	19662.525
2716.46687	19698.025
2719.07021	19662.925
2721.67194	19705.425
2724.27206	19639.925
2726.87057	19679.425
2729.46747	19688.125
2732.06276	19689.525
2734.65644	19683.225
2737.24852	19658.225
2739.83899	19639.025
2742.42786	19661.125
2745.01513	19647.025
2747.60079	19590.925
2750.18486	19573.925
2752.76733	19542.925
2755.3482	19556.525
2757.92747	19519.325
2760.50515	19489.025
2763.08123	19491.525
2765.65573	19467.325
2768.22863	19473.025
2770.79994	19430.725
2773.36967	19439.225
2775.9378	19393.525
2778.50435	19361.325
2781.06932	19317.125
2783.6327	19357.625
2786.1945	19294.625
2788.75471	19288.825
2791.31335	19212.525
2793.87041	19213.125
2796.42589	19136.725
2798.97979	19101.125
2801.53212	19107.825
2804.08288	19074.325
2806.63206	19054.425
2809.17967	18998.825
2811.72571	18930.325
2814.27018	18965.125
2816.81308	18938.625
2819.35442	18945.825
2821.89419	18847.025
2824.43239	18850.625
2826.96904	18835.325
2829.50412	18827.925
2832.03763	18781.825
2834.56959	18762.025
2837.1	18723.725
2839.62884	18745.525
2842.15613	18721.525
2844.68186	18696.325
2847.20604	18692.225
2849.72867	18715.125
2852.24974	18714.425
2854.76927	18646.925
2857.28724	18611.725
2859.80367	18601.225
2862.31855	18580.825
2864.83189	18564.725
2867.34368	18542.125
2869.85393	18543.725
2872.36264	18550.125
2874.8698	18597.125
2877.37543	18553.025
2879.87952	18557.025
2882.38207	18539.925
2884.88308	18566.225
2887.38256	18585.225
2889.88051	18572.325
2892.37692	18567.525
2894.8718	18531.525
2897.36515	18531.425
2899.85698	18550.125
2902.34727	18614.425
2904.83604	18532.825
2907.32328	18606.025
2909.809	18573.725
2912.29319	18591.725
2914.77587	18563.025
2917.25702	18617.725
2919.73665	18582.625
2922.21476	18573.825
2924.69136	18525.725
2927.16644	18561.225
2929.64	18511.225
2932.11205	18497.825
2934.58258	18428.625
2937.05161	18495.525
2939.51912	18468.125
2941.98513	18418.225
2944.44962	18393.925
2946.91261	18362.325
2949.37409	18449.225
2951.83407	18408.925
2954.29254	18382.125
2956.74951	18376.225
2959.20498	18381.725
2961.65895	18320.625
2964.11142	18324.425
2966.56239	18273.925
2969.01186	18277.725
2971.45984	18232.525
2973.90632	18240.825
2976.35131	18178.225
2978.7948	18157.525
2981.23681	18104.025
2983.67732	18127.725
2986.11635	18061.525
2988.55388	18009.125
2990.98993	18017.925
2993.4245	17951.925
2995.85758	17931.925
2998.28917	17876.725
3000.71928	17865.625
3003.14791	17851.125
3005.57506	17843.125
3008.00073	17831.625
3010.42493	17794.625
3012.84764	17769.425
3015.26888	17746.925
3017.68865	17711.025
3020.10694	17711.725
3022.52376	17684.125
3024.9391	17676.125
3027.35298	17624.025
3029.76539	17591.825
3032.17632	17582.025
3034.5858	17559.825
3036.9938	17519.225
3039.40034	17488.125
3041.80542	17480.325
3044.20903	17448.925
3046.61118	17438.325
3049.01187	17410.925
3051.4111	17393.625
3053.80888	17362.125
3056.20519	17345.925
3058.60005	17325.125
3060.99345	17304.025
3063.3854	17266.925
3065.7759	17223.525
3068.16494	17193.725
3070.55254	17142.925
3072.93868	17119.925
3075.32338	17099.625
3077.70662	17062.925
3080.08842	17030.225
3082.46878	17018.925
3084.84769	16981.225
3087.22515	17027.925
3089.60118	16967.425
3091.97576	16951.925
3094.3489	16979.625
3096.72061	16952.925
3099.09087	16932.525
3101.4597	16918.125
3103.82709	16943.625
3106.19305	16916.225
3108.55757	16898.625
3110.92066	16829.825
3113.28232	16805.925
3115.64255	16790.225
3118.00134	16747.725
3120.35871	16705.925
3122.71466	16682.025
3125.06917	16665.225
3127.42226	16627.225
