Data from AgNPs_FTO_APTES_UA_10uM_R6G_10uM_NaF_0.1M_Addition_RamanShift__21__13-34-27-324.txt Node

Date: Fri Dec 17 13:34:27 GMT 2021
User: TCL
Spectrometer: QEP01345
Trigger mode: 4
Integration Time (sec): 7.000000E0
Scans to average: 10
Electric dark correction enabled: true
Nonlinearity correction enabled: false
Boxcar width: 0
XAxis mode: Raman Shifts
Number of Pixels in Spectrum: 1044
>>>>>Begin Spectral Data<<<<<
46.04893	-1.0375
50.45542	-0.8375
54.85868	-0.9375
59.25871	0.7625
63.6555	87.4625
68.04907	93.6625
72.43941	93.4625
76.82654	99.8625
81.21044	105.2625
85.59113	107.3625
89.96862	108.2625
94.34289	112.9625
98.71396	117.5625
103.08183	116.1625
107.4465	123.3625
111.80798	127.1625
116.16626	128.9625
120.52136	127.9625
124.87327	141.5625
129.222	148.2625
133.56755	155.9625
137.90993	167.1625
142.24913	183.2625
146.58517	202.9625
150.91804	236.4625
155.24774	284.0625
159.57429	352.7625
163.89768	449.2625
168.21792	593.8625
172.53501	804.5625
176.84895	1122.7625
181.15975	1564.5625
185.46741	2194.2625
189.77193	3031.3625
194.07331	4062.2625
198.37157	5248.5625
202.6667	6457.2625
206.9587	7687.3625
211.24758	8905.6625
215.53334	10098.5625
219.81599	11374.0625
224.09553	12833.3625
228.37195	14420.7625
232.64527	16241.8625
236.91549	18098.8625
241.18261	19957.0625
245.44663	21676.9625
249.70755	23161.8625
253.96539	24433.5625
258.22014	25510.4625
262.4718	26445.1625
266.72039	27124.2625
270.96589	27509.5625
275.20832	27568.1625
279.44768	27322.0625
283.68397	27027.3625
287.91719	26676.3625
292.14735	26541.3625
296.37445	26583.4625
300.59849	26870.7625
304.81948	27143.9625
309.03742	27247.5625
313.25231	27000.1625
317.46415	26270.4625
321.67296	25374.0625
325.87872	24547.1625
330.08145	24187.1625
334.28114	24234.2625
338.47781	24514.8625
342.67145	24914.9625
346.86207	25452.7625
351.04966	26233.3625
355.23424	27035.4625
359.4158	27785.4625
363.59435	28296.0625
367.76989	28647.6625
371.94243	28843.9625
376.11196	29014.7625
380.27849	29097.0625
384.44203	29243.9625
388.60257	29355.1625
392.76012	29413.1625
396.91468	29725.8625
401.06626	30238.8625
405.21485	30637.1625
409.36047	30447.3625
413.50311	29784.0625
417.64277	29163.2625
421.77947	28838.8625
425.9132	28800.3625
430.04396	28898.9625
434.17176	29053.6625
438.2966	29285.9625
442.41849	29803.7625
446.53742	30457.9625
450.6534	31202.8625
454.76644	31773.0625
458.87653	32088.2625
462.98368	32012.7625
467.08789	31650.4625
471.18916	31117.6625
475.2875	30527.8625
479.38291	30084.9625
483.4754	29734.7625
487.56496	29455.2625
491.6516	29198.0625
495.73531	28990.0625
499.81612	29016.1625
503.89401	29179.7625
507.96899	29375.1625
512.04106	29527.5625
516.11023	29689.5625
520.1765	29759.7625
524.23987	29726.4625
528.30034	29507.5625
532.35792	29165.8625
536.41261	28842.4625
540.46441	28432.8625
544.51333	28354.0625
548.55936	28504.9625
552.60252	28863.3625
556.64279	29344.0625
560.6802	29530.5625
564.71473	29603.3625
568.7464	29996.4625
572.7752	30412.9625
576.80114	30494.8625
580.82422	30510.3625
584.84444	30684.0625
588.86181	30826.9625
592.87633	31080.4625
596.888	31360.5625
600.89682	31939.1625
604.9028	33860.0625
608.90594	38450.4625
612.90624	43719.8625
616.90371	41892.2625
620.89834	34236.6625
624.89015	30606.9625
628.87913	30011.8625
632.86528	29961.9625
636.84862	30021.5625
640.82913	29631.4625
644.80683	28885.8625
648.78172	28262.7625
652.75379	28154.5625
656.72306	28658.3625
660.68952	29271.2625
664.65319	29167.7625
668.61405	28560.6625
672.57211	28351.2625
676.52738	28366.9625
680.47986	28358.9625
684.42955	28309.4625
688.37646	28255.6625
692.32058	28314.1625
696.26192	28478.5625
700.20048	28780.7625
704.13626	28890.7625
708.06928	28741.9625
711.99952	28526.0625
715.927	28423.4625
719.85171	28428.0625
723.77365	28377.3625
727.69284	28185.6625
731.60928	27999.8625
735.52295	27955.0625
739.43388	28063.6625
743.34206	28224.4625
747.24749	28321.5625
751.15017	28432.7625
755.05012	28826.4625
758.94733	29609.6625
762.8418	31118.2625
766.73354	33786.8625
770.62254	36678.2625
774.50882	38043.6625
778.39237	36691.1625
782.27321	33602.6625
786.15132	30919.3625
790.02671	29346.5625
793.89938	28641.3625
797.76935	28328.2625
801.6366	28204.1625
805.50115	28100.3625
809.36299	27947.5625
813.22213	27811.7625
817.07857	27692.9625
820.93231	27632.4625
824.78336	27657.4625
828.63172	27704.6625
832.47738	27732.8625
836.32036	27798.4625
840.16066	27915.9625
843.99827	27986.5625
847.8332	27928.7625
851.66546	27789.7625
855.49504	27728.4625
859.32195	27704.0625
863.1462	27643.7625
866.96777	27542.8625
870.78668	27498.3625
874.60293	27549.6625
878.41652	27561.2625
882.22745	27651.8625
886.03573	27749.0625
889.84136	27736.5625
893.64433	27651.1625
897.44466	27512.1625
901.24235	27459.6625
905.0374	27320.0625
908.8298	27294.7625
912.61957	27303.0625
916.40671	27458.9625
920.19121	27707.9625
923.97308	28040.6625
927.75233	28253.4625
931.52895	28348.2625
935.30295	28172.7625
939.07433	27673.7625
942.84309	27229.1625
946.60924	27094.2625
950.37278	26872.2625
954.13371	26748.7625
957.89203	26597.4625
961.64774	26458.0625
965.40086	26389.0625
969.15137	26251.1625
972.89929	26227.9625
976.64461	26233.5625
980.38733	26263.3625
984.12747	26423.8625
987.86502	26646.5625
991.59999	26986.6625
995.33237	27522.3625
999.06217	28381.3625
1002.78939	29368.4625
1006.51404	29986.5625
1010.23611	30337.5625
1013.95561	30597.9625
1017.67255	30652.8625
1021.38692	30387.9625
1025.09872	30212.2625
1028.80796	30576.9625
1032.51465	31527.3625
1036.21877	32401.9625
1039.92035	32508.4625
1043.61937	31996.3625
1047.31584	31015.2625
1051.00976	29998.0625
1054.70114	29381.5625
1058.38998	29200.3625
1062.07627	29228.0625
1065.76003	29327.5625
1069.44126	29493.1625
1073.11995	29832.8625
1076.79611	30153.4625
1080.46974	30327.3625
1084.14085	30522.1625
1087.80943	30785.7625
1091.47549	30840.7625
1095.13903	30563.7625
1098.80005	30047.9625
1102.45857	29529.1625
1106.11456	29231.2625
1109.76805	29270.5625
1113.41903	29546.7625
1117.06751	29923.4625
1120.71348	30364.7625
1124.35696	30737.5625
1127.99793	31228.3625
1131.63641	31489.6625
1135.2724	31078.9625
1138.90589	30559.9625
1142.5369	30150.5625
1146.16542	29789.8625
1149.79145	29626.5625
1153.415	29623.1625
1157.03607	29799.9625
1160.65467	30266.0625
1164.27079	31113.2625
1167.88443	32405.4625
1171.49561	34202.0625
1175.10432	36714.0625
1178.71056	40146.4625
1182.31434	43451.4625
1185.91565	45301.3625
1189.51451	45419.4625
1193.11091	43809.0625
1196.70485	41397.2625
1200.29634	39235.8625
1203.88538	37554.6625
1207.47197	36129.3625
1211.05612	34987.3625
1214.63782	34328.8625
1218.21708	34186.1625
1221.79391	34367.8625
1225.36829	34552.1625
1228.94024	34535.4625
1232.50976	34299.6625
1236.07685	34176.4625
1239.6415	34028.9625
1243.20374	33962.3625
1246.76355	34051.0625
1250.32093	34437.1625
1253.8759	35159.2625
1257.42845	36126.6625
1260.97859	37033.1625
1264.52631	37859.0625
1268.07163	38759.4625
1271.61453	39841.8625
1275.15503	40969.1625
1278.69312	42074.0625
1282.22882	42880.2625
1285.76211	43502.5625
1289.29301	44053.6625
1292.82151	44794.5625
1296.34761	45868.7625
1299.87133	47547.1625
1303.39266	50136.3625
1306.9116	53565.7625
1310.42815	57312.7625
1313.94233	59759.2625
1317.45412	59668.4625
1320.96354	57928.0625
1324.47058	55717.4625
1327.97525	53603.2625
1331.47754	52167.2625
1334.97747	51638.5625
1338.47502	51875.5625
1341.97022	52486.6625
1345.46305	52882.1625
1348.95352	53120.4625
1352.44163	53708.0625
1355.92738	55472.8625
1359.41078	58981.3625
1362.89183	62649.8625
1366.37053	61719.6625
1369.84688	55670.7625
1373.32088	48956.1625
1376.79254	44439.6625
1380.26186	42199.7625
1383.72883	41235.5625
1387.19347	40485.1625
1390.65578	39704.0625
1394.11575	39261.3625
1397.57339	39316.4625
1401.0287	39790.7625
1404.48168	40463.0625
1407.93234	41116.6625
1411.38068	41570.0625
1414.82669	41556.0625
1418.27039	40910.8625
1421.71177	39908.8625
1425.15083	39048.5625
1428.58758	38492.0625
1432.02203	38333.0625
1435.45416	38562.7625
1438.88399	38986.4625
1442.31151	39283.0625
1445.73673	39583.3625
1449.15965	39926.5625
1452.58027	40073.4625
1455.9986	40044.9625
1459.41463	40144.8625
1462.82837	40647.2625
1466.23982	41437.3625
1469.64898	42190.4625
1473.05586	42786.9625
1476.46045	43017.1625
1479.86276	43122.5625
1483.26279	43292.3625
1486.66054	43588.3625
1490.05602	44144.5625
1493.44922	44908.5625
1496.84016	45756.1625
1500.22882	47083.7625
1503.61521	49028.9625
1506.99934	51637.0625
1510.38121	54114.4625
1513.76081	55081.3625
1517.13816	53412.8625
1520.51324	50012.7625
1523.88607	46636.3625
1527.25665	44162.0625
1530.62498	42793.5625
1533.99105	41920.9625
1537.35488	41403.6625
1540.71647	41048.5625
1544.07581	40804.3625
1547.4329	40652.8625
1550.78776	40537.9625
1554.14038	40521.7625
1557.49077	40601.0625
1560.83892	40808.9625
1564.18484	40930.2625
1567.52853	41009.1625
1570.86999	41086.6625
1574.20922	41360.6625
1577.54624	41545.2625
1580.88103	41185.1625
1584.2136	40639.4625
1587.54395	40831.6625
1590.87208	41959.3625
1594.19801	44179.6625
1597.52172	46751.8625
1600.84321	47775.6625
1604.16251	46500.0625
1607.47959	43799.1625
1610.79447	40809.6625
1614.10715	38011.0625
1617.41763	35578.8625
1620.7259	33949.6625
1624.03199	33154.5625
1627.33587	33222.7625
1630.63757	34049.0625
1633.93707	35676.8625
1637.23439	37899.8625
1640.52951	40632.5625
1643.82246	43572.1625
1647.11321	45837.6625
1650.40179	46565.3625
1653.68819	44528.6625
1656.97241	40123.9625
1660.25446	35467.6625
1663.53433	32135.5625
1666.81203	29970.8625
1670.08756	28656.8625
1673.36092	27750.5625
1676.63211	27179.0625
1679.90115	26773.9625
1683.16801	26431.3625
1686.43272	26211.7625
1689.69527	26062.9625
1692.95567	25905.2625
1696.2139	25846.2625
1699.46999	25795.2625
1702.72392	25745.8625
1705.97571	25703.1625
1709.22535	25657.9625
1712.47284	25621.3625
1715.71819	25580.1625
1718.96139	25549.8625
1722.20246	25480.8625
1725.44139	25387.9625
1728.67818	25262.9625
1731.91284	25192.1625
1735.14537	25060.6625
1738.37576	24993.3625
1741.60403	24889.2625
1744.83017	24831.5625
1748.05418	24776.5625
1751.27607	24735.9625
1754.49584	24677.4625
1757.71349	24690.8625
1760.92903	24749.5625
1764.14244	24688.1625
1767.35375	24682.9625
1770.56294	24669.1625
1773.77002	24628.4625
1776.97499	24585.8625
1780.17785	24546.8625
1783.37861	24498.8625
1786.57727	24506.8625
1789.77382	24461.3625
1792.96828	24446.7625
1796.16064	24393.8625
1799.3509	24405.1625
1802.53907	24393.1625
1805.72514	24317.3625
1808.90913	24272.7625
1812.09102	24277.3625
1815.27083	24210.2625
1818.44856	24133.2625
1821.6242	24194.5625
1824.79776	24123.1625
1827.96924	24125.2625
1831.13864	24129.6625
1834.30597	24135.2625
1837.47122	24164.0625
1840.6344	24146.8625
1843.7955	24151.7625
1846.95454	24143.2625
1850.11151	24145.1625
1853.26642	24166.0625
1856.41926	24209.7625
1859.57004	24211.1625
1862.71876	24201.7625
1865.86542	24188.9625
1869.01003	24181.9625
1872.15258	24201.5625
1875.29308	24231.7625
1878.43152	24247.2625
1881.56792	24214.8625
1884.70227	24193.2625
1887.83457	24265.4625
1890.96482	24277.4625
1894.09304	24203.6625
1897.21921	24237.1625
1900.34335	24278.5625
1903.46544	24256.0625
1906.58551	24238.6625
1909.70353	24263.2625
1912.81953	24241.3625
1915.93349	24190.2625
1919.04543	24138.1625
1922.15534	24096.4625
1925.26322	24034.8625
1928.36908	23969.5625
1931.47292	23898.6625
1934.57473	23823.7625
1937.67453	23708.9625
1940.77232	23632.7625
1943.86808	23534.5625
1946.96184	23504.4625
1950.05358	23415.9625
1953.14331	23295.5625
1956.23103	23265.5625
1959.31675	23173.1625
1962.40046	23084.1625
1965.48217	23063.2625
1968.56188	22986.6625
1971.63959	22936.0625
1974.7153	22889.9625
1977.78901	22781.2625
1980.86073	22709.8625
1983.93046	22662.7625
1986.99819	22554.4625
1990.06394	22530.9625
1993.1277	22452.4625
1996.18947	22353.2625
1999.24925	22315.2625
2002.30706	22268.9625
2005.36288	22223.3625
2008.41672	22192.0625
2011.46859	22127.0625
2014.51848	22086.7625
2017.56639	21978.9625
2020.61233	21992.7625
2023.6563	21942.5625
2026.6983	21887.6625
2029.73833	21839.2625
2032.7764	21805.2625
2035.8125	21793.4625
2038.84664	21744.2625
2041.87881	21731.0625
2044.90903	21698.4625
2047.93729	21684.8625
2050.96359	21640.6625
2053.98794	21630.8625
2057.01034	21603.7625
2060.03078	21591.1625
2063.04927	21584.4625
2066.06582	21563.4625
2069.08042	21548.7625
2072.09307	21551.0625
2075.10378	21515.3625
2078.11255	21462.6625
2081.11938	21476.9625
2084.12426	21463.4625
2087.12722	21445.0625
2090.12824	21433.7625
2093.12732	21422.5625
2096.12447	21469.7625
2099.11969	21455.1625
2102.11299	21433.5625
2105.10435	21444.8625
2108.09379	21505.0625
2111.08131	21476.0625
2114.0669	21512.4625
2117.05057	21561.0625
2120.03233	21569.4625
2123.01216	21577.5625
2125.99008	21610.4625
2128.96609	21614.6625
2131.94018	21612.5625
2134.91236	21644.5625
2137.88263	21677.1625
2140.851	21640.3625
2143.81746	21738.6625
2146.78201	21740.5625
2149.74466	21717.0625
2152.7054	21734.3625
2155.66425	21709.8625
2158.6212	21730.8625
2161.57625	21719.0625
2164.52941	21736.8625
2167.48067	21716.0625
2170.43004	21698.2625
2173.37752	21695.4625
2176.32311	21693.2625
2179.26681	21710.1625
2182.20863	21707.1625
2185.14856	21737.8625
2188.08661	21744.4625
2191.02278	21716.0625
2193.95707	21697.9625
2196.88948	21737.7625
2199.82001	21749.8625
2202.74867	21754.6625
2205.67545	21709.2625
2208.60037	21719.7625
2211.52341	21730.8625
2214.44458	21698.1625
2217.36388	21675.2625
2220.28132	21650.3625
2223.1969	21620.3625
2226.11061	21602.5625
2229.02246	21529.6625
2231.93245	21509.8625
2234.84058	21463.4625
2237.74686	21413.5625
2240.65128	21445.2625
2243.55385	21355.5625
2246.45456	21346.8625
2249.35343	21353.2625
2252.25044	21303.6625
2255.14561	21245.0625
2258.03893	21282.7625
2260.93041	21284.6625
2263.82004	21194.7625
2266.70783	21156.6625
2269.59378	21139.0625
2272.4779	21066.0625
2275.36017	21041.0625
2278.24061	21027.3625
2281.11922	20931.6625
2283.996	20907.9625
2286.87094	20893.8625
2289.74405	20881.7625
2292.61534	20842.5625
2295.4848	20873.2625
2298.35243	20845.9625
2301.21824	20862.1625
2304.08223	20887.8625
2306.94439	20898.4625
2309.80474	20899.3625
2312.66327	20926.0625
2315.51999	20948.0625
2318.37489	20930.4625
2321.22797	20927.7625
2324.07925	20898.6625
2326.92871	20895.4625
2329.77637	20866.9625
2332.62222	20839.2625
2335.46626	20834.4625
2338.3085	20858.5625
2341.14893	20840.4625
2343.98756	20861.1625
2346.8244	20879.3625
2349.65943	20865.9625
2352.49267	20867.5625
2355.32411	20875.1625
2358.15376	20825.3625
2360.98161	20835.6625
2363.80768	20800.3625
2366.63195	20797.9625
2369.45444	20735.2625
2372.27514	20729.5625
2375.09405	20685.8625
2377.91118	20597.0625
2380.72652	20572.6625
2383.54009	20515.9625
2386.35187	20506.5625
2389.16188	20437.9625
2391.97011	20438.5625
2394.77657	20406.8625
2397.58125	20385.6625
2400.38416	20385.3625
2403.18529	20318.0625
2405.98466	20268.0625
2408.78226	20200.8625
2411.57809	20197.3625
2414.37216	20163.2625
2417.16446	20164.9625
2419.955	20122.1625
2422.74378	20118.5625
2425.5308	20076.4625
2428.31606	20053.0625
2431.09956	20077.6625
2433.88131	20055.8625
2436.6613	20032.7625
2439.43954	20029.5625
2442.21603	20053.6625
2444.99077	20004.1625
2447.76377	20051.5625
2450.53501	19982.1625
2453.30451	19994.9625
2456.07226	19992.7625
2458.83827	19993.6625
2461.60254	19952.8625
2464.36507	19971.4625
2467.12586	19955.7625
2469.88492	19975.0625
2472.64224	19983.2625
2475.39782	19980.9625
2478.15167	19977.7625
2480.90379	20001.9625
2483.65417	20012.5625
2486.40283	20047.4625
2489.14976	20023.0625
2491.89497	20033.6625
2494.63845	20039.0625
2497.3802	20037.0625
2500.12024	20052.5625
2502.85855	20042.7625
2505.59514	20027.4625
2508.33002	20037.6625
2511.06318	19971.1625
2513.79462	19971.8625
2516.52435	19924.3625
2519.25237	19929.9625
2521.97867	19865.3625
2524.70327	19876.9625
2527.42616	19828.1625
2530.14734	19872.3625
2532.86681	19827.4625
2535.58458	19802.2625
2538.30065	19791.2625
2541.01501	19790.5625
2543.72768	19754.9625
2546.43864	19775.1625
2549.14791	19748.4625
2551.85548	19729.5625
2554.56136	19708.8625
2557.26554	19714.3625
2559.96803	19683.6625
2562.66883	19635.9625
2565.36794	19632.9625
2568.06536	19652.2625
2570.7611	19611.5625
2573.45514	19602.6625
2576.14751	19578.8625
2578.83819	19548.4625
2581.52719	19541.6625
2584.21451	19545.0625
2586.90015	19581.9625
2589.58411	19544.8625
2592.2664	19535.8625
2594.94701	19517.8625
2597.62594	19512.1625
2600.30321	19474.7625
2602.9788	19475.6625
2605.65273	19470.5625
2608.32498	19478.7625
2610.99557	19463.0625
2613.66449	19445.0625
2616.33175	19400.6625
2618.99734	19447.8625
2621.66128	19423.2625
2624.32355	19404.5625
2626.98416	19449.7625
2629.64311	19471.9625
2632.30041	19449.6625
2634.95605	19450.9625
2637.61004	19384.9625
2640.26238	19406.6625
2642.91306	19374.1625
2645.56209	19346.5625
2648.20948	19309.8625
2650.85521	19287.6625
2653.4993	19299.8625
2656.14175	19285.1625
2658.78255	19333.7625
2661.42171	19290.1625
2664.05923	19349.1625
2666.6951	19321.2625
2669.32934	19359.5625
2671.96194	19365.3625
2674.59291	19342.1625
2677.22224	19350.8625
2679.84993	19373.1625
2682.476	19375.0625
2685.10043	19367.7625
2687.72324	19317.8625
2690.34441	19322.8625
2692.96396	19293.9625
2695.58188	19320.5625
2698.19818	19282.1625
2700.81285	19325.1625
2703.4259	19311.6625
2706.03733	19336.6625
2708.64714	19341.3625
2711.25533	19345.0625
2713.86191	19318.1625
2716.46687	19358.6625
2719.07021	19308.0625
2721.67194	19316.1625
2724.27206	19322.3625
2726.87057	19364.4625
2729.46747	19336.0625
2732.06276	19348.7625
2734.65644	19325.7625
2737.24852	19348.9625
2739.83899	19308.8625
2742.42786	19322.8625
2745.01513	19279.4625
2747.60079	19341.9625
2750.18486	19307.8625
2752.76733	19322.2625
2755.3482	19275.4625
2757.92747	19317.1625
2760.50515	19253.2625
2763.08123	19264.3625
2765.65573	19276.8625
2768.22863	19235.3625
2770.79994	19238.3625
2773.36967	19204.4625
2775.9378	19204.5625
2778.50435	19200.1625
2781.06932	19179.5625
2783.6327	19183.0625
2786.1945	19141.7625
2788.75471	19155.7625
2791.31335	19100.3625
2793.87041	19055.2625
2796.42589	19001.7625
2798.97979	19008.3625
2801.53212	18948.3625
2804.08288	18952.8625
2806.63206	18898.8625
2809.17967	18888.4625
2811.72571	18875.3625
2814.27018	18886.0625
2816.81308	18855.4625
2819.35442	18843.5625
2821.89419	18799.7625
2824.43239	18810.4625
2826.96904	18803.0625
2829.50412	18844.1625
2832.03763	18771.5625
2834.56959	18733.5625
2837.1	18731.2625
2839.62884	18730.7625
2842.15613	18746.5625
2844.68186	18760.4625
2847.20604	18754.4625
2849.72867	18783.1625
2852.24974	18761.2625
2854.76927	18728.8625
2857.28724	18713.5625
2859.80367	18682.0625
2862.31855	18711.7625
2864.83189	18675.1625
2867.34368	18667.9625
2869.85393	18627.1625
2872.36264	18656.6625
2874.8698	18656.8625
2877.37543	18663.3625
2879.87952	18644.1625
2882.38207	18648.4625
2884.88308	18671.2625
2887.38256	18693.2625
2889.88051	18665.8625
2892.37692	18681.2625
2894.8718	18655.2625
2897.36515	18712.4625
2899.85698	18688.8625
2902.34727	18748.4625
2904.83604	18764.2625
2907.32328	18808.9625
2909.809	18794.7625
2912.29319	18804.2625
2914.77587	18766.3625
2917.25702	18804.3625
2919.73665	18765.6625
2922.21476	18764.2625
2924.69136	18725.5625
2927.16644	18743.4625
2929.64	18709.9625
2932.11205	18692.3625
2934.58258	18614.6625
2937.05161	18624.0625
2939.51912	18639.7625
2941.98513	18658.1625
2944.44962	18582.3625
2946.91261	18514.2625
2949.37409	18581.6625
2951.83407	18548.5625
2954.29254	18532.5625
2956.74951	18510.8625
2959.20498	18489.9625
2961.65895	18470.9625
2964.11142	18458.5625
2966.56239	18425.7625
2969.01186	18404.8625
2971.45984	18356.8625
2973.90632	18316.8625
2976.35131	18298.2625
2978.7948	18243.3625
2981.23681	18214.2625
2983.67732	18177.4625
2986.11635	18102.5625
2988.55388	18079.5625
2990.98993	18056.0625
2993.4245	18039.6625
2995.85758	18005.6625
2998.28917	17964.8625
3000.71928	17956.8625
3003.14791	17904.8625
3005.57506	17905.4625
3008.00073	17857.1625
3010.42493	17864.7625
3012.84764	17867.3625
3015.26888	17846.7625
3017.68865	17815.1625
3020.10694	17802.0625
3022.52376	17765.8625
3024.9391	17738.2625
