Data from AgNPs_FTO_APTES_UA_200uM_R6G_10uM_NaF_0.1M_Addition_RamanShift__40__16-46-57-543.txt Node

Date: Fri Dec 17 16:46:57 GMT 2021
User: TCL
Spectrometer: QEP01345
Trigger mode: 4
Integration Time (sec): 7.000000E0
Scans to average: 10
Electric dark correction enabled: true
Nonlinearity correction enabled: false
Boxcar width: 0
XAxis mode: Raman Shifts
Number of Pixels in Spectrum: 1044
>>>>>Begin Spectral Data<<<<<
46.04893	0.125
50.45542	0.325
54.85868	-0.975
59.25871	0.625
63.6555	40.525
68.04907	42.025
72.43941	45.425
76.82654	52.025
81.21044	54.125
85.59113	55.325
89.96862	56.725
94.34289	58.325
98.71396	60.125
103.08183	60.825
107.4465	62.825
111.80798	64.725
116.16626	66.625
120.52136	65.525
124.87327	66.625
129.222	72.325
133.56755	71.225
137.90993	79.925
142.24913	86.425
146.58517	87.725
150.91804	100.825
155.24774	114.325
159.57429	143.625
163.89768	172.025
168.21792	231.325
172.53501	306.725
176.84895	418.425
181.15975	582.225
185.46741	815.025
189.77193	1127.725
194.07331	1501.625
198.37157	1942.025
202.6667	2407.225
206.9587	2866.825
211.24758	3319.525
215.53334	3762.225
219.81599	4235.025
224.09553	4765.625
228.37195	5346.125
232.64527	5984.225
236.91549	6689.125
241.18261	7375.225
245.44663	8035.825
249.70755	8624.525
253.96539	9145.825
258.22014	9576.525
262.4718	9904.825
266.72039	10178.225
270.96589	10317.625
275.20832	10325.525
279.44768	10215.225
283.68397	10038.325
287.91719	9870.325
292.14735	9761.225
296.37445	9729.825
300.59849	9736.625
304.81948	9757.625
309.03742	9765.825
313.25231	9638.725
317.46415	9481.525
321.67296	9230.925
325.87872	9091.725
330.08145	9029.025
334.28114	9057.825
338.47781	9130.425
342.67145	9241.125
346.86207	9391.925
351.04966	9570.225
355.23424	9796.225
359.4158	9997.725
363.59435	10170.725
367.76989	10287.225
371.94243	10429.825
376.11196	10503.025
380.27849	10607.325
384.44203	10661.525
388.60257	10700.025
392.76012	10733.025
396.91468	10806.925
401.06626	10935.625
405.21485	10993.225
409.36047	10955.625
413.50311	10772.425
417.64277	10590.525
421.77947	10490.225
425.9132	10438.625
430.04396	10448.025
434.17176	10474.825
438.2966	10547.325
442.41849	10615.925
446.53742	10729.125
450.6534	10803.625
454.76644	10898.725
458.87653	10935.925
462.98368	10961.225
467.08789	10949.225
471.18916	10924.025
475.2875	10882.525
479.38291	10857.325
483.4754	10791.225
487.56496	10782.925
491.6516	10790.525
495.73531	10819.025
499.81612	10807.625
503.89401	10846.825
507.96899	10867.925
512.04106	10914.025
516.11023	11013.325
520.1765	11044.725
524.23987	11027.725
528.30034	10967.325
532.35792	10904.725
536.41261	10844.325
540.46441	10789.725
544.51333	10717.125
548.55936	10734.025
552.60252	10779.925
556.64279	10840.025
560.6802	10918.625
564.71473	10899.525
568.7464	10944.225
572.7752	10975.625
576.80114	10941.525
580.82422	10879.825
584.84444	10888.025
588.86181	10914.525
592.87633	10913.625
596.888	10958.125
600.89682	11051.925
604.9028	11457.325
608.90594	12507.625
612.90624	13864.425
616.90371	13689.025
620.89834	12015.125
624.89015	11229.225
628.87913	11175.425
632.86528	11310.125
636.84862	11514.725
640.82913	11478.425
644.80683	11276.425
648.78172	11023.825
652.75379	10879.825
656.72306	10885.725
660.68952	10980.425
664.65319	10925.925
668.61405	10753.425
672.57211	10668.225
676.52738	10637.425
680.47986	10672.625
684.42955	10633.225
688.37646	10587.325
692.32058	10622.025
696.26192	10633.525
700.20048	10649.025
704.13626	10697.725
708.06928	10667.925
711.99952	10623.625
715.927	10631.925
719.85171	10631.625
723.77365	10677.125
727.69284	10653.025
731.60928	10607.725
735.52295	10558.625
739.43388	10518.625
743.34206	10558.225
747.24749	10525.525
751.15017	10530.225
755.05012	10575.025
758.94733	10699.725
762.8418	10978.025
766.73354	11513.625
770.62254	12249.325
774.50882	12752.225
778.39237	12483.125
782.27321	11677.525
786.15132	11049.725
790.02671	10666.825
793.89938	10479.225
797.76935	10411.425
801.6366	10391.425
805.50115	10390.025
809.36299	10435.825
813.22213	10464.025
817.07857	10460.225
820.93231	10429.325
824.78336	10368.825
828.63172	10302.025
832.47738	10250.625
836.32036	10233.925
840.16066	10218.125
843.99827	10193.925
847.8332	10196.425
851.66546	10187.025
855.49504	10166.325
859.32195	10172.925
863.1462	10149.425
866.96777	10167.125
870.78668	10175.425
874.60293	10192.125
878.41652	10206.325
882.22745	10243.125
886.03573	10286.625
889.84136	10317.825
893.64433	10289.525
897.44466	10223.525
901.24235	10142.625
905.0374	10084.725
908.8298	10010.925
912.61957	9984.925
916.40671	9977.325
920.19121	9955.125
923.97308	9972.525
927.75233	9959.025
931.52895	9975.525
935.30295	9943.025
939.07433	9881.925
942.84309	9763.825
946.60924	9708.125
950.37278	9668.025
954.13371	9616.925
957.89203	9594.025
961.64774	9543.125
965.40086	9538.825
969.15137	9496.725
972.89929	9503.725
976.64461	9501.625
980.38733	9455.625
984.12747	9449.525
987.86502	9460.625
991.59999	9497.925
995.33237	9511.225
999.06217	9560.525
1002.78939	9600.025
1006.51404	9634.925
1010.23611	9722.225
1013.95561	9766.825
1017.67255	9769.725
1021.38692	9751.725
1025.09872	9725.325
1028.80796	9672.725
1032.51465	9602.325
1036.21877	9601.425
1039.92035	9611.825
1043.61937	9610.325
1047.31584	9601.925
1051.00976	9643.325
1054.70114	9617.625
1058.38998	9626.925
1062.07627	9671.425
1065.76003	9756.425
1069.44126	9804.425
1073.11995	9862.525
1076.79611	9927.025
1080.46974	9953.425
1084.14085	9907.925
1087.80943	9920.525
1091.47549	9906.325
1095.13903	9880.025
1098.80005	9813.925
1102.45857	9704.525
1106.11456	9659.225
1109.76805	9654.825
1113.41903	9708.825
1117.06751	9825.325
1120.71348	10019.225
1124.35696	10172.125
1127.99793	10375.225
1131.63641	10556.125
1135.2724	10509.825
1138.90589	10326.125
1142.5369	10162.625
1146.16542	9975.425
1149.79145	9776.625
1153.415	9646.325
1157.03607	9563.025
1160.65467	9569.925
1164.27079	9623.725
1167.88443	9809.725
1171.49561	10063.225
1175.10432	10454.825
1178.71056	11035.125
1182.31434	11576.425
1185.91565	11784.625
1189.51451	11652.125
1193.11091	11380.325
1196.70485	11016.625
1200.29634	10789.525
1203.88538	10625.425
1207.47197	10433.625
1211.05612	10159.725
1214.63782	9969.225
1218.21708	9851.225
1221.79391	9736.525
1225.36829	9689.325
1228.94024	9665.325
1232.50976	9642.725
1236.07685	9630.525
1239.6415	9640.925
1243.20374	9656.525
1246.76355	9701.725
1250.32093	9735.925
1253.8759	9790.025
1257.42845	9907.225
1260.97859	10004.425
1264.52631	10100.125
1268.07163	10212.225
1271.61453	10309.425
1275.15503	10367.025
1278.69312	10382.125
1282.22882	10358.525
1285.76211	10413.125
1289.29301	10476.325
1292.82151	10636.425
1296.34761	10815.025
1299.87133	11094.025
1303.39266	11478.425
1306.9116	12000.425
1310.42815	12541.025
1313.94233	12827.025
1317.45412	12683.125
1320.96354	12279.625
1324.47058	11874.925
1327.97525	11466.225
1331.47754	11128.125
1334.97747	10971.525
1338.47502	10949.625
1341.97022	11029.925
1345.46305	11270.125
1348.95352	11575.125
1352.44163	12055.325
1355.92738	12716.225
1359.41078	13659.225
1362.89183	14778.425
1366.37053	14931.225
1369.84688	13679.025
1373.32088	12161.925
1376.79254	11181.625
1380.26186	10607.825
1383.72883	10302.425
1387.19347	10118.325
1390.65578	9919.625
1394.11575	9701.925
1397.57339	9544.425
1401.0287	9436.125
1404.48168	9349.425
1407.93234	9307.825
1411.38068	9233.925
1414.82669	9184.125
1418.27039	9144.325
1421.71177	9119.525
1425.15083	9050.025
1428.58758	8960.925
1432.02203	8919.425
1435.45416	8927.325
1438.88399	8930.025
1442.31151	8955.425
1445.73673	8959.425
1449.15965	8950.925
1452.58027	8969.625
1455.9986	8966.525
1459.41463	8961.525
1462.82837	8996.625
1466.23982	9081.725
1469.64898	9185.625
1473.05586	9272.825
1476.46045	9325.225
1479.86276	9405.025
1483.26279	9507.125
1486.66054	9579.725
1490.05602	9705.525
1493.44922	9916.725
1496.84016	10286.825
1500.22882	10865.025
1503.61521	11693.925
1506.99934	12629.925
1510.38121	13485.825
1513.76081	13775.425
1517.13816	13252.025
1520.51324	12247.425
1523.88607	11269.425
1527.25665	10647.725
1530.62498	10271.525
1533.99105	10092.425
1537.35488	9955.325
1540.71647	9863.125
1544.07581	9814.925
1547.4329	9765.625
1550.78776	9756.725
1554.14038	9796.325
1557.49077	9821.325
1560.83892	9904.825
1564.18484	9968.825
1567.52853	10124.725
1570.86999	10260.425
1574.20922	10406.125
1577.54624	10461.125
1580.88103	10302.625
1584.2136	9997.525
1587.54395	9719.125
1590.87208	9556.725
1594.19801	9607.025
1597.52172	9776.425
1600.84321	9871.825
1604.16251	9799.225
1607.47959	9624.525
1610.79447	9402.425
1614.10715	9189.025
1617.41763	8971.625
1620.7259	8785.325
1624.03199	8689.225
1627.33587	8651.925
1630.63757	8644.125
1633.93707	8741.625
1637.23439	8931.325
1640.52951	9225.825
1643.82246	9669.425
1647.11321	10271.625
1650.40179	10842.125
1653.68819	10886.025
1656.97241	10340.525
1660.25446	9582.825
1663.53433	8987.825
1666.81203	8657.625
1670.08756	8433.125
1673.36092	8284.325
1676.63211	8159.525
1679.90115	8097.725
1683.16801	8058.525
1686.43272	8007.125
1689.69527	7986.525
1692.95567	7957.425
1696.2139	7970.025
1699.46999	7986.125
1702.72392	7961.125
1705.97571	7939.925
1709.22535	7834.725
1712.47284	7756.525
1715.71819	7727.025
1718.96139	7654.425
1722.20246	7586.925
1725.44139	7528.925
1728.67818	7480.825
1731.91284	7443.125
1735.14537	7393.225
1738.37576	7372.425
1741.60403	7339.725
1744.83017	7315.625
1748.05418	7286.825
1751.27607	7299.225
1754.49584	7292.625
1757.71349	7274.025
1760.92903	7279.325
1764.14244	7267.125
1767.35375	7259.225
1770.56294	7229.325
1773.77002	7252.025
1776.97499	7205.525
1780.17785	7184.325
1783.37861	7190.625
1786.57727	7151.025
1789.77382	7148.925
1792.96828	7117.825
1796.16064	7123.425
1799.3509	7107.225
1802.53907	7095.425
1805.72514	7057.325
1808.90913	7050.025
1812.09102	7013.725
1815.27083	7019.525
1818.44856	6989.025
1821.6242	6966.725
1824.79776	6964.725
1827.96924	6931.625
1831.13864	6940.325
1834.30597	6951.125
1837.47122	6914.025
1840.6344	6936.925
1843.7955	6921.925
1846.95454	6917.525
1850.11151	6907.825
1853.26642	6896.925
1856.41926	6886.325
1859.57004	6884.925
1862.71876	6892.825
1865.86542	6870.925
1869.01003	6850.025
1872.15258	6833.725
1875.29308	6816.525
1878.43152	6814.125
1881.56792	6833.125
1884.70227	6800.125
1887.83457	6787.025
1890.96482	6792.025
1894.09304	6757.025
1897.21921	6767.525
1900.34335	6764.325
1903.46544	6746.725
1906.58551	6741.225
1909.70353	6714.625
1912.81953	6717.125
1915.93349	6708.025
1919.04543	6710.425
1922.15534	6678.925
1925.26322	6670.325
1928.36908	6660.725
1931.47292	6627.225
1934.57473	6622.125
1937.67453	6593.225
1940.77232	6587.725
1943.86808	6570.225
1946.96184	6548.525
1950.05358	6552.925
1953.14331	6541.525
1956.23103	6496.625
1959.31675	6473.225
1962.40046	6465.225
1965.48217	6451.725
1968.56188	6441.425
1971.63959	6429.025
1974.7153	6404.925
1977.78901	6370.625
1980.86073	6355.025
1983.93046	6329.425
1986.99819	6299.325
1990.06394	6273.825
1993.1277	6264.225
1996.18947	6249.425
1999.24925	6228.225
2002.30706	6201.525
2005.36288	6195.725
2008.41672	6174.625
2011.46859	6154.125
2014.51848	6146.225
2017.56639	6107.425
2020.61233	6093.525
2023.6563	6061.025
2026.6983	6065.225
2029.73833	6054.225
2032.7764	6039.125
2035.8125	6005.225
2038.84664	5997.125
2041.87881	6013.925
2044.90903	5976.925
2047.93729	5965.125
2050.96359	5969.625
2053.98794	5948.425
2057.01034	5946.825
2060.03078	5930.325
2063.04927	5938.325
2066.06582	5918.925
2069.08042	5925.825
2072.09307	5913.625
2075.10378	5902.725
2078.11255	5899.525
2081.11938	5907.425
2084.12426	5896.325
2087.12722	5880.025
2090.12824	5886.125
2093.12732	5897.325
2096.12447	5893.825
2099.11969	5894.525
2102.11299	5904.325
2105.10435	5906.625
2108.09379	5888.825
2111.08131	5906.425
2114.0669	5888.125
2117.05057	5917.625
2120.03233	5910.025
2123.01216	5919.825
2125.99008	5915.525
2128.96609	5926.525
2131.94018	5949.725
2134.91236	5924.125
2137.88263	5925.525
2140.851	5919.225
2143.81746	5929.525
2146.78201	5934.325
2149.74466	5929.425
2152.7054	5924.025
2155.66425	5928.625
2158.6212	5933.625
2161.57625	5915.525
2164.52941	5926.125
2167.48067	5925.425
2170.43004	5902.725
2173.37752	5905.725
2176.32311	5911.225
2179.26681	5894.325
2182.20863	5894.425
2185.14856	5887.725
2188.08661	5878.325
2191.02278	5875.725
2193.95707	5875.725
2196.88948	5871.125
2199.82001	5861.425
2202.74867	5850.425
2205.67545	5848.225
2208.60037	5834.825
2211.52341	5836.625
2214.44458	5809.925
2217.36388	5809.725
2220.28132	5793.525
2223.1969	5783.825
2226.11061	5779.025
2229.02246	5749.525
2231.93245	5755.625
2234.84058	5717.125
2237.74686	5731.825
2240.65128	5719.525
2243.55385	5717.525
2246.45456	5704.425
2249.35343	5705.725
2252.25044	5688.625
2255.14561	5676.225
2258.03893	5676.625
2260.93041	5673.225
2263.82004	5641.525
2266.70783	5631.325
2269.59378	5641.925
2272.4779	5620.225
2275.36017	5589.425
2278.24061	5593.125
2281.11922	5578.525
2283.996	5569.825
2286.87094	5568.125
2289.74405	5545.125
2292.61534	5529.625
2295.4848	5525.225
2298.35243	5530.125
2301.21824	5526.325
2304.08223	5517.725
2306.94439	5493.125
2309.80474	5506.625
2312.66327	5499.725
2315.51999	5478.325
2318.37489	5498.825
2321.22797	5480.325
2324.07925	5456.525
2326.92871	5464.925
2329.77637	5442.425
2332.62222	5437.025
2335.46626	5434.725
2338.3085	5422.425
2341.14893	5402.125
2343.98756	5389.825
2346.8244	5379.425
2349.65943	5395.125
2352.49267	5387.125
2355.32411	5378.525
2358.15376	5384.525
2360.98161	5379.925
2363.80768	5381.725
2366.63195	5377.925
2369.45444	5358.225
2372.27514	5362.725
2375.09405	5348.825
2377.91118	5339.925
2380.72652	5332.525
2383.54009	5317.925
2386.35187	5302.525
2389.16188	5299.525
2391.97011	5282.525
2394.77657	5258.825
2397.58125	5266.325
2400.38416	5241.025
2403.18529	5239.525
2405.98466	5220.325
2408.78226	5215.525
2411.57809	5224.325
2414.37216	5199.925
2417.16446	5213.625
2419.955	5186.925
2422.74378	5191.525
2425.5308	5183.225
2428.31606	5187.225
2431.09956	5171.525
2433.88131	5165.625
2436.6613	5189.525
2439.43954	5166.325
2442.21603	5150.925
2444.99077	5148.825
2447.76377	5137.225
2450.53501	5133.525
2453.30451	5127.825
2456.07226	5112.825
2458.83827	5123.025
2461.60254	5108.625
2464.36507	5112.125
2467.12586	5105.725
2469.88492	5101.325
2472.64224	5094.325
2475.39782	5083.025
2478.15167	5084.125
2480.90379	5076.225
2483.65417	5066.825
2486.40283	5072.725
2489.14976	5065.825
2491.89497	5074.025
2494.63845	5074.225
2497.3802	5068.525
2500.12024	5042.725
2502.85855	5060.925
2505.59514	5028.325
2508.33002	5047.325
2511.06318	5033.225
2513.79462	5028.025
2516.52435	4996.325
2519.25237	4987.425
2521.97867	4997.025
2524.70327	4964.925
2527.42616	4961.225
2530.14734	4938.625
2532.86681	4937.725
2535.58458	4923.525
2538.30065	4927.125
2541.01501	4911.225
2543.72768	4913.425
2546.43864	4901.925
2549.14791	4902.225
2551.85548	4889.325
2554.56136	4895.925
2557.26554	4874.225
2559.96803	4870.525
2562.66883	4856.425
2565.36794	4863.425
2568.06536	4850.425
2570.7611	4847.125
2573.45514	4839.425
2576.14751	4804.325
2578.83819	4805.025
2581.52719	4789.425
2584.21451	4793.825
2586.90015	4779.925
2589.58411	4786.425
2592.2664	4773.825
2594.94701	4742.625
2597.62594	4737.325
2600.30321	4728.425
2602.9788	4716.425
2605.65273	4714.525
2608.32498	4716.125
2610.99557	4722.025
2613.66449	4689.325
2616.33175	4694.525
2618.99734	4680.525
2621.66128	4668.325
2624.32355	4662.925
2626.98416	4647.525
2629.64311	4666.625
2632.30041	4659.625
2634.95605	4640.525
2637.61004	4635.825
2640.26238	4648.925
2642.91306	4630.725
2645.56209	4610.125
2648.20948	4620.425
2650.85521	4623.625
2653.4993	4621.725
2656.14175	4604.925
2658.78255	4600.125
2661.42171	4598.725
2664.05923	4593.425
2666.6951	4589.325
2669.32934	4599.825
2671.96194	4594.125
2674.59291	4590.525
2677.22224	4586.625
2679.84993	4592.825
2682.476	4592.525
2685.10043	4593.425
2687.72324	4577.925
2690.34441	4580.625
2692.96396	4592.425
2695.58188	4583.525
2698.19818	4587.625
2700.81285	4586.325
2703.4259	4592.725
2706.03733	4615.725
2708.64714	4616.825
2711.25533	4594.825
2713.86191	4590.725
2716.46687	4597.525
2719.07021	4567.525
2721.67194	4585.525
2724.27206	4582.825
2726.87057	4572.325
2729.46747	4568.925
2732.06276	4568.525
2734.65644	4577.325
2737.24852	4564.725
2739.83899	4542.725
2742.42786	4557.025
2745.01513	4560.425
2747.60079	4537.425
2750.18486	4524.525
2752.76733	4542.725
2755.3482	4527.525
2757.92747	4508.825
2760.50515	4518.825
2763.08123	4510.325
2765.65573	4499.025
2768.22863	4489.425
2770.79994	4484.125
2773.36967	4481.525
2775.9378	4476.925
2778.50435	4472.625
2781.06932	4466.725
2783.6327	4453.925
2786.1945	4452.525
2788.75471	4432.725
2791.31335	4429.025
2793.87041	4427.025
2796.42589	4398.725
2798.97979	4404.825
2801.53212	4390.425
2804.08288	4407.525
2806.63206	4366.525
2809.17967	4374.325
2811.72571	4363.125
2814.27018	4372.825
2816.81308	4349.525
2819.35442	4339.225
2821.89419	4342.725
2824.43239	4343.925
2826.96904	4337.825
2829.50412	4332.325
2832.03763	4305.425
2834.56959	4327.925
2837.1	4324.025
2839.62884	4317.325
2842.15613	4326.425
2844.68186	4333.725
2847.20604	4321.325
2849.72867	4319.125
2852.24974	4320.725
2854.76927	4320.925
2857.28724	4311.325
2859.80367	4304.925
2862.31855	4302.025
2864.83189	4308.625
2867.34368	4280.325
2869.85393	4281.925
2872.36264	4299.325
2874.8698	4298.425
2877.37543	4290.125
2879.87952	4299.525
2882.38207	4281.925
2884.88308	4299.725
2887.38256	4297.425
2889.88051	4287.625
2892.37692	4282.025
2894.8718	4294.025
2897.36515	4300.725
2899.85698	4266.825
2902.34727	4284.525
2904.83604	4283.025
2907.32328	4287.525
2909.809	4279.125
2912.29319	4280.025
2914.77587	4287.925
2917.25702	4287.525
2919.73665	4280.525
2922.21476	4279.325
2924.69136	4271.825
2927.16644	4283.225
2929.64	4266.425
2932.11205	4274.825
2934.58258	4267.325
2937.05161	4261.025
2939.51912	4270.725
2941.98513	4247.225
2944.44962	4252.225
2946.91261	4228.425
2949.37409	4242.325
2951.83407	4237.125
2954.29254	4239.025
2956.74951	4242.425
2959.20498	4242.225
2961.65895	4221.125
2964.11142	4230.025
2966.56239	4223.125
2969.01186	4219.525
2971.45984	4202.225
2973.90632	4203.525
2976.35131	4186.325
2978.7948	4184.325
2981.23681	4165.325
2983.67732	4180.525
2986.11635	4166.825
2988.55388	4161.525
2990.98993	4150.125
2993.4245	4157.525
2995.85758	4135.025
2998.28917	4147.925
3000.71928	4141.825
3003.14791	4134.525
3005.57506	4130.425
3008.00073	4143.225
3010.42493	4128.225
3012.84764	4115.925
3015.26888	4117.925
3017.68865	4098.125
3020.10694	4096.125
3022.52376	4093.525
3024.9391	4093.725
3027.35298	4097.625
3029.76539	4077.425
3032.17632	4078.425
3034.5858	4082.725
3036.9938	4066.525
3039.40034	4077.325
3041.80542	4075.225
3044.20903	4062.125
3046.61118	4057.225
3049.01187	4060.325
3051.4111	4059.325
3053.80888	4052.225
3056.20519	4056.625
3058.60005	4049.925
3060.99345	4046.625
3063.3854	4035.625
3065.7759	4038.025
3068.16494	4036.625
3070.55254	4018.525
3072.93868	4026.225
3075.32338	4020.425
3077.70662	4014.725
3080.08842	4025.125
3082.46878	4025.125
3084.84769	4030.425
3087.22515	4036.725
3089.60118	4031.325
3091.97576	4031.525
3094.3489	4036.825
3096.72061	4022.525
3099.09087	4032.925
3101.4597	4020.325
3103.82709	4034.825
3106.19305	4028.325
3108.55757	4037.825
3110.92066	4024.325
3113.28232	4022.725
3115.64255	4007.125
3118.00134	4023.125
3120.35871	4029.825
3122.71466	4022.225
3125.06917	4010.325
3127.42226	4011.125
3129.77393	4027.025
3132.12417	4019.925
3134.47299	4026.325
3136.82039	4033.525
3139.16636	4052.725
3141.51092	4029.925
3143.85406	4065.625
3146.19579	4061.525
3148.53609	4073.825
3150.87499	4084.925
3153.21246	4097.525
3155.54853	4100.625
3157.88318	4098.825
3160.21642	4121.225
3162.54826	4100.425
3164.87868	4109.225
3167.2077	4106.825
3169.5353	4105.125
3171.86151	4126.025
3174.18631	4103.425
3176.5097	4120.825
3178.83169	4114.925
3181.15228	4118.625
3183.47147	4127.125
3185.78926	4112.525
3188.10565	4120.325
3190.42065	4120.225
3192.73424	4127.725
3195.04645	4125.225
3197.35725	4128.425
3199.66667	4126.825
3201.97469	4133.825
3204.28132	4146.425
3206.58656	4159.025
3208.8904	4152.925
3211.19287	4163.825
