Data from AgNPs_FTO_APTES_UA_100uM_R6G_10uM_NaF_0.1M_Addition_RamanShift__16__15-35-47-462.txt Node

Date: Fri Dec 17 15:35:47 GMT 2021
User: TCL
Spectrometer: QEP01345
Trigger mode: 4
Integration Time (sec): 7.000000E0
Scans to average: 10
Electric dark correction enabled: true
Nonlinearity correction enabled: false
Boxcar width: 0
XAxis mode: Raman Shifts
Number of Pixels in Spectrum: 1044
>>>>>Begin Spectral Data<<<<<
46.04893	0.025
50.45542	0.325
54.85868	-1.175
59.25871	0.625
63.6555	67.025
68.04907	67.625
72.43941	71.725
76.82654	76.125
81.21044	78.925
85.59113	80.425
89.96862	86.625
94.34289	88.125
98.71396	92.825
103.08183	91.025
107.4465	97.125
111.80798	95.625
116.16626	96.425
120.52136	98.125
124.87327	106.625
129.222	109.225
133.56755	114.125
137.90993	118.025
142.24913	127.625
146.58517	140.825
150.91804	155.825
155.24774	179.825
159.57429	219.425
163.89768	274.025
168.21792	358.125
172.53501	478.425
176.84895	653.725
181.15975	907.225
185.46741	1271.625
189.77193	1757.225
194.07331	2355.825
198.37157	3027.325
202.6667	3737.625
206.9587	4449.125
211.24758	5164.925
215.53334	5853.925
219.81599	6569.425
224.09553	7370.625
228.37195	8280.325
232.64527	9294.225
236.91549	10371.225
241.18261	11523.625
245.44663	12535.225
249.70755	13435.525
253.96539	14200.625
258.22014	14834.125
262.4718	15367.125
266.72039	15703.925
270.96589	15903.125
275.20832	15915.325
279.44768	15825.225
283.68397	15604.625
287.91719	15387.425
292.14735	15241.625
296.37445	15232.125
300.59849	15294.225
304.81948	15372.525
309.03742	15332.125
313.25231	15115.425
317.46415	14750.525
321.67296	14329.625
325.87872	14032.925
330.08145	13909.825
334.28114	13919.825
338.47781	14065.625
342.67145	14241.325
346.86207	14494.325
351.04966	14800.425
355.23424	15118.025
359.4158	15417.125
363.59435	15651.725
367.76989	15834.525
371.94243	15986.025
376.11196	16102.725
380.27849	16204.625
384.44203	16339.525
388.60257	16409.625
392.76012	16507.425
396.91468	16635.125
401.06626	16827.825
405.21485	16990.125
409.36047	16870.925
413.50311	16597.125
417.64277	16217.525
421.77947	16043.525
425.9132	15972.625
430.04396	15938.225
434.17176	15966.725
438.2966	16093.325
442.41849	16276.625
446.53742	16461.325
450.6534	16737.525
454.76644	16977.825
458.87653	17129.525
462.98368	17204.325
467.08789	17218.325
471.18916	17107.125
475.2875	17003.825
479.38291	16920.725
483.4754	16769.825
487.56496	16621.725
491.6516	16533.025
495.73531	16499.525
499.81612	16513.125
503.89401	16642.025
507.96899	16743.325
512.04106	16796.225
516.11023	16882.325
520.1765	16930.325
524.23987	16912.425
528.30034	16854.925
532.35792	16863.625
536.41261	16845.125
540.46441	16770.525
544.51333	16713.825
548.55936	16680.125
552.60252	16745.525
556.64279	16859.925
560.6802	16855.525
564.71473	16822.025
568.7464	16849.425
572.7752	16953.225
576.80114	16945.325
580.82422	16970.025
584.84444	17025.225
588.86181	17061.225
592.87633	17082.825
596.888	17146.125
600.89682	17438.125
604.9028	18356.225
608.90594	20366.425
612.90624	22539.325
616.90371	21711.825
620.89834	18410.625
624.89015	16868.625
628.87913	16633.225
632.86528	16810.825
636.84862	17069.025
640.82913	17076.725
644.80683	16697.025
648.78172	16297.025
652.75379	16172.525
656.72306	16291.425
660.68952	16590.625
664.65319	16592.025
668.61405	16378.525
672.57211	16401.125
676.52738	16528.025
680.47986	16535.025
684.42955	16358.025
688.37646	16177.125
692.32058	16082.025
696.26192	16119.125
700.20048	16185.725
704.13626	16228.225
708.06928	16252.025
711.99952	16174.225
715.927	16153.825
719.85171	16167.625
723.77365	16159.125
727.69284	16198.625
731.60928	16169.825
735.52295	16168.425
739.43388	16217.425
743.34206	16263.025
747.24749	16219.725
751.15017	16158.025
755.05012	16152.825
758.94733	16346.525
762.8418	17013.925
766.73354	18252.825
770.62254	19846.325
774.50882	20819.125
778.39237	20355.925
782.27321	18858.625
786.15132	17391.725
790.02671	16460.125
793.89938	15979.325
797.76935	15772.925
801.6366	15671.425
805.50115	15616.825
809.36299	15550.925
813.22213	15484.325
817.07857	15420.325
820.93231	15393.325
824.78336	15373.425
828.63172	15331.825
832.47738	15355.925
836.32036	15305.025
840.16066	15281.625
843.99827	15229.025
847.8332	15222.525
851.66546	15213.925
855.49504	15231.925
859.32195	15300.725
863.1462	15320.425
866.96777	15351.825
870.78668	15364.825
874.60293	15378.425
878.41652	15355.025
882.22745	15365.925
886.03573	15440.825
889.84136	15475.425
893.64433	15446.225
897.44466	15359.125
901.24235	15242.325
905.0374	15151.025
908.8298	15055.025
912.61957	15013.925
916.40671	15074.925
920.19121	15158.725
923.97308	15209.125
927.75233	15205.625
931.52895	15230.525
935.30295	15170.825
939.07433	15008.025
942.84309	14848.725
946.60924	14755.725
950.37278	14729.225
954.13371	14706.325
957.89203	14623.925
961.64774	14588.725
965.40086	14465.025
969.15137	14419.225
972.89929	14361.025
976.64461	14294.625
980.38733	14265.925
984.12747	14305.925
987.86502	14353.725
991.59999	14426.125
995.33237	14490.825
999.06217	14647.025
1002.78939	14830.825
1006.51404	15007.825
1010.23611	15145.625
1013.95561	15299.925
1017.67255	15407.925
1021.38692	15366.525
1025.09872	15208.525
1028.80796	15064.825
1032.51465	15064.125
1036.21877	15145.525
1039.92035	15189.925
1043.61937	15239.925
1047.31584	15269.825
1051.00976	15248.225
1054.70114	15261.025
1058.38998	15294.425
1062.07627	15356.325
1065.76003	15461.625
1069.44126	15593.225
1073.11995	15741.425
1076.79611	15904.325
1080.46974	15934.125
1084.14085	15929.925
1087.80943	15936.525
1091.47549	16036.425
1095.13903	16027.425
1098.80005	15953.525
1102.45857	15747.925
1106.11456	15578.725
1109.76805	15579.625
1113.41903	15632.925
1117.06751	15785.525
1120.71348	15985.025
1124.35696	16248.825
1127.99793	16558.125
1131.63641	16837.425
1135.2724	16800.625
1138.90589	16615.025
1142.5369	16345.825
1146.16542	16113.625
1149.79145	15870.525
1153.415	15702.425
1157.03607	15719.025
1160.65467	15879.825
1164.27079	16255.425
1167.88443	16742.425
1171.49561	17424.425
1175.10432	18339.425
1178.71056	19550.125
1182.31434	20677.125
1185.91565	21239.325
1189.51451	21398.425
1193.11091	21038.025
1196.70485	20293.725
1200.29634	19460.525
1203.88538	18816.925
1207.47197	18119.125
1211.05612	17485.325
1214.63782	17050.425
1218.21708	16783.325
1221.79391	16640.425
1225.36829	16576.925
1228.94024	16570.125
1232.50976	16603.725
1236.07685	16592.325
1239.6415	16633.325
1243.20374	16657.325
1246.76355	16702.625
1250.32093	16856.825
1253.8759	17059.725
1257.42845	17429.425
1260.97859	17762.425
1264.52631	18053.525
1268.07163	18454.525
1271.61453	18806.825
1275.15503	19208.125
1278.69312	19501.225
1282.22882	19723.325
1285.76211	19986.825
1289.29301	20328.225
1292.82151	20822.325
1296.34761	21420.125
1299.87133	22102.625
1303.39266	22944.525
1306.9116	23864.225
1310.42815	24801.225
1313.94233	25295.125
1317.45412	25065.425
1320.96354	24506.425
1324.47058	23877.825
1327.97525	23232.325
1331.47754	22698.325
1334.97747	22427.425
1338.47502	22438.925
1341.97022	22736.825
1345.46305	23245.625
1348.95352	23963.425
1352.44163	24909.325
1355.92738	26042.425
1359.41078	27298.025
1362.89183	28302.225
1366.37053	27826.425
1369.84688	25253.825
1373.32088	22523.025
1376.79254	20627.225
1380.26186	19631.025
1383.72883	19130.425
1387.19347	18812.725
1390.65578	18427.225
1394.11575	18100.725
1397.57339	17906.425
1401.0287	17805.125
1404.48168	17818.425
1407.93234	17800.225
1411.38068	17717.725
1414.82669	17535.225
1418.27039	17327.525
1421.71177	17083.325
1425.15083	16843.725
1428.58758	16645.525
1432.02203	16617.125
1435.45416	16712.725
1438.88399	16896.725
1442.31151	17090.625
1445.73673	17253.325
1449.15965	17424.625
1452.58027	17671.625
1455.9986	17859.125
1459.41463	18054.025
1462.82837	18370.925
1466.23982	18611.925
1469.64898	18762.325
1473.05586	18934.425
1476.46045	18966.925
1479.86276	18973.725
1483.26279	18954.325
1486.66054	19024.825
1490.05602	19162.825
1493.44922	19472.425
1496.84016	20001.125
1500.22882	20972.225
1503.61521	22280.025
1506.99934	23743.425
1510.38121	25002.725
1513.76081	25394.625
1517.13816	24563.925
1520.51324	23067.625
1523.88607	21537.225
1527.25665	20465.225
1530.62498	19875.125
1533.99105	19504.625
1537.35488	19241.325
1540.71647	19015.725
1544.07581	18834.925
1547.4329	18653.325
1550.78776	18552.625
1554.14038	18507.725
1557.49077	18605.625
1560.83892	18791.325
1564.18484	18940.325
1567.52853	19116.825
1570.86999	19284.125
1574.20922	19460.225
1577.54624	19472.925
1580.88103	19177.225
1584.2136	18626.625
1587.54395	18348.625
1590.87208	18305.825
1594.19801	18675.525
1597.52172	19282.725
1600.84321	19627.025
1604.16251	19360.125
1607.47959	18750.925
1610.79447	18082.125
1614.10715	17337.525
1617.41763	16579.125
1620.7259	16011.925
1624.03199	15645.725
1627.33587	15491.825
1630.63757	15566.725
1633.93707	15929.625
1637.23439	16569.025
1640.52951	17549.925
1643.82246	18758.725
1647.11321	20053.825
1650.40179	20886.925
1653.68819	20620.325
1656.97241	19186.025
1660.25446	17409.225
1663.53433	15967.125
1666.81203	15003.625
1670.08756	14385.325
1673.36092	13981.725
1676.63211	13688.025
1679.90115	13492.725
1683.16801	13311.325
1686.43272	13189.725
1689.69527	13100.925
1692.95567	13023.125
1696.2139	12955.025
1699.46999	12944.425
1702.72392	12870.825
1705.97571	12831.325
1709.22535	12751.425
1712.47284	12714.425
1715.71819	12714.725
1718.96139	12658.725
1722.20246	12625.825
1725.44139	12579.825
1728.67818	12507.125
1731.91284	12430.625
1735.14537	12392.125
1738.37576	12365.625
1741.60403	12325.825
1744.83017	12303.425
1748.05418	12260.225
1751.27607	12222.825
1754.49584	12203.425
1757.71349	12207.625
1760.92903	12170.025
1764.14244	12164.325
1767.35375	12156.225
1770.56294	12142.725
1773.77002	12112.925
1776.97499	12086.125
1780.17785	12065.725
1783.37861	12034.625
1786.57727	12026.025
1789.77382	11979.925
1792.96828	11959.325
1796.16064	11933.425
1799.3509	11925.925
1802.53907	11916.925
1805.72514	11884.125
1808.90913	11851.425
1812.09102	11805.825
1815.27083	11807.725
1818.44856	11773.125
1821.6242	11729.925
1824.79776	11749.425
1827.96924	11733.925
1831.13864	11716.925
1834.30597	11697.325
1837.47122	11700.425
1840.6344	11672.225
1843.7955	11679.225
1846.95454	11653.125
1850.11151	11667.825
1853.26642	11625.925
1856.41926	11644.325
1859.57004	11653.525
1862.71876	11622.925
1865.86542	11602.225
1869.01003	11604.225
1872.15258	11587.625
1875.29308	11575.125
1878.43152	11565.825
1881.56792	11572.125
1884.70227	11509.225
1887.83457	11519.425
1890.96482	11524.025
1894.09304	11489.925
1897.21921	11472.825
1900.34335	11466.425
1903.46544	11471.025
1906.58551	11448.125
1909.70353	11451.825
1912.81953	11426.725
1915.93349	11418.425
1919.04543	11374.225
1922.15534	11370.125
1925.26322	11343.925
1928.36908	11304.625
1931.47292	11276.725
1934.57473	11242.425
1937.67453	11234.725
1940.77232	11212.125
1943.86808	11194.525
1946.96184	11178.925
1950.05358	11147.925
1953.14331	11109.825
1956.23103	11077.225
1959.31675	11065.325
1962.40046	11019.425
1965.48217	11002.325
1968.56188	10963.525
1971.63959	10917.925
1974.7153	10891.625
1977.78901	10846.725
1980.86073	10838.725
1983.93046	10804.425
1986.99819	10770.925
1990.06394	10726.325
1993.1277	10698.225
1996.18947	10672.025
1999.24925	10641.425
2002.30706	10591.125
2005.36288	10590.625
2008.41672	10572.625
2011.46859	10505.125
2014.51848	10507.125
2017.56639	10451.525
2020.61233	10445.625
2023.6563	10442.425
2026.6983	10368.825
2029.73833	10364.925
2032.7764	10347.125
2035.8125	10323.225
2038.84664	10294.925
2041.87881	10300.925
2044.90903	10274.225
2047.93729	10250.825
2050.96359	10239.325
2053.98794	10228.925
2057.01034	10197.925
2060.03078	10200.725
2063.04927	10172.125
2066.06582	10192.825
2069.08042	10183.225
2072.09307	10169.625
2075.10378	10158.325
2078.11255	10156.125
2081.11938	10165.325
2084.12426	10151.225
2087.12722	10122.125
2090.12824	10150.225
2093.12732	10122.425
2096.12447	10138.425
2099.11969	10129.525
2102.11299	10140.625
2105.10435	10153.425
2108.09379	10142.225
2111.08131	10152.025
2114.0669	10158.725
2117.05057	10165.825
2120.03233	10187.725
2123.01216	10191.325
2125.99008	10183.525
2128.96609	10219.525
2131.94018	10228.825
2134.91236	10225.925
2137.88263	10223.125
2140.851	10243.025
2143.81746	10244.025
2146.78201	10243.125
2149.74466	10235.725
2152.7054	10245.625
2155.66425	10227.925
2158.6212	10243.925
2161.57625	10209.725
2164.52941	10224.325
2167.48067	10208.225
2170.43004	10191.025
2173.37752	10213.325
2176.32311	10202.225
2179.26681	10205.025
2182.20863	10204.525
2185.14856	10210.125
2188.08661	10184.425
2191.02278	10197.525
2193.95707	10165.925
2196.88948	10171.025
2199.82001	10173.025
2202.74867	10162.425
2205.67545	10134.625
2208.60037	10138.625
2211.52341	10111.325
2214.44458	10098.425
2217.36388	10092.825
2220.28132	10055.525
2223.1969	10058.125
2226.11061	10054.725
2229.02246	10028.225
2231.93245	9979.225
2234.84058	9968.725
2237.74686	9963.025
2240.65128	9946.425
2243.55385	9957.025
2246.45456	9946.325
2249.35343	9933.125
2252.25044	9913.025
2255.14561	9897.325
2258.03893	9880.225
2260.93041	9877.625
2263.82004	9843.425
2266.70783	9841.125
2269.59378	9826.125
2272.4779	9783.025
2275.36017	9739.625
2278.24061	9751.925
2281.11922	9708.325
2283.996	9714.225
2286.87094	9676.825
2289.74405	9680.425
2292.61534	9660.325
2295.4848	9639.025
2298.35243	9651.925
2301.21824	9637.825
2304.08223	9653.525
2306.94439	9635.525
2309.80474	9621.525
2312.66327	9614.025
2315.51999	9608.025
2318.37489	9604.625
2321.22797	9590.425
2324.07925	9565.925
2326.92871	9559.525
2329.77637	9580.525
2332.62222	9538.925
2335.46626	9538.925
2338.3085	9515.925
2341.14893	9519.125
2343.98756	9484.025
2346.8244	9482.125
2349.65943	9506.925
2352.49267	9493.425
2355.32411	9470.125
2358.15376	9501.725
2360.98161	9485.625
2363.80768	9467.925
2366.63195	9476.525
2369.45444	9453.225
2372.27514	9426.625
2375.09405	9410.625
2377.91118	9429.625
2380.72652	9407.325
2383.54009	9394.025
2386.35187	9368.525
2389.16188	9345.025
2391.97011	9323.125
2394.77657	9313.825
2397.58125	9276.425
2400.38416	9280.625
2403.18529	9248.125
2405.98466	9254.425
2408.78226	9246.625
2411.57809	9214.825
2414.37216	9200.625
2417.16446	9222.225
2419.955	9184.925
2422.74378	9193.325
2425.5308	9192.825
2428.31606	9172.125
2431.09956	9175.625
2433.88131	9166.525
2436.6613	9159.125
2439.43954	9148.625
2442.21603	9137.225
2444.99077	9142.425
2447.76377	9137.325
2450.53501	9129.425
2453.30451	9111.025
2456.07226	9095.225
2458.83827	9092.425
2461.60254	9082.625
2464.36507	9090.325
2467.12586	9086.625
2469.88492	9061.925
2472.64224	9072.625
2475.39782	9070.125
2478.15167	9063.425
2480.90379	9069.625
2483.65417	9061.825
2486.40283	9072.525
2489.14976	9085.625
2491.89497	9043.625
2494.63845	9057.925
2497.3802	9049.525
2500.12024	9026.725
2502.85855	9036.025
2505.59514	9000.425
2508.33002	9012.125
2511.06318	9007.725
2513.79462	8990.725
2516.52435	8956.225
2519.25237	8974.225
2521.97867	8935.325
2524.70327	8944.225
2527.42616	8902.225
2530.14734	8907.525
2532.86681	8898.125
2535.58458	8872.325
2538.30065	8869.925
2541.01501	8871.425
2543.72768	8853.025
2546.43864	8853.725
2549.14791	8833.825
2551.85548	8823.025
2554.56136	8813.825
2557.26554	8779.125
2559.96803	8776.325
2562.66883	8797.125
2565.36794	8782.425
2568.06536	8785.725
2570.7611	8764.525
2573.45514	8727.425
2576.14751	8726.125
2578.83819	8714.325
2581.52719	8718.325
2584.21451	8682.325
2586.90015	8677.125
2589.58411	8672.725
2592.2664	8666.325
2594.94701	8638.725
2597.62594	8645.025
2600.30321	8599.425
2602.9788	8590.225
2605.65273	8583.325
2608.32498	8571.625
2610.99557	8576.125
2613.66449	8564.325
2616.33175	8534.325
2618.99734	8561.125
2621.66128	8521.625
2624.32355	8525.725
2626.98416	8536.725
2629.64311	8522.625
2632.30041	8508.725
2634.95605	8517.925
2637.61004	8481.825
2640.26238	8467.625
2642.91306	8477.325
2645.56209	8463.825
2648.20948	8476.825
2650.85521	8456.825
2653.4993	8445.825
2656.14175	8446.425
2658.78255	8468.925
2661.42171	8458.025
2664.05923	8460.825
2666.6951	8434.025
2669.32934	8447.625
2671.96194	8451.825
2674.59291	8449.925
2677.22224	8408.025
2679.84993	8436.025
2682.476	8443.325
2685.10043	8448.325
2687.72324	8418.325
2690.34441	8442.425
2692.96396	8451.725
2695.58188	8421.125
2698.19818	8451.725
2700.81285	8451.125
2703.4259	8438.425
2706.03733	8438.625
2708.64714	8450.425
2711.25533	8445.325
2713.86191	8433.725
2716.46687	8466.825
2719.07021	8449.725
2721.67194	8431.425
2724.27206	8440.625
2726.87057	8426.625
2729.46747	8427.125
2732.06276	8421.025
2734.65644	8435.325
2737.24852	8423.225
2739.83899	8413.225
2742.42786	8427.425
2745.01513	8394.225
2747.60079	8393.725
2750.18486	8389.025
2752.76733	8379.725
2755.3482	8380.625
2757.92747	8390.825
2760.50515	8355.625
2763.08123	8346.225
2765.65573	8348.525
2768.22863	8347.925
2770.79994	8326.325
2773.36967	8339.125
2775.9378	8308.925
2778.50435	8302.825
2781.06932	8294.925
2783.6327	8289.925
2786.1945	8287.325
2788.75471	8277.325
2791.31335	8219.725
2793.87041	8209.725
2796.42589	8194.025
2798.97979	8181.225
2801.53212	8195.925
2804.08288	8190.725
2806.63206	8143.325
2809.17967	8152.325
2811.72571	8156.025
2814.27018	8142.725
2816.81308	8122.925
2819.35442	8094.925
2821.89419	8067.025
2824.43239	8089.625
2826.96904	8080.125
2829.50412	8084.425
2832.03763	8067.925
2834.56959	8074.325
2837.1	8054.025
2839.62884	8051.525
2842.15613	8055.225
2844.68186	8052.125
2847.20604	8058.825
2849.72867	8072.725
2852.24974	8066.125
2854.76927	8047.525
2857.28724	8035.525
2859.80367	8025.425
2862.31855	8023.225
2864.83189	8022.425
2867.34368	7985.125
2869.85393	8013.425
2872.36264	8028.925
2874.8698	8031.625
2877.37543	7986.725
2879.87952	8009.825
2882.38207	7994.425
2884.88308	7995.225
2887.38256	8013.625
2889.88051	7996.325
2892.37692	8004.325
2894.8718	7997.525
2897.36515	8011.625
2899.85698	7991.025
2902.34727	8014.725
2904.83604	7992.625
2907.32328	8004.125
2909.809	8001.925
2912.29319	8012.125
2914.77587	8018.225
2917.25702	8009.525
2919.73665	8007.125
2922.21476	8020.325
2924.69136	7999.325
2927.16644	7988.025
2929.64	7960.425
2932.11205	7972.125
2934.58258	7950.725
2937.05161	7946.425
2939.51912	7958.525
2941.98513	7944.725
2944.44962	7943.225
2946.91261	7918.625
2949.37409	7924.825
2951.83407	7924.425
2954.29254	7906.525
2956.74951	7900.325
2959.20498	7906.025
2961.65895	7884.925
2964.11142	7905.325
2966.56239	7865.925
2969.01186	7889.725
2971.45984	7861.825
2973.90632	7857.425
2976.35131	7843.125
2978.7948	7814.725
2981.23681	7814.325
2983.67732	7777.425
2986.11635	7790.725
2988.55388	7763.525
2990.98993	7761.625
2993.4245	7757.525
2995.85758	7739.125
2998.28917	7718.825
3000.71928	7701.025
3003.14791	7696.225
3005.57506	7694.025
3008.00073	7668.625
3010.42493	7658.325
3012.84764	7667.325
3015.26888	7662.225
3017.68865	7640.325
3020.10694	7646.225
3022.52376	7632.725
3024.9391	7624.025
3027.35298	7599.725
3029.76539	7576.425
3032.17632	7574.825
3034.5858	7552.025
3036.9938	7562.925
3039.40034	7560.425
3041.80542	7535.025
3044.20903	7515.325
3046.61118	7549.225
3049.01187	7534.125
3051.4111	7505.925
3053.80888	7482.725
3056.20519	7499.725
3058.60005	7491.925
3060.99345	7475.625
3063.3854	7465.925
3065.7759	7468.725
3068.16494	7448.925
3070.55254	7422.225
3072.93868	7418.525
3075.32338	7402.125
3077.70662	7416.425
3080.08842	7386.125
3082.46878	7392.625
3084.84769	7392.925
3087.22515	7391.925
3089.60118	7385.225
3091.97576	7403.525
3094.3489	7386.725
3096.72061	7388.725
3099.09087	7394.425
3101.4597	7387.425
3103.82709	7392.725
3106.19305	7400.925
3108.55757	7372.725
3110.92066	7361.925
3113.28232	7358.025
3115.64255	7343.325
3118.00134	7326.625
3120.35871	7328.825
3122.71466	7321.125
3125.06917	7314.925
3127.42226	7290.025
3129.77393	7301.225
3132.12417	7308.125
3134.47299	7324.725
3136.82039	7314.625
3139.16636	7318.125
3141.51092	7291.525
3143.85406	7322.825
3146.19579	7330.325
3148.53609	7322.925
3150.87499	7345.125
3153.21246	7337.125
3155.54853	7364.925
3157.88318	7379.825
3160.21642	7388.725
3162.54826	7375.425
3164.87868	7344.525
3167.2077	7358.625
3169.5353	7361.925
