Data from AgNPs_FTO_APTES_UA_20uM_R6G_10uM_NaF_0.1M_Addition_RamanShift__32__14-32-47-390.txt Node

Date: Fri Dec 17 14:32:47 GMT 2021
User: TCL
Spectrometer: QEP01345
Trigger mode: 4
Integration Time (sec): 7.000000E0
Scans to average: 10
Electric dark correction enabled: true
Nonlinearity correction enabled: false
Boxcar width: 0
XAxis mode: Raman Shifts
Number of Pixels in Spectrum: 1044
>>>>>Begin Spectral Data<<<<<
46.04893	-0.3125
50.45542	-0.6125
54.85868	-0.0125
59.25871	0.5875
63.6555	42.8875
68.04907	45.1875
72.43941	44.1875
76.82654	49.6875
81.21044	49.7875
85.59113	54.9875
89.96862	60.9875
94.34289	61.4875
98.71396	58.8875
103.08183	61.7875
107.4465	64.2875
111.80798	63.5875
116.16626	65.8875
120.52136	63.3875
124.87327	68.5875
129.222	69.7875
133.56755	72.6875
137.90993	76.7875
142.24913	78.9875
146.58517	82.3875
150.91804	93.5875
155.24774	103.8875
159.57429	124.3875
163.89768	152.0875
168.21792	194.8875
172.53501	255.1875
176.84895	340.2875
181.15975	471.5875
185.46741	650.2875
189.77193	891.4875
194.07331	1187.6875
198.37157	1522.2875
202.6667	1873.5875
206.9587	2233.2875
211.24758	2584.2875
215.53334	2940.4875
219.81599	3361.7875
224.09553	3828.0875
228.37195	4348.9875
232.64527	4925.3875
236.91549	5483.6875
241.18261	6020.9875
245.44663	6442.9875
249.70755	6781.5875
253.96539	7069.1875
258.22014	7293.5875
262.4718	7545.6875
266.72039	7748.5875
270.96589	7845.0875
275.20832	7875.4875
279.44768	7788.5875
283.68397	7651.0875
287.91719	7536.5875
292.14735	7535.9875
296.37445	7717.0875
300.59849	8011.8875
304.81948	8359.1875
309.03742	8624.5875
313.25231	8600.3875
317.46415	8179.1875
321.67296	7544.1875
325.87872	7047.7875
330.08145	6810.5875
334.28114	6787.0875
338.47781	6926.5875
342.67145	7111.2875
346.86207	7434.4875
351.04966	7908.7875
355.23424	8438.6875
359.4158	8849.7875
363.59435	9073.4875
367.76989	9165.7875
371.94243	9241.2875
376.11196	9225.4875
380.27849	9220.8875
384.44203	9143.6875
388.60257	9005.5875
392.76012	8925.0875
396.91468	8989.7875
401.06626	9168.8875
405.21485	9362.7875
409.36047	9191.7875
413.50311	8716.0875
417.64277	8215.6875
421.77947	7970.6875
425.9132	7810.6875
430.04396	7757.6875
434.17176	7803.5875
438.2966	7911.0875
442.41849	8080.2875
446.53742	8292.1875
450.6534	8480.8875
454.76644	8602.3875
458.87653	8631.9875
462.98368	8573.5875
467.08789	8438.5875
471.18916	8320.1875
475.2875	8146.1875
479.38291	7997.0875
483.4754	7883.8875
487.56496	7814.0875
491.6516	7764.0875
495.73531	7771.9875
499.81612	7789.5875
503.89401	7894.4875
507.96899	8012.3875
512.04106	8186.6875
516.11023	8408.6875
520.1765	8513.6875
524.23987	8472.7875
528.30034	8317.6875
532.35792	8126.9875
536.41261	7936.9875
540.46441	7756.5875
544.51333	7656.3875
548.55936	7697.5875
552.60252	7820.6875
556.64279	8010.1875
560.6802	8106.8875
564.71473	8178.0875
568.7464	8459.8875
572.7752	8633.4875
576.80114	8426.0875
580.82422	8148.2875
584.84444	8029.6875
588.86181	7994.8875
592.87633	8010.5875
596.888	8102.1875
600.89682	8404.8875
604.9028	9430.8875
608.90594	12083.3875
612.90624	15610.4875
616.90371	15158.1875
620.89834	10740.8875
624.89015	8616.2875
628.87913	8210.0875
632.86528	8280.5875
636.84862	8444.4875
640.82913	8386.4875
644.80683	8053.9875
648.78172	7816.1875
652.75379	7851.2875
656.72306	8119.2875
660.68952	8497.7875
664.65319	8424.1875
668.61405	8002.2875
672.57211	7778.9875
676.52738	7798.9875
680.47986	7783.2875
684.42955	7734.9875
688.37646	7739.2875
692.32058	7774.0875
696.26192	7832.8875
700.20048	7914.6875
704.13626	7984.6875
708.06928	7970.7875
711.99952	7905.2875
715.927	7893.4875
719.85171	7919.4875
723.77365	7938.4875
727.69284	7885.0875
731.60928	7827.9875
735.52295	7827.3875
739.43388	7873.8875
743.34206	7911.6875
747.24749	7936.5875
751.15017	7993.2875
755.05012	8105.3875
758.94733	8443.4875
762.8418	9207.6875
766.73354	10613.5875
770.62254	12241.2875
774.50882	13205.3875
778.39237	12786.4875
782.27321	11163.4875
786.15132	9516.0875
790.02671	8602.0875
793.89938	8206.1875
797.76935	8082.7875
801.6366	7992.8875
805.50115	7970.2875
809.36299	7970.8875
813.22213	7980.3875
817.07857	7940.9875
820.93231	7941.3875
824.78336	7934.1875
828.63172	7934.8875
832.47738	7954.4875
836.32036	7955.2875
840.16066	7897.0875
843.99827	7867.9875
847.8332	7847.1875
851.66546	7874.0875
855.49504	7842.9875
859.32195	7840.9875
863.1462	7831.6875
866.96777	7832.2875
870.78668	7812.2875
874.60293	7847.7875
878.41652	7898.6875
882.22745	7948.2875
886.03573	8002.0875
889.84136	8004.1875
893.64433	7960.8875
897.44466	7936.2875
901.24235	7887.1875
905.0374	7878.7875
908.8298	7836.3875
912.61957	7822.8875
916.40671	7829.8875
920.19121	7850.6875
923.97308	7906.6875
927.75233	7971.0875
931.52895	8056.5875
935.30295	7995.2875
939.07433	7841.4875
942.84309	7682.4875
946.60924	7566.8875
950.37278	7540.4875
954.13371	7491.3875
957.89203	7455.5875
961.64774	7458.9875
965.40086	7440.3875
969.15137	7424.1875
972.89929	7386.0875
976.64461	7404.2875
980.38733	7388.1875
984.12747	7394.5875
987.86502	7440.9875
991.59999	7469.2875
995.33237	7536.5875
999.06217	7632.6875
1002.78939	7773.5875
1006.51404	7933.2875
1010.23611	8078.9875
1013.95561	8199.3875
1017.67255	8189.7875
1021.38692	8125.1875
1025.09872	8014.1875
1028.80796	7934.0875
1032.51465	7960.1875
1036.21877	8028.6875
1039.92035	8083.2875
1043.61937	8102.7875
1047.31584	8104.2875
1051.00976	8054.2875
1054.70114	8030.4875
1058.38998	8005.3875
1062.07627	8023.6875
1065.76003	8083.2875
1069.44126	8131.9875
1073.11995	8200.3875
1076.79611	8283.9875
1080.46974	8376.7875
1084.14085	8546.6875
1087.80943	8756.1875
1091.47549	8826.4875
1095.13903	8689.2875
1098.80005	8426.2875
1102.45857	8213.8875
1106.11456	8165.2875
1109.76805	8231.5875
1113.41903	8386.3875
1117.06751	8661.9875
1120.71348	8988.9875
1124.35696	9292.2875
1127.99793	9598.9875
1131.63641	9596.7875
1135.2724	9240.7875
1138.90589	8875.6875
1142.5369	8607.6875
1146.16542	8417.6875
1149.79145	8299.8875
1153.415	8256.7875
1157.03607	8298.8875
1160.65467	8404.7875
1164.27079	8632.9875
1167.88443	8976.4875
1171.49561	9542.6875
1175.10432	10547.8875
1178.71056	11947.0875
1182.31434	13051.8875
1185.91565	13319.6875
1189.51451	12932.3875
1193.11091	12096.9875
1196.70485	11118.1875
1200.29634	10482.7875
1203.88538	10066.9875
1207.47197	9601.8875
1211.05612	9128.1875
1214.63782	8860.3875
1218.21708	8776.9875
1221.79391	8749.6875
1225.36829	8754.8875
1228.94024	8824.4875
1232.50976	8882.6875
1236.07685	8942.6875
1239.6415	8967.9875
1243.20374	9010.9875
1246.76355	9045.1875
1250.32093	9133.4875
1253.8759	9274.2875
1257.42845	9494.7875
1260.97859	9684.3875
1264.52631	9910.9875
1268.07163	10116.0875
1271.61453	10337.1875
1275.15503	10509.5875
1278.69312	10558.6875
1282.22882	10592.6875
1285.76211	10695.2875
1289.29301	10950.5875
1292.82151	11268.0875
1296.34761	11515.3875
1299.87133	12012.2875
1303.39266	12870.7875
1306.9116	14163.7875
1310.42815	15661.6875
1313.94233	16499.6875
1317.45412	16115.3875
1320.96354	15010.9875
1324.47058	13781.6875
1327.97525	12710.0875
1331.47754	12068.9875
1334.97747	11845.8875
1338.47502	11985.7875
1341.97022	12316.4875
1345.46305	12833.4875
1348.95352	13655.5875
1352.44163	14744.5875
1355.92738	16305.4875
1359.41078	18616.5875
1362.89183	20896.2875
1366.37053	20499.1875
1369.84688	17554.7875
1373.32088	14475.0875
1376.79254	12441.4875
1380.26186	11405.0875
1383.72883	10905.6875
1387.19347	10509.3875
1390.65578	10108.0875
1394.11575	9765.7875
1397.57339	9557.9875
1401.0287	9517.3875
1404.48168	9598.8875
1407.93234	9732.4875
1411.38068	9891.0875
1414.82669	9978.8875
1418.27039	9951.7875
1421.71177	9850.4875
1425.15083	9720.1875
1428.58758	9596.6875
1432.02203	9585.2875
1435.45416	9681.9875
1438.88399	9701.0875
1442.31151	9688.4875
1445.73673	9732.0875
1449.15965	9770.4875
1452.58027	9760.8875
1455.9986	9679.7875
1459.41463	9643.3875
1462.82837	9689.4875
1466.23982	9843.4875
1469.64898	10018.9875
1473.05586	10167.3875
1476.46045	10259.9875
1479.86276	10445.3875
1483.26279	10716.6875
1486.66054	11044.5875
1490.05602	11470.9875
1493.44922	12009.3875
1496.84016	12858.1875
1500.22882	14122.8875
1503.61521	15857.3875
1506.99934	17774.8875
1510.38121	19470.5875
1513.76081	20067.4875
1517.13816	18995.1875
1520.51324	16677.0875
1523.88607	14391.9875
1527.25665	12797.1875
1530.62498	11850.0875
1533.99105	11362.6875
1537.35488	11015.1875
1540.71647	10864.0875
1544.07581	10859.9875
1547.4329	10865.1875
1550.78776	10891.1875
1554.14038	10925.5875
1557.49077	10992.8875
1560.83892	11136.3875
1564.18484	11377.0875
1567.52853	11675.5875
1570.86999	12010.6875
1574.20922	12244.7875
1577.54624	12210.3875
1580.88103	11668.8875
1584.2136	10918.3875
1587.54395	10443.1875
1590.87208	10439.5875
1594.19801	10804.6875
1597.52172	11431.3875
1600.84321	11738.7875
1604.16251	11484.8875
1607.47959	10921.9875
1610.79447	10358.3875
1614.10715	9785.4875
1617.41763	9288.4875
1620.7259	8970.5875
1624.03199	8806.2875
1627.33587	8811.2875
1630.63757	8929.6875
1633.93707	9219.3875
1637.23439	9678.7875
1640.52951	10325.4875
1643.82246	11285.4875
1647.11321	12487.0875
1650.40179	13567.2875
1653.68819	13518.8875
1656.97241	12118.4875
1660.25446	10466.2875
1663.53433	9275.8875
1666.81203	8552.6875
1670.08756	8142.6875
1673.36092	7883.3875
1676.63211	7718.4875
1679.90115	7609.6875
1683.16801	7512.5875
1686.43272	7460.7875
1689.69527	7407.8875
1692.95567	7357.0875
1696.2139	7357.1875
1699.46999	7351.8875
1702.72392	7317.9875
1705.97571	7299.3875
1709.22535	7293.1875
1712.47284	7285.4875
1715.71819	7276.5875
1718.96139	7290.4875
1722.20246	7278.0875
1725.44139	7250.3875
1728.67818	7194.0875
1731.91284	7152.0875
1735.14537	7115.7875
1738.37576	7096.5875
1741.60403	7048.7875
1744.83017	7035.9875
1748.05418	6993.9875
1751.27607	7003.9875
1754.49584	6997.6875
1757.71349	6993.3875
1760.92903	7003.6875
1764.14244	6977.6875
1767.35375	6975.6875
1770.56294	6957.2875
1773.77002	6955.8875
1776.97499	6926.0875
1780.17785	6918.0875
1783.37861	6905.4875
1786.57727	6894.2875
1789.77382	6886.5875
1792.96828	6866.3875
1796.16064	6853.1875
1799.3509	6840.2875
1802.53907	6849.0875
1805.72514	6832.3875
1808.90913	6811.5875
1812.09102	6791.5875
1815.27083	6775.0875
1818.44856	6754.5875
1821.6242	6746.7875
1824.79776	6744.9875
1827.96924	6724.2875
1831.13864	6720.3875
1834.30597	6742.0875
1837.47122	6712.0875
1840.6344	6709.5875
1843.7955	6701.7875
1846.95454	6682.4875
1850.11151	6683.2875
1853.26642	6696.1875
1856.41926	6690.3875
1859.57004	6706.9875
1862.71876	6710.0875
1865.86542	6696.2875
1869.01003	6667.2875
1872.15258	6664.7875
1875.29308	6656.7875
1878.43152	6683.7875
1881.56792	6659.2875
1884.70227	6668.4875
1887.83457	6682.1875
1890.96482	6691.2875
1894.09304	6651.4875
1897.21921	6650.3875
1900.34335	6659.9875
1903.46544	6649.2875
1906.58551	6652.5875
1909.70353	6660.8875
1912.81953	6648.3875
1915.93349	6647.9875
1919.04543	6638.8875
1922.15534	6623.3875
1925.26322	6605.2875
1928.36908	6591.2875
1931.47292	6588.6875
1934.57473	6566.2875
1937.67453	6526.0875
1940.77232	6514.1875
1943.86808	6491.2875
1946.96184	6481.7875
1950.05358	6457.3875
1953.14331	6432.5875
1956.23103	6409.1875
1959.31675	6381.6875
1962.40046	6361.5875
1965.48217	6362.5875
1968.56188	6343.6875
1971.63959	6322.7875
1974.7153	6298.5875
1977.78901	6288.9875
1980.86073	6266.6875
1983.93046	6251.8875
1986.99819	6239.1875
1990.06394	6216.4875
1993.1277	6180.0875
1996.18947	6163.9875
1999.24925	6150.5875
2002.30706	6132.4875
2005.36288	6111.6875
2008.41672	6106.1875
2011.46859	6097.2875
2014.51848	6065.6875
2017.56639	6042.4875
2020.61233	6026.7875
2023.6563	6014.6875
2026.6983	6000.5875
2029.73833	5983.6875
2032.7764	5962.0875
2035.8125	5956.0875
2038.84664	5951.3875
2041.87881	5936.6875
2044.90903	5929.0875
2047.93729	5919.8875
2050.96359	5932.3875
2053.98794	5901.1875
2057.01034	5898.6875
2060.03078	5889.7875
2063.04927	5872.2875
2066.06582	5882.5875
2069.08042	5859.1875
2072.09307	5853.3875
2075.10378	5857.5875
2078.11255	5853.5875
2081.11938	5863.7875
2084.12426	5855.8875
2087.12722	5848.1875
2090.12824	5848.2875
2093.12732	5842.9875
2096.12447	5835.9875
2099.11969	5864.3875
2102.11299	5835.0875
2105.10435	5839.8875
2108.09379	5834.9875
2111.08131	5849.2875
2114.0669	5850.9875
2117.05057	5858.7875
2120.03233	5865.4875
2123.01216	5850.1875
2125.99008	5868.4875
2128.96609	5872.5875
2131.94018	5885.5875
2134.91236	5873.0875
2137.88263	5892.8875
2140.851	5884.0875
2143.81746	5887.7875
2146.78201	5874.3875
2149.74466	5883.6875
2152.7054	5889.2875
2155.66425	5879.3875
2158.6212	5880.3875
2161.57625	5874.4875
2164.52941	5876.0875
2167.48067	5857.5875
2170.43004	5849.7875
2173.37752	5869.9875
2176.32311	5866.6875
2179.26681	5839.1875
2182.20863	5851.5875
2185.14856	5858.0875
2188.08661	5857.7875
2191.02278	5849.5875
2193.95707	5851.3875
2196.88948	5845.9875
2199.82001	5832.5875
2202.74867	5819.6875
2205.67545	5810.8875
2208.60037	5810.5875
2211.52341	5804.1875
2214.44458	5812.1875
2217.36388	5777.5875
2220.28132	5765.3875
2223.1969	5743.4875
2226.11061	5744.7875
2229.02246	5729.1875
2231.93245	5712.4875
2234.84058	5711.7875
2237.74686	5696.5875
2240.65128	5683.6875
2243.55385	5691.2875
2246.45456	5679.0875
2249.35343	5689.4875
2252.25044	5662.1875
2255.14561	5665.6875
2258.03893	5659.3875
2260.93041	5644.0875
2263.82004	5634.7875
2266.70783	5636.4875
2269.59378	5598.5875
2272.4779	5600.3875
2275.36017	5589.3875
2278.24061	5583.8875
2281.11922	5543.9875
2283.996	5562.7875
2286.87094	5540.7875
2289.74405	5536.8875
2292.61534	5537.7875
2295.4848	5498.2875
2298.35243	5494.5875
2301.21824	5488.3875
2304.08223	5494.3875
2306.94439	5492.2875
2309.80474	5470.2875
2312.66327	5477.9875
2315.51999	5476.8875
2318.37489	5472.7875
2321.22797	5456.2875
2324.07925	5474.3875
2326.92871	5455.9875
2329.77637	5454.1875
2332.62222	5428.3875
2335.46626	5433.1875
2338.3085	5415.7875
2341.14893	5408.2875
2343.98756	5398.7875
2346.8244	5401.0875
2349.65943	5401.7875
2352.49267	5402.5875
2355.32411	5398.6875
2358.15376	5415.5875
2360.98161	5415.4875
2363.80768	5408.1875
2366.63195	5404.0875
2369.45444	5415.1875
2372.27514	5403.6875
2375.09405	5400.5875
2377.91118	5381.1875
2380.72652	5350.7875
2383.54009	5344.3875
2386.35187	5329.5875
2389.16188	5302.1875
2391.97011	5283.3875
2394.77657	5277.0875
2397.58125	5261.5875
2400.38416	5243.6875
2403.18529	5243.8875
2405.98466	5217.4875
2408.78226	5215.2875
2411.57809	5205.3875
2414.37216	5199.1875
2417.16446	5188.3875
2419.955	5178.8875
2422.74378	5176.6875
2425.5308	5173.0875
2428.31606	5158.2875
2431.09956	5173.1875
2433.88131	5149.9875
2436.6613	5144.0875
2439.43954	5165.0875
2442.21603	5148.4875
2444.99077	5152.3875
2447.76377	5143.6875
2450.53501	5143.8875
2453.30451	5131.6875
2456.07226	5122.1875
2458.83827	5135.7875
2461.60254	5108.6875
2464.36507	5114.9875
2467.12586	5108.4875
2469.88492	5089.5875
2472.64224	5111.6875
2475.39782	5110.4875
2478.15167	5096.5875
2480.90379	5092.7875
2483.65417	5106.8875
2486.40283	5121.0875
2489.14976	5118.1875
2491.89497	5102.6875
2494.63845	5109.4875
2497.3802	5112.1875
2500.12024	5084.6875
2502.85855	5091.6875
2505.59514	5074.1875
2508.33002	5068.3875
2511.06318	5050.0875
2513.79462	5039.5875
2516.52435	5020.7875
2519.25237	5006.6875
2521.97867	4984.2875
2524.70327	4993.5875
2527.42616	4967.2875
2530.14734	4965.0875
2532.86681	4952.0875
2535.58458	4943.3875
2538.30065	4944.0875
2541.01501	4941.5875
2543.72768	4939.7875
2546.43864	4921.9875
2549.14791	4930.0875
2551.85548	4911.9875
2554.56136	4879.3875
2557.26554	4896.6875
2559.96803	4896.8875
2562.66883	4888.9875
2565.36794	4866.6875
2568.06536	4873.8875
2570.7611	4851.8875
2573.45514	4843.1875
2576.14751	4823.1875
2578.83819	4827.5875
2581.52719	4828.4875
2584.21451	4803.2875
2586.90015	4793.6875
2589.58411	4798.0875
2592.2664	4789.9875
2594.94701	4768.6875
2597.62594	4772.5875
2600.30321	4777.0875
2602.9788	4750.1875
2605.65273	4747.3875
2608.32498	4751.8875
2610.99557	4740.1875
2613.66449	4733.4875
2616.33175	4719.7875
2618.99734	4722.6875
2621.66128	4722.3875
2624.32355	4719.5875
2626.98416	4699.9875
2629.64311	4709.2875
2632.30041	4694.0875
2634.95605	4682.0875
2637.61004	4674.8875
2640.26238	4669.5875
2642.91306	4648.7875
2645.56209	4650.5875
2648.20948	4646.2875
2650.85521	4639.4875
2653.4993	4637.9875
2656.14175	4627.2875
2658.78255	4632.9875
2661.42171	4638.5875
2664.05923	4642.0875
2666.6951	4646.5875
2669.32934	4647.3875
2671.96194	4661.2875
2674.59291	4655.9875
2677.22224	4646.4875
2679.84993	4661.4875
2682.476	4648.0875
2685.10043	4655.4875
2687.72324	4647.2875
2690.34441	4646.9875
2692.96396	4649.6875
2695.58188	4648.3875
2698.19818	4645.9875
2700.81285	4629.1875
2703.4259	4647.3875
2706.03733	4668.3875
2708.64714	4663.0875
2711.25533	4657.0875
2713.86191	4644.3875
2716.46687	4650.2875
2719.07021	4640.3875
2721.67194	4667.3875
2724.27206	4641.7875
2726.87057	4630.9875
2729.46747	4634.6875
2732.06276	4633.2875
2734.65644	4611.2875
2737.24852	4610.6875
2739.83899	4601.6875
2742.42786	4610.2875
2745.01513	4615.5875
2747.60079	4613.0875
2750.18486	4593.5875
2752.76733	4589.6875
2755.3482	4579.5875
2757.92747	4586.7875
2760.50515	4572.0875
2763.08123	4557.2875
2765.65573	4548.3875
2768.22863	4550.6875
2770.79994	4534.7875
2773.36967	4538.0875
2775.9378	4526.9875
2778.50435	4531.1875
2781.06932	4522.3875
2783.6327	4521.2875
2786.1945	4517.3875
2788.75471	4503.2875
2791.31335	4489.4875
2793.87041	4490.3875
2796.42589	4461.5875
2798.97979	4475.1875
2801.53212	4463.4875
2804.08288	4462.8875
2806.63206	4457.9875
2809.17967	4448.3875
2811.72571	4461.2875
2814.27018	4453.7875
2816.81308	4440.7875
2819.35442	4442.4875
2821.89419	4441.6875
2824.43239	4449.6875
2826.96904	4433.1875
2829.50412	4440.1875
2832.03763	4441.6875
2834.56959	4438.3875
2837.1	4441.0875
2839.62884	4455.3875
2842.15613	4447.4875
2844.68186	4492.9875
2847.20604	4509.0875
2849.72867	4536.2875
2852.24974	4528.3875
2854.76927	4538.6875
2857.28724	4510.3875
2859.80367	4503.0875
2862.31855	4507.2875
2864.83189	4482.7875
2867.34368	4488.7875
2869.85393	4489.2875
2872.36264	4496.0875
2874.8698	4482.5875
2877.37543	4492.3875
2879.87952	4456.7875
2882.38207	4491.1875
2884.88308	4476.1875
2887.38256	4473.8875
2889.88051	4470.0875
2892.37692	4464.3875
2894.8718	4473.8875
2897.36515	4476.2875
2899.85698	4473.0875
2902.34727	4496.6875
2904.83604	4487.2875
2907.32328	4485.3875
2909.809	4470.1875
2912.29319	4483.4875
2914.77587	4470.6875
2917.25702	4477.3875
2919.73665	4452.3875
2922.21476	4449.0875
2924.69136	4455.5875
2927.16644	4439.5875
2929.64	4444.0875
2932.11205	4417.3875
2934.58258	4401.9875
2937.05161	4395.9875
2939.51912	4396.4875
2941.98513	4383.7875
2944.44962	4381.4875
2946.91261	4331.0875
2949.37409	4335.3875
2951.83407	4311.4875
2954.29254	4316.0875
2956.74951	4306.0875
2959.20498	4298.7875
2961.65895	4275.9875
2964.11142	4288.5875
2966.56239	4271.9875
2969.01186	4256.0875
2971.45984	4253.3875
2973.90632	4241.3875
2976.35131	4230.0875
2978.7948	4226.6875
2981.23681	4207.7875
2983.67732	4197.6875
2986.11635	4178.8875
2988.55388	4163.2875
2990.98993	4167.1875
2993.4245	4149.3875
2995.85758	4150.2875
2998.28917	4144.6875
3000.71928	4143.1875
3003.14791	4130.8875
3005.57506	4126.6875
3008.00073	4115.4875
3010.42493	4098.5875
3012.84764	4113.3875
3015.26888	4105.1875
3017.68865	4098.2875
3020.10694	4083.6875
3022.52376	4088.3875
3024.9391	4069.9875
3027.35298	4074.9875
3029.76539	4077.3875
3032.17632	4050.2875
3034.5858	4044.7875
3036.9938	4034.7875
3039.40034	4048.2875
3041.80542	4041.6875
3044.20903	4035.6875
3046.61118	4020.1875
3049.01187	4018.1875
3051.4111	4017.6875
3053.80888	4003.9875
3056.20519	4008.5875
3058.60005	4003.8875
3060.99345	3988.7875
3063.3854	4001.5875
3065.7759	3983.1875
3068.16494	3977.2875
3070.55254	3970.0875
3072.93868	3967.2875
3075.32338	3944.8875
3077.70662	3938.5875
3080.08842	3931.7875
3082.46878	3943.4875
3084.84769	3931.2875
3087.22515	3932.2875
3089.60118	3923.3875
3091.97576	3927.9875
3094.3489	3935.0875
3096.72061	3907.2875
3099.09087	3928.2875
3101.4597	3906.2875
3103.82709	3920.6875
3106.19305	3919.5875
3108.55757	3910.4875
3110.92066	3894.4875
3113.28232	3914.2875
