Data from AgNPs_FTO_APTES_UA_2uM_R6G_10uM_NaF_0.1M_Addition_RamanShift__24__12-11-37-229.txt Node

Date: Fri Dec 17 12:11:37 GMT 2021
User: TCL
Spectrometer: QEP01345
Trigger mode: 4
Integration Time (sec): 7.000000E0
Scans to average: 10
Electric dark correction enabled: true
Nonlinearity correction enabled: false
Boxcar width: 0
XAxis mode: Raman Shifts
Number of Pixels in Spectrum: 1044
>>>>>Begin Spectral Data<<<<<
46.04893	-0.8875
50.45542	-0.5875
54.85868	-1.0875
59.25871	-0.5875
63.6555	118.9125
68.04907	124.2125
72.43941	129.1125
76.82654	136.7125
81.21044	141.2125
85.59113	144.4125
89.96862	153.8125
94.34289	156.4125
98.71396	159.8125
103.08183	166.7125
107.4465	171.3125
111.80798	173.7125
116.16626	179.2125
120.52136	180.5125
124.87327	194.8125
129.222	198.6125
133.56755	211.2125
137.90993	228.5125
142.24913	243.9125
146.58517	269.2125
150.91804	311.9125
155.24774	367.7125
159.57429	451.0125
163.89768	579.9125
168.21792	760.1125
172.53501	1024.6125
176.84895	1426.3125
181.15975	1987.7125
185.46741	2775.1125
189.77193	3818.0125
194.07331	5120.4125
198.37157	6595.2125
202.6667	8147.6125
206.9587	9687.3125
211.24758	11191.2125
215.53334	12728.4125
219.81599	14349.3125
224.09553	16155.1125
228.37195	18187.9125
232.64527	20430.3125
236.91549	22718.4125
241.18261	25041.7125
245.44663	27127.1125
249.70755	28979.0125
253.96539	30667.5125
258.22014	32019.3125
262.4718	33224.6125
266.72039	34103.8125
270.96589	34617.7125
275.20832	34769.7125
279.44768	34572.6125
283.68397	34148.7125
287.91719	33750.5125
292.14735	33594.5125
296.37445	33606.8125
300.59849	33909.2125
304.81948	34372.9125
309.03742	34609.8125
313.25231	34412.9125
317.46415	33568.8125
321.67296	32362.1125
325.87872	31347.9125
330.08145	30917.5125
334.28114	30933.4125
338.47781	31306.2125
342.67145	31844.0125
346.86207	32597.4125
351.04966	33599.4125
355.23424	34840.7125
359.4158	35797.5125
363.59435	36448.2125
367.76989	36778.9125
371.94243	37009.0125
376.11196	37124.3125
380.27849	37206.0125
384.44203	37244.3125
388.60257	37287.1125
392.76012	37463.1125
396.91468	37890.5125
401.06626	38647.7125
405.21485	39252.2125
409.36047	39096.5125
413.50311	38339.1125
417.64277	37616.1125
421.77947	37303.6125
425.9132	37296.8125
430.04396	37442.2125
434.17176	37632.3125
438.2966	38020.1125
442.41849	38657.3125
446.53742	39592.5125
450.6534	40614.0125
454.76644	41452.4125
458.87653	41820.1125
462.98368	41833.9125
467.08789	41313.5125
471.18916	40520.1125
475.2875	39683.4125
479.38291	39091.2125
483.4754	38580.3125
487.56496	38165.8125
491.6516	37802.2125
495.73531	37540.3125
499.81612	37462.6125
503.89401	37655.1125
507.96899	37862.7125
512.04106	38053.1125
516.11023	38212.1125
520.1765	38358.7125
524.23987	38229.3125
528.30034	37879.0125
532.35792	37436.2125
536.41261	37000.4125
540.46441	36544.5125
544.51333	36434.4125
548.55936	36694.8125
552.60252	37273.5125
556.64279	37731.7125
560.6802	38042.5125
564.71473	38266.1125
568.7464	38865.2125
572.7752	39531.1125
576.80114	39626.4125
580.82422	39586.5125
584.84444	39718.7125
588.86181	39923.9125
592.87633	40307.1125
596.888	40796.4125
600.89682	41658.0125
604.9028	44208.3125
608.90594	50188.9125
612.90624	56726.1125
616.90371	54213.3125
620.89834	44388.3125
624.89015	39896.8125
628.87913	39191.8125
632.86528	38989.9125
636.84862	38917.4125
640.82913	38316.8125
644.80683	37396.1125
648.78172	36728.0125
652.75379	36688.0125
656.72306	37437.0125
660.68952	38332.1125
664.65319	38222.7125
668.61405	37452.1125
672.57211	37120.1125
676.52738	37089.5125
680.47986	37143.0125
684.42955	36989.9125
688.37646	37012.7125
692.32058	37183.3125
696.26192	37513.2125
700.20048	37902.7125
704.13626	38077.2125
708.06928	37854.6125
711.99952	37565.4125
715.927	37445.2125
719.85171	37411.0125
723.77365	37328.5125
727.69284	36986.7125
731.60928	36774.3125
735.52295	36746.0125
739.43388	36866.6125
743.34206	37074.1125
747.24749	37252.8125
751.15017	37561.8125
755.05012	38101.4125
758.94733	39146.3125
762.8418	41216.2125
766.73354	44526.3125
770.62254	48018.0125
774.50882	49416.3125
778.39237	47494.7125
782.27321	43731.4125
786.15132	40444.4125
790.02671	38519.8125
793.89938	37650.6125
797.76935	37306.6125
801.6366	37218.0125
805.50115	36995.4125
809.36299	36891.2125
813.22213	36698.9125
817.07857	36654.6125
820.93231	36615.2125
824.78336	36639.1125
828.63172	36715.5125
832.47738	36856.6125
836.32036	36931.1125
840.16066	37013.0125
843.99827	37140.3125
847.8332	37093.0125
851.66546	36911.6125
855.49504	36847.1125
859.32195	36771.9125
863.1462	36656.7125
866.96777	36506.4125
870.78668	36438.2125
874.60293	36471.6125
878.41652	36549.3125
882.22745	36653.3125
886.03573	36777.8125
889.84136	36792.3125
893.64433	36642.8125
897.44466	36444.8125
901.24235	36435.9125
905.0374	36384.0125
908.8298	36343.1125
912.61957	36385.6125
916.40671	36550.6125
920.19121	36973.7125
923.97308	37462.0125
927.75233	37706.8125
931.52895	37750.0125
935.30295	37497.7125
939.07433	36906.7125
942.84309	36374.8125
946.60924	36194.2125
950.37278	36025.6125
954.13371	35757.0125
957.89203	35569.9125
961.64774	35400.3125
965.40086	35323.9125
969.15137	35173.6125
972.89929	35121.7125
976.64461	35180.5125
980.38733	35233.3125
984.12747	35427.1125
987.86502	35755.5125
991.59999	36243.2125
995.33237	36876.1125
999.06217	38063.2125
1002.78939	39357.2125
1006.51404	40305.8125
1010.23611	40858.0125
1013.95561	41250.6125
1017.67255	41164.0125
1021.38692	40721.2125
1025.09872	40537.9125
1028.80796	41012.1125
1032.51465	42226.4125
1036.21877	43381.3125
1039.92035	43455.4125
1043.61937	42801.6125
1047.31584	41526.0125
1051.00976	40125.7125
1054.70114	39320.1125
1058.38998	39034.6125
1062.07627	39182.4125
1065.76003	39294.3125
1069.44126	39492.4125
1073.11995	39820.3125
1076.79611	40192.8125
1080.46974	40470.8125
1084.14085	40860.0125
1087.80943	41252.8125
1091.47549	41340.8125
1095.13903	40947.1125
1098.80005	40230.5125
1102.45857	39554.3125
1106.11456	39154.1125
1109.76805	39201.4125
1113.41903	39548.7125
1117.06751	40014.1125
1120.71348	40494.2125
1124.35696	41133.9125
1127.99793	41604.1125
1131.63641	41778.2125
1135.2724	41208.4125
1138.90589	40545.2125
1142.5369	40109.0125
1146.16542	39769.7125
1149.79145	39613.6125
1153.415	39685.6125
1157.03607	39994.6125
1160.65467	40600.8125
1164.27079	41608.9125
1167.88443	43183.5125
1171.49561	45459.0125
1175.10432	48728.4125
1178.71056	53055.8125
1182.31434	57099.8125
1185.91565	59419.3125
1189.51451	59428.9125
1193.11091	57428.2125
1196.70485	54327.4125
1200.29634	51657.3125
1203.88538	49607.1125
1207.47197	47930.3125
1211.05612	46530.1125
1214.63782	45792.9125
1218.21708	45689.3125
1221.79391	45972.4125
1225.36829	46252.8125
1228.94024	46343.7125
1232.50976	46225.5125
1236.07685	46061.2125
1239.6415	45913.0125
1243.20374	45877.6125
1246.76355	46002.2125
1250.32093	46518.1125
1253.8759	47481.4125
1257.42845	48736.3125
1260.97859	49835.2125
1264.52631	50801.7125
1268.07163	51840.0125
1271.61453	53027.0125
1275.15503	54444.2125
1278.69312	55682.9125
1282.22882	56726.8125
1285.76211	57563.7125
1289.29301	58451.7125
1292.82151	59391.0125
1296.34761	60588.0125
1299.87133	62520.6125
1303.39266	65567.0125
1306.9116	70061.4125
1310.42815	75035.4125
1313.94233	78443.9125
1317.45412	78615.7125
1320.96354	76557.1125
1324.47058	73856.6125
1327.97525	71236.1125
1331.47754	69581.8125
1334.97747	69051.7125
1338.47502	69462.1125
1341.97022	70275.6125
1345.46305	70474.1125
1348.95352	70476.1125
1352.44163	70900.2125
1355.92738	72959.7125
1359.41078	77451.1125
1362.89183	82179.2125
1366.37053	80936.1125
1369.84688	73419.9125
1373.32088	65076.2125
1376.79254	59556.8125
1380.26186	56883.0125
1383.72883	55631.7125
1387.19347	54597.4125
1390.65578	53604.8125
1394.11575	53011.4125
1397.57339	53165.9125
1401.0287	53789.8125
1404.48168	54834.3125
1407.93234	56038.5125
1411.38068	57038.8125
1414.82669	57137.9125
1418.27039	56273.0125
1421.71177	54793.5125
1425.15083	53500.9125
1428.58758	52643.4125
1432.02203	52476.3125
1435.45416	52703.9125
1438.88399	53107.1125
1442.31151	53389.6125
1445.73673	53663.4125
1449.15965	54033.6125
1452.58027	54132.7125
1455.9986	53922.5125
1459.41463	53867.8125
1462.82837	54260.7125
1466.23982	55175.1125
1469.64898	56149.9125
1473.05586	56941.4125
1476.46045	57322.3125
1479.86276	57770.3125
1483.26279	58301.7125
1486.66054	58974.6125
1490.05602	59857.4125
1493.44922	60845.4125
1496.84016	61913.9125
1500.22882	63352.6125
1503.61521	65437.3125
1506.99934	68295.1125
1510.38121	71246.3125
1513.76081	72773.1125
1517.13816	71156.9125
1520.51324	67117.8125
1523.88607	62861.2125
1527.25665	59784.4125
1530.62498	57929.3125
1533.99105	56799.6125
1537.35488	56084.7125
1540.71647	55617.6125
1544.07581	55324.4125
1547.4329	55019.1125
1550.78776	54676.0125
1554.14038	54463.4125
1557.49077	54552.1125
1560.83892	54684.7125
1564.18484	54869.6125
1567.52853	54863.0125
1570.86999	54883.8125
1574.20922	55124.4125
1577.54624	55313.5125
1580.88103	54828.8125
1584.2136	54345.5125
1587.54395	54943.0125
1590.87208	56836.5125
1594.19801	60047.6125
1597.52172	63473.3125
1600.84321	64818.2125
1604.16251	62989.8125
1607.47959	59103.8125
1610.79447	55018.4125
1614.10715	51179.8125
1617.41763	48115.1125
1620.7259	46083.6125
1624.03199	45220.4125
1627.33587	45315.4125
1630.63757	46570.7125
1633.93707	48663.1125
1637.23439	51606.6125
1640.52951	54983.2125
1643.82246	58506.1125
1647.11321	61159.8125
1650.40179	61988.4125
1653.68819	59300.6125
1656.97241	53615.2125
1660.25446	47697.5125
1663.53433	43350.7125
1666.81203	40594.9125
1670.08756	38898.4125
1673.36092	37829.9125
1676.63211	37028.8125
1679.90115	36541.7125
1683.16801	36166.2125
1686.43272	35910.6125
1689.69527	35674.5125
1692.95567	35496.2125
1696.2139	35393.1125
1699.46999	35303.6125
1702.72392	35237.4125
1705.97571	35257.6125
1709.22535	35254.8125
1712.47284	35214.1125
1715.71819	35232.2125
1718.96139	35203.3125
1722.20246	35122.5125
1725.44139	35000.7125
1728.67818	34846.8125
1731.91284	34694.4125
1735.14537	34534.6125
1738.37576	34438.1125
1741.60403	34290.4125
1744.83017	34214.4125
1748.05418	34173.2125
1751.27607	34118.4125
1754.49584	34022.2125
1757.71349	34054.6125
1760.92903	34028.3125
1764.14244	34025.1125
1767.35375	34046.9125
1770.56294	33962.8125
1773.77002	33994.5125
1776.97499	33931.1125
1780.17785	33907.1125
1783.37861	33923.7125
1786.57727	33839.8125
1789.77382	33769.2125
1792.96828	33787.4125
1796.16064	33703.6125
1799.3509	33711.2125
1802.53907	33692.6125
1805.72514	33630.9125
1808.90913	33539.4125
1812.09102	33532.5125
1815.27083	33465.8125
1818.44856	33404.0125
1821.6242	33404.3125
1824.79776	33393.6125
1827.96924	33360.6125
1831.13864	33344.7125
1834.30597	33410.7125
1837.47122	33386.3125
1840.6344	33385.2125
1843.7955	33419.9125
1846.95454	33392.3125
1850.11151	33428.8125
1853.26642	33405.6125
1856.41926	33455.3125
1859.57004	33487.5125
1862.71876	33425.2125
1865.86542	33450.3125
1869.01003	33455.8125
1872.15258	33514.8125
1875.29308	33531.4125
1878.43152	33482.1125
1881.56792	33527.5125
1884.70227	33581.2125
1887.83457	33612.2125
1890.96482	33613.8125
1894.09304	33602.6125
1897.21921	33583.6125
1900.34335	33626.6125
1903.46544	33610.1125
1906.58551	33600.9125
1909.70353	33592.2125
1912.81953	33630.0125
1915.93349	33539.2125
1919.04543	33522.1125
1922.15534	33464.8125
1925.26322	33379.0125
1928.36908	33290.6125
1931.47292	33216.5125
1934.57473	33081.4125
1937.67453	32991.0125
1940.77232	32827.9125
1943.86808	32685.0125
1946.96184	32616.0125
1950.05358	32503.8125
1953.14331	32403.4125
1956.23103	32285.1125
1959.31675	32200.4125
1962.40046	32123.4125
1965.48217	32028.9125
1968.56188	31960.7125
1971.63959	31835.7125
1974.7153	31709.1125
1977.78901	31620.0125
1980.86073	31515.9125
1983.93046	31447.1125
1986.99819	31352.0125
1990.06394	31287.7125
1993.1277	31178.3125
1996.18947	31054.2125
1999.24925	30988.2125
2002.30706	30926.0125
2005.36288	30804.4125
2008.41672	30737.7125
2011.46859	30736.3125
2014.51848	30610.0125
2017.56639	30523.5125
2020.61233	30471.8125
2023.6563	30403.7125
2026.6983	30378.6125
2029.73833	30307.4125
2032.7764	30276.4125
2035.8125	30195.7125
2038.84664	30193.8125
2041.87881	30149.8125
2044.90903	30126.1125
2047.93729	30046.8125
2050.96359	30065.4125
2053.98794	30006.3125
2057.01034	29974.5125
2060.03078	29955.7125
2063.04927	29926.0125
2066.06582	29898.8125
2069.08042	29858.2125
2072.09307	29835.2125
2075.10378	29796.3125
2078.11255	29778.7125
2081.11938	29738.8125
2084.12426	29730.3125
2087.12722	29694.6125
2090.12824	29729.6125
2093.12732	29730.6125
2096.12447	29755.2125
2099.11969	29764.4125
2102.11299	29723.4125
2105.10435	29784.0125
2108.09379	29774.9125
2111.08131	29816.4125
2114.0669	29862.4125
2117.05057	29833.6125
2120.03233	29853.4125
2123.01216	29883.5125
2125.99008	29898.0125
2128.96609	29946.9125
2131.94018	29957.1125
2134.91236	29981.0125
2137.88263	30000.8125
2140.851	29986.9125
2143.81746	30026.9125
2146.78201	30055.4125
2149.74466	30037.8125
2152.7054	30032.7125
2155.66425	30069.9125
2158.6212	30100.0125
2161.57625	30052.2125
2164.52941	30049.0125
2167.48067	30043.3125
2170.43004	30021.4125
2173.37752	30053.2125
2176.32311	30065.8125
2179.26681	30069.0125
2182.20863	30077.3125
2185.14856	30092.1125
2188.08661	30082.8125
2191.02278	30088.0125
2193.95707	30081.8125
2196.88948	30105.2125
2199.82001	30092.8125
2202.74867	30091.9125
2205.67545	30087.3125
2208.60037	30109.9125
2211.52341	30080.9125
2214.44458	30045.7125
2217.36388	29942.2125
2220.28132	29934.5125
2223.1969	29878.3125
2226.11061	29884.5125
2229.02246	29826.1125
2231.93245	29737.6125
2234.84058	29692.6125
2237.74686	29614.8125
2240.65128	29611.8125
2243.55385	29561.0125
2246.45456	29527.9125
2249.35343	29496.5125
2252.25044	29480.4125
2255.14561	29423.2125
2258.03893	29439.5125
2260.93041	29375.1125
2263.82004	29300.8125
2266.70783	29267.7125
2269.59378	29198.9125
2272.4779	29137.9125
2275.36017	29073.0125
2278.24061	29026.0125
2281.11922	28956.7125
2283.996	28915.9125
2286.87094	28927.4125
2289.74405	28837.0125
2292.61534	28854.9125
2295.4848	28863.8125
2298.35243	28879.0125
2301.21824	28862.9125
2304.08223	28899.9125
2306.94439	28890.9125
2309.80474	28880.8125
2312.66327	28879.4125
2315.51999	28923.6125
2318.37489	28923.6125
2321.22797	28926.9125
2324.07925	28895.5125
2326.92871	28844.7125
2329.77637	28778.6125
2332.62222	28782.1125
2335.46626	28790.4125
2338.3085	28817.6125
2341.14893	28813.3125
2343.98756	28840.8125
2346.8244	28856.7125
2349.65943	28828.5125
2352.49267	28822.5125
2355.32411	28814.7125
2358.15376	28777.1125
2360.98161	28767.4125
2363.80768	28689.9125
2366.63195	28662.5125
2369.45444	28609.5125
2372.27514	28571.2125
2375.09405	28507.7125
2377.91118	28450.8125
2380.72652	28379.2125
2383.54009	28272.7125
2386.35187	28289.9125
2389.16188	28206.0125
2391.97011	28171.8125
2394.77657	28160.5125
2397.58125	28124.1125
2400.38416	28107.9125
2403.18529	28040.3125
2405.98466	27979.3125
2408.78226	27888.4125
2411.57809	27876.2125
2414.37216	27824.2125
2417.16446	27814.0125
2419.955	27735.1125
2422.74378	27692.9125
2425.5308	27688.7125
2428.31606	27713.7125
2431.09956	27674.8125
2433.88131	27617.3125
2436.6613	27657.3125
2439.43954	27638.9125
2442.21603	27650.2125
2444.99077	27646.7125
2447.76377	27663.3125
2450.53501	27572.8125
2453.30451	27611.6125
2456.07226	27551.6125
2458.83827	27548.5125
2461.60254	27557.5125
2464.36507	27520.5125
2467.12586	27522.5125
2469.88492	27507.7125
2472.64224	27507.5125
2475.39782	27478.4125
2478.15167	27548.2125
2480.90379	27533.4125
2483.65417	27550.9125
2486.40283	27558.8125
2489.14976	27602.4125
2491.89497	27573.9125
2494.63845	27581.5125
2497.3802	27594.1125
2500.12024	27593.8125
2502.85855	27600.7125
2505.59514	27584.3125
2508.33002	27552.6125
2511.06318	27471.2125
2513.79462	27459.3125
2516.52435	27413.4125
2519.25237	27413.4125
2521.97867	27400.2125
2524.70327	27362.2125
2527.42616	27347.8125
2530.14734	27327.4125
2532.86681	27279.2125
2535.58458	27303.7125
2538.30065	27233.7125
2541.01501	27235.1125
2543.72768	27218.1125
2546.43864	27179.3125
2549.14791	27124.6125
2551.85548	27123.6125
2554.56136	27079.2125
2557.26554	27082.2125
2559.96803	27033.3125
2562.66883	27046.2125
2565.36794	26988.6125
2568.06536	27043.0125
2570.7611	27017.5125
2573.45514	26944.4125
2576.14751	26959.8125
2578.83819	26919.0125
2581.52719	26904.9125
2584.21451	26957.4125
2586.90015	26925.0125
2589.58411	26887.4125
2592.2664	26870.7125
2594.94701	26852.1125
2597.62594	26836.1125
2600.30321	26798.0125
2602.9788	26813.1125
2605.65273	26761.8125
2608.32498	26828.1125
2610.99557	26779.5125
2613.66449	26785.7125
2616.33175	26754.4125
2618.99734	26775.9125
2621.66128	26769.6125
2624.32355	26784.7125
2626.98416	26778.3125
2629.64311	26745.6125
2632.30041	26782.1125
2634.95605	26731.0125
2637.61004	26679.9125
2640.26238	26666.1125
2642.91306	26628.8125
2645.56209	26615.3125
2648.20948	26560.2125
2650.85521	26543.0125
2653.4993	26533.7125
2656.14175	26499.7125
2658.78255	26540.6125
2661.42171	26567.3125
2664.05923	26587.1125
2666.6951	26594.3125
2669.32934	26593.9125
2671.96194	26621.2125
2674.59291	26630.8125
2677.22224	26659.6125
2679.84993	26660.6125
2682.476	26645.9125
2685.10043	26630.8125
2687.72324	26571.3125
2690.34441	26587.3125
2692.96396	26567.7125
2695.58188	26572.1125
2698.19818	26544.9125
2700.81285	26568.1125
2703.4259	26514.5125
2706.03733	26570.2125
2708.64714	26544.4125
2711.25533	26585.9125
2713.86191	26537.8125
2716.46687	26568.9125
2719.07021	26539.0125
2721.67194	26548.2125
2724.27206	26559.0125
2726.87057	26579.6125
2729.46747	26556.7125
2732.06276	26549.8125
2734.65644	26557.0125
2737.24852	26571.7125
2739.83899	26525.9125
2742.42786	26614.6125
2745.01513	26528.4125
2747.60079	26517.7125
2750.18486	26542.1125
2752.76733	26544.6125
2755.3482	26548.0125
2757.92747	26508.9125
2760.50515	26445.6125
2763.08123	26473.3125
2765.65573	26433.4125
2768.22863	26394.6125
2770.79994	26414.6125
2773.36967	26433.2125
2775.9378	26344.7125
2778.50435	26391.6125
2781.06932	26321.0125
2783.6327	26345.8125
2786.1945	26332.8125
2788.75471	26299.5125
2791.31335	26207.6125
2793.87041	26215.4125
2796.42589	26122.7125
2798.97979	26178.1125
2801.53212	26084.4125
2804.08288	26078.7125
2806.63206	26003.2125
2809.17967	25972.0125
2811.72571	25921.1125
2814.27018	25953.7125
2816.81308	25911.5125
2819.35442	25909.9125
2821.89419	25820.6125
2824.43239	25857.8125
2826.96904	25803.2125
2829.50412	25821.2125
2832.03763	25773.3125
2834.56959	25830.0125
2837.1	25743.1125
2839.62884	25757.0125
2842.15613	25687.8125
2844.68186	25711.4125
2847.20604	25725.2125
2849.72867	25744.7125
2852.24974	25725.2125
2854.76927	25687.5125
2857.28724	25624.2125
2859.80367	25611.2125
2862.31855	25575.3125
2864.83189	25569.5125
2867.34368	25529.5125
2869.85393	25559.1125
2872.36264	25536.4125
2874.8698	25551.3125
2877.37543	25567.1125
2879.87952	25555.8125
2882.38207	25582.5125
2884.88308	25535.1125
2887.38256	25618.6125
2889.88051	25540.5125
2892.37692	25588.4125
2894.8718	25577.0125
2897.36515	25619.3125
2899.85698	25591.7125
2902.34727	25684.8125
2904.83604	25662.9125
2907.32328	25703.9125
2909.809	25630.1125
2912.29319	25717.9125
2914.77587	25662.6125
2917.25702	25649.7125
2919.73665	25628.0125
2922.21476	25618.3125
2924.69136	25622.4125
2927.16644	25587.5125
2929.64	25547.8125
2932.11205	25523.4125
2934.58258	25457.6125
2937.05161	25493.9125
2939.51912	25476.0125
2941.98513	25507.2125
2944.44962	25381.3125
2946.91261	25347.0125
2949.37409	25351.7125
2951.83407	25344.7125
2954.29254	25331.9125
2956.74951	25287.6125
2959.20498	25271.2125
2961.65895	25223.3125
2964.11142	25214.7125
2966.56239	25161.3125
2969.01186	25138.6125
2971.45984	25061.8125
2973.90632	25013.6125
2976.35131	24983.9125
2978.7948	24935.7125
2981.23681	24851.7125
2983.67732	24822.6125
2986.11635	24749.0125
2988.55388	24718.6125
2990.98993	24688.3125
2993.4245	24628.6125
2995.85758	24589.9125
2998.28917	24554.1125
3000.71928	24518.6125
3003.14791	24504.6125
3005.57506	24489.1125
3008.00073	24452.9125
3010.42493	24406.8125
3012.84764	24329.0125
3015.26888	24339.8125
3017.68865	24267.4125
3020.10694	24281.8125
3022.52376	24193.6125
