Data from AgNPs_FTO_APTES_UA_200uM_R6G_10uM_NaF_0.1M_Addition_RamanShift__2__16-02-37-492.txt Node

Date: Fri Dec 17 16:02:37 GMT 2021
User: TCL
Spectrometer: QEP01345
Trigger mode: 4
Integration Time (sec): 7.000000E0
Scans to average: 10
Electric dark correction enabled: true
Nonlinearity correction enabled: false
Boxcar width: 0
XAxis mode: Raman Shifts
Number of Pixels in Spectrum: 1044
>>>>>Begin Spectral Data<<<<<
46.04893	-0.325
50.45542	0.375
54.85868	-0.925
59.25871	-0.125
63.6555	58.575
68.04907	60.175
72.43941	62.575
76.82654	68.875
81.21044	70.575
85.59113	74.375
89.96862	77.975
94.34289	80.375
98.71396	83.575
103.08183	87.075
107.4465	87.975
111.80798	86.875
116.16626	90.875
120.52136	84.775
124.87327	89.075
129.222	93.875
133.56755	98.475
137.90993	103.775
142.24913	108.775
146.58517	115.675
150.91804	128.775
155.24774	146.575
159.57429	179.575
163.89768	214.075
168.21792	279.975
172.53501	373.175
176.84895	507.275
181.15975	707.475
185.46741	981.275
189.77193	1349.175
194.07331	1810.275
198.37157	2320.575
202.6667	2880.675
206.9587	3434.175
211.24758	3973.775
215.53334	4505.175
219.81599	5075.475
224.09553	5721.175
228.37195	6413.075
232.64527	7203.375
236.91549	8042.975
241.18261	8872.975
245.44663	9658.975
249.70755	10335.575
253.96539	10908.375
258.22014	11381.375
262.4718	11839.675
266.72039	12103.775
270.96589	12232.875
275.20832	12268.075
279.44768	12117.275
283.68397	11905.675
287.91719	11692.175
292.14735	11586.175
296.37445	11540.775
300.59849	11621.275
304.81948	11733.675
309.03742	11768.975
313.25231	11663.175
317.46415	11400.075
321.67296	11043.475
325.87872	10824.075
330.08145	10707.475
334.28114	10735.375
338.47781	10832.775
342.67145	10960.375
346.86207	11199.475
351.04966	11461.975
355.23424	11766.175
359.4158	12000.775
363.59435	12232.875
367.76989	12384.475
371.94243	12494.175
376.11196	12596.375
380.27849	12681.075
384.44203	12724.575
388.60257	12753.575
392.76012	12843.475
396.91468	12921.675
401.06626	13134.675
405.21485	13244.275
409.36047	13168.375
413.50311	12930.375
417.64277	12659.675
421.77947	12465.475
425.9132	12361.575
430.04396	12348.275
434.17176	12361.475
438.2966	12406.675
442.41849	12512.375
446.53742	12653.875
450.6534	12794.475
454.76644	12921.375
458.87653	12995.475
462.98368	13009.275
467.08789	12997.975
471.18916	12933.675
475.2875	12881.975
479.38291	12754.875
483.4754	12709.975
487.56496	12655.275
491.6516	12653.775
495.73531	12658.875
499.81612	12637.675
503.89401	12688.275
507.96899	12701.575
512.04106	12788.975
516.11023	12876.075
520.1765	12911.175
524.23987	12915.675
528.30034	12836.575
532.35792	12744.275
536.41261	12663.275
540.46441	12558.675
544.51333	12519.375
548.55936	12553.075
552.60252	12639.875
556.64279	12767.775
560.6802	12819.575
564.71473	12833.375
568.7464	12923.275
572.7752	13004.375
576.80114	12976.675
580.82422	12968.775
584.84444	13041.975
588.86181	13119.275
592.87633	13109.275
596.888	13068.375
600.89682	13213.775
604.9028	13822.875
608.90594	15474.575
612.90624	17499.275
616.90371	17104.575
620.89834	14473.175
624.89015	13175.875
628.87913	13028.475
632.86528	13166.575
636.84862	13387.775
640.82913	13355.875
644.80683	13017.575
648.78172	12726.075
652.75379	12639.875
656.72306	12756.775
660.68952	12955.775
664.65319	12901.775
668.61405	12667.575
672.57211	12522.175
676.52738	12486.075
680.47986	12504.575
684.42955	12455.675
688.37646	12427.775
692.32058	12432.075
696.26192	12507.075
700.20048	12548.775
704.13626	12595.175
708.06928	12592.475
711.99952	12546.875
715.927	12515.875
719.85171	12524.875
723.77365	12552.875
727.69284	12507.575
731.60928	12470.675
735.52295	12428.275
739.43388	12412.475
743.34206	12433.575
747.24749	12460.875
751.15017	12487.675
755.05012	12548.475
758.94733	12757.775
762.8418	13198.875
766.73354	14095.775
770.62254	15195.275
774.50882	15900.975
778.39237	15509.075
782.27321	14352.775
786.15132	13351.375
790.02671	12751.675
793.89938	12432.875
797.76935	12356.775
801.6366	12286.575
805.50115	12260.575
809.36299	12268.275
813.22213	12260.075
817.07857	12284.275
820.93231	12235.575
824.78336	12194.675
828.63172	12199.575
832.47738	12173.175
836.32036	12156.375
840.16066	12136.875
843.99827	12118.475
847.8332	12087.675
851.66546	12055.275
855.49504	12054.275
859.32195	12061.275
863.1462	12042.575
866.96777	12032.275
870.78668	12048.875
874.60293	12064.075
878.41652	12067.075
882.22745	12105.475
886.03573	12168.675
889.84136	12179.175
893.64433	12184.275
897.44466	12098.675
901.24235	12016.075
905.0374	11999.375
908.8298	11941.175
912.61957	11890.575
916.40671	11896.075
920.19121	11947.675
923.97308	11961.975
927.75233	11978.075
931.52895	11999.375
935.30295	11998.475
939.07433	11875.375
942.84309	11720.475
946.60924	11597.175
950.37278	11556.675
954.13371	11490.775
957.89203	11478.875
961.64774	11448.575
965.40086	11384.075
969.15137	11377.475
972.89929	11349.775
976.64461	11344.475
980.38733	11334.775
984.12747	11352.675
987.86502	11362.975
991.59999	11390.375
995.33237	11435.875
999.06217	11499.175
1002.78939	11598.475
1006.51404	11658.875
1010.23611	11760.975
1013.95561	11841.175
1017.67255	11856.075
1021.38692	11810.175
1025.09872	11744.575
1028.80796	11707.575
1032.51465	11687.575
1036.21877	11712.075
1039.92035	11731.575
1043.61937	11757.375
1047.31584	11736.675
1051.00976	11769.975
1054.70114	11774.875
1058.38998	11773.775
1062.07627	11833.275
1065.76003	11886.075
1069.44126	12010.775
1073.11995	12173.275
1076.79611	12283.875
1080.46974	12320.875
1084.14085	12287.275
1087.80943	12330.275
1091.47549	12371.575
1095.13903	12373.775
1098.80005	12248.975
1102.45857	12084.975
1106.11456	11955.075
1109.76805	11903.175
1113.41903	11976.975
1117.06751	12108.475
1120.71348	12295.475
1124.35696	12496.375
1127.99793	12675.575
1131.63641	12853.975
1135.2724	12724.375
1138.90589	12484.475
1142.5369	12280.175
1146.16542	12091.875
1149.79145	11939.875
1153.415	11846.075
1157.03607	11792.675
1160.65467	11854.475
1164.27079	12023.275
1167.88443	12273.275
1171.49561	12704.275
1175.10432	13365.375
1178.71056	14279.575
1182.31434	15096.075
1185.91565	15391.975
1189.51451	15256.775
1193.11091	14748.075
1196.70485	14209.775
1200.29634	13775.775
1203.88538	13447.975
1207.47197	13034.975
1211.05612	12632.975
1214.63782	12415.475
1218.21708	12245.275
1221.79391	12157.275
1225.36829	12123.175
1228.94024	12105.175
1232.50976	12133.675
1236.07685	12134.875
1239.6415	12222.575
1243.20374	12226.275
1246.76355	12295.575
1250.32093	12361.775
1253.8759	12454.475
1257.42845	12623.275
1260.97859	12773.875
1264.52631	12971.475
1268.07163	13170.875
1271.61453	13327.675
1275.15503	13441.075
1278.69312	13557.775
1282.22882	13578.975
1285.76211	13678.575
1289.29301	13854.275
1292.82151	14105.275
1296.34761	14370.675
1299.87133	14767.875
1303.39266	15377.375
1306.9116	16143.575
1310.42815	16992.675
1313.94233	17491.775
1317.45412	17289.575
1320.96354	16700.575
1324.47058	16066.975
1327.97525	15455.475
1331.47754	14980.775
1334.97747	14716.775
1338.47502	14577.975
1341.97022	14686.275
1345.46305	14940.975
1348.95352	15389.575
1352.44163	16127.575
1355.92738	17092.475
1359.41078	18490.275
1362.89183	20023.975
1366.37053	20179.775
1369.84688	18320.575
1373.32088	16135.975
1376.79254	14617.175
1380.26186	13811.475
1383.72883	13354.275
1387.19347	12989.575
1390.65578	12690.475
1394.11575	12398.275
1397.57339	12154.375
1401.0287	11996.775
1404.48168	11927.175
1407.93234	11875.575
1411.38068	11869.675
1414.82669	11871.375
1418.27039	11892.175
1421.71177	11860.475
1425.15083	11795.575
1428.58758	11707.575
1432.02203	11654.575
1435.45416	11651.875
1438.88399	11694.275
1442.31151	11706.675
1445.73673	11700.875
1449.15965	11764.975
1452.58027	11747.975
1455.9986	11726.975
1459.41463	11751.775
1462.82837	11787.275
1466.23982	11956.175
1469.64898	12110.575
1473.05586	12281.775
1476.46045	12413.675
1479.86276	12573.975
1483.26279	12716.275
1486.66054	12905.975
1490.05602	13138.275
1493.44922	13517.775
1496.84016	14148.075
1500.22882	15147.475
1503.61521	16534.675
1506.99934	18093.775
1510.38121	19329.375
1513.76081	19655.075
1517.13816	18743.575
1520.51324	17191.475
1523.88607	15597.975
1527.25665	14462.875
1530.62498	13815.675
1533.99105	13422.975
1537.35488	13203.975
1540.71647	13029.575
1544.07581	12941.675
1547.4329	12904.775
1550.78776	12846.075
1554.14038	12888.475
1557.49077	12939.975
1560.83892	13111.675
1564.18484	13261.975
1567.52853	13489.775
1570.86999	13760.475
1574.20922	13921.375
1577.54624	13965.675
1580.88103	13671.075
1584.2136	13178.575
1587.54395	12780.775
1590.87208	12630.675
1594.19801	12695.175
1597.52172	13040.475
1600.84321	13250.275
1604.16251	13112.975
1607.47959	12808.975
1610.79447	12491.775
1614.10715	12115.075
1617.41763	11738.075
1620.7259	11464.975
1624.03199	11286.975
1627.33587	11219.875
1630.63757	11242.075
1633.93707	11397.075
1637.23439	11706.075
1640.52951	12212.775
1643.82246	12956.775
1647.11321	13983.475
1650.40179	14825.775
1653.68819	14966.075
1656.97241	14085.375
1660.25446	12874.575
1663.53433	11879.175
1666.81203	11267.275
1670.08756	10870.275
1673.36092	10617.075
1676.63211	10420.275
1679.90115	10327.875
1683.16801	10228.375
1686.43272	10152.375
1689.69527	10097.175
1692.95567	10052.775
1696.2139	10064.175
1699.46999	10056.475
1702.72392	9991.675
1705.97571	9958.175
1709.22535	9904.675
1712.47284	9905.075
1715.71819	9833.475
1718.96139	9788.575
1722.20246	9746.075
1725.44139	9682.475
1728.67818	9621.875
1731.91284	9584.475
1735.14537	9549.575
1738.37576	9528.575
1741.60403	9497.475
1744.83017	9459.175
1748.05418	9435.775
1751.27607	9443.775
1754.49584	9410.175
1757.71349	9412.475
1760.92903	9391.775
1764.14244	9404.675
1767.35375	9392.375
1770.56294	9378.975
1773.77002	9374.675
1776.97499	9363.275
1780.17785	9331.575
1783.37861	9296.175
1786.57727	9303.075
1789.77382	9287.075
1792.96828	9253.075
1796.16064	9231.375
1799.3509	9219.575
1802.53907	9222.475
1805.72514	9189.675
1808.90913	9155.375
1812.09102	9151.975
1815.27083	9121.475
1818.44856	9095.075
1821.6242	9079.375
1824.79776	9052.575
1827.96924	9046.075
1831.13864	9060.275
1834.30597	9030.775
1837.47122	9028.575
1840.6344	9020.375
1843.7955	9020.275
1846.95454	9004.775
1850.11151	8988.975
1853.26642	8985.375
1856.41926	8992.875
1859.57004	8985.675
1862.71876	8972.775
1865.86542	8956.175
1869.01003	8985.675
1872.15258	8960.475
1875.29308	8943.675
1878.43152	8939.575
1881.56792	8934.675
1884.70227	8906.575
1887.83457	8881.175
1890.96482	8895.175
1894.09304	8878.075
1897.21921	8847.475
1900.34335	8855.775
1903.46544	8864.475
1906.58551	8849.375
1909.70353	8826.675
1912.81953	8828.475
1915.93349	8796.175
1919.04543	8809.475
1922.15534	8763.175
1925.26322	8758.675
1928.36908	8740.675
1931.47292	8711.575
1934.57473	8708.575
1937.67453	8671.475
1940.77232	8649.375
1943.86808	8619.475
1946.96184	8627.375
1950.05358	8611.575
1953.14331	8603.375
1956.23103	8579.875
1959.31675	8552.875
1962.40046	8516.375
1965.48217	8514.075
1968.56188	8472.275
1971.63959	8456.175
1974.7153	8443.875
1977.78901	8371.275
1980.86073	8399.675
1983.93046	8337.075
1986.99819	8303.075
1990.06394	8289.175
1993.1277	8271.675
1996.18947	8259.275
1999.24925	8229.875
2002.30706	8201.075
2005.36288	8189.775
2008.41672	8139.575
2011.46859	8140.075
2014.51848	8093.975
2017.56639	8079.975
2020.61233	8050.175
2023.6563	8042.875
2026.6983	8032.375
2029.73833	8013.875
2032.7764	7993.275
2035.8125	7980.575
2038.84664	7958.375
2041.87881	7966.175
2044.90903	7938.675
2047.93729	7916.375
2050.96359	7900.075
2053.98794	7900.075
2057.01034	7879.675
2060.03078	7872.275
2063.04927	7895.375
2066.06582	7862.475
2069.08042	7853.075
2072.09307	7847.875
2075.10378	7854.375
2078.11255	7843.075
2081.11938	7855.175
2084.12426	7843.975
2087.12722	7836.475
2090.12824	7822.775
2093.12732	7842.175
2096.12447	7830.375
2099.11969	7842.375
2102.11299	7821.975
2105.10435	7861.375
2108.09379	7837.575
2111.08131	7854.775
2114.0669	7851.975
2117.05057	7872.875
2120.03233	7876.875
2123.01216	7894.575
2125.99008	7886.175
2128.96609	7908.875
2131.94018	7924.075
2134.91236	7903.075
2137.88263	7892.375
2140.851	7926.775
2143.81746	7919.775
2146.78201	7920.575
2149.74466	7897.875
2152.7054	7919.575
2155.66425	7904.375
2158.6212	7919.175
2161.57625	7915.175
2164.52941	7938.075
2167.48067	7925.475
2170.43004	7898.975
2173.37752	7919.375
2176.32311	7894.475
2179.26681	7898.175
2182.20863	7881.475
2185.14856	7883.975
2188.08661	7873.375
2191.02278	7875.475
2193.95707	7854.575
2196.88948	7884.575
2199.82001	7879.875
2202.74867	7869.475
2205.67545	7850.575
2208.60037	7857.675
2211.52341	7824.075
2214.44458	7819.075
2217.36388	7796.575
2220.28132	7779.675
2223.1969	7762.375
2226.11061	7774.875
2229.02246	7750.075
2231.93245	7725.875
2234.84058	7720.675
2237.74686	7709.675
2240.65128	7720.575
2243.55385	7696.775
2246.45456	7694.175
2249.35343	7676.675
2252.25044	7663.775
2255.14561	7646.975
2258.03893	7648.675
2260.93041	7627.175
2263.82004	7617.875
2266.70783	7612.575
2269.59378	7600.675
2272.4779	7577.375
2275.36017	7570.175
2278.24061	7563.275
2281.11922	7529.575
2283.996	7522.275
2286.87094	7525.675
2289.74405	7503.275
2292.61534	7495.675
2295.4848	7484.275
2298.35243	7461.575
2301.21824	7451.575
2304.08223	7461.775
2306.94439	7453.075
2309.80474	7444.475
2312.66327	7448.575
2315.51999	7440.375
2318.37489	7439.675
2321.22797	7386.475
2324.07925	7420.975
2326.92871	7392.475
2329.77637	7399.375
2332.62222	7390.275
2335.46626	7366.775
2338.3085	7339.875
2341.14893	7346.175
2343.98756	7328.375
2346.8244	7318.675
2349.65943	7321.175
2352.49267	7330.075
2355.32411	7322.575
2358.15376	7319.375
2360.98161	7325.575
2363.80768	7326.275
2366.63195	7312.675
2369.45444	7328.375
2372.27514	7303.875
2375.09405	7302.275
2377.91118	7298.875
2380.72652	7270.175
2383.54009	7255.875
2386.35187	7251.075
2389.16188	7232.875
2391.97011	7200.075
2394.77657	7174.675
2397.58125	7190.175
2400.38416	7165.375
2403.18529	7150.175
2405.98466	7152.975
2408.78226	7134.475
2411.57809	7124.075
2414.37216	7108.175
2417.16446	7104.775
2419.955	7118.775
2422.74378	7097.675
2425.5308	7097.975
2428.31606	7089.675
2431.09956	7085.175
2433.88131	7058.775
2436.6613	7074.675
2439.43954	7071.475
2442.21603	7048.675
2444.99077	7059.775
2447.76377	7061.375
2450.53501	7043.875
2453.30451	7049.175
2456.07226	7040.275
2458.83827	7030.975
2461.60254	7040.675
2464.36507	7018.475
2467.12586	7030.575
2469.88492	6995.175
2472.64224	7013.375
2475.39782	7010.775
2478.15167	6990.675
2480.90379	7001.875
2483.65417	6984.275
2486.40283	6987.475
2489.14976	6988.375
2491.89497	6971.175
2494.63845	6992.875
2497.3802	6965.375
2500.12024	6970.375
2502.85855	6959.275
2505.59514	6952.075
2508.33002	6938.875
2511.06318	6937.875
2513.79462	6932.675
2516.52435	6912.375
2519.25237	6882.975
2521.97867	6872.375
2524.70327	6888.875
2527.42616	6841.475
2530.14734	6825.975
2532.86681	6820.675
2535.58458	6825.775
2538.30065	6823.575
2541.01501	6802.975
2543.72768	6802.275
2546.43864	6795.775
2549.14791	6780.175
2551.85548	6780.575
2554.56136	6753.375
2557.26554	6766.975
2559.96803	6753.675
2562.66883	6753.875
2565.36794	6717.475
2568.06536	6727.475
2570.7611	6726.275
2573.45514	6703.075
2576.14751	6688.475
2578.83819	6671.875
2581.52719	6665.075
2584.21451	6663.675
2586.90015	6656.375
2589.58411	6647.075
2592.2664	6616.575
2594.94701	6622.175
2597.62594	6606.775
2600.30321	6571.575
2602.9788	6557.575
2605.65273	6563.475
2608.32498	6549.375
2610.99557	6556.975
2613.66449	6547.275
2616.33175	6545.775
2618.99734	6540.575
2621.66128	6506.575
2624.32355	6517.375
2626.98416	6505.575
2629.64311	6494.175
2632.30041	6502.175
2634.95605	6501.175
2637.61004	6474.975
2640.26238	6478.875
2642.91306	6456.875
2645.56209	6464.875
2648.20948	6444.575
2650.85521	6450.275
2653.4993	6445.975
2656.14175	6431.275
2658.78255	6453.975
2661.42171	6443.875
2664.05923	6446.075
2666.6951	6441.475
2669.32934	6439.775
2671.96194	6425.975
2674.59291	6433.075
2677.22224	6431.175
2679.84993	6434.175
2682.476	6435.275
2685.10043	6432.975
2687.72324	6436.775
2690.34441	6422.675
2692.96396	6421.275
2695.58188	6416.375
2698.19818	6421.175
2700.81285	6433.475
2703.4259	6447.875
2706.03733	6425.575
2708.64714	6429.675
2711.25533	6446.275
2713.86191	6422.475
2716.46687	6435.075
2719.07021	6446.075
2721.67194	6432.875
2724.27206	6440.075
2726.87057	6438.575
2729.46747	6424.075
2732.06276	6417.975
2734.65644	6419.775
2737.24852	6432.075
2739.83899	6398.575
2742.42786	6410.075
2745.01513	6376.375
2747.60079	6379.975
2750.18486	6392.975
2752.76733	6392.475
2755.3482	6388.075
2757.92747	6373.575
2760.50515	6363.875
2763.08123	6343.775
2765.65573	6348.275
2768.22863	6347.275
2770.79994	6331.375
2773.36967	6333.275
2775.9378	6322.575
2778.50435	6316.175
2781.06932	6300.975
2783.6327	6298.975
2786.1945	6283.975
2788.75471	6255.275
2791.31335	6254.875
2793.87041	6227.975
2796.42589	6222.175
2798.97979	6231.575
2801.53212	6213.375
2804.08288	6190.975
2806.63206	6197.975
2809.17967	6165.475
2811.72571	6160.775
2814.27018	6189.275
2816.81308	6137.075
2819.35442	6157.875
2821.89419	6133.175
2824.43239	6139.675
2826.96904	6151.875
2829.50412	6161.975
2832.03763	6126.375
2834.56959	6123.575
2837.1	6113.475
2839.62884	6132.975
2842.15613	6130.975
2844.68186	6133.875
2847.20604	6117.575
2849.72867	6119.275
2852.24974	6128.975
2854.76927	6125.775
2857.28724	6105.875
2859.80367	6097.275
2862.31855	6097.475
2864.83189	6092.475
2867.34368	6088.175
2869.85393	6096.675
2872.36264	6097.875
2874.8698	6099.975
2877.37543	6076.875
2879.87952	6088.375
2882.38207	6090.875
2884.88308	6081.175
2887.38256	6077.575
2889.88051	6087.975
2892.37692	6076.275
2894.8718	6076.075
2897.36515	6086.375
2899.85698	6051.475
2902.34727	6106.275
2904.83604	6101.175
2907.32328	6100.175
2909.809	6086.375
2912.29319	6102.175
2914.77587	6085.975
2917.25702	6099.075
2919.73665	6109.675
2922.21476	6085.575
2924.69136	6103.275
2927.16644	6082.875
2929.64	6071.375
2932.11205	6084.975
2934.58258	6039.275
2937.05161	6046.275
2939.51912	6053.975
2941.98513	6055.675
2944.44962	6030.375
2946.91261	6019.475
2949.37409	6037.675
2951.83407	6033.175
2954.29254	6020.475
2956.74951	6015.875
2959.20498	6018.175
2961.65895	6018.975
2964.11142	6012.575
2966.56239	5989.175
2969.01186	5991.675
2971.45984	5985.975
2973.90632	5977.875
2976.35131	5966.475
2978.7948	5945.275
2981.23681	5948.875
2983.67732	5936.675
2986.11635	5926.875
2988.55388	5922.375
2990.98993	5917.375
2993.4245	5894.875
2995.85758	5912.975
2998.28917	5893.975
3000.71928	5873.175
3003.14791	5877.675
3005.57506	5870.575
3008.00073	5868.675
3010.42493	5870.375
3012.84764	5869.175
3015.26888	5860.875
3017.68865	5845.175
3020.10694	5835.775
3022.52376	5832.075
3024.9391	5812.975
3027.35298	5811.775
3029.76539	5807.275
3032.17632	5793.975
3034.5858	5768.875
3036.9938	5790.175
3039.40034	5763.775
3041.80542	5769.175
3044.20903	5784.775
3046.61118	5775.775
3049.01187	5760.075
3051.4111	5762.375
3053.80888	5741.275
3056.20519	5731.975
3058.60005	5744.875
3060.99345	5727.075
3063.3854	5711.275
3065.7759	5705.375
3068.16494	5703.175
3070.55254	5694.375
3072.93868	5703.675
3075.32338	5676.075
3077.70662	5687.975
3080.08842	5673.975
3082.46878	5684.275
3084.84769	5682.675
3087.22515	5681.575
3089.60118	5672.075
3091.97576	5681.075
3094.3489	5691.875
3096.72061	5691.875
3099.09087	5710.475
3101.4597	5706.475
3103.82709	5708.875
3106.19305	5697.375
3108.55757	5674.675
3110.92066	5692.275
3113.28232	5681.475
3115.64255	5660.475
3118.00134	5644.975
3120.35871	5653.975
3122.71466	5652.475
3125.06917	5651.275
3127.42226	5639.975
3129.77393	5650.475
3132.12417	5654.575
3134.47299	5666.675
3136.82039	5665.975
3139.16636	5668.375
3141.51092	5671.675
3143.85406	5670.375
3146.19579	5675.075
3148.53609	5691.475
3150.87499	5689.575
3153.21246	5697.275
3155.54853	5722.175
3157.88318	5713.175
3160.21642	5742.475
3162.54826	5737.575
3164.87868	5733.075
3167.2077	5721.375
3169.5353	5741.375
3171.86151	5741.475
3174.18631	5719.475
3176.5097	5733.475
3178.83169	5728.275
3181.15228	5720.675
3183.47147	5735.675
3185.78926	5724.975
3188.10565	5715.875
3190.42065	5726.775
