Data from AgNPs_FTO_APTES_UA_100uM_R6G_10uM_NaF_0.1M_Addition_RamanShift__14__15-33-27-459.txt Node

Date: Fri Dec 17 15:33:27 GMT 2021
User: TCL
Spectrometer: QEP01345
Trigger mode: 4
Integration Time (sec): 7.000000E0
Scans to average: 10
Electric dark correction enabled: true
Nonlinearity correction enabled: false
Boxcar width: 0
XAxis mode: Raman Shifts
Number of Pixels in Spectrum: 1044
>>>>>Begin Spectral Data<<<<<
46.04893	-0.525
50.45542	-0.425
54.85868	-0.325
59.25871	0.375
63.6555	64.575
68.04907	68.175
72.43941	69.675
76.82654	76.175
81.21044	78.875
85.59113	80.475
89.96862	83.775
94.34289	85.975
98.71396	91.475
103.08183	92.175
107.4465	94.175
111.80798	94.975
116.16626	98.475
120.52136	99.475
124.87327	106.375
129.222	107.275
133.56755	112.375
137.90993	121.175
142.24913	128.175
146.58517	140.275
150.91804	160.175
155.24774	183.375
159.57429	226.775
163.89768	280.275
168.21792	365.575
172.53501	487.875
176.84895	669.375
181.15975	937.575
185.46741	1323.175
189.77193	1824.675
194.07331	2437.975
198.37157	3150.175
202.6667	3899.375
206.9587	4643.175
211.24758	5382.175
215.53334	6099.075
219.81599	6856.275
224.09553	7688.875
228.37195	8631.875
232.64527	9650.775
236.91549	10759.575
241.18261	11911.375
245.44663	12950.475
249.70755	13948.275
253.96539	14786.075
258.22014	15497.075
262.4718	16052.275
266.72039	16398.575
270.96589	16597.175
275.20832	16607.875
279.44768	16485.675
283.68397	16286.275
287.91719	16044.475
292.14735	15859.175
296.37445	15779.175
300.59849	15809.475
304.81948	15852.775
309.03742	15829.175
313.25231	15711.375
317.46415	15438.475
321.67296	15095.775
325.87872	14836.275
330.08145	14768.775
334.28114	14805.775
338.47781	14925.075
342.67145	15105.975
346.86207	15342.575
351.04966	15621.175
355.23424	15911.875
359.4158	16213.475
363.59435	16467.275
367.76989	16624.275
371.94243	16788.875
376.11196	16938.675
380.27849	17034.675
384.44203	17118.175
388.60257	17200.275
392.76012	17283.875
396.91468	17446.775
401.06626	17637.175
405.21485	17769.275
409.36047	17724.475
413.50311	17500.675
417.64277	17240.475
421.77947	17102.375
425.9132	17058.975
430.04396	17075.775
434.17176	17151.575
438.2966	17258.575
442.41849	17401.875
446.53742	17575.375
450.6534	17765.875
454.76644	17918.075
458.87653	18075.675
462.98368	18127.075
467.08789	18127.575
471.18916	18087.675
475.2875	17959.075
479.38291	17892.275
483.4754	17769.575
487.56496	17696.275
491.6516	17664.975
495.73531	17644.375
499.81612	17683.675
503.89401	17755.275
507.96899	17867.375
512.04106	17923.275
516.11023	17984.975
520.1765	18007.575
524.23987	17976.775
528.30034	17891.075
532.35792	17848.775
536.41261	17766.975
540.46441	17668.375
544.51333	17663.475
548.55936	17722.875
552.60252	17850.175
556.64279	18006.875
560.6802	18060.175
564.71473	18110.075
568.7464	18147.875
572.7752	18246.875
576.80114	18219.675
580.82422	18232.275
584.84444	18309.575
588.86181	18345.275
592.87633	18310.775
596.888	18365.875
600.89682	18606.675
604.9028	19282.075
608.90594	20925.375
612.90624	22787.375
616.90371	22165.375
620.89834	19568.275
624.89015	18305.275
628.87913	18048.175
632.86528	18167.075
636.84862	18332.175
640.82913	18332.175
644.80683	18084.875
648.78172	17840.175
652.75379	17793.775
656.72306	17942.875
660.68952	18205.875
664.65319	18205.375
668.61405	18038.675
672.57211	17999.375
676.52738	18069.875
680.47986	18004.475
684.42955	17952.375
688.37646	17911.075
692.32058	17918.375
696.26192	17980.875
700.20048	18115.775
704.13626	18183.875
708.06928	18176.575
711.99952	18113.775
715.927	18027.575
719.85171	18015.575
723.77365	18027.875
727.69284	17972.375
731.60928	17901.475
735.52295	17868.175
739.43388	17873.475
743.34206	17891.275
747.24749	17894.675
751.15017	17920.775
755.05012	17990.475
758.94733	18234.175
762.8418	18738.575
766.73354	19697.275
770.62254	20830.775
774.50882	21487.875
778.39237	21091.175
782.27321	19976.175
786.15132	18998.575
790.02671	18331.875
793.89938	17994.575
797.76935	17806.675
801.6366	17762.175
805.50115	17697.675
809.36299	17655.275
813.22213	17591.875
817.07857	17572.675
820.93231	17561.475
824.78336	17551.575
828.63172	17581.775
832.47738	17580.175
836.32036	17561.375
840.16066	17507.075
843.99827	17463.875
847.8332	17472.475
851.66546	17487.375
855.49504	17515.175
859.32195	17533.875
863.1462	17533.875
866.96777	17524.275
870.78668	17526.375
874.60293	17530.475
878.41652	17560.075
882.22745	17605.175
886.03573	17639.675
889.84136	17647.275
893.64433	17632.475
897.44466	17605.375
901.24235	17550.975
905.0374	17499.675
908.8298	17465.875
912.61957	17455.575
916.40671	17454.775
920.19121	17509.175
923.97308	17539.175
927.75233	17536.475
931.52895	17542.575
935.30295	17472.775
939.07433	17342.075
942.84309	17268.175
946.60924	17155.675
950.37278	17082.075
954.13371	17005.775
957.89203	16983.175
961.64774	16946.075
965.40086	16873.175
969.15137	16880.575
972.89929	16838.475
976.64461	16823.075
980.38733	16812.475
984.12747	16836.275
987.86502	16874.375
991.59999	16857.875
995.33237	16958.475
999.06217	17012.975
1002.78939	17086.375
1006.51404	17192.475
1010.23611	17328.975
1013.95561	17406.075
1017.67255	17489.275
1021.38692	17426.575
1025.09872	17364.075
1028.80796	17246.875
1032.51465	17191.175
1036.21877	17221.275
1039.92035	17231.575
1043.61937	17297.975
1047.31584	17350.075
1051.00976	17365.175
1054.70114	17438.475
1058.38998	17469.575
1062.07627	17561.875
1065.76003	17641.075
1069.44126	17773.375
1073.11995	17949.175
1076.79611	18147.475
1080.46974	18196.575
1084.14085	18180.275
1087.80943	18228.275
1091.47549	18261.775
1095.13903	18311.775
1098.80005	18207.075
1102.45857	18087.175
1106.11456	17979.475
1109.76805	17891.975
1113.41903	17889.175
1117.06751	17962.775
1120.71348	18091.275
1124.35696	18234.175
1127.99793	18413.075
1131.63641	18509.375
1135.2724	18412.475
1138.90589	18198.675
1142.5369	18033.275
1146.16542	17919.675
1149.79145	17835.975
1153.415	17747.075
1157.03607	17724.075
1160.65467	17865.075
1164.27079	18069.075
1167.88443	18435.575
1171.49561	18905.675
1175.10432	19628.575
1178.71056	20581.175
1182.31434	21472.975
1185.91565	21964.175
1189.51451	21998.275
1193.11091	21752.075
1196.70485	21264.875
1200.29634	20761.375
1203.88538	20233.375
1207.47197	19701.075
1211.05612	19194.675
1214.63782	18845.775
1218.21708	18589.375
1221.79391	18449.675
1225.36829	18342.375
1228.94024	18300.175
1232.50976	18321.175
1236.07685	18362.775
1239.6415	18385.275
1243.20374	18436.875
1246.76355	18521.375
1250.32093	18606.275
1253.8759	18768.375
1257.42845	18953.075
1260.97859	19189.975
1264.52631	19428.575
1268.07163	19630.775
1271.61453	19858.175
1275.15503	20028.375
1278.69312	20159.975
1282.22882	20247.875
1285.76211	20319.575
1289.29301	20539.975
1292.82151	20799.375
1296.34761	21146.275
1299.87133	21587.175
1303.39266	22185.475
1306.9116	22922.575
1310.42815	23686.075
1313.94233	24183.675
1317.45412	24094.875
1320.96354	23638.975
1324.47058	23230.675
1327.97525	22753.175
1331.47754	22328.175
1334.97747	22157.075
1338.47502	22194.875
1341.97022	22481.475
1345.46305	23011.975
1348.95352	23635.975
1352.44163	24317.075
1355.92738	25004.275
1359.41078	25928.875
1362.89183	26959.075
1366.37053	26740.775
1369.84688	24875.875
1373.32088	22711.175
1376.79254	21214.475
1380.26186	20411.975
1383.72883	19919.975
1387.19347	19551.975
1390.65578	19271.075
1394.11575	18920.075
1397.57339	18653.275
1401.0287	18504.575
1404.48168	18435.775
1407.93234	18339.775
1411.38068	18322.475
1414.82669	18251.975
1418.27039	18107.375
1421.71177	17962.275
1425.15083	17823.075
1428.58758	17673.375
1432.02203	17597.975
1435.45416	17627.175
1438.88399	17662.775
1442.31151	17727.275
1445.73673	17811.975
1449.15965	17847.675
1452.58027	17915.475
1455.9986	17956.175
1459.41463	18073.875
1462.82837	18214.475
1466.23982	18426.575
1469.64898	18673.275
1473.05586	18838.775
1476.46045	18962.175
1479.86276	19082.775
1483.26279	19227.975
1486.66054	19357.275
1490.05602	19554.975
1493.44922	19937.275
1496.84016	20560.875
1500.22882	21500.375
1503.61521	22786.875
1506.99934	24183.675
1510.38121	25272.275
1513.76081	25449.775
1517.13816	24688.375
1520.51324	23295.075
1523.88607	22004.575
1527.25665	20994.075
1530.62498	20456.275
1533.99105	20104.775
1537.35488	19878.075
1540.71647	19707.575
1544.07581	19535.175
1547.4329	19401.475
1550.78776	19356.775
1554.14038	19293.475
1557.49077	19353.775
1560.83892	19400.075
1564.18484	19586.275
1567.52853	19743.575
1570.86999	19960.775
1574.20922	20124.675
1577.54624	20129.375
1580.88103	19819.375
1584.2136	19317.775
1587.54395	18939.975
1590.87208	18800.175
1594.19801	19032.875
1597.52172	19413.075
1600.84321	19709.075
1604.16251	19588.075
1607.47959	19281.275
1610.79447	18903.975
1614.10715	18377.875
1617.41763	17833.175
1620.7259	17379.775
1624.03199	17043.575
1627.33587	16942.475
1630.63757	16916.775
1633.93707	17065.075
1637.23439	17472.375
1640.52951	18073.575
1643.82246	18931.375
1647.11321	19993.575
1650.40179	20827.975
1653.68819	20814.275
1656.97241	19849.975
1660.25446	18529.075
1663.53433	17445.575
1666.81203	16661.675
1670.08756	16189.475
1673.36092	15889.375
1676.63211	15650.875
1679.90115	15462.475
1683.16801	15324.575
1686.43272	15214.475
1689.69527	15125.375
1692.95567	15078.075
1696.2139	15015.075
1699.46999	15026.275
1702.72392	14995.075
1705.97571	14962.375
1709.22535	14906.175
1712.47284	14885.075
1715.71819	14863.075
1718.96139	14822.675
1722.20246	14805.175
1725.44139	14758.875
1728.67818	14690.675
1731.91284	14613.575
1735.14537	14560.475
1738.37576	14517.275
1741.60403	14499.875
1744.83017	14453.675
1748.05418	14400.075
1751.27607	14376.275
1754.49584	14315.875
1757.71349	14351.675
1760.92903	14328.475
1764.14244	14303.475
1767.35375	14303.675
1770.56294	14302.775
1773.77002	14262.675
1776.97499	14216.275
1780.17785	14207.975
1783.37861	14173.175
1786.57727	14167.275
1789.77382	14123.975
1792.96828	14096.675
1796.16064	14051.275
1799.3509	14033.075
1802.53907	14023.475
1805.72514	13967.475
1808.90913	13931.775
1812.09102	13909.775
1815.27083	13855.575
1818.44856	13840.075
1821.6242	13840.075
1824.79776	13767.975
1827.96924	13772.975
1831.13864	13769.175
1834.30597	13768.275
1837.47122	13772.175
1840.6344	13729.575
1843.7955	13700.275
1846.95454	13713.175
1850.11151	13682.775
1853.26642	13674.375
1856.41926	13664.175
1859.57004	13683.575
1862.71876	13661.775
1865.86542	13621.375
1869.01003	13588.975
1872.15258	13587.075
1875.29308	13556.375
1878.43152	13530.975
1881.56792	13543.575
1884.70227	13510.775
1887.83457	13483.175
1890.96482	13476.875
1894.09304	13452.375
1897.21921	13438.975
1900.34335	13426.675
1903.46544	13401.375
1906.58551	13410.775
1909.70353	13372.075
1912.81953	13349.475
1915.93349	13321.975
1919.04543	13311.775
1922.15534	13266.775
1925.26322	13253.675
1928.36908	13227.975
1931.47292	13189.975
1934.57473	13156.475
1937.67453	13139.275
1940.77232	13085.575
1943.86808	13040.675
1946.96184	13043.775
1950.05358	13027.875
1953.14331	13001.275
1956.23103	12961.375
1959.31675	12883.475
1962.40046	12835.075
1965.48217	12839.875
1968.56188	12778.675
1971.63959	12726.575
1974.7153	12703.875
1977.78901	12656.675
1980.86073	12643.775
1983.93046	12572.975
1986.99819	12540.775
1990.06394	12506.275
1993.1277	12456.075
1996.18947	12420.075
1999.24925	12397.775
2002.30706	12367.475
2005.36288	12314.475
2008.41672	12302.075
2011.46859	12259.575
2014.51848	12216.175
2017.56639	12168.275
2020.61233	12135.175
2023.6563	12104.075
2026.6983	12095.575
2029.73833	12064.175
2032.7764	12020.175
2035.8125	11971.675
2038.84664	11955.175
2041.87881	11954.275
2044.90903	11908.675
2047.93729	11889.375
2050.96359	11872.075
2053.98794	11836.575
2057.01034	11806.375
2060.03078	11818.375
2063.04927	11806.275
2066.06582	11801.275
2069.08042	11771.375
2072.09307	11764.375
2075.10378	11756.575
2078.11255	11744.775
2081.11938	11749.575
2084.12426	11739.675
2087.12722	11715.575
2090.12824	11711.875
2093.12732	11730.275
2096.12447	11722.275
2099.11969	11722.975
2102.11299	11724.475
2105.10435	11705.775
2108.09379	11731.575
2111.08131	11741.375
2114.0669	11726.775
2117.05057	11752.675
2120.03233	11746.475
2123.01216	11749.175
2125.99008	11790.775
2128.96609	11788.875
2131.94018	11789.175
2134.91236	11797.375
2137.88263	11787.375
2140.851	11797.275
2143.81746	11798.775
2146.78201	11807.275
2149.74466	11821.475
2152.7054	11809.375
2155.66425	11800.075
2158.6212	11809.075
2161.57625	11779.075
2164.52941	11779.775
2167.48067	11775.275
2170.43004	11758.175
2173.37752	11750.875
2176.32311	11762.075
2179.26681	11739.975
2182.20863	11732.575
2185.14856	11739.775
2188.08661	11717.175
2191.02278	11753.975
2193.95707	11696.975
2196.88948	11684.275
2199.82001	11700.175
2202.74867	11663.775
2205.67545	11659.175
2208.60037	11615.875
2211.52341	11581.675
2214.44458	11584.875
2217.36388	11543.275
2220.28132	11539.475
2223.1969	11511.675
2226.11061	11497.175
2229.02246	11466.075
2231.93245	11430.075
2234.84058	11430.075
2237.74686	11416.075
2240.65128	11397.075
2243.55385	11387.075
2246.45456	11375.875
2249.35343	11357.175
2252.25044	11339.275
2255.14561	11295.175
2258.03893	11317.675
2260.93041	11288.175
2263.82004	11262.675
2266.70783	11210.175
2269.59378	11192.475
2272.4779	11177.075
2275.36017	11128.375
2278.24061	11128.575
2281.11922	11110.575
2283.996	11089.475
2286.87094	11074.175
2289.74405	11041.775
2292.61534	11028.075
2295.4848	10990.675
2298.35243	11000.475
2301.21824	10986.275
2304.08223	11008.675
2306.94439	10971.675
2309.80474	10931.675
2312.66327	10942.775
2315.51999	10923.375
2318.37489	10913.675
2321.22797	10863.575
2324.07925	10859.175
2326.92871	10837.575
2329.77637	10844.475
2332.62222	10824.375
2335.46626	10800.675
2338.3085	10766.375
2341.14893	10765.675
2343.98756	10715.975
2346.8244	10737.875
2349.65943	10726.975
2352.49267	10716.475
2355.32411	10696.675
2358.15376	10709.075
2360.98161	10699.175
2363.80768	10689.875
2366.63195	10676.575
2369.45444	10671.975
2372.27514	10637.275
2375.09405	10623.175
2377.91118	10628.875
2380.72652	10604.675
2383.54009	10593.075
2386.35187	10565.875
2389.16188	10520.275
2391.97011	10492.275
2394.77657	10460.075
2397.58125	10439.075
2400.38416	10448.875
2403.18529	10405.075
2405.98466	10392.975
2408.78226	10382.275
2411.57809	10364.375
2414.37216	10354.075
2417.16446	10340.275
2419.955	10319.575
2422.74378	10325.775
2425.5308	10313.075
2428.31606	10309.375
2431.09956	10284.575
2433.88131	10278.775
2436.6613	10265.675
2439.43954	10240.875
2442.21603	10236.275
2444.99077	10213.575
2447.76377	10219.375
2450.53501	10197.975
2453.30451	10208.675
2456.07226	10157.075
2458.83827	10156.875
2461.60254	10141.875
2464.36507	10151.475
2467.12586	10136.275
2469.88492	10124.975
2472.64224	10122.075
2475.39782	10111.575
2478.15167	10075.375
2480.90379	10103.975
2483.65417	10081.075
2486.40283	10063.475
2489.14976	10049.575
2491.89497	10029.575
2494.63845	10061.275
2497.3802	10041.575
2500.12024	10040.075
2502.85855	9999.175
2505.59514	9990.275
2508.33002	9990.375
2511.06318	9973.075
2513.79462	9950.475
2516.52435	9936.075
2519.25237	9896.275
2521.97867	9914.775
2524.70327	9888.575
2527.42616	9842.375
2530.14734	9830.375
2532.86681	9816.275
2535.58458	9804.675
2538.30065	9780.375
2541.01501	9788.775
2543.72768	9746.575
2546.43864	9751.975
2549.14791	9711.475
2551.85548	9729.975
2554.56136	9690.475
2557.26554	9674.975
2559.96803	9670.675
2562.66883	9632.275
2565.36794	9617.275
2568.06536	9621.575
2570.7611	9607.275
2573.45514	9589.375
2576.14751	9566.275
2578.83819	9542.475
2581.52719	9533.075
2584.21451	9501.075
2586.90015	9491.775
2589.58411	9469.275
2592.2664	9469.475
2594.94701	9434.575
2597.62594	9424.975
2600.30321	9378.875
2602.9788	9353.975
2605.65273	9333.375
2608.32498	9321.675
2610.99557	9322.675
2613.66449	9309.875
2616.33175	9295.775
2618.99734	9285.675
2621.66128	9254.675
2624.32355	9234.775
2626.98416	9222.175
2629.64311	9242.575
2632.30041	9222.175
2634.95605	9204.275
2637.61004	9182.975
2640.26238	9158.775
2642.91306	9176.475
2645.56209	9142.275
2648.20948	9127.775
2650.85521	9120.375
2653.4993	9135.075
2656.14175	9109.075
2658.78255	9113.275
2661.42171	9117.275
2664.05923	9114.175
2666.6951	9103.675
2669.32934	9086.475
2671.96194	9091.875
2674.59291	9082.575
2677.22224	9079.475
2679.84993	9083.875
2682.476	9085.775
2685.10043	9071.875
2687.72324	9066.375
2690.34441	9068.375
2692.96396	9068.475
2695.58188	9066.375
2698.19818	9041.475
2700.81285	9061.775
2703.4259	9058.775
2706.03733	9076.175
2708.64714	9056.075
2711.25533	9066.675
2713.86191	9054.675
2716.46687	9052.475
2719.07021	9049.975
2721.67194	9046.675
2724.27206	9018.675
2726.87057	9035.575
2729.46747	9011.675
2732.06276	9006.475
2734.65644	8983.375
2737.24852	9002.875
2739.83899	8993.075
2742.42786	8979.075
2745.01513	8960.475
2747.60079	8954.275
2750.18486	8943.175
2752.76733	8913.175
2755.3482	8909.775
2757.92747	8918.875
2760.50515	8917.075
2763.08123	8885.975
2765.65573	8860.875
2768.22863	8861.575
2770.79994	8862.975
2773.36967	8849.075
2775.9378	8822.775
2778.50435	8804.375
2781.06932	8780.575
2783.6327	8787.375
2786.1945	8768.075
2788.75471	8758.875
2791.31335	8704.575
2793.87041	8721.175
2796.42589	8665.275
2798.97979	8674.275
2801.53212	8619.175
2804.08288	8640.575
2806.63206	8592.075
2809.17967	8605.075
2811.72571	8582.675
2814.27018	8586.775
2816.81308	8558.475
2819.35442	8537.175
2821.89419	8502.975
2824.43239	8504.175
2826.96904	8500.575
2829.50412	8508.175
2832.03763	8474.775
2834.56959	8473.575
2837.1	8465.375
2839.62884	8458.375
2842.15613	8445.475
2844.68186	8439.875
2847.20604	8435.875
2849.72867	8442.975
2852.24974	8433.575
2854.76927	8421.375
2857.28724	8412.375
2859.80367	8396.975
2862.31855	8376.075
2864.83189	8375.575
2867.34368	8369.075
2869.85393	8360.875
2872.36264	8350.975
2874.8698	8365.775
2877.37543	8344.775
2879.87952	8347.975
2882.38207	8346.375
2884.88308	8336.375
2887.38256	8323.775
2889.88051	8313.875
2892.37692	8316.675
2894.8718	8304.375
2897.36515	8318.375
2899.85698	8293.175
2902.34727	8320.575
2904.83604	8314.175
2907.32328	8290.575
2909.809	8277.975
2912.29319	8307.875
2914.77587	8309.375
2917.25702	8291.975
2919.73665	8265.775
2922.21476	8296.875
2924.69136	8271.775
2927.16644	8293.675
2929.64	8277.575
2932.11205	8232.575
2934.58258	8218.875
2937.05161	8236.575
2939.51912	8246.375
2941.98513	8222.075
2944.44962	8192.375
2946.91261	8197.175
2949.37409	8190.175
2951.83407	8187.875
2954.29254	8194.275
2956.74951	8190.875
2959.20498	8172.475
2961.65895	8174.475
2964.11142	8166.075
2966.56239	8121.375
2969.01186	8166.775
2971.45984	8120.375
2973.90632	8102.675
2976.35131	8109.175
2978.7948	8074.275
2981.23681	8066.975
2983.67732	8035.375
2986.11635	8022.575
2988.55388	8009.975
2990.98993	8019.275
2993.4245	7997.075
2995.85758	7992.775
2998.28917	7949.475
3000.71928	7929.975
3003.14791	7920.775
3005.57506	7949.375
3008.00073	7928.875
3010.42493	7890.975
3012.84764	7903.975
3015.26888	7885.175
3017.68865	7876.775
3020.10694	7870.875
3022.52376	7857.575
3024.9391	7816.475
3027.35298	7811.675
3029.76539	7783.975
3032.17632	7792.875
3034.5858	7777.075
3036.9938	7761.775
3039.40034	7739.675
3041.80542	7748.675
3044.20903	7730.675
3046.61118	7741.775
3049.01187	7722.375
3051.4111	7696.875
3053.80888	7698.775
3056.20519	7682.375
3058.60005	7670.475
3060.99345	7662.975
3063.3854	7668.375
3065.7759	7631.375
3068.16494	7619.275
3070.55254	7607.475
3072.93868	7607.375
3075.32338	7596.675
3077.70662	7579.575
3080.08842	7558.075
3082.46878	7586.275
3084.84769	7548.075
3087.22515	7562.575
3089.60118	7544.275
3091.97576	7553.975
3094.3489	7575.775
3096.72061	7562.275
3099.09087	7565.275
3101.4597	7533.675
3103.82709	7538.275
3106.19305	7521.575
3108.55757	7523.275
3110.92066	7492.875
3113.28232	7490.975
3115.64255	7480.675
3118.00134	7467.575
3120.35871	7482.475
3122.71466	7459.975
3125.06917	7443.975
3127.42226	7410.075
3129.77393	7437.475
3132.12417	7448.375
3134.47299	7451.775
3136.82039	7442.275
3139.16636	7432.075
3141.51092	7425.275
3143.85406	7433.375
3146.19579	7457.175
3148.53609	7450.375
3150.87499	7452.875
3153.21246	7466.375
3155.54853	7485.375
3157.88318	7475.375
