Data from AgNPs_FTO_APTES_UA_20uM_R6G_10uM_NaF_0.1M_Addition_RamanShift__21__14-19-57-376.txt Node

Date: Fri Dec 17 14:19:57 GMT 2021
User: TCL
Spectrometer: QEP01345
Trigger mode: 4
Integration Time (sec): 7.000000E0
Scans to average: 10
Electric dark correction enabled: true
Nonlinearity correction enabled: false
Boxcar width: 0
XAxis mode: Raman Shifts
Number of Pixels in Spectrum: 1044
>>>>>Begin Spectral Data<<<<<
46.04893	-1.7625
50.45542	0.0375
54.85868	-0.4625
59.25871	0.3375
63.6555	72.9375
68.04907	76.0375
72.43941	79.7375
76.82654	85.8375
81.21044	83.0375
85.59113	88.4375
89.96862	95.7375
94.34289	97.6375
98.71396	96.2375
103.08183	99.1375
107.4465	106.6375
111.80798	107.0375
116.16626	110.0375
120.52136	111.9375
124.87327	119.5375
129.222	125.9375
133.56755	133.9375
137.90993	142.7375
142.24913	153.5375
146.58517	167.2375
150.91804	195.1375
155.24774	231.5375
159.57429	292.4375
163.89768	368.6375
168.21792	488.1375
172.53501	658.6375
176.84895	919.2375
181.15975	1277.2375
185.46741	1799.9375
189.77193	2473.2375
194.07331	3309.0375
198.37157	4283.1375
202.6667	5284.0375
206.9587	6285.4375
211.24758	7250.8375
215.53334	8245.4375
219.81599	9267.9375
224.09553	10436.8375
228.37195	11676.6375
232.64527	13135.0375
236.91549	14636.5375
241.18261	16174.3375
245.44663	17625.6375
249.70755	18837.9375
253.96539	19926.0375
258.22014	20834.5375
262.4718	21617.9375
266.72039	22185.2375
270.96589	22459.1375
275.20832	22542.7375
279.44768	22385.0375
283.68397	22113.7375
287.91719	21869.2375
292.14735	21772.3375
296.37445	21729.9375
300.59849	21866.8375
304.81948	22014.1375
309.03742	22057.7375
313.25231	21775.4375
317.46415	21298.1375
321.67296	20639.0375
325.87872	20122.8375
330.08145	19915.9375
334.28114	19946.0375
338.47781	20165.9375
342.67145	20433.3375
346.86207	20858.4375
351.04966	21384.0375
355.23424	21950.6375
359.4158	22437.4375
363.59435	22878.2375
367.76989	23116.6375
371.94243	23297.6375
376.11196	23470.3375
380.27849	23557.4375
384.44203	23651.7375
388.60257	23716.3375
392.76012	23873.6375
396.91468	24112.4375
401.06626	24434.5375
405.21485	24733.6375
409.36047	24659.3375
413.50311	24231.6375
417.64277	23819.9375
421.77947	23628.9375
425.9132	23615.7375
430.04396	23690.9375
434.17176	23795.4375
438.2966	23973.3375
442.41849	24295.3375
446.53742	24744.9375
450.6534	25302.2375
454.76644	25736.1375
458.87653	25990.7375
462.98368	25970.0375
467.08789	25742.8375
471.18916	25419.5375
475.2875	25062.6375
479.38291	24745.8375
483.4754	24520.1375
487.56496	24275.8375
491.6516	24063.6375
495.73531	23965.6375
499.81612	23939.2375
503.89401	24070.0375
507.96899	24196.6375
512.04106	24291.2375
516.11023	24394.8375
520.1765	24429.4375
524.23987	24358.5375
528.30034	24175.1375
532.35792	24017.2375
536.41261	23734.5375
540.46441	23562.3375
544.51333	23469.4375
548.55936	23555.2375
552.60252	23853.4375
556.64279	24163.0375
560.6802	24297.9375
564.71473	24379.3375
568.7464	24641.9375
572.7752	24895.5375
576.80114	24996.1375
580.82422	25067.0375
584.84444	25214.7375
588.86181	25360.3375
592.87633	25470.6375
596.888	25699.6375
600.89682	26091.0375
604.9028	27397.1375
608.90594	30517.4375
612.90624	33966.4375
616.90371	32590.2375
620.89834	27363.9375
624.89015	24918.2375
628.87913	24545.6375
632.86528	24562.7375
636.84862	24606.0375
640.82913	24394.5375
644.80683	23856.3375
648.78172	23373.5375
652.75379	23289.9375
656.72306	23637.7375
660.68952	24053.9375
664.65319	23980.4375
668.61405	23590.4375
672.57211	23448.0375
676.52738	23468.9375
680.47986	23511.4375
684.42955	23438.5375
688.37646	23382.6375
692.32058	23418.6375
696.26192	23525.9375
700.20048	23722.0375
704.13626	23830.1375
708.06928	23730.9375
711.99952	23531.4375
715.927	23504.1375
719.85171	23510.3375
723.77365	23488.5375
727.69284	23300.3375
731.60928	23229.5375
735.52295	23143.9375
739.43388	23205.7375
743.34206	23337.4375
747.24749	23410.5375
751.15017	23503.0375
755.05012	23749.2375
758.94733	24261.3375
762.8418	25328.4375
766.73354	27152.9375
770.62254	29176.2375
774.50882	30153.1375
778.39237	29202.2375
782.27321	26994.7375
786.15132	25117.3375
790.02671	23989.2375
793.89938	23462.4375
797.76935	23197.6375
801.6366	23177.8375
805.50115	23079.3375
809.36299	23019.1375
813.22213	22910.1375
817.07857	22816.3375
820.93231	22756.6375
824.78336	22754.2375
828.63172	22774.3375
832.47738	22768.4375
836.32036	22797.8375
840.16066	22866.6375
843.99827	22875.8375
847.8332	22826.1375
851.66546	22788.7375
855.49504	22741.7375
859.32195	22735.4375
863.1462	22685.4375
866.96777	22642.3375
870.78668	22663.0375
874.60293	22639.8375
878.41652	22633.3375
882.22745	22713.3375
886.03573	22823.0375
889.84136	22784.5375
893.64433	22696.6375
897.44466	22568.6375
901.24235	22450.7375
905.0374	22409.3375
908.8298	22348.4375
912.61957	22347.1375
916.40671	22474.8375
920.19121	22614.7375
923.97308	22842.8375
927.75233	22937.8375
931.52895	22978.4375
935.30295	22840.7375
939.07433	22515.8375
942.84309	22241.9375
946.60924	22112.7375
950.37278	22010.2375
954.13371	21915.6375
957.89203	21768.5375
961.64774	21708.5375
965.40086	21635.8375
969.15137	21528.2375
972.89929	21483.4375
976.64461	21463.3375
980.38733	21493.2375
984.12747	21586.5375
987.86502	21737.2375
991.59999	21958.1375
995.33237	22274.7375
999.06217	22849.5375
1002.78939	23453.8375
1006.51404	23863.0375
1010.23611	24176.4375
1013.95561	24373.2375
1017.67255	24387.5375
1021.38692	24234.3375
1025.09872	24122.4375
1028.80796	24273.7375
1032.51465	24834.0375
1036.21877	25300.7375
1039.92035	25395.2375
1043.61937	25087.5375
1047.31584	24517.6375
1051.00976	23922.5375
1054.70114	23595.4375
1058.38998	23480.9375
1062.07627	23537.9375
1065.76003	23598.4375
1069.44126	23748.2375
1073.11995	23951.9375
1076.79611	24172.5375
1080.46974	24286.5375
1084.14085	24390.8375
1087.80943	24586.3375
1091.47549	24678.5375
1095.13903	24506.0375
1098.80005	24205.9375
1102.45857	23838.2375
1106.11456	23611.4375
1109.76805	23610.0375
1113.41903	23797.0375
1117.06751	24069.4375
1120.71348	24358.2375
1124.35696	24680.5375
1127.99793	24983.9375
1131.63641	25111.2375
1135.2724	24911.3375
1138.90589	24602.7375
1142.5369	24346.2375
1146.16542	24051.7375
1149.79145	23913.8375
1153.415	23874.7375
1157.03607	24044.5375
1160.65467	24418.0375
1164.27079	24983.2375
1167.88443	25857.8375
1171.49561	27106.9375
1175.10432	28850.9375
1178.71056	31122.9375
1182.31434	33333.7375
1185.91565	34609.0375
1189.51451	34740.7375
1193.11091	33716.4375
1196.70485	32123.5375
1200.29634	30671.3375
1203.88538	29554.4375
1207.47197	28516.0375
1211.05612	27706.4375
1214.63782	27226.3375
1218.21708	27019.4375
1221.79391	27026.2375
1225.36829	27116.5375
1228.94024	27124.4375
1232.50976	26919.9375
1236.07685	26761.9375
1239.6415	26685.4375
1243.20374	26725.0375
1246.76355	26831.7375
1250.32093	27147.7375
1253.8759	27637.0375
1257.42845	28308.3375
1260.97859	28919.0375
1264.52631	29451.8375
1268.07163	30082.2375
1271.61453	30799.3375
1275.15503	31550.1375
1278.69312	32311.2375
1282.22882	32862.3375
1285.76211	33209.1375
1289.29301	33644.1375
1292.82151	34187.8375
1296.34761	35034.8375
1299.87133	36273.8375
1303.39266	38007.8375
1306.9116	40360.1375
1310.42815	42732.3375
1313.94233	44184.7375
1317.45412	44049.4375
1320.96354	42908.1375
1324.47058	41549.7375
1327.97525	40284.4375
1331.47754	39485.4375
1334.97747	39211.9375
1338.47502	39480.5375
1341.97022	39914.4375
1345.46305	40164.7375
1348.95352	40270.3375
1352.44163	40683.2375
1355.92738	41786.5375
1359.41078	44094.0375
1362.89183	46363.8375
1366.37053	45634.0375
1369.84688	41631.3375
1373.32088	37070.0375
1376.79254	33949.1375
1380.26186	32378.4375
1383.72883	31760.9375
1387.19347	31248.1375
1390.65578	30702.5375
1394.11575	30366.8375
1397.57339	30436.5375
1401.0287	30698.0375
1404.48168	31166.8375
1407.93234	31638.4375
1411.38068	31944.6375
1414.82669	31855.9375
1418.27039	31323.1375
1421.71177	30563.1375
1425.15083	29932.2375
1428.58758	29470.7375
1432.02203	29348.9375
1435.45416	29575.0375
1438.88399	29850.5375
1442.31151	30136.9375
1445.73673	30343.7375
1449.15965	30610.0375
1452.58027	30765.9375
1455.9986	30837.6375
1459.41463	30975.2375
1462.82837	31322.9375
1466.23982	31857.8375
1469.64898	32451.9375
1473.05586	32863.9375
1476.46045	33043.1375
1479.86276	33149.6375
1483.26279	33242.4375
1486.66054	33485.7375
1490.05602	33766.4375
1493.44922	34217.7375
1496.84016	34826.8375
1500.22882	35657.1375
1503.61521	37093.0375
1506.99934	38913.5375
1510.38121	40559.7375
1513.76081	41020.7375
1517.13816	39797.9375
1520.51324	37515.1375
1523.88607	35302.9375
1527.25665	33807.9375
1530.62498	32873.7375
1533.99105	32369.5375
1537.35488	32030.7375
1540.71647	31810.7375
1544.07581	31614.4375
1547.4329	31445.0375
1550.78776	31329.7375
1554.14038	31267.9375
1557.49077	31325.2375
1560.83892	31350.4375
1564.18484	31440.9375
1567.52853	31480.9375
1570.86999	31563.2375
1574.20922	31739.7375
1577.54624	31839.6375
1580.88103	31553.0375
1584.2136	31165.2375
1587.54395	31215.4375
1590.87208	32072.5375
1594.19801	33492.0375
1597.52172	35260.6375
1600.84321	36136.7375
1604.16251	35318.4375
1607.47959	33502.3375
1610.79447	31425.0375
1614.10715	29462.8375
1617.41763	27742.9375
1620.7259	26566.3375
1624.03199	25972.9375
1627.33587	25927.5375
1630.63757	26400.8375
1633.93707	27412.3375
1637.23439	28933.3375
1640.52951	30867.1375
1643.82246	33013.2375
1647.11321	34815.2375
1650.40179	35446.6375
1653.68819	34032.3375
1656.97241	31010.1375
1660.25446	27798.1375
1663.53433	25337.3375
1666.81203	23770.4375
1670.08756	22800.3375
1673.36092	22140.6375
1676.63211	21707.1375
1679.90115	21370.2375
1683.16801	21122.9375
1686.43272	20931.2375
1689.69527	20822.1375
1692.95567	20693.7375
1696.2139	20635.0375
1699.46999	20567.9375
1702.72392	20517.0375
1705.97571	20482.3375
1709.22535	20438.7375
1712.47284	20367.5375
1715.71819	20392.6375
1718.96139	20310.0375
1722.20246	20262.1375
1725.44139	20209.0375
1728.67818	20131.8375
1731.91284	20048.5375
1735.14537	19926.2375
1738.37576	19896.7375
1741.60403	19822.0375
1744.83017	19756.6375
1748.05418	19727.6375
1751.27607	19703.9375
1754.49584	19669.7375
1757.71349	19672.3375
1760.92903	19682.9375
1764.14244	19667.1375
1767.35375	19650.7375
1770.56294	19643.0375
1773.77002	19597.3375
1776.97499	19572.8375
1780.17785	19559.7375
1783.37861	19522.4375
1786.57727	19485.2375
1789.77382	19456.4375
1792.96828	19409.7375
1796.16064	19395.0375
1799.3509	19410.6375
1802.53907	19380.1375
1805.72514	19334.7375
1808.90913	19299.4375
1812.09102	19276.5375
1815.27083	19235.2375
1818.44856	19189.1375
1821.6242	19170.4375
1824.79776	19148.2375
1827.96924	19143.3375
1831.13864	19129.5375
1834.30597	19174.9375
1837.47122	19150.5375
1840.6344	19125.1375
1843.7955	19144.2375
1846.95454	19133.8375
1850.11151	19151.0375
1853.26642	19140.9375
1856.41926	19118.7375
1859.57004	19126.2375
1862.71876	19135.8375
1865.86542	19130.5375
1869.01003	19095.5375
1872.15258	19089.7375
1875.29308	19111.6375
1878.43152	19103.4375
1881.56792	19095.5375
1884.70227	19085.5375
1887.83457	19062.0375
1890.96482	19091.3375
1894.09304	19047.9375
1897.21921	19028.2375
1900.34335	19043.1375
1903.46544	19017.5375
1906.58551	19019.1375
1909.70353	18974.2375
1912.81953	18990.9375
1915.93349	18968.7375
1919.04543	18956.1375
1922.15534	18895.2375
1925.26322	18850.8375
1928.36908	18828.3375
1931.47292	18792.8375
1934.57473	18725.3375
1937.67453	18670.5375
1940.77232	18605.6375
1943.86808	18557.4375
1946.96184	18503.0375
1950.05358	18443.3375
1953.14331	18362.9375
1956.23103	18338.3375
1959.31675	18302.5375
1962.40046	18243.6375
1965.48217	18205.7375
1968.56188	18178.6375
1971.63959	18106.3375
1974.7153	18030.0375
1977.78901	17990.5375
1980.86073	17983.4375
1983.93046	17885.6375
1986.99819	17822.6375
1990.06394	17796.4375
1993.1277	17734.0375
1996.18947	17677.1375
1999.24925	17640.3375
2002.30706	17590.7375
2005.36288	17565.7375
2008.41672	17517.4375
2011.46859	17465.7375
2014.51848	17426.6375
2017.56639	17374.4375
2020.61233	17324.3375
2023.6563	17281.2375
2026.6983	17297.2375
2029.73833	17240.3375
2032.7764	17200.7375
2035.8125	17188.0375
2038.84664	17141.4375
2041.87881	17142.9375
2044.90903	17136.4375
2047.93729	17096.4375
2050.96359	17081.8375
2053.98794	17034.8375
2057.01034	17001.8375
2060.03078	17002.1375
2063.04927	17005.4375
2066.06582	16983.7375
2069.08042	17003.4375
2072.09307	16970.7375
2075.10378	16935.1375
2078.11255	16940.4375
2081.11938	16928.0375
2084.12426	16914.0375
2087.12722	16884.3375
2090.12824	16914.9375
2093.12732	16930.8375
2096.12447	16910.2375
2099.11969	16912.5375
2102.11299	16915.5375
2105.10435	16895.0375
2108.09379	16929.1375
2111.08131	16958.1375
2114.0669	16954.4375
2117.05057	16963.2375
2120.03233	16968.8375
2123.01216	16966.3375
2125.99008	17013.9375
2128.96609	16989.3375
2131.94018	17028.2375
2134.91236	17058.7375
2137.88263	17072.4375
2140.851	17062.8375
2143.81746	17099.7375
2146.78201	17121.5375
2149.74466	17131.8375
2152.7054	17081.6375
2155.66425	17094.3375
2158.6212	17125.4375
2161.57625	17084.7375
2164.52941	17079.1375
2167.48067	17115.4375
2170.43004	17084.6375
2173.37752	17102.7375
2176.32311	17066.2375
2179.26681	17109.7375
2182.20863	17077.3375
2185.14856	17068.3375
2188.08661	17078.8375
2191.02278	17090.1375
2193.95707	17095.2375
2196.88948	17095.9375
2199.82001	17109.4375
2202.74867	17040.1375
2205.67545	17057.3375
2208.60037	17072.0375
2211.52341	17040.5375
2214.44458	17057.3375
2217.36388	17011.7375
2220.28132	16975.7375
2223.1969	16922.0375
2226.11061	16927.1375
2229.02246	16947.8375
2231.93245	16887.4375
2234.84058	16809.5375
2237.74686	16807.3375
2240.65128	16820.8375
2243.55385	16798.3375
2246.45456	16756.3375
2249.35343	16723.4375
2252.25044	16720.7375
2255.14561	16656.6375
2258.03893	16691.1375
2260.93041	16657.5375
2263.82004	16606.5375
2266.70783	16579.6375
2269.59378	16514.3375
2272.4779	16520.5375
2275.36017	16476.8375
2278.24061	16455.1375
2281.11922	16404.7375
2283.996	16388.4375
2286.87094	16378.9375
2289.74405	16372.1375
2292.61534	16364.0375
2295.4848	16345.4375
2298.35243	16361.3375
2301.21824	16340.7375
2304.08223	16360.0375
2306.94439	16329.2375
2309.80474	16352.4375
2312.66327	16379.1375
2315.51999	16354.2375
2318.37489	16353.9375
2321.22797	16321.5375
2324.07925	16315.5375
2326.92871	16315.4375
2329.77637	16288.2375
2332.62222	16277.3375
2335.46626	16291.6375
2338.3085	16237.6375
2341.14893	16255.6375
2343.98756	16267.4375
2346.8244	16266.0375
2349.65943	16257.4375
2352.49267	16256.6375
2355.32411	16263.5375
2358.15376	16240.3375
2360.98161	16231.8375
2363.80768	16202.2375
2366.63195	16207.1375
2369.45444	16147.1375
2372.27514	16130.4375
2375.09405	16142.3375
2377.91118	16096.8375
2380.72652	16039.9375
2383.54009	15995.8375
2386.35187	15991.5375
2389.16188	15961.9375
2391.97011	15928.6375
2394.77657	15917.7375
2397.58125	15879.5375
2400.38416	15848.8375
2403.18529	15808.5375
2405.98466	15808.9375
2408.78226	15745.6375
2411.57809	15748.0375
2414.37216	15744.8375
2417.16446	15718.9375
2419.955	15705.9375
2422.74378	15672.4375
2425.5308	15644.1375
2428.31606	15661.7375
2431.09956	15658.9375
2433.88131	15653.1375
2436.6613	15632.8375
2439.43954	15615.0375
2442.21603	15614.6375
2444.99077	15603.1375
2447.76377	15616.2375
2450.53501	15567.5375
2453.30451	15603.2375
2456.07226	15582.7375
2458.83827	15549.8375
2461.60254	15520.5375
2464.36507	15569.4375
2467.12586	15539.7375
2469.88492	15570.2375
2472.64224	15537.4375
2475.39782	15512.0375
2478.15167	15548.9375
2480.90379	15541.6375
2483.65417	15548.1375
2486.40283	15578.3375
2489.14976	15558.5375
2491.89497	15532.2375
2494.63845	15570.4375
2497.3802	15568.1375
2500.12024	15552.5375
2502.85855	15532.0375
2505.59514	15529.2375
2508.33002	15508.7375
2511.06318	15488.0375
2513.79462	15485.7375
2516.52435	15432.1375
2519.25237	15466.6375
2521.97867	15427.1375
2524.70327	15410.9375
2527.42616	15404.6375
2530.14734	15403.9375
2532.86681	15377.6375
2535.58458	15384.5375
2538.30065	15366.3375
2541.01501	15372.6375
2543.72768	15331.3375
2546.43864	15338.2375
2549.14791	15304.4375
2551.85548	15304.3375
2554.56136	15257.7375
2557.26554	15234.8375
2559.96803	15260.4375
2562.66883	15241.1375
2565.36794	15221.0375
2568.06536	15174.0375
2570.7611	15179.3375
2573.45514	15154.0375
2576.14751	15172.6375
2578.83819	15123.1375
2581.52719	15108.1375
2584.21451	15161.3375
2586.90015	15126.1375
2589.58411	15117.9375
2592.2664	15102.8375
2594.94701	15060.9375
2597.62594	15092.2375
2600.30321	15044.2375
2602.9788	15059.1375
2605.65273	15049.1375
2608.32498	15022.5375
2610.99557	15048.8375
2613.66449	14997.3375
2616.33175	15008.5375
2618.99734	15001.8375
2621.66128	14985.9375
2624.32355	14996.6375
2626.98416	15001.4375
2629.64311	14974.7375
2632.30041	15017.8375
2634.95605	14970.0375
2637.61004	14966.3375
2640.26238	14895.4375
2642.91306	14931.3375
2645.56209	14901.4375
2648.20948	14894.8375
2650.85521	14879.1375
2653.4993	14889.7375
2656.14175	14862.0375
2658.78255	14880.5375
2661.42171	14889.9375
2664.05923	14926.7375
2666.6951	14890.2375
2669.32934	14916.7375
2671.96194	14911.7375
2674.59291	14896.4375
2677.22224	14923.9375
2679.84993	14897.5375
2682.476	14890.8375
2685.10043	14905.0375
2687.72324	14900.2375
2690.34441	14862.8375
2692.96396	14836.7375
2695.58188	14893.4375
2698.19818	14876.8375
2700.81285	14866.6375
2703.4259	14879.3375
2706.03733	14904.7375
2708.64714	14891.9375
2711.25533	14877.9375
2713.86191	14885.8375
2716.46687	14855.6375
2719.07021	14898.4375
2721.67194	14923.4375
2724.27206	14892.9375
2726.87057	14895.2375
2729.46747	14884.2375
2732.06276	14918.6375
2734.65644	14897.2375
2737.24852	14887.6375
2739.83899	14873.7375
2742.42786	14903.7375
2745.01513	14873.1375
2747.60079	14872.4375
2750.18486	14841.0375
2752.76733	14875.7375
2755.3482	14849.6375
2757.92747	14831.8375
2760.50515	14831.6375
2763.08123	14827.5375
2765.65573	14804.5375
2768.22863	14802.8375
2770.79994	14778.1375
2773.36967	14776.6375
2775.9378	14758.9375
2778.50435	14735.3375
2781.06932	14730.9375
2783.6327	14710.4375
2786.1945	14727.5375
2788.75471	14688.3375
2791.31335	14667.0375
2793.87041	14652.1375
2796.42589	14619.1375
2798.97979	14594.7375
2801.53212	14576.1375
2804.08288	14573.1375
2806.63206	14500.0375
2809.17967	14508.9375
2811.72571	14499.5375
2814.27018	14492.6375
2816.81308	14480.9375
2819.35442	14455.4375
2821.89419	14421.3375
2824.43239	14425.1375
2826.96904	14413.3375
2829.50412	14411.6375
2832.03763	14374.0375
2834.56959	14398.0375
2837.1	14344.0375
2839.62884	14345.2375
2842.15613	14336.1375
2844.68186	14351.4375
2847.20604	14360.4375
2849.72867	14348.8375
2852.24974	14323.0375
2854.76927	14332.4375
2857.28724	14311.4375
2859.80367	14268.4375
2862.31855	14254.5375
2864.83189	14266.7375
2867.34368	14233.9375
2869.85393	14274.1375
2872.36264	14235.6375
2874.8698	14255.0375
2877.37543	14239.3375
2879.87952	14241.1375
2882.38207	14261.4375
2884.88308	14240.0375
2887.38256	14262.3375
2889.88051	14245.2375
2892.37692	14259.7375
2894.8718	14240.9375
2897.36515	14267.5375
2899.85698	14245.7375
2902.34727	14331.1375
2904.83604	14283.7375
2907.32328	14301.7375
2909.809	14290.4375
2912.29319	14323.7375
2914.77587	14309.9375
2917.25702	14332.6375
2919.73665	14288.5375
2922.21476	14295.4375
2924.69136	14246.5375
2927.16644	14312.8375
2929.64	14260.5375
2932.11205	14227.7375
2934.58258	14189.7375
2937.05161	14196.0375
2939.51912	14212.1375
2941.98513	14191.8375
2944.44962	14199.0375
2946.91261	14132.7375
2949.37409	14179.4375
2951.83407	14178.0375
2954.29254	14149.1375
2956.74951	14152.4375
2959.20498	14121.7375
2961.65895	14088.6375
2964.11142	14095.1375
2966.56239	14059.9375
2969.01186	14068.6375
2971.45984	14025.0375
2973.90632	14036.9375
2976.35131	13996.3375
2978.7948	13933.9375
2981.23681	13915.9375
2983.67732	13890.3375
2986.11635	13875.1375
2988.55388	13832.9375
2990.98993	13837.0375
2993.4245	13798.3375
2995.85758	13778.5375
2998.28917	13752.9375
3000.71928	13759.2375
3003.14791	13737.6375
3005.57506	13725.8375
3008.00073	13656.2375
3010.42493	13664.4375
3012.84764	13633.6375
3015.26888	13636.4375
3017.68865	13617.3375
3020.10694	13634.2375
3022.52376	13555.3375
3024.9391	13559.6375
