Data from AgNPs_FTO_APTES_UA_5uM_R6G_10uM_NaF_0.1M_Addition_RamanShift__9__12-36-07-257.txt Node

Date: Fri Dec 17 12:36:07 GMT 2021
User: TCL
Spectrometer: QEP01345
Trigger mode: 4
Integration Time (sec): 7.000000E0
Scans to average: 10
Electric dark correction enabled: true
Nonlinearity correction enabled: false
Boxcar width: 0
XAxis mode: Raman Shifts
Number of Pixels in Spectrum: 1044
>>>>>Begin Spectral Data<<<<<
46.04893	-0.2
50.45542	-0.1
54.85868	-1.3
59.25871	-0.5
63.6555	114.1
68.04907	120.7
72.43941	124.2
76.82654	134.5
81.21044	134.6
85.59113	140.9
89.96862	152.4
94.34289	153.6
98.71396	157.3
103.08183	158.7
107.4465	166
111.80798	170.4
116.16626	177.6
120.52136	178.4
124.87327	188.2
129.222	199.5
133.56755	203.5
137.90993	221.8
142.24913	241.7
146.58517	271
150.91804	314.6
155.24774	370.4
159.57429	458.3
163.89768	580.4
168.21792	764.5
172.53501	1027.4
176.84895	1433.8
181.15975	1996.7
185.46741	2792.1
189.77193	3851.5
194.07331	5148.6
198.37157	6655.5
202.6667	8200.4
206.9587	9777.5
211.24758	11273.6
215.53334	12780.6
219.81599	14345.3
224.09553	16091.7
228.37195	18034.9
232.64527	20175.8
236.91549	22442.4
241.18261	24771
245.44663	27041.3
249.70755	29071.5
253.96539	30854.5
258.22014	32313
262.4718	33505.4
266.72039	34280.7
270.96589	34691.6
275.20832	34757.7
279.44768	34508.1
283.68397	34145.9
287.91719	33800.3
292.14735	33510
296.37445	33337.6
300.59849	33230.2
304.81948	33226.7
309.03742	33250.1
313.25231	33160.9
317.46415	32822.6
321.67296	32349.6
325.87872	32006.2
330.08145	31774.1
334.28114	31808.4
338.47781	32060.5
342.67145	32383.6
346.86207	32812.7
351.04966	33321.8
355.23424	33863.8
359.4158	34276.2
363.59435	34675.2
367.76989	35026.1
371.94243	35212.3
376.11196	35367
380.27849	35495
384.44203	35633
388.60257	35932.2
392.76012	36348.4
396.91468	36789.4
401.06626	37346.6
405.21485	37729.1
409.36047	37666.3
413.50311	37500.6
417.64277	37435.7
421.77947	37618.4
425.9132	37889.2
430.04396	38087.6
434.17176	38238.6
438.2966	38313.6
442.41849	38643.4
446.53742	39220.6
450.6534	39901.3
454.76644	40441.4
458.87653	40659.5
462.98368	40691.1
467.08789	40376.5
471.18916	40064.8
475.2875	39530.8
479.38291	39184.1
483.4754	38820.9
487.56496	38490.4
491.6516	38226.9
495.73531	38061.8
499.81612	38062.9
503.89401	38364.3
507.96899	38609.6
512.04106	38759.8
516.11023	38644.2
520.1765	38433.1
524.23987	38056.1
528.30034	37762.9
532.35792	37476.6
536.41261	37226
540.46441	37015.7
544.51333	37016.6
548.55936	37312.1
552.60252	37797.3
556.64279	38306.1
560.6802	38661.4
564.71473	38884.6
568.7464	39233.5
572.7752	39965.8
576.80114	40899.9
580.82422	42116.7
584.84444	43524.5
588.86181	44931.9
592.87633	45921.4
596.888	45654.3
600.89682	44438
604.9028	44431.8
608.90594	46335.2
612.90624	47982.2
616.90371	45727
620.89834	40915.7
624.89015	38851.1
628.87913	38613.3
632.86528	38837.2
636.84862	38831
640.82913	38424.4
644.80683	37764.6
648.78172	37287.2
652.75379	37295.1
656.72306	37647
660.68952	38078.7
664.65319	37926.6
668.61405	37541
672.57211	37557
676.52738	37712.9
680.47986	37715.1
684.42955	37502.7
688.37646	37379.6
692.32058	37588.2
696.26192	38010.4
700.20048	38490.3
704.13626	38740.6
708.06928	38688.7
711.99952	38539.6
715.927	38483.2
719.85171	38492.7
723.77365	38367.7
727.69284	38007.1
731.60928	37552.5
735.52295	37410.8
739.43388	37295.2
743.34206	37455.3
747.24749	37614.4
751.15017	37825.1
755.05012	38291
758.94733	39036.1
762.8418	40296.9
766.73354	42121.7
770.62254	43844.7
774.50882	44011.5
778.39237	42738.1
782.27321	40958.1
786.15132	39437.3
790.02671	38461.1
793.89938	37901.1
797.76935	37704.2
801.6366	37555.5
805.50115	37561.8
809.36299	37436.6
813.22213	37143.6
817.07857	36977
820.93231	36815.6
824.78336	36709.6
828.63172	36678.1
832.47738	36634
836.32036	36630.4
840.16066	36588.8
843.99827	36588
847.8332	36642.5
851.66546	36674.2
855.49504	36726.4
859.32195	36767
863.1462	36709.2
866.96777	36747.6
870.78668	36792.3
874.60293	36785.7
878.41652	36840.7
882.22745	36966.8
886.03573	37079.8
889.84136	37165.3
893.64433	37084.3
897.44466	36963.7
901.24235	36900.7
905.0374	36782.3
908.8298	36775.8
912.61957	36804.5
916.40671	36982.7
920.19121	37370.3
923.97308	37620.9
927.75233	37626.9
931.52895	37373.9
935.30295	36948.5
939.07433	36566.8
942.84309	36218.1
946.60924	36079.6
950.37278	36061.3
954.13371	36055.5
957.89203	35977.6
961.64774	35988.8
965.40086	35942.4
969.15137	35884.6
972.89929	35852.7
976.64461	35749.5
980.38733	35778.3
984.12747	35859.3
987.86502	35955.3
991.59999	36096.9
995.33237	36310.7
999.06217	36708
1002.78939	37311
1006.51404	37919.7
1010.23611	38540.3
1013.95561	38924.1
1017.67255	38939.7
1021.38692	38564.2
1025.09872	38125.8
1028.80796	37720.5
1032.51465	37583.3
1036.21877	37649
1039.92035	37736.5
1043.61937	37812.4
1047.31584	37802.5
1051.00976	37808.4
1054.70114	37879.5
1058.38998	38108
1062.07627	38459.1
1065.76003	38870.6
1069.44126	39366.2
1073.11995	39947.8
1076.79611	40492.4
1080.46974	40726.1
1084.14085	40843.8
1087.80943	41011.8
1091.47549	41283.7
1095.13903	41357.3
1098.80005	41044.1
1102.45857	40351.6
1106.11456	39787.3
1109.76805	39347
1113.41903	39188.6
1117.06751	39233.8
1120.71348	39359.1
1124.35696	39579.3
1127.99793	39864.7
1131.63641	40076.7
1135.2724	40058.7
1138.90589	39994.9
1142.5369	40098.3
1146.16542	40225.2
1149.79145	40484.5
1153.415	40672.4
1157.03607	40908
1160.65467	41631.4
1164.27079	42995.5
1167.88443	44579.4
1171.49561	46257.1
1175.10432	48166.6
1178.71056	50531.6
1182.31434	52866.9
1185.91565	54526.1
1189.51451	55181.8
1193.11091	54892.6
1196.70485	53718.7
1200.29634	52136.7
1203.88538	50780.9
1207.47197	49997.5
1211.05612	49452.2
1214.63782	48755.3
1218.21708	47775.8
1221.79391	46730.2
1225.36829	45962.5
1228.94024	45476.5
1232.50976	45296.9
1236.07685	45095.3
1239.6415	44920.5
1243.20374	44987.6
1246.76355	45244.1
1250.32093	45760.4
1253.8759	46441.8
1257.42845	47391.8
1260.97859	48514.8
1264.52631	49704.4
1268.07163	50817.2
1271.61453	51884.7
1275.15503	52801.9
1278.69312	53752.1
1282.22882	54600.4
1285.76211	55500.9
1289.29301	56651.8
1292.82151	57976.9
1296.34761	59822.8
1299.87133	62088.9
1303.39266	64452.8
1306.9116	66671.2
1310.42815	68393.1
1313.94233	69305.8
1317.45412	69165.3
1320.96354	68684.3
1324.47058	68603
1327.97525	68608.1
1331.47754	68830.9
1334.97747	69344.3
1338.47502	69603.5
1341.97022	69883
1345.46305	69797.1
1348.95352	69474.1
1352.44163	68905
1355.92738	68706.3
1359.41078	69163.3
1362.89183	69539.6
1366.37053	68209
1369.84688	64554.9
1373.32088	59818.1
1376.79254	56119.6
1380.26186	54465.5
1383.72883	54221.7
1387.19347	54178.6
1390.65578	53705.8
1394.11575	53382.7
1397.57339	53606.7
1401.0287	54203.5
1404.48168	54733.8
1407.93234	55075.2
1411.38068	54678.9
1414.82669	53676.2
1418.27039	52214.7
1421.71177	50717.1
1425.15083	49636.8
1428.58758	49273.3
1432.02203	49759.7
1435.45416	50719.6
1438.88399	51878.8
1442.31151	52658.4
1445.73673	52929
1449.15965	52979.4
1452.58027	52931.8
1455.9986	52835.4
1459.41463	53102
1462.82837	53888.1
1466.23982	54698.5
1469.64898	55382.2
1473.05586	55777.8
1476.46045	55752.6
1479.86276	55408.8
1483.26279	55088.5
1486.66054	54891.2
1490.05602	55140.2
1493.44922	55520.4
1496.84016	56046.3
1500.22882	56820.5
1503.61521	57840.3
1506.99934	58901.8
1510.38121	59661.3
1513.76081	59593
1517.13816	58743.2
1520.51324	57597.4
1523.88607	56721.2
1527.25665	56452.9
1530.62498	56424.9
1533.99105	56284.6
1537.35488	55848.4
1540.71647	55020.3
1544.07581	54006.4
1547.4329	52982.1
1550.78776	52091
1554.14038	51510.1
1557.49077	51107.5
1560.83892	50831.9
1564.18484	50730.9
1567.52853	50644.7
1570.86999	50850
1574.20922	51442.7
1577.54624	52093.2
1580.88103	52345.2
1584.2136	52701
1587.54395	53681.4
1590.87208	55630.3
1594.19801	58038.6
1597.52172	60341.1
1600.84321	60999.3
1604.16251	59160.9
1607.47959	55910.9
1610.79447	52547.9
1614.10715	49270.7
1617.41763	46300.8
1620.7259	44212.5
1624.03199	43054.4
1627.33587	42928.2
1630.63757	43752.1
1633.93707	45853
1637.23439	49288.3
1640.52951	54119.9
1643.82246	59490.6
1647.11321	63143.5
1650.40179	63053.1
1653.68819	58909.1
1656.97241	52641.7
1660.25446	46819.7
1663.53433	42589.3
1666.81203	39831.1
1670.08756	38031.2
1673.36092	36932.6
1676.63211	36169.2
1679.90115	35643.7
1683.16801	35193.8
1686.43272	34901.1
1689.69527	34672
1692.95567	34410.8
1696.2139	34373.1
1699.46999	34226.8
1702.72392	34154
1705.97571	34095.7
1709.22535	34066.6
1712.47284	34020.4
1715.71819	34014.3
1718.96139	33942.8
1722.20246	33827.7
1725.44139	33726
1728.67818	33584.9
1731.91284	33429.8
1735.14537	33269
1738.37576	33151
1741.60403	33028.4
1744.83017	32889.5
1748.05418	32838.5
1751.27607	32810
1754.49584	32687.8
1757.71349	32711
1760.92903	32662.6
1764.14244	32649.1
1767.35375	32682.6
1770.56294	32649.8
1773.77002	32564.9
1776.97499	32536.9
1780.17785	32485.4
1783.37861	32466.4
1786.57727	32390.8
1789.77382	32296.6
1792.96828	32274.8
1796.16064	32221.5
1799.3509	32184.7
1802.53907	32147.9
1805.72514	32067.5
1808.90913	32023.7
1812.09102	31910.5
1815.27083	31876.4
1818.44856	31855.7
1821.6242	31841.5
1824.79776	31833.9
1827.96924	31843
1831.13864	31876.5
1834.30597	31868.5
1837.47122	31889.2
1840.6344	31887.2
1843.7955	31883.1
1846.95454	31841.1
1850.11151	31808.5
1853.26642	31770.7
1856.41926	31782.6
1859.57004	31766.7
1862.71876	31733.1
1865.86542	31706.2
1869.01003	31625.8
1872.15258	31569.1
1875.29308	31543.9
1878.43152	31494.5
1881.56792	31462.8
1884.70227	31449
1887.83457	31439.6
1890.96482	31340.1
1894.09304	31304.2
1897.21921	31269.9
1900.34335	31239.9
1903.46544	31190.4
1906.58551	31137.1
1909.70353	31088.4
1912.81953	31041.3
1915.93349	30946.9
1919.04543	30868.3
1922.15534	30858.2
1925.26322	30766.4
1928.36908	30755.3
1931.47292	30682.2
1934.57473	30565.4
1937.67453	30521.9
1940.77232	30413.1
1943.86808	30325.8
1946.96184	30314.2
1950.05358	30237.1
1953.14331	30158.5
1956.23103	30048.6
1959.31675	29941.3
1962.40046	29913.3
1965.48217	29804.6
1968.56188	29744.8
1971.63959	29663.9
1974.7153	29532.6
1977.78901	29475.8
1980.86073	29373.4
1983.93046	29304.9
1986.99819	29237.6
1990.06394	29120.6
1993.1277	29051.3
1996.18947	28978.2
1999.24925	28916.4
2002.30706	28825.7
2005.36288	28686.8
2008.41672	28649.6
2011.46859	28607.5
2014.51848	28491.8
2017.56639	28428.5
2020.61233	28381.6
2023.6563	28327.2
2026.6983	28234.8
2029.73833	28221.3
2032.7764	28132.7
2035.8125	28043
2038.84664	28007.7
2041.87881	27966.2
2044.90903	27918.5
2047.93729	27877.3
2050.96359	27845.4
2053.98794	27802
2057.01034	27725.1
2060.03078	27737.2
2063.04927	27707.7
2066.06582	27747.8
2069.08042	27725.9
2072.09307	27701
2075.10378	27647.6
2078.11255	27604.5
2081.11938	27653.2
2084.12426	27566.4
2087.12722	27558.7
2090.12824	27612.3
2093.12732	27557
2096.12447	27613.3
2099.11969	27592.1
2102.11299	27601
2105.10435	27623.6
2108.09379	27653.6
2111.08131	27687.6
2114.0669	27679.3
2117.05057	27717.5
2120.03233	27696.1
2123.01216	27754
2125.99008	27795.9
2128.96609	27803.8
2131.94018	27805.8
2134.91236	27788.4
2137.88263	27830.2
2140.851	27862.4
2143.81746	27863.2
2146.78201	27915.6
2149.74466	27888.5
2152.7054	27910.1
2155.66425	27850.5
2158.6212	27860.6
2161.57625	27861
2164.52941	27829.3
2167.48067	27819.1
2170.43004	27827.5
2173.37752	27808.8
2176.32311	27821.5
2179.26681	27820.1
2182.20863	27782.2
2185.14856	27765.2
2188.08661	27765.4
2191.02278	27797.3
2193.95707	27771
2196.88948	27766.3
2199.82001	27720.9
2202.74867	27709.2
2205.67545	27712.7
2208.60037	27643.3
2211.52341	27589.3
2214.44458	27579.7
2217.36388	27477.5
2220.28132	27449.4
2223.1969	27374
2226.11061	27345.7
2229.02246	27334
2231.93245	27270.3
2234.84058	27276.7
2237.74686	27211
2240.65128	27216.8
2243.55385	27182.3
2246.45456	27099.8
2249.35343	27058.5
2252.25044	27021.3
2255.14561	26927
2258.03893	26960.6
2260.93041	26846.3
2263.82004	26843.9
2266.70783	26746.3
2269.59378	26713.1
2272.4779	26642.9
2275.36017	26591.5
2278.24061	26556.1
2281.11922	26463.7
2283.996	26438.1
2286.87094	26426.8
2289.74405	26332.2
2292.61534	26331.1
2295.4848	26348.4
2298.35243	26323.5
2301.21824	26296.7
2304.08223	26319.9
2306.94439	26258.8
2309.80474	26208.6
2312.66327	26255.8
2315.51999	26248.8
2318.37489	26192.4
2321.22797	26150
2324.07925	26166.8
2326.92871	26126.7
2329.77637	26012.8
2332.62222	26016.4
2335.46626	25972.8
2338.3085	25948.3
2341.14893	25911.9
2343.98756	25932.2
2346.8244	25914.7
2349.65943	25892.9
2352.49267	25860.2
2355.32411	25872.4
2358.15376	25829.2
2360.98161	25784.2
2363.80768	25790.3
2366.63195	25745
2369.45444	25750.4
2372.27514	25717.4
2375.09405	25667.5
2377.91118	25610.4
2380.72652	25585
2383.54009	25524.7
2386.35187	25484
2389.16188	25440.2
2391.97011	25390.1
2394.77657	25403.1
2397.58125	25333
2400.38416	25327.8
2403.18529	25232.3
2405.98466	25201.1
2408.78226	25171
2411.57809	25199.1
2414.37216	25147.6
2417.16446	25125.7
2419.955	25116.1
2422.74378	25127.4
2425.5308	25086.2
2428.31606	25026.2
2431.09956	25053.3
2433.88131	24970.3
2436.6613	24993
2439.43954	24928.7
2442.21603	24959.3
2444.99077	24934.7
2447.76377	24949.5
2450.53501	24885.4
2453.30451	24915.2
2456.07226	24851.6
2458.83827	24830.8
2461.60254	24801.5
2464.36507	24764.2
2467.12586	24792.2
2469.88492	24830.8
2472.64224	24788.4
2475.39782	24764.5
2478.15167	24746.3
2480.90379	24702
2483.65417	24708.1
2486.40283	24671.9
2489.14976	24692.8
2491.89497	24652.3
2494.63845	24675.5
2497.3802	24603.1
2500.12024	24599.3
2502.85855	24589.2
2505.59514	24599.3
2508.33002	24587.9
2511.06318	24540.5
2513.79462	24516.6
2516.52435	24543
2519.25237	24526.3
2521.97867	24496.5
2524.70327	24475.1
2527.42616	24473.7
2530.14734	24473.5
2532.86681	24411.3
2535.58458	24393.5
2538.30065	24361.1
2541.01501	24340.3
2543.72768	24312.9
2546.43864	24298.6
2549.14791	24259.4
2551.85548	24173.4
2554.56136	24168.9
2557.26554	24123.3
2559.96803	24111.5
2562.66883	24095.3
2565.36794	24095.7
2568.06536	24028
2570.7611	23985.5
2573.45514	23947.4
2576.14751	23980.8
2578.83819	23918.2
2581.52719	23866
2584.21451	23851.7
2586.90015	23845.5
2589.58411	23742.9
2592.2664	23744.7
2594.94701	23677.6
2597.62594	23670.3
2600.30321	23606.2
2602.9788	23612.3
2605.65273	23571.7
2608.32498	23566.4
2610.99557	23533.6
2613.66449	23544.6
2616.33175	23480.8
2618.99734	23526.3
2621.66128	23480.4
2624.32355	23432.6
2626.98416	23405.1
2629.64311	23360
2632.30041	23410.3
2634.95605	23372.3
2637.61004	23328.6
2640.26238	23317.3
2642.91306	23311.9
2645.56209	23307.6
2648.20948	23310.6
2650.85521	23313.3
2653.4993	23268.7
2656.14175	23263.1
2658.78255	23305.4
2661.42171	23246.5
2664.05923	23314
2666.6951	23322.8
2669.32934	23306.8
2671.96194	23313.6
2674.59291	23337.9
2677.22224	23300.7
2679.84993	23273
2682.476	23254.2
2685.10043	23271
2687.72324	23259.6
2690.34441	23250.7
2692.96396	23276.4
2695.58188	23267.3
2698.19818	23290.2
2700.81285	23260.6
2703.4259	23231.8
2706.03733	23263.7
2708.64714	23274.8
2711.25533	23279.2
2713.86191	23286.6
2716.46687	23270.2
2719.07021	23271
2721.67194	23288.4
2724.27206	23269.1
2726.87057	23252.6
2729.46747	23317
2732.06276	23299.9
2734.65644	23326.8
2737.24852	23299.7
2739.83899	23269.9
2742.42786	23298.4
2745.01513	23244.2
2747.60079	23223.5
2750.18486	23225
2752.76733	23197.6
2755.3482	23121.3
2757.92747	23158.7
2760.50515	23142.3
2763.08123	23129.8
2765.65573	23068.1
2768.22863	23054.2
2770.79994	23053.8
2773.36967	23037.9
2775.9378	23014.2
2778.50435	22962.1
2781.06932	22916.7
2783.6327	22887.7
2786.1945	22884.2
2788.75471	22878.5
2791.31335	22796.9
2793.87041	22731.4
2796.42589	22676.2
2798.97979	22681.3
2801.53212	22628
2804.08288	22607
2806.63206	22541.2
2809.17967	22542.6
2811.72571	22477.3
2814.27018	22447.8
2816.81308	22441.9
2819.35442	22335.6
2821.89419	22321.4
2824.43239	22281.2
2826.96904	22274.9
2829.50412	22249.3
2832.03763	22180.4
2834.56959	22140.6
2837.1	22131
2839.62884	22123.5
2842.15613	22080.6
2844.68186	22097.6
2847.20604	22074.8
2849.72867	22085.4
2852.24974	22035.6
2854.76927	22037.7
2857.28724	21984.4
2859.80367	21971.3
2862.31855	21921.7
2864.83189	21931
2867.34368	21911.7
2869.85393	21895
2872.36264	21861.7
2874.8698	21827.5
2877.37543	21858.9
2879.87952	21859.7
2882.38207	21852.4
2884.88308	21840.7
2887.38256	21798.3
2889.88051	21852.4
2892.37692	21859.5
2894.8718	21834.1
2897.36515	21827.2
2899.85698	21839.1
2902.34727	21867.2
2904.83604	21879.5
2907.32328	21912.7
2909.809	21865.4
2912.29319	21902.8
2914.77587	21892.8
2917.25702	21881.4
2919.73665	21839.9
2922.21476	21859.2
2924.69136	21805.8
2927.16644	21813.3
2929.64	21752.7
2932.11205	21756.4
2934.58258	21674.8
2937.05161	21699.1
2939.51912	21748.1
2941.98513	21679.1
2944.44962	21657.7
2946.91261	21588.5
2949.37409	21603.6
2951.83407	21641
2954.29254	21590.6
2956.74951	21566.4
2959.20498	21570.1
2961.65895	21517.5
2964.11142	21486.3
2966.56239	21413
2969.01186	21421.7
2971.45984	21339.4
2973.90632	21366.7
2976.35131	21335
2978.7948	21277.2
2981.23681	21260.1
2983.67732	21191.7
2986.11635	21151.9
2988.55388	21092.9
2990.98993	21053.7
2993.4245	21018.6
2995.85758	20984.1
2998.28917	20918.2
3000.71928	20896
3003.14791	20848.1
3005.57506	20820.6
3008.00073	20758.2
3010.42493	20779.4
3012.84764	20718.7
3015.26888	20755.2
3017.68865	20678.4
3020.10694	20655.6
3022.52376	20588.5
3024.9391	20558.6
3027.35298	20539.3
3029.76539	20509.6
3032.17632	20468.4
3034.5858	20410.4
3036.9938	20409
3039.40034	20377
3041.80542	20362.4
3044.20903	20298.6
3046.61118	20288.8
3049.01187	20263.4
3051.4111	20219.5
3053.80888	20194.6
3056.20519	20173.8
3058.60005	20069.9
3060.99345	20082
3063.3854	20040
3065.7759	19948.2
3068.16494	19936.8
3070.55254	19837.7
3072.93868	19807.8
3075.32338	19749
3077.70662	19728.4
3080.08842	19698.8
3082.46878	19681.1
3084.84769	19653.7
3087.22515	19639.4
3089.60118	19579.2
3091.97576	19549.2
3094.3489	19574.3
3096.72061	19517.7
3099.09087	19518.7
3101.4597	19510
3103.82709	19496.4
3106.19305	19443.9
3108.55757	19412.3
3110.92066	19343.5
3113.28232	19347.6
3115.64255	19248.1
3118.00134	19210.8
3120.35871	19211.7
3122.71466	19153.4
3125.06917	19124.3
3127.42226	19075.6
3129.77393	19061.3
3132.12417	19059.5
3134.47299	19016.3
3136.82039	19042.8
3139.16636	19059.7
3141.51092	19055.5
3143.85406	19035.6
3146.19579	19037.4
3148.53609	19028.7
3150.87499	19048.4
3153.21246	19019.1
3155.54853	19036.7
3157.88318	18965.9
3160.21642	19017.3
3162.54826	18961.6
3164.87868	18967.7
3167.2077	18899.7
3169.5353	18922.1
3171.86151	18866
3174.18631	18852.8
3176.5097	18856.9
3178.83169	18830
3181.15228	18821.8
3183.47147	18776.2
3185.78926	18743.4
3188.10565	18789.5
3190.42065	18745.8
3192.73424	18734.3
3195.04645	18705.1
3197.35725	18685.7
3199.66667	18695.8
3201.97469	18676.5
3204.28132	18669.1
3206.58656	18711.6
3208.8904	18670.7
3211.19287	18663.4
3213.49394	18649.3
3215.79363	18663.7
3218.09193	18641.8
3220.38884	18584.5
3222.68438	18567.7
3224.97853	18513.8
3227.2713	18538.8
3229.56269	18507.4
3231.8527	18484.5
3234.14133	18443.1
3236.42858	18389.3
3238.71446	18337.6
3240.99896	18341.6
3243.28209	18364.8
3245.56384	18340.5
3247.84423	18314.4
3250.12324	18305.1
3252.40088	18268.5
3254.67715	18259.1
3256.95205	18220
3259.22558	18173.9
3261.49775	18152.3
3263.76855	18106.3
3266.03799	18064.2
3268.30606	18084.9
3270.57277	18009.8
3272.83812	17997.1
3275.10211	17978.3
3277.36474	17942.8
3279.62601	17969.7
3281.88593	17921.9
3284.14448	17898.6
3286.40168	17868.1
3288.65753	17861.1
3290.91202	17843
3293.16516	17764.2
3295.41695	17750.3
3297.66738	17623.8
3299.91647	17563.7
3302.16421	17461.3
3304.4106	17382.7
3306.65564	17296.6
3308.89933	17155.7
3311.14169	17050.5
3313.38269	16928.8
3315.62236	16826
3317.86068	16703.3
3320.09766	16512.5
3322.3333	16407.8
3324.5676	16367.7
3326.80056	16082.7
3329.03219	16033.9
3331.26248	3.6
3333.49143	0.3
3335.71905	-0.6
