Data from AgNPs_FTO_APTES_UA_50uM_R6G_10uM_NaF_0.1M_Addition_RamanShift__9__14-46-47-406.txt Node

Date: Fri Dec 17 14:46:47 GMT 2021
User: TCL
Spectrometer: QEP01345
Trigger mode: 4
Integration Time (sec): 7.000000E0
Scans to average: 10
Electric dark correction enabled: true
Nonlinearity correction enabled: false
Boxcar width: 0
XAxis mode: Raman Shifts
Number of Pixels in Spectrum: 1044
>>>>>Begin Spectral Data<<<<<
46.04893	-0.075
50.45542	-0.575
54.85868	-1.775
59.25871	0.025
63.6555	88.325
68.04907	89.425
72.43941	96.725
76.82654	101.325
81.21044	103.025
85.59113	106.325
89.96862	113.425
94.34289	111.725
98.71396	121.025
103.08183	120.125
107.4465	126.625
111.80798	124.725
116.16626	128.825
120.52136	132.025
124.87327	138.625
129.222	145.925
133.56755	153.625
137.90993	171.525
142.24913	182.125
146.58517	204.525
150.91804	238.025
155.24774	279.225
159.57429	348.925
163.89768	437.025
168.21792	576.425
172.53501	776.325
176.84895	1083.825
181.15975	1518.825
185.46741	2127.725
189.77193	2924.025
194.07331	3928.425
198.37157	5082.925
202.6667	6297.125
206.9587	7493.225
211.24758	8656.225
215.53334	9855.025
219.81599	11059.625
224.09553	12403.425
228.37195	13875.925
232.64527	15563.025
236.91549	17342.625
241.18261	19133.325
245.44663	20822.025
249.70755	22383.125
253.96539	23754.125
258.22014	24908.225
262.4718	25767.425
266.72039	26402.525
270.96589	26728.625
275.20832	26757.825
279.44768	26670.525
283.68397	26408.725
287.91719	26149.425
292.14735	25980.825
296.37445	25881.125
300.59849	25945.825
304.81948	26034.625
309.03742	26006.325
313.25231	25889.525
317.46415	25541.925
321.67296	25017.225
325.87872	24584.125
330.08145	24383.825
334.28114	24391.025
338.47781	24631.525
342.67145	24875.425
346.86207	25196.725
351.04966	25605.925
355.23424	26017.825
359.4158	26425.025
363.59435	26740.725
367.76989	26978.225
371.94243	27165.525
376.11196	27292.625
380.27849	27394.325
384.44203	27528.925
388.60257	27739.825
392.76012	27965.725
396.91468	28311.625
401.06626	28730.625
405.21485	28984.525
409.36047	29000.625
413.50311	28731.525
417.64277	28468.625
421.77947	28435.125
425.9132	28501.425
430.04396	28629.125
434.17176	28742.825
438.2966	28883.425
442.41849	29105.925
446.53742	29434.125
450.6534	29840.825
454.76644	30244.025
458.87653	30504.925
462.98368	30592.625
467.08789	30484.125
471.18916	30296.325
475.2875	30043.025
479.38291	29747.725
483.4754	29511.625
487.56496	29304.625
491.6516	29108.625
495.73531	29028.125
499.81612	29042.825
503.89401	29206.825
507.96899	29353.025
512.04106	29411.225
516.11023	29418.125
520.1765	29311.625
524.23987	29141.425
528.30034	28913.225
532.35792	28772.725
536.41261	28587.825
540.46441	28441.625
544.51333	28456.125
548.55936	28675.025
552.60252	29044.225
556.64279	29468.925
560.6802	29672.925
564.71473	29753.325
568.7464	29970.125
572.7752	30357.925
576.80114	30814.525
580.82422	31349.425
584.84444	31889.525
588.86181	32244.325
592.87633	32310.025
596.888	32167.225
600.89682	32123.725
604.9028	32978.725
608.90594	35138.225
612.90624	37351.525
616.90371	35754.425
620.89834	31580.325
624.89015	29611.025
628.87913	29333.325
632.86528	29531.325
636.84862	29748.925
640.82913	29544.325
644.80683	29122.925
648.78172	28763.725
652.75379	28720.225
656.72306	28938.725
660.68952	29367.425
664.65319	29312.925
668.61405	29018.425
672.57211	29001.825
676.52738	29082.325
680.47986	29014.625
684.42955	28890.325
688.37646	28840.225
692.32058	28926.525
696.26192	29197.825
700.20048	29475.925
704.13626	29614.125
708.06928	29634.725
711.99952	29461.225
715.927	29375.325
719.85171	29343.925
723.77365	29289.325
727.69284	29052.825
731.60928	28813.625
735.52295	28650.625
739.43388	28676.225
743.34206	28712.425
747.24749	28782.025
751.15017	28960.125
755.05012	29201.725
758.94733	29742.325
762.8418	30717.225
766.73354	32326.425
770.62254	33954.125
774.50882	34429.525
778.39237	33469.325
782.27321	31866.225
786.15132	30421.325
790.02671	29538.725
793.89938	29025.725
797.76935	28813.625
801.6366	28725.425
805.50115	28664.125
809.36299	28563.125
813.22213	28421.025
817.07857	28355.925
820.93231	28324.325
824.78336	28278.125
828.63172	28278.325
832.47738	28219.725
836.32036	28202.225
840.16066	28180.625
843.99827	28120.425
847.8332	28146.625
851.66546	28159.225
855.49504	28204.425
859.32195	28232.225
863.1462	28170.925
866.96777	28174.425
870.78668	28165.125
874.60293	28217.325
878.41652	28210.125
882.22745	28306.625
886.03573	28406.225
889.84136	28426.925
893.64433	28356.225
897.44466	28241.825
901.24235	28167.525
905.0374	28140.525
908.8298	28063.125
912.61957	28094.325
916.40671	28183.125
920.19121	28404.325
923.97308	28547.125
927.75233	28549.725
931.52895	28380.925
935.30295	28249.825
939.07433	27923.925
942.84309	27721.125
946.60924	27594.525
950.37278	27496.625
954.13371	27454.725
957.89203	27433.925
961.64774	27446.825
965.40086	27363.225
969.15137	27370.725
972.89929	27337.025
976.64461	27291.625
980.38733	27312.725
984.12747	27338.025
987.86502	27466.025
991.59999	27570.325
995.33237	27700.925
999.06217	27992.325
1002.78939	28316.425
1006.51404	28737.225
1010.23611	29054.125
1013.95561	29245.125
1017.67255	29270.925
1021.38692	29129.225
1025.09872	28881.025
1028.80796	28717.325
1032.51465	28662.925
1036.21877	28729.125
1039.92035	28813.125
1043.61937	28877.725
1047.31584	28908.425
1051.00976	28868.325
1054.70114	28965.525
1058.38998	29056.725
1062.07627	29303.525
1065.76003	29643.725
1069.44126	29960.525
1073.11995	30413.525
1076.79611	30796.225
1080.46974	30962.125
1084.14085	31007.725
1087.80943	31084.125
1091.47549	31203.525
1095.13903	31221.725
1098.80005	31036.525
1102.45857	30586.625
1106.11456	30146.725
1109.76805	29924.425
1113.41903	29764.525
1117.06751	29793.525
1120.71348	29937.025
1124.35696	30183.125
1127.99793	30361.225
1131.63641	30511.125
1135.2724	30447.825
1138.90589	30288.825
1142.5369	30274.325
1146.16542	30264.725
1149.79145	30349.025
1153.415	30309.925
1157.03607	30445.825
1160.65467	30831.025
1164.27079	31563.125
1167.88443	32505.725
1171.49561	33690.525
1175.10432	35138.025
1178.71056	36941.425
1182.31434	38735.025
1185.91565	40054.325
1189.51451	40652.025
1193.11091	40473.525
1196.70485	39657.725
1200.29634	38417.225
1203.88538	37245.325
1207.47197	36272.925
1211.05612	35429.025
1214.63782	34733.225
1218.21708	34102.825
1221.79391	33517.025
1225.36829	33130.125
1228.94024	32886.325
1232.50976	32886.725
1236.07685	32885.125
1239.6415	32932.125
1243.20374	33017.125
1246.76355	33230.625
1250.32093	33531.925
1253.8759	34002.425
1257.42845	34582.925
1260.97859	35325.125
1264.52631	35966.225
1268.07163	36656.425
1271.61453	37212.925
1275.15503	37699.625
1278.69312	38152.725
1282.22882	38615.225
1285.76211	39028.725
1289.29301	39595.025
1292.82151	40304.825
1296.34761	41181.525
1299.87133	42238.725
1303.39266	43552.525
1306.9116	45038.425
1310.42815	46333.825
1313.94233	47123.225
1317.45412	47123.125
1320.96354	46682.025
1324.47058	46442.725
1327.97525	46339.625
1331.47754	46278.925
1334.97747	46538.125
1338.47502	46988.625
1341.97022	47572.125
1345.46305	48203.725
1348.95352	48711.325
1352.44163	48888.925
1355.92738	49075.525
1359.41078	49664.725
1362.89183	50274.225
1366.37053	49273.825
1369.84688	46292.925
1373.32088	42732.625
1376.79254	40090.625
1380.26186	38673.725
1383.72883	38084.925
1387.19347	37675.925
1390.65578	37168.025
1394.11575	36700.125
1397.57339	36421.725
1401.0287	36408.025
1404.48168	36527.125
1407.93234	36579.825
1411.38068	36531.425
1414.82669	36145.525
1418.27039	35479.225
1421.71177	34823.125
1425.15083	34236.825
1428.58758	33957.625
1432.02203	34056.925
1435.45416	34458.025
1438.88399	34968.125
1442.31151	35328.425
1445.73673	35601.925
1449.15965	35656.625
1452.58027	35797.425
1455.9986	35852.425
1459.41463	36119.325
1462.82837	36587.325
1466.23982	37170.225
1469.64898	37726.125
1473.05586	38091.725
1476.46045	38239.925
1479.86276	38279.425
1483.26279	38298.925
1486.66054	38400.625
1490.05602	38624.925
1493.44922	39163.225
1496.84016	39939.125
1500.22882	41169.925
1503.61521	42803.825
1506.99934	44407.725
1510.38121	45590.625
1513.76081	45623.725
1517.13816	44498.725
1520.51324	42848.525
1523.88607	41335.125
1527.25665	40359.225
1530.62498	39867.725
1533.99105	39537.825
1537.35488	39171.825
1540.71647	38753.625
1544.07581	38206.825
1547.4329	37614.225
1550.78776	37147.925
1554.14038	36815.525
1557.49077	36591.925
1560.83892	36544.225
1564.18484	36574.225
1567.52853	36668.525
1570.86999	36850.225
1574.20922	37216.225
1577.54624	37508.725
1580.88103	37350.725
1584.2136	36990.325
1587.54395	36942.325
1590.87208	37547.625
1594.19801	38630.725
1597.52172	39975.025
1600.84321	40506.225
1604.16251	39872.425
1607.47959	38484.025
1610.79447	36821.225
1614.10715	34998.925
1617.41763	33258.725
1620.7259	31858.725
1624.03199	30996.725
1627.33587	30760.225
1630.63757	31018.725
1633.93707	31899.025
1637.23439	33556.825
1640.52951	35946.125
1643.82246	38696.025
1647.11321	41012.425
1650.40179	41744.925
1653.68819	40183.925
1656.97241	36965.625
1660.25446	33564.125
1663.53433	30849.225
1666.81203	29082.325
1670.08756	27855.525
1673.36092	27121.725
1676.63211	26549.825
1679.90115	26218.025
1683.16801	25936.625
1686.43272	25730.525
1689.69527	25546.425
1692.95567	25418.125
1696.2139	25354.225
1699.46999	25224.225
1702.72392	25155.225
1705.97571	25136.525
1709.22535	25057.625
1712.47284	25040.625
1715.71819	24988.425
1718.96139	24935.325
1722.20246	24892.725
1725.44139	24775.125
1728.67818	24681.925
1731.91284	24586.125
1735.14537	24510.225
1738.37576	24427.025
1741.60403	24332.725
1744.83017	24266.225
1748.05418	24209.425
1751.27607	24143.625
1754.49584	24158.825
1757.71349	24109.025
1760.92903	24051.525
1764.14244	24052.225
1767.35375	24067.025
1770.56294	24037.325
1773.77002	23981.025
1776.97499	23954.925
1780.17785	23885.325
1783.37861	23917.325
1786.57727	23879.425
1789.77382	23834.025
1792.96828	23791.725
1796.16064	23708.125
1799.3509	23683.225
1802.53907	23650.325
1805.72514	23566.225
1808.90913	23558.325
1812.09102	23485.825
1815.27083	23464.225
1818.44856	23376.725
1821.6242	23362.025
1824.79776	23366.925
1827.96924	23331.025
1831.13864	23351.325
1834.30597	23327.925
1837.47122	23345.725
1840.6344	23318.825
1843.7955	23334.625
1846.95454	23323.525
1850.11151	23291.625
1853.26642	23292.525
1856.41926	23290.325
1859.57004	23212.725
1862.71876	23205.625
1865.86542	23183.725
1869.01003	23190.325
1872.15258	23167.125
1875.29308	23071.225
1878.43152	23076.125
1881.56792	23015.825
1884.70227	22979.025
1887.83457	22994.525
1890.96482	22928.325
1894.09304	22882.125
1897.21921	22858.025
1900.34335	22846.625
1903.46544	22830.025
1906.58551	22812.525
1909.70353	22775.725
1912.81953	22738.925
1915.93349	22694.425
1919.04543	22664.625
1922.15534	22610.425
1925.26322	22565.325
1928.36908	22512.425
1931.47292	22471.025
1934.57473	22398.125
1937.67453	22332.225
1940.77232	22288.325
1943.86808	22222.425
1946.96184	22193.825
1950.05358	22153.525
1953.14331	22138.525
1956.23103	22052.025
1959.31675	21988.325
1962.40046	21909.325
1965.48217	21931.525
1968.56188	21778.525
1971.63959	21728.725
1974.7153	21679.725
1977.78901	21600.025
1980.86073	21577.125
1983.93046	21497.525
1986.99819	21393.925
1990.06394	21376.425
1993.1277	21285.625
1996.18947	21219.825
1999.24925	21187.425
2002.30706	21090.525
2005.36288	21003.225
2008.41672	20966.425
2011.46859	20929.025
2014.51848	20867.925
2017.56639	20802.925
2020.61233	20745.025
2023.6563	20691.425
2026.6983	20676.425
2029.73833	20611.425
2032.7764	20542.925
2035.8125	20541.325
2038.84664	20465.925
2041.87881	20470.425
2044.90903	20440.525
2047.93729	20375.025
2050.96359	20387.025
2053.98794	20333.125
2057.01034	20280.425
2060.03078	20292.325
2063.04927	20256.825
2066.06582	20256.325
2069.08042	20252.925
2072.09307	20251.625
2075.10378	20221.425
2078.11255	20203.125
2081.11938	20208.625
2084.12426	20187.325
2087.12722	20169.025
2090.12824	20153.125
2093.12732	20166.925
2096.12447	20147.525
2099.11969	20137.125
2102.11299	20200.125
2105.10435	20220.325
2108.09379	20223.425
2111.08131	20221.325
2114.0669	20208.425
2117.05057	20261.925
2120.03233	20277.625
2123.01216	20317.925
2125.99008	20280.325
2128.96609	20317.625
2131.94018	20339.225
2134.91236	20344.125
2137.88263	20341.725
2140.851	20358.025
2143.81746	20399.725
2146.78201	20404.625
2149.74466	20396.125
2152.7054	20408.225
2155.66425	20377.625
2158.6212	20350.025
2161.57625	20354.625
2164.52941	20387.225
2167.48067	20369.225
2170.43004	20358.125
2173.37752	20392.225
2176.32311	20347.725
2179.26681	20349.225
2182.20863	20314.925
2185.14856	20286.825
2188.08661	20306.725
2191.02278	20329.425
2193.95707	20254.325
2196.88948	20273.425
2199.82001	20261.325
2202.74867	20257.425
2205.67545	20271.825
2208.60037	20184.625
2211.52341	20174.125
2214.44458	20156.125
2217.36388	20089.625
2220.28132	20052.925
2223.1969	20011.125
2226.11061	20008.025
2229.02246	19967.725
2231.93245	19902.525
2234.84058	19864.425
2237.74686	19829.525
2240.65128	19840.125
2243.55385	19797.625
2246.45456	19754.325
2249.35343	19768.825
2252.25044	19734.825
2255.14561	19685.925
2258.03893	19675.925
2260.93041	19668.925
2263.82004	19603.825
2266.70783	19563.125
2269.59378	19555.525
2272.4779	19471.325
2275.36017	19437.925
2278.24061	19422.425
2281.11922	19366.825
2283.996	19344.925
2286.87094	19320.425
2289.74405	19240.525
2292.61534	19220.725
2295.4848	19201.925
2298.35243	19209.925
2301.21824	19210.825
2304.08223	19216.625
2306.94439	19174.925
2309.80474	19131.225
2312.66327	19134.525
2315.51999	19135.425
2318.37489	19128.825
2321.22797	19069.425
2324.07925	19055.425
2326.92871	19051.125
2329.77637	19006.125
2332.62222	19011.725
2335.46626	18970.125
2338.3085	18919.525
2341.14893	18912.225
2343.98756	18893.325
2346.8244	18903.025
2349.65943	18857.025
2352.49267	18874.825
2355.32411	18832.825
2358.15376	18870.525
2360.98161	18824.225
2363.80768	18845.225
2366.63195	18834.725
2369.45444	18798.025
2372.27514	18768.125
2375.09405	18745.125
2377.91118	18712.625
2380.72652	18695.325
2383.54009	18658.925
2386.35187	18603.925
2389.16188	18573.125
2391.97011	18543.125
2394.77657	18514.125
2397.58125	18450.825
2400.38416	18434.525
2403.18529	18452.025
2405.98466	18406.325
2408.78226	18427.025
2411.57809	18352.825
2414.37216	18354.925
2417.16446	18339.125
2419.955	18263.325
2422.74378	18298.225
2425.5308	18290.125
2428.31606	18282.625
2431.09956	18268.125
2433.88131	18215.225
2436.6613	18226.225
2439.43954	18188.425
2442.21603	18201.725
2444.99077	18202.425
2447.76377	18202.725
2450.53501	18153.825
2453.30451	18180.325
2456.07226	18132.025
2458.83827	18114.525
2461.60254	18087.825
2464.36507	18047.325
2467.12586	18047.025
2469.88492	18060.025
2472.64224	18097.425
2475.39782	18025.325
2478.15167	18008.225
2480.90379	18014.325
2483.65417	18015.125
2486.40283	17988.725
2489.14976	18007.625
2491.89497	17953.725
2494.63845	17967.125
2497.3802	17949.625
2500.12024	17952.425
2502.85855	17935.225
2505.59514	17943.425
2508.33002	17908.825
2511.06318	17884.425
2513.79462	17868.725
2516.52435	17875.525
2519.25237	17821.425
2521.97867	17802.125
2524.70327	17789.625
2527.42616	17765.325
2530.14734	17773.225
2532.86681	17720.325
2535.58458	17715.925
2538.30065	17667.025
2541.01501	17693.525
2543.72768	17627.625
2546.43864	17634.425
2549.14791	17573.825
2551.85548	17600.125
2554.56136	17538.925
2557.26554	17539.525
2559.96803	17530.825
2562.66883	17457.125
2565.36794	17449.825
2568.06536	17464.125
2570.7611	17415.625
2573.45514	17403.125
2576.14751	17386.725
2578.83819	17341.225
2581.52719	17311.925
2584.21451	17297.925
2586.90015	17262.225
2589.58411	17237.225
2592.2664	17213.325
2594.94701	17170.125
2597.62594	17182.125
2600.30321	17141.625
2602.9788	17121.525
2605.65273	17074.225
2608.32498	17077.625
2610.99557	17049.425
2613.66449	17073.525
2616.33175	17021.525
2618.99734	17038.025
2621.66128	16981.025
2624.32355	17000.625
2626.98416	16941.525
2629.64311	16911.425
2632.30041	16919.725
2634.95605	16908.625
2637.61004	16878.225
2640.26238	16853.425
2642.91306	16878.525
2645.56209	16857.125
2648.20948	16854.725
2650.85521	16823.625
2653.4993	16846.925
2656.14175	16824.425
2658.78255	16840.625
2661.42171	16822.325
2664.05923	16812.625
2666.6951	16839.025
2669.32934	16821.325
2671.96194	16825.825
2674.59291	16829.625
2677.22224	16840.925
2679.84993	16822.125
2682.476	16817.525
2685.10043	16849.725
2687.72324	16811.425
2690.34441	16821.425
2692.96396	16783.325
2695.58188	16799.425
2698.19818	16800.825
2700.81285	16818.925
2703.4259	16790.425
2706.03733	16819.325
2708.64714	16791.225
2711.25533	16813.125
2713.86191	16810.125
2716.46687	16832.125
2719.07021	16808.225
2721.67194	16805.825
2724.27206	16771.725
2726.87057	16756.025
2729.46747	16785.625
2732.06276	16780.925
2734.65644	16769.225
2737.24852	16742.625
2739.83899	16771.625
2742.42786	16775.925
2745.01513	16716.825
2747.60079	16693.525
2750.18486	16705.725
2752.76733	16682.225
2755.3482	16660.625
2757.92747	16691.725
2760.50515	16627.225
2763.08123	16625.125
2765.65573	16589.725
2768.22863	16576.525
2770.79994	16550.825
2773.36967	16542.125
2775.9378	16509.425
2778.50435	16504.925
2781.06932	16468.125
2783.6327	16500.925
2786.1945	16460.925
2788.75471	16438.625
2791.31335	16404.725
2793.87041	16337.025
2796.42589	16317.025
2798.97979	16297.125
2801.53212	16222.925
2804.08288	16264.225
2806.63206	16176.725
2809.17967	16189.425
2811.72571	16144.525
2814.27018	16166.425
2816.81308	16111.125
2819.35442	16101.525
2821.89419	16057.525
2824.43239	16035.825
2826.96904	16029.225
2829.50412	16016.825
2832.03763	15950.625
2834.56959	15956.925
2837.1	15932.725
2839.62884	15906.525
2842.15613	15918.625
2844.68186	15904.725
2847.20604	15914.325
2849.72867	15890.025
2852.24974	15880.525
2854.76927	15837.725
2857.28724	15821.625
2859.80367	15828.125
2862.31855	15794.725
2864.83189	15765.525
2867.34368	15746.825
2869.85393	15744.925
2872.36264	15741.225
2874.8698	15739.725
2877.37543	15705.025
2879.87952	15707.325
2882.38207	15707.625
2884.88308	15674.125
2887.38256	15698.125
2889.88051	15694.425
2892.37692	15697.825
2894.8718	15679.525
2897.36515	15701.625
2899.85698	15676.325
2902.34727	15744.925
2904.83604	15703.325
2907.32328	15706.225
2909.809	15690.225
2912.29319	15758.625
2914.77587	15729.925
2917.25702	15709.325
2919.73665	15717.325
2922.21476	15660.125
2924.69136	15663.225
2927.16644	15667.225
2929.64	15670.325
2932.11205	15647.025
2934.58258	15571.525
2937.05161	15628.825
2939.51912	15604.125
2941.98513	15575.525
2944.44962	15553.325
2946.91261	15493.725
2949.37409	15534.225
2951.83407	15499.525
2954.29254	15516.125
2956.74951	15508.725
2959.20498	15461.325
2961.65895	15438.625
2964.11142	15451.925
2966.56239	15406.325
2969.01186	15414.825
2971.45984	15326.725
2973.90632	15331.425
2976.35131	15305.225
2978.7948	15251.825
2981.23681	15251.125
2983.67732	15248.825
2986.11635	15196.825
2988.55388	15175.625
2990.98993	15140.025
2993.4245	15128.225
2995.85758	15102.125
2998.28917	15057.625
3000.71928	15034.025
3003.14791	14989.025
3005.57506	14976.025
3008.00073	14957.725
3010.42493	14949.625
3012.84764	14908.025
3015.26888	14905.825
3017.68865	14854.725
3020.10694	14870.025
3022.52376	14832.725
3024.9391	14788.325
3027.35298	14759.525
3029.76539	14753.725
3032.17632	14715.025
3034.5858	14691.325
3036.9938	14657.225
3039.40034	14671.325
3041.80542	14677.725
3044.20903	14587.425
3046.61118	14614.525
3049.01187	14579.825
3051.4111	14559.925
3053.80888	14504.325
3056.20519	14485.125
3058.60005	14456.425
3060.99345	14444.925
3063.3854	14444.825
3065.7759	14411.825
3068.16494	14381.125
3070.55254	14356.025
3072.93868	14349.325
3075.32338	14271.625
3077.70662	14241.625
3080.08842	14231.825
3082.46878	14239.025
3084.84769	14201.425
3087.22515	14222.525
3089.60118	14203.225
3091.97576	14158.825
3094.3489	14156.225
3096.72061	14148.825
3099.09087	14127.725
3101.4597	14148.425
3103.82709	14119.825
3106.19305	14082.325
3108.55757	14065.025
3110.92066	14042.725
3113.28232	14029.825
3115.64255	13966.925
3118.00134	13944.925
3120.35871	13909.725
3122.71466	13892.225
3125.06917	13874.325
3127.42226	13871.725
