Data from AgNPs_FTO_APTES_UA_0uM_R6G_10uM_NaF_0.1M_Addition_RamanShift__48__10-52-17-137.txt Node

Date: Fri Dec 17 10:52:17 GMT 2021
User: TCL
Spectrometer: QEP01345
Trigger mode: 4
Integration Time (sec): 7.000000E0
Scans to average: 10
Electric dark correction enabled: true
Nonlinearity correction enabled: false
Boxcar width: 0
XAxis mode: Raman Shifts
Number of Pixels in Spectrum: 1044
>>>>>Begin Spectral Data<<<<<
46.04893	-1.125
50.45542	-1.025
54.85868	-1.225
59.25871	-0.125
63.6555	87.375
68.04907	90.675
72.43941	91.875
76.82654	96.375
81.21044	98.175
85.59113	103.175
89.96862	108.275
94.34289	111.175
98.71396	114.475
103.08183	111.975
107.4465	119.075
111.80798	121.275
116.16626	126.975
120.52136	128.475
124.87327	137.875
129.222	145.975
133.56755	149.975
137.90993	164.575
142.24913	182.175
146.58517	198.675
150.91804	234.075
155.24774	274.675
159.57429	347.175
163.89768	442.875
168.21792	583.075
172.53501	793.475
176.84895	1087.675
181.15975	1533.575
185.46741	2129.575
189.77193	2957.075
194.07331	3951.875
198.37157	5091.675
202.6667	6266.575
206.9587	7464.975
211.24758	8661.475
215.53334	9826.075
219.81599	11108.575
224.09553	12590.875
228.37195	14174.975
232.64527	15928.475
236.91549	17753.475
241.18261	19527.075
245.44663	21082.075
249.70755	22440.875
253.96539	23607.475
258.22014	24642.575
262.4718	25512.075
266.72039	26207.875
270.96589	26593.675
275.20832	26612.775
279.44768	26488.675
283.68397	26197.875
287.91719	25932.875
292.14735	25877.775
296.37445	25969.975
300.59849	26354.075
304.81948	26847.475
309.03742	27243.875
313.25231	27149.075
317.46415	26453.375
321.67296	25324.675
325.87872	24365.675
330.08145	23953.875
334.28114	23997.675
338.47781	24241.875
342.67145	24695.075
346.86207	25417.175
351.04966	26342.175
355.23424	27424.675
359.4158	28280.975
363.59435	28815.175
367.76989	29089.475
371.94243	29180.575
376.11196	29250.575
380.27849	29215.575
384.44203	29244.075
388.60257	29219.975
392.76012	29295.975
396.91468	29631.775
401.06626	30261.575
405.21485	30792.075
409.36047	30630.375
413.50311	30003.175
417.64277	29385.975
421.77947	29108.975
425.9132	29104.275
430.04396	29246.675
434.17176	29496.375
438.2966	29927.275
442.41849	30567.475
446.53742	31511.675
450.6534	32514.575
454.76644	33286.375
458.87653	33570.075
462.98368	33309.375
467.08789	32689.875
471.18916	31957.175
475.2875	31184.575
479.38291	30610.175
483.4754	30203.975
487.56496	29897.775
491.6516	29558.275
495.73531	29306.375
499.81612	29220.575
503.89401	29368.275
507.96899	29492.475
512.04106	29643.475
516.11023	29800.775
520.1765	29869.275
524.23987	29791.275
528.30034	29535.075
532.35792	29232.275
536.41261	28831.775
540.46441	28426.575
544.51333	28325.075
548.55936	28500.275
552.60252	29004.575
556.64279	29507.575
560.6802	29799.175
564.71473	30116.975
568.7464	30812.375
572.7752	31460.575
576.80114	31403.975
580.82422	31223.975
584.84444	31371.775
588.86181	31716.475
592.87633	32294.875
596.888	32927.775
600.89682	33591.875
604.9028	35648.875
608.90594	40707.275
612.90624	46608.075
616.90371	44552.575
620.89834	35711.575
624.89015	31671.775
628.87913	30970.675
632.86528	30773.275
636.84862	30477.875
640.82913	29898.475
644.80683	29077.675
648.78172	28578.975
652.75379	28574.675
656.72306	29243.175
660.68952	30118.275
664.65319	29997.775
668.61405	29253.475
672.57211	28907.575
676.52738	28834.575
680.47986	28905.875
684.42955	28748.975
688.37646	28751.775
692.32058	28906.475
696.26192	29131.275
700.20048	29452.275
704.13626	29676.075
708.06928	29577.775
711.99952	29296.175
715.927	29217.675
719.85171	29275.375
723.77365	29137.975
727.69284	28942.275
731.60928	28678.675
735.52295	28735.375
739.43388	28810.075
743.34206	29040.775
747.24749	29239.375
751.15017	29523.575
755.05012	30025.675
758.94733	30939.575
762.8418	32760.875
766.73354	35727.975
770.62254	38754.875
774.50882	39918.675
778.39237	38308.575
782.27321	35049.975
786.15132	32135.275
790.02671	30406.775
793.89938	29638.575
797.76935	29373.775
801.6366	29259.575
805.50115	29124.475
809.36299	28977.275
813.22213	28823.075
817.07857	28829.475
820.93231	28840.675
824.78336	28928.475
828.63172	28980.875
832.47738	29110.575
836.32036	29233.175
840.16066	29335.175
843.99827	29415.175
847.8332	29304.775
851.66546	29128.875
855.49504	29078.675
859.32195	29012.275
863.1462	28867.875
866.96777	28778.475
870.78668	28666.675
874.60293	28739.675
878.41652	28793.575
882.22745	28901.875
886.03573	29018.375
889.84136	28950.075
893.64433	28797.675
897.44466	28735.375
901.24235	28671.675
905.0374	28699.375
908.8298	28661.675
912.61957	28724.175
916.40671	28876.375
920.19121	29257.875
923.97308	29668.075
927.75233	29992.975
931.52895	30119.675
935.30295	29818.875
939.07433	29211.875
942.84309	28726.875
946.60924	28557.775
950.37278	28378.575
954.13371	28152.275
957.89203	27966.875
961.64774	27882.275
965.40086	27759.175
969.15137	27659.575
972.89929	27616.275
976.64461	27580.375
980.38733	27691.775
984.12747	27845.475
987.86502	28155.275
991.59999	28602.775
995.33237	29190.775
999.06217	30217.275
1002.78939	31476.775
1006.51404	32267.875
1010.23611	32688.475
1013.95561	32924.575
1017.67255	32943.175
1021.38692	32608.975
1025.09872	32405.575
1028.80796	32913.175
1032.51465	34145.475
1036.21877	35231.375
1039.92035	35263.175
1043.61937	34572.675
1047.31584	33276.175
1051.00976	31981.775
1054.70114	31216.975
1058.38998	30989.575
1062.07627	30880.975
1065.76003	30877.375
1069.44126	31008.575
1073.11995	31271.375
1076.79611	31574.275
1080.46974	31758.875
1084.14085	32098.575
1087.80943	32573.275
1091.47549	32722.175
1095.13903	32354.775
1098.80005	31694.775
1102.45857	31089.875
1106.11456	30865.475
1109.76805	30902.075
1113.41903	31229.875
1117.06751	31640.075
1120.71348	32196.575
1124.35696	32760.575
1127.99793	33231.175
1131.63641	33343.775
1135.2724	32706.275
1138.90589	32097.275
1142.5369	31656.075
1146.16542	31392.275
1149.79145	31336.975
1153.415	31398.675
1157.03607	31623.175
1160.65467	32159.575
1164.27079	33039.475
1167.88443	34423.375
1171.49561	36492.475
1175.10432	39564.275
1178.71056	43522.175
1182.31434	47045.575
1185.91565	48761.675
1189.51451	48621.575
1193.11091	46641.175
1196.70485	43879.775
1200.29634	41527.275
1203.88538	39851.275
1207.47197	38306.875
1211.05612	37249.775
1214.63782	36719.975
1218.21708	36763.075
1221.79391	37034.375
1225.36829	37327.475
1228.94024	37133.875
1232.50976	36744.875
1236.07685	36353.075
1239.6415	36245.675
1243.20374	36201.875
1246.76355	36341.075
1250.32093	36866.475
1253.8759	37705.375
1257.42845	38847.975
1260.97859	39846.175
1264.52631	40651.975
1268.07163	41542.175
1271.61453	42462.575
1275.15503	43589.775
1278.69312	44802.175
1282.22882	45698.475
1285.76211	46661.575
1289.29301	47551.275
1292.82151	48628.475
1296.34761	49936.875
1299.87133	51942.375
1303.39266	54902.975
1306.9116	59101.975
1310.42815	63740.375
1313.94233	66897.575
1317.45412	66805.875
1320.96354	64400.375
1324.47058	61397.175
1327.97525	58693.175
1331.47754	56982.575
1334.97747	56487.975
1338.47502	56873.075
1341.97022	57335.375
1345.46305	57442.075
1348.95352	57463.475
1352.44163	58049.175
1355.92738	60226.375
1359.41078	64574.375
1362.89183	69224.775
1366.37053	68507.675
1369.84688	61708.675
1373.32088	54031.075
1376.79254	48814.175
1380.26186	46289.275
1383.72883	45211.375
1387.19347	44512.675
1390.65578	43682.475
1394.11575	43292.575
1397.57339	43502.275
1401.0287	44269.975
1404.48168	45288.775
1407.93234	46312.675
1411.38068	47011.475
1414.82669	46885.675
1418.27039	45831.675
1421.71177	44294.375
1425.15083	43090.775
1428.58758	42421.675
1432.02203	42384.275
1435.45416	42741.675
1438.88399	43109.575
1442.31151	43370.375
1445.73673	43696.175
1449.15965	44026.275
1452.58027	44000.275
1455.9986	43771.875
1459.41463	43647.575
1462.82837	43912.375
1466.23982	44627.675
1469.64898	45487.975
1473.05586	46040.075
1476.46045	46442.175
1479.86276	46842.175
1483.26279	47322.275
1486.66054	47821.875
1490.05602	48627.875
1493.44922	49489.775
1496.84016	50387.075
1500.22882	51541.975
1503.61521	53268.175
1506.99934	55681.975
1510.38121	58487.275
1513.76081	60195.175
1517.13816	59208.575
1520.51324	55745.475
1523.88607	51879.175
1527.25665	49036.475
1530.62498	47381.575
1533.99105	46366.475
1537.35488	45742.575
1540.71647	45398.575
1544.07581	45051.975
1547.4329	44641.075
1550.78776	44156.275
1554.14038	43825.075
1557.49077	43675.075
1560.83892	43723.775
1564.18484	43948.775
1567.52853	43980.675
1570.86999	44077.975
1574.20922	44195.175
1577.54624	44267.875
1580.88103	43757.775
1584.2136	43182.075
1587.54395	43835.075
1590.87208	45815.375
1594.19801	49096.875
1597.52172	52740.075
1600.84321	54540.375
1604.16251	52989.375
1607.47959	49171.975
1610.79447	44880.775
1614.10715	41008.775
1617.41763	38142.675
1620.7259	36409.675
1624.03199	35629.275
1627.33587	35778.775
1630.63757	36748.175
1633.93707	38565.675
1637.23439	41116.775
1640.52951	44269.775
1643.82246	47748.675
1647.11321	50711.275
1650.40179	51840.175
1653.68819	49581.975
1656.97241	44392.875
1660.25446	38863.975
1663.53433	34793.475
1666.81203	32252.175
1670.08756	30754.875
1673.36092	29822.775
1676.63211	29202.975
1679.90115	28741.375
1683.16801	28433.175
1686.43272	28212.275
1689.69527	28041.875
1692.95567	27896.475
1696.2139	27893.075
1699.46999	27825.575
1702.72392	27770.075
1705.97571	27734.575
1709.22535	27731.575
1712.47284	27722.875
1715.71819	27739.875
1718.96139	27713.675
1722.20246	27665.675
1725.44139	27579.275
1728.67818	27459.775
1731.91284	27308.675
1735.14537	27193.975
1738.37576	27092.075
1741.60403	27033.775
1744.83017	26961.575
1748.05418	26923.575
1751.27607	26853.275
1754.49584	26869.775
1757.71349	26841.175
1760.92903	26862.475
1764.14244	26814.775
1767.35375	26788.475
1770.56294	26775.175
1773.77002	26731.075
1776.97499	26701.275
1780.17785	26683.375
1783.37861	26702.075
1786.57727	26657.675
1789.77382	26636.175
1792.96828	26624.875
1796.16064	26593.575
1799.3509	26588.575
1802.53907	26550.575
1805.72514	26480.275
1808.90913	26385.175
1812.09102	26397.275
1815.27083	26324.875
1818.44856	26287.475
1821.6242	26233.475
1824.79776	26246.675
1827.96924	26213.175
1831.13864	26188.975
1834.30597	26191.875
1837.47122	26195.775
1840.6344	26217.075
1843.7955	26217.675
1846.95454	26175.975
1850.11151	26168.475
1853.26642	26200.175
1856.41926	26201.275
1859.57004	26261.875
1862.71876	26228.375
1865.86542	26213.275
1869.01003	26218.975
1872.15258	26234.375
1875.29308	26286.475
1878.43152	26264.375
1881.56792	26316.275
1884.70227	26327.575
1887.83457	26273.275
1890.96482	26291.575
1894.09304	26251.175
1897.21921	26256.175
1900.34335	26228.075
1903.46544	26227.875
1906.58551	26291.775
1909.70353	26327.875
1912.81953	26262.575
1915.93349	26237.475
1919.04543	26180.675
1922.15534	26169.575
1925.26322	26106.475
1928.36908	26086.275
1931.47292	26044.875
1934.57473	25954.375
1937.67453	25833.575
1940.77232	25772.475
1943.86808	25706.875
1946.96184	25613.975
1950.05358	25534.375
1953.14331	25435.375
1956.23103	25365.775
1959.31675	25320.275
1962.40046	25192.675
1965.48217	25154.775
1968.56188	25114.375
1971.63959	24987.475
1974.7153	24960.275
1977.78901	24851.375
1980.86073	24785.475
1983.93046	24731.775
1986.99819	24599.675
1990.06394	24565.675
1993.1277	24492.875
1996.18947	24383.875
1999.24925	24330.675
2002.30706	24271.975
2005.36288	24215.075
2008.41672	24171.875
2011.46859	24124.275
2014.51848	24030.175
2017.56639	23978.775
2020.61233	23945.875
2023.6563	23899.075
2026.6983	23870.975
2029.73833	23822.275
2032.7764	23798.575
2035.8125	23763.075
2038.84664	23734.675
2041.87881	23733.075
2044.90903	23681.175
2047.93729	23655.875
2050.96359	23633.875
2053.98794	23583.375
2057.01034	23536.675
2060.03078	23484.775
2063.04927	23461.975
2066.06582	23446.075
2069.08042	23467.675
2072.09307	23417.475
2075.10378	23357.275
2078.11255	23330.175
2081.11938	23363.075
2084.12426	23348.675
2087.12722	23335.775
2090.12824	23329.375
2093.12732	23317.975
2096.12447	23334.475
2099.11969	23309.975
2102.11299	23321.875
2105.10435	23321.875
2108.09379	23330.175
2111.08131	23340.375
2114.0669	23378.175
2117.05057	23359.575
2120.03233	23396.775
2123.01216	23413.375
2125.99008	23405.175
2128.96609	23444.575
2131.94018	23498.375
2134.91236	23453.675
2137.88263	23470.475
2140.851	23504.475
2143.81746	23547.275
2146.78201	23534.775
2149.74466	23552.975
2152.7054	23538.275
2155.66425	23547.275
2158.6212	23517.375
2161.57625	23557.575
2164.52941	23552.875
2167.48067	23550.075
2170.43004	23537.875
2173.37752	23526.075
2176.32311	23539.975
2179.26681	23523.875
2182.20863	23520.575
2185.14856	23550.075
2188.08661	23549.675
2191.02278	23535.375
2193.95707	23551.775
2196.88948	23567.475
2199.82001	23565.375
2202.74867	23530.875
2205.67545	23547.075
2208.60037	23554.275
2211.52341	23508.375
2214.44458	23483.975
2217.36388	23421.975
2220.28132	23452.175
2223.1969	23388.575
2226.11061	23354.375
2229.02246	23292.875
2231.93245	23248.475
2234.84058	23204.575
2237.74686	23193.675
2240.65128	23186.775
2243.55385	23156.475
2246.45456	23117.175
2249.35343	23113.075
2252.25044	23056.975
2255.14561	23028.975
2258.03893	23028.875
2260.93041	22962.875
2263.82004	22909.375
2266.70783	22871.675
2269.59378	22817.275
2272.4779	22748.075
2275.36017	22709.475
2278.24061	22706.075
2281.11922	22669.775
2283.996	22606.275
2286.87094	22621.975
2289.74405	22570.875
2292.61534	22538.175
2295.4848	22512.475
2298.35243	22541.275
2301.21824	22540.975
2304.08223	22575.075
2306.94439	22585.975
2309.80474	22594.775
2312.66327	22600.875
2315.51999	22622.075
2318.37489	22604.575
2321.22797	22607.275
2324.07925	22565.275
2326.92871	22532.375
2329.77637	22540.675
2332.62222	22525.475
2335.46626	22508.875
2338.3085	22480.275
2341.14893	22493.075
2343.98756	22539.875
2346.8244	22561.275
2349.65943	22558.175
2352.49267	22516.975
2355.32411	22506.275
2358.15376	22465.275
2360.98161	22485.175
2363.80768	22435.975
2366.63195	22393.675
2369.45444	22342.175
2372.27514	22346.775
2375.09405	22304.675
2377.91118	22217.275
2380.72652	22151.475
2383.54009	22119.875
2386.35187	22105.575
2389.16188	22076.275
2391.97011	21991.175
2394.77657	21971.575
2397.58125	21944.175
2400.38416	21937.875
2403.18529	21893.575
2405.98466	21845.575
2408.78226	21774.375
2411.57809	21729.775
2414.37216	21690.275
2417.16446	21649.575
2419.955	21627.775
2422.74378	21583.475
2425.5308	21563.275
2428.31606	21554.075
2431.09956	21553.675
2433.88131	21510.275
2436.6613	21544.975
2439.43954	21521.575
2442.21603	21498.375
2444.99077	21455.275
2447.76377	21469.875
2450.53501	21437.475
2453.30451	21466.375
2456.07226	21429.375
2458.83827	21388.175
2461.60254	21409.875
2464.36507	21404.975
2467.12586	21390.175
2469.88492	21374.775
2472.64224	21381.975
2475.39782	21374.875
2478.15167	21389.075
2480.90379	21422.575
2483.65417	21471.475
2486.40283	21424.975
2489.14976	21447.975
2491.89497	21452.375
2494.63845	21467.675
2497.3802	21449.175
2500.12024	21448.975
2502.85855	21475.175
2505.59514	21453.475
2508.33002	21407.375
2511.06318	21363.175
2513.79462	21330.575
2516.52435	21316.275
2519.25237	21304.675
2521.97867	21295.875
2524.70327	21242.975
2527.42616	21231.675
2530.14734	21227.075
2532.86681	21196.575
2535.58458	21162.875
2538.30065	21187.775
2541.01501	21172.375
2543.72768	21118.975
2546.43864	21108.775
2549.14791	21067.575
2551.85548	21091.175
2554.56136	21074.375
2557.26554	21029.675
2559.96803	21037.675
2562.66883	21023.575
2565.36794	20965.675
2568.06536	20987.575
2570.7611	20943.675
2573.45514	20925.275
2576.14751	20914.075
2578.83819	20917.175
2581.52719	20918.875
2584.21451	20934.675
2586.90015	20939.075
2589.58411	20874.775
2592.2664	20910.875
2594.94701	20822.775
2597.62594	20850.775
2600.30321	20833.275
2602.9788	20822.875
2605.65273	20816.075
2608.32498	20788.575
2610.99557	20770.275
2613.66449	20790.475
2616.33175	20783.875
2618.99734	20788.375
2621.66128	20772.075
2624.32355	20782.475
2626.98416	20812.675
2629.64311	20793.575
2632.30041	20817.775
2634.95605	20778.075
2637.61004	20759.775
2640.26238	20693.975
2642.91306	20686.875
2645.56209	20612.675
2648.20948	20546.275
2650.85521	20564.275
2653.4993	20541.675
2656.14175	20560.375
2658.78255	20550.575
2661.42171	20564.775
2664.05923	20558.475
2666.6951	20626.075
2669.32934	20584.875
2671.96194	20647.375
2674.59291	20650.775
2677.22224	20647.675
2679.84993	20659.075
2682.476	20596.175
2685.10043	20607.075
2687.72324	20568.675
2690.34441	20590.475
2692.96396	20592.975
2695.58188	20535.675
2698.19818	20519.775
2700.81285	20534.175
2703.4259	20517.875
2706.03733	20532.675
2708.64714	20548.475
2711.25533	20544.975
2713.86191	20530.975
2716.46687	20582.675
2719.07021	20550.575
2721.67194	20569.075
2724.27206	20524.775
2726.87057	20545.275
2729.46747	20544.675
2732.06276	20560.275
2734.65644	20544.675
2737.24852	20536.575
2739.83899	20499.275
2742.42786	20541.075
2745.01513	20528.375
2747.60079	20527.275
2750.18486	20511.975
2752.76733	20526.675
2755.3482	20466.975
2757.92747	20535.675
2760.50515	20477.275
2763.08123	20475.575
2765.65573	20460.575
2768.22863	20514.175
2770.79994	20432.475
2773.36967	20477.875
2775.9378	20437.475
2778.50435	20421.875
2781.06932	20406.175
2783.6327	20420.775
2786.1945	20389.575
2788.75471	20344.275
2791.31335	20310.175
2793.87041	20284.175
2796.42589	20260.875
2798.97979	20228.875
2801.53212	20171.975
2804.08288	20173.975
2806.63206	20094.575
2809.17967	20073.975
2811.72571	20047.575
2814.27018	20073.075
2816.81308	20047.875
2819.35442	20081.075
2821.89419	20028.275
2824.43239	20010.075
2826.96904	20007.675
2829.50412	19972.375
2832.03763	19969.175
2834.56959	19978.175
2837.1	19936.075
2839.62884	19957.175
2842.15613	19944.075
2844.68186	19965.175
2847.20604	19951.575
2849.72867	20011.975
2852.24974	19955.075
2854.76927	19949.575
2857.28724	19937.175
2859.80367	19922.575
2862.31855	19869.475
2864.83189	19838.275
2867.34368	19846.375
2869.85393	19830.275
2872.36264	19826.475
2874.8698	19817.975
2877.37543	19835.375
2879.87952	19834.575
2882.38207	19812.075
2884.88308	19831.775
2887.38256	19851.875
2889.88051	19814.675
2892.37692	19846.275
2894.8718	19833.475
2897.36515	19847.075
2899.85698	19833.875
2902.34727	19864.975
2904.83604	19839.475
2907.32328	19877.775
2909.809	19897.275
2912.29319	19896.475
2914.77587	19878.375
2917.25702	19867.375
2919.73665	19847.675
2922.21476	19859.375
2924.69136	19797.875
2927.16644	19812.875
2929.64	19782.975
2932.11205	19735.575
2934.58258	19702.675
2937.05161	19732.875
2939.51912	19730.475
2941.98513	19708.875
2944.44962	19617.975
2946.91261	19548.575
2949.37409	19586.475
2951.83407	19552.475
2954.29254	19559.975
2956.74951	19557.175
2959.20498	19511.475
2961.65895	19496.775
2964.11142	19477.675
2966.56239	19387.075
2969.01186	19391.575
2971.45984	19320.275
2973.90632	19285.475
2976.35131	19237.675
2978.7948	19207.475
2981.23681	19178.475
2983.67732	19092.575
2986.11635	19099.775
2988.55388	19011.575
2990.98993	18971.275
2993.4245	18908.375
2995.85758	18886.975
2998.28917	18908.775
3000.71928	18866.075
3003.14791	18815.775
3005.57506	18813.975
3008.00073	18750.375
3010.42493	18758.875
3012.84764	18718.275
3015.26888	18708.975
3017.68865	18637.675
3020.10694	18616.575
3022.52376	18561.875
3024.9391	18532.675
3027.35298	18511.575
3029.76539	18515.075
3032.17632	18439.175
3034.5858	18437.075
3036.9938	18432.975
3039.40034	18426.875
3041.80542	18420.575
3044.20903	18358.675
3046.61118	18327.875
3049.01187	18294.675
3051.4111	18267.175
3053.80888	18203.375
3056.20519	18193.675
3058.60005	18144.975
3060.99345	18079.175
3063.3854	18083.775
3065.7759	18016.775
3068.16494	17959.075
3070.55254	17910.075
3072.93868	17864.575
3075.32338	17831.475
3077.70662	17832.175
3080.08842	17765.075
3082.46878	17759.075
3084.84769	17710.475
3087.22515	17709.675
3089.60118	17685.975
3091.97576	17668.075
3094.3489	17666.675
3096.72061	17655.075
3099.09087	17642.375
3101.4597	17594.975
3103.82709	17591.775
3106.19305	17557.375
3108.55757	17586.575
3110.92066	17509.475
3113.28232	17501.875
3115.64255	17412.075
3118.00134	17412.575
3120.35871	17387.675
3122.71466	17360.075
3125.06917	17322.675
3127.42226	17302.375
