Data from AgNPs_FTO_APTES_UA_100uM_R6G_10uM_NaF_0.1M_Addition_RamanShift__23__15-43-57-471.txt Node

Date: Fri Dec 17 15:43:57 GMT 2021
User: TCL
Spectrometer: QEP01345
Trigger mode: 4
Integration Time (sec): 7.000000E0
Scans to average: 10
Electric dark correction enabled: true
Nonlinearity correction enabled: false
Boxcar width: 0
XAxis mode: Raman Shifts
Number of Pixels in Spectrum: 1044
>>>>>Begin Spectral Data<<<<<
46.04893	0.3125
50.45542	-0.1875
54.85868	-2.8875
59.25871	-0.0875
63.6555	62.3125
68.04907	65.0125
72.43941	71.6125
76.82654	72.0125
81.21044	72.8125
85.59113	74.8125
89.96862	82.4125
94.34289	82.5125
98.71396	90.5125
103.08183	89.1125
107.4465	92.6125
111.80798	91.0125
116.16626	94.3125
120.52136	92.4125
124.87327	100.9125
129.222	104.8125
133.56755	109.2125
137.90993	119.4125
142.24913	124.4125
146.58517	136.2125
150.91804	153.4125
155.24774	177.9125
159.57429	220.8125
163.89768	271.1125
168.21792	347.8125
172.53501	466.6125
176.84895	648.2125
181.15975	902.2125
185.46741	1260.0125
189.77193	1746.8125
194.07331	2320.9125
198.37157	3013.2125
202.6667	3715.9125
206.9587	4413.7125
211.24758	5112.0125
215.53334	5796.8125
219.81599	6519.3125
224.09553	7314.8125
228.37195	8186.4125
232.64527	9171.2125
236.91549	10264.4125
241.18261	11329.9125
245.44663	12340.7125
249.70755	13205.7125
253.96539	14002.8125
258.22014	14659.9125
262.4718	15202.8125
266.72039	15552.0125
270.96589	15740.2125
275.20832	15798.5125
279.44768	15707.6125
283.68397	15520.9125
287.91719	15326.3125
292.14735	15226.6125
296.37445	15200.2125
300.59849	15293.2125
304.81948	15384.1125
309.03742	15339.1125
313.25231	15132.3125
317.46415	14790.6125
321.67296	14300.2125
325.87872	13977.2125
330.08145	13832.4125
334.28114	13848.6125
338.47781	13974.8125
342.67145	14154.6125
346.86207	14410.4125
351.04966	14746.1125
355.23424	15082.9125
359.4158	15424.2125
363.59435	15647.9125
367.76989	15827.4125
371.94243	15995.6125
376.11196	16097.7125
380.27849	16173.9125
384.44203	16252.7125
388.60257	16310.6125
392.76012	16398.7125
396.91468	16545.2125
401.06626	16718.9125
405.21485	16885.2125
409.36047	16803.0125
413.50311	16517.1125
417.64277	16164.0125
421.77947	15972.5125
425.9132	15938.9125
430.04396	15949.4125
434.17176	15966.1125
438.2966	16091.7125
442.41849	16264.8125
446.53742	16469.7125
450.6534	16756.4125
454.76644	16959.6125
458.87653	17074.5125
462.98368	17113.3125
467.08789	17116.0125
471.18916	16997.9125
475.2875	16892.1125
479.38291	16791.7125
483.4754	16675.0125
487.56496	16496.4125
491.6516	16442.5125
495.73531	16418.5125
499.81612	16405.8125
503.89401	16486.0125
507.96899	16582.9125
512.04106	16661.6125
516.11023	16751.9125
520.1765	16826.6125
524.23987	16808.1125
528.30034	16770.1125
532.35792	16669.1125
536.41261	16633.3125
540.46441	16494.6125
544.51333	16407.8125
548.55936	16431.0125
552.60252	16527.7125
556.64279	16630.3125
560.6802	16671.0125
564.71473	16664.8125
568.7464	16750.3125
572.7752	16870.3125
576.80114	16848.3125
580.82422	16793.8125
584.84444	16841.6125
588.86181	16826.5125
592.87633	16882.2125
596.888	16971.4125
600.89682	17262.6125
604.9028	18120.0125
608.90594	20073.0125
612.90624	22405.5125
616.90371	21713.9125
620.89834	18381.9125
624.89015	16847.0125
628.87913	16621.4125
632.86528	16774.6125
636.84862	17001.7125
640.82913	16922.8125
644.80683	16594.6125
648.78172	16199.3125
652.75379	16096.9125
656.72306	16246.7125
660.68952	16499.1125
664.65319	16518.1125
668.61405	16306.2125
672.57211	16278.1125
676.52738	16341.1125
680.47986	16299.8125
684.42955	16199.9125
688.37646	16046.4125
692.32058	15971.8125
696.26192	16036.3125
700.20048	16086.7125
704.13626	16137.7125
708.06928	16126.5125
711.99952	16067.8125
715.927	15999.9125
719.85171	16004.5125
723.77365	16048.1125
727.69284	16002.8125
731.60928	15952.7125
735.52295	15921.3125
739.43388	15983.0125
743.34206	16017.3125
747.24749	16067.5125
751.15017	16053.9125
755.05012	16075.8125
758.94733	16326.3125
762.8418	16978.1125
766.73354	18194.9125
770.62254	19651.4125
774.50882	20576.7125
778.39237	20089.9125
782.27321	18531.2125
786.15132	17140.3125
790.02671	16260.2125
793.89938	15855.1125
797.76935	15681.9125
801.6366	15610.5125
805.50115	15601.5125
809.36299	15561.6125
813.22213	15528.5125
817.07857	15485.5125
820.93231	15451.5125
824.78336	15392.5125
828.63172	15386.1125
832.47738	15346.7125
836.32036	15308.8125
840.16066	15287.9125
843.99827	15266.0125
847.8332	15279.3125
851.66546	15259.5125
855.49504	15233.7125
859.32195	15265.9125
863.1462	15275.4125
866.96777	15267.3125
870.78668	15285.1125
874.60293	15314.8125
878.41652	15291.0125
882.22745	15343.1125
886.03573	15384.9125
889.84136	15426.3125
893.64433	15367.5125
897.44466	15258.9125
901.24235	15174.6125
905.0374	15107.2125
908.8298	15032.1125
912.61957	14976.3125
916.40671	15008.8125
920.19121	15092.3125
923.97308	15107.3125
927.75233	15170.6125
931.52895	15178.1125
935.30295	15083.1125
939.07433	14917.2125
942.84309	14752.7125
946.60924	14712.7125
950.37278	14664.8125
954.13371	14595.0125
957.89203	14553.2125
961.64774	14488.4125
965.40086	14448.8125
969.15137	14362.1125
972.89929	14280.1125
976.64461	14236.4125
980.38733	14241.7125
984.12747	14242.5125
987.86502	14289.9125
991.59999	14319.1125
995.33237	14441.3125
999.06217	14602.8125
1002.78939	14771.2125
1006.51404	14952.9125
1010.23611	15135.0125
1013.95561	15261.2125
1017.67255	15356.3125
1021.38692	15286.2125
1025.09872	15173.9125
1028.80796	15072.7125
1032.51465	15097.3125
1036.21877	15235.1125
1039.92035	15271.4125
1043.61937	15257.9125
1047.31584	15198.6125
1051.00976	15132.5125
1054.70114	15081.9125
1058.38998	15092.5125
1062.07627	15199.1125
1065.76003	15266.0125
1069.44126	15379.7125
1073.11995	15455.2125
1076.79611	15556.1125
1080.46974	15598.5125
1084.14085	15598.4125
1087.80943	15631.8125
1091.47549	15692.6125
1095.13903	15666.4125
1098.80005	15553.2125
1102.45857	15318.4125
1106.11456	15209.6125
1109.76805	15180.6125
1113.41903	15309.1125
1117.06751	15459.2125
1120.71348	15715.9125
1124.35696	15975.0125
1127.99793	16288.2125
1131.63641	16527.1125
1135.2724	16438.7125
1138.90589	16201.6125
1142.5369	15931.3125
1146.16542	15669.3125
1149.79145	15431.2125
1153.415	15335.2125
1157.03607	15307.1125
1160.65467	15442.4125
1164.27079	15765.9125
1167.88443	16210.7125
1171.49561	16836.2125
1175.10432	17730.7125
1178.71056	18924.6125
1182.31434	20063.2125
1185.91565	20625.8125
1189.51451	20669.5125
1193.11091	20200.6125
1196.70485	19425.2125
1200.29634	18690.7125
1203.88538	18059.5125
1207.47197	17431.7125
1211.05612	16903.3125
1214.63782	16454.2125
1218.21708	16238.9125
1221.79391	16167.2125
1225.36829	16121.0125
1228.94024	16109.7125
1232.50976	16114.0125
1236.07685	16103.5125
1239.6415	16165.8125
1243.20374	16183.8125
1246.76355	16271.9125
1250.32093	16401.5125
1253.8759	16585.1125
1257.42845	16934.4125
1260.97859	17187.9125
1264.52631	17486.3125
1268.07163	17789.2125
1271.61453	18110.9125
1275.15503	18364.3125
1278.69312	18605.1125
1282.22882	18771.2125
1285.76211	18975.6125
1289.29301	19266.8125
1292.82151	19692.4125
1296.34761	20189.2125
1299.87133	20916.1125
1303.39266	21774.9125
1306.9116	22915.1125
1310.42815	23990.4125
1313.94233	24608.1125
1317.45412	24473.5125
1320.96354	23783.1125
1324.47058	23054.6125
1327.97525	22296.1125
1331.47754	21729.8125
1334.97747	21510.6125
1338.47502	21577.2125
1341.97022	21906.1125
1345.46305	22283.8125
1348.95352	22834.7125
1352.44163	23627.2125
1355.92738	24709.6125
1359.41078	26138.3125
1362.89183	27630.7125
1366.37053	27289.1125
1369.84688	24711.4125
1373.32088	21887.0125
1376.79254	19958.0125
1380.26186	18986.6125
1383.72883	18507.2125
1387.19347	18175.6125
1390.65578	17847.1125
1394.11575	17545.3125
1397.57339	17400.0125
1401.0287	17346.7125
1404.48168	17406.2125
1407.93234	17450.3125
1411.38068	17424.8125
1414.82669	17341.5125
1418.27039	17104.7125
1421.71177	16863.1125
1425.15083	16578.4125
1428.58758	16399.7125
1432.02203	16336.3125
1435.45416	16394.0125
1438.88399	16538.7125
1442.31151	16667.2125
1445.73673	16767.1125
1449.15965	16932.8125
1452.58027	17050.4125
1455.9986	17178.5125
1459.41463	17327.3125
1462.82837	17539.1125
1466.23982	17759.9125
1469.64898	17979.0125
1473.05586	18121.1125
1476.46045	18219.4125
1479.86276	18263.8125
1483.26279	18336.8125
1486.66054	18448.5125
1490.05602	18640.0125
1493.44922	18915.2125
1496.84016	19455.2125
1500.22882	20353.8125
1503.61521	21565.0125
1506.99934	23079.0125
1510.38121	24396.7125
1513.76081	24889.3125
1517.13816	24152.7125
1520.51324	22526.6125
1523.88607	20900.6125
1527.25665	19793.9125
1530.62498	19105.2125
1533.99105	18757.7125
1537.35488	18513.6125
1540.71647	18292.6125
1544.07581	18178.7125
1547.4329	18076.1125
1550.78776	18018.6125
1554.14038	18014.8125
1557.49077	18124.1125
1560.83892	18314.0125
1564.18484	18456.7125
1567.52853	18602.9125
1570.86999	18767.3125
1574.20922	18905.5125
1577.54624	18925.1125
1580.88103	18596.6125
1584.2136	18083.0125
1587.54395	17736.6125
1590.87208	17763.9125
1594.19801	18182.9125
1597.52172	18818.5125
1600.84321	19167.6125
1604.16251	18876.1125
1607.47959	18246.8125
1610.79447	17570.8125
1614.10715	16798.2125
1617.41763	16067.5125
1620.7259	15570.6125
1624.03199	15176.6125
1627.33587	15069.0125
1630.63757	15184.6125
1633.93707	15570.6125
1637.23439	16167.6125
1640.52951	17082.5125
1643.82246	18220.4125
1647.11321	19466.6125
1650.40179	20333.3125
1653.68819	20046.7125
1656.97241	18614.5125
1660.25446	16841.8125
1663.53433	15467.9125
1666.81203	14534.2125
1670.08756	13983.1125
1673.36092	13583.2125
1676.63211	13331.8125
1679.90115	13138.4125
1683.16801	12961.1125
1686.43272	12863.9125
1689.69527	12751.4125
1692.95567	12670.6125
1696.2139	12675.8125
1699.46999	12622.9125
1702.72392	12563.6125
1705.97571	12490.3125
1709.22535	12446.9125
1712.47284	12393.3125
1715.71819	12383.3125
1718.96139	12329.5125
1722.20246	12279.8125
1725.44139	12233.9125
1728.67818	12165.0125
1731.91284	12139.6125
1735.14537	12059.1125
1738.37576	12037.8125
1741.60403	11994.8125
1744.83017	11976.6125
1748.05418	11933.8125
1751.27607	11904.5125
1754.49584	11894.7125
1757.71349	11915.6125
1760.92903	11888.0125
1764.14244	11868.7125
1767.35375	11867.3125
1770.56294	11872.1125
1773.77002	11828.7125
1776.97499	11799.4125
1780.17785	11796.7125
1783.37861	11766.4125
1786.57727	11743.6125
1789.77382	11705.1125
1792.96828	11695.8125
1796.16064	11659.5125
1799.3509	11653.2125
1802.53907	11628.8125
1805.72514	11621.2125
1808.90913	11581.7125
1812.09102	11554.5125
1815.27083	11497.1125
1818.44856	11484.5125
1821.6242	11480.6125
1824.79776	11477.1125
1827.96924	11470.0125
1831.13864	11424.0125
1834.30597	11435.1125
1837.47122	11447.8125
1840.6344	11449.2125
1843.7955	11419.4125
1846.95454	11435.6125
1850.11151	11397.4125
1853.26642	11400.0125
1856.41926	11402.8125
1859.57004	11380.3125
1862.71876	11384.4125
1865.86542	11352.2125
1869.01003	11356.8125
1872.15258	11343.1125
1875.29308	11345.8125
1878.43152	11332.8125
1881.56792	11314.9125
1884.70227	11312.8125
1887.83457	11293.3125
1890.96482	11284.0125
1894.09304	11259.9125
1897.21921	11263.7125
1900.34335	11265.2125
1903.46544	11250.5125
1906.58551	11219.0125
1909.70353	11217.1125
1912.81953	11203.3125
1915.93349	11171.4125
1919.04543	11160.8125
1922.15534	11134.9125
1925.26322	11135.1125
1928.36908	11106.7125
1931.47292	11072.2125
1934.57473	11046.0125
1937.67453	11036.7125
1940.77232	10986.7125
1943.86808	10967.1125
1946.96184	10964.3125
1950.05358	10955.1125
1953.14331	10929.9125
1956.23103	10883.3125
1959.31675	10868.0125
1962.40046	10808.4125
1965.48217	10807.8125
1968.56188	10783.4125
1971.63959	10755.2125
1974.7153	10687.2125
1977.78901	10654.7125
1980.86073	10659.1125
1983.93046	10605.2125
1986.99819	10599.1125
1990.06394	10535.8125
1993.1277	10524.5125
1996.18947	10479.5125
1999.24925	10460.1125
2002.30706	10429.6125
2005.36288	10402.4125
2008.41672	10375.2125
2011.46859	10349.3125
2014.51848	10319.1125
2017.56639	10272.1125
2020.61233	10262.9125
2023.6563	10235.5125
2026.6983	10240.1125
2029.73833	10177.5125
2032.7764	10165.5125
2035.8125	10145.6125
2038.84664	10152.2125
2041.87881	10127.5125
2044.90903	10101.4125
2047.93729	10078.0125
2050.96359	10093.1125
2053.98794	10052.0125
2057.01034	10021.5125
2060.03078	10020.0125
2063.04927	10000.3125
2066.06582	10019.2125
2069.08042	10020.9125
2072.09307	9978.7125
2075.10378	9989.6125
2078.11255	9994.7125
2081.11938	9974.1125
2084.12426	9992.0125
2087.12722	9973.5125
2090.12824	9973.6125
2093.12732	9971.9125
2096.12447	9982.9125
2099.11969	9970.8125
2102.11299	9974.1125
2105.10435	9996.3125
2108.09379	9978.4125
2111.08131	10010.1125
2114.0669	10002.9125
2117.05057	10005.3125
2120.03233	10023.8125
2123.01216	10060.3125
2125.99008	10053.8125
2128.96609	10054.2125
2131.94018	10050.2125
2134.91236	10077.4125
2137.88263	10075.3125
2140.851	10065.5125
2143.81746	10112.3125
2146.78201	10070.8125
2149.74466	10085.4125
2152.7054	10086.5125
2155.66425	10090.0125
2158.6212	10099.0125
2161.57625	10086.8125
2164.52941	10077.6125
2167.48067	10044.7125
2170.43004	10057.9125
2173.37752	10079.6125
2176.32311	10075.7125
2179.26681	10051.5125
2182.20863	10067.1125
2185.14856	10042.7125
2188.08661	10054.0125
2191.02278	10046.4125
2193.95707	10023.1125
2196.88948	10040.4125
2199.82001	10022.9125
2202.74867	10011.9125
2205.67545	10005.9125
2208.60037	9987.4125
2211.52341	9976.1125
2214.44458	9977.1125
2217.36388	9953.4125
2220.28132	9927.1125
2223.1969	9933.4125
2226.11061	9917.3125
2229.02246	9877.9125
2231.93245	9863.8125
2234.84058	9864.6125
2237.74686	9844.5125
2240.65128	9857.8125
2243.55385	9826.5125
2246.45456	9823.9125
2249.35343	9802.7125
2252.25044	9780.9125
2255.14561	9785.8125
2258.03893	9796.0125
2260.93041	9756.6125
2263.82004	9732.8125
2266.70783	9704.8125
2269.59378	9680.7125
2272.4779	9668.4125
2275.36017	9675.1125
2278.24061	9630.9125
2281.11922	9609.5125
2283.996	9587.2125
2286.87094	9576.9125
2289.74405	9554.9125
2292.61534	9538.7125
2295.4848	9538.7125
2298.35243	9561.5125
2301.21824	9537.3125
2304.08223	9530.3125
2306.94439	9524.9125
2309.80474	9514.7125
2312.66327	9531.0125
2315.51999	9539.8125
2318.37489	9530.2125
2321.22797	9476.0125
2324.07925	9485.2125
2326.92871	9489.9125
2329.77637	9481.7125
2332.62222	9444.0125
2335.46626	9447.7125
2338.3085	9423.6125
2341.14893	9421.9125
2343.98756	9415.0125
2346.8244	9426.1125
2349.65943	9389.2125
2352.49267	9421.4125
2355.32411	9414.5125
2358.15376	9410.5125
2360.98161	9400.2125
2363.80768	9419.7125
2366.63195	9389.7125
2369.45444	9378.1125
2372.27514	9357.8125
2375.09405	9350.0125
2377.91118	9348.4125
2380.72652	9325.1125
2383.54009	9308.0125
2386.35187	9282.4125
2389.16188	9272.4125
2391.97011	9236.3125
2394.77657	9228.3125
2397.58125	9210.1125
2400.38416	9202.2125
2403.18529	9196.6125
2405.98466	9188.3125
2408.78226	9171.7125
2411.57809	9161.1125
2414.37216	9152.6125
2417.16446	9122.4125
2419.955	9112.0125
2422.74378	9116.3125
2425.5308	9105.7125
2428.31606	9113.0125
2431.09956	9089.2125
2433.88131	9076.3125
2436.6613	9097.9125
2439.43954	9068.8125
2442.21603	9084.6125
2444.99077	9048.2125
2447.76377	9068.3125
2450.53501	9062.0125
2453.30451	9043.9125
2456.07226	9055.8125
2458.83827	9024.2125
2461.60254	9018.8125
2464.36507	9010.1125
2467.12586	8999.0125
2469.88492	9012.7125
2472.64224	9007.0125
2475.39782	9002.0125
2478.15167	8992.3125
2480.90379	9014.1125
2483.65417	8997.7125
2486.40283	9008.1125
2489.14976	9002.1125
2491.89497	9004.4125
2494.63845	9000.9125
2497.3802	9013.5125
2500.12024	9000.4125
2502.85855	8965.6125
2505.59514	8975.5125
2508.33002	8942.5125
2511.06318	8951.1125
2513.79462	8945.2125
2516.52435	8936.0125
2519.25237	8921.8125
2521.97867	8889.5125
2524.70327	8901.9125
2527.42616	8867.5125
2530.14734	8851.4125
2532.86681	8841.5125
2535.58458	8852.9125
2538.30065	8813.8125
2541.01501	8817.3125
2543.72768	8795.0125
2546.43864	8794.2125
2549.14791	8786.4125
2551.85548	8783.2125
2554.56136	8772.9125
2557.26554	8747.2125
2559.96803	8746.4125
2562.66883	8737.1125
2565.36794	8746.5125
2568.06536	8738.0125
2570.7611	8703.4125
2573.45514	8699.5125
2576.14751	8694.4125
2578.83819	8681.6125
2581.52719	8675.8125
2584.21451	8652.9125
2586.90015	8647.3125
2589.58411	8625.3125
2592.2664	8615.1125
2594.94701	8616.8125
2597.62594	8596.7125
2600.30321	8581.6125
2602.9788	8577.6125
2605.65273	8582.9125
2608.32498	8557.1125
2610.99557	8546.1125
2613.66449	8555.1125
2616.33175	8523.4125
2618.99734	8533.6125
2621.66128	8538.1125
2624.32355	8517.4125
2626.98416	8510.6125
2629.64311	8515.7125
2632.30041	8504.1125
2634.95605	8506.5125
2637.61004	8499.7125
2640.26238	8483.1125
2642.91306	8485.9125
2645.56209	8471.8125
2648.20948	8478.8125
2650.85521	8449.1125
2653.4993	8456.7125
2656.14175	8454.2125
2658.78255	8448.2125
2661.42171	8462.1125
2664.05923	8453.7125
2666.6951	8451.6125
2669.32934	8453.9125
2671.96194	8450.7125
2674.59291	8462.2125
2677.22224	8475.0125
2679.84993	8479.0125
2682.476	8467.7125
2685.10043	8471.2125
2687.72324	8459.0125
2690.34441	8458.3125
2692.96396	8465.1125
2695.58188	8447.9125
2698.19818	8451.3125
2700.81285	8456.0125
2703.4259	8468.6125
2706.03733	8480.5125
2708.64714	8479.8125
2711.25533	8481.9125
2713.86191	8468.4125
2716.46687	8453.7125
2719.07021	8452.0125
2721.67194	8467.0125
2724.27206	8462.2125
2726.87057	8474.2125
2729.46747	8449.0125
2732.06276	8463.0125
2734.65644	8440.5125
2737.24852	8455.6125
2739.83899	8445.1125
2742.42786	8449.2125
2745.01513	8430.2125
2747.60079	8416.4125
2750.18486	8429.4125
2752.76733	8425.6125
2755.3482	8416.4125
2757.92747	8433.5125
2760.50515	8396.1125
2763.08123	8398.9125
2765.65573	8391.5125
2768.22863	8371.5125
2770.79994	8370.2125
2773.36967	8368.9125
2775.9378	8376.4125
2778.50435	8370.8125
2781.06932	8346.6125
2783.6327	8353.5125
2786.1945	8336.9125
2788.75471	8311.3125
2791.31335	8284.5125
2793.87041	8271.2125
2796.42589	8257.2125
2798.97979	8249.7125
2801.53212	8221.1125
2804.08288	8232.2125
2806.63206	8227.1125
2809.17967	8206.3125
2811.72571	8189.8125
2814.27018	8180.3125
2816.81308	8156.5125
2819.35442	8176.9125
2821.89419	8136.1125
2824.43239	8141.0125
2826.96904	8148.4125
2829.50412	8146.8125
2832.03763	8117.5125
2834.56959	8114.1125
2837.1	8133.7125
2839.62884	8109.4125
2842.15613	8121.0125
2844.68186	8149.3125
2847.20604	8119.2125
2849.72867	8134.2125
2852.24974	8129.6125
2854.76927	8127.9125
2857.28724	8094.9125
2859.80367	8083.0125
2862.31855	8082.8125
2864.83189	8085.2125
2867.34368	8066.2125
2869.85393	8075.7125
2872.36264	8099.9125
2874.8698	8080.6125
2877.37543	8072.0125
2879.87952	8079.2125
2882.38207	8080.1125
2884.88308	8078.7125
2887.38256	8087.5125
2889.88051	8090.0125
2892.37692	8080.1125
2894.8718	8073.6125
2897.36515	8072.5125
2899.85698	8081.0125
2902.34727	8081.3125
2904.83604	8064.9125
2907.32328	8096.9125
2909.809	8057.0125
2912.29319	8099.1125
2914.77587	8108.4125
2917.25702	8091.4125
2919.73665	8090.7125
2922.21476	8074.2125
2924.69136	8081.9125
2927.16644	8082.4125
2929.64	8067.0125
2932.11205	8057.4125
2934.58258	8056.9125
2937.05161	8046.0125
2939.51912	8071.1125
2941.98513	8044.5125
2944.44962	8041.2125
2946.91261	8017.8125
2949.37409	8013.3125
2951.83407	8027.5125
2954.29254	8014.6125
2956.74951	8021.2125
2959.20498	7981.2125
2961.65895	8003.8125
2964.11142	7993.0125
2966.56239	7958.2125
2969.01186	7968.5125
2971.45984	7961.2125
2973.90632	7940.6125
2976.35131	7928.0125
2978.7948	7921.5125
2981.23681	7903.6125
2983.67732	7905.1125
2986.11635	7881.6125
2988.55388	7868.9125
2990.98993	7871.5125
2993.4245	7848.6125
2995.85758	7825.2125
2998.28917	7839.7125
3000.71928	7810.3125
3003.14791	7802.3125
3005.57506	7810.3125
3008.00073	7788.4125
3010.42493	7772.7125
3012.84764	7768.7125
3015.26888	7772.6125
3017.68865	7768.5125
3020.10694	7770.9125
3022.52376	7732.0125
3024.9391	7721.9125
3027.35298	7732.6125
3029.76539	7704.7125
3032.17632	7679.5125
3034.5858	7684.3125
3036.9938	7678.3125
3039.40034	7672.3125
3041.80542	7660.6125
3044.20903	7647.7125
3046.61118	7660.7125
3049.01187	7632.0125
3051.4111	7658.9125
3053.80888	7622.3125
3056.20519	7618.4125
3058.60005	7608.4125
3060.99345	7611.3125
3063.3854	7605.0125
