Data from AgNPs_FTO_APTES_UA_2uM_R6G_10uM_NaF_0.1M_Addition_RamanShift__31__12-19-47-238.txt Node

Date: Fri Dec 17 12:19:47 GMT 2021
User: TCL
Spectrometer: QEP01345
Trigger mode: 4
Integration Time (sec): 7.000000E0
Scans to average: 10
Electric dark correction enabled: true
Nonlinearity correction enabled: false
Boxcar width: 0
XAxis mode: Raman Shifts
Number of Pixels in Spectrum: 1044
>>>>>Begin Spectral Data<<<<<
46.04893	-0.6625
50.45542	-0.3625
54.85868	-0.7625
59.25871	1.0375
63.6555	70.0375
68.04907	72.1375
72.43941	74.6375
76.82654	79.8375
81.21044	85.9375
85.59113	86.1375
89.96862	90.9375
94.34289	95.7375
98.71396	98.3375
103.08183	97.7375
107.4465	100.0375
111.80798	98.5375
116.16626	103.7375
120.52136	99.6375
124.87327	103.2375
129.222	109.2375
133.56755	113.1375
137.90993	111.8375
142.24913	115.8375
146.58517	122.8375
150.91804	133.6375
155.24774	150.4375
159.57429	176.4375
163.89768	221.7375
168.21792	267.8375
172.53501	349.7375
176.84895	476.3375
181.15975	640.2375
185.46741	891.8375
189.77193	1216.9375
194.07331	1611.6375
198.37157	2060.5375
202.6667	2548.8375
206.9587	3017.9375
211.24758	3491.5375
215.53334	3992.1375
219.81599	4534.7375
224.09553	5142.3375
228.37195	5835.2375
232.64527	6557.8375
236.91549	7319.0375
241.18261	7998.3375
245.44663	8582.8375
249.70755	9059.1375
253.96539	9452.6375
258.22014	9807.2375
262.4718	10170.8375
266.72039	10441.9375
270.96589	10620.8375
275.20832	10605.7375
279.44768	10525.8375
283.68397	10370.2375
287.91719	10234.8375
292.14735	10254.2375
296.37445	10431.0375
300.59849	10750.9375
304.81948	11166.6375
309.03742	11475.2375
313.25231	11467.8375
317.46415	10957.7375
321.67296	10191.4375
325.87872	9588.1375
330.08145	9316.2375
334.28114	9292.9375
338.47781	9481.5375
342.67145	9729.1375
346.86207	10151.2375
351.04966	10730.9375
355.23424	11404.6375
359.4158	11923.4375
363.59435	12263.5375
367.76989	12322.6375
371.94243	12339.5375
376.11196	12289.3375
380.27849	12258.5375
384.44203	12180.4375
388.60257	12033.7375
392.76012	11972.2375
396.91468	12076.6375
401.06626	12419.9375
405.21485	12664.7375
409.36047	12503.3375
413.50311	11926.3375
417.64277	11419.2375
421.77947	11124.9375
425.9132	10994.1375
430.04396	11020.8375
434.17176	11110.1375
438.2966	11226.2375
442.41849	11505.1375
446.53742	11845.6375
450.6534	12162.8375
454.76644	12399.5375
458.87653	12458.2375
462.98368	12373.8375
467.08789	12206.9375
471.18916	11904.9375
475.2875	11607.9375
479.38291	11369.1375
483.4754	11200.1375
487.56496	11047.1375
491.6516	10960.9375
495.73531	10910.5375
499.81612	10951.2375
503.89401	11037.8375
507.96899	11172.0375
512.04106	11357.7375
516.11023	11507.8375
520.1765	11660.0375
524.23987	11652.7375
528.30034	11425.0375
532.35792	11229.0375
536.41261	11006.7375
540.46441	10776.4375
544.51333	10674.2375
548.55936	10724.8375
552.60252	10899.2375
556.64279	11126.2375
560.6802	11254.8375
564.71473	11391.0375
568.7464	11772.4375
572.7752	12036.1375
576.80114	11832.6375
580.82422	11533.9375
584.84444	11430.1375
588.86181	11400.8375
592.87633	11462.7375
596.888	11610.1375
600.89682	12056.3375
604.9028	13318.9375
608.90594	16617.3375
612.90624	20742.3375
616.90371	20029.6375
620.89834	14568.1375
624.89015	11940.4375
628.87913	11403.9375
632.86528	11460.6375
636.84862	11595.9375
640.82913	11484.6375
644.80683	11105.4375
648.78172	10845.5375
652.75379	10945.8375
656.72306	11342.1375
660.68952	11872.2375
664.65319	11743.1375
668.61405	11233.5375
672.57211	10993.2375
676.52738	10988.7375
680.47986	10975.1375
684.42955	10924.2375
688.37646	10898.5375
692.32058	10992.5375
696.26192	11068.4375
700.20048	11228.7375
704.13626	11342.1375
708.06928	11298.1375
711.99952	11190.4375
715.927	11126.2375
719.85171	11146.7375
723.77365	11140.7375
727.69284	11045.9375
731.60928	11003.0375
735.52295	10993.5375
739.43388	11040.6375
743.34206	11114.4375
747.24749	11198.5375
751.15017	11285.4375
755.05012	11477.5375
758.94733	11947.2375
762.8418	12959.8375
766.73354	14658.0375
770.62254	16558.6375
774.50882	17580.0375
778.39237	16989.1375
782.27321	15035.3375
786.15132	13095.2375
790.02671	12016.8375
793.89938	11536.0375
797.76935	11357.9375
801.6366	11258.4375
805.50115	11165.0375
809.36299	11147.3375
813.22213	11102.4375
817.07857	11123.9375
820.93231	11124.1375
824.78336	11147.0375
828.63172	11174.7375
832.47738	11212.5375
836.32036	11213.8375
840.16066	11153.3375
843.99827	11160.4375
847.8332	11118.3375
851.66546	11106.8375
855.49504	11109.5375
859.32195	11108.1375
863.1462	11045.2375
866.96777	11047.9375
870.78668	11034.6375
874.60293	11039.9375
878.41652	11091.4375
882.22745	11157.6375
886.03573	11198.3375
889.84136	11197.8375
893.64433	11139.7375
897.44466	11126.2375
901.24235	11112.4375
905.0374	11109.5375
908.8298	11084.3375
912.61957	11074.7375
916.40671	11132.7375
920.19121	11210.9375
923.97308	11305.1375
927.75233	11401.8375
931.52895	11486.1375
935.30295	11407.8375
939.07433	11190.3375
942.84309	10966.3375
946.60924	10811.7375
950.37278	10776.2375
954.13371	10727.2375
957.89203	10667.2375
961.64774	10660.5375
965.40086	10619.5375
969.15137	10581.1375
972.89929	10558.7375
976.64461	10564.7375
980.38733	10608.6375
984.12747	10597.5375
987.86502	10649.2375
991.59999	10728.8375
995.33237	10861.7375
999.06217	11064.4375
1002.78939	11332.4375
1006.51404	11605.3375
1010.23611	11875.1375
1013.95561	12032.6375
1017.67255	12028.9375
1021.38692	11863.7375
1025.09872	11683.7375
1028.80796	11631.8375
1032.51465	11701.1375
1036.21877	11853.5375
1039.92035	11963.7375
1043.61937	11979.0375
1047.31584	11852.7375
1051.00976	11703.6375
1054.70114	11630.3375
1058.38998	11586.7375
1062.07627	11595.5375
1065.76003	11662.8375
1069.44126	11741.6375
1073.11995	11841.1375
1076.79611	11965.1375
1080.46974	12095.4375
1084.14085	12332.3375
1087.80943	12571.3375
1091.47549	12679.9375
1095.13903	12473.2375
1098.80005	12119.0375
1102.45857	11822.7375
1106.11456	11718.2375
1109.76805	11772.2375
1113.41903	11962.9375
1117.06751	12235.3375
1120.71348	12632.8375
1124.35696	13006.9375
1127.99793	13391.7375
1131.63641	13365.7375
1135.2724	12947.2375
1138.90589	12468.6375
1142.5369	12205.6375
1146.16542	12004.5375
1149.79145	11901.7375
1153.415	11893.3375
1157.03607	11969.4375
1160.65467	12204.5375
1164.27079	12507.8375
1167.88443	13001.3375
1171.49561	13807.9375
1175.10432	15169.6375
1178.71056	17025.1375
1182.31434	18545.3375
1185.91565	19027.8375
1189.51451	18740.0375
1193.11091	17700.5375
1196.70485	16399.5375
1200.29634	15421.1375
1203.88538	14770.4375
1207.47197	14051.4375
1211.05612	13456.0375
1214.63782	13107.4375
1218.21708	13055.6375
1221.79391	13095.5375
1225.36829	13220.3375
1228.94024	13324.0375
1232.50976	13479.3375
1236.07685	13619.3375
1239.6415	13680.4375
1243.20374	13689.8375
1246.76355	13749.1375
1250.32093	13877.8375
1253.8759	14122.2375
1257.42845	14445.6375
1260.97859	14777.7375
1264.52631	15083.9375
1268.07163	15392.5375
1271.61453	15733.7375
1275.15503	16010.6375
1278.69312	16149.5375
1282.22882	16253.7375
1285.76211	16511.9375
1289.29301	16928.0375
1292.82151	17318.5375
1296.34761	17637.6375
1299.87133	18214.6375
1303.39266	19265.7375
1306.9116	20916.1375
1310.42815	22935.0375
1313.94233	24231.3375
1317.45412	23998.8375
1320.96354	22805.4375
1324.47058	21402.5375
1327.97525	20191.9375
1331.47754	19517.5375
1334.97747	19321.5375
1338.47502	19541.8375
1341.97022	19921.3375
1345.46305	20469.6375
1348.95352	21221.1375
1352.44163	22337.4375
1355.92738	24002.3375
1359.41078	26647.8375
1362.89183	29334.6375
1366.37053	28790.9375
1369.84688	25057.1375
1373.32088	21222.8375
1376.79254	18673.5375
1380.26186	17400.2375
1383.72883	16783.3375
1387.19347	16260.7375
1390.65578	15718.2375
1394.11575	15270.0375
1397.57339	15088.7375
1401.0287	15149.8375
1404.48168	15456.1375
1407.93234	15884.9375
1411.38068	16289.6375
1414.82669	16434.1375
1418.27039	16254.2375
1421.71177	15952.4375
1425.15083	15638.3375
1428.58758	15459.9375
1432.02203	15463.5375
1435.45416	15554.9375
1438.88399	15620.6375
1442.31151	15609.8375
1445.73673	15714.8375
1449.15965	15732.7375
1452.58027	15710.1375
1455.9986	15546.1375
1459.41463	15429.1375
1462.82837	15477.0375
1466.23982	15703.8375
1469.64898	15989.5375
1473.05586	16234.6375
1476.46045	16360.1375
1479.86276	16641.0375
1483.26279	16990.7375
1486.66054	17463.3375
1490.05602	17984.8375
1493.44922	18687.4375
1496.84016	19619.3375
1500.22882	20995.4375
1503.61521	22767.8375
1506.99934	24794.0375
1510.38121	26736.1375
1513.76081	27640.2375
1517.13816	26534.6375
1520.51324	23872.8375
1523.88607	21120.2375
1527.25665	19185.5375
1530.62498	18106.0375
1533.99105	17401.9375
1537.35488	17008.2375
1540.71647	16782.3375
1544.07581	16643.0375
1547.4329	16593.1375
1550.78776	16543.5375
1554.14038	16470.3375
1557.49077	16556.7375
1560.83892	16731.5375
1564.18484	16987.8375
1567.52853	17275.6375
1570.86999	17566.5375
1574.20922	17795.8375
1577.54624	17787.4375
1580.88103	17207.7375
1584.2136	16393.8375
1587.54395	16063.7375
1590.87208	16350.9375
1594.19801	17199.2375
1597.52172	18248.1375
1600.84321	18772.5375
1604.16251	18309.3375
1607.47959	17287.1375
1610.79447	16177.1375
1614.10715	15051.0375
1617.41763	14149.8375
1620.7259	13614.4375
1624.03199	13387.4375
1627.33587	13437.9375
1630.63757	13695.2375
1633.93707	14258.4375
1637.23439	15085.9375
1640.52951	16095.7375
1643.82246	17320.0375
1647.11321	18681.8375
1650.40179	19656.8375
1653.68819	19222.0375
1656.97241	17225.3375
1660.25446	14954.3375
1663.53433	13303.4375
1666.81203	12335.7375
1670.08756	11762.8375
1673.36092	11382.4375
1676.63211	11146.7375
1679.90115	11007.4375
1683.16801	10887.2375
1686.43272	10821.9375
1689.69527	10731.5375
1692.95567	10682.4375
1696.2139	10622.0375
1699.46999	10625.4375
1702.72392	10615.6375
1705.97571	10601.8375
1709.22535	10598.4375
1712.47284	10626.5375
1715.71819	10611.7375
1718.96139	10608.9375
1722.20246	10600.3375
1725.44139	10575.2375
1728.67818	10501.8375
1731.91284	10442.8375
1735.14537	10341.1375
1738.37576	10318.1375
1741.60403	10268.1375
1744.83017	10239.1375
1748.05418	10204.2375
1751.27607	10178.7375
1754.49584	10172.0375
1757.71349	10170.0375
1760.92903	10150.0375
1764.14244	10138.3375
1767.35375	10140.4375
1770.56294	10129.3375
1773.77002	10112.0375
1776.97499	10096.3375
1780.17785	10076.1375
1783.37861	10044.2375
1786.57727	10032.0375
1789.77382	10038.0375
1792.96828	10028.5375
1796.16064	10002.7375
1799.3509	10003.8375
1802.53907	9999.4375
1805.72514	9969.0375
1808.90913	9946.0375
1812.09102	9909.8375
1815.27083	9896.0375
1818.44856	9894.3375
1821.6242	9870.4375
1824.79776	9874.3375
1827.96924	9855.9375
1831.13864	9850.1375
1834.30597	9841.2375
1837.47122	9824.9375
1840.6344	9836.4375
1843.7955	9848.5375
1846.95454	9832.3375
1850.11151	9831.3375
1853.26642	9827.2375
1856.41926	9853.8375
1859.57004	9837.7375
1862.71876	9838.0375
1865.86542	9850.4375
1869.01003	9841.3375
1872.15258	9831.8375
1875.29308	9856.1375
1878.43152	9846.2375
1881.56792	9859.6375
1884.70227	9868.2375
1887.83457	9871.3375
1890.96482	9870.8375
1894.09304	9870.4375
1897.21921	9846.1375
1900.34335	9869.3375
1903.46544	9855.9375
1906.58551	9869.8375
1909.70353	9851.2375
1912.81953	9872.6375
1915.93349	9843.0375
1919.04543	9816.9375
1922.15534	9806.9375
1925.26322	9770.7375
1928.36908	9761.1375
1931.47292	9762.5375
1934.57473	9692.8375
1937.67453	9651.9375
1940.77232	9631.2375
1943.86808	9575.1375
1946.96184	9541.8375
1950.05358	9520.3375
1953.14331	9482.1375
1956.23103	9437.2375
1959.31675	9386.1375
1962.40046	9395.1375
1965.48217	9349.5375
1968.56188	9329.5375
1971.63959	9302.9375
1974.7153	9277.8375
1977.78901	9233.4375
1980.86073	9203.2375
1983.93046	9173.8375
1986.99819	9143.0375
1990.06394	9143.3375
1993.1277	9100.8375
1996.18947	9074.0375
1999.24925	9040.0375
2002.30706	9007.2375
2005.36288	8986.6375
2008.41672	8972.0375
2011.46859	8932.0375
2014.51848	8916.7375
2017.56639	8900.9375
2020.61233	8867.2375
2023.6563	8829.4375
2026.6983	8816.5375
2029.73833	8801.9375
2032.7764	8771.4375
2035.8125	8755.5375
2038.84664	8714.7375
2041.87881	8741.5375
2044.90903	8730.9375
2047.93729	8695.3375
2050.96359	8693.7375
2053.98794	8684.3375
2057.01034	8653.3375
2060.03078	8634.9375
2063.04927	8658.5375
2066.06582	8653.0375
2069.08042	8626.1375
2072.09307	8635.0375
2075.10378	8617.0375
2078.11255	8595.4375
2081.11938	8594.7375
2084.12426	8594.3375
2087.12722	8603.2375
2090.12824	8569.8375
2093.12732	8579.8375
2096.12447	8592.3375
2099.11969	8565.9375
2102.11299	8594.4375
2105.10435	8586.1375
2108.09379	8599.1375
2111.08131	8585.4375
2114.0669	8585.6375
2117.05057	8606.9375
2120.03233	8594.1375
2123.01216	8606.3375
2125.99008	8619.1375
2128.96609	8611.2375
2131.94018	8618.0375
2134.91236	8622.7375
2137.88263	8606.8375
2140.851	8620.3375
2143.81746	8616.6375
2146.78201	8640.6375
2149.74466	8632.7375
2152.7054	8593.8375
2155.66425	8609.1375
2158.6212	8637.1375
2161.57625	8588.5375
2164.52941	8603.0375
2167.48067	8593.4375
2170.43004	8603.9375
2173.37752	8597.8375
2176.32311	8591.4375
2179.26681	8606.6375
2182.20863	8607.5375
2185.14856	8590.5375
2188.08661	8572.7375
2191.02278	8587.2375
2193.95707	8579.3375
2196.88948	8564.6375
2199.82001	8576.5375
2202.74867	8543.5375
2205.67545	8554.9375
2208.60037	8556.5375
2211.52341	8523.6375
2214.44458	8524.2375
2217.36388	8491.8375
2220.28132	8476.7375
2223.1969	8454.6375
2226.11061	8433.0375
2229.02246	8407.6375
2231.93245	8410.6375
2234.84058	8395.8375
2237.74686	8365.8375
2240.65128	8353.3375
2243.55385	8354.8375
2246.45456	8336.8375
2249.35343	8335.7375
2252.25044	8334.9375
2255.14561	8313.2375
2258.03893	8309.2375
2260.93041	8290.7375
2263.82004	8268.1375
2266.70783	8274.7375
2269.59378	8234.8375
2272.4779	8224.9375
2275.36017	8197.5375
2278.24061	8171.7375
2281.11922	8182.0375
2283.996	8153.8375
2286.87094	8148.1375
2289.74405	8119.8375
2292.61534	8110.8375
2295.4848	8095.6375
2298.35243	8090.5375
2301.21824	8096.3375
2304.08223	8087.9375
2306.94439	8067.0375
2309.80474	8057.5375
2312.66327	8075.9375
2315.51999	8069.4375
2318.37489	8066.5375
2321.22797	8031.0375
2324.07925	8029.6375
2326.92871	8027.5375
2329.77637	8005.3375
2332.62222	7995.7375
2335.46626	7986.2375
2338.3085	7983.1375
2341.14893	7974.6375
2343.98756	7970.2375
2346.8244	7986.1375
2349.65943	7987.9375
2352.49267	7949.7375
2355.32411	7969.1375
2358.15376	7949.4375
2360.98161	7965.0375
2363.80768	7965.2375
2366.63195	7969.2375
2369.45444	7952.3375
2372.27514	7934.9375
2375.09405	7925.4375
2377.91118	7914.0375
2380.72652	7891.2375
2383.54009	7868.8375
2386.35187	7844.6375
2389.16188	7825.8375
2391.97011	7791.2375
2394.77657	7769.4375
2397.58125	7760.2375
2400.38416	7735.3375
2403.18529	7723.1375
2405.98466	7705.4375
2408.78226	7688.3375
2411.57809	7684.7375
2414.37216	7664.8375
2417.16446	7655.7375
2419.955	7651.1375
2422.74378	7641.6375
2425.5308	7635.9375
2428.31606	7617.6375
2431.09956	7620.1375
2433.88131	7605.3375
2436.6613	7613.3375
2439.43954	7579.6375
2442.21603	7587.1375
2444.99077	7577.3375
2447.76377	7578.0375
2450.53501	7574.9375
2453.30451	7580.1375
2456.07226	7598.2375
2458.83827	7576.2375
2461.60254	7531.8375
2464.36507	7540.1375
2467.12586	7533.5375
2469.88492	7537.9375
2472.64224	7515.5375
2475.39782	7530.7375
2478.15167	7527.4375
2480.90379	7524.9375
2483.65417	7537.9375
2486.40283	7542.2375
2489.14976	7556.0375
2491.89497	7564.3375
2494.63845	7576.8375
2497.3802	7547.0375
2500.12024	7537.1375
2502.85855	7531.8375
2505.59514	7505.9375
2508.33002	7493.9375
2511.06318	7491.1375
2513.79462	7479.7375
2516.52435	7437.1375
2519.25237	7420.0375
2521.97867	7411.6375
2524.70327	7412.9375
2527.42616	7384.4375
2530.14734	7365.7375
2532.86681	7353.1375
2535.58458	7371.9375
2538.30065	7365.5375
2541.01501	7344.3375
2543.72768	7361.5375
2546.43864	7325.5375
2549.14791	7319.2375
2551.85548	7293.9375
2554.56136	7304.1375
2557.26554	7293.1375
2559.96803	7285.7375
2562.66883	7264.1375
2565.36794	7265.9375
2568.06536	7252.9375
2570.7611	7240.6375
2573.45514	7201.3375
2576.14751	7225.7375
2578.83819	7186.2375
2581.52719	7197.2375
2584.21451	7188.1375
2586.90015	7194.3375
2589.58411	7171.9375
2592.2664	7169.4375
2594.94701	7147.8375
2597.62594	7130.9375
2600.30321	7113.6375
2602.9788	7138.4375
2605.65273	7110.0375
2608.32498	7125.6375
2610.99557	7101.6375
2613.66449	7096.3375
2616.33175	7103.0375
2618.99734	7088.2375
2621.66128	7079.9375
2624.32355	7080.6375
2626.98416	7080.9375
2629.64311	7077.8375
2632.30041	7045.8375
2634.95605	7031.7375
2637.61004	7031.1375
2640.26238	7026.6375
2642.91306	7001.5375
2645.56209	7010.3375
2648.20948	6982.9375
2650.85521	6980.1375
2653.4993	6974.5375
2656.14175	6991.8375
2658.78255	6998.4375
2661.42171	6991.0375
2664.05923	7013.1375
2666.6951	7001.6375
2669.32934	7001.4375
2671.96194	7029.9375
2674.59291	7037.5375
2677.22224	7015.9375
2679.84993	7026.9375
2682.476	7018.3375
2685.10043	7022.7375
2687.72324	7016.2375
2690.34441	7033.1375
2692.96396	7034.7375
2695.58188	7037.0375
2698.19818	7020.9375
2700.81285	7019.0375
2703.4259	7015.6375
2706.03733	7019.1375
2708.64714	7015.7375
2711.25533	7024.1375
2713.86191	7012.6375
2716.46687	7035.0375
2719.07021	7030.3375
2721.67194	7032.6375
2724.27206	7011.9375
2726.87057	7023.4375
2729.46747	7020.0375
2732.06276	7029.6375
2734.65644	7017.8375
2737.24852	7012.8375
2739.83899	7007.7375
2742.42786	6994.6375
2745.01513	7008.2375
2747.60079	6979.8375
2750.18486	6967.2375
2752.76733	6993.9375
2755.3482	6972.3375
2757.92747	6988.3375
2760.50515	6956.9375
2763.08123	6944.2375
2765.65573	6949.5375
2768.22863	6961.1375
2770.79994	6928.1375
2773.36967	6941.2375
2775.9378	6922.7375
2778.50435	6901.8375
2781.06932	6899.1375
2783.6327	6911.4375
2786.1945	6907.9375
2788.75471	6910.5375
2791.31335	6893.0375
2793.87041	6899.8375
2796.42589	6861.4375
2798.97979	6889.9375
2801.53212	6869.2375
2804.08288	6852.3375
2806.63206	6842.7375
2809.17967	6856.1375
2811.72571	6848.8375
2814.27018	6869.5375
2816.81308	6884.0375
2819.35442	6882.3375
2821.89419	6869.6375
2824.43239	6871.4375
2826.96904	6863.8375
2829.50412	6857.6375
2832.03763	6882.3375
2834.56959	6877.0375
2837.1	6874.9375
2839.62884	6903.3375
2842.15613	6890.7375
2844.68186	6929.8375
2847.20604	6978.6375
2849.72867	7012.6375
2852.24974	7013.9375
2854.76927	7013.8375
2857.28724	6990.0375
2859.80367	6972.2375
2862.31855	6989.0375
2864.83189	6965.4375
2867.34368	6938.6375
2869.85393	6931.1375
2872.36264	6928.0375
2874.8698	6937.0375
2877.37543	6927.8375
2879.87952	6898.9375
2882.38207	6905.1375
2884.88308	6896.2375
2887.38256	6893.4375
2889.88051	6903.2375
2892.37692	6890.2375
2894.8718	6883.6375
2897.36515	6892.2375
2899.85698	6894.5375
2902.34727	6907.8375
2904.83604	6914.4375
2907.32328	6912.4375
2909.809	6903.7375
2912.29319	6897.4375
2914.77587	6882.6375
2917.25702	6869.9375
2919.73665	6858.1375
2922.21476	6866.3375
2924.69136	6844.0375
2927.16644	6832.6375
2929.64	6824.6375
2932.11205	6815.9375
2934.58258	6785.5375
2937.05161	6768.4375
2939.51912	6748.4375
2941.98513	6720.6375
2944.44962	6690.3375
2946.91261	6632.9375
2949.37409	6622.3375
2951.83407	6609.3375
2954.29254	6580.0375
2956.74951	6573.9375
2959.20498	6541.8375
2961.65895	6529.9375
2964.11142	6516.2375
2966.56239	6474.8375
2969.01186	6478.6375
2971.45984	6461.6375
2973.90632	6448.6375
2976.35131	6413.1375
2978.7948	6406.0375
2981.23681	6375.9375
2983.67732	6366.1375
2986.11635	6344.9375
2988.55388	6324.0375
2990.98993	6308.1375
2993.4245	6265.9375
2995.85758	6261.7375
2998.28917	6232.7375
3000.71928	6240.8375
3003.14791	6223.5375
3005.57506	6212.4375
3008.00073	6200.2375
3010.42493	6167.2375
3012.84764	6174.3375
3015.26888	6154.1375
3017.68865	6142.5375
3020.10694	6150.0375
3022.52376	6120.4375
3024.9391	6110.9375
3027.35298	6112.3375
3029.76539	6105.0375
3032.17632	6075.6375
3034.5858	6062.9375
3036.9938	6070.7375
3039.40034	6049.8375
3041.80542	6063.8375
3044.20903	6027.0375
3046.61118	6050.0375
3049.01187	6018.1375
3051.4111	6010.8375
3053.80888	5991.4375
3056.20519	5986.8375
3058.60005	5964.0375
3060.99345	5955.7375
3063.3854	5961.1375
3065.7759	5934.4375
3068.16494	5917.2375
3070.55254	5878.1375
3072.93868	5881.1375
3075.32338	5846.9375
3077.70662	5839.5375
