Data from AgNPs_FTO_APTES_UA_5uM_R6G_10uM_NaF_0.1M_Addition_RamanShift__18__12-46-37-269.txt Node

Date: Fri Dec 17 12:46:37 GMT 2021
User: TCL
Spectrometer: QEP01345
Trigger mode: 4
Integration Time (sec): 7.000000E0
Scans to average: 10
Electric dark correction enabled: true
Nonlinearity correction enabled: false
Boxcar width: 0
XAxis mode: Raman Shifts
Number of Pixels in Spectrum: 1044
>>>>>Begin Spectral Data<<<<<
46.04893	-0.175
50.45542	-1.275
54.85868	-1.175
59.25871	-0.075
63.6555	110.325
68.04907	113.025
72.43941	120.125
76.82654	127.925
81.21044	124.025
85.59113	132.425
89.96862	135.925
94.34289	143.225
98.71396	145.825
103.08183	150.425
107.4465	154.025
111.80798	157.825
116.16626	164.525
120.52136	166.925
124.87327	177.425
129.222	183.925
133.56755	193.725
137.90993	208.225
142.24913	226.425
146.58517	255.125
150.91804	287.525
155.24774	348.925
159.57429	427.225
163.89768	536.925
168.21792	717.925
172.53501	971.625
176.84895	1338.925
181.15975	1866.025
185.46741	2609.225
189.77193	3600.825
194.07331	4801.825
198.37157	6204.525
202.6667	7638.025
206.9587	9063.325
211.24758	10457.025
215.53334	11874.025
219.81599	13335.025
224.09553	15032.425
228.37195	16863.625
232.64527	18879.825
236.91549	21071.725
241.18261	23197.825
245.44663	25230.325
249.70755	26978.425
253.96539	28492.925
258.22014	29794.525
262.4718	30865.225
266.72039	31629.925
270.96589	32052.525
275.20832	32171.725
279.44768	31918.425
283.68397	31564.225
287.91719	31272.325
292.14735	31091.525
296.37445	31053.925
300.59849	31131.925
304.81948	31288.625
309.03742	31318.025
313.25231	31026.025
317.46415	30432.525
321.67296	29590.825
325.87872	28871.025
330.08145	28494.725
334.28114	28480.825
338.47781	28696.225
342.67145	29087.425
346.86207	29565.225
351.04966	30240.625
355.23424	30951.925
359.4158	31519.725
363.59435	31983.225
367.76989	32233.225
371.94243	32492.225
376.11196	32622.825
380.27849	32808.525
384.44203	32897.825
388.60257	33096.925
392.76012	33353.825
396.91468	33768.125
401.06626	34217.625
405.21485	34651.625
409.36047	34525.625
413.50311	33924.825
417.64277	33447.325
421.77947	33308.225
425.9132	33386.625
430.04396	33531.025
434.17176	33694.825
438.2966	33878.825
442.41849	34428.525
446.53742	35171.725
450.6534	36033.425
454.76644	36742.825
458.87653	37077.125
462.98368	36980.125
467.08789	36578.425
471.18916	36056.425
475.2875	35446.025
479.38291	34984.225
483.4754	34553.325
487.56496	34232.325
491.6516	33817.425
495.73531	33580.725
499.81612	33588.125
503.89401	33878.525
507.96899	34088.425
512.04106	34123.525
516.11023	34117.025
520.1765	33903.125
524.23987	33711.525
528.30034	33363.125
532.35792	33014.425
536.41261	32584.725
540.46441	32242.325
544.51333	32198.325
548.55936	32530.925
552.60252	33126.625
556.64279	33730.325
560.6802	34089.525
564.71473	34302.525
568.7464	34662.425
572.7752	35283.325
576.80114	35835.725
580.82422	36365.725
584.84444	36879.725
588.86181	37284.125
592.87633	37581.325
596.888	37795.825
600.89682	38139.525
604.9028	39719.525
608.90594	43658.525
612.90624	47318.425
616.90371	44642.325
620.89834	37485.625
624.89015	34291.125
628.87913	33933.925
632.86528	33860.525
636.84862	33712.025
640.82913	33215.925
644.80683	32380.425
648.78172	31784.625
652.75379	31640.625
656.72306	32059.725
660.68952	32642.825
664.65319	32459.225
668.61405	31898.825
672.57211	31708.525
676.52738	31798.225
680.47986	31763.525
684.42955	31607.225
688.37646	31529.925
692.32058	31682.725
696.26192	32062.025
700.20048	32449.625
704.13626	32652.125
708.06928	32485.525
711.99952	32265.825
715.927	32111.325
719.85171	32246.025
723.77365	32094.625
727.69284	31788.225
731.60928	31438.025
735.52295	31275.425
739.43388	31307.525
743.34206	31413.725
747.24749	31553.625
751.15017	31818.325
755.05012	32314.225
758.94733	33206.325
762.8418	34841.225
766.73354	37423.325
770.62254	39957.125
774.50882	40800.925
778.39237	39043.525
782.27321	36208.625
786.15132	33881.225
790.02671	32475.525
793.89938	31816.125
797.76935	31578.325
801.6366	31504.525
805.50115	31397.925
809.36299	31210.825
813.22213	30923.225
817.07857	30688.225
820.93231	30526.825
824.78336	30512.325
828.63172	30445.525
832.47738	30455.625
836.32036	30514.925
840.16066	30571.725
843.99827	30679.325
847.8332	30669.425
851.66546	30502.325
855.49504	30454.625
859.32195	30468.825
863.1462	30397.825
866.96777	30289.125
870.78668	30241.225
874.60293	30261.525
878.41652	30252.625
882.22745	30321.225
886.03573	30476.225
889.84136	30502.325
893.64433	30357.525
897.44466	30201.125
901.24235	30106.925
905.0374	30020.425
908.8298	29912.725
912.61957	30006.525
916.40671	30221.725
920.19121	30549.225
923.97308	30990.725
927.75233	31123.225
931.52895	31050.225
935.30295	30730.225
939.07433	30176.325
942.84309	29748.525
946.60924	29539.225
950.37278	29520.825
954.13371	29437.025
957.89203	29249.625
961.64774	29167.825
965.40086	29094.125
969.15137	28995.225
972.89929	28932.025
976.64461	28994.925
980.38733	29023.425
984.12747	29190.725
987.86502	29465.925
991.59999	29859.525
995.33237	30412.625
999.06217	31347.325
1002.78939	32331.325
1006.51404	33037.925
1010.23611	33427.125
1013.95561	33614.625
1017.67255	33576.925
1021.38692	33166.025
1025.09872	32856.025
1028.80796	33004.925
1032.51465	33837.125
1036.21877	34607.825
1039.92035	34787.825
1043.61937	34378.025
1047.31584	33516.025
1051.00976	32700.925
1054.70114	32230.125
1058.38998	32265.525
1062.07627	32516.525
1065.76003	32690.225
1069.44126	33062.825
1073.11995	33550.625
1076.79611	34093.525
1080.46974	34459.725
1084.14085	34643.325
1087.80943	34931.925
1091.47549	34985.925
1095.13903	34835.125
1098.80005	34314.525
1102.45857	33644.625
1106.11456	33139.425
1109.76805	32960.725
1113.41903	33080.325
1117.06751	33226.725
1120.71348	33549.925
1124.35696	33851.425
1127.99793	34189.625
1131.63641	34413.925
1135.2724	34248.425
1138.90589	34033.425
1142.5369	33848.425
1146.16542	33788.925
1149.79145	33820.825
1153.415	34057.925
1157.03607	34372.725
1160.65467	35195.425
1164.27079	36526.225
1167.88443	38309.825
1171.49561	40630.425
1175.10432	43598.125
1178.71056	47347.825
1182.31434	51020.525
1185.91565	53173.725
1189.51451	53380.325
1193.11091	51874.925
1196.70485	49411.225
1200.29634	47052.925
1203.88538	45158.625
1207.47197	43785.625
1211.05612	42685.925
1214.63782	41848.525
1218.21708	41330.525
1221.79391	41138.625
1225.36829	41121.625
1228.94024	40872.125
1232.50976	40368.725
1236.07685	39979.225
1239.6415	39617.325
1243.20374	39512.925
1246.76355	39712.925
1250.32093	40263.425
1253.8759	41101.325
1257.42845	42263.025
1260.97859	43498.625
1264.52631	44764.225
1268.07163	46034.225
1271.61453	47468.025
1275.15503	48924.425
1278.69312	50289.425
1282.22882	51252.225
1285.76211	51908.725
1289.29301	52619.325
1292.82151	53623.625
1296.34761	55185.625
1299.87133	57554.925
1303.39266	60816.825
1306.9116	64863.325
1310.42815	68855.225
1313.94233	71531.125
1317.45412	71856.525
1320.96354	70793.225
1324.47058	69359.125
1327.97525	68015.325
1331.47754	67067.525
1334.97747	66766.925
1338.47502	66798.525
1341.97022	66964.925
1345.46305	66588.425
1348.95352	65894.225
1352.44163	65323.725
1355.92738	66077.225
1359.41078	68483.225
1362.89183	70881.325
1366.37053	69431.125
1369.84688	63888.025
1373.32088	57425.725
1376.79254	52832.025
1380.26186	50739.625
1383.72883	50205.325
1387.19347	49824.125
1390.65578	49084.925
1394.11575	48646.525
1397.57339	48781.825
1401.0287	49584.825
1404.48168	50420.825
1407.93234	50983.525
1411.38068	50893.425
1414.82669	50091.225
1418.27039	48613.225
1421.71177	46927.225
1425.15083	45591.925
1428.58758	44913.525
1432.02203	45040.025
1435.45416	45755.125
1438.88399	46831.425
1442.31151	47799.625
1445.73673	48395.025
1449.15965	48768.925
1452.58027	49058.925
1455.9986	49184.325
1459.41463	49500.125
1462.82837	50391.725
1466.23982	51484.325
1469.64898	52465.625
1473.05586	53081.325
1476.46045	53191.125
1479.86276	52829.525
1483.26279	52224.925
1486.66054	51960.925
1490.05602	51952.325
1493.44922	52237.025
1496.84016	52657.725
1500.22882	53586.125
1503.61521	55215.225
1506.99934	57313.825
1510.38121	59159.325
1513.76081	59649.025
1517.13816	58239.925
1520.51324	55564.325
1523.88607	53034.725
1527.25665	51507.825
1530.62498	50699.525
1533.99105	50446.025
1537.35488	50261.425
1540.71647	49861.625
1544.07581	49296.925
1547.4329	48713.125
1550.78776	48163.025
1554.14038	47657.225
1557.49077	47375.725
1560.83892	47264.625
1564.18484	47136.325
1567.52853	47196.425
1570.86999	47482.525
1574.20922	48041.425
1577.54624	48585.325
1580.88103	48612.325
1584.2136	48598.425
1587.54395	49354.125
1590.87208	51224.625
1594.19801	54117.825
1597.52172	57227.925
1600.84321	58422.325
1604.16251	56481.125
1607.47959	52659.225
1610.79447	48610.225
1614.10715	44857.225
1617.41763	41530.325
1620.7259	39210.025
1624.03199	37938.725
1627.33587	37871.725
1630.63757	38840.525
1633.93707	41167.325
1637.23439	44759.225
1640.52951	49445.525
1643.82246	54364.025
1647.11321	57766.025
1650.40179	57750.725
1653.68819	54003.725
1656.97241	47669.125
1660.25446	41447.925
1663.53433	36829.225
1666.81203	33816.925
1670.08756	31914.525
1673.36092	30681.125
1676.63211	29897.425
1679.90115	29285.325
1683.16801	28840.725
1686.43272	28545.025
1689.69527	28245.425
1692.95567	28073.725
1696.2139	27945.325
1699.46999	27838.725
1702.72392	27767.625
1705.97571	27692.525
1709.22535	27573.125
1712.47284	27586.625
1715.71819	27546.125
1718.96139	27480.525
1722.20246	27407.925
1725.44139	27300.325
1728.67818	27131.825
1731.91284	26982.525
1735.14537	26842.225
1738.37576	26695.325
1741.60403	26590.325
1744.83017	26466.225
1748.05418	26470.025
1751.27607	26423.425
1754.49584	26334.325
1757.71349	26304.725
1760.92903	26283.825
1764.14244	26279.825
1767.35375	26262.825
1770.56294	26232.425
1773.77002	26177.225
1776.97499	26143.925
1780.17785	26078.625
1783.37861	26085.825
1786.57727	26048.925
1789.77382	25983.625
1792.96828	25898.925
1796.16064	25899.125
1799.3509	25863.825
1802.53907	25799.725
1805.72514	25729.825
1808.90913	25741.425
1812.09102	25643.525
1815.27083	25602.525
1818.44856	25551.725
1821.6242	25546.725
1824.79776	25533.425
1827.96924	25539.325
1831.13864	25557.325
1834.30597	25558.225
1837.47122	25602.625
1840.6344	25596.425
1843.7955	25599.125
1846.95454	25633.025
1850.11151	25592.725
1853.26642	25632.525
1856.41926	25596.325
1859.57004	25603.625
1862.71876	25607.025
1865.86542	25586.125
1869.01003	25581.625
1872.15258	25538.625
1875.29308	25581.825
1878.43152	25544.225
1881.56792	25580.225
1884.70227	25559.325
1887.83457	25561.325
1890.96482	25602.425
1894.09304	25534.325
1897.21921	25507.325
1900.34335	25501.025
1903.46544	25459.125
1906.58551	25416.625
1909.70353	25407.125
1912.81953	25350.825
1915.93349	25270.425
1919.04543	25212.725
1922.15534	25158.725
1925.26322	25076.925
1928.36908	25046.725
1931.47292	24940.525
1934.57473	24888.525
1937.67453	24776.325
1940.77232	24708.025
1943.86808	24590.725
1946.96184	24535.225
1950.05358	24483.625
1953.14331	24367.025
1956.23103	24288.425
1959.31675	24226.825
1962.40046	24138.125
1965.48217	24105.225
1968.56188	24015.925
1971.63959	23940.525
1974.7153	23918.125
1977.78901	23808.525
1980.86073	23736.225
1983.93046	23681.725
1986.99819	23608.325
1990.06394	23571.025
1993.1277	23453.925
1996.18947	23423.325
1999.24925	23310.025
2002.30706	23263.025
2005.36288	23206.025
2008.41672	23162.225
2011.46859	23109.625
2014.51848	23047.025
2017.56639	22993.125
2020.61233	22953.425
2023.6563	22887.325
2026.6983	22867.325
2029.73833	22811.425
2032.7764	22790.225
2035.8125	22761.025
2038.84664	22708.725
2041.87881	22694.025
2044.90903	22691.525
2047.93729	22655.825
2050.96359	22623.325
2053.98794	22549.325
2057.01034	22578.925
2060.03078	22547.625
2063.04927	22567.925
2066.06582	22490.225
2069.08042	22522.325
2072.09307	22464.825
2075.10378	22459.625
2078.11255	22377.625
2081.11938	22437.225
2084.12426	22399.725
2087.12722	22418.625
2090.12824	22394.025
2093.12732	22387.325
2096.12447	22435.125
2099.11969	22388.225
2102.11299	22417.825
2105.10435	22427.825
2108.09379	22449.125
2111.08131	22472.225
2114.0669	22468.725
2117.05057	22516.625
2120.03233	22527.325
2123.01216	22577.725
2125.99008	22571.325
2128.96609	22585.725
2131.94018	22610.525
2134.91236	22605.125
2137.88263	22634.325
2140.851	22637.525
2143.81746	22665.025
2146.78201	22691.225
2149.74466	22715.125
2152.7054	22672.525
2155.66425	22696.325
2158.6212	22705.025
2161.57625	22697.225
2164.52941	22689.925
2167.48067	22675.925
2170.43004	22691.725
2173.37752	22663.325
2176.32311	22632.525
2179.26681	22632.025
2182.20863	22669.425
2185.14856	22672.725
2188.08661	22656.925
2191.02278	22685.025
2193.95707	22652.425
2196.88948	22671.125
2199.82001	22696.025
2202.74867	22629.525
2205.67545	22643.625
2208.60037	22643.425
2211.52341	22637.225
2214.44458	22609.025
2217.36388	22585.525
2220.28132	22575.125
2223.1969	22507.625
2226.11061	22486.625
2229.02246	22443.725
2231.93245	22405.425
2234.84058	22355.425
2237.74686	22323.025
2240.65128	22285.925
2243.55385	22256.425
2246.45456	22228.025
2249.35343	22222.325
2252.25044	22180.325
2255.14561	22133.125
2258.03893	22153.325
2260.93041	22083.025
2263.82004	22051.925
2266.70783	22001.425
2269.59378	21914.025
2272.4779	21892.025
2275.36017	21857.225
2278.24061	21833.825
2281.11922	21758.525
2283.996	21723.225
2286.87094	21737.425
2289.74405	21727.725
2292.61534	21676.525
2295.4848	21687.225
2298.35243	21732.825
2301.21824	21698.725
2304.08223	21710.225
2306.94439	21711.725
2309.80474	21742.825
2312.66327	21765.025
2315.51999	21746.825
2318.37489	21787.425
2321.22797	21749.725
2324.07925	21757.125
2326.92871	21706.025
2329.77637	21704.725
2332.62222	21669.325
2335.46626	21663.925
2338.3085	21696.225
2341.14893	21630.425
2343.98756	21671.625
2346.8244	21705.425
2349.65943	21726.825
2352.49267	21713.025
2355.32411	21678.225
2358.15376	21699.625
2360.98161	21630.925
2363.80768	21623.125
2366.63195	21595.125
2369.45444	21524.925
2372.27514	21496.025
2375.09405	21518.925
2377.91118	21426.125
2380.72652	21375.625
2383.54009	21377.925
2386.35187	21321.525
2389.16188	21262.725
2391.97011	21255.825
2394.77657	21185.925
2397.58125	21212.825
2400.38416	21153.325
2403.18529	21120.425
2405.98466	21099.225
2408.78226	21055.225
2411.57809	21075.225
2414.37216	21006.225
2417.16446	21012.025
2419.955	20960.825
2422.74378	20945.725
2425.5308	20937.725
2428.31606	20919.625
2431.09956	20891.325
2433.88131	20879.625
2436.6613	20880.425
2439.43954	20879.125
2442.21603	20904.125
2444.99077	20878.625
2447.76377	20886.625
2450.53501	20867.825
2453.30451	20847.225
2456.07226	20865.125
2458.83827	20835.725
2461.60254	20828.125
2464.36507	20846.925
2467.12586	20865.325
2469.88492	20865.525
2472.64224	20869.125
2475.39782	20886.225
2478.15167	20880.025
2480.90379	20853.625
2483.65417	20857.225
2486.40283	20888.025
2489.14976	20922.525
2491.89497	20890.225
2494.63845	20923.025
2497.3802	20929.525
2500.12024	20889.325
2502.85855	20898.625
2505.59514	20837.925
2508.33002	20847.025
2511.06318	20859.325
2513.79462	20835.325
2516.52435	20790.425
2519.25237	20833.425
2521.97867	20769.125
2524.70327	20801.925
2527.42616	20798.025
2530.14734	20793.125
2532.86681	20735.125
2535.58458	20748.525
2538.30065	20741.125
2541.01501	20713.125
2543.72768	20711.825
2546.43864	20687.425
2549.14791	20650.825
2551.85548	20678.225
2554.56136	20629.725
2557.26554	20605.625
2559.96803	20598.725
2562.66883	20612.825
2565.36794	20580.625
2568.06536	20583.025
2570.7611	20538.225
2573.45514	20517.025
2576.14751	20525.325
2578.83819	20504.125
2581.52719	20485.025
2584.21451	20505.025
2586.90015	20463.125
2589.58411	20506.825
2592.2664	20452.925
2594.94701	20438.625
2597.62594	20415.425
2600.30321	20407.225
2602.9788	20395.225
2605.65273	20373.525
2608.32498	20381.725
2610.99557	20367.225
2613.66449	20384.125
2616.33175	20369.525
2618.99734	20386.225
2621.66128	20367.425
2624.32355	20356.025
2626.98416	20406.225
2629.64311	20401.025
2632.30041	20389.925
2634.95605	20380.825
2637.61004	20364.725
2640.26238	20307.125
2642.91306	20313.625
2645.56209	20296.125
2648.20948	20284.625
2650.85521	20264.125
2653.4993	20298.825
2656.14175	20259.825
2658.78255	20277.225
2661.42171	20283.725
2664.05923	20310.225
2666.6951	20299.925
2669.32934	20342.525
2671.96194	20324.425
2674.59291	20355.225
2677.22224	20338.825
2679.84993	20330.525
2682.476	20283.025
2685.10043	20296.225
2687.72324	20260.625
2690.34441	20258.125
2692.96396	20286.425
2695.58188	20280.025
2698.19818	20238.025
2700.81285	20211.225
2703.4259	20221.425
2706.03733	20257.125
2708.64714	20267.525
2711.25533	20271.925
2713.86191	20309.025
2716.46687	20346.125
2719.07021	20305.125
2721.67194	20330.025
2724.27206	20277.925
2726.87057	20326.525
2729.46747	20338.325
2732.06276	20340.625
2734.65644	20323.125
2737.24852	20325.725
2739.83899	20308.125
2742.42786	20386.025
2745.01513	20311.925
2747.60079	20296.525
2750.18486	20288.325
2752.76733	20292.325
2755.3482	20314.325
2757.92747	20301.325
2760.50515	20244.125
2763.08123	20266.525
2765.65573	20237.225
2768.22863	20201.825
2770.79994	20236.125
2773.36967	20223.625
2775.9378	20220.825
2778.50435	20188.925
2781.06932	20153.525
2783.6327	20179.025
2786.1945	20165.425
2788.75471	20134.325
2791.31335	20054.925
2793.87041	20028.625
2796.42589	19986.625
2798.97979	20027.725
2801.53212	19956.925
2804.08288	19952.325
2806.63206	19887.025
2809.17967	19901.325
2811.72571	19826.825
2814.27018	19856.225
2816.81308	19824.625
2819.35442	19763.625
2821.89419	19749.225
2824.43239	19738.225
2826.96904	19717.625
2829.50412	19724.625
2832.03763	19693.825
2834.56959	19647.525
2837.1	19635.325
2839.62884	19647.825
2842.15613	19582.825
2844.68186	19601.725
2847.20604	19589.725
2849.72867	19636.125
2852.24974	19596.725
2854.76927	19581.025
2857.28724	19536.925
2859.80367	19524.125
2862.31855	19507.125
2864.83189	19512.925
2867.34368	19493.325
2869.85393	19532.625
2872.36264	19502.725
2874.8698	19486.225
2877.37543	19534.325
2879.87952	19516.525
2882.38207	19516.625
2884.88308	19530.625
2887.38256	19556.825
2889.88051	19524.525
2892.37692	19538.525
2894.8718	19517.025
2897.36515	19571.325
2899.85698	19589.425
2902.34727	19625.425
2904.83604	19611.025
2907.32328	19683.825
2909.809	19642.225
2912.29319	19706.225
2914.77587	19660.525
2917.25702	19655.425
2919.73665	19641.725
2922.21476	19675.425
2924.69136	19641.325
2927.16644	19641.225
2929.64	19584.925
2932.11205	19566.425
2934.58258	19473.525
2937.05161	19511.025
2939.51912	19553.625
2941.98513	19506.825
2944.44962	19488.125
2946.91261	19392.425
2949.37409	19448.825
2951.83407	19435.325
2954.29254	19393.025
2956.74951	19437.025
2959.20498	19363.125
2961.65895	19333.825
2964.11142	19351.525
2966.56239	19263.425
2969.01186	19263.225
2971.45984	19219.125
2973.90632	19157.925
2976.35131	19156.025
2978.7948	19133.525
2981.23681	19096.525
2983.67732	19036.525
2986.11635	18993.325
2988.55388	18961.225
2990.98993	18954.625
2993.4245	18910.425
2995.85758	18859.625
2998.28917	18860.725
3000.71928	18815.125
3003.14791	18758.425
3005.57506	18750.625
3008.00073	18720.625
3010.42493	18714.125
3012.84764	18703.025
3015.26888	18664.425
3017.68865	18641.125
3020.10694	18613.925
3022.52376	18586.225
3024.9391	18528.825
3027.35298	18537.025
3029.76539	18516.825
3032.17632	18445.325
3034.5858	18445.125
3036.9938	18422.325
3039.40034	18411.925
3041.80542	18398.525
3044.20903	18340.825
3046.61118	18341.825
3049.01187	18309.225
3051.4111	18330.525
3053.80888	18276.625
3056.20519	18253.825
3058.60005	18217.725
3060.99345	18229.625
3063.3854	18183.025
3065.7759	18124.125
3068.16494	18058.325
3070.55254	18001.025
3072.93868	17991.925
3075.32338	17907.325
3077.70662	17934.825
3080.08842	17853.925
3082.46878	17853.925
3084.84769	17857.325
3087.22515	17813.125
3089.60118	17809.525
3091.97576	17833.925
3094.3489	17778.625
3096.72061	17799.525
3099.09087	17773.425
3101.4597	17764.725
3103.82709	17748.725
3106.19305	17707.325
3108.55757	17712.125
3110.92066	17645.025
3113.28232	17598.425
3115.64255	17591.825
3118.00134	17546.125
3120.35871	17578.725
3122.71466	17473.425
3125.06917	17447.425
3127.42226	17437.225
