Data from AgNPs_FTO_APTES_UA_100uM_R6G_10uM_NaF_0.1M_Addition_RamanShift__17__15-36-57-463.txt Node

Date: Fri Dec 17 15:36:57 GMT 2021
User: TCL
Spectrometer: QEP01345
Trigger mode: 4
Integration Time (sec): 7.000000E0
Scans to average: 10
Electric dark correction enabled: true
Nonlinearity correction enabled: false
Boxcar width: 0
XAxis mode: Raman Shifts
Number of Pixels in Spectrum: 1044
>>>>>Begin Spectral Data<<<<<
46.04893	-0.175
50.45542	-1.475
54.85868	-1.875
59.25871	0.925
63.6555	62.025
68.04907	62.825
72.43941	66.025
76.82654	73.825
81.21044	73.125
85.59113	75.425
89.96862	80.325
94.34289	83.625
98.71396	89.825
103.08183	87.325
107.4465	96.025
111.80798	95.425
116.16626	95.825
120.52136	95.025
124.87327	102.625
129.222	104.525
133.56755	107.425
137.90993	115.525
142.24913	118.425
146.58517	132.425
150.91804	148.825
155.24774	172.125
159.57429	213.425
163.89768	262.125
168.21792	347.325
172.53501	455.525
176.84895	628.825
181.15975	883.825
185.46741	1226.325
189.77193	1688.925
194.07331	2264.425
198.37157	2915.625
202.6667	3607.225
206.9587	4302.525
211.24758	4979.425
215.53334	5638.925
219.81599	6318.325
224.09553	7111.125
228.37195	7995.525
232.64527	8957.025
236.91549	10007.025
241.18261	11093.725
245.44663	12069.625
249.70755	12962.525
253.96539	13689.125
258.22014	14308.425
262.4718	14809.625
266.72039	15137.825
270.96589	15341.125
275.20832	15360.525
279.44768	15230.625
283.68397	15033.925
287.91719	14835.025
292.14735	14720.525
296.37445	14711.925
300.59849	14792.425
304.81948	14864.525
309.03742	14820.325
313.25231	14597.925
317.46415	14266.625
321.67296	13826.625
325.87872	13515.725
330.08145	13375.825
334.28114	13407.425
338.47781	13534.625
342.67145	13735.125
346.86207	13937.925
351.04966	14261.025
355.23424	14608.325
359.4158	14887.325
363.59435	15100.925
367.76989	15271.225
371.94243	15438.425
376.11196	15546.425
380.27849	15648.525
384.44203	15766.425
388.60257	15810.025
392.76012	15921.825
396.91468	16056.925
401.06626	16254.525
405.21485	16400.925
409.36047	16263.925
413.50311	15973.425
417.64277	15659.625
421.77947	15447.325
425.9132	15363.925
430.04396	15358.425
434.17176	15385.925
438.2966	15501.125
442.41849	15654.625
446.53742	15874.625
450.6534	16120.925
454.76644	16368.425
458.87653	16523.225
462.98368	16592.225
467.08789	16569.925
471.18916	16499.325
475.2875	16372.025
479.38291	16284.425
483.4754	16148.125
487.56496	16008.525
491.6516	15893.425
495.73531	15877.125
499.81612	15917.425
503.89401	16013.125
507.96899	16104.025
512.04106	16194.525
516.11023	16262.125
520.1765	16310.725
524.23987	16285.025
528.30034	16234.625
532.35792	16221.325
536.41261	16203.225
540.46441	16126.625
544.51333	16032.025
548.55936	16044.825
552.60252	16088.325
556.64279	16201.725
560.6802	16190.225
564.71473	16162.625
568.7464	16206.025
572.7752	16305.025
576.80114	16305.125
580.82422	16344.425
584.84444	16380.725
588.86181	16436.725
592.87633	16425.625
596.888	16499.925
600.89682	16802.225
604.9028	17722.425
608.90594	19597.925
612.90624	21790.125
616.90371	21003.525
620.89834	17729.025
624.89015	16236.325
628.87913	15987.025
632.86528	16177.225
636.84862	16447.225
640.82913	16423.825
644.80683	16085.125
648.78172	15654.925
652.75379	15519.325
656.72306	15658.125
660.68952	15885.825
664.65319	15903.425
668.61405	15705.525
672.57211	15725.325
676.52738	15819.525
680.47986	15846.325
684.42955	15694.225
688.37646	15486.225
692.32058	15421.525
696.26192	15436.925
700.20048	15509.025
704.13626	15579.325
708.06928	15579.525
711.99952	15517.525
715.927	15476.325
719.85171	15505.325
723.77365	15522.725
727.69284	15481.525
731.60928	15466.125
735.52295	15462.925
739.43388	15487.625
743.34206	15569.225
747.24749	15539.325
751.15017	15502.925
755.05012	15484.725
758.94733	15692.125
762.8418	16317.725
766.73354	17551.625
770.62254	19092.325
774.50882	20076.325
778.39237	19586.825
782.27321	18117.625
786.15132	16660.325
790.02671	15771.925
793.89938	15306.925
797.76935	15102.025
801.6366	15016.925
805.50115	14960.025
809.36299	14902.625
813.22213	14833.125
817.07857	14782.125
820.93231	14747.325
824.78336	14698.625
828.63172	14701.125
832.47738	14665.425
836.32036	14656.525
840.16066	14580.925
843.99827	14596.225
847.8332	14572.625
851.66546	14565.825
855.49504	14584.125
859.32195	14626.525
863.1462	14664.425
866.96777	14694.425
870.78668	14715.725
874.60293	14707.625
878.41652	14689.225
882.22745	14727.625
886.03573	14767.225
889.84136	14843.025
893.64433	14776.825
897.44466	14708.525
901.24235	14602.525
905.0374	14485.525
908.8298	14415.025
912.61957	14374.225
916.40671	14403.925
920.19121	14486.425
923.97308	14539.425
927.75233	14594.225
931.52895	14577.025
935.30295	14466.925
939.07433	14326.125
942.84309	14197.825
946.60924	14113.625
950.37278	14058.325
954.13371	14024.725
957.89203	13995.625
961.64774	13949.725
965.40086	13844.125
969.15137	13770.725
972.89929	13698.225
976.64461	13659.325
980.38733	13635.025
984.12747	13652.325
987.86502	13707.725
991.59999	13723.525
995.33237	13848.525
999.06217	13977.825
1002.78939	14185.225
1006.51404	14323.325
1010.23611	14506.425
1013.95561	14665.025
1017.67255	14728.525
1021.38692	14688.725
1025.09872	14542.225
1028.80796	14423.825
1032.51465	14397.325
1036.21877	14499.125
1039.92035	14570.225
1043.61937	14579.825
1047.31584	14630.525
1051.00976	14585.925
1054.70114	14564.325
1058.38998	14596.325
1062.07627	14666.225
1065.76003	14766.825
1069.44126	14888.625
1073.11995	15032.025
1076.79611	15183.225
1080.46974	15236.625
1084.14085	15210.525
1087.80943	15245.725
1091.47549	15324.025
1095.13903	15347.025
1098.80005	15250.325
1102.45857	15069.125
1106.11456	14898.025
1109.76805	14857.725
1113.41903	14916.725
1117.06751	15066.525
1120.71348	15285.925
1124.35696	15564.725
1127.99793	15891.525
1131.63641	16124.725
1135.2724	16119.725
1138.90589	15914.025
1142.5369	15679.425
1146.16542	15438.225
1149.79145	15184.225
1153.415	15010.525
1157.03607	15061.125
1160.65467	15200.625
1164.27079	15569.825
1167.88443	16057.725
1171.49561	16749.725
1175.10432	17629.625
1178.71056	18833.425
1182.31434	19959.125
1185.91565	20579.525
1189.51451	20668.725
1193.11091	20284.125
1196.70485	19540.625
1200.29634	18748.125
1203.88538	18065.025
1207.47197	17374.525
1211.05612	16806.625
1214.63782	16377.225
1218.21708	16110.525
1221.79391	15971.625
1225.36829	15968.825
1228.94024	15900.225
1232.50976	15897.725
1236.07685	15866.125
1239.6415	15908.825
1243.20374	15918.825
1246.76355	15982.225
1250.32093	16165.125
1253.8759	16381.325
1257.42845	16717.125
1260.97859	17059.825
1264.52631	17396.125
1268.07163	17752.325
1271.61453	18097.225
1275.15503	18441.925
1278.69312	18717.125
1282.22882	18958.425
1285.76211	19240.025
1289.29301	19574.825
1292.82151	20110.025
1296.34761	20635.425
1299.87133	21323.325
1303.39266	22177.125
1306.9116	23160.325
1310.42815	24080.925
1313.94233	24532.125
1317.45412	24409.925
1320.96354	23779.225
1324.47058	23110.825
1327.97525	22468.225
1331.47754	21994.025
1334.97747	21723.625
1338.47502	21709.725
1341.97022	22017.325
1345.46305	22458.425
1348.95352	23141.025
1352.44163	24052.125
1355.92738	25193.125
1359.41078	26456.625
1362.89183	27513.225
1366.37053	27053.425
1369.84688	24547.225
1373.32088	21826.825
1376.79254	19928.125
1380.26186	18944.525
1383.72883	18475.725
1387.19347	18130.725
1390.65578	17761.225
1394.11575	17479.425
1397.57339	17310.425
1401.0287	17228.125
1404.48168	17250.525
1407.93234	17219.425
1411.38068	17111.725
1414.82669	16952.625
1418.27039	16728.825
1421.71177	16461.925
1425.15083	16162.325
1428.58758	16021.525
1432.02203	15983.225
1435.45416	16089.225
1438.88399	16280.525
1442.31151	16464.025
1445.73673	16622.025
1449.15965	16832.425
1452.58027	17032.425
1455.9986	17187.625
1459.41463	17440.525
1462.82837	17688.225
1466.23982	17928.325
1469.64898	18109.525
1473.05586	18270.725
1476.46045	18335.625
1479.86276	18295.825
1483.26279	18261.125
1486.66054	18330.225
1490.05602	18437.125
1493.44922	18745.825
1496.84016	19292.925
1500.22882	20163.825
1503.61521	21440.825
1506.99934	22920.525
1510.38121	24174.425
1513.76081	24549.725
1517.13816	23768.225
1520.51324	22284.025
1523.88607	20781.725
1527.25665	19764.325
1530.62498	19141.025
1533.99105	18809.925
1537.35488	18523.325
1540.71647	18351.825
1544.07581	18103.925
1547.4329	17954.925
1550.78776	17848.125
1554.14038	17805.525
1557.49077	17930.025
1560.83892	18058.625
1564.18484	18259.125
1567.52853	18402.825
1570.86999	18578.125
1574.20922	18756.625
1577.54624	18758.725
1580.88103	18504.125
1584.2136	18005.725
1587.54395	17653.125
1590.87208	17698.625
1594.19801	17967.225
1597.52172	18617.825
1600.84321	18953.325
1604.16251	18717.625
1607.47959	18033.025
1610.79447	17366.025
1614.10715	16621.325
1617.41763	15889.225
1620.7259	15333.025
1624.03199	14954.125
1627.33587	14839.825
1630.63757	14931.425
1633.93707	15300.525
1637.23439	15933.925
1640.52951	16867.425
1643.82246	18122.725
1647.11321	19375.325
1650.40179	20198.425
1653.68819	19923.925
1656.97241	18525.425
1660.25446	16771.025
1663.53433	15324.525
1666.81203	14376.525
1670.08756	13781.825
1673.36092	13336.425
1676.63211	13049.325
1679.90115	12849.625
1683.16801	12681.425
1686.43272	12545.625
1689.69527	12460.025
1692.95567	12393.725
1696.2139	12340.425
1699.46999	12307.825
1702.72392	12242.125
1705.97571	12221.925
1709.22535	12137.725
1712.47284	12108.425
1715.71819	12079.625
1718.96139	12050.225
1722.20246	11997.525
1725.44139	11956.425
1728.67818	11889.825
1731.91284	11811.925
1735.14537	11766.225
1738.37576	11735.125
1741.60403	11691.225
1744.83017	11649.925
1748.05418	11621.825
1751.27607	11598.025
1754.49584	11610.025
1757.71349	11572.425
1760.92903	11563.225
1764.14244	11519.325
1767.35375	11545.425
1770.56294	11508.925
1773.77002	11504.625
1776.97499	11500.125
1780.17785	11418.225
1783.37861	11397.725
1786.57727	11391.225
1789.77382	11366.025
1792.96828	11336.125
1796.16064	11353.325
1799.3509	11317.025
1802.53907	11286.525
1805.72514	11269.225
1808.90913	11246.925
1812.09102	11225.125
1815.27083	11201.825
1818.44856	11150.625
1821.6242	11152.125
1824.79776	11147.325
1827.96924	11133.125
1831.13864	11122.625
1834.30597	11110.725
1837.47122	11080.425
1840.6344	11082.925
1843.7955	11085.125
1846.95454	11070.625
1850.11151	11059.025
1853.26642	11042.325
1856.41926	11064.725
1859.57004	11028.925
1862.71876	11027.225
1865.86542	11021.025
1869.01003	10994.025
1872.15258	11002.825
1875.29308	10965.625
1878.43152	10976.325
1881.56792	10965.925
1884.70227	10912.025
1887.83457	10935.725
1890.96482	10920.125
1894.09304	10910.825
1897.21921	10904.125
1900.34335	10900.725
1903.46544	10890.825
1906.58551	10854.525
1909.70353	10855.225
1912.81953	10842.125
1915.93349	10819.025
1919.04543	10795.825
1922.15534	10771.825
1925.26322	10763.525
1928.36908	10743.125
1931.47292	10685.525
1934.57473	10690.725
1937.67453	10660.025
1940.77232	10624.025
1943.86808	10609.125
1946.96184	10606.025
1950.05358	10555.025
1953.14331	10540.725
1956.23103	10516.425
1959.31675	10453.125
1962.40046	10455.725
1965.48217	10413.625
1968.56188	10408.025
1971.63959	10371.525
1974.7153	10333.025
1977.78901	10293.325
1980.86073	10284.325
1983.93046	10249.025
1986.99819	10200.425
1990.06394	10188.625
1993.1277	10163.325
1996.18947	10124.325
1999.24925	10109.825
2002.30706	10060.725
2005.36288	10023.825
2008.41672	10011.825
2011.46859	9983.625
2014.51848	9955.525
2017.56639	9952.825
2020.61233	9897.925
2023.6563	9862.525
2026.6983	9840.125
2029.73833	9848.125
2032.7764	9798.225
2035.8125	9794.525
2038.84664	9775.025
2041.87881	9778.025
2044.90903	9750.225
2047.93729	9733.225
2050.96359	9704.825
2053.98794	9700.025
2057.01034	9683.025
2060.03078	9678.025
2063.04927	9680.325
2066.06582	9642.725
2069.08042	9654.525
2072.09307	9640.225
2075.10378	9642.825
2078.11255	9629.225
2081.11938	9662.525
2084.12426	9639.125
2087.12722	9632.025
2090.12824	9590.525
2093.12732	9620.725
2096.12447	9613.225
2099.11969	9602.325
2102.11299	9607.925
2105.10435	9626.625
2108.09379	9601.825
2111.08131	9638.425
2114.0669	9658.225
2117.05057	9652.025
2120.03233	9645.625
2123.01216	9661.225
2125.99008	9675.425
2128.96609	9679.525
2131.94018	9678.225
2134.91236	9710.325
2137.88263	9720.625
2140.851	9696.725
2143.81746	9732.525
2146.78201	9729.525
2149.74466	9703.725
2152.7054	9710.025
2155.66425	9712.325
2158.6212	9692.825
2161.57625	9695.525
2164.52941	9692.725
2167.48067	9695.525
2170.43004	9690.025
2173.37752	9684.225
2176.32311	9683.725
2179.26681	9669.625
2182.20863	9665.925
2185.14856	9673.025
2188.08661	9698.725
2191.02278	9651.025
2193.95707	9653.725
2196.88948	9639.325
2199.82001	9645.425
2202.74867	9625.925
2205.67545	9642.925
2208.60037	9606.225
2211.52341	9594.825
2214.44458	9572.325
2217.36388	9543.325
2220.28132	9556.025
2223.1969	9523.425
2226.11061	9531.025
2229.02246	9511.125
2231.93245	9484.125
2234.84058	9467.025
2237.74686	9456.225
2240.65128	9468.425
2243.55385	9452.525
2246.45456	9411.825
2249.35343	9407.025
2252.25044	9392.925
2255.14561	9395.325
2258.03893	9398.825
2260.93041	9369.025
2263.82004	9356.125
2266.70783	9322.425
2269.59378	9298.625
2272.4779	9301.725
2275.36017	9276.825
2278.24061	9238.025
2281.11922	9240.125
2283.996	9213.025
2286.87094	9210.225
2289.74405	9161.125
2292.61534	9184.825
2295.4848	9135.825
2298.35243	9169.125
2301.21824	9139.625
2304.08223	9153.525
2306.94439	9150.725
2309.80474	9148.925
2312.66327	9141.425
2315.51999	9130.725
2318.37489	9118.425
2321.22797	9107.825
2324.07925	9091.325
2326.92871	9059.725
2329.77637	9068.625
2332.62222	9082.625
2335.46626	9058.925
2338.3085	9040.025
2341.14893	9023.025
2343.98756	9014.725
2346.8244	8994.425
2349.65943	9005.325
2352.49267	9009.225
2355.32411	9020.525
2358.15376	9023.825
2360.98161	9031.325
2363.80768	9004.225
2366.63195	9004.825
2369.45444	8974.825
2372.27514	8960.825
2375.09405	8943.025
2377.91118	8947.525
2380.72652	8937.925
2383.54009	8901.225
2386.35187	8894.425
2389.16188	8863.425
2391.97011	8841.225
2394.77657	8834.125
2397.58125	8820.225
2400.38416	8814.225
2403.18529	8781.025
2405.98466	8770.625
2408.78226	8752.025
2411.57809	8755.425
2414.37216	8751.725
2417.16446	8733.025
2419.955	8726.925
2422.74378	8706.225
2425.5308	8709.825
2428.31606	8711.325
2431.09956	8706.425
2433.88131	8697.425
2436.6613	8688.425
2439.43954	8688.225
2442.21603	8680.725
2444.99077	8657.425
2447.76377	8671.225
2450.53501	8650.925
2453.30451	8656.625
2456.07226	8624.025
2458.83827	8642.725
2461.60254	8653.125
2464.36507	8628.825
2467.12586	8612.025
2469.88492	8617.025
2472.64224	8621.425
2475.39782	8627.625
2478.15167	8609.925
2480.90379	8607.025
2483.65417	8612.725
2486.40283	8600.025
2489.14976	8609.825
2491.89497	8608.325
2494.63845	8617.725
2497.3802	8576.825
2500.12024	8589.225
2502.85855	8585.125
2505.59514	8570.025
2508.33002	8545.225
2511.06318	8558.025
2513.79462	8553.325
2516.52435	8528.225
2519.25237	8516.025
2521.97867	8503.725
2524.70327	8494.825
2527.42616	8468.325
2530.14734	8451.325
2532.86681	8459.525
2535.58458	8438.925
2538.30065	8432.225
2541.01501	8411.025
2543.72768	8408.425
2546.43864	8404.825
2549.14791	8390.325
2551.85548	8405.725
2554.56136	8369.125
2557.26554	8349.425
2559.96803	8364.525
2562.66883	8339.725
2565.36794	8333.625
2568.06536	8343.125
2570.7611	8324.125
2573.45514	8324.525
2576.14751	8291.025
2578.83819	8310.625
2581.52719	8283.625
2584.21451	8284.025
2586.90015	8266.625
2589.58411	8257.625
2592.2664	8244.525
2594.94701	8222.225
2597.62594	8184.425
2600.30321	8183.825
2602.9788	8171.525
2605.65273	8140.825
2608.32498	8161.825
2610.99557	8148.725
2613.66449	8139.225
2616.33175	8146.325
2618.99734	8142.825
2621.66128	8133.025
2624.32355	8112.525
2626.98416	8114.725
2629.64311	8111.225
2632.30041	8125.625
2634.95605	8102.125
2637.61004	8076.525
2640.26238	8081.125
2642.91306	8062.225
2645.56209	8075.725
2648.20948	8045.625
2650.85521	8054.725
2653.4993	8067.525
2656.14175	8066.825
2658.78255	8063.025
2661.42171	8054.325
2664.05923	8047.725
2666.6951	8060.725
2669.32934	8035.825
2671.96194	8058.225
2674.59291	8067.725
2677.22224	8043.825
2679.84993	8045.425
2682.476	8029.025
2685.10043	8043.525
2687.72324	8042.625
2690.34441	8053.425
2692.96396	8033.225
2695.58188	8040.225
2698.19818	8034.125
2700.81285	8027.125
2703.4259	8045.125
2706.03733	8057.325
2708.64714	8046.825
2711.25533	8056.025
2713.86191	8039.125
2716.46687	8062.125
2719.07021	8064.825
2721.67194	8052.625
2724.27206	8037.925
2726.87057	8030.925
2729.46747	8038.525
2732.06276	8028.925
2734.65644	8021.325
2737.24852	8026.925
2739.83899	8031.825
2742.42786	8029.125
2745.01513	8009.725
2747.60079	7993.725
2750.18486	8001.325
2752.76733	7994.825
2755.3482	7968.025
2757.92747	7983.825
2760.50515	7973.925
2763.08123	7955.025
2765.65573	7942.625
2768.22863	7917.825
2770.79994	7934.825
2773.36967	7934.625
2775.9378	7937.925
2778.50435	7934.225
2781.06932	7911.425
2783.6327	7903.825
2786.1945	7901.225
2788.75471	7862.325
2791.31335	7867.425
2793.87041	7859.125
2796.42589	7810.525
2798.97979	7808.225
2801.53212	7816.125
2804.08288	7793.725
2806.63206	7776.625
2809.17967	7768.425
2811.72571	7762.325
2814.27018	7743.525
2816.81308	7738.325
2819.35442	7737.625
2821.89419	7703.525
2824.43239	7706.925
2826.96904	7719.125
2829.50412	7716.425
2832.03763	7673.925
2834.56959	7686.225
2837.1	7663.325
2839.62884	7684.425
2842.15613	7668.825
2844.68186	7673.425
2847.20604	7683.525
2849.72867	7691.725
2852.24974	7700.125
2854.76927	7684.525
2857.28724	7671.525
2859.80367	7673.225
2862.31855	7648.425
2864.83189	7636.525
2867.34368	7627.325
2869.85393	7652.925
2872.36264	7631.625
2874.8698	7631.825
2877.37543	7649.725
2879.87952	7633.125
2882.38207	7627.325
2884.88308	7637.425
2887.38256	7629.825
2889.88051	7629.325
2892.37692	7600.225
2894.8718	7614.425
2897.36515	7636.225
2899.85698	7609.325
2902.34727	7634.225
2904.83604	7631.625
2907.32328	7625.725
2909.809	7607.125
2912.29319	7649.225
2914.77587	7633.525
2917.25702	7661.625
2919.73665	7637.925
2922.21476	7642.525
2924.69136	7638.725
2927.16644	7644.625
2929.64	7616.825
2932.11205	7620.525
2934.58258	7591.325
2937.05161	7610.625
2939.51912	7606.425
2941.98513	7605.725
2944.44962	7588.525
2946.91261	7554.025
2949.37409	7570.625
2951.83407	7556.425
2954.29254	7564.725
2956.74951	7559.425
2959.20498	7549.225
2961.65895	7537.225
2964.11142	7528.425
2966.56239	7495.825
2969.01186	7514.525
2971.45984	7491.825
2973.90632	7485.725
2976.35131	7471.425
2978.7948	7458.725
2981.23681	7432.925
2983.67732	7430.225
2986.11635	7415.025
2988.55388	7417.025
2990.98993	7412.125
2993.4245	7405.625
2995.85758	7401.125
2998.28917	7369.825
3000.71928	7355.525
3003.14791	7350.825
3005.57506	7353.225
3008.00073	7333.625
3010.42493	7318.725
3012.84764	7312.925
3015.26888	7329.025
3017.68865	7292.325
3020.10694	7306.825
3022.52376	7291.325
3024.9391	7263.425
3027.35298	7246.225
3029.76539	7245.825
3032.17632	7231.025
3034.5858	7214.525
3036.9938	7211.425
3039.40034	7198.725
3041.80542	7208.125
3044.20903	7188.725
3046.61118	7206.425
3049.01187	7174.225
3051.4111	7190.325
3053.80888	7160.025
3056.20519	7166.225
3058.60005	7134.025
3060.99345	7157.925
3063.3854	7135.425
3065.7759	7117.425
3068.16494	7120.025
3070.55254	7084.425
3072.93868	7120.725
3075.32338	7062.525
3077.70662	7075.225
3080.08842	7060.825
3082.46878	7079.725
3084.84769	7041.925
3087.22515	7058.525
3089.60118	7062.125
3091.97576	7062.325
3094.3489	7064.925
3096.72061	7052.725
3099.09087	7051.725
3101.4597	7043.425
3103.82709	7050.425
3106.19305	7064.625
3108.55757	7044.425
3110.92066	7034.225
3113.28232	7039.925
3115.64255	7016.225
3118.00134	6983.525
3120.35871	7005.025
3122.71466	6991.325
3125.06917	6983.425
3127.42226	6979.525
3129.77393	6977.125
3132.12417	6980.125
3134.47299	6976.425
3136.82039	6984.925
3139.16636	6998.025
3141.51092	6994.725
3143.85406	6984.725
3146.19579	6990.125
3148.53609	7012.125
3150.87499	7028.325
3153.21246	7008.625
3155.54853	7033.825
3157.88318	7037.825
3160.21642	7028.325
3162.54826	7055.125
3164.87868	7055.025
3167.2077	7045.225
3169.5353	7046.625
3171.86151	7034.825
3174.18631	7026.925
3176.5097	7028.225
3178.83169	7013.825
