Data from AgNPs_FTO_APTES_UA_5uM_R6G_10uM_NaF_0.1M_Addition_RamanShift__30__13-00-37-285.txt Node

Date: Fri Dec 17 13:00:37 GMT 2021
User: TCL
Spectrometer: QEP01345
Trigger mode: 4
Integration Time (sec): 7.000000E0
Scans to average: 10
Electric dark correction enabled: true
Nonlinearity correction enabled: false
Boxcar width: 0
XAxis mode: Raman Shifts
Number of Pixels in Spectrum: 1044
>>>>>Begin Spectral Data<<<<<
46.04893	-0.575
50.45542	0.225
54.85868	-0.875
59.25871	0.625
63.6555	69.025
68.04907	71.825
72.43941	76.825
76.82654	84.125
81.21044	82.725
85.59113	89.525
89.96862	92.725
94.34289	94.125
98.71396	103.925
103.08183	102.025
107.4465	106.625
111.80798	100.425
116.16626	106.325
120.52136	105.225
124.87327	109.125
129.222	108.525
133.56755	114.325
137.90993	119.525
142.24913	123.225
146.58517	130.025
150.91804	147.825
155.24774	161.825
159.57429	190.425
163.89768	231.925
168.21792	296.425
172.53501	377.025
176.84895	515.525
181.15975	707.125
185.46741	972.325
189.77193	1327.825
194.07331	1770.025
198.37157	2265.625
202.6667	2803.625
206.9587	3329.425
211.24758	3840.425
215.53334	4389.325
219.81599	4992.325
224.09553	5690.225
228.37195	6476.225
232.64527	7274.725
236.91549	8097.225
241.18261	8885.225
245.44663	9495.725
249.70755	10023.625
253.96539	10415.325
258.22014	10827.825
262.4718	11213.825
266.72039	11492.425
270.96589	11694.225
275.20832	11734.525
279.44768	11637.125
283.68397	11470.425
287.91719	11323.625
292.14735	11324.125
296.37445	11550.825
300.59849	11969.425
304.81948	12472.225
309.03742	12852.725
313.25231	12861.825
317.46415	12277.725
321.67296	11395.525
325.87872	10643.125
330.08145	10282.925
334.28114	10272.825
338.47781	10420.625
342.67145	10747.825
346.86207	11194.625
351.04966	11861.525
355.23424	12638.725
359.4158	13283.825
363.59435	13583.525
367.76989	13733.325
371.94243	13685.725
376.11196	13654.225
380.27849	13580.925
384.44203	13467.325
388.60257	13314.825
392.76012	13246.425
396.91468	13323.725
401.06626	13707.725
405.21485	14002.625
409.36047	13758.725
413.50311	13119.325
417.64277	12502.825
421.77947	12158.125
425.9132	12031.925
430.04396	12021.925
434.17176	12082.125
438.2966	12249.625
442.41849	12530.125
446.53742	12822.425
450.6534	13222.025
454.76644	13458.625
458.87653	13502.125
462.98368	13480.125
467.08789	13230.125
471.18916	12929.825
475.2875	12605.725
479.38291	12299.525
483.4754	12111.725
487.56496	11957.925
491.6516	11886.925
495.73531	11826.825
499.81612	11862.225
503.89401	11985.725
507.96899	12132.425
512.04106	12340.825
516.11023	12561.225
520.1765	12691.825
524.23987	12689.625
528.30034	12451.525
532.35792	12205.825
536.41261	11916.725
540.46441	11655.225
544.51333	11540.125
548.55936	11640.925
552.60252	11819.725
556.64279	12110.825
560.6802	12247.725
564.71473	12411.725
568.7464	12851.725
572.7752	13190.425
576.80114	12970.925
580.82422	12572.625
584.84444	12466.825
588.86181	12408.825
592.87633	12423.125
596.888	12611.725
600.89682	13097.325
604.9028	14599.625
608.90594	18413.625
612.90624	23313.025
616.90371	22475.625
620.89834	16071.425
624.89015	12996.225
628.87913	12339.025
632.86528	12419.125
636.84862	12583.925
640.82913	12493.625
644.80683	12000.625
648.78172	11703.425
652.75379	11769.425
656.72306	12278.325
660.68952	12846.825
664.65319	12730.725
668.61405	12138.025
672.57211	11855.125
676.52738	11836.325
680.47986	11839.825
684.42955	11759.725
688.37646	11740.025
692.32058	11786.425
696.26192	11942.925
700.20048	12070.425
704.13626	12169.625
708.06928	12143.425
711.99952	12053.725
715.927	12012.225
719.85171	12034.925
723.77365	12006.825
727.69284	11905.325
731.60928	11835.425
735.52295	11832.625
739.43388	11909.025
743.34206	11991.625
747.24749	12041.025
751.15017	12159.925
755.05012	12401.625
758.94733	12915.525
762.8418	14128.625
766.73354	16154.125
770.62254	18377.425
774.50882	19537.925
778.39237	18805.625
782.27321	16508.025
786.15132	14286.625
790.02671	12977.125
793.89938	12421.825
797.76935	12208.725
801.6366	12073.725
805.50115	11996.025
809.36299	11956.825
813.22213	11918.325
817.07857	11891.725
820.93231	11909.625
824.78336	11943.125
828.63172	12007.025
832.47738	12033.125
836.32036	12007.525
840.16066	11958.825
843.99827	11914.325
847.8332	11904.825
851.66546	11906.225
855.49504	11917.825
859.32195	11863.425
863.1462	11837.025
866.96777	11777.825
870.78668	11792.725
874.60293	11817.825
878.41652	11830.625
882.22745	11918.425
886.03573	11980.425
889.84136	11953.525
893.64433	11883.025
897.44466	11874.625
901.24235	11866.025
905.0374	11838.425
908.8298	11819.625
912.61957	11814.825
916.40671	11890.925
920.19121	11971.825
923.97308	12073.325
927.75233	12208.625
931.52895	12286.625
935.30295	12162.925
939.07433	11915.025
942.84309	11648.025
946.60924	11518.825
950.37278	11452.025
954.13371	11377.025
957.89203	11340.525
961.64774	11311.825
965.40086	11302.725
969.15137	11224.325
972.89929	11231.625
976.64461	11249.425
980.38733	11222.225
984.12747	11265.125
987.86502	11329.425
991.59999	11397.225
995.33237	11521.125
999.06217	11781.125
1002.78939	12107.725
1006.51404	12413.225
1010.23611	12722.225
1013.95561	12901.725
1017.67255	12850.725
1021.38692	12662.425
1025.09872	12495.825
1028.80796	12425.125
1032.51465	12522.225
1036.21877	12684.625
1039.92035	12761.525
1043.61937	12765.925
1047.31584	12656.325
1051.00976	12501.325
1054.70114	12398.525
1058.38998	12369.425
1062.07627	12426.025
1065.76003	12472.125
1069.44126	12564.225
1073.11995	12674.525
1076.79611	12790.325
1080.46974	12969.625
1084.14085	13204.825
1087.80943	13513.825
1091.47549	13615.925
1095.13903	13426.425
1098.80005	13038.225
1102.45857	12679.725
1106.11456	12543.925
1109.76805	12596.925
1113.41903	12818.925
1117.06751	13154.325
1120.71348	13582.325
1124.35696	14020.725
1127.99793	14446.625
1131.63641	14471.625
1135.2724	13956.225
1138.90589	13405.025
1142.5369	13093.725
1146.16542	12876.925
1149.79145	12746.725
1153.415	12761.925
1157.03607	12868.625
1160.65467	13097.025
1164.27079	13475.925
1167.88443	14058.225
1171.49561	15001.325
1175.10432	16584.025
1178.71056	18766.625
1182.31434	20467.325
1185.91565	20977.025
1189.51451	20586.425
1193.11091	19343.625
1196.70485	17848.025
1200.29634	16736.525
1203.88538	15984.625
1207.47197	15202.625
1211.05612	14516.225
1214.63782	14148.025
1218.21708	14055.425
1221.79391	14085.125
1225.36829	14196.225
1228.94024	14336.125
1232.50976	14536.625
1236.07685	14634.825
1239.6415	14720.825
1243.20374	14717.825
1246.76355	14748.625
1250.32093	14896.525
1253.8759	15217.925
1257.42845	15582.325
1260.97859	15963.125
1264.52631	16365.125
1268.07163	16739.925
1271.61453	17114.625
1275.15503	17432.625
1278.69312	17615.925
1282.22882	17723.225
1285.76211	18025.825
1289.29301	18503.525
1292.82151	18947.125
1296.34761	19334.225
1299.87133	20019.525
1303.39266	21291.225
1306.9116	23272.525
1310.42815	25698.425
1313.94233	27240.625
1317.45412	27053.525
1320.96354	25596.925
1324.47058	23905.025
1327.97525	22369.725
1331.47754	21460.725
1334.97747	21233.325
1338.47502	21450.925
1341.97022	21845.525
1345.46305	22382.625
1348.95352	23276.025
1352.44163	24537.125
1355.92738	26505.825
1359.41078	29731.425
1362.89183	33064.925
1366.37053	32510.525
1369.84688	28058.825
1373.32088	23413.925
1376.79254	20505.425
1380.26186	19037.125
1383.72883	18298.425
1387.19347	17729.025
1390.65578	17091.025
1394.11575	16593.625
1397.57339	16349.925
1401.0287	16454.325
1404.48168	16781.625
1407.93234	17277.825
1411.38068	17691.225
1414.82669	17873.825
1418.27039	17666.025
1421.71177	17293.325
1425.15083	16924.625
1428.58758	16684.525
1432.02203	16641.125
1435.45416	16749.225
1438.88399	16798.925
1442.31151	16847.925
1445.73673	16918.725
1449.15965	16975.025
1452.58027	16941.025
1455.9986	16744.225
1459.41463	16643.125
1462.82837	16721.325
1466.23982	16993.425
1469.64898	17348.025
1473.05586	17592.525
1476.46045	17827.025
1479.86276	18125.125
1483.26279	18552.325
1486.66054	19024.925
1490.05602	19660.425
1493.44922	20381.025
1496.84016	21503.025
1500.22882	23025.025
1503.61521	25170.725
1506.99934	27652.125
1510.38121	30038.825
1513.76081	31201.625
1517.13816	30007.325
1520.51324	26889.725
1523.88607	23611.525
1527.25665	21253.325
1530.62498	19926.625
1533.99105	19068.225
1537.35488	18545.925
1540.71647	18228.525
1544.07581	18102.425
1547.4329	18042.325
1550.78776	18006.525
1554.14038	17915.425
1557.49077	18029.325
1560.83892	18261.025
1564.18484	18625.525
1567.52853	18979.025
1570.86999	19351.725
1574.20922	19588.525
1577.54624	19545.925
1580.88103	18885.025
1584.2136	17941.725
1587.54395	17544.725
1590.87208	17890.425
1594.19801	18849.425
1597.52172	20015.925
1600.84321	20552.025
1604.16251	19960.325
1607.47959	18786.125
1610.79447	17480.325
1614.10715	16275.025
1617.41763	15309.625
1620.7259	14675.025
1624.03199	14386.025
1627.33587	14448.225
1630.63757	14768.425
1633.93707	15434.325
1637.23439	16366.725
1640.52951	17572.425
1643.82246	19062.725
1647.11321	20681.525
1650.40179	21927.925
1653.68819	21479.725
1656.97241	19154.525
1660.25446	16382.425
1663.53433	14422.925
1666.81203	13262.825
1670.08756	12579.025
1673.36092	12179.825
1676.63211	11894.625
1679.90115	11726.325
1683.16801	11567.525
1686.43272	11464.525
1689.69527	11365.125
1692.95567	11335.225
1696.2139	11317.225
1699.46999	11278.925
1702.72392	11262.925
1705.97571	11243.025
1709.22535	11248.125
1712.47284	11266.325
1715.71819	11249.225
1718.96139	11232.625
1722.20246	11238.025
1725.44139	11199.125
1728.67818	11109.725
1731.91284	11054.225
1735.14537	10947.925
1738.37576	10925.925
1741.60403	10879.925
1744.83017	10844.025
1748.05418	10805.125
1751.27607	10777.625
1754.49584	10783.125
1757.71349	10760.625
1760.92903	10730.025
1764.14244	10752.625
1767.35375	10736.725
1770.56294	10728.125
1773.77002	10705.625
1776.97499	10671.225
1780.17785	10681.125
1783.37861	10665.725
1786.57727	10631.025
1789.77382	10590.925
1792.96828	10576.725
1796.16064	10600.325
1799.3509	10570.025
1802.53907	10567.625
1805.72514	10526.825
1808.90913	10508.725
1812.09102	10499.825
1815.27083	10478.125
1818.44856	10450.425
1821.6242	10454.025
1824.79776	10432.425
1827.96924	10408.025
1831.13864	10409.925
1834.30597	10421.525
1837.47122	10404.425
1840.6344	10390.125
1843.7955	10402.225
1846.95454	10387.925
1850.11151	10396.925
1853.26642	10407.625
1856.41926	10400.825
1859.57004	10438.325
1862.71876	10409.325
1865.86542	10399.725
1869.01003	10438.425
1872.15258	10428.725
1875.29308	10442.625
1878.43152	10453.025
1881.56792	10473.025
1884.70227	10453.625
1887.83457	10478.925
1890.96482	10491.625
1894.09304	10459.625
1897.21921	10467.125
1900.34335	10484.225
1903.46544	10469.625
1906.58551	10457.325
1909.70353	10478.325
1912.81953	10473.025
1915.93349	10464.525
1919.04543	10463.925
1922.15534	10448.725
1925.26322	10434.925
1928.36908	10384.225
1931.47292	10334.725
1934.57473	10282.425
1937.67453	10213.225
1940.77232	10191.425
1943.86808	10140.025
1946.96184	10104.025
1950.05358	10065.025
1953.14331	10040.925
1956.23103	10001.925
1959.31675	9942.825
1962.40046	9920.525
1965.48217	9897.525
1968.56188	9866.125
1971.63959	9846.125
1974.7153	9816.425
1977.78901	9780.725
1980.86073	9733.125
1983.93046	9733.325
1986.99819	9699.825
1990.06394	9668.325
1993.1277	9627.525
1996.18947	9585.425
1999.24925	9563.025
2002.30706	9524.125
2005.36288	9485.725
2008.41672	9456.325
2011.46859	9469.125
2014.51848	9414.825
2017.56639	9394.625
2020.61233	9384.025
2023.6563	9340.225
2026.6983	9353.925
2029.73833	9317.325
2032.7764	9276.525
2035.8125	9261.825
2038.84664	9249.125
2041.87881	9213.725
2044.90903	9220.525
2047.93729	9210.925
2050.96359	9186.125
2053.98794	9165.725
2057.01034	9156.725
2060.03078	9152.725
2063.04927	9141.825
2066.06582	9122.725
2069.08042	9115.925
2072.09307	9112.925
2075.10378	9078.025
2078.11255	9071.925
2081.11938	9083.025
2084.12426	9070.425
2087.12722	9072.825
2090.12824	9073.525
2093.12732	9079.425
2096.12447	9103.425
2099.11969	9086.325
2102.11299	9072.925
2105.10435	9054.925
2108.09379	9057.925
2111.08131	9080.125
2114.0669	9072.925
2117.05057	9070.825
2120.03233	9080.925
2123.01216	9091.525
2125.99008	9101.625
2128.96609	9088.025
2131.94018	9109.925
2134.91236	9123.825
2137.88263	9108.025
2140.851	9106.725
2143.81746	9132.725
2146.78201	9115.225
2149.74466	9099.925
2152.7054	9107.825
2155.66425	9110.025
2158.6212	9101.825
2161.57625	9079.625
2164.52941	9095.725
2167.48067	9091.825
2170.43004	9075.225
2173.37752	9070.325
2176.32311	9071.125
2179.26681	9079.225
2182.20863	9082.325
2185.14856	9103.925
2188.08661	9066.525
2191.02278	9068.125
2193.95707	9061.225
2196.88948	9069.625
2199.82001	9060.625
2202.74867	9028.625
2205.67545	9018.225
2208.60037	9013.725
2211.52341	8985.125
2214.44458	9010.025
2217.36388	8966.325
2220.28132	8934.425
2223.1969	8941.425
2226.11061	8933.425
2229.02246	8902.025
2231.93245	8886.025
2234.84058	8860.325
2237.74686	8844.425
2240.65128	8859.725
2243.55385	8834.425
2246.45456	8815.025
2249.35343	8818.025
2252.25044	8806.925
2255.14561	8783.325
2258.03893	8804.225
2260.93041	8774.125
2263.82004	8756.125
2266.70783	8742.325
2269.59378	8736.625
2272.4779	8695.425
2275.36017	8673.025
2278.24061	8649.725
2281.11922	8608.325
2283.996	8621.325
2286.87094	8595.825
2289.74405	8569.425
2292.61534	8566.925
2295.4848	8536.325
2298.35243	8549.325
2301.21824	8540.125
2304.08223	8546.925
2306.94439	8533.325
2309.80474	8547.125
2312.66327	8519.925
2315.51999	8509.425
2318.37489	8507.125
2321.22797	8481.125
2324.07925	8505.125
2326.92871	8496.525
2329.77637	8456.325
2332.62222	8465.125
2335.46626	8452.925
2338.3085	8416.925
2341.14893	8433.725
2343.98756	8427.225
2346.8244	8439.425
2349.65943	8428.125
2352.49267	8432.325
2355.32411	8423.325
2358.15376	8443.625
2360.98161	8446.225
2363.80768	8440.225
2366.63195	8409.825
2369.45444	8422.125
2372.27514	8409.425
2375.09405	8412.825
2377.91118	8371.025
2380.72652	8338.325
2383.54009	8310.225
2386.35187	8280.825
2389.16188	8261.125
2391.97011	8237.025
2394.77657	8210.225
2397.58125	8207.625
2400.38416	8179.525
2403.18529	8169.525
2405.98466	8134.125
2408.78226	8147.325
2411.57809	8110.425
2414.37216	8099.625
2417.16446	8097.725
2419.955	8069.325
2422.74378	8092.025
2425.5308	8061.725
2428.31606	8054.525
2431.09956	8054.525
2433.88131	8033.325
2436.6613	8024.725
2439.43954	8039.025
2442.21603	8026.825
2444.99077	8028.825
2447.76377	8026.725
2450.53501	8015.825
2453.30451	8016.425
2456.07226	8008.625
2458.83827	7993.125
2461.60254	7993.025
2464.36507	7980.425
2467.12586	7986.625
2469.88492	7995.225
2472.64224	7992.525
2475.39782	7986.925
2478.15167	7989.925
2480.90379	7993.425
2483.65417	7965.725
2486.40283	8013.125
2489.14976	7992.525
2491.89497	8007.625
2494.63845	8032.925
2497.3802	8000.925
2500.12024	7995.325
2502.85855	7992.225
2505.59514	7966.625
2508.33002	7938.225
2511.06318	7936.525
2513.79462	7911.925
2516.52435	7879.225
2519.25237	7856.825
2521.97867	7843.125
2524.70327	7827.625
2527.42616	7809.325
2530.14734	7797.925
2532.86681	7794.925
2535.58458	7772.025
2538.30065	7775.225
2541.01501	7782.425
2543.72768	7765.825
2546.43864	7773.625
2549.14791	7742.225
2551.85548	7752.425
2554.56136	7748.925
2557.26554	7721.925
2559.96803	7709.225
2562.66883	7708.725
2565.36794	7693.925
2568.06536	7706.325
2570.7611	7695.025
2573.45514	7665.025
2576.14751	7653.325
2578.83819	7634.925
2581.52719	7639.725
2584.21451	7617.225
2586.90015	7606.425
2589.58411	7603.825
2592.2664	7605.025
2594.94701	7577.625
2597.62594	7583.525
2600.30321	7572.825
2602.9788	7556.825
2605.65273	7540.725
2608.32498	7563.025
2610.99557	7533.025
2613.66449	7540.225
2616.33175	7535.625
2618.99734	7535.025
2621.66128	7517.525
2624.32355	7530.025
2626.98416	7517.725
2629.64311	7507.425
2632.30041	7513.925
2634.95605	7485.125
2637.61004	7477.525
2640.26238	7460.225
2642.91306	7456.425
2645.56209	7431.125
2648.20948	7421.525
2650.85521	7437.125
2653.4993	7444.525
2656.14175	7410.525
2658.78255	7441.825
2661.42171	7433.925
2664.05923	7452.025
2666.6951	7425.525
2669.32934	7452.725
2671.96194	7455.825
2674.59291	7462.025
2677.22224	7454.125
2679.84993	7458.525
2682.476	7464.625
2685.10043	7470.425
2687.72324	7452.825
2690.34441	7474.925
2692.96396	7440.925
2695.58188	7465.325
2698.19818	7467.925
2700.81285	7461.825
2703.4259	7447.125
2706.03733	7466.925
2708.64714	7469.625
2711.25533	7461.625
2713.86191	7447.025
2716.46687	7463.225
2719.07021	7455.825
2721.67194	7446.525
2724.27206	7454.325
2726.87057	7466.125
2729.46747	7463.925
2732.06276	7469.425
2734.65644	7450.925
2737.24852	7452.625
2739.83899	7444.625
2742.42786	7434.625
2745.01513	7419.325
2747.60079	7430.325
2750.18486	7425.625
2752.76733	7401.025
2755.3482	7405.825
2757.92747	7400.625
2760.50515	7375.725
2763.08123	7391.225
2765.65573	7362.825
2768.22863	7356.525
2770.79994	7330.125
2773.36967	7347.625
2775.9378	7337.425
2778.50435	7332.625
2781.06932	7302.225
2783.6327	7298.925
2786.1945	7325.725
2788.75471	7317.225
2791.31335	7266.825
2793.87041	7287.625
2796.42589	7267.425
2798.97979	7269.125
2801.53212	7253.925
2804.08288	7260.225
2806.63206	7232.325
2809.17967	7244.125
2811.72571	7236.325
2814.27018	7238.825
2816.81308	7245.225
2819.35442	7238.725
2821.89419	7228.025
2824.43239	7239.325
2826.96904	7244.825
2829.50412	7244.925
2832.03763	7238.225
2834.56959	7243.025
2837.1	7245.625
2839.62884	7253.925
2842.15613	7246.025
2844.68186	7305.525
2847.20604	7326.725
2849.72867	7344.625
2852.24974	7356.025
2854.76927	7350.625
2857.28724	7326.125
2859.80367	7313.725
2862.31855	7312.425
2864.83189	7283.525
2867.34368	7271.425
2869.85393	7270.525
2872.36264	7281.925
2874.8698	7261.925
2877.37543	7283.525
2879.87952	7269.325
2882.38207	7264.925
2884.88308	7256.725
2887.38256	7237.625
2889.88051	7245.525
2892.37692	7250.525
2894.8718	7249.425
2897.36515	7271.825
2899.85698	7245.125
2902.34727	7279.225
2904.83604	7283.625
2907.32328	7270.625
2909.809	7253.025
2912.29319	7270.825
2914.77587	7257.025
2917.25702	7247.925
2919.73665	7233.225
2922.21476	7222.825
2924.69136	7200.525
2927.16644	7197.525
2929.64	7179.125
2932.11205	7163.125
2934.58258	7156.725
2937.05161	7146.225
2939.51912	7136.225
2941.98513	7101.525
2944.44962	7084.925
2946.91261	7026.225
2949.37409	7032.825
2951.83407	7000.325
2954.29254	6989.225
2956.74951	6969.925
2959.20498	6945.425
2961.65895	6920.825
2964.11142	6924.725
2966.56239	6897.825
2969.01186	6884.625
2971.45984	6862.225
2973.90632	6866.525
2976.35131	6824.125
2978.7948	6801.525
2981.23681	6791.825
2983.67732	6760.625
2986.11635	6748.125
2988.55388	6737.925
2990.98993	6711.025
2993.4245	6692.625
2995.85758	6683.425
2998.28917	6676.325
3000.71928	6654.225
3003.14791	6623.425
3005.57506	6618.425
3008.00073	6601.125
3010.42493	6595.825
3012.84764	6579.725
3015.26888	6589.325
3017.68865	6568.125
3020.10694	6549.825
3022.52376	6524.525
3024.9391	6524.325
3027.35298	6501.625
3029.76539	6500.425
3032.17632	6491.625
3034.5858	6465.725
3036.9938	6480.425
3039.40034	6463.825
3041.80542	6454.525
3044.20903	6441.625
3046.61118	6424.125
3049.01187	6394.425
3051.4111	6408.725
3053.80888	6384.925
3056.20519	6388.625
3058.60005	6351.125
3060.99345	6352.925
3063.3854	6343.425
3065.7759	6304.225
3068.16494	6289.225
3070.55254	6267.125
3072.93868	6251.825
3075.32338	6245.425
3077.70662	6212.125
3080.08842	6208.125
3082.46878	6190.425
3084.84769	6159.925
3087.22515	6164.125
3089.60118	6162.025
3091.97576	6137.125
3094.3489	6156.525
3096.72061	6123.225
3099.09087	6138.225
3101.4597	6126.425
3103.82709	6109.025
3106.19305	6098.125
3108.55757	6090.625
3110.92066	6097.925
3113.28232	6048.625
3115.64255	6046.625
3118.00134	6033.725
3120.35871	6049.925
3122.71466	6022.825
3125.06917	6002.925
3127.42226	5981.725
3129.77393	5990.625
3132.12417	5996.925
3134.47299	5994.425
3136.82039	5998.325
3139.16636	5997.625
3141.51092	6005.225
3143.85406	6024.225
3146.19579	5985.025
3148.53609	6006.325
3150.87499	6002.025
3153.21246	5995.925
3155.54853	6004.825
3157.88318	5991.925
3160.21642	6005.125
3162.54826	5977.525
3164.87868	5996.325
3167.2077	6001.125
3169.5353	5984.225
3171.86151	5969.025
3174.18631	5965.425
3176.5097	5971.525
3178.83169	5947.325
3181.15228	5961.925
