Data from AgNPs_FTO_APTES_UA_10uM_R6G_10uM_NaF_0.1M_Addition_RamanShift__1__13-11-07-297.txt Node

Date: Fri Dec 17 13:11:07 GMT 2021
User: TCL
Spectrometer: QEP01345
Trigger mode: 4
Integration Time (sec): 7.000000E0
Scans to average: 10
Electric dark correction enabled: true
Nonlinearity correction enabled: false
Boxcar width: 0
XAxis mode: Raman Shifts
Number of Pixels in Spectrum: 1044
>>>>>Begin Spectral Data<<<<<
46.04893	-1
50.45542	-0.5
54.85868	-2.3
59.25871	0.3
63.6555	105.9
68.04907	108.3
72.43941	112.2
76.82654	117.8
81.21044	117.5
85.59113	125.4
89.96862	129.6
94.34289	130.1
98.71396	134.6
103.08183	137.3
107.4465	143.5
111.80798	147.7
116.16626	158.1
120.52136	155
124.87327	169.6
129.222	176.8
133.56755	189
137.90993	208.8
142.24913	227.1
146.58517	252.2
150.91804	288.1
155.24774	350.8
159.57429	436.1
163.89768	563.3
168.21792	749.8
172.53501	1009.1
176.84895	1414.4
181.15975	1983.6
185.46741	2793.3
189.77193	3871.1
194.07331	5185.8
198.37157	6700.7
202.6667	8309.3
206.9587	9897.4
211.24758	11477.2
215.53334	13011.2
219.81599	14662.6
224.09553	16426.7
228.37195	18383.8
232.64527	20561.2
236.91549	22905.4
241.18261	25301.1
245.44663	27641.3
249.70755	29712
253.96539	31512.7
258.22014	33021.8
262.4718	34222.8
266.72039	35021
270.96589	35386.3
275.20832	35424.5
279.44768	35127.8
283.68397	34629.7
287.91719	34099
292.14735	33734.4
296.37445	33573.9
300.59849	33516.5
304.81948	33612.4
309.03742	33604.4
313.25231	33415.7
317.46415	33018.9
321.67296	32512.3
325.87872	32082.6
330.08145	31968.9
334.28114	32083.1
338.47781	32414.4
342.67145	32827.9
346.86207	33348.9
351.04966	34011.7
355.23424	34673.9
359.4158	35305.3
363.59435	35885.3
367.76989	36266.6
371.94243	36541.3
376.11196	36753.1
380.27849	36858.1
384.44203	37054.1
388.60257	37305.9
392.76012	37554.6
396.91468	37967.4
401.06626	38362.3
405.21485	38703.5
409.36047	38645.2
413.50311	38213.1
417.64277	37843.9
421.77947	37702.2
425.9132	37812.7
430.04396	37904.3
434.17176	38031.9
438.2966	38180.3
442.41849	38607.2
446.53742	39172.5
450.6534	39815.1
454.76644	40270.7
458.87653	40590.7
462.98368	40563.6
467.08789	40393.3
471.18916	40130.3
475.2875	39710.8
479.38291	39306.8
483.4754	39043.9
487.56496	38994
491.6516	38867.2
495.73531	38866.9
499.81612	38998.6
503.89401	39249.6
507.96899	39465.1
512.04106	39544.5
516.11023	39548.3
520.1765	39547.6
524.23987	39463.7
528.30034	39312.5
532.35792	39198.4
536.41261	38979.9
540.46441	38685.8
544.51333	38583.2
548.55936	38668.8
552.60252	38954.3
556.64279	39327.3
560.6802	39643.3
564.71473	39703.9
568.7464	39858
572.7752	40131.3
576.80114	40268.6
580.82422	40646.6
584.84444	41259.6
588.86181	41962.6
592.87633	42482.2
596.888	42483.2
600.89682	42499.5
604.9028	43605.4
608.90594	46943.4
612.90624	50529.3
616.90371	48910.9
620.89834	43396.6
624.89015	40770
628.87913	40305.7
632.86528	40425
636.84862	40591.6
640.82913	40337
644.80683	39781.1
648.78172	39405.9
652.75379	39388
656.72306	39708.7
660.68952	40278.3
664.65319	40228.7
668.61405	39784.8
672.57211	39849.5
676.52738	40076
680.47986	40050
684.42955	39805.5
688.37646	39724.3
692.32058	39887.8
696.26192	40263.2
700.20048	40676.3
704.13626	40857.2
708.06928	40729.6
711.99952	40440.2
715.927	40413.8
719.85171	40442.2
723.77365	40493.4
727.69284	40227.8
731.60928	39907.2
735.52295	39713.1
739.43388	39753.7
743.34206	39854.9
747.24749	39958.9
751.15017	40039.9
755.05012	40254.2
758.94733	40811.3
762.8418	41875.6
766.73354	43634.7
770.62254	45497.2
774.50882	46492.6
778.39237	45938.4
782.27321	44332.4
786.15132	42679.8
790.02671	41497.6
793.89938	40864
797.76935	40601.5
801.6366	40432.2
805.50115	40328.7
809.36299	40165.3
813.22213	39941.1
817.07857	39828.7
820.93231	39726.9
824.78336	39730.3
828.63172	39788
832.47738	39817.2
836.32036	39867.5
840.16066	39925.6
843.99827	40032
847.8332	39958.6
851.66546	39982.3
855.49504	39974.9
859.32195	40036.2
863.1462	40101.7
866.96777	40014.6
870.78668	40067.9
874.60293	40134.2
878.41652	40221.4
882.22745	40381.9
886.03573	40494.7
889.84136	40580.7
893.64433	40535.1
897.44466	40355.9
901.24235	40172.9
905.0374	40161.2
908.8298	40090.6
912.61957	40091.6
916.40671	40148.5
920.19121	40274.5
923.97308	40449
927.75233	40655.1
931.52895	40694.7
935.30295	40601.7
939.07433	40240.4
942.84309	39944
946.60924	39782.1
950.37278	39705.4
954.13371	39691.7
957.89203	39494.6
961.64774	39415.7
965.40086	39392.1
969.15137	39345
972.89929	39352
976.64461	39458.5
980.38733	39589.5
984.12747	39709.2
987.86502	39882.8
991.59999	40091.1
995.33237	40329.3
999.06217	40795.6
1002.78939	41379.8
1006.51404	41872.4
1010.23611	42206.4
1013.95561	42436.3
1017.67255	42509.5
1021.38692	42274.9
1025.09872	42018
1028.80796	41953.7
1032.51465	42253.4
1036.21877	42566.6
1039.92035	42726.7
1043.61937	42687
1047.31584	42319.1
1051.00976	41980.8
1054.70114	41836.1
1058.38998	41890.9
1062.07627	42175.4
1065.76003	42477.6
1069.44126	42853
1073.11995	43459.4
1076.79611	44121.9
1080.46974	44431.5
1084.14085	44415
1087.80943	44477.4
1091.47549	44562.6
1095.13903	44377.6
1098.80005	44037.9
1102.45857	43584.2
1106.11456	43148.8
1109.76805	42932.5
1113.41903	42874.2
1117.06751	42854.7
1120.71348	43014.5
1124.35696	43256.8
1127.99793	43599.3
1131.63641	43784
1135.2724	43495.1
1138.90589	43246.1
1142.5369	43053.9
1146.16542	42800.9
1149.79145	42672.7
1153.415	42487.1
1157.03607	42524.2
1160.65467	42870.1
1164.27079	43556
1167.88443	44632.2
1171.49561	45918.8
1175.10432	47654.6
1178.71056	49901
1182.31434	52212.1
1185.91565	53620
1189.51451	54061.5
1193.11091	53593.1
1196.70485	52485.4
1200.29634	51102.9
1203.88538	49927.5
1207.47197	48900
1211.05612	48014.7
1214.63782	47236.3
1218.21708	46566
1221.79391	46049.7
1225.36829	45770.5
1228.94024	45561.4
1232.50976	45352.7
1236.07685	45195.5
1239.6415	45181
1243.20374	45230.2
1246.76355	45509.8
1250.32093	45869.6
1253.8759	46407.1
1257.42845	47212.8
1260.97859	48061.1
1264.52631	48974.5
1268.07163	49972.1
1271.61453	50987.5
1275.15503	51796
1278.69312	52361.2
1282.22882	52641.3
1285.76211	52768.5
1289.29301	53259.1
1292.82151	53922.1
1296.34761	54813.9
1299.87133	56135
1303.39266	57845
1306.9116	60002
1310.42815	62056.1
1313.94233	63290
1317.45412	63189.4
1320.96354	62141.1
1324.47058	60916.7
1327.97525	59852.2
1331.47754	58977.3
1334.97747	58625.2
1338.47502	58608.5
1341.97022	58922
1345.46305	59458.4
1348.95352	60330
1352.44163	61239.9
1355.92738	62402.5
1359.41078	63980.8
1362.89183	65389
1366.37053	64464.2
1369.84688	60565.2
1373.32088	55887.1
1376.79254	52613.4
1380.26186	50944.9
1383.72883	50178.6
1387.19347	49658.5
1390.65578	48892.1
1394.11575	48333.2
1397.57339	47929.8
1401.0287	47874.5
1404.48168	47969.2
1407.93234	48148.6
1411.38068	48282.8
1414.82669	48151.3
1418.27039	47791.9
1421.71177	47346.4
1425.15083	46972.6
1428.58758	46990.8
1432.02203	47252.7
1435.45416	47777.1
1438.88399	48235.6
1442.31151	48462
1445.73673	48463.5
1449.15965	48379.3
1452.58027	48300.3
1455.9986	48147.2
1459.41463	48369.1
1462.82837	48967.3
1466.23982	49593.8
1469.64898	50236.6
1473.05586	50686.3
1476.46045	50907.9
1479.86276	50945.7
1483.26279	50955.8
1486.66054	51067.6
1490.05602	51456.7
1493.44922	52003
1496.84016	52749.9
1500.22882	53929.7
1503.61521	55701.4
1506.99934	57570.1
1510.38121	59008.6
1513.76081	59242.5
1517.13816	57866.7
1520.51324	55425.5
1523.88607	53072.3
1527.25665	51474.1
1530.62498	50515.8
1533.99105	50139
1537.35488	49706.5
1540.71647	49329.8
1544.07581	49004.5
1547.4329	48682.9
1550.78776	48571.1
1554.14038	48437.2
1557.49077	48391.6
1560.83892	48469.9
1564.18484	48690.9
1567.52853	48980.6
1570.86999	49327.7
1574.20922	49789.7
1577.54624	50097.2
1580.88103	49904.8
1584.2136	49482.8
1587.54395	49536.6
1590.87208	50302.7
1594.19801	51716.9
1597.52172	53508.1
1600.84321	54282.3
1604.16251	53498
1607.47959	51653.4
1610.79447	49436.9
1614.10715	47100.2
1617.41763	45135.7
1620.7259	43793.7
1624.03199	43115.5
1627.33587	43106.6
1630.63757	43594
1633.93707	44827.1
1637.23439	46692.3
1640.52951	49394.2
1643.82246	52596.1
1647.11321	55156.6
1650.40179	55717.5
1653.68819	53697.5
1656.97241	49690.7
1660.25446	45799.6
1663.53433	43029.3
1666.81203	41335
1670.08756	40212.3
1673.36092	39559.2
1676.63211	39105.9
1679.90115	38778.8
1683.16801	38486.4
1686.43272	38347.5
1689.69527	38192.7
1692.95567	38097.5
1696.2139	38038.7
1699.46999	37957.9
1702.72392	37945.1
1705.97571	37925.1
1709.22535	37909.7
1712.47284	37913.8
1715.71819	37888.3
1718.96139	37893.5
1722.20246	37819.7
1725.44139	37752.2
1728.67818	37637.3
1731.91284	37516
1735.14537	37387.4
1738.37576	37329.1
1741.60403	37168.4
1744.83017	37099.4
1748.05418	37066.5
1751.27607	37035.1
1754.49584	36982.5
1757.71349	36980.2
1760.92903	36917.4
1764.14244	36942.6
1767.35375	36950.9
1770.56294	36915.2
1773.77002	36859.7
1776.97499	36827.7
1780.17785	36779.9
1783.37861	36768.7
1786.57727	36751.5
1789.77382	36730.4
1792.96828	36646.3
1796.16064	36614.6
1799.3509	36539.2
1802.53907	36569.5
1805.72514	36437
1808.90913	36380.9
1812.09102	36380.8
1815.27083	36309.3
1818.44856	36236.8
1821.6242	36209.8
1824.79776	36188.7
1827.96924	36174.1
1831.13864	36158.4
1834.30597	36172.2
1837.47122	36170.8
1840.6344	36182.5
1843.7955	36190.4
1846.95454	36154
1850.11151	36154
1853.26642	36124.7
1856.41926	36062.2
1859.57004	36078.2
1862.71876	36090.5
1865.86542	35996.4
1869.01003	36023.1
1872.15258	35951.4
1875.29308	35951.8
1878.43152	35916.2
1881.56792	35891.1
1884.70227	35887
1887.83457	35849.3
1890.96482	35806.9
1894.09304	35805.7
1897.21921	35704.9
1900.34335	35704.7
1903.46544	35673.4
1906.58551	35597.8
1909.70353	35537.6
1912.81953	35535.6
1915.93349	35430.8
1919.04543	35407
1922.15534	35339.4
1925.26322	35237.1
1928.36908	35257.5
1931.47292	35199.9
1934.57473	35079.4
1937.67453	34980.6
1940.77232	34984.9
1943.86808	34869.4
1946.96184	34802.4
1950.05358	34720.3
1953.14331	34618
1956.23103	34578.9
1959.31675	34484.6
1962.40046	34379.4
1965.48217	34303.9
1968.56188	34207.1
1971.63959	34121.6
1974.7153	34049
1977.78901	33935.2
1980.86073	33825.2
1983.93046	33804
1986.99819	33674.2
1990.06394	33613.6
1993.1277	33466.4
1996.18947	33336
1999.24925	33322.9
2002.30706	33221.1
2005.36288	33154.6
2008.41672	33109.1
2011.46859	33023.8
2014.51848	32928.1
2017.56639	32828.6
2020.61233	32780.9
2023.6563	32660.3
2026.6983	32657.7
2029.73833	32562.5
2032.7764	32524
2035.8125	32412.4
2038.84664	32361.8
2041.87881	32398.3
2044.90903	32313.6
2047.93729	32255.8
2050.96359	32158
2053.98794	32123.7
2057.01034	32138.3
2060.03078	32092.7
2063.04927	32081.6
2066.06582	32070.2
2069.08042	32102.6
2072.09307	32084.6
2075.10378	32031.4
2078.11255	32031.3
2081.11938	32057.5
2084.12426	32029.9
2087.12722	32014.5
2090.12824	32059.6
2093.12732	32046.9
2096.12447	32040
2099.11969	32017.4
2102.11299	32050.2
2105.10435	32074.9
2108.09379	32104.1
2111.08131	32137.1
2114.0669	32139.4
2117.05057	32174.9
2120.03233	32221
2123.01216	32281.8
2125.99008	32288.7
2128.96609	32309
2131.94018	32356.2
2134.91236	32367.9
2137.88263	32460.6
2140.851	32448.5
2143.81746	32509.5
2146.78201	32473.2
2149.74466	32554.4
2152.7054	32509
2155.66425	32479
2158.6212	32528.9
2161.57625	32488.9
2164.52941	32496.7
2167.48067	32479.2
2170.43004	32493.9
2173.37752	32489.4
2176.32311	32516.2
2179.26681	32496.3
2182.20863	32493.2
2185.14856	32499.7
2188.08661	32503.7
2191.02278	32481.9
2193.95707	32429.5
2196.88948	32469.4
2199.82001	32484.1
2202.74867	32477.8
2205.67545	32421.5
2208.60037	32399.8
2211.52341	32390.6
2214.44458	32283
2217.36388	32280.5
2220.28132	32243.5
2223.1969	32163.5
2226.11061	32115.7
2229.02246	32047
2231.93245	32003.2
2234.84058	31951.5
2237.74686	31896.7
2240.65128	31868.3
2243.55385	31850.6
2246.45456	31812.7
2249.35343	31761.9
2252.25044	31766.2
2255.14561	31685.2
2258.03893	31656.7
2260.93041	31654.1
2263.82004	31551.8
2266.70783	31525.7
2269.59378	31455
2272.4779	31426
2275.36017	31296.9
2278.24061	31340.1
2281.11922	31233.4
2283.996	31185
2286.87094	31169
2289.74405	31066.8
2292.61534	31088.9
2295.4848	31036.7
2298.35243	31072.6
2301.21824	31026.3
2304.08223	31058
2306.94439	31017.4
2309.80474	31009.6
2312.66327	31029.8
2315.51999	30973.2
2318.37489	30972.9
2321.22797	30891
2324.07925	30879.8
2326.92871	30791.8
2329.77637	30783.8
2332.62222	30710.9
2335.46626	30694.9
2338.3085	30693.1
2341.14893	30624.9
2343.98756	30654.2
2346.8244	30621.4
2349.65943	30606
2352.49267	30611.6
2355.32411	30584
2358.15376	30552.6
2360.98161	30500.8
2363.80768	30500.4
2366.63195	30481.8
2369.45444	30417.1
2372.27514	30434.1
2375.09405	30377.2
2377.91118	30353.7
2380.72652	30268.6
2383.54009	30263.8
2386.35187	30183.8
2389.16188	30120.2
2391.97011	30089
2394.77657	30057.4
2397.58125	30005
2400.38416	29981.1
2403.18529	29886.3
2405.98466	29899.7
2408.78226	29795.6
2411.57809	29793.5
2414.37216	29787.2
2417.16446	29756.2
2419.955	29687.2
2422.74378	29675
2425.5308	29683.9
2428.31606	29641.4
2431.09956	29628
2433.88131	29589.8
2436.6613	29581.7
2439.43954	29584.8
2442.21603	29572.9
2444.99077	29515.5
2447.76377	29543.1
2450.53501	29474
2453.30451	29443.8
2456.07226	29461.4
2458.83827	29404.2
2461.60254	29374.6
2464.36507	29357.5
2467.12586	29349.8
2469.88492	29343.3
2472.64224	29343.6
2475.39782	29316.8
2478.15167	29277.6
2480.90379	29238.7
2483.65417	29273.2
2486.40283	29222.3
2489.14976	29282.2
2491.89497	29177.2
2494.63845	29209.8
2497.3802	29190.4
2500.12024	29165.1
2502.85855	29121
2505.59514	29120.5
2508.33002	29114.8
2511.06318	29102.3
2513.79462	29047.2
2516.52435	29048
2519.25237	29036.5
2521.97867	28982.4
2524.70327	28975.4
2527.42616	28910.5
2530.14734	28943.1
2532.86681	28856.1
2535.58458	28859.6
2538.30065	28806.8
2541.01501	28801.7
2543.72768	28734.8
2546.43864	28713.3
2549.14791	28663.5
2551.85548	28641.9
2554.56136	28543.6
2557.26554	28553
2559.96803	28526.1
2562.66883	28478.2
2565.36794	28427.7
2568.06536	28431.3
2570.7611	28364.7
2573.45514	28329
2576.14751	28294.8
2578.83819	28251.3
2581.52719	28266.8
2584.21451	28193.1
2586.90015	28173.1
2589.58411	28092.6
2592.2664	28107.3
2594.94701	28043.7
2597.62594	27998.3
2600.30321	27913.1
2602.9788	27922.1
2605.65273	27870.4
2608.32498	27819.5
2610.99557	27802.1
2613.66449	27810.4
2616.33175	27747.3
2618.99734	27727.1
2621.66128	27674.3
2624.32355	27674.9
2626.98416	27622.8
2629.64311	27631.8
2632.30041	27601.9
2634.95605	27539
2637.61004	27536.5
2640.26238	27472
2642.91306	27458.1
2645.56209	27439
2648.20948	27462.9
2650.85521	27437.7
2653.4993	27414.5
2656.14175	27371.3
2658.78255	27367
2661.42171	27372
2664.05923	27425
2666.6951	27376.6
2669.32934	27383.1
2671.96194	27403.2
2674.59291	27433.5
2677.22224	27382
2679.84993	27372.4
2682.476	27405.2
2685.10043	27401.6
2687.72324	27312.8
2690.34441	27352.8
2692.96396	27345.6
2695.58188	27363.3
2698.19818	27336.3
2700.81285	27366.3
2703.4259	27367.7
2706.03733	27361.5
2708.64714	27411.6
2711.25533	27453.4
2713.86191	27411.3
2716.46687	27398.1
2719.07021	27362.7
2721.67194	27412.9
2724.27206	27342.4
2726.87057	27405.6
2729.46747	27420.3
2732.06276	27386.6
2734.65644	27395
2737.24852	27369.6
2739.83899	27317.1
2742.42786	27320
2745.01513	27287.6
2747.60079	27285.6
2750.18486	27241.6
2752.76733	27234.6
2755.3482	27211.5
2757.92747	27190.7
2760.50515	27148.3
2763.08123	27132
2765.65573	27073.4
2768.22863	27088.4
2770.79994	27021
2773.36967	27001.4
2775.9378	26999.5
2778.50435	26921
2781.06932	26871.3
2783.6327	26871.8
2786.1945	26845.2
2788.75471	26852.7
2791.31335	26755.6
2793.87041	26714
2796.42589	26609.9
2798.97979	26604.5
2801.53212	26516.6
2804.08288	26518.7
2806.63206	26427
2809.17967	26412.6
2811.72571	26371
2814.27018	26341.8
2816.81308	26312.3
2819.35442	26257.8
2821.89419	26191.7
2824.43239	26149.7
2826.96904	26155
2829.50412	26142.5
2832.03763	26072.7
2834.56959	26095.6
2837.1	26022.2
2839.62884	26013.2
2842.15613	25970
2844.68186	25990.3
2847.20604	25972.7
2849.72867	26013.8
2852.24974	25947.3
2854.76927	25937.3
2857.28724	25874.3
2859.80367	25861.2
2862.31855	25828.9
2864.83189	25811.4
2867.34368	25788.2
2869.85393	25779.9
2872.36264	25775.1
2874.8698	25782.2
2877.37543	25848.6
2879.87952	25832.6
2882.38207	25818.5
2884.88308	25777.8
2887.38256	25834
2889.88051	25815
2892.37692	25815.4
2894.8718	25759.5
2897.36515	25810.9
2899.85698	25816.8
2902.34727	25841
2904.83604	25862.5
2907.32328	25855.2
2909.809	25854.1
2912.29319	25879.3
2914.77587	25865.9
2917.25702	25838.7
2919.73665	25809.2
2922.21476	25823.1
2924.69136	25771.1
2927.16644	25778.9
2929.64	25750.4
2932.11205	25716.3
2934.58258	25609.1
2937.05161	25635.9
2939.51912	25681.6
2941.98513	25660.1
2944.44962	25534.4
2946.91261	25560.4
2949.37409	25612
2951.83407	25590
2954.29254	25552
2956.74951	25528.6
2959.20498	25524.4
2961.65895	25469.4
2964.11142	25481.5
2966.56239	25379.3
2969.01186	25405.7
2971.45984	25325.5
2973.90632	25353.6
2976.35131	25259
2978.7948	25223.7
2981.23681	25141.4
2983.67732	25123.5
2986.11635	25056.3
2988.55388	25024.6
2990.98993	24983.8
2993.4245	24940.7
2995.85758	24940.1
2998.28917	24819.7
3000.71928	24820.6
3003.14791	24805.1
3005.57506	24801.5
3008.00073	24741.8
3010.42493	24688.2
3012.84764	24642.3
3015.26888	24694.4
3017.68865	24599.3
3020.10694	24639.8
3022.52376	24554.1
3024.9391	24543
3027.35298	24528
3029.76539	24443.6
3032.17632	24405.5
3034.5858	24365.7
3036.9938	24355
3039.40034	24296
3041.80542	24260
3044.20903	24208.1
3046.61118	24171.7
3049.01187	24140.6
3051.4111	24141.3
3053.80888	24069.2
3056.20519	24060.8
3058.60005	23993.5
3060.99345	24020.7
3063.3854	23942
3065.7759	23870.9
3068.16494	23832.3
3070.55254	23757.1
3072.93868	23732.7
3075.32338	23682.5
3077.70662	23678
3080.08842	23666.3
3082.46878	23660.4
3084.84769	23607
3087.22515	23599.5
3089.60118	23565.3
3091.97576	23528.3
3094.3489	23537.3
3096.72061	23521.4
3099.09087	23515.1
3101.4597	23506.8
3103.82709	23522.5
3106.19305	23490.6
3108.55757	23484
3110.92066	23384.4
3113.28232	23365
3115.64255	23292.5
3118.00134	23223.7
3120.35871	23255.4
3122.71466	23191.7
3125.06917	23140.3
3127.42226	23070.5
3129.77393	23089.4
3132.12417	23075
3134.47299	23061.1
3136.82039	23066.9
3139.16636	23040.1
3141.51092	23050.7
3143.85406	23034.8
3146.19579	23049.5
3148.53609	23042.8
3150.87499	23070.8
3153.21246	23057
3155.54853	23037.1
3157.88318	23021.7
3160.21642	23027.1
3162.54826	23019.4
3164.87868	23004.5
3167.2077	22977.9
3169.5353	22971.4
3171.86151	22951.5
3174.18631	22896.3
3176.5097	22875.1
3178.83169	22872.6
3181.15228	22845.1
3183.47147	22784.8
3185.78926	22769.1
3188.10565	22757.8
3190.42065	22785.7
3192.73424	22766.6
3195.04645	22721.5
3197.35725	22697.7
3199.66667	22735.4
3201.97469	22735.2
3204.28132	22745.3
3206.58656	22750.9
3208.8904	22758.8
3211.19287	22775.4
3213.49394	22757.7
3215.79363	22713.7
3218.09193	22722.3
3220.38884	22717.5
3222.68438	22716.1
3224.97853	22636.8
3227.2713	22641.5
3229.56269	22604.2
3231.8527	22599.4
3234.14133	22557.5
3236.42858	22463.9
3238.71446	22478.4
3240.99896	22427.8
3243.28209	22434.7
3245.56384	22445
3247.84423	22445.7
3250.12324	22387
3252.40088	22432.3
3254.67715	22412.3
3256.95205	22362.6
3259.22558	22327.6
3261.49775	22305.6
3263.76855	22276.5
3266.03799	22274.8
3268.30606	22204
3270.57277	22178.5
3272.83812	22131.8
3275.10211	22073
3277.36474	22076.6
3279.62601	22071.1
3281.88593	22008.2
3284.14448	22021.1
3286.40168	22013.3
3288.65753	21971.3
3290.91202	21903.8
3293.16516	21859.9
3295.41695	21819.4
3297.66738	21678.5
3299.91647	21573.7
3302.16421	21496.3
3304.4106	21426
3306.65564	21305.5
3308.89933	21183
3311.14169	21041
3313.38269	20872.7
3315.62236	20797.8
3317.86068	20624.7
3320.09766	20407.6
3322.3333	20242
3324.5676	20267
3326.80056	19909.9
3329.03219	19848.1
3331.26248	5
3333.49143	0.7
3335.71905	-0.5
