Data from AgNPs_FTO_APTES_UA_0uM_R6G_10uM_NaF_0.1M_Addition_RamanShift__11__10-07-57-087.txt Node

Date: Fri Dec 17 10:07:57 GMT 2021
User: TCL
Spectrometer: QEP01345
Trigger mode: 4
Integration Time (sec): 7.000000E0
Scans to average: 10
Electric dark correction enabled: true
Nonlinearity correction enabled: false
Boxcar width: 0
XAxis mode: Raman Shifts
Number of Pixels in Spectrum: 1044
>>>>>Begin Spectral Data<<<<<
46.04893	-0.575
50.45542	0.325
54.85868	-0.575
59.25871	0.425
63.6555	31.925
68.04907	30.525
72.43941	37.125
76.82654	41.025
81.21044	37.825
85.59113	40.225
89.96862	43.025
94.34289	46.925
98.71396	44.525
103.08183	44.825
107.4465	47.225
111.80798	46.825
116.16626	47.925
120.52136	47.325
124.87327	52.425
129.222	52.125
133.56755	50.125
137.90993	55.325
142.24913	61.125
146.58517	62.925
150.91804	72.025
155.24774	79.725
159.57429	100.525
163.89768	124.725
168.21792	154.525
172.53501	199.225
176.84895	271.225
181.15975	369.625
185.46741	522.625
189.77193	713.025
194.07331	945.625
198.37157	1230.425
202.6667	1513.825
206.9587	1802.725
211.24758	2087.625
215.53334	2400.125
219.81599	2693.725
224.09553	3060.225
228.37195	3436.125
232.64527	3852.525
236.91549	4269.625
241.18261	4665.925
245.44663	5003.925
249.70755	5285.025
253.96539	5493.625
258.22014	5673.325
262.4718	5829.925
266.72039	5945.225
270.96589	5952.225
275.20832	5908.725
279.44768	5808.225
283.68397	5680.825
287.91719	5537.625
292.14735	5492.825
296.37445	5502.525
300.59849	5596.225
304.81948	5765.225
309.03742	5878.425
313.25231	5936.225
317.46415	5870.625
321.67296	5682.125
325.87872	5522.825
330.08145	5444.025
334.28114	5409.625
338.47781	5450.125
342.67145	5502.925
346.86207	5614.125
351.04966	5764.025
355.23424	5903.325
359.4158	6053.525
363.59435	6115.025
367.76989	6133.925
371.94243	6132.325
376.11196	6131.725
380.27849	6119.925
384.44203	6110.225
388.60257	6076.425
392.76012	6069.725
396.91468	6101.425
401.06626	6178.225
405.21485	6240.625
409.36047	6180.525
413.50311	5974.125
417.64277	5817.425
421.77947	5734.025
425.9132	5715.625
430.04396	5746.625
434.17176	5801.725
438.2966	5917.725
442.41849	6087.425
446.53742	6363.225
450.6534	6611.425
454.76644	6691.325
458.87653	6625.425
462.98368	6417.225
467.08789	6225.525
471.18916	6044.225
475.2875	5880.225
479.38291	5727.325
483.4754	5658.925
487.56496	5608.925
491.6516	5584.525
495.73531	5607.625
499.81612	5642.625
503.89401	5692.325
507.96899	5741.925
512.04106	5812.525
516.11023	5843.425
520.1765	5914.925
524.23987	5934.825
528.30034	5952.225
532.35792	5914.425
536.41261	5808.825
540.46441	5673.025
544.51333	5585.125
548.55936	5592.425
552.60252	5701.325
556.64279	5868.925
560.6802	5970.125
564.71473	5982.025
568.7464	6005.125
572.7752	6029.925
576.80114	5957.025
580.82422	5910.925
584.84444	6014.225
588.86181	6358.225
592.87633	6910.425
596.888	7289.725
600.89682	7088.925
604.9028	7005.525
608.90594	7825.125
612.90624	9198.525
616.90371	9021.425
620.89834	7008.425
624.89015	5922.625
628.87913	5685.325
632.86528	5659.325
636.84862	5637.725
640.82913	5577.325
644.80683	5421.325
648.78172	5327.925
652.75379	5344.725
656.72306	5468.725
660.68952	5647.725
664.65319	5593.425
668.61405	5401.325
672.57211	5313.325
676.52738	5314.025
680.47986	5343.725
684.42955	5291.925
688.37646	5241.425
692.32058	5242.525
696.26192	5295.725
700.20048	5367.025
704.13626	5401.925
708.06928	5407.325
711.99952	5366.225
715.927	5381.125
719.85171	5401.325
723.77365	5417.925
727.69284	5372.725
731.60928	5336.625
735.52295	5332.225
739.43388	5380.525
743.34206	5418.825
747.24749	5413.025
751.15017	5431.425
755.05012	5491.525
758.94733	5632.325
762.8418	6009.425
766.73354	6696.425
770.62254	7486.825
774.50882	7898.125
778.39237	7579.725
782.27321	6807.125
786.15132	6085.425
790.02671	5644.425
793.89938	5451.925
797.76935	5341.425
801.6366	5298.525
805.50115	5270.725
809.36299	5227.425
813.22213	5182.325
817.07857	5154.625
820.93231	5143.825
824.78336	5151.925
828.63172	5146.125
832.47738	5148.325
836.32036	5167.525
840.16066	5154.825
843.99827	5153.525
847.8332	5159.225
851.66546	5163.925
855.49504	5160.825
859.32195	5151.525
863.1462	5125.825
866.96777	5136.125
870.78668	5112.825
874.60293	5116.325
878.41652	5146.725
882.22745	5170.125
886.03573	5191.525
889.84136	5208.825
893.64433	5191.025
897.44466	5179.225
901.24235	5215.625
905.0374	5219.725
908.8298	5230.025
912.61957	5244.725
916.40671	5303.425
920.19121	5361.225
923.97308	5469.525
927.75233	5537.525
931.52895	5546.225
935.30295	5487.525
939.07433	5321.925
942.84309	5182.325
946.60924	5093.325
950.37278	5027.625
954.13371	4985.925
957.89203	4948.325
961.64774	4908.425
965.40086	4875.725
969.15137	4861.325
972.89929	4845.225
976.64461	4837.125
980.38733	4836.025
984.12747	4837.225
987.86502	4861.725
991.59999	4904.225
995.33237	4960.525
999.06217	5078.425
1002.78939	5207.325
1006.51404	5287.425
1010.23611	5325.925
1013.95561	5383.325
1017.67255	5392.425
1021.38692	5319.025
1025.09872	5236.425
1028.80796	5154.725
1032.51465	5188.425
1036.21877	5255.125
1039.92035	5297.825
1043.61937	5278.925
1047.31584	5260.325
1051.00976	5237.425
1054.70114	5219.425
1058.38998	5196.725
1062.07627	5197.825
1065.76003	5192.325
1069.44126	5179.925
1073.11995	5191.025
1076.79611	5203.025
1080.46974	5266.625
1084.14085	5327.125
1087.80943	5430.925
1091.47549	5468.325
1095.13903	5404.825
1098.80005	5256.825
1102.45857	5111.825
1106.11456	5073.325
1109.76805	5065.725
1113.41903	5136.425
1117.06751	5221.225
1120.71348	5342.125
1124.35696	5477.425
1127.99793	5604.725
1131.63641	5626.225
1135.2724	5458.525
1138.90589	5271.525
1142.5369	5164.325
1146.16542	5104.625
1149.79145	5056.425
1153.415	5074.725
1157.03607	5082.825
1160.65467	5154.525
1164.27079	5307.525
1167.88443	5576.125
1171.49561	6049.025
1175.10432	6751.725
1178.71056	7665.925
1182.31434	8490.125
1185.91565	8731.725
1189.51451	8382.925
1193.11091	7755.525
1196.70485	7182.925
1200.29634	6713.525
1203.88538	6305.125
1207.47197	5946.125
1211.05612	5658.325
1214.63782	5529.025
1218.21708	5531.025
1221.79391	5656.425
1225.36829	5769.825
1228.94024	5787.125
1232.50976	5623.025
1236.07685	5453.425
1239.6415	5331.325
1243.20374	5261.625
1246.76355	5263.025
1250.32093	5309.825
1253.8759	5394.725
1257.42845	5534.525
1260.97859	5695.725
1264.52631	5890.325
1268.07163	6040.325
1271.61453	6204.125
1275.15503	6347.425
1278.69312	6482.225
1282.22882	6612.525
1285.76211	6843.225
1289.29301	7096.325
1292.82151	7438.325
1296.34761	7792.825
1299.87133	8230.625
1303.39266	8842.525
1306.9116	9673.825
1310.42815	10718.225
1313.94233	11441.625
1317.45412	11430.125
1320.96354	10679.125
1324.47058	9674.125
1327.97525	8735.725
1331.47754	8043.225
1334.97747	7697.825
1338.47502	7563.325
1341.97022	7507.225
1345.46305	7583.625
1348.95352	7950.825
1352.44163	8712.725
1355.92738	9810.625
1359.41078	11258.725
1362.89183	12710.725
1366.37053	12952.225
1369.84688	11420.825
1373.32088	9267.825
1376.79254	7798.325
1380.26186	7147.525
1383.72883	6933.825
1387.19347	6764.425
1390.65578	6518.125
1394.11575	6377.725
1397.57339	6359.525
1401.0287	6443.325
1404.48168	6485.725
1407.93234	6481.625
1411.38068	6413.025
1414.82669	6312.725
1418.27039	6227.325
1421.71177	6082.625
1425.15083	5958.925
1428.58758	5868.825
1432.02203	5914.225
1435.45416	6048.425
1438.88399	6174.525
1442.31151	6209.925
1445.73673	6237.825
1449.15965	6250.225
1452.58027	6149.825
1455.9986	6015.625
1459.41463	5911.525
1462.82837	5923.425
1466.23982	6038.925
1469.64898	6212.225
1473.05586	6366.525
1476.46045	6457.025
1479.86276	6550.525
1483.26279	6606.125
1486.66054	6669.325
1490.05602	6776.825
1493.44922	6920.225
1496.84016	7131.725
1500.22882	7492.225
1503.61521	8092.025
1506.99934	8898.725
1510.38121	9722.525
1513.76081	10099.525
1517.13816	9722.625
1520.51324	8776.525
1523.88607	7799.625
1527.25665	7163.225
1530.62498	6848.425
1533.99105	6678.325
1537.35488	6524.125
1540.71647	6364.325
1544.07581	6226.025
1547.4329	6061.925
1550.78776	5957.425
1554.14038	5877.525
1557.49077	5848.325
1560.83892	5869.825
1564.18484	5949.725
1567.52853	6114.625
1570.86999	6294.525
1574.20922	6456.125
1577.54624	6504.325
1580.88103	6290.225
1584.2136	5977.625
1587.54395	5812.025
1590.87208	5941.325
1594.19801	6370.025
1597.52172	7017.625
1600.84321	7432.225
1604.16251	7312.625
1607.47959	6736.925
1610.79447	6017.025
1614.10715	5403.225
1617.41763	4992.825
1620.7259	4729.825
1624.03199	4635.925
1627.33587	4635.525
1630.63757	4714.025
1633.93707	4959.825
1637.23439	5415.625
1640.52951	6123.525
1643.82246	7182.725
1647.11321	8237.425
1650.40179	8763.525
1653.68819	8298.125
1656.97241	7039.325
1660.25446	5777.025
1663.53433	4916.125
1666.81203	4427.125
1670.08756	4153.925
1673.36092	3979.125
1676.63211	3859.025
1679.90115	3790.825
1683.16801	3724.125
1686.43272	3682.025
1689.69527	3634.925
1692.95567	3614.625
1696.2139	3576.325
1699.46999	3549.825
1702.72392	3543.625
1705.97571	3534.825
1709.22535	3539.825
1712.47284	3528.725
1715.71819	3524.625
1718.96139	3515.725
1722.20246	3497.025
1725.44139	3482.925
1728.67818	3467.825
1731.91284	3445.625
1735.14537	3415.225
1738.37576	3386.825
1741.60403	3366.225
1744.83017	3356.125
1748.05418	3345.125
1751.27607	3323.625
1754.49584	3310.225
1757.71349	3306.925
1760.92903	3286.025
1764.14244	3289.825
1767.35375	3282.325
1770.56294	3269.925
1773.77002	3264.425
1776.97499	3248.325
1780.17785	3246.125
1783.37861	3237.825
1786.57727	3234.725
1789.77382	3233.425
1792.96828	3218.525
1796.16064	3202.525
1799.3509	3209.525
1802.53907	3190.825
1805.72514	3175.025
1808.90913	3174.425
1812.09102	3154.925
1815.27083	3151.225
1818.44856	3134.125
1821.6242	3130.425
1824.79776	3122.225
1827.96924	3118.725
1831.13864	3113.825
1834.30597	3103.725
1837.47122	3099.725
1840.6344	3117.225
1843.7955	3100.425
1846.95454	3080.325
1850.11151	3086.425
1853.26642	3087.225
1856.41926	3074.825
1859.57004	3076.625
1862.71876	3073.325
1865.86542	3063.925
1869.01003	3058.525
1872.15258	3065.425
1875.29308	3069.625
1878.43152	3059.725
1881.56792	3063.225
1884.70227	3043.925
1887.83457	3056.525
1890.96482	3030.525
1894.09304	3033.725
1897.21921	3024.825
1900.34335	3038.025
1903.46544	3020.825
1906.58551	3016.325
1909.70353	3025.725
1912.81953	3002.525
1915.93349	3012.725
1919.04543	3002.425
1922.15534	2982.925
1925.26322	2986.225
1928.36908	2965.425
1931.47292	2971.525
1934.57473	2946.625
1937.67453	2948.825
1940.77232	2931.525
1943.86808	2917.525
1946.96184	2904.225
1950.05358	2904.325
1953.14331	2899.325
1956.23103	2886.125
1959.31675	2877.825
1962.40046	2853.225
1965.48217	2857.625
1968.56188	2856.625
1971.63959	2851.425
1974.7153	2824.325
1977.78901	2818.025
1980.86073	2807.525
1983.93046	2770.025
1986.99819	2780.925
1990.06394	2777.525
1993.1277	2755.425
1996.18947	2763.425
1999.24925	2744.125
2002.30706	2726.425
2005.36288	2726.025
2008.41672	2711.225
2011.46859	2708.025
2014.51848	2698.825
2017.56639	2679.025
2020.61233	2679.425
2023.6563	2673.525
2026.6983	2668.825
2029.73833	2661.325
2032.7764	2655.025
2035.8125	2645.025
2038.84664	2643.625
2041.87881	2652.825
2044.90903	2637.925
2047.93729	2619.725
2050.96359	2633.725
2053.98794	2621.225
2057.01034	2615.725
2060.03078	2604.125
2063.04927	2606.925
2066.06582	2603.825
2069.08042	2607.625
2072.09307	2601.525
2075.10378	2610.525
2078.11255	2586.925
2081.11938	2589.025
2084.12426	2585.825
2087.12722	2584.325
2090.12824	2578.025
2093.12732	2574.825
2096.12447	2588.625
2099.11969	2588.225
2102.11299	2581.025
2105.10435	2585.125
2108.09379	2578.225
2111.08131	2585.525
2114.0669	2583.725
2117.05057	2582.725
2120.03233	2581.225
2123.01216	2587.325
2125.99008	2583.825
2128.96609	2584.925
2131.94018	2588.525
2134.91236	2573.125
2137.88263	2583.725
2140.851	2575.925
2143.81746	2585.425
2146.78201	2579.025
2149.74466	2578.125
2152.7054	2563.225
2155.66425	2565.525
2158.6212	2572.125
2161.57625	2576.025
2164.52941	2572.325
2167.48067	2558.125
2170.43004	2561.625
2173.37752	2562.325
2176.32311	2559.025
2179.26681	2555.325
2182.20863	2565.925
2185.14856	2565.925
2188.08661	2566.725
2191.02278	2560.625
2193.95707	2552.225
2196.88948	2553.625
2199.82001	2550.925
2202.74867	2551.025
2205.67545	2542.025
2208.60037	2541.625
2211.52341	2544.425
2214.44458	2528.325
2217.36388	2522.025
2220.28132	2508.125
2223.1969	2503.925
2226.11061	2501.425
2229.02246	2489.625
2231.93245	2485.425
2234.84058	2485.125
2237.74686	2477.525
2240.65128	2466.225
2243.55385	2475.025
2246.45456	2468.425
2249.35343	2462.225
2252.25044	2460.025
2255.14561	2461.625
2258.03893	2448.925
2260.93041	2428.725
2263.82004	2422.625
2266.70783	2431.225
2269.59378	2425.925
2272.4779	2421.825
2275.36017	2400.825
2278.24061	2393.125
2281.11922	2395.625
2283.996	2395.325
2286.87094	2397.025
2289.74405	2382.925
2292.61534	2374.425
2295.4848	2360.125
2298.35243	2367.125
2301.21824	2356.825
2304.08223	2365.725
2306.94439	2377.425
2309.80474	2371.025
2312.66327	2348.825
2315.51999	2353.325
2318.37489	2357.725
2321.22797	2353.225
2324.07925	2352.525
2326.92871	2346.125
2329.77637	2347.925
2332.62222	2341.125
2335.46626	2329.025
2338.3085	2327.325
2341.14893	2328.225
2343.98756	2335.625
2346.8244	2329.825
2349.65943	2335.025
2352.49267	2340.325
2355.32411	2332.225
2358.15376	2335.325
2360.98161	2333.025
2363.80768	2338.125
2366.63195	2326.225
2369.45444	2332.425
2372.27514	2319.425
2375.09405	2315.625
2377.91118	2309.825
2380.72652	2311.025
2383.54009	2290.625
2386.35187	2287.025
2389.16188	2284.825
2391.97011	2274.525
2394.77657	2262.625
2397.58125	2255.225
2400.38416	2249.825
2403.18529	2245.425
2405.98466	2246.525
2408.78226	2249.325
2411.57809	2230.625
2414.37216	2227.525
2417.16446	2219.825
2419.955	2207.525
2422.74378	2203.725
2425.5308	2220.825
2428.31606	2207.625
2431.09956	2201.825
2433.88131	2200.625
2436.6613	2215.525
2439.43954	2198.525
2442.21603	2204.825
2444.99077	2193.725
2447.76377	2202.125
2450.53501	2212.725
2453.30451	2189.925
2456.07226	2195.025
2458.83827	2213.725
2461.60254	2189.925
2464.36507	2194.425
2467.12586	2187.825
2469.88492	2188.725
2472.64224	2185.125
2475.39782	2186.425
2478.15167	2176.925
2480.90379	2190.825
2483.65417	2186.525
2486.40283	2191.425
2489.14976	2187.025
2491.89497	2184.425
2494.63845	2185.525
2497.3802	2180.625
2500.12024	2177.425
2502.85855	2177.525
2505.59514	2182.125
2508.33002	2167.925
2511.06318	2159.325
2513.79462	2161.625
2516.52435	2154.525
2519.25237	2140.525
2521.97867	2135.025
2524.70327	2128.125
2527.42616	2132.425
2530.14734	2122.725
2532.86681	2106.925
2535.58458	2115.325
2538.30065	2120.225
2541.01501	2117.925
2543.72768	2110.325
2546.43864	2105.925
2549.14791	2114.625
2551.85548	2103.825
2554.56136	2102.925
2557.26554	2100.025
2559.96803	2101.025
2562.66883	2095.025
2565.36794	2097.225
2568.06536	2087.825
2570.7611	2094.025
2573.45514	2081.725
2576.14751	2080.425
2578.83819	2082.925
2581.52719	2069.125
2584.21451	2084.025
2586.90015	2074.225
2589.58411	2059.925
2592.2664	2066.525
2594.94701	2057.325
2597.62594	2059.825
2600.30321	2050.925
2602.9788	2041.425
2605.65273	2045.325
2608.32498	2042.825
2610.99557	2045.125
2613.66449	2039.225
2616.33175	2050.025
2618.99734	2045.525
2621.66128	2038.325
2624.32355	2030.925
2626.98416	2032.725
2629.64311	2035.025
2632.30041	2033.825
2634.95605	2030.925
2637.61004	2037.825
2640.26238	2033.625
2642.91306	2025.625
2645.56209	2017.725
2648.20948	2018.225
2650.85521	2006.425
2653.4993	2024.725
2656.14175	2013.325
2658.78255	2016.525
2661.42171	2013.625
2664.05923	2005.825
2666.6951	2008.425
2669.32934	2014.125
2671.96194	2025.125
2674.59291	2017.425
2677.22224	2019.625
2679.84993	2019.225
2682.476	2023.925
2685.10043	2014.725
2687.72324	2006.825
2690.34441	2010.425
2692.96396	2001.825
2695.58188	2002.325
2698.19818	1997.025
2700.81285	2013.125
2703.4259	1998.525
2706.03733	1980.325
2708.64714	1992.425
2711.25533	2005.725
2713.86191	2007.725
2716.46687	2013.825
2719.07021	2025.425
2721.67194	2032.425
2724.27206	2020.225
2726.87057	2044.225
2729.46747	2023.825
2732.06276	2050.125
2734.65644	2029.225
2737.24852	2022.425
2739.83899	2036.725
2742.42786	2042.625
2745.01513	2041.025
2747.60079	2052.025
2750.18486	2036.925
2752.76733	2048.225
2755.3482	2048.225
2757.92747	2041.525
2760.50515	2044.425
2763.08123	2035.325
2765.65573	2047.425
2768.22863	2041.825
2770.79994	2039.125
2773.36967	2035.625
2775.9378	2052.925
2778.50435	2048.525
2781.06932	2038.525
2783.6327	2054.925
2786.1945	2041.025
2788.75471	2053.025
2791.31335	2039.525
2793.87041	2046.025
2796.42589	2033.425
2798.97979	2040.725
2801.53212	2041.925
2804.08288	2036.925
2806.63206	2029.725
2809.17967	2028.125
2811.72571	2032.725
2814.27018	2038.925
2816.81308	2024.525
2819.35442	2030.625
2821.89419	2029.525
2824.43239	2043.325
2826.96904	2030.025
2829.50412	2030.325
2832.03763	2026.225
2834.56959	2031.825
2837.1	2043.425
2839.62884	2060.025
2842.15613	2076.125
2844.68186	2099.425
2847.20604	2124.725
2849.72867	2153.125
2852.24974	2157.025
2854.76927	2156.025
2857.28724	2169.925
2859.80367	2177.225
2862.31855	2188.325
2864.83189	2201.825
2867.34368	2210.725
2869.85393	2218.025
2872.36264	2228.425
2874.8698	2247.525
2877.37543	2245.325
2879.87952	2256.925
2882.38207	2272.525
2884.88308	2280.325
2887.38256	2285.725
2889.88051	2291.425
2892.37692	2298.525
2894.8718	2302.525
2897.36515	2299.325
2899.85698	2298.525
2902.34727	2296.625
2904.83604	2307.725
2907.32328	2311.525
2909.809	2294.825
2912.29319	2297.125
2914.77587	2287.625
2917.25702	2277.125
2919.73665	2288.625
2922.21476	2298.925
2924.69136	2277.025
2927.16644	2283.525
2929.64	2262.425
2932.11205	2259.425
2934.58258	2234.725
2937.05161	2249.625
2939.51912	2224.425
2941.98513	2196.925
2944.44962	2169.925
2946.91261	2147.925
2949.37409	2126.625
2951.83407	2118.325
2954.29254	2102.425
2956.74951	2085.425
2959.20498	2059.025
2961.65895	2040.525
2964.11142	2028.325
2966.56239	2018.125
2969.01186	1997.625
2971.45984	1974.225
2973.90632	1973.225
2976.35131	1953.625
2978.7948	1938.025
2981.23681	1918.625
2983.67732	1913.025
2986.11635	1905.425
2988.55388	1891.425
2990.98993	1884.725
2993.4245	1880.125
2995.85758	1867.125
2998.28917	1869.725
3000.71928	1854.625
3003.14791	1861.425
3005.57506	1850.625
3008.00073	1838.825
3010.42493	1852.225
3012.84764	1849.325
3015.26888	1837.925
3017.68865	1839.425
3020.10694	1830.425
3022.52376	1825.725
3024.9391	1834.125
3027.35298	1829.825
3029.76539	1823.725
3032.17632	1815.225
3034.5858	1823.625
3036.9938	1816.525
3039.40034	1807.325
3041.80542	1819.825
3044.20903	1807.925
3046.61118	1815.125
3049.01187	1812.125
3051.4111	1797.725
3053.80888	1811.725
3056.20519	1807.825
3058.60005	1811.125
3060.99345	1809.525
3063.3854	1815.825
3065.7759	1805.225
3068.16494	1805.525
3070.55254	1803.225
3072.93868	1804.225
3075.32338	1805.925
3077.70662	1804.025
3080.08842	1807.825
3082.46878	1812.525
3084.84769	1797.925
3087.22515	1801.425
3089.60118	1812.725
3091.97576	1824.125
3094.3489	1813.625
3096.72061	1816.025
3099.09087	1818.725
3101.4597	1820.825
3103.82709	1817.125
3106.19305	1822.225
3108.55757	1816.925
3110.92066	1818.825
3113.28232	1834.225
3115.64255	1830.925
3118.00134	1830.625
3120.35871	1835.225
3122.71466	1833.225
3125.06917	1835.625
3127.42226	1839.725
3129.77393	1852.525
3132.12417	1849.125
3134.47299	1857.625
3136.82039	1865.925
3139.16636	1874.225
3141.51092	1873.025
3143.85406	1882.525
3146.19579	1877.125
3148.53609	1891.425
3150.87499	1884.725
3153.21246	1907.725
3155.54853	1907.425
3157.88318	1911.825
3160.21642	1919.825
3162.54826	1913.125
3164.87868	1925.825
3167.2077	1924.725
3169.5353	1931.325
3171.86151	1946.025
3174.18631	1938.725
3176.5097	1938.825
3178.83169	1940.525
3181.15228	1939.225
3183.47147	1947.425
3185.78926	1956.325
3188.10565	1947.625
3190.42065	1964.925
3192.73424	1972.225
3195.04645	1978.125
3197.35725	1981.425
3199.66667	1983.225
3201.97469	1995.125
3204.28132	1996.125
3206.58656	1994.125
3208.8904	1990.225
3211.19287	2009.125
3213.49394	2007.925
3215.79363	2010.225
3218.09193	2011.125
3220.38884	2002.325
3222.68438	2008.825
3224.97853	2010.825
3227.2713	2014.325
3229.56269	2008.425
3231.8527	2017.225
3234.14133	2018.825
3236.42858	2013.925
