Data from AgNPs_FTO_APTES_UA_2uM_R6G_10uM_NaF_0.1M_Addition_RamanShift__29__12-17-27-235.txt Node

Date: Fri Dec 17 12:17:27 GMT 2021
User: TCL
Spectrometer: QEP01345
Trigger mode: 4
Integration Time (sec): 7.000000E0
Scans to average: 10
Electric dark correction enabled: true
Nonlinearity correction enabled: false
Boxcar width: 0
XAxis mode: Raman Shifts
Number of Pixels in Spectrum: 1044
>>>>>Begin Spectral Data<<<<<
46.04893	0.8125
50.45542	-0.2875
54.85868	-0.8875
59.25871	0.4125
63.6555	72.5125
68.04907	77.4125
72.43941	84.7125
76.82654	89.2125
81.21044	90.5125
85.59113	92.0125
89.96862	100.4125
94.34289	105.2125
98.71396	108.5125
103.08183	106.8125
107.4465	111.6125
111.80798	109.3125
116.16626	111.5125
120.52136	109.8125
124.87327	117.8125
129.222	120.6125
133.56755	119.6125
137.90993	124.6125
142.24913	130.8125
146.58517	138.0125
150.91804	155.0125
155.24774	170.7125
159.57429	201.5125
163.89768	247.3125
168.21792	312.6125
172.53501	407.2125
176.84895	542.4125
181.15975	741.6125
185.46741	1032.7125
189.77193	1403.6125
194.07331	1872.5125
198.37157	2416.0125
202.6667	2978.9125
206.9587	3542.0125
211.24758	4085.3125
215.53334	4636.0125
219.81599	5228.6125
224.09553	5928.6125
228.37195	6682.2125
232.64527	7485.9125
236.91549	8344.9125
241.18261	9158.3125
245.44663	9895.2125
249.70755	10557.8125
253.96539	11133.1125
258.22014	11601.6125
262.4718	12060.4125
266.72039	12373.4125
270.96589	12567.9125
275.20832	12630.5125
279.44768	12537.1125
283.68397	12392.6125
287.91719	12279.4125
292.14735	12231.0125
296.37445	12281.4125
300.59849	12470.3125
304.81948	12769.4125
309.03742	12913.8125
313.25231	12891.9125
317.46415	12497.6125
321.67296	11967.7125
325.87872	11491.1125
330.08145	11317.3125
334.28114	11325.7125
338.47781	11495.2125
342.67145	11749.6125
346.86207	12108.4125
351.04966	12624.1125
355.23424	13181.3125
359.4158	13655.9125
363.59435	13938.0125
367.76989	14053.5125
371.94243	14067.5125
376.11196	14128.5125
380.27849	14123.2125
384.44203	14099.7125
388.60257	14043.6125
392.76012	14096.1125
396.91468	14246.3125
401.06626	14597.7125
405.21485	14873.1125
409.36047	14818.2125
413.50311	14461.9125
417.64277	14091.0125
421.77947	13941.8125
425.9132	13892.6125
430.04396	13932.0125
434.17176	14047.6125
438.2966	14208.3125
442.41849	14473.7125
446.53742	14860.0125
450.6534	15259.6125
454.76644	15550.6125
458.87653	15651.9125
462.98368	15593.9125
467.08789	15433.5125
471.18916	15117.1125
475.2875	14836.3125
479.38291	14547.0125
483.4754	14385.2125
487.56496	14250.6125
491.6516	14169.7125
495.73531	14085.4125
499.81612	14102.3125
503.89401	14151.2125
507.96899	14264.4125
512.04106	14360.6125
516.11023	14500.3125
520.1765	14620.0125
524.23987	14557.5125
528.30034	14417.1125
532.35792	14253.5125
536.41261	14050.6125
540.46441	13864.3125
544.51333	13814.6125
548.55936	13889.7125
552.60252	14071.6125
556.64279	14270.3125
560.6802	14364.9125
564.71473	14460.8125
568.7464	14783.4125
572.7752	15072.0125
576.80114	15031.5125
580.82422	14934.5125
584.84444	14928.0125
588.86181	14946.7125
592.87633	15028.8125
596.888	15149.3125
600.89682	15567.4125
604.9028	16694.5125
608.90594	19307.8125
612.90624	22436.7125
616.90371	21670.4125
620.89834	17348.0125
624.89015	15272.0125
628.87913	14856.2125
632.86528	14875.0125
636.84862	14933.7125
640.82913	14845.2125
644.80683	14476.4125
648.78172	14307.9125
652.75379	14374.4125
656.72306	14762.5125
660.68952	15200.4125
664.65319	15107.7125
668.61405	14733.3125
672.57211	14543.8125
676.52738	14514.5125
680.47986	14549.5125
684.42955	14530.2125
688.37646	14531.9125
692.32058	14623.8125
696.26192	14736.2125
700.20048	14875.0125
704.13626	14999.0125
708.06928	14965.9125
711.99952	14875.7125
715.927	14784.9125
719.85171	14751.5125
723.77365	14713.7125
727.69284	14666.2125
731.60928	14562.9125
735.52295	14602.5125
739.43388	14651.1125
743.34206	14756.9125
747.24749	14842.3125
751.15017	14984.3125
755.05012	15213.5125
758.94733	15675.3125
762.8418	16527.5125
766.73354	17979.7125
770.62254	19441.8125
774.50882	20164.5125
778.39237	19562.8125
782.27321	17947.0125
786.15132	16380.9125
790.02671	15509.2125
793.89938	15109.7125
797.76935	14965.7125
801.6366	14884.9125
805.50115	14832.7125
809.36299	14788.3125
813.22213	14774.6125
817.07857	14771.2125
820.93231	14751.7125
824.78336	14808.8125
828.63172	14877.4125
832.47738	14898.6125
836.32036	14872.8125
840.16066	14897.3125
843.99827	14857.2125
847.8332	14871.1125
851.66546	14850.6125
855.49504	14846.1125
859.32195	14825.1125
863.1462	14819.2125
866.96777	14799.5125
870.78668	14777.8125
874.60293	14806.5125
878.41652	14832.4125
882.22745	14942.4125
886.03573	14948.2125
889.84136	14946.8125
893.64433	14914.3125
897.44466	14878.6125
901.24235	14875.1125
905.0374	14875.4125
908.8298	14870.6125
912.61957	14875.3125
916.40671	14930.8125
920.19121	15023.2125
923.97308	15155.9125
927.75233	15208.0125
931.52895	15281.3125
935.30295	15164.5125
939.07433	14926.1125
942.84309	14749.8125
946.60924	14678.2125
950.37278	14609.6125
954.13371	14559.5125
957.89203	14471.0125
961.64774	14444.8125
965.40086	14450.6125
969.15137	14377.7125
972.89929	14355.0125
976.64461	14379.0125
980.38733	14393.9125
984.12747	14442.2125
987.86502	14463.5125
991.59999	14556.6125
995.33237	14752.1125
999.06217	15031.2125
1002.78939	15400.4125
1006.51404	15715.8125
1010.23611	16025.1125
1013.95561	16224.4125
1017.67255	16216.6125
1021.38692	16015.8125
1025.09872	15845.4125
1028.80796	15781.7125
1032.51465	15958.6125
1036.21877	16152.2125
1039.92035	16291.3125
1043.61937	16215.1125
1047.31584	16057.3125
1051.00976	15820.5125
1054.70114	15706.2125
1058.38998	15662.3125
1062.07627	15733.3125
1065.76003	15857.6125
1069.44126	15901.1125
1073.11995	16036.1125
1076.79611	16128.0125
1080.46974	16223.7125
1084.14085	16394.2125
1087.80943	16581.3125
1091.47549	16671.9125
1095.13903	16472.3125
1098.80005	16174.6125
1102.45857	15870.3125
1106.11456	15705.8125
1109.76805	15706.5125
1113.41903	15840.4125
1117.06751	16056.3125
1120.71348	16372.0125
1124.35696	16728.7125
1127.99793	16991.0125
1131.63641	17009.9125
1135.2724	16671.7125
1138.90589	16374.0125
1142.5369	16138.2125
1146.16542	15974.9125
1149.79145	15929.2125
1153.415	15936.1125
1157.03607	16063.0125
1160.65467	16264.1125
1164.27079	16610.3125
1167.88443	17063.4125
1171.49561	17827.3125
1175.10432	19026.4125
1178.71056	20684.7125
1182.31434	22055.3125
1185.91565	22691.1125
1189.51451	22604.2125
1193.11091	21857.4125
1196.70485	20695.9125
1200.29634	19729.6125
1203.88538	19048.9125
1207.47197	18352.8125
1211.05612	17831.5125
1214.63782	17564.9125
1218.21708	17541.2125
1221.79391	17602.5125
1225.36829	17732.2125
1228.94024	17900.3125
1232.50976	18115.9125
1236.07685	18289.0125
1239.6415	18359.0125
1243.20374	18372.1125
1246.76355	18404.9125
1250.32093	18524.5125
1253.8759	18803.4125
1257.42845	19210.4125
1260.97859	19527.9125
1264.52631	19808.9125
1268.07163	20105.7125
1271.61453	20391.1125
1275.15503	20718.8125
1278.69312	20977.3125
1282.22882	21234.1125
1285.76211	21589.6125
1289.29301	22012.8125
1292.82151	22375.0125
1296.34761	22715.3125
1299.87133	23245.2125
1303.39266	24133.3125
1306.9116	25594.7125
1310.42815	27353.6125
1313.94233	28491.8125
1317.45412	28488.5125
1320.96354	27607.3125
1324.47058	26598.5125
1327.97525	25658.1125
1331.47754	25233.4125
1334.97747	25306.4125
1338.47502	25668.8125
1341.97022	26082.3125
1345.46305	26395.2125
1348.95352	26771.8125
1352.44163	27305.2125
1355.92738	28384.2125
1359.41078	30282.1125
1362.89183	32135.3125
1366.37053	31517.8125
1369.84688	28492.8125
1373.32088	25335.5125
1376.79254	23246.9125
1380.26186	22162.6125
1383.72883	21539.3125
1387.19347	21106.2125
1390.65578	20587.2125
1394.11575	20233.7125
1397.57339	20118.5125
1401.0287	20293.3125
1404.48168	20697.9125
1407.93234	21355.2125
1411.38068	21863.6125
1414.82669	22073.5125
1418.27039	21795.5125
1421.71177	21305.9125
1425.15083	20889.2125
1428.58758	20706.8125
1432.02203	20693.8125
1435.45416	20709.2125
1438.88399	20752.2125
1442.31151	20773.6125
1445.73673	20849.0125
1449.15965	20895.4125
1452.58027	20846.7125
1455.9986	20653.4125
1459.41463	20553.5125
1462.82837	20628.5125
1466.23982	20836.1125
1469.64898	21166.5125
1473.05586	21372.3125
1476.46045	21598.9125
1479.86276	21852.4125
1483.26279	22282.7125
1486.66054	22778.6125
1490.05602	23302.6125
1493.44922	23969.5125
1496.84016	24761.4125
1500.22882	25752.4125
1503.61521	26967.1125
1506.99934	28351.9125
1510.38121	29636.5125
1513.76081	30139.7125
1517.13816	29229.1125
1520.51324	27244.6125
1523.88607	25233.6125
1527.25665	23810.3125
1530.62498	22892.6125
1533.99105	22380.5125
1537.35488	22064.0125
1540.71647	21877.5125
1544.07581	21792.0125
1547.4329	21741.4125
1550.78776	21603.2125
1554.14038	21494.5125
1557.49077	21469.6125
1560.83892	21587.4125
1564.18484	21750.0125
1567.52853	21899.8125
1570.86999	22016.2125
1574.20922	22064.0125
1577.54624	22038.2125
1580.88103	21596.9125
1584.2136	21120.6125
1587.54395	21100.4125
1590.87208	21669.9125
1594.19801	22730.0125
1597.52172	23906.3125
1600.84321	24490.9125
1604.16251	23963.1125
1607.47959	22769.5125
1610.79447	21343.6125
1614.10715	20033.0125
1617.41763	19013.8125
1620.7259	18382.3125
1624.03199	18121.0125
1627.33587	18171.1125
1630.63757	18519.4125
1633.93707	19216.9125
1637.23439	20146.7125
1640.52951	21244.4125
1643.82246	22337.9125
1647.11321	23346.6125
1650.40179	23785.0125
1653.68819	23012.0125
1656.97241	21061.5125
1660.25446	18930.7125
1663.53433	17413.6125
1666.81203	16482.8125
1670.08756	15915.6125
1673.36092	15530.4125
1676.63211	15286.7125
1679.90115	15122.3125
1683.16801	14962.4125
1686.43272	14882.6125
1689.69527	14790.5125
1692.95567	14754.8125
1696.2139	14712.8125
1699.46999	14684.2125
1702.72392	14670.4125
1705.97571	14659.8125
1709.22535	14651.5125
1712.47284	14661.8125
1715.71819	14686.6125
1718.96139	14682.8125
1722.20246	14634.5125
1725.44139	14622.8125
1728.67818	14511.9125
1731.91284	14495.2125
1735.14537	14412.2125
1738.37576	14351.1125
1741.60403	14285.4125
1744.83017	14255.6125
1748.05418	14231.4125
1751.27607	14203.8125
1754.49584	14167.4125
1757.71349	14156.3125
1760.92903	14138.6125
1764.14244	14151.6125
1767.35375	14184.1125
1770.56294	14151.4125
1773.77002	14144.6125
1776.97499	14092.8125
1780.17785	14115.6125
1783.37861	14090.4125
1786.57727	14087.2125
1789.77382	14058.4125
1792.96828	14029.3125
1796.16064	14052.5125
1799.3509	14012.7125
1802.53907	14002.0125
1805.72514	13991.3125
1808.90913	13971.7125
1812.09102	13925.2125
1815.27083	13915.8125
1818.44856	13886.2125
1821.6242	13847.6125
1824.79776	13880.0125
1827.96924	13841.8125
1831.13864	13842.6125
1834.30597	13851.4125
1837.47122	13839.0125
1840.6344	13806.9125
1843.7955	13842.7125
1846.95454	13846.8125
1850.11151	13855.2125
1853.26642	13838.1125
1856.41926	13854.5125
1859.57004	13859.7125
1862.71876	13855.1125
1865.86542	13855.1125
1869.01003	13884.0125
1872.15258	13873.7125
1875.29308	13885.9125
1878.43152	13869.2125
1881.56792	13869.2125
1884.70227	13893.1125
1887.83457	13919.1125
1890.96482	13917.0125
1894.09304	13904.4125
1897.21921	13908.7125
1900.34335	13936.2125
1903.46544	13893.0125
1906.58551	13906.2125
1909.70353	13906.3125
1912.81953	13893.6125
1915.93349	13885.1125
1919.04543	13862.8125
1922.15534	13849.7125
1925.26322	13801.7125
1928.36908	13792.4125
1931.47292	13743.3125
1934.57473	13686.8125
1937.67453	13625.1125
1940.77232	13578.3125
1943.86808	13528.2125
1946.96184	13474.0125
1950.05358	13422.6125
1953.14331	13368.7125
1956.23103	13338.4125
1959.31675	13307.5125
1962.40046	13255.3125
1965.48217	13206.3125
1968.56188	13166.1125
1971.63959	13149.2125
1974.7153	13101.7125
1977.78901	13046.0125
1980.86073	13022.4125
1983.93046	12970.0125
1986.99819	12920.4125
1990.06394	12895.7125
1993.1277	12877.2125
1996.18947	12806.4125
1999.24925	12762.4125
2002.30706	12752.8125
2005.36288	12703.4125
2008.41672	12699.6125
2011.46859	12650.4125
2014.51848	12631.7125
2017.56639	12582.4125
2020.61233	12555.8125
2023.6563	12516.1125
2026.6983	12503.6125
2029.73833	12484.9125
2032.7764	12425.0125
2035.8125	12392.2125
2038.84664	12365.6125
2041.87881	12354.7125
2044.90903	12351.8125
2047.93729	12315.8125
2050.96359	12302.0125
2053.98794	12290.7125
2057.01034	12264.2125
2060.03078	12283.5125
2063.04927	12238.9125
2066.06582	12227.5125
2069.08042	12232.9125
2072.09307	12210.4125
2075.10378	12184.7125
2078.11255	12167.3125
2081.11938	12197.3125
2084.12426	12164.0125
2087.12722	12167.6125
2090.12824	12147.0125
2093.12732	12192.8125
2096.12447	12194.7125
2099.11969	12157.8125
2102.11299	12165.6125
2105.10435	12176.3125
2108.09379	12175.6125
2111.08131	12184.2125
2114.0669	12175.1125
2117.05057	12187.8125
2120.03233	12170.9125
2123.01216	12186.5125
2125.99008	12200.3125
2128.96609	12215.2125
2131.94018	12214.3125
2134.91236	12209.1125
2137.88263	12220.7125
2140.851	12226.4125
2143.81746	12234.0125
2146.78201	12253.1125
2149.74466	12228.2125
2152.7054	12253.2125
2155.66425	12225.7125
2158.6212	12242.5125
2161.57625	12225.4125
2164.52941	12211.3125
2167.48067	12198.0125
2170.43004	12177.4125
2173.37752	12182.1125
2176.32311	12201.3125
2179.26681	12213.4125
2182.20863	12206.5125
2185.14856	12204.7125
2188.08661	12203.9125
2191.02278	12196.0125
2193.95707	12193.4125
2196.88948	12178.3125
2199.82001	12188.2125
2202.74867	12163.5125
2205.67545	12131.1125
2208.60037	12156.8125
2211.52341	12103.3125
2214.44458	12104.0125
2217.36388	12066.4125
2220.28132	12061.2125
2223.1969	12036.2125
2226.11061	12031.3125
2229.02246	11968.6125
2231.93245	11996.9125
2234.84058	11935.2125
2237.74686	11913.4125
2240.65128	11899.3125
2243.55385	11873.6125
2246.45456	11853.9125
2249.35343	11856.9125
2252.25044	11833.2125
2255.14561	11824.9125
2258.03893	11856.3125
2260.93041	11800.4125
2263.82004	11752.3125
2266.70783	11739.8125
2269.59378	11703.5125
2272.4779	11680.1125
2275.36017	11646.7125
2278.24061	11638.2125
2281.11922	11615.0125
2283.996	11585.7125
2286.87094	11603.9125
2289.74405	11527.6125
2292.61534	11525.0125
2295.4848	11539.3125
2298.35243	11498.9125
2301.21824	11514.9125
2304.08223	11511.1125
2306.94439	11481.0125
2309.80474	11500.2125
2312.66327	11493.0125
2315.51999	11476.9125
2318.37489	11456.7125
2321.22797	11441.9125
2324.07925	11422.8125
2326.92871	11436.5125
2329.77637	11392.9125
2332.62222	11384.8125
2335.46626	11382.1125
2338.3085	11372.3125
2341.14893	11331.9125
2343.98756	11350.6125
2346.8244	11363.6125
2349.65943	11344.7125
2352.49267	11325.6125
2355.32411	11318.3125
2358.15376	11339.1125
2360.98161	11297.8125
2363.80768	11308.8125
2366.63195	11303.0125
2369.45444	11253.3125
2372.27514	11271.0125
2375.09405	11259.1125
2377.91118	11218.8125
2380.72652	11184.2125
2383.54009	11143.2125
2386.35187	11132.6125
2389.16188	11093.7125
2391.97011	11088.1125
2394.77657	11068.9125
2397.58125	11034.5125
2400.38416	11011.6125
2403.18529	11004.5125
2405.98466	10986.6125
2408.78226	10940.3125
2411.57809	10923.0125
2414.37216	10925.1125
2417.16446	10895.9125
2419.955	10901.8125
2422.74378	10878.3125
2425.5308	10846.9125
2428.31606	10855.0125
2431.09956	10850.4125
2433.88131	10835.1125
2436.6613	10822.8125
2439.43954	10821.7125
2442.21603	10811.1125
2444.99077	10782.8125
2447.76377	10784.4125
2450.53501	10777.5125
2453.30451	10753.2125
2456.07226	10760.6125
2458.83827	10746.9125
2461.60254	10748.3125
2464.36507	10736.8125
2467.12586	10723.6125
2469.88492	10707.1125
2472.64224	10708.8125
2475.39782	10698.7125
2478.15167	10704.4125
2480.90379	10698.4125
2483.65417	10714.0125
2486.40283	10694.1125
2489.14976	10699.8125
2491.89497	10704.5125
2494.63845	10709.0125
2497.3802	10714.9125
2500.12024	10699.2125
2502.85855	10681.4125
2505.59514	10676.0125
2508.33002	10644.8125
2511.06318	10619.5125
2513.79462	10573.2125
2516.52435	10601.9125
2519.25237	10594.6125
2521.97867	10579.3125
2524.70327	10542.1125
2527.42616	10518.6125
2530.14734	10504.7125
2532.86681	10489.0125
2535.58458	10460.4125
2538.30065	10480.8125
2541.01501	10447.2125
2543.72768	10425.3125
2546.43864	10415.6125
2549.14791	10411.3125
2551.85548	10381.1125
2554.56136	10374.9125
2557.26554	10358.3125
2559.96803	10374.6125
2562.66883	10343.3125
2565.36794	10332.5125
2568.06536	10346.1125
2570.7611	10313.7125
2573.45514	10291.0125
2576.14751	10277.4125
2578.83819	10241.2125
2581.52719	10247.6125
2584.21451	10235.1125
2586.90015	10237.8125
2589.58411	10213.0125
2592.2664	10180.6125
2594.94701	10191.8125
2597.62594	10179.4125
2600.30321	10168.3125
2602.9788	10155.8125
2605.65273	10120.1125
2608.32498	10113.2125
2610.99557	10121.2125
2613.66449	10133.1125
2616.33175	10118.4125
2618.99734	10138.8125
2621.66128	10103.1125
2624.32355	10088.6125
2626.98416	10063.6125
2629.64311	10058.6125
2632.30041	10072.2125
2634.95605	10038.5125
2637.61004	10024.7125
2640.26238	10018.5125
2642.91306	9999.2125
2645.56209	9999.6125
2648.20948	9989.1125
2650.85521	9949.4125
2653.4993	9958.6125
2656.14175	9970.0125
2658.78255	9994.1125
2661.42171	9978.5125
2664.05923	9960.5125
2666.6951	9976.6125
2669.32934	9993.3125
2671.96194	9982.1125
2674.59291	9989.1125
2677.22224	10008.2125
2679.84993	9992.1125
2682.476	9985.1125
2685.10043	10002.1125
2687.72324	9999.7125
2690.34441	10000.2125
2692.96396	9989.0125
2695.58188	10020.7125
2698.19818	9987.3125
2700.81285	10001.6125
2703.4259	9974.5125
2706.03733	9967.2125
2708.64714	9968.5125
2711.25533	9973.8125
2713.86191	9966.1125
2716.46687	9977.9125
2719.07021	9960.5125
2721.67194	9977.6125
2724.27206	9944.2125
2726.87057	9980.4125
2729.46747	9966.3125
2732.06276	9958.4125
2734.65644	9968.3125
2737.24852	9958.8125
2739.83899	9951.6125
2742.42786	9948.2125
2745.01513	9957.3125
2747.60079	9950.7125
2750.18486	9933.9125
2752.76733	9927.5125
2755.3482	9880.8125
2757.92747	9902.6125
2760.50515	9899.8125
2763.08123	9891.3125
2765.65573	9865.6125
2768.22863	9855.8125
2770.79994	9843.2125
2773.36967	9873.1125
2775.9378	9840.0125
2778.50435	9833.4125
2781.06932	9826.4125
2783.6327	9815.4125
2786.1945	9816.3125
2788.75471	9827.9125
2791.31335	9792.1125
2793.87041	9789.0125
2796.42589	9734.0125
2798.97979	9749.3125
2801.53212	9717.3125
2804.08288	9726.8125
2806.63206	9716.3125
2809.17967	9699.5125
2811.72571	9696.9125
2814.27018	9705.8125
2816.81308	9683.8125
2819.35442	9713.7125
2821.89419	9679.3125
2824.43239	9668.8125
2826.96904	9684.2125
2829.50412	9678.4125
2832.03763	9668.1125
2834.56959	9683.7125
2837.1	9688.1125
2839.62884	9677.1125
2842.15613	9682.7125
2844.68186	9719.8125
2847.20604	9753.8125
2849.72867	9780.0125
2852.24974	9798.6125
2854.76927	9777.2125
2857.28724	9758.6125
2859.80367	9750.9125
2862.31855	9714.2125
2864.83189	9695.3125
2867.34368	9655.5125
2869.85393	9658.4125
2872.36264	9679.5125
2874.8698	9651.4125
2877.37543	9624.3125
2879.87952	9662.9125
2882.38207	9646.5125
2884.88308	9636.1125
2887.38256	9627.9125
2889.88051	9614.0125
2892.37692	9642.9125
2894.8718	9623.6125
2897.36515	9613.0125
2899.85698	9620.6125
2902.34727	9657.4125
2904.83604	9631.3125
2907.32328	9642.7125
2909.809	9599.7125
2912.29319	9614.7125
2914.77587	9606.8125
2917.25702	9592.6125
2919.73665	9561.5125
2922.21476	9586.0125
2924.69136	9544.9125
2927.16644	9531.4125
2929.64	9541.8125
2932.11205	9500.7125
2934.58258	9449.7125
2937.05161	9478.3125
2939.51912	9469.5125
2941.98513	9448.9125
2944.44962	9387.6125
2946.91261	9324.0125
2949.37409	9328.8125
2951.83407	9286.6125
2954.29254	9273.5125
2956.74951	9251.0125
2959.20498	9226.0125
2961.65895	9214.5125
2964.11142	9194.7125
2966.56239	9173.3125
2969.01186	9162.5125
2971.45984	9104.0125
2973.90632	9099.6125
2976.35131	9061.1125
2978.7948	9056.6125
2981.23681	9013.8125
2983.67732	8993.1125
2986.11635	8944.8125
2988.55388	8939.5125
2990.98993	8910.5125
2993.4245	8856.0125
2995.85758	8879.6125
2998.28917	8858.8125
3000.71928	8822.5125
3003.14791	8823.2125
3005.57506	8804.7125
3008.00073	8785.9125
3010.42493	8798.7125
3012.84764	8772.2125
3015.26888	8752.6125
3017.68865	8711.6125
3020.10694	8707.4125
3022.52376	8692.5125
3024.9391	8662.9125
3027.35298	8656.0125
3029.76539	8641.1125
3032.17632	8629.7125
3034.5858	8631.2125
3036.9938	8584.8125
3039.40034	8569.0125
3041.80542	8564.3125
