Data from AgNPs_FTO_APTES_UA_50uM_R6G_10uM_NaF_0.1M_Addition_RamanShift__0__14-36-17-395.txt Node

Date: Fri Dec 17 14:36:17 GMT 2021
User: TCL
Spectrometer: QEP01345
Trigger mode: 4
Integration Time (sec): 7.000000E0
Scans to average: 10
Electric dark correction enabled: true
Nonlinearity correction enabled: false
Boxcar width: 0
XAxis mode: Raman Shifts
Number of Pixels in Spectrum: 1044
>>>>>Begin Spectral Data<<<<<
46.04893	0.05
50.45542	-0.85
54.85868	-1.05
59.25871	-0.35
63.6555	105.35
68.04907	109.55
72.43941	111.15
76.82654	117.75
81.21044	119.35
85.59113	125.85
89.96862	127.85
94.34289	134.15
98.71396	138.05
103.08183	143.15
107.4465	143.95
111.80798	147.25
116.16626	152.35
120.52136	156.75
124.87327	165.05
129.222	177.25
133.56755	183.65
137.90993	200.85
142.24913	220.85
146.58517	246.35
150.91804	286.05
155.24774	341.35
159.57429	425.05
163.89768	539.85
168.21792	712.95
172.53501	971.05
176.84895	1346.25
181.15975	1909.05
185.46741	2658.55
189.77193	3675.35
194.07331	4921.55
198.37157	6379.65
202.6667	7880.65
206.9587	9406.65
211.24758	10880.35
215.53334	12347.85
219.81599	13910.45
224.09553	15634.35
228.37195	17471.25
232.64527	19551.25
236.91549	21774.95
241.18261	24005.75
245.44663	26100.45
249.70755	28033.05
253.96539	29760.05
258.22014	31172.65
262.4718	32287.15
266.72039	33053.65
270.96589	33465.15
275.20832	33479.15
279.44768	33176.55
283.68397	32820.65
287.91719	32383.45
292.14735	32034.55
296.37445	31939.55
300.59849	31951.85
304.81948	32118.15
309.03742	32185.35
313.25231	32070.85
317.46415	31614.75
321.67296	31084.15
325.87872	30575.75
330.08145	30367.05
334.28114	30441.65
338.47781	30758.35
342.67145	31134.45
346.86207	31586.05
351.04966	32170.25
355.23424	32899.35
359.4158	33483.65
363.59435	33992.25
367.76989	34316.95
371.94243	34541.35
376.11196	34750.25
380.27849	34925.55
384.44203	35042.55
388.60257	35285.45
392.76012	35581.95
396.91468	35952.45
401.06626	36449.15
405.21485	36886.95
409.36047	36871.75
413.50311	36452.95
417.64277	36144.15
421.77947	35960.35
425.9132	36011.85
430.04396	36115.55
434.17176	36214.25
438.2966	36540.25
442.41849	36913.05
446.53742	37487.15
450.6534	38176.25
454.76644	38678.45
458.87653	38922.85
462.98368	38939.55
467.08789	38738.25
471.18916	38400.55
475.2875	37904.95
479.38291	37480.05
483.4754	37181.55
487.56496	36860.65
491.6516	36644.55
495.73531	36556.35
499.81612	36552.65
503.89401	36811.55
507.96899	36955.55
512.04106	37016.15
516.11023	37063.15
520.1765	37044.45
524.23987	36858.55
528.30034	36700.85
532.35792	36480.55
536.41261	36211.15
540.46441	35863.45
544.51333	35804.45
548.55936	35956.25
552.60252	36317.85
556.64279	36819.35
560.6802	37118.15
564.71473	37259.75
568.7464	37556.55
572.7752	38039.15
576.80114	38462.55
580.82422	39024.85
584.84444	39917.45
588.86181	40844.95
592.87633	41479.25
596.888	41515.35
600.89682	41154.55
604.9028	42016.75
608.90594	45123.05
612.90624	48352.65
616.90371	46376.35
620.89834	40565.25
624.89015	37946.35
628.87913	37523.75
632.86528	37762.25
636.84862	37796.05
640.82913	37432.25
644.80683	36800.75
648.78172	36409.55
652.75379	36433.35
656.72306	36911.45
660.68952	37434.65
664.65319	37344.65
668.61405	36858.55
672.57211	36846.65
676.52738	36955.55
680.47986	36957.95
684.42955	36688.75
688.37646	36603.25
692.32058	36779.55
696.26192	37141.65
700.20048	37554.45
704.13626	37723.85
708.06928	37667.25
711.99952	37481.75
715.927	37408.25
719.85171	37495.45
723.77365	37362.25
727.69284	37126.35
731.60928	36792.55
735.52295	36621.35
739.43388	36602.85
743.34206	36715.85
747.24749	36809.15
751.15017	36994.05
755.05012	37269.15
758.94733	37936.85
762.8418	39085.75
766.73354	40975.45
770.62254	42950.35
774.50882	43723.35
778.39237	42733.65
782.27321	40786.15
786.15132	38946.95
790.02671	37777.15
793.89938	37158.55
797.76935	36913.65
801.6366	36795.75
805.50115	36736.15
809.36299	36590.85
813.22213	36465.85
817.07857	36378.25
820.93231	36315.85
824.78336	36264.55
828.63172	36281.15
832.47738	36281.75
836.32036	36349.95
840.16066	36394.55
843.99827	36432.85
847.8332	36456.05
851.66546	36413.55
855.49504	36433.45
859.32195	36503.05
863.1462	36398.15
866.96777	36364.45
870.78668	36417.95
874.60293	36457.35
878.41652	36463.15
882.22745	36558.85
886.03573	36666.35
889.84136	36684.25
893.64433	36529.45
897.44466	36388.05
901.24235	36279.55
905.0374	36215.25
908.8298	36148.95
912.61957	36143.65
916.40671	36248.45
920.19121	36564.75
923.97308	36751.45
927.75233	36881.55
931.52895	36865.55
935.30295	36701.85
939.07433	36247.05
942.84309	36043.75
946.60924	35889.55
950.37278	35811.25
954.13371	35745.85
957.89203	35658.25
961.64774	35644.55
965.40086	35592.75
969.15137	35590.55
972.89929	35612.35
976.64461	35720.65
980.38733	35809.65
984.12747	35981.45
987.86502	36198.25
991.59999	36426.85
995.33237	36695.05
999.06217	37219.15
1002.78939	37817.25
1006.51404	38390.15
1010.23611	38880.85
1013.95561	39150.35
1017.67255	39073.85
1021.38692	38662.35
1025.09872	38247.15
1028.80796	38119.35
1032.51465	38347.65
1036.21877	38675.95
1039.92035	38855.05
1043.61937	38852.25
1047.31584	38600.55
1051.00976	38269.25
1054.70114	38188.35
1058.38998	38225.05
1062.07627	38430.35
1065.76003	38726.75
1069.44126	39156.75
1073.11995	39764.05
1076.79611	40316.95
1080.46974	40527.15
1084.14085	40609.05
1087.80943	40803.05
1091.47549	41052.15
1095.13903	41101.05
1098.80005	40790.65
1102.45857	40190.25
1106.11456	39717.35
1109.76805	39429.85
1113.41903	39291.25
1117.06751	39342.25
1120.71348	39536.85
1124.35696	39753.85
1127.99793	40032.35
1131.63641	40168.85
1135.2724	39990.35
1138.90589	39819.65
1142.5369	39685.25
1146.16542	39600.85
1149.79145	39678.95
1153.415	39686.05
1157.03607	39777.95
1160.65467	40163.45
1164.27079	41091.05
1167.88443	42248.15
1171.49561	43557.45
1175.10432	45347.75
1178.71056	47711.75
1182.31434	49918.05
1185.91565	51300.55
1189.51451	51496.65
1193.11091	50797.65
1196.70485	49554.45
1200.29634	48358.25
1203.88538	47350.35
1207.47197	46601.45
1211.05612	45907.35
1214.63782	45290.85
1218.21708	44554.15
1221.79391	43964.85
1225.36829	43460.25
1228.94024	43105.05
1232.50976	42906.35
1236.07685	42838.35
1239.6415	42776.95
1243.20374	42868.65
1246.76355	43247.25
1250.32093	43815.75
1253.8759	44462.65
1257.42845	45288.45
1260.97859	46187.95
1264.52631	47109.45
1268.07163	48112.45
1271.61453	48996.65
1275.15503	49790.85
1278.69312	50460.35
1282.22882	50924.45
1285.76211	51574.85
1289.29301	52333.05
1292.82151	53397.35
1296.34761	54546.35
1299.87133	56241.05
1303.39266	58148.35
1306.9116	60412.65
1310.42815	62490.75
1313.94233	63709.25
1317.45412	63369.85
1320.96354	62356.05
1324.47058	61162.55
1327.97525	60180.85
1331.47754	59554.15
1334.97747	59402.35
1338.47502	59357.75
1341.97022	59412.45
1345.46305	59322.05
1348.95352	59416.45
1352.44163	59863.55
1355.92738	60976.25
1359.41078	63167.65
1362.89183	65186.15
1366.37053	64510.95
1369.84688	60367.45
1373.32088	55340.65
1376.79254	51796.05
1380.26186	50058.95
1383.72883	49366.75
1387.19347	48937.75
1390.65578	48187.55
1394.11575	47550.15
1397.57339	47214.65
1401.0287	47239.15
1404.48168	47491.85
1407.93234	47833.45
1411.38068	47793.25
1414.82669	47339.15
1418.27039	46609.85
1421.71177	45902.75
1425.15083	45236.95
1428.58758	45047.65
1432.02203	45348.65
1435.45416	46038.35
1438.88399	46858.95
1442.31151	47305.45
1445.73673	47585.65
1449.15965	47671.35
1452.58027	47613.65
1455.9986	47472.85
1459.41463	47717.95
1462.82837	48354.75
1466.23982	49076.35
1469.64898	49801.95
1473.05586	50404.65
1476.46045	50545.15
1479.86276	50562.65
1483.26279	50451.65
1486.66054	50418.75
1490.05602	50724.95
1493.44922	51244.15
1496.84016	52065.85
1500.22882	53392.35
1503.61521	55162.25
1506.99934	57093.45
1510.38121	58613.65
1513.76081	58863.75
1517.13816	57453.25
1520.51324	55074.25
1523.88607	52752.65
1527.25665	51148.15
1530.62498	50321.75
1533.99105	49784.05
1537.35488	49296.45
1540.71647	48782.25
1544.07581	48278.65
1547.4329	47863.95
1550.78776	47537.25
1554.14038	47260.65
1557.49077	47174.55
1560.83892	47229.85
1564.18484	47296.25
1567.52853	47436.65
1570.86999	47790.85
1574.20922	48130.95
1577.54624	48455.05
1580.88103	48253.05
1584.2136	47971.95
1587.54395	48459.45
1590.87208	49919.95
1594.19801	52010.45
1597.52172	54212.35
1600.84321	55052.05
1604.16251	53664.15
1607.47959	50907.65
1610.79447	48001.05
1614.10715	45231.15
1617.41763	43013.75
1620.7259	41568.05
1624.03199	40810.05
1627.33587	40780.25
1630.63757	41315.15
1633.93707	42655.05
1637.23439	45051.25
1640.52951	48418.95
1643.82246	52398.35
1647.11321	55672.95
1650.40179	56532.45
1653.68819	54070.95
1656.97241	49327.35
1660.25446	44522.55
1663.53433	41002.15
1666.81203	38770.75
1670.08756	37363.85
1673.36092	36486.25
1676.63211	35872.55
1679.90115	35459.95
1683.16801	35150.85
1686.43272	34879.95
1689.69527	34705.55
1692.95567	34566.95
1696.2139	34514.45
1699.46999	34461.75
1702.72392	34362.45
1705.97571	34314.95
1709.22535	34305.45
1712.47284	34252.65
1715.71819	34259.85
1718.96139	34153.35
1722.20246	34067.25
1725.44139	33990.35
1728.67818	33899.55
1731.91284	33744.95
1735.14537	33622.95
1738.37576	33608.05
1741.60403	33447.45
1744.83017	33389.55
1748.05418	33336.95
1751.27607	33282.75
1754.49584	33266.95
1757.71349	33241.65
1760.92903	33222.95
1764.14244	33159.65
1767.35375	33188.45
1770.56294	33146.25
1773.77002	33183.65
1776.97499	33093.95
1780.17785	33084.05
1783.37861	33037.95
1786.57727	33030.35
1789.77382	32931.95
1792.96828	32928.95
1796.16064	32868.65
1799.3509	32778.45
1802.53907	32769.05
1805.72514	32672.95
1808.90913	32606.65
1812.09102	32581.35
1815.27083	32537.55
1818.44856	32537.75
1821.6242	32457.85
1824.79776	32393.15
1827.96924	32352.05
1831.13864	32339.95
1834.30597	32376.95
1837.47122	32371.15
1840.6344	32347.55
1843.7955	32343.95
1846.95454	32328.35
1850.11151	32296.15
1853.26642	32268.15
1856.41926	32268.15
1859.57004	32273.95
1862.71876	32246.95
1865.86542	32260.15
1869.01003	32239.35
1872.15258	32202.55
1875.29308	32152.05
1878.43152	32114.15
1881.56792	32070.35
1884.70227	32061.55
1887.83457	32094.25
1890.96482	32014.45
1894.09304	31978.65
1897.21921	31965.05
1900.34335	31953.65
1903.46544	31926.45
1906.58551	31898.45
1909.70353	31902.15
1912.81953	31828.95
1915.93349	31781.55
1919.04543	31720.55
1922.15534	31672.35
1925.26322	31637.65
1928.36908	31549.05
1931.47292	31527.15
1934.57473	31448.45
1937.67453	31377.55
1940.77232	31290.85
1943.86808	31236.65
1946.96184	31182.55
1950.05358	31135.95
1953.14331	31106.45
1956.23103	31026.05
1959.31675	30917.25
1962.40046	30839.05
1965.48217	30796.15
1968.56188	30707.65
1971.63959	30599.75
1974.7153	30498.15
1977.78901	30374.65
1980.86073	30340.55
1983.93046	30209.85
1986.99819	30175.05
1990.06394	30085.75
1993.1277	30017.85
1996.18947	29881.85
1999.24925	29855.55
2002.30706	29773.95
2005.36288	29641.75
2008.41672	29603.65
2011.46859	29557.55
2014.51848	29533.25
2017.56639	29405.45
2020.61233	29328.35
2023.6563	29287.25
2026.6983	29254.75
2029.73833	29166.65
2032.7764	29105.85
2035.8125	29080.55
2038.84664	29020.35
2041.87881	29025.05
2044.90903	28937.35
2047.93729	28882.15
2050.96359	28897.75
2053.98794	28843.15
2057.01034	28798.45
2060.03078	28803.35
2063.04927	28760.25
2066.06582	28730.25
2069.08042	28717.25
2072.09307	28749.25
2075.10378	28738.45
2078.11255	28706.65
2081.11938	28708.55
2084.12426	28648.15
2087.12722	28693.35
2090.12824	28642.65
2093.12732	28681.35
2096.12447	28699.15
2099.11969	28682.15
2102.11299	28687.65
2105.10435	28714.55
2108.09379	28749.35
2111.08131	28778.35
2114.0669	28782.45
2117.05057	28833.55
2120.03233	28829.85
2123.01216	28902.05
2125.99008	28921.85
2128.96609	28903.85
2131.94018	28980.65
2134.91236	28979.75
2137.88263	29022.75
2140.851	29005.15
2143.81746	29081.55
2146.78201	29097.25
2149.74466	29107.45
2152.7054	29086.35
2155.66425	29086.45
2158.6212	29075.35
2161.57625	29081.05
2164.52941	29115.35
2167.48067	29112.95
2170.43004	29110.25
2173.37752	29140.35
2176.32311	29083.55
2179.26681	29122.35
2182.20863	29116.35
2185.14856	29085.75
2188.08661	29088.65
2191.02278	29129.55
2193.95707	29080.55
2196.88948	29070.25
2199.82001	29107.15
2202.74867	29100.65
2205.67545	29066.25
2208.60037	29014.15
2211.52341	28997.95
2214.44458	28904.25
2217.36388	28821.15
2220.28132	28805.15
2223.1969	28796.75
2226.11061	28769.75
2229.02246	28727.85
2231.93245	28626.75
2234.84058	28602.65
2237.74686	28629.95
2240.65128	28558.35
2243.55385	28506.05
2246.45456	28508.45
2249.35343	28412.75
2252.25044	28419.75
2255.14561	28397.55
2258.03893	28373.95
2260.93041	28363.95
2263.82004	28271.65
2266.70783	28233.45
2269.59378	28151.75
2272.4779	28107.65
2275.36017	28081.75
2278.24061	28055.05
2281.11922	27989.85
2283.996	27929.45
2286.87094	27934.85
2289.74405	27824.35
2292.61534	27842.45
2295.4848	27819.05
2298.35243	27777.45
2301.21824	27773.85
2304.08223	27772.75
2306.94439	27798.45
2309.80474	27780.95
2312.66327	27736.35
2315.51999	27716.75
2318.37489	27770.75
2321.22797	27687.25
2324.07925	27664.85
2326.92871	27635.05
2329.77637	27631.15
2332.62222	27581.25
2335.46626	27552.55
2338.3085	27510.15
2341.14893	27518.95
2343.98756	27464.75
2346.8244	27431.05
2349.65943	27433.15
2352.49267	27387.15
2355.32411	27436.25
2358.15376	27407.85
2360.98161	27411.05
2363.80768	27415.95
2366.63195	27415.45
2369.45444	27350.35
2372.27514	27319.25
2375.09405	27294.55
2377.91118	27246.45
2380.72652	27208.35
2383.54009	27187.85
2386.35187	27161.75
2389.16188	27101.65
2391.97011	26995.45
2394.77657	26998.15
2397.58125	26945.45
2400.38416	26939.15
2403.18529	26923.55
2405.98466	26881.55
2408.78226	26848.75
2411.57809	26789.45
2414.37216	26781.05
2417.16446	26795.65
2419.955	26743.95
2422.74378	26737.35
2425.5308	26693.55
2428.31606	26719.65
2431.09956	26688.25
2433.88131	26659.95
2436.6613	26685.95
2439.43954	26605.45
2442.21603	26580.45
2444.99077	26588.35
2447.76377	26608.15
2450.53501	26585.75
2453.30451	26539.35
2456.07226	26520.35
2458.83827	26496.05
2461.60254	26465.35
2464.36507	26466.15
2467.12586	26452.05
2469.88492	26483.65
2472.64224	26484.35
2475.39782	26454.05
2478.15167	26403.95
2480.90379	26402.65
2483.65417	26422.25
2486.40283	26358.15
2489.14976	26406.05
2491.89497	26368.45
2494.63845	26361.75
2497.3802	26330.05
2500.12024	26383.35
2502.85855	26372.55
2505.59514	26349.85
2508.33002	26325.65
2511.06318	26327.35
2513.79462	26280.15
2516.52435	26237.65
2519.25237	26264.55
2521.97867	26199.05
2524.70327	26232.45
2527.42616	26131.95
2530.14734	26164.35
2532.86681	26094.95
2535.58458	26089.25
2538.30065	26066.25
2541.01501	26028.75
2543.72768	26007.75
2546.43864	25992.45
2549.14791	25952.25
2551.85548	25931.45
2554.56136	25857.95
2557.26554	25870.75
2559.96803	25868.95
2562.66883	25811.35
2565.36794	25792.35
2568.06536	25826.75
2570.7611	25741.05
2573.45514	25698.65
2576.14751	25727.65
2578.83819	25682.05
2581.52719	25664.85
2584.21451	25611.25
2586.90015	25624.85
2589.58411	25550.55
2592.2664	25522.75
2594.94701	25469.45
2597.62594	25453.45
2600.30321	25383.55
2602.9788	25339.85
2605.65273	25339.35
2608.32498	25377.85
2610.99557	25283.05
2613.66449	25298.25
2616.33175	25225.85
2618.99734	25233.25
2621.66128	25229.85
2624.32355	25174.25
2626.98416	25183.85
2629.64311	25134.15
2632.30041	25099.35
2634.95605	25099.05
2637.61004	25061.05
2640.26238	25019.05
2642.91306	25014.25
2645.56209	25039.65
2648.20948	24995.25
2650.85521	24999.65
2653.4993	25007.15
2656.14175	25021.45
2658.78255	25029.85
2661.42171	24992.55
2664.05923	25035.35
2666.6951	25013.05
2669.32934	25058.75
2671.96194	25056.85
2674.59291	25034.95
2677.22224	25020.65
2679.84993	25031.85
2682.476	24988.65
2685.10043	25024.15
2687.72324	24986.85
2690.34441	24995.85
2692.96396	24990.75
2695.58188	25016.65
2698.19818	24986.75
2700.81285	25079.25
2703.4259	25008.25
2706.03733	24977.65
2708.64714	25004.85
2711.25533	25025.85
2713.86191	25046.75
2716.46687	25093.35
2719.07021	25042.85
2721.67194	25041.05
2724.27206	24974.25
2726.87057	25016.55
2729.46747	25007.75
2732.06276	24984.15
2734.65644	24975.85
2737.24852	25000.45
2739.83899	24966.75
2742.42786	25009.75
2745.01513	24903.35
2747.60079	24936.65
2750.18486	24934.45
2752.76733	24938.15
2755.3482	24890.25
2757.92747	24902.05
2760.50515	24884.05
2763.08123	24836.45
2765.65573	24780.15
2768.22863	24779.05
2770.79994	24741.15
2773.36967	24731.15
2775.9378	24731.45
2778.50435	24690.25
2781.06932	24675.65
2783.6327	24674.25
2786.1945	24658.25
2788.75471	24596.75
2791.31335	24477.45
2793.87041	24486.65
2796.42589	24420.55
2798.97979	24420.55
2801.53212	24314.65
2804.08288	24314.15
2806.63206	24244.05
2809.17967	24217.15
2811.72571	24178.75
2814.27018	24204.75
2816.81308	24123.95
2819.35442	24069.15
2821.89419	24033.35
2824.43239	24000.55
2826.96904	24001.95
2829.50412	24008.85
2832.03763	23903.35
2834.56959	23893.15
2837.1	23865.15
2839.62884	23911.95
2842.15613	23836.75
2844.68186	23811.95
2847.20604	23829.75
2849.72867	23789.65
2852.24974	23782.75
2854.76927	23780.85
2857.28724	23718.95
2859.80367	23699.55
2862.31855	23679.05
2864.83189	23642.65
2867.34368	23578.45
2869.85393	23617.25
2872.36264	23629.35
2874.8698	23607.95
2877.37543	23610.05
2879.87952	23586.45
2882.38207	23552.15
2884.88308	23541.35
2887.38256	23568.45
2889.88051	23563.55
2892.37692	23598.25
2894.8718	23525.35
2897.36515	23594.75
2899.85698	23543.15
2902.34727	23623.25
2904.83604	23604.45
2907.32328	23606.85
2909.809	23603.45
2912.29319	23645.35
2914.77587	23628.75
2917.25702	23620.05
2919.73665	23606.25
2922.21476	23574.15
2924.69136	23561.75
2927.16644	23545.95
2929.64	23530.65
2932.11205	23512.95
2934.58258	23444.75
2937.05161	23470.85
2939.51912	23490.75
2941.98513	23459.25
2944.44962	23417.95
2946.91261	23371.55
2949.37409	23410.75
2951.83407	23338.05
2954.29254	23334.25
2956.74951	23389.55
2959.20498	23370.95
2961.65895	23310.95
2964.11142	23275.95
2966.56239	23241.35
2969.01186	23257.75
2971.45984	23193.35
2973.90632	23168.75
2976.35131	23076.45
2978.7948	23042.35
2981.23681	23007.85
2983.67732	23009.65
2986.11635	22956.55
2988.55388	22888.65
2990.98993	22857.65
2993.4245	22826.15
2995.85758	22842.05
2998.28917	22746.75
3000.71928	22705.15
3003.14791	22679.05
3005.57506	22628.95
3008.00073	22605.35
3010.42493	22621.55
3012.84764	22540.55
3015.26888	22522.95
3017.68865	22503.45
3020.10694	22483.75
3022.52376	22435.15
3024.9391	22426.95
3027.35298	22341.95
3029.76539	22295.45
3032.17632	22295.05
3034.5858	22280.75
3036.9938	22236.25
3039.40034	22216.65
3041.80542	22227.25
3044.20903	22172.55
3046.61118	22171.45
3049.01187	22062.35
3051.4111	22108.75
3053.80888	22013.15
3056.20519	21993.85
3058.60005	21944.15
3060.99345	21917.05
3063.3854	21857.65
3065.7759	21835.15
3068.16494	21789.35
3070.55254	21732.55
3072.93868	21730.65
3075.32338	21673.55
3077.70662	21619.85
3080.08842	21590.35
3082.46878	21587.05
3084.84769	21547.65
3087.22515	21548.95
3089.60118	21551.05
3091.97576	21512.15
3094.3489	21507.95
3096.72061	21455.15
3099.09087	21441.55
3101.4597	21414.85
3103.82709	21416.55
3106.19305	21359.25
3108.55757	21341.25
3110.92066	21276.65
3113.28232	21256.35
3115.64255	21193.05
3118.00134	21127.05
3120.35871	21150.95
3122.71466	21087.05
3125.06917	21041.35
3127.42226	21019.15
3129.77393	21014.45
3132.12417	21033.55
3134.47299	20998.55
3136.82039	21006.65
3139.16636	20976.85
3141.51092	20969.05
3143.85406	20966.55
3146.19579	20971.45
3148.53609	20983.85
3150.87499	21012.05
3153.21246	20988.35
3155.54853	21007.85
3157.88318	20964.85
3160.21642	20964.45
3162.54826	20941.35
3164.87868	20959.75
3167.2077	20937.95
3169.5353	20949.85
3171.86151	20897.15
3174.18631	20858.15
3176.5097	20819.85
3178.83169	20826.95
3181.15228	20796.35
3183.47147	20715.85
3185.78926	20679.15
3188.10565	20654.65
3190.42065	20649.55
3192.73424	20684.25
3195.04645	20659.15
3197.35725	20619.75
3199.66667	20624.85
3201.97469	20651.65
3204.28132	20605.35
3206.58656	20661.95
3208.8904	20660.95
3211.19287	20659.95
3213.49394	20654.05
3215.79363	20652.45
3218.09193	20689.75
3220.38884	20651.75
3222.68438	20609.05
3224.97853	20563.15
3227.2713	20560.15
3229.56269	20534.25
3231.8527	20523.15
3234.14133	20497.05
3236.42858	20435.85
3238.71446	20431.15
