Data from AgNPs_FTO_APTES_UA_50uM_R6G_10uM_NaF_0.1M_Addition_RamanShift__32__15-13-37-436.txt Node

Date: Fri Dec 17 15:13:37 GMT 2021
User: TCL
Spectrometer: QEP01345
Trigger mode: 4
Integration Time (sec): 7.000000E0
Scans to average: 10
Electric dark correction enabled: true
Nonlinearity correction enabled: false
Boxcar width: 0
XAxis mode: Raman Shifts
Number of Pixels in Spectrum: 1044
>>>>>Begin Spectral Data<<<<<
46.04893	-0.7125
50.45542	-0.2125
54.85868	-1.3125
59.25871	0.4875
63.6555	45.9875
68.04907	45.1875
72.43941	49.6875
76.82654	53.6875
81.21044	54.8875
85.59113	55.9875
89.96862	61.5875
94.34289	64.2875
98.71396	63.5875
103.08183	64.1875
107.4465	68.0875
111.80798	65.8875
116.16626	71.1875
120.52136	69.1875
124.87327	72.3875
129.222	77.3875
133.56755	75.1875
137.90993	82.6875
142.24913	87.9875
146.58517	90.6875
150.91804	103.0875
155.24774	118.2875
159.57429	144.0875
163.89768	177.8875
168.21792	228.5875
172.53501	305.6875
176.84895	414.6875
181.15975	565.1875
185.46741	785.3875
189.77193	1090.8875
194.07331	1442.3875
198.37157	1848.3875
202.6667	2294.9875
206.9587	2718.3875
211.24758	3162.2875
215.53334	3607.8875
219.81599	4093.1875
224.09553	4673.1875
228.37195	5303.4875
232.64527	6029.4875
236.91549	6710.3875
241.18261	7330.0875
245.44663	7863.3875
249.70755	8261.9875
253.96539	8603.1875
258.22014	8909.2875
262.4718	9239.1875
266.72039	9455.4875
270.96589	9599.6875
275.20832	9634.2875
279.44768	9530.9875
283.68397	9384.6875
287.91719	9310.1875
292.14735	9310.8875
296.37445	9491.4875
300.59849	9833.1875
304.81948	10291.1875
309.03742	10539.7875
313.25231	10547.8875
317.46415	10062.0875
321.67296	9314.3875
325.87872	8666.2875
330.08145	8361.1875
334.28114	8317.7875
338.47781	8455.3875
342.67145	8699.3875
346.86207	9068.5875
351.04966	9583.9875
355.23424	10198.8875
359.4158	10705.7875
363.59435	10952.0875
367.76989	11060.6875
371.94243	11080.9875
376.11196	11047.6875
380.27849	11039.4875
384.44203	10912.5875
388.60257	10790.1875
392.76012	10719.2875
396.91468	10789.9875
401.06626	11066.9875
405.21485	11272.3875
409.36047	11117.7875
413.50311	10504.6875
417.64277	9958.0875
421.77947	9623.1875
425.9132	9486.4875
430.04396	9452.1875
434.17176	9480.3875
438.2966	9623.6875
442.41849	9787.4875
446.53742	10025.5875
450.6534	10278.1875
454.76644	10435.2875
458.87653	10499.4875
462.98368	10437.7875
467.08789	10309.7875
471.18916	10093.4875
475.2875	9833.7875
479.38291	9653.0875
483.4754	9483.5875
487.56496	9370.5875
491.6516	9306.7875
495.73531	9290.2875
499.81612	9334.9875
503.89401	9427.6875
507.96899	9575.7875
512.04106	9702.8875
516.11023	9921.1875
520.1765	10050.3875
524.23987	9992.6875
528.30034	9830.3875
532.35792	9601.0875
536.41261	9414.9875
540.46441	9170.9875
544.51333	9064.3875
548.55936	9111.1875
552.60252	9313.8875
556.64279	9540.6875
560.6802	9667.6875
564.71473	9779.8875
568.7464	10137.0875
572.7752	10424.8875
576.80114	10191.8875
580.82422	9877.9875
584.84444	9754.7875
588.86181	9669.0875
592.87633	9702.3875
596.888	9824.9875
600.89682	10195.3875
604.9028	11445.4875
608.90594	14698.5875
612.90624	18855.3875
616.90371	18219.3875
620.89834	12742.0875
624.89015	10116.1875
628.87913	9627.9875
632.86528	9713.1875
636.84862	9926.9875
640.82913	9802.1875
644.80683	9414.6875
648.78172	9099.1875
652.75379	9123.9875
656.72306	9481.9875
660.68952	9964.6875
664.65319	9853.7875
668.61405	9352.4875
672.57211	9136.9875
676.52738	9092.2875
680.47986	9094.8875
684.42955	9042.3875
688.37646	8999.5875
692.32058	9028.7875
696.26192	9097.3875
700.20048	9233.9875
704.13626	9329.5875
708.06928	9327.0875
711.99952	9241.8875
715.927	9191.3875
719.85171	9213.0875
723.77365	9234.0875
727.69284	9166.3875
731.60928	9082.7875
735.52295	9083.8875
739.43388	9108.0875
743.34206	9148.0875
747.24749	9198.2875
751.15017	9291.8875
755.05012	9450.3875
758.94733	9912.8875
762.8418	10914.4875
766.73354	12663.0875
770.62254	14635.9875
774.50882	15718.6875
778.39237	15076.5875
782.27321	13036.9875
786.15132	11103.2875
790.02671	9966.9875
793.89938	9481.6875
797.76935	9279.5875
801.6366	9185.9875
805.50115	9134.2875
809.36299	9120.4875
813.22213	9113.6875
817.07857	9100.8875
820.93231	9087.0875
824.78336	9104.8875
828.63172	9128.5875
832.47738	9149.0875
836.32036	9118.1875
840.16066	9051.4875
843.99827	9028.9875
847.8332	9014.8875
851.66546	8999.2875
855.49504	8984.2875
859.32195	8976.2875
863.1462	8925.6875
866.96777	8894.8875
870.78668	8914.5875
874.60293	8943.1875
878.41652	8958.3875
882.22745	9049.4875
886.03573	9072.9875
889.84136	9076.4875
893.64433	9035.6875
897.44466	8983.1875
901.24235	8982.2875
905.0374	8953.1875
908.8298	8934.4875
912.61957	8904.8875
916.40671	8932.8875
920.19121	8996.2875
923.97308	9096.4875
927.75233	9168.0875
931.52895	9246.1875
935.30295	9174.2875
939.07433	8945.3875
942.84309	8723.1875
946.60924	8614.1875
950.37278	8563.1875
954.13371	8491.7875
957.89203	8466.8875
961.64774	8437.8875
965.40086	8437.5875
969.15137	8392.2875
972.89929	8376.0875
976.64461	8372.9875
980.38733	8392.5875
984.12747	8398.9875
987.86502	8429.5875
991.59999	8479.9875
995.33237	8557.8875
999.06217	8709.8875
1002.78939	8919.0875
1006.51404	9144.0875
1010.23611	9376.0875
1013.95561	9493.3875
1017.67255	9501.6875
1021.38692	9394.1875
1025.09872	9230.5875
1028.80796	9196.7875
1032.51465	9246.0875
1036.21877	9339.5875
1039.92035	9401.3875
1043.61937	9426.1875
1047.31584	9368.7875
1051.00976	9285.1875
1054.70114	9231.4875
1058.38998	9233.1875
1062.07627	9275.0875
1065.76003	9320.9875
1069.44126	9390.9875
1073.11995	9481.7875
1076.79611	9609.9875
1080.46974	9714.9875
1084.14085	9935.9875
1087.80943	10182.1875
1091.47549	10290.5875
1095.13903	10160.2875
1098.80005	9843.8875
1102.45857	9550.5875
1106.11456	9453.6875
1109.76805	9490.5875
1113.41903	9668.6875
1117.06751	9966.4875
1120.71348	10324.4875
1124.35696	10739.5875
1127.99793	11075.5875
1131.63641	11127.2875
1135.2724	10685.5875
1138.90589	10220.9875
1142.5369	9932.7875
1146.16542	9733.5875
1149.79145	9622.3875
1153.415	9573.6875
1157.03607	9662.7875
1160.65467	9834.9875
1164.27079	10160.5875
1167.88443	10640.3875
1171.49561	11434.1875
1175.10432	12732.3875
1178.71056	14514.7875
1182.31434	15904.5875
1185.91565	16234.8875
1189.51451	15770.4875
1193.11091	14754.3875
1196.70485	13590.4875
1200.29634	12782.7875
1203.88538	12220.7875
1207.47197	11544.1875
1211.05612	10991.1875
1214.63782	10622.7875
1218.21708	10516.5875
1221.79391	10496.7875
1225.36829	10507.0875
1228.94024	10583.4875
1232.50976	10644.7875
1236.07685	10699.3875
1239.6415	10713.8875
1243.20374	10790.6875
1246.76355	10852.5875
1250.32093	10979.9875
1253.8759	11189.6875
1257.42845	11502.2875
1260.97859	11789.8875
1264.52631	12061.9875
1268.07163	12395.2875
1271.61453	12670.5875
1275.15503	12926.7875
1278.69312	12992.4875
1282.22882	13063.1875
1285.76211	13274.5875
1289.29301	13610.0875
1292.82151	14008.6875
1296.34761	14415.5875
1299.87133	15045.0875
1303.39266	16160.1875
1306.9116	17859.9875
1310.42815	19815.9875
1313.94233	21003.9875
1317.45412	20666.4875
1320.96354	19358.8875
1324.47058	17838.2875
1327.97525	16538.1875
1331.47754	15714.5875
1334.97747	15499.1875
1338.47502	15650.3875
1341.97022	16060.5875
1345.46305	16607.2875
1348.95352	17402.9875
1352.44163	18607.2875
1355.92738	20374.3875
1359.41078	23237.2875
1362.89183	26187.8875
1366.37053	25832.0875
1369.84688	22049.7875
1373.32088	18109.8875
1376.79254	15561.5875
1380.26186	14282.0875
1383.72883	13653.6875
1387.19347	13194.7875
1390.65578	12719.0875
1394.11575	12328.6875
1397.57339	12142.4875
1401.0287	12120.1875
1404.48168	12263.1875
1407.93234	12526.6875
1411.38068	12732.7875
1414.82669	12813.8875
1418.27039	12665.6875
1421.71177	12445.1875
1425.15083	12146.4875
1428.58758	11968.5875
1432.02203	11936.0875
1435.45416	12005.6875
1438.88399	12087.2875
1442.31151	12104.5875
1445.73673	12198.7875
1449.15965	12279.1875
1452.58027	12252.9875
1455.9986	12158.4875
1459.41463	12144.3875
1462.82837	12216.1875
1466.23982	12414.6875
1469.64898	12708.3875
1473.05586	12927.0875
1476.46045	13101.8875
1479.86276	13344.2875
1483.26279	13685.6875
1486.66054	14080.6875
1490.05602	14560.2875
1493.44922	15242.2875
1496.84016	16205.6875
1500.22882	17671.2875
1503.61521	19707.1875
1506.99934	21956.1875
1510.38121	24065.7875
1513.76081	25008.5875
1517.13816	23873.6875
1520.51324	21132.3875
1523.88607	18275.5875
1527.25665	16236.6875
1530.62498	15089.3875
1533.99105	14411.0875
1537.35488	14022.9875
1540.71647	13752.5875
1544.07581	13634.7875
1547.4329	13607.2875
1550.78776	13566.7875
1554.14038	13560.5875
1557.49077	13693.9875
1560.83892	13929.4875
1564.18484	14249.2875
1567.52853	14582.0875
1570.86999	14926.4875
1574.20922	15146.0875
1577.54624	15134.6875
1580.88103	14474.5875
1584.2136	13562.6875
1587.54395	13074.5875
1590.87208	13153.2875
1594.19801	13767.1875
1597.52172	14666.7875
1600.84321	15059.0875
1604.16251	14650.1875
1607.47959	13797.2875
1610.79447	12907.2875
1614.10715	12072.4875
1617.41763	11317.8875
1620.7259	10851.7875
1624.03199	10621.2875
1627.33587	10616.1875
1630.63757	10807.6875
1633.93707	11233.6875
1637.23439	11893.6875
1640.52951	12876.4875
1643.82246	14192.5875
1647.11321	15792.1875
1650.40179	17140.9875
1653.68819	16959.5875
1656.97241	15091.4875
1660.25446	12751.3875
1663.53433	11073.8875
1666.81203	10053.7875
1670.08756	9469.5875
1673.36092	9103.7875
1676.63211	8874.1875
1679.90115	8708.2875
1683.16801	8580.6875
1686.43272	8509.3875
1689.69527	8426.6875
1692.95567	8403.9875
1696.2139	8337.3875
1699.46999	8347.1875
1702.72392	8317.5875
1705.97571	8290.5875
1709.22535	8267.8875
1712.47284	8265.3875
1715.71819	8269.2875
1718.96139	8250.8875
1722.20246	8220.5875
1725.44139	8193.1875
1728.67818	8157.0875
1731.91284	8107.7875
1735.14537	8045.6875
1738.37576	7996.8875
1741.60403	7975.8875
1744.83017	7928.5875
1748.05418	7926.7875
1751.27607	7909.2875
1754.49584	7909.9875
1757.71349	7930.2875
1760.92903	7909.4875
1764.14244	7879.6875
1767.35375	7886.1875
1770.56294	7866.5875
1773.77002	7864.8875
1776.97499	7831.6875
1780.17785	7798.4875
1783.37861	7786.6875
1786.57727	7783.5875
1789.77382	7756.1875
1792.96828	7764.8875
1796.16064	7726.4875
1799.3509	7744.9875
1802.53907	7716.3875
1805.72514	7692.0875
1808.90913	7686.9875
1812.09102	7651.6875
1815.27083	7643.9875
1818.44856	7642.8875
1821.6242	7617.7875
1824.79776	7599.1875
1827.96924	7573.6875
1831.13864	7574.4875
1834.30597	7593.9875
1837.47122	7580.3875
1840.6344	7581.5875
1843.7955	7576.8875
1846.95454	7568.0875
1850.11151	7570.8875
1853.26642	7578.7875
1856.41926	7580.6875
1859.57004	7586.3875
1862.71876	7573.8875
1865.86542	7581.1875
1869.01003	7572.1875
1872.15258	7588.2875
1875.29308	7573.3875
1878.43152	7560.4875
1881.56792	7556.4875
1884.70227	7574.8875
1887.83457	7577.6875
1890.96482	7553.8875
1894.09304	7553.6875
1897.21921	7555.0875
1900.34335	7569.6875
1903.46544	7557.1875
1906.58551	7567.1875
1909.70353	7550.7875
1912.81953	7558.2875
1915.93349	7555.2875
1919.04543	7555.9875
1922.15534	7520.1875
1925.26322	7509.5875
1928.36908	7487.3875
1931.47292	7463.9875
1934.57473	7441.5875
1937.67453	7420.2875
1940.77232	7397.8875
1943.86808	7336.7875
1946.96184	7330.2875
1950.05358	7304.0875
1953.14331	7300.5875
1956.23103	7287.2875
1959.31675	7259.9875
1962.40046	7221.6875
1965.48217	7217.9875
1968.56188	7200.5875
1971.63959	7176.8875
1974.7153	7180.4875
1977.78901	7129.0875
1980.86073	7119.3875
1983.93046	7077.2875
1986.99819	7081.0875
1990.06394	7052.7875
1993.1277	7020.6875
1996.18947	6995.7875
1999.24925	6982.0875
2002.30706	6938.0875
2005.36288	6920.5875
2008.41672	6907.1875
2011.46859	6897.8875
2014.51848	6879.4875
2017.56639	6872.0875
2020.61233	6839.1875
2023.6563	6823.4875
2026.6983	6813.0875
2029.73833	6778.0875
2032.7764	6771.3875
2035.8125	6742.2875
2038.84664	6736.3875
2041.87881	6739.8875
2044.90903	6721.2875
2047.93729	6680.5875
2050.96359	6714.9875
2053.98794	6692.5875
2057.01034	6683.9875
2060.03078	6694.5875
2063.04927	6679.7875
2066.06582	6666.6875
2069.08042	6673.4875
2072.09307	6646.2875
2075.10378	6642.1875
2078.11255	6631.9875
2081.11938	6654.9875
2084.12426	6629.6875
2087.12722	6636.5875
2090.12824	6636.0875
2093.12732	6623.0875
2096.12447	6627.8875
2099.11969	6631.6875
2102.11299	6632.8875
2105.10435	6635.1875
2108.09379	6638.2875
2111.08131	6650.9875
2114.0669	6644.0875
2117.05057	6661.0875
2120.03233	6654.4875
2123.01216	6657.7875
2125.99008	6645.7875
2128.96609	6649.3875
2131.94018	6676.6875
2134.91236	6669.5875
2137.88263	6660.3875
2140.851	6676.3875
2143.81746	6668.2875
2146.78201	6677.8875
2149.74466	6692.8875
2152.7054	6666.8875
2155.66425	6667.7875
2158.6212	6665.7875
2161.57625	6657.5875
2164.52941	6644.5875
2167.48067	6660.5875
2170.43004	6655.0875
2173.37752	6659.8875
2176.32311	6647.3875
2179.26681	6662.1875
2182.20863	6643.3875
2185.14856	6649.0875
2188.08661	6652.8875
2191.02278	6627.0875
2193.95707	6638.1875
2196.88948	6625.4875
2199.82001	6644.1875
2202.74867	6619.9875
2205.67545	6614.4875
2208.60037	6592.7875
2211.52341	6579.9875
2214.44458	6582.8875
2217.36388	6562.4875
2220.28132	6564.8875
2223.1969	6536.1875
2226.11061	6538.2875
2229.02246	6520.2875
2231.93245	6489.7875
2234.84058	6486.7875
2237.74686	6496.3875
2240.65128	6478.4875
2243.55385	6485.2875
2246.45456	6452.8875
2249.35343	6469.9875
2252.25044	6450.9875
2255.14561	6441.9875
2258.03893	6446.4875
2260.93041	6437.0875
2263.82004	6422.9875
2266.70783	6446.1875
2269.59378	6400.2875
2272.4779	6392.6875
2275.36017	6371.4875
2278.24061	6349.1875
2281.11922	6333.8875
2283.996	6338.6875
2286.87094	6301.8875
2289.74405	6294.9875
2292.61534	6293.8875
2295.4848	6257.2875
2298.35243	6255.4875
2301.21824	6276.9875
2304.08223	6265.2875
2306.94439	6262.7875
2309.80474	6248.9875
2312.66327	6262.9875
2315.51999	6234.3875
2318.37489	6245.8875
2321.22797	6231.9875
2324.07925	6217.5875
2326.92871	6223.3875
2329.77637	6227.5875
2332.62222	6214.9875
2335.46626	6206.6875
2338.3085	6192.2875
2341.14893	6191.1875
2343.98756	6200.0875
2346.8244	6186.2875
2349.65943	6183.5875
2352.49267	6192.9875
2355.32411	6223.1875
2358.15376	6214.7875
2360.98161	6204.8875
2363.80768	6216.4875
2366.63195	6212.1875
2369.45444	6219.3875
2372.27514	6194.9875
2375.09405	6184.4875
2377.91118	6186.5875
2380.72652	6144.4875
2383.54009	6143.8875
2386.35187	6125.7875
2389.16188	6080.1875
2391.97011	6053.0875
2394.77657	6054.3875
2397.58125	6039.9875
2400.38416	6021.1875
2403.18529	6018.1875
2405.98466	6005.8875
2408.78226	6001.9875
2411.57809	5981.2875
2414.37216	5960.2875
2417.16446	5967.1875
2419.955	5966.4875
2422.74378	5954.7875
2425.5308	5935.3875
2428.31606	5949.6875
2431.09956	5951.4875
2433.88131	5927.0875
2436.6613	5952.5875
2439.43954	5913.2875
2442.21603	5916.7875
2444.99077	5916.4875
2447.76377	5932.2875
2450.53501	5924.0875
2453.30451	5917.3875
2456.07226	5905.1875
2458.83827	5893.2875
2461.60254	5897.1875
2464.36507	5901.6875
2467.12586	5896.2875
2469.88492	5888.2875
2472.64224	5890.6875
2475.39782	5895.3875
2478.15167	5902.3875
2480.90379	5894.5875
2483.65417	5910.3875
2486.40283	5903.7875
2489.14976	5902.4875
2491.89497	5927.7875
2494.63845	5930.6875
2497.3802	5926.8875
2500.12024	5911.1875
2502.85855	5914.0875
2505.59514	5901.3875
2508.33002	5889.6875
2511.06318	5865.8875
2513.79462	5838.3875
2516.52435	5840.6875
2519.25237	5808.9875
2521.97867	5793.7875
2524.70327	5783.4875
2527.42616	5752.8875
2530.14734	5754.7875
2532.86681	5751.6875
2535.58458	5726.6875
2538.30065	5745.1875
2541.01501	5731.5875
2543.72768	5741.5875
2546.43864	5734.4875
2549.14791	5724.6875
2551.85548	5711.3875
2554.56136	5693.1875
2557.26554	5700.8875
2559.96803	5716.5875
2562.66883	5687.7875
2565.36794	5697.6875
2568.06536	5680.8875
2570.7611	5672.9875
2573.45514	5658.0875
2576.14751	5646.4875
2578.83819	5627.9875
2581.52719	5636.8875
2584.21451	5629.9875
2586.90015	5635.0875
2589.58411	5638.2875
2592.2664	5613.1875
2594.94701	5594.9875
2597.62594	5598.6875
2600.30321	5588.0875
2602.9788	5569.7875
2605.65273	5575.3875
2608.32498	5575.7875
2610.99557	5570.5875
2613.66449	5566.7875
2616.33175	5550.2875
2618.99734	5550.3875
2621.66128	5554.3875
2624.32355	5552.3875
2626.98416	5536.7875
2629.64311	5539.4875
2632.30041	5533.3875
2634.95605	5520.9875
2637.61004	5513.7875
2640.26238	5494.5875
2642.91306	5498.3875
2645.56209	5494.6875
2648.20948	5488.6875
2650.85521	5490.0875
2653.4993	5468.1875
2656.14175	5485.3875
2658.78255	5485.9875
2661.42171	5484.7875
2664.05923	5495.2875
2666.6951	5502.2875
2669.32934	5481.9875
2671.96194	5502.5875
2674.59291	5517.8875
2677.22224	5500.8875
2679.84993	5507.2875
2682.476	5495.7875
2685.10043	5529.7875
2687.72324	5512.4875
2690.34441	5523.9875
2692.96396	5497.2875
2695.58188	5515.7875
2698.19818	5509.2875
2700.81285	5500.4875
2703.4259	5518.7875
2706.03733	5514.9875
2708.64714	5494.6875
2711.25533	5500.4875
2713.86191	5508.5875
2716.46687	5522.4875
2719.07021	5509.0875
2721.67194	5511.3875
2724.27206	5498.0875
2726.87057	5492.5875
2729.46747	5500.8875
2732.06276	5506.6875
2734.65644	5479.0875
2737.24852	5497.2875
2739.83899	5468.7875
2742.42786	5474.2875
2745.01513	5474.0875
2747.60079	5454.4875
2750.18486	5463.7875
2752.76733	5456.2875
2755.3482	5450.1875
2757.92747	5460.2875
2760.50515	5459.5875
2763.08123	5438.9875
2765.65573	5433.8875
2768.22863	5418.9875
2770.79994	5406.1875
2773.36967	5421.3875
2775.9378	5412.4875
2778.50435	5398.9875
2781.06932	5395.3875
2783.6327	5386.8875
2786.1945	5383.4875
2788.75471	5387.7875
2791.31335	5362.9875
2793.87041	5363.7875
2796.42589	5351.7875
2798.97979	5344.9875
2801.53212	5334.7875
2804.08288	5350.2875
2806.63206	5324.9875
2809.17967	5345.4875
2811.72571	5321.1875
2814.27018	5317.0875
2816.81308	5323.6875
2819.35442	5337.7875
2821.89419	5324.4875
2824.43239	5343.8875
2826.96904	5335.4875
2829.50412	5332.9875
2832.03763	5322.6875
2834.56959	5334.7875
2837.1	5317.3875
2839.62884	5341.4875
2842.15613	5328.5875
2844.68186	5355.8875
2847.20604	5377.4875
2849.72867	5372.7875
2852.24974	5379.8875
2854.76927	5374.3875
2857.28724	5369.7875
2859.80367	5380.4875
2862.31855	5344.7875
2864.83189	5339.6875
2867.34368	5332.8875
2869.85393	5340.5875
2872.36264	5339.7875
2874.8698	5330.2875
2877.37543	5331.8875
2879.87952	5331.7875
2882.38207	5310.9875
2884.88308	5331.4875
2887.38256	5346.7875
2889.88051	5330.6875
2892.37692	5327.2875
2894.8718	5320.3875
2897.36515	5318.5875
2899.85698	5318.6875
2902.34727	5344.7875
2904.83604	5339.3875
2907.32328	5321.4875
2909.809	5324.1875
2912.29319	5332.7875
2914.77587	5345.3875
2917.25702	5319.1875
2919.73665	5302.3875
2922.21476	5302.7875
2924.69136	5289.6875
2927.16644	5303.2875
2929.64	5303.1875
2932.11205	5300.7875
2934.58258	5274.7875
2937.05161	5267.2875
2939.51912	5249.2875
2941.98513	5241.6875
2944.44962	5229.5875
2946.91261	5193.0875
2949.37409	5199.6875
2951.83407	5184.4875
2954.29254	5168.7875
2956.74951	5169.7875
2959.20498	5172.7875
2961.65895	5154.8875
2964.11142	5139.3875
2966.56239	5120.3875
2969.01186	5129.0875
2971.45984	5112.9875
2973.90632	5076.2875
2976.35131	5072.1875
2978.7948	5047.8875
2981.23681	5032.1875
2983.67732	5030.7875
2986.11635	5015.5875
2988.55388	5009.3875
2990.98993	5012.2875
2993.4245	4987.8875
2995.85758	4990.1875
2998.28917	4975.1875
3000.71928	4958.1875
3003.14791	4960.1875
3005.57506	4954.0875
3008.00073	4948.4875
3010.42493	4939.3875
3012.84764	4935.1875
3015.26888	4935.2875
3017.68865	4925.7875
3020.10694	4925.7875
3022.52376	4903.8875
3024.9391	4893.2875
3027.35298	4885.8875
3029.76539	4875.5875
3032.17632	4878.3875
3034.5858	4860.8875
3036.9938	4847.5875
3039.40034	4840.8875
3041.80542	4831.4875
3044.20903	4829.6875
3046.61118	4826.1875
3049.01187	4809.6875
3051.4111	4797.7875
3053.80888	4797.0875
3056.20519	4801.5875
3058.60005	4779.7875
3060.99345	4764.6875
3063.3854	4764.9875
3065.7759	4762.8875
3068.16494	4753.4875
3070.55254	4713.3875
3072.93868	4729.9875
3075.32338	4704.2875
3077.70662	4700.4875
3080.08842	4683.6875
3082.46878	4666.7875
3084.84769	4664.8875
3087.22515	4673.3875
3089.60118	4652.4875
3091.97576	4654.2875
3094.3489	4663.6875
3096.72061	4639.6875
3099.09087	4656.9875
3101.4597	4635.8875
3103.82709	4651.1875
