Data from AgNPs_FTO_APTES_UA_50uM_R6G_10uM_NaF_0.1M_Addition_RamanShift__26__15-06-37-429.txt Node

Date: Fri Dec 17 15:06:37 GMT 2021
User: TCL
Spectrometer: QEP01345
Trigger mode: 4
Integration Time (sec): 7.000000E0
Scans to average: 10
Electric dark correction enabled: true
Nonlinearity correction enabled: false
Boxcar width: 0
XAxis mode: Raman Shifts
Number of Pixels in Spectrum: 1044
>>>>>Begin Spectral Data<<<<<
46.04893	0.625
50.45542	-0.675
54.85868	-1.375
59.25871	0.325
63.6555	87.725
68.04907	85.725
72.43941	94.325
76.82654	96.225
81.21044	98.725
85.59113	100.225
89.96862	106.625
94.34289	111.725
98.71396	112.525
103.08183	115.625
107.4465	120.125
111.80798	123.025
116.16626	124.625
120.52136	128.725
124.87327	139.125
129.222	139.425
133.56755	150.625
137.90993	160.625
142.24913	176.325
146.58517	193.325
150.91804	218.025
155.24774	258.825
159.57429	327.025
163.89768	410.425
168.21792	538.625
172.53501	719.825
176.84895	1011.425
181.15975	1405.025
185.46741	1953.925
189.77193	2707.025
194.07331	3603.625
198.37157	4639.325
202.6667	5732.125
206.9587	6802.925
211.24758	7854.925
215.53334	8948.425
219.81599	10042.025
224.09553	11336.325
228.37195	12742.825
232.64527	14305.425
236.91549	15989.325
241.18261	17616.325
245.44663	19130.425
249.70755	20441.325
253.96539	21602.325
258.22014	22589.325
262.4718	23378.425
266.72039	24007.425
270.96589	24390.225
275.20832	24495.425
279.44768	24394.525
283.68397	24216.025
287.91719	24020.925
292.14735	23932.025
296.37445	23980.125
300.59849	24205.625
304.81948	24424.825
309.03742	24498.025
313.25231	24273.725
317.46415	23612.525
321.67296	22743.825
325.87872	22004.225
330.08145	21662.625
334.28114	21679.725
338.47781	21938.325
342.67145	22265.925
346.86207	22811.025
351.04966	23451.725
355.23424	24158.825
359.4158	24766.325
363.59435	25156.925
367.76989	25367.825
371.94243	25574.325
376.11196	25628.925
380.27849	25750.025
384.44203	25801.625
388.60257	25881.825
392.76012	25976.525
396.91468	26262.025
401.06626	26734.525
405.21485	27159.125
409.36047	27021.125
413.50311	26484.325
417.64277	25996.525
421.77947	25731.125
425.9132	25748.025
430.04396	25872.325
434.17176	26006.325
438.2966	26230.725
442.41849	26685.625
446.53742	27285.525
450.6534	27963.425
454.76644	28514.825
458.87653	28728.825
462.98368	28695.625
467.08789	28388.625
471.18916	28004.725
475.2875	27571.125
479.38291	27208.625
483.4754	26832.925
487.56496	26519.625
491.6516	26227.325
495.73531	26016.425
499.81612	25974.325
503.89401	26184.325
507.96899	26218.225
512.04106	26304.725
516.11023	26377.625
520.1765	26408.625
524.23987	26306.225
528.30034	26066.425
532.35792	25811.425
536.41261	25531.925
540.46441	25238.825
544.51333	25193.125
548.55936	25386.125
552.60252	25826.525
556.64279	26290.325
560.6802	26610.725
564.71473	26740.025
568.7464	27139.525
572.7752	27644.225
576.80114	27720.325
580.82422	27732.625
584.84444	27827.025
588.86181	27978.225
592.87633	28238.625
596.888	28534.925
600.89682	29060.525
604.9028	30671.725
608.90594	34608.425
612.90624	38936.525
616.90371	37123.725
620.89834	30254.725
624.89015	27117.325
628.87913	26520.125
632.86528	26659.025
636.84862	26718.725
640.82913	26442.625
644.80683	25758.625
648.78172	25235.825
652.75379	25180.925
656.72306	25611.625
660.68952	26205.325
664.65319	26103.825
668.61405	25591.325
672.57211	25387.625
676.52738	25434.625
680.47986	25389.725
684.42955	25299.425
688.37646	25208.325
692.32058	25298.725
696.26192	25520.325
700.20048	25788.525
704.13626	25915.025
708.06928	25848.625
711.99952	25626.525
715.927	25553.525
719.85171	25582.425
723.77365	25501.325
727.69284	25336.125
731.60928	25126.125
735.52295	25095.225
739.43388	25161.525
743.34206	25253.925
747.24749	25415.225
751.15017	25561.225
755.05012	25996.825
758.94733	26779.525
762.8418	28283.725
766.73354	30766.425
770.62254	33313.325
774.50882	34330.725
778.39237	32889.325
782.27321	30048.125
786.15132	27615.825
790.02671	26194.825
793.89938	25509.625
797.76935	25219.825
801.6366	25118.225
805.50115	25053.825
809.36299	25021.525
813.22213	24907.125
817.07857	24899.425
820.93231	24844.625
824.78336	24840.025
828.63172	24860.325
832.47738	24816.825
836.32036	24851.825
840.16066	24843.925
843.99827	24862.525
847.8332	24856.325
851.66546	24795.425
855.49504	24726.825
859.32195	24729.425
863.1462	24654.225
866.96777	24596.225
870.78668	24528.825
874.60293	24544.925
878.41652	24590.725
882.22745	24689.825
886.03573	24755.925
889.84136	24730.325
893.64433	24608.125
897.44466	24521.225
901.24235	24456.025
905.0374	24387.425
908.8298	24362.925
912.61957	24426.525
916.40671	24595.725
920.19121	24788.425
923.97308	25023.325
927.75233	25102.525
931.52895	25105.425
935.30295	24855.925
939.07433	24458.625
942.84309	24133.225
946.60924	24007.325
950.37278	23910.625
954.13371	23770.125
957.89203	23656.625
961.64774	23631.025
965.40086	23536.325
969.15137	23502.825
972.89929	23434.925
976.64461	23392.925
980.38733	23423.525
984.12747	23547.625
987.86502	23710.525
991.59999	23895.125
995.33237	24231.425
999.06217	24825.825
1002.78939	25513.825
1006.51404	26131.525
1010.23611	26625.725
1013.95561	26947.725
1017.67255	26983.625
1021.38692	26749.525
1025.09872	26589.125
1028.80796	26614.425
1032.51465	26986.525
1036.21877	27329.625
1039.92035	27368.825
1043.61937	27174.725
1047.31584	26709.725
1051.00976	26194.725
1054.70114	25880.525
1058.38998	25876.525
1062.07627	25991.525
1065.76003	26217.725
1069.44126	26432.725
1073.11995	26704.425
1076.79611	26887.525
1080.46974	27079.225
1084.14085	27199.825
1087.80943	27450.125
1091.47549	27626.025
1095.13903	27433.625
1098.80005	27002.225
1102.45857	26519.425
1106.11456	26208.125
1109.76805	26179.025
1113.41903	26378.425
1117.06751	26721.325
1120.71348	27136.625
1124.35696	27535.525
1127.99793	27964.625
1131.63641	28119.725
1135.2724	27754.725
1138.90589	27355.025
1142.5369	27086.025
1146.16542	26883.525
1149.79145	26804.725
1153.415	26925.825
1157.03607	27145.625
1160.65467	27645.225
1164.27079	28436.825
1167.88443	29576.325
1171.49561	31197.525
1175.10432	33498.925
1178.71056	36480.625
1182.31434	39158.025
1185.91565	40605.525
1189.51451	40693.325
1193.11091	39502.825
1196.70485	37664.225
1200.29634	35905.925
1203.88538	34452.725
1207.47197	33115.425
1211.05612	31970.625
1214.63782	31349.725
1218.21708	31141.425
1221.79391	31222.525
1225.36829	31298.625
1228.94024	31217.025
1232.50976	31215.825
1236.07685	31129.725
1239.6415	31107.525
1243.20374	31132.825
1246.76355	31246.925
1250.32093	31608.125
1253.8759	32263.425
1257.42845	33090.225
1260.97859	33835.425
1264.52631	34457.825
1268.07163	35101.325
1271.61453	35844.125
1275.15503	36653.525
1278.69312	37379.025
1282.22882	37976.525
1285.76211	38635.725
1289.29301	39383.025
1292.82151	40317.025
1296.34761	41442.525
1299.87133	43075.525
1303.39266	45278.625
1306.9116	48135.725
1310.42815	51278.525
1313.94233	53416.825
1317.45412	53623.825
1320.96354	52497.725
1324.47058	51015.325
1327.97525	49468.225
1331.47754	48544.125
1334.97747	48419.825
1338.47502	48857.025
1341.97022	49581.025
1345.46305	49845.225
1348.95352	49846.725
1352.44163	49985.825
1355.92738	51192.825
1359.41078	53988.925
1362.89183	56897.725
1366.37053	56045.625
1369.84688	50861.825
1373.32088	45222.325
1376.79254	41401.325
1380.26186	39484.725
1383.72883	38715.425
1387.19347	38167.625
1390.65578	37614.625
1394.11575	37310.225
1397.57339	37437.925
1401.0287	37999.425
1404.48168	38797.325
1407.93234	39581.625
1411.38068	40050.025
1414.82669	39840.925
1418.27039	38915.425
1421.71177	37660.225
1425.15083	36600.325
1428.58758	35881.625
1432.02203	35681.925
1435.45416	35854.925
1438.88399	36222.325
1442.31151	36553.425
1445.73673	36956.825
1449.15965	37297.025
1452.58027	37503.425
1455.9986	37548.625
1459.41463	37751.725
1462.82837	38169.925
1466.23982	38789.725
1469.64898	39571.925
1473.05586	40020.125
1476.46045	40313.425
1479.86276	40581.625
1483.26279	40846.225
1486.66054	41190.125
1490.05602	41696.025
1493.44922	42318.125
1496.84016	43181.025
1500.22882	44504.225
1503.61521	46319.425
1506.99934	48599.325
1510.38121	50596.725
1513.76081	51320.825
1517.13816	49888.325
1520.51324	46900.725
1523.88607	43882.025
1527.25665	41870.325
1530.62498	40741.125
1533.99105	40099.325
1537.35488	39758.425
1540.71647	39454.125
1544.07581	39128.525
1547.4329	38916.525
1550.78776	38620.525
1554.14038	38511.225
1557.49077	38546.925
1560.83892	38649.625
1564.18484	38740.825
1567.52853	38709.325
1570.86999	38838.925
1574.20922	39007.125
1577.54624	39091.125
1580.88103	38624.925
1584.2136	38064.425
1587.54395	38222.025
1590.87208	39402.425
1594.19801	41424.625
1597.52172	43680.525
1600.84321	44718.425
1604.16251	43649.725
1607.47959	41325.925
1610.79447	38610.425
1614.10715	35970.825
1617.41763	33723.425
1620.7259	32102.525
1624.03199	31270.325
1627.33587	31161.025
1630.63757	31813.425
1633.93707	33255.925
1637.23439	35349.025
1640.52951	38083.825
1643.82246	41048.725
1647.11321	43487.725
1650.40179	44270.925
1653.68819	42347.225
1656.97241	38155.925
1660.25446	33660.625
1663.53433	30366.225
1666.81203	28195.725
1670.08756	26869.325
1673.36092	26009.025
1676.63211	25377.825
1679.90115	24981.725
1683.16801	24672.225
1686.43272	24409.825
1689.69527	24223.225
1692.95567	24074.525
1696.2139	24008.825
1699.46999	23972.825
1702.72392	23892.725
1705.97571	23821.125
1709.22535	23769.225
1712.47284	23762.925
1715.71819	23733.825
1718.96139	23664.625
1722.20246	23613.825
1725.44139	23505.225
1728.67818	23414.625
1731.91284	23303.825
1735.14537	23218.825
1738.37576	23133.325
1741.60403	23052.525
1744.83017	23000.925
1748.05418	22943.825
1751.27607	22899.125
1754.49584	22925.325
1757.71349	22930.025
1760.92903	22884.125
1764.14244	22849.425
1767.35375	22868.825
1770.56294	22853.225
1773.77002	22807.525
1776.97499	22820.125
1780.17785	22776.525
1783.37861	22737.325
1786.57727	22723.125
1789.77382	22723.425
1792.96828	22632.225
1796.16064	22642.825
1799.3509	22615.625
1802.53907	22620.325
1805.72514	22530.525
1808.90913	22471.425
1812.09102	22472.525
1815.27083	22418.125
1818.44856	22427.025
1821.6242	22373.925
1824.79776	22343.925
1827.96924	22340.225
1831.13864	22345.425
1834.30597	22321.325
1837.47122	22346.325
1840.6344	22338.025
1843.7955	22369.725
1846.95454	22330.325
1850.11151	22387.425
1853.26642	22349.625
1856.41926	22385.525
1859.57004	22408.725
1862.71876	22400.125
1865.86542	22401.625
1869.01003	22396.925
1872.15258	22404.025
1875.29308	22395.125
1878.43152	22364.725
1881.56792	22411.925
1884.70227	22373.025
1887.83457	22395.525
1890.96482	22410.425
1894.09304	22379.625
1897.21921	22407.425
1900.34335	22409.225
1903.46544	22382.825
1906.58551	22451.425
1909.70353	22405.925
1912.81953	22392.825
1915.93349	22386.925
1919.04543	22327.525
1922.15534	22277.525
1925.26322	22294.725
1928.36908	22195.725
1931.47292	22176.625
1934.57473	22080.325
1937.67453	22021.625
1940.77232	21980.425
1943.86808	21896.825
1946.96184	21829.425
1950.05358	21747.225
1953.14331	21696.425
1956.23103	21644.325
1959.31675	21568.025
1962.40046	21521.125
1965.48217	21459.025
1968.56188	21405.825
1971.63959	21356.525
1974.7153	21285.225
1977.78901	21223.625
1980.86073	21172.825
1983.93046	21158.825
1986.99819	21058.425
1990.06394	20980.825
1993.1277	20930.925
1996.18947	20859.425
1999.24925	20837.725
2002.30706	20781.525
2005.36288	20702.725
2008.41672	20666.825
2011.46859	20600.925
2014.51848	20556.925
2017.56639	20531.525
2020.61233	20464.725
2023.6563	20443.025
2026.6983	20392.925
2029.73833	20352.725
2032.7764	20311.425
2035.8125	20286.025
2038.84664	20278.425
2041.87881	20272.525
2044.90903	20204.225
2047.93729	20200.625
2050.96359	20196.125
2053.98794	20166.225
2057.01034	20096.025
2060.03078	20089.025
2063.04927	20090.925
2066.06582	20065.825
2069.08042	20066.525
2072.09307	20067.425
2075.10378	20089.125
2078.11255	20028.425
2081.11938	20002.825
2084.12426	20012.225
2087.12722	20012.125
2090.12824	19993.025
2093.12732	20028.725
2096.12447	20007.025
2099.11969	20019.825
2102.11299	19995.725
2105.10435	20044.425
2108.09379	20031.125
2111.08131	20060.125
2114.0669	20075.725
2117.05057	20119.925
2120.03233	20120.525
2123.01216	20128.325
2125.99008	20134.725
2128.96609	20141.525
2131.94018	20195.625
2134.91236	20164.025
2137.88263	20190.725
2140.851	20206.225
2143.81746	20250.425
2146.78201	20246.125
2149.74466	20281.425
2152.7054	20273.725
2155.66425	20261.825
2158.6212	20280.625
2161.57625	20256.625
2164.52941	20288.625
2167.48067	20279.125
2170.43004	20273.625
2173.37752	20257.725
2176.32311	20262.825
2179.26681	20243.725
2182.20863	20255.325
2185.14856	20236.925
2188.08661	20286.525
2191.02278	20282.425
2193.95707	20253.425
2196.88948	20249.825
2199.82001	20280.525
2202.74867	20248.325
2205.67545	20256.625
2208.60037	20241.125
2211.52341	20193.825
2214.44458	20171.825
2217.36388	20133.425
2220.28132	20129.225
2223.1969	20090.325
2226.11061	20087.125
2229.02246	20031.125
2231.93245	20003.125
2234.84058	19984.625
2237.74686	19930.025
2240.65128	19934.225
2243.55385	19874.025
2246.45456	19889.825
2249.35343	19861.925
2252.25044	19882.125
2255.14561	19842.725
2258.03893	19823.225
2260.93041	19792.725
2263.82004	19767.825
2266.70783	19723.625
2269.59378	19680.625
2272.4779	19639.025
2275.36017	19568.325
2278.24061	19560.425
2281.11922	19559.225
2283.996	19535.725
2286.87094	19488.225
2289.74405	19454.525
2292.61534	19434.825
2295.4848	19434.625
2298.35243	19421.025
2301.21824	19408.725
2304.08223	19432.925
2306.94439	19440.725
2309.80474	19415.725
2312.66327	19469.325
2315.51999	19439.725
2318.37489	19467.125
2321.22797	19412.825
2324.07925	19437.925
2326.92871	19398.625
2329.77637	19431.925
2332.62222	19383.525
2335.46626	19374.925
2338.3085	19393.625
2341.14893	19378.725
2343.98756	19360.325
2346.8244	19368.625
2349.65943	19371.425
2352.49267	19388.125
2355.32411	19364.425
2358.15376	19357.625
2360.98161	19350.925
2363.80768	19334.525
2366.63195	19339.425
2369.45444	19271.225
2372.27514	19260.425
2375.09405	19227.225
2377.91118	19229.525
2380.72652	19158.025
2383.54009	19146.125
2386.35187	19133.525
2389.16188	19067.625
2391.97011	19027.825
2394.77657	19006.025
2397.58125	18973.625
2400.38416	18991.725
2403.18529	18904.525
2405.98466	18931.825
2408.78226	18913.725
2411.57809	18886.425
2414.37216	18841.025
2417.16446	18834.125
2419.955	18780.025
2422.74378	18785.525
2425.5308	18761.225
2428.31606	18760.425
2431.09956	18747.425
2433.88131	18753.225
2436.6613	18725.225
2439.43954	18719.925
2442.21603	18698.625
2444.99077	18684.925
2447.76377	18697.925
2450.53501	18682.525
2453.30451	18689.425
2456.07226	18659.325
2458.83827	18616.325
2461.60254	18615.425
2464.36507	18641.225
2467.12586	18621.625
2469.88492	18641.125
2472.64224	18642.025
2475.39782	18636.225
2478.15167	18619.725
2480.90379	18661.125
2483.65417	18670.625
2486.40283	18672.625
2489.14976	18684.625
2491.89497	18695.925
2494.63845	18721.025
2497.3802	18717.525
2500.12024	18735.525
2502.85855	18705.925
2505.59514	18724.725
2508.33002	18691.125
2511.06318	18672.025
2513.79462	18646.525
2516.52435	18652.225
2519.25237	18630.725
2521.97867	18583.225
2524.70327	18569.025
2527.42616	18524.125
2530.14734	18544.325
2532.86681	18535.025
2535.58458	18498.025
2538.30065	18481.825
2541.01501	18495.225
2543.72768	18468.725
2546.43864	18431.125
2549.14791	18402.525
2551.85548	18412.125
2554.56136	18370.025
2557.26554	18375.525
2559.96803	18355.225
2562.66883	18340.225
2565.36794	18311.425
2568.06536	18348.425
2570.7611	18339.125
2573.45514	18301.825
2576.14751	18296.325
2578.83819	18261.525
2581.52719	18287.025
2584.21451	18277.625
2586.90015	18281.025
2589.58411	18263.725
2592.2664	18241.325
2594.94701	18207.625
2597.62594	18223.425
2600.30321	18192.525
2602.9788	18193.025
2605.65273	18183.525
2608.32498	18184.925
2610.99557	18150.325
2613.66449	18171.025
2616.33175	18169.725
2618.99734	18222.625
2621.66128	18181.125
2624.32355	18159.525
2626.98416	18170.825
2629.64311	18153.325
2632.30041	18166.825
2634.95605	18188.725
2637.61004	18149.225
2640.26238	18154.825
2642.91306	18117.625
2645.56209	18088.425
2648.20948	18073.125
2650.85521	18056.925
2653.4993	18080.825
2656.14175	18079.925
2658.78255	18100.425
2661.42171	18093.325
2664.05923	18140.125
2666.6951	18100.225
2669.32934	18134.725
2671.96194	18154.725
2674.59291	18182.825
2677.22224	18163.325
2679.84993	18192.025
2682.476	18193.425
2685.10043	18206.325
2687.72324	18176.025
2690.34441	18164.025
2692.96396	18171.825
2695.58188	18194.825
2698.19818	18183.225
2700.81285	18194.125
2703.4259	18166.525
2706.03733	18163.025
2708.64714	18167.125
2711.25533	18219.925
2713.86191	18177.125
2716.46687	18211.525
2719.07021	18206.125
2721.67194	18214.725
2724.27206	18217.325
2726.87057	18187.725
2729.46747	18199.925
2732.06276	18219.225
2734.65644	18222.825
2737.24852	18222.525
2739.83899	18191.725
2742.42786	18222.125
2745.01513	18161.925
2747.60079	18206.625
2750.18486	18204.425
2752.76733	18226.225
2755.3482	18181.725
2757.92747	18229.225
2760.50515	18178.225
2763.08123	18194.025
2765.65573	18133.725
2768.22863	18129.425
2770.79994	18101.625
2773.36967	18131.025
2775.9378	18115.325
2778.50435	18107.525
2781.06932	18077.125
2783.6327	18116.725
2786.1945	18093.125
2788.75471	18095.625
2791.31335	18006.425
2793.87041	18023.425
2796.42589	17972.325
2798.97979	17944.925
2801.53212	17905.725
2804.08288	17920.225
2806.63206	17886.725
2809.17967	17869.125
2811.72571	17864.625
2814.27018	17894.925
2816.81308	17834.225
2819.35442	17813.925
2821.89419	17797.025
2824.43239	17791.525
2826.96904	17766.825
2829.50412	17781.825
2832.03763	17760.225
2834.56959	17758.625
2837.1	17724.025
2839.62884	17755.625
2842.15613	17700.025
2844.68186	17754.825
2847.20604	17723.825
2849.72867	17704.725
2852.24974	17702.725
2854.76927	17665.425
2857.28724	17637.725
2859.80367	17632.025
2862.31855	17617.425
2864.83189	17592.525
2867.34368	17544.625
2869.85393	17589.225
2872.36264	17581.225
2874.8698	17572.425
2877.37543	17588.825
2879.87952	17589.625
2882.38207	17589.525
2884.88308	17569.125
2887.38256	17607.525
2889.88051	17599.625
2892.37692	17596.525
2894.8718	17593.025
2897.36515	17604.025
2899.85698	17640.025
2902.34727	17643.625
2904.83604	17653.325
2907.32328	17665.925
2909.809	17635.625
2912.29319	17695.725
2914.77587	17689.225
2917.25702	17649.925
2919.73665	17657.625
2922.21476	17661.625
2924.69136	17631.525
2927.16644	17633.325
2929.64	17615.025
2932.11205	17606.825
2934.58258	17554.325
2937.05161	17600.225
2939.51912	17583.825
2941.98513	17562.625
2944.44962	17542.225
2946.91261	17509.025
2949.37409	17558.625
2951.83407	17509.825
2954.29254	17493.425
2956.74951	17491.025
2959.20498	17470.925
2961.65895	17439.325
2964.11142	17455.225
2966.56239	17393.025
2969.01186	17409.125
2971.45984	17363.825
2973.90632	17321.125
2976.35131	17293.525
2978.7948	17244.225
2981.23681	17243.125
2983.67732	17191.425
2986.11635	17125.325
2988.55388	17103.625
2990.98993	17097.725
2993.4245	17069.225
2995.85758	17046.625
2998.28917	17023.025
3000.71928	16986.225
3003.14791	16960.725
3005.57506	16971.925
3008.00073	16872.625
3010.42493	16918.825
3012.84764	16868.525
3015.26888	16856.725
3017.68865	16814.325
3020.10694	16811.525
3022.52376	16792.925
3024.9391	16755.525
3027.35298	16711.625
3029.76539	16678.325
3032.17632	16654.025
3034.5858	16658.325
3036.9938	16675.525
3039.40034	16601.325
3041.80542	16621.225
3044.20903	16582.425
3046.61118	16561.825
3049.01187	16496.925
3051.4111	16547.025
3053.80888	16472.125
3056.20519	16466.625
3058.60005	16428.625
3060.99345	16401.825
3063.3854	16369.325
3065.7759	16315.825
3068.16494	16285.425
3070.55254	16222.425
3072.93868	16215.225
3075.32338	16169.625
3077.70662	16146.725
3080.08842	16100.425
3082.46878	16096.825
3084.84769	16064.225
3087.22515	16078.325
3089.60118	16051.525
3091.97576	16046.625
3094.3489	16029.325
3096.72061	16036.725
3099.09087	16016.825
3101.4597	15993.725
3103.82709	15964.025
3106.19305	15939.025
3108.55757	15932.725
3110.92066	15878.125
3113.28232	15891.425
3115.64255	15825.025
3118.00134	15786.325
3120.35871	15775.525
3122.71466	15751.625
3125.06917	15716.625
3127.42226	15683.325
