Data from AgNPs_FTO_APTES_UA_50uM_R6G_10uM_NaF_0.1M_Addition_RamanShift__15__14-53-47-414.txt Node

Date: Fri Dec 17 14:53:47 GMT 2021
User: TCL
Spectrometer: QEP01345
Trigger mode: 4
Integration Time (sec): 7.000000E0
Scans to average: 10
Electric dark correction enabled: true
Nonlinearity correction enabled: false
Boxcar width: 0
XAxis mode: Raman Shifts
Number of Pixels in Spectrum: 1044
>>>>>Begin Spectral Data<<<<<
46.04893	-0.5625
50.45542	-0.9625
54.85868	-1.6625
59.25871	0.0375
63.6555	93.5375
68.04907	96.6375
72.43941	102.0375
76.82654	104.0375
81.21044	107.4375
85.59113	108.7375
89.96862	117.1375
94.34289	117.8375
98.71396	123.3375
103.08183	124.9375
107.4465	133.9375
111.80798	132.1375
116.16626	136.8375
120.52136	143.0375
124.87327	148.4375
129.222	159.4375
133.56755	167.5375
137.90993	185.6375
142.24913	197.6375
146.58517	221.8375
150.91804	260.9375
155.24774	308.4375
159.57429	383.8375
163.89768	494.5375
168.21792	652.4375
172.53501	880.2375
176.84895	1224.2375
181.15975	1730.2375
185.46741	2439.0375
189.77193	3349.8375
194.07331	4498.1375
198.37157	5788.3375
202.6667	7143.5375
206.9587	8507.3375
211.24758	9841.7375
215.53334	11161.4375
219.81599	12563.8375
224.09553	14111.3375
228.37195	15829.1375
232.64527	17726.2375
236.91549	19720.8375
241.18261	21735.9375
245.44663	23644.0375
249.70755	25269.4375
253.96539	26747.8375
258.22014	27928.7375
262.4718	28960.8375
266.72039	29658.9375
270.96589	30063.9375
275.20832	30079.6375
279.44768	29899.5375
283.68397	29671.7375
287.91719	29359.7375
292.14735	29187.1375
296.37445	29181.5375
300.59849	29360.8375
304.81948	29538.6375
309.03742	29520.9375
313.25231	29309.3375
317.46415	28679.5375
321.67296	27853.6375
325.87872	27076.4375
330.08145	26757.4375
334.28114	26746.9375
338.47781	26970.3375
342.67145	27334.1375
346.86207	27753.6375
351.04966	28302.0375
355.23424	28924.9375
359.4158	29490.1375
363.59435	29792.3375
367.76989	30047.9375
371.94243	30223.7375
376.11196	30317.2375
380.27849	30440.9375
384.44203	30631.5375
388.60257	30785.3375
392.76012	31038.0375
396.91468	31373.2375
401.06626	31797.6375
405.21485	32108.7375
409.36047	31973.2375
413.50311	31509.3375
417.64277	31054.2375
421.77947	30831.7375
425.9132	30854.5375
430.04396	30947.9375
434.17176	31043.3375
438.2966	31251.7375
442.41849	31574.5375
446.53742	32192.0375
450.6534	32842.1375
454.76644	33425.8375
458.87653	33632.1375
462.98368	33651.5375
467.08789	33455.5375
471.18916	33144.2375
475.2875	32786.4375
479.38291	32441.1375
483.4754	32047.3375
487.56496	31684.0375
491.6516	31323.2375
495.73531	31093.5375
499.81612	31041.2375
503.89401	31331.9375
507.96899	31482.0375
512.04106	31521.7375
516.11023	31516.7375
520.1765	31365.7375
524.23987	31199.0375
528.30034	30923.7375
532.35792	30676.5375
536.41261	30393.5375
540.46441	30122.5375
544.51333	30061.5375
548.55936	30356.3375
552.60252	30836.8375
556.64279	31462.7375
560.6802	31836.1375
564.71473	31975.1375
568.7464	32392.4375
572.7752	32923.4375
576.80114	33230.1375
580.82422	33649.9375
584.84444	33981.6375
588.86181	34160.3375
592.87633	34305.7375
596.888	34376.5375
600.89682	34592.1375
604.9028	35967.7375
608.90594	39279.3375
612.90624	42739.0375
616.90371	40528.3375
620.89834	34266.2375
624.89015	31355.5375
628.87913	30844.9375
632.86528	31060.7375
636.84862	31207.7375
640.82913	30984.9375
644.80683	30342.2375
648.78172	29731.4375
652.75379	29623.0375
656.72306	29960.1375
660.68952	30460.7375
664.65319	30346.7375
668.61405	29839.2375
672.57211	29704.9375
676.52738	29792.9375
680.47986	29775.7375
684.42955	29643.1375
688.37646	29498.0375
692.32058	29615.2375
696.26192	29838.6375
700.20048	30163.1375
704.13626	30321.1375
708.06928	30297.7375
711.99952	30109.9375
715.927	30038.2375
719.85171	30031.1375
723.77365	29951.9375
727.69284	29683.9375
731.60928	29437.7375
735.52295	29272.7375
739.43388	29259.3375
743.34206	29343.4375
747.24749	29434.3375
751.15017	29598.0375
755.05012	29937.9375
758.94733	30689.2375
762.8418	32160.2375
766.73354	34555.6375
770.62254	37034.1375
774.50882	37826.0375
778.39237	36503.5375
782.27321	33962.6375
786.15132	31736.0375
790.02671	30341.9375
793.89938	29639.8375
797.76935	29344.9375
801.6366	29209.8375
805.50115	29082.9375
809.36299	28915.8375
813.22213	28711.5375
817.07857	28576.7375
820.93231	28512.3375
824.78336	28440.4375
828.63172	28449.9375
832.47738	28386.0375
836.32036	28345.8375
840.16066	28350.3375
843.99827	28327.0375
847.8332	28296.5375
851.66546	28271.7375
855.49504	28306.7375
859.32195	28325.3375
863.1462	28263.9375
866.96777	28237.0375
870.78668	28192.6375
874.60293	28197.1375
878.41652	28234.0375
882.22745	28291.1375
886.03573	28412.6375
889.84136	28402.7375
893.64433	28319.5375
897.44466	28187.1375
901.24235	28133.6375
905.0374	28024.3375
908.8298	27893.4375
912.61957	27847.9375
916.40671	28062.6375
920.19121	28254.1375
923.97308	28441.7375
927.75233	28486.9375
931.52895	28394.2375
935.30295	28129.5375
939.07433	27740.0375
942.84309	27407.2375
946.60924	27250.0375
950.37278	27173.4375
954.13371	27073.7375
957.89203	27061.8375
961.64774	27016.6375
965.40086	26946.9375
969.15137	26905.2375
972.89929	26832.1375
976.64461	26803.8375
980.38733	26802.4375
984.12747	26894.0375
987.86502	27067.7375
991.59999	27242.0375
995.33237	27534.4375
999.06217	27934.3375
1002.78939	28443.2375
1006.51404	28866.9375
1010.23611	29239.9375
1013.95561	29502.6375
1017.67255	29544.2375
1021.38692	29317.6375
1025.09872	29010.2375
1028.80796	28811.1375
1032.51465	28859.6375
1036.21877	29052.7375
1039.92035	29126.4375
1043.61937	29131.1375
1047.31584	28982.5375
1051.00976	28801.5375
1054.70114	28778.8375
1058.38998	28955.0375
1062.07627	29147.9375
1065.76003	29470.9375
1069.44126	29825.1375
1073.11995	30245.6375
1076.79611	30610.6375
1080.46974	30863.0375
1084.14085	30985.0375
1087.80943	31265.9375
1091.47549	31436.4375
1095.13903	31486.2375
1098.80005	31150.7375
1102.45857	30601.9375
1106.11456	30188.8375
1109.76805	29971.0375
1113.41903	30012.5375
1117.06751	30184.9375
1120.71348	30458.7375
1124.35696	30830.9375
1127.99793	31216.4375
1131.63641	31361.6375
1135.2724	31218.5375
1138.90589	30967.5375
1142.5369	30775.4375
1146.16542	30744.2375
1149.79145	30710.5375
1153.415	30864.8375
1157.03607	31176.7375
1160.65467	31763.1375
1164.27079	32837.3375
1167.88443	34195.2375
1171.49561	35961.3375
1175.10432	38247.6375
1178.71056	41061.9375
1182.31434	43810.1375
1185.91565	45526.1375
1189.51451	45954.9375
1193.11091	45297.2375
1196.70485	43777.9375
1200.29634	41957.7375
1203.88538	40284.4375
1207.47197	38832.7375
1211.05612	37628.1375
1214.63782	36764.6375
1218.21708	36185.3375
1221.79391	35829.0375
1225.36829	35603.3375
1228.94024	35452.3375
1232.50976	35136.7375
1236.07685	34999.9375
1239.6415	34891.7375
1243.20374	34821.0375
1246.76355	35000.3375
1250.32093	35366.8375
1253.8759	35948.9375
1257.42845	36770.1375
1260.97859	37724.2375
1264.52631	38594.4375
1268.07163	39505.4375
1271.61453	40429.9375
1275.15503	41242.7375
1278.69312	42020.6375
1282.22882	42670.2375
1285.76211	43375.9375
1289.29301	44094.0375
1292.82151	45234.0375
1296.34761	46578.6375
1299.87133	48325.7375
1303.39266	50507.8375
1306.9116	53052.6375
1310.42815	55740.4375
1313.94233	57441.9375
1317.45412	57568.9375
1320.96354	56773.7375
1324.47058	55889.8375
1327.97525	55088.8375
1331.47754	54660.8375
1334.97747	54684.7375
1338.47502	55092.9375
1341.97022	55768.8375
1345.46305	56296.1375
1348.95352	56567.0375
1352.44163	56630.0375
1355.92738	56921.5375
1359.41078	58295.3375
1362.89183	59771.7375
1366.37053	58564.9375
1369.84688	53845.4375
1373.32088	48694.3375
1376.79254	45051.7375
1380.26186	43326.0375
1383.72883	42695.9375
1387.19347	42326.5375
1390.65578	41788.8375
1394.11575	41398.3375
1397.57339	41331.4375
1401.0287	41612.5375
1404.48168	41992.2375
1407.93234	42223.9375
1411.38068	42003.2375
1414.82669	41396.3375
1418.27039	40278.9375
1421.71177	39149.9375
1425.15083	38265.0375
1428.58758	37740.8375
1432.02203	37822.7375
1435.45416	38320.0375
1438.88399	39060.3375
1442.31151	39652.5375
1445.73673	40079.6375
1449.15965	40493.0375
1452.58027	40775.0375
1455.9986	40996.7375
1459.41463	41390.0375
1462.82837	42039.2375
1466.23982	42680.7375
1469.64898	43285.7375
1473.05586	43644.0375
1476.46045	43717.4375
1479.86276	43527.0375
1483.26279	43329.1375
1486.66054	43260.9375
1490.05602	43571.2375
1493.44922	44128.1375
1496.84016	45068.6375
1500.22882	46648.5375
1503.61521	48794.4375
1506.99934	51266.0375
1510.38121	53189.6375
1513.76081	53520.0375
1517.13816	52024.8375
1520.51324	49295.3375
1523.88607	46808.3375
1527.25665	45106.6375
1530.62498	44339.3375
1533.99105	43941.7375
1537.35488	43574.8375
1540.71647	43043.8375
1544.07581	42500.2375
1547.4329	41877.1375
1550.78776	41327.4375
1554.14038	40997.9375
1557.49077	40848.0375
1560.83892	40814.2375
1564.18484	40894.3375
1567.52853	41038.0375
1570.86999	41362.6375
1574.20922	41749.5375
1577.54624	42097.3375
1580.88103	41743.0375
1584.2136	41244.3375
1587.54395	41345.3375
1590.87208	42208.1375
1594.19801	43954.8375
1597.52172	45937.3375
1600.84321	46825.5375
1604.16251	45865.5375
1607.47959	43803.1375
1610.79447	41335.3375
1614.10715	38668.4375
1617.41763	36201.9375
1620.7259	34214.7375
1624.03199	33119.1375
1627.33587	32785.9375
1630.63757	33195.7375
1633.93707	34615.8375
1637.23439	37097.1375
1640.52951	40559.5375
1643.82246	44449.0375
1647.11321	47574.9375
1650.40179	48528.6375
1653.68819	46291.8375
1656.97241	41637.0375
1660.25446	36650.6375
1663.53433	32807.0375
1666.81203	30231.4375
1670.08756	28587.6375
1673.36092	27553.0375
1676.63211	26815.6375
1679.90115	26333.8375
1683.16801	25976.7375
1686.43272	25625.1375
1689.69527	25387.3375
1692.95567	25243.3375
1696.2139	25115.3375
1699.46999	25050.4375
1702.72392	24964.7375
1705.97571	24890.4375
1709.22535	24788.8375
1712.47284	24779.7375
1715.71819	24721.3375
1718.96139	24622.9375
1722.20246	24532.9375
1725.44139	24389.8375
1728.67818	24269.7375
1731.91284	24168.9375
1735.14537	24081.8375
1738.37576	23983.9375
1741.60403	23872.3375
1744.83017	23745.3375
1748.05418	23680.4375
1751.27607	23629.7375
1754.49584	23560.5375
1757.71349	23579.4375
1760.92903	23569.3375
1764.14244	23528.2375
1767.35375	23508.6375
1770.56294	23458.6375
1773.77002	23450.7375
1776.97499	23407.0375
1780.17785	23363.2375
1783.37861	23323.6375
1786.57727	23309.3375
1789.77382	23223.9375
1792.96828	23203.5375
1796.16064	23113.0375
1799.3509	23076.5375
1802.53907	23063.2375
1805.72514	22969.0375
1808.90913	22929.7375
1812.09102	22885.3375
1815.27083	22797.9375
1818.44856	22793.1375
1821.6242	22738.4375
1824.79776	22731.3375
1827.96924	22704.5375
1831.13864	22707.3375
1834.30597	22710.6375
1837.47122	22688.6375
1840.6344	22660.4375
1843.7955	22684.3375
1846.95454	22656.8375
1850.11151	22672.4375
1853.26642	22640.0375
1856.41926	22654.2375
1859.57004	22631.7375
1862.71876	22609.0375
1865.86542	22570.5375
1869.01003	22556.5375
1872.15258	22565.2375
1875.29308	22506.0375
1878.43152	22455.8375
1881.56792	22419.9375
1884.70227	22425.7375
1887.83457	22432.9375
1890.96482	22383.9375
1894.09304	22339.8375
1897.21921	22307.6375
1900.34335	22314.3375
1903.46544	22289.7375
1906.58551	22258.8375
1909.70353	22200.5375
1912.81953	22166.9375
1915.93349	22166.9375
1919.04543	22123.2375
1922.15534	22031.4375
1925.26322	21995.9375
1928.36908	21931.7375
1931.47292	21876.6375
1934.57473	21785.5375
1937.67453	21730.1375
1940.77232	21686.4375
1943.86808	21632.6375
1946.96184	21589.1375
1950.05358	21560.5375
1953.14331	21493.9375
1956.23103	21419.6375
1959.31675	21364.8375
1962.40046	21290.6375
1965.48217	21260.3375
1968.56188	21168.6375
1971.63959	21127.6375
1974.7153	21055.9375
1977.78901	20971.8375
1980.86073	20924.6375
1983.93046	20844.9375
1986.99819	20780.3375
1990.06394	20722.1375
1993.1277	20651.1375
1996.18947	20585.9375
1999.24925	20544.8375
2002.30706	20491.3375
2005.36288	20436.8375
2008.41672	20331.6375
2011.46859	20335.7375
2014.51848	20267.6375
2017.56639	20191.3375
2020.61233	20127.3375
2023.6563	20077.4375
2026.6983	20056.2375
2029.73833	20010.6375
2032.7764	19952.7375
2035.8125	19920.1375
2038.84664	19900.5375
2041.87881	19864.2375
2044.90903	19820.4375
2047.93729	19806.4375
2050.96359	19759.6375
2053.98794	19738.0375
2057.01034	19722.6375
2060.03078	19701.8375
2063.04927	19657.5375
2066.06582	19678.2375
2069.08042	19655.8375
2072.09307	19650.8375
2075.10378	19622.6375
2078.11255	19682.5375
2081.11938	19619.7375
2084.12426	19607.2375
2087.12722	19557.1375
2090.12824	19544.4375
2093.12732	19567.5375
2096.12447	19559.5375
2099.11969	19548.1375
2102.11299	19553.9375
2105.10435	19576.6375
2108.09379	19598.6375
2111.08131	19620.6375
2114.0669	19585.8375
2117.05057	19644.0375
2120.03233	19660.1375
2123.01216	19659.2375
2125.99008	19689.5375
2128.96609	19700.3375
2131.94018	19721.6375
2134.91236	19732.4375
2137.88263	19740.0375
2140.851	19741.4375
2143.81746	19740.9375
2146.78201	19747.5375
2149.74466	19760.4375
2152.7054	19744.9375
2155.66425	19736.8375
2158.6212	19735.9375
2161.57625	19724.2375
2164.52941	19715.3375
2167.48067	19743.3375
2170.43004	19702.5375
2173.37752	19721.0375
2176.32311	19702.4375
2179.26681	19700.5375
2182.20863	19694.3375
2185.14856	19667.1375
2188.08661	19707.1375
2191.02278	19680.7375
2193.95707	19701.9375
2196.88948	19645.9375
2199.82001	19631.4375
2202.74867	19598.1375
2205.67545	19604.8375
2208.60037	19582.7375
2211.52341	19561.1375
2214.44458	19528.9375
2217.36388	19440.1375
2220.28132	19430.9375
2223.1969	19381.1375
2226.11061	19392.4375
2229.02246	19315.1375
2231.93245	19289.4375
2234.84058	19249.8375
2237.74686	19222.0375
2240.65128	19232.1375
2243.55385	19188.8375
2246.45456	19138.0375
2249.35343	19125.0375
2252.25044	19135.6375
2255.14561	19055.4375
2258.03893	19044.5375
2260.93041	19050.1375
2263.82004	18974.9375
2266.70783	18961.8375
2269.59378	18922.4375
2272.4779	18863.1375
2275.36017	18802.6375
2278.24061	18789.5375
2281.11922	18732.1375
2283.996	18717.8375
2286.87094	18724.8375
2289.74405	18629.6375
2292.61534	18623.5375
2295.4848	18604.3375
2298.35243	18564.4375
2301.21824	18615.5375
2304.08223	18598.0375
2306.94439	18570.9375
2309.80474	18568.0375
2312.66327	18581.5375
2315.51999	18514.6375
2318.37489	18533.2375
2321.22797	18500.6375
2324.07925	18483.1375
2326.92871	18499.9375
2329.77637	18484.9375
2332.62222	18407.9375
2335.46626	18389.2375
2338.3085	18379.2375
2341.14893	18361.9375
2343.98756	18344.6375
2346.8244	18333.8375
2349.65943	18336.4375
2352.49267	18333.6375
2355.32411	18344.6375
2358.15376	18318.2375
2360.98161	18310.1375
2363.80768	18337.2375
2366.63195	18286.4375
2369.45444	18307.6375
2372.27514	18268.9375
2375.09405	18237.0375
2377.91118	18217.6375
2380.72652	18160.5375
2383.54009	18116.3375
2386.35187	18077.6375
2389.16188	18037.5375
2391.97011	17995.6375
2394.77657	17987.6375
2397.58125	17916.1375
2400.38416	17913.8375
2403.18529	17900.8375
2405.98466	17906.6375
2408.78226	17832.7375
2411.57809	17830.9375
2414.37216	17783.7375
2417.16446	17811.4375
2419.955	17773.7375
2422.74378	17760.0375
2425.5308	17721.1375
2428.31606	17724.1375
2431.09956	17727.0375
2433.88131	17716.5375
2436.6613	17717.6375
2439.43954	17707.2375
2442.21603	17644.8375
2444.99077	17620.1375
2447.76377	17706.4375
2450.53501	17639.8375
2453.30451	17639.9375
2456.07226	17622.8375
2458.83827	17616.3375
2461.60254	17567.1375
2464.36507	17591.0375
2467.12586	17575.2375
2469.88492	17543.2375
2472.64224	17569.4375
2475.39782	17551.8375
2478.15167	17547.7375
2480.90379	17540.5375
2483.65417	17576.8375
2486.40283	17542.1375
2489.14976	17542.1375
2491.89497	17557.8375
2494.63845	17522.4375
2497.3802	17530.1375
2500.12024	17544.1375
2502.85855	17529.2375
2505.59514	17503.2375
2508.33002	17515.5375
2511.06318	17476.0375
2513.79462	17440.6375
2516.52435	17439.8375
2519.25237	17411.8375
2521.97867	17411.0375
2524.70327	17374.2375
2527.42616	17325.4375
2530.14734	17309.3375
2532.86681	17327.6375
2535.58458	17284.1375
2538.30065	17300.9375
2541.01501	17282.1375
2543.72768	17248.7375
2546.43864	17219.9375
2549.14791	17214.6375
2551.85548	17205.0375
2554.56136	17156.4375
2557.26554	17158.3375
2559.96803	17138.3375
2562.66883	17076.4375
2565.36794	17114.4375
2568.06536	17093.3375
2570.7611	17059.3375
2573.45514	17038.7375
2576.14751	17029.9375
2578.83819	16991.1375
2581.52719	16996.2375
2584.21451	16981.2375
2586.90015	16946.6375
2589.58411	16923.1375
2592.2664	16894.8375
2594.94701	16868.4375
2597.62594	16890.1375
2600.30321	16797.7375
2602.9788	16829.9375
2605.65273	16785.3375
2608.32498	16786.6375
2610.99557	16750.7375
2613.66449	16778.0375
2616.33175	16774.6375
2618.99734	16763.8375
2621.66128	16737.3375
2624.32355	16752.7375
2626.98416	16732.1375
2629.64311	16715.3375
2632.30041	16673.9375
2634.95605	16665.5375
2637.61004	16666.8375
2640.26238	16634.8375
2642.91306	16662.9375
2645.56209	16613.6375
2648.20948	16636.3375
2650.85521	16605.3375
2653.4993	16613.7375
2656.14175	16593.0375
2658.78255	16672.3375
2661.42171	16627.8375
2664.05923	16634.2375
2666.6951	16634.1375
2669.32934	16670.4375
2671.96194	16638.5375
2674.59291	16632.0375
2677.22224	16637.9375
2679.84993	16642.8375
2682.476	16627.1375
2685.10043	16623.5375
2687.72324	16617.1375
2690.34441	16617.0375
2692.96396	16607.5375
2695.58188	16611.2375
2698.19818	16608.2375
2700.81285	16618.8375
2703.4259	16597.5375
2706.03733	16623.8375
2708.64714	16574.2375
2711.25533	16625.5375
2713.86191	16617.2375
2716.46687	16647.7375
2719.07021	16646.0375
2721.67194	16624.7375
2724.27206	16648.7375
2726.87057	16598.2375
2729.46747	16581.8375
2732.06276	16570.3375
2734.65644	16587.4375
2737.24852	16603.3375
2739.83899	16611.0375
2742.42786	16598.3375
2745.01513	16553.6375
2747.60079	16548.8375
2750.18486	16569.4375
2752.76733	16558.8375
2755.3482	16566.3375
2757.92747	16543.5375
2760.50515	16530.8375
2763.08123	16490.9375
2765.65573	16472.2375
2768.22863	16472.6375
2770.79994	16427.9375
2773.36967	16457.8375
2775.9378	16440.7375
2778.50435	16416.9375
2781.06932	16394.5375
2783.6327	16417.2375
2786.1945	16385.0375
2788.75471	16363.9375
2791.31335	16335.5375
2793.87041	16289.9375
2796.42589	16245.4375
2798.97979	16232.7375
2801.53212	16185.8375
2804.08288	16206.6375
2806.63206	16132.9375
2809.17967	16126.8375
2811.72571	16122.7375
2814.27018	16132.2375
2816.81308	16059.5375
2819.35442	16068.2375
2821.89419	16049.8375
2824.43239	16015.7375
2826.96904	15985.6375
2829.50412	15993.4375
2832.03763	15967.7375
2834.56959	15934.8375
2837.1	15941.2375
2839.62884	15924.1375
2842.15613	15882.8375
2844.68186	15884.2375
2847.20604	15888.3375
2849.72867	15893.6375
2852.24974	15849.0375
2854.76927	15834.3375
2857.28724	15843.3375
2859.80367	15843.4375
2862.31855	15799.5375
2864.83189	15773.3375
2867.34368	15778.5375
2869.85393	15747.0375
2872.36264	15778.7375
2874.8698	15759.7375
2877.37543	15723.7375
2879.87952	15767.7375
2882.38207	15721.5375
2884.88308	15707.6375
2887.38256	15729.1375
2889.88051	15726.5375
2892.37692	15727.5375
2894.8718	15732.7375
2897.36515	15738.9375
2899.85698	15734.6375
2902.34727	15784.8375
2904.83604	15764.4375
2907.32328	15764.4375
2909.809	15790.8375
2912.29319	15800.9375
2914.77587	15773.5375
2917.25702	15772.2375
2919.73665	15742.1375
2922.21476	15761.5375
2924.69136	15718.6375
2927.16644	15718.4375
2929.64	15720.0375
2932.11205	15721.8375
2934.58258	15666.0375
2937.05161	15683.6375
2939.51912	15650.9375
2941.98513	15640.4375
2944.44962	15619.9375
2946.91261	15569.1375
2949.37409	15592.3375
2951.83407	15561.3375
2954.29254	15560.5375
2956.74951	15552.0375
2959.20498	15555.6375
2961.65895	15520.1375
2964.11142	15490.1375
2966.56239	15447.8375
2969.01186	15476.9375
2971.45984	15409.4375
2973.90632	15389.7375
2976.35131	15335.3375
2978.7948	15319.2375
2981.23681	15296.5375
2983.67732	15280.0375
2986.11635	15236.6375
2988.55388	15196.1375
2990.98993	15175.1375
2993.4245	15173.1375
2995.85758	15132.3375
2998.28917	15072.1375
3000.71928	15053.6375
3003.14791	15045.0375
3005.57506	15028.5375
3008.00073	14985.5375
3010.42493	14976.6375
3012.84764	14946.2375
3015.26888	14906.2375
3017.68865	14881.4375
3020.10694	14908.1375
3022.52376	14850.2375
