Data from AgNPs_FTO_APTES_UA_50uM_CRN_200uM_R6G_10uM_NaF_0.1M_Addition_RamanShift__15__16-11-55-081.txt Node

Date: Mon Feb 21 16:11:55 GMT 2022
User: TCL
Spectrometer: QEP01345
Trigger mode: 4
Integration Time (sec): 7.000000E0
Scans to average: 10
Electric dark correction enabled: true
Nonlinearity correction enabled: false
Boxcar width: 0
XAxis mode: Raman Shifts
Number of Pixels in Spectrum: 1044
>>>>>Begin Spectral Data<<<<<
46.04893	1.125
50.45542	-0.775
54.85868	-0.575
59.25871	-0.875
63.6555	47.625
68.04907	53.325
72.43941	52.425
76.82654	57.225
81.21044	60.325
85.59113	60.425
89.96862	62.325
94.34289	65.425
98.71396	69.125
103.08183	71.825
107.4465	73.825
111.80798	76.425
116.16626	73.125
120.52136	77.625
124.87327	81.025
129.222	80.125
133.56755	84.925
137.90993	93.025
142.24913	93.425
146.58517	105.925
150.91804	121.525
155.24774	142.225
159.57429	171.925
163.89768	219.225
168.21792	287.925
172.53501	395.925
176.84895	548.125
181.15975	757.725
185.46741	1066.225
189.77193	1481.525
194.07331	1988.025
198.37157	2563.125
202.6667	3174.625
206.9587	3795.325
211.24758	4395.225
215.53334	4997.325
219.81599	5621.125
224.09553	6331.925
228.37195	7067.925
232.64527	7909.025
236.91549	8787.825
241.18261	9647.725
245.44663	10493.525
249.70755	11224.725
253.96539	11859.125
258.22014	12347.425
262.4718	12771.625
266.72039	13062.525
270.96589	13236.225
275.20832	13225.825
279.44768	13135.825
283.68397	12926.225
287.91719	12744.825
292.14735	12645.625
296.37445	12635.925
300.59849	12691.925
304.81948	12812.525
309.03742	12882.625
313.25231	12789.425
317.46415	12513.825
321.67296	12191.425
325.87872	11914.225
330.08145	11787.625
334.28114	11827.325
338.47781	11941.025
342.67145	12098.325
346.86207	12321.025
351.04966	12611.125
355.23424	12946.625
359.4158	13218.625
363.59435	13423.325
367.76989	13539.625
371.94243	13644.125
376.11196	13715.625
380.27849	13779.825
384.44203	13820.225
388.60257	13853.525
392.76012	13875.825
396.91468	14020.125
401.06626	14171.425
405.21485	14296.025
409.36047	14213.825
413.50311	13895.025
417.64277	13629.425
421.77947	13478.925
425.9132	13415.725
430.04396	13421.625
434.17176	13487.625
438.2966	13617.625
442.41849	13795.025
446.53742	13988.525
450.6534	14224.025
454.76644	14344.825
458.87653	14459.225
462.98368	14447.825
467.08789	14406.825
471.18916	14342.825
475.2875	14186.125
479.38291	14069.625
483.4754	13962.725
487.56496	13865.425
491.6516	13831.225
495.73531	13784.425
499.81612	13788.625
503.89401	13910.325
507.96899	13975.625
512.04106	14063.825
516.11023	14141.525
520.1765	14156.525
524.23987	14099.225
528.30034	14072.625
532.35792	13994.625
536.41261	13906.625
540.46441	13823.325
544.51333	13766.225
548.55936	13777.925
552.60252	13915.125
556.64279	14042.125
560.6802	14125.825
564.71473	14136.225
568.7464	14273.925
572.7752	14366.225
576.80114	14382.825
580.82422	14336.925
584.84444	14388.925
588.86181	14444.825
592.87633	14493.325
596.888	14580.625
600.89682	14752.625
604.9028	15422.825
608.90594	17122.625
612.90624	19181.325
616.90371	18509.025
620.89834	15627.625
624.89015	14256.925
628.87913	14007.225
632.86528	14143.125
636.84862	14279.625
640.82913	14221.925
644.80683	13961.925
648.78172	13773.525
652.75379	13747.825
656.72306	13952.725
660.68952	14195.725
664.65319	14195.625
668.61405	13991.625
672.57211	13952.025
676.52738	14079.425
680.47986	14188.825
684.42955	14080.625
688.37646	13965.125
692.32058	13944.525
696.26192	13943.125
700.20048	13962.325
704.13626	14002.525
708.06928	13962.525
711.99952	13883.525
715.927	13865.125
719.85171	13874.725
723.77365	13885.925
727.69284	13879.025
731.60928	13777.725
735.52295	13781.025
739.43388	13767.625
743.34206	13778.725
747.24749	13793.825
751.15017	13821.825
755.05012	13882.425
758.94733	14084.325
762.8418	14654.725
766.73354	15637.625
770.62254	16773.625
774.50882	17404.225
778.39237	16955.425
782.27321	15867.525
786.15132	14861.325
790.02671	14172.725
793.89938	13826.725
797.76935	13696.625
801.6366	13610.725
805.50115	13524.025
809.36299	13446.025
813.22213	13421.325
817.07857	13399.425
820.93231	13371.025
824.78336	13335.225
828.63172	13354.725
832.47738	13324.225
836.32036	13312.325
840.16066	13327.425
843.99827	13339.525
847.8332	13318.525
851.66546	13306.525
855.49504	13317.925
859.32195	13320.925
863.1462	13339.825
866.96777	13362.125
870.78668	13405.425
874.60293	13376.525
878.41652	13426.825
882.22745	13452.625
886.03573	13475.725
889.84136	13453.025
893.64433	13395.525
897.44466	13360.525
901.24235	13305.925
905.0374	13279.925
908.8298	13242.625
912.61957	13172.825
916.40671	13197.125
920.19121	13251.625
923.97308	13307.025
927.75233	13350.025
931.52895	13315.625
935.30295	13290.525
939.07433	13117.725
942.84309	12979.425
946.60924	12923.325
950.37278	12841.825
954.13371	12834.625
957.89203	12813.225
961.64774	12775.025
965.40086	12741.525
969.15137	12738.625
972.89929	12691.925
976.64461	12675.425
980.38733	12628.325
984.12747	12647.625
987.86502	12682.525
991.59999	12778.025
995.33237	12805.125
999.06217	12898.125
1002.78939	12996.425
1006.51404	13103.625
1010.23611	13236.325
1013.95561	13328.225
1017.67255	13338.125
1021.38692	13304.725
1025.09872	13204.825
1028.80796	13117.725
1032.51465	13090.825
1036.21877	13120.125
1039.92035	13179.825
1043.61937	13227.725
1047.31584	13232.125
1051.00976	13242.225
1054.70114	13261.625
1058.38998	13268.325
1062.07627	13306.725
1065.76003	13351.225
1069.44126	13441.825
1073.11995	13521.625
1076.79611	13628.525
1080.46974	13717.125
1084.14085	13819.425
1087.80943	13901.525
1091.47549	13976.625
1095.13903	13952.225
1098.80005	13823.725
1102.45857	13680.125
1106.11456	13582.025
1109.76805	13542.025
1113.41903	13576.825
1117.06751	13700.325
1120.71348	13880.925
1124.35696	14087.025
1127.99793	14258.925
1131.63641	14359.425
1135.2724	14190.025
1138.90589	13963.425
1142.5369	13821.025
1146.16542	13675.225
1149.79145	13569.625
1153.415	13552.025
1157.03607	13567.725
1160.65467	13687.925
1164.27079	13956.025
1167.88443	14332.725
1171.49561	14865.225
1175.10432	15584.925
1178.71056	16618.825
1182.31434	17549.225
1185.91565	18041.625
1189.51451	18008.425
1193.11091	17586.925
1196.70485	17013.625
1200.29634	16404.425
1203.88538	15913.525
1207.47197	15369.125
1211.05612	14873.925
1214.63782	14547.225
1218.21708	14356.925
1221.79391	14203.925
1225.36829	14215.725
1228.94024	14187.925
1232.50976	14147.625
1236.07685	14118.125
1239.6415	14079.225
1243.20374	14148.025
1246.76355	14153.925
1250.32093	14252.925
1253.8759	14350.725
1257.42845	14567.925
1260.97859	14789.525
1264.52631	15036.725
1268.07163	15264.325
1271.61453	15548.525
1275.15503	15740.725
1278.69312	15864.825
1282.22882	15964.825
1285.76211	16098.425
1289.29301	16322.825
1292.82151	16657.925
1296.34761	17056.525
1299.87133	17555.425
1303.39266	18237.225
1306.9116	19171.825
1310.42815	20199.125
1313.94233	20735.125
1317.45412	20499.825
1320.96354	19896.125
1324.47058	19204.625
1327.97525	18548.125
1331.47754	18069.825
1334.97747	17883.225
1338.47502	17938.125
1341.97022	18237.925
1345.46305	18694.425
1348.95352	19339.425
1352.44163	20116.525
1355.92738	21058.525
1359.41078	22269.125
1362.89183	23458.525
1366.37053	23086.525
1369.84688	20973.925
1373.32088	18588.225
1376.79254	17005.025
1380.26186	16166.725
1383.72883	15732.225
1387.19347	15414.225
1390.65578	15085.925
1394.11575	14802.625
1397.57339	14660.625
1401.0287	14598.425
1404.48168	14588.825
1407.93234	14588.425
1411.38068	14576.125
1414.82669	14516.125
1418.27039	14412.525
1421.71177	14325.625
1425.15083	14149.525
1428.58758	14047.025
1432.02203	14026.225
1435.45416	14084.425
1438.88399	14183.525
1442.31151	14211.825
1445.73673	14256.925
1449.15965	14320.725
1452.58027	14382.425
1455.9986	14417.325
1459.41463	14449.525
1462.82837	14587.225
1466.23982	14791.125
1469.64898	14975.625
1473.05586	15194.725
1476.46045	15269.825
1479.86276	15361.525
1483.26279	15417.625
1486.66054	15532.025
1490.05602	15745.325
1493.44922	16142.625
1496.84016	16731.225
1500.22882	17662.025
1503.61521	18925.525
1506.99934	20292.625
1510.38121	21334.325
1513.76081	21592.125
1517.13816	20666.425
1520.51324	19129.225
1523.88607	17717.925
1527.25665	16732.325
1530.62498	16206.325
1533.99105	15911.725
1537.35488	15669.325
1540.71647	15471.125
1544.07581	15310.425
1547.4329	15191.125
1550.78776	15126.125
1554.14038	15112.825
1557.49077	15154.025
1560.83892	15249.225
1564.18484	15453.125
1567.52853	15650.525
1570.86999	15889.725
1574.20922	16030.125
1577.54624	16021.925
1580.88103	15647.225
1584.2136	15136.125
1587.54395	14798.725
1590.87208	14826.225
1594.19801	15118.025
1597.52172	15623.825
1600.84321	15920.925
1604.16251	15730.025
1607.47959	15312.725
1610.79447	14854.625
1614.10715	14269.425
1617.41763	13739.925
1620.7259	13253.025
1624.03199	12966.925
1627.33587	12885.425
1630.63757	12932.925
1633.93707	13218.325
1637.23439	13701.625
1640.52951	14489.325
1643.82246	15539.925
1647.11321	16736.525
1650.40179	17434.525
1653.68819	17152.925
1656.97241	15782.125
1660.25446	14305.025
1663.53433	13165.425
1666.81203	12457.425
1670.08756	12029.725
1673.36092	11757.525
1676.63211	11586.525
1679.90115	11456.925
1683.16801	11353.425
1686.43272	11270.425
1689.69527	11190.425
1692.95567	11056.525
1696.2139	10984.925
1699.46999	10853.925
1702.72392	10822.625
1705.97571	10850.925
1709.22535	10935.425
1712.47284	11015.625
1715.71819	11038.125
1718.96139	10994.625
1722.20246	10992.525
1725.44139	10948.725
1728.67818	10907.225
1731.91284	10841.525
1735.14537	10813.925
1738.37576	10751.225
1741.60403	10716.425
1744.83017	10686.425
1748.05418	10657.825
1751.27607	10653.225
1754.49584	10620.725
1757.71349	10564.425
1760.92903	10527.525
1764.14244	10508.825
1767.35375	10468.225
1770.56294	10414.525
1773.77002	10406.925
1776.97499	10396.325
1780.17785	10449.325
1783.37861	10454.325
1786.57727	10427.225
1789.77382	10417.825
1792.96828	10365.725
1796.16064	10363.625
1799.3509	10353.125
1802.53907	10321.625
1805.72514	10304.225
1808.90913	10264.925
1812.09102	10267.625
1815.27083	10250.925
1818.44856	10196.225
1821.6242	10202.925
1824.79776	10195.625
1827.96924	10177.425
1831.13864	10124.425
1834.30597	10144.725
1837.47122	10139.425
1840.6344	10108.825
1843.7955	10107.325
1846.95454	10092.825
1850.11151	10074.125
1853.26642	10072.625
1856.41926	10057.625
1859.57004	10041.725
1862.71876	10005.825
1865.86542	10001.925
1869.01003	10023.825
1872.15258	10011.025
1875.29308	9992.625
1878.43152	9966.525
1881.56792	9967.525
1884.70227	9949.125
1887.83457	9940.525
1890.96482	9917.325
1894.09304	9899.225
1897.21921	9888.225
1900.34335	9882.925
1903.46544	9866.625
1906.58551	9830.825
1909.70353	9819.725
1912.81953	9842.425
1915.93349	9806.225
1919.04543	9802.525
1922.15534	9773.225
1925.26322	9760.725
1928.36908	9727.425
1931.47292	9703.525
1934.57473	9697.825
1937.67453	9675.225
1940.77232	9659.225
1943.86808	9650.625
1946.96184	9599.025
1950.05358	9561.325
1953.14331	9527.725
1956.23103	9502.825
1959.31675	9475.325
1962.40046	9459.625
1965.48217	9427.025
1968.56188	9405.125
1971.63959	9354.025
1974.7153	9345.925
1977.78901	9338.825
1980.86073	9301.725
1983.93046	9252.025
1986.99819	9242.225
1990.06394	9216.225
1993.1277	9178.325
1996.18947	9157.525
1999.24925	9124.725
2002.30706	9095.325
2005.36288	9046.325
2008.41672	9022.725
2011.46859	8993.525
2014.51848	8948.125
2017.56639	8928.025
2020.61233	8925.725
2023.6563	8903.525
2026.6983	8878.925
2029.73833	8827.425
2032.7764	8808.525
2035.8125	8768.725
2038.84664	8759.325
2041.87881	8764.725
2044.90903	8746.225
2047.93729	8725.325
2050.96359	8726.725
2053.98794	8684.725
2057.01034	8706.725
2060.03078	8688.225
2063.04927	8664.025
2066.06582	8666.125
2069.08042	8652.225
2072.09307	8656.825
2075.10378	8639.525
2078.11255	8652.125
2081.11938	8647.025
2084.12426	8641.525
2087.12722	8633.325
2090.12824	8634.825
2093.12732	8598.025
2096.12447	8607.625
2099.11969	8609.725
2102.11299	8618.025
2105.10435	8621.725
2108.09379	8595.725
2111.08131	8630.825
2114.0669	8620.025
2117.05057	8615.425
2120.03233	8632.125
2123.01216	8638.825
2125.99008	8633.625
2128.96609	8678.025
2131.94018	8645.725
2134.91236	8654.425
2137.88263	8655.025
2140.851	8667.725
2143.81746	8666.025
2146.78201	8675.525
2149.74466	8648.225
2152.7054	8672.125
2155.66425	8659.125
2158.6212	8668.125
2161.57625	8645.525
2164.52941	8628.525
2167.48067	8635.125
2170.43004	8611.725
2173.37752	8646.325
2176.32311	8628.225
2179.26681	8624.025
2182.20863	8617.925
2185.14856	8618.825
2188.08661	8619.325
2191.02278	8622.725
2193.95707	8601.025
2196.88948	8590.825
2199.82001	8599.925
2202.74867	8593.225
2205.67545	8576.325
2208.60037	8560.925
2211.52341	8560.625
2214.44458	8532.125
2217.36388	8509.725
2220.28132	8506.825
2223.1969	8459.625
2226.11061	8451.125
2229.02246	8423.425
2231.93245	8391.625
2234.84058	8389.825
2237.74686	8395.725
2240.65128	8370.025
2243.55385	8349.225
2246.45456	8355.425
2249.35343	8341.825
2252.25044	8339.725
2255.14561	8336.325
2258.03893	8290.325
2260.93041	8270.325
2263.82004	8276.125
2266.70783	8272.825
2269.59378	8231.625
2272.4779	8249.725
2275.36017	8210.125
2278.24061	8199.425
2281.11922	8160.625
2283.996	8148.825
2286.87094	8142.325
2289.74405	8112.625
2292.61534	8100.525
2295.4848	8098.825
2298.35243	8098.725
2301.21824	8083.825
2304.08223	8081.625
2306.94439	8066.425
2309.80474	8066.325
2312.66327	8062.825
2315.51999	8006.525
2318.37489	8011.425
2321.22797	8003.425
2324.07925	8001.525
2326.92871	7989.325
2329.77637	7947.625
2332.62222	7968.825
2335.46626	7946.125
2338.3085	7920.625
2341.14893	7935.125
2343.98756	7936.525
2346.8244	7918.725
2349.65943	7902.525
2352.49267	7885.825
2355.32411	7879.025
2358.15376	7890.725
2360.98161	7880.525
2363.80768	7882.925
2366.63195	7892.525
2369.45444	7868.225
2372.27514	7866.725
2375.09405	7843.525
2377.91118	7840.125
2380.72652	7816.325
2383.54009	7798.825
2386.35187	7813.725
2389.16188	7756.625
2391.97011	7742.425
2394.77657	7734.525
2397.58125	7709.825
2400.38416	7687.525
2403.18529	7694.525
2405.98466	7667.525
2408.78226	7641.325
2411.57809	7605.125
2414.37216	7629.625
2417.16446	7616.525
2419.955	7615.025
2422.74378	7620.425
2425.5308	7590.425
2428.31606	7594.225
2431.09956	7596.925
2433.88131	7571.125
2436.6613	7587.125
2439.43954	7573.925
2442.21603	7552.525
2444.99077	7565.725
2447.76377	7553.025
2450.53501	7546.525
2453.30451	7544.325
2456.07226	7515.925
2458.83827	7503.925
2461.60254	7489.225
2464.36507	7507.625
2467.12586	7503.625
2469.88492	7484.625
2472.64224	7497.625
2475.39782	7479.925
2478.15167	7450.725
2480.90379	7464.425
2483.65417	7464.225
2486.40283	7466.925
2489.14976	7483.825
2491.89497	7449.425
2494.63845	7441.925
2497.3802	7424.125
2500.12024	7443.125
2502.85855	7444.825
2505.59514	7446.625
2508.33002	7402.025
2511.06318	7418.325
2513.79462	7407.125
2516.52435	7371.225
2519.25237	7345.125
2521.97867	7330.425
2524.70327	7333.325
2527.42616	7330.525
2530.14734	7329.825
2532.86681	7303.925
2535.58458	7292.125
2538.30065	7291.025
2541.01501	7261.325
2543.72768	7251.725
2546.43864	7239.325
2549.14791	7228.525
2551.85548	7233.225
2554.56136	7205.525
2557.26554	7193.925
2559.96803	7189.225
2562.66883	7167.825
2565.36794	7150.125
2568.06536	7148.825
2570.7611	7147.825
2573.45514	7131.125
2576.14751	7134.225
2578.83819	7090.525
2581.52719	7083.325
2584.21451	7062.025
2586.90015	7085.325
2589.58411	7049.225
2592.2664	7038.625
2594.94701	7026.625
2597.62594	7007.825
2600.30321	7000.825
2602.9788	6968.725
2605.65273	6976.325
2608.32498	6958.725
2610.99557	6963.025
2613.66449	6945.125
2616.33175	6943.925
2618.99734	6951.725
2621.66128	6939.325
2624.32355	6931.325
2626.98416	6919.225
2629.64311	6905.925
2632.30041	6875.825
2634.95605	6851.425
2637.61004	6856.825
2640.26238	6857.525
2642.91306	6840.025
2645.56209	6839.325
2648.20948	6829.325
2650.85521	6818.725
2653.4993	6814.525
2656.14175	6802.125
2658.78255	6815.125
2661.42171	6822.125
2664.05923	6835.425
2666.6951	6820.125
2669.32934	6822.925
2671.96194	6831.125
2674.59291	6825.125
2677.22224	6800.025
2679.84993	6814.925
2682.476	6783.025
2685.10043	6803.125
2687.72324	6766.025
2690.34441	6798.825
2692.96396	6807.725
2695.58188	6799.025
2698.19818	6801.525
2700.81285	6776.925
2703.4259	6777.225
2706.03733	6688.925
2708.64714	6724.525
2711.25533	6769.425
2713.86191	6774.025
2716.46687	6775.025
2719.07021	6790.525
2721.67194	6790.525
2724.27206	6779.525
2726.87057	6781.525
2729.46747	6782.925
2732.06276	6792.025
2734.65644	6767.025
2737.24852	6789.525
2739.83899	6769.625
2742.42786	6747.025
2745.01513	6738.625
2747.60079	6725.025
2750.18486	6708.825
2752.76733	6719.525
2755.3482	6689.825
2757.92747	6689.325
2760.50515	6665.625
2763.08123	6672.325
2765.65573	6657.325
2768.22863	6646.525
2770.79994	6656.725
2773.36967	6626.325
2775.9378	6617.425
2778.50435	6599.125
2781.06932	6614.625
2783.6327	6621.525
2786.1945	6605.025
2788.75471	6586.025
2791.31335	6557.725
2793.87041	6578.225
2796.42589	6545.425
2798.97979	6551.025
2801.53212	6513.725
2804.08288	6505.625
2806.63206	6478.625
2809.17967	6462.025
2811.72571	6457.925
2814.27018	6460.825
2816.81308	6448.725
2819.35442	6452.425
2821.89419	6425.425
2824.43239	6427.925
2826.96904	6412.925
2829.50412	6423.325
2832.03763	6418.425
2834.56959	6406.325
2837.1	6395.725
2839.62884	6423.825
2842.15613	6409.025
2844.68186	6414.825
2847.20604	6416.125
2849.72867	6444.725
2852.24974	6414.925
2854.76927	6406.225
2857.28724	6377.725
2859.80367	6381.425
2862.31855	6379.825
2864.83189	6372.225
2867.34368	6365.725
2869.85393	6362.925
2872.36264	6353.225
2874.8698	6358.225
2877.37543	6360.325
2879.87952	6337.625
2882.38207	6346.725
2884.88308	6335.125
2887.38256	6337.825
2889.88051	6322.825
2892.37692	6335.525
2894.8718	6330.525
2897.36515	6354.225
2899.85698	6360.525
2902.34727	6353.425
2904.83604	6348.525
2907.32328	6370.025
2909.809	6349.125
2912.29319	6361.225
2914.77587	6376.725
2917.25702	6369.125
2919.73665	6359.225
2922.21476	6363.025
2924.69136	6354.025
2927.16644	6351.125
2929.64	6355.425
2932.11205	6340.325
2934.58258	6345.425
2937.05161	6344.725
2939.51912	6359.525
2941.98513	6348.625
2944.44962	6321.725
2946.91261	6297.625
2949.37409	6328.025
2951.83407	6307.625
2954.29254	6290.925
2956.74951	6285.725
2959.20498	6256.525
2961.65895	6264.825
2964.11142	6248.825
2966.56239	6224.425
2969.01186	6238.925
2971.45984	6219.825
2973.90632	6200.725
2976.35131	6183.925
2978.7948	6158.925
2981.23681	6162.625
2983.67732	6158.925
2986.11635	6140.725
2988.55388	6135.125
2990.98993	6135.125
2993.4245	6116.925
2995.85758	6091.825
2998.28917	6088.525
3000.71928	6073.125
3003.14791	6049.925
3005.57506	6042.925
3008.00073	6028.125
3010.42493	6036.725
3012.84764	6020.925
3015.26888	6009.725
3017.68865	6005.525
3020.10694	5997.925
3022.52376	5991.725
3024.9391	5975.025
3027.35298	5965.625
3029.76539	5945.225
3032.17632	5953.925
3034.5858	5935.725
3036.9938	5924.325
3039.40034	5923.925
3041.80542	5912.525
3044.20903	5898.225
3046.61118	5909.425
3049.01187	5895.725
3051.4111	5902.325
3053.80888	5897.125
3056.20519	5873.325
3058.60005	5866.025
3060.99345	5848.025
3063.3854	5847.425
3065.7759	5821.025
3068.16494	5805.025
3070.55254	5788.125
3072.93868	5773.425
3075.32338	5770.225
3077.70662	5760.925
3080.08842	5737.825
3082.46878	5744.125
3084.84769	5724.725
3087.22515	5725.025
3089.60118	5731.525
3091.97576	5737.325
3094.3489	5724.625
3096.72061	5731.325
3099.09087	5729.625
3101.4597	5720.725
3103.82709	5723.125
3106.19305	5732.525
3108.55757	5732.125
3110.92066	5703.625
3113.28232	5708.725
3115.64255	5691.225
3118.00134	5697.825
3120.35871	5668.625
3122.71466	5686.325
3125.06917	5680.125
3127.42226	5664.225
3129.77393	5675.925
3132.12417	5673.725
3134.47299	5668.025
3136.82039	5681.125
3139.16636	5672.725
3141.51092	5659.725
3143.85406	5665.525
3146.19579	5679.825
3148.53609	5671.625
3150.87499	5681.325
3153.21246	5692.725
3155.54853	5727.225
3157.88318	5706.625
3160.21642	5688.225
3162.54826	5705.125
3164.87868	5699.125
3167.2077	5694.525
3169.5353	5699.025
3171.86151	5695.925
3174.18631	5695.125
3176.5097	5692.025
3178.83169	5666.025
3181.15228	5694.625
3183.47147	5676.125
