Data from AgNPs_FTO_APTES_UA_50uM_CRN_5uM_R6G_10uM_NaF_0.1M_Addition_RamanShift__7__12-40-44-815.txt Node

Date: Mon Feb 21 12:40:44 GMT 2022
User: TCL
Spectrometer: QEP01345
Trigger mode: 4
Integration Time (sec): 7.000000E0
Scans to average: 10
Electric dark correction enabled: true
Nonlinearity correction enabled: false
Boxcar width: 0
XAxis mode: Raman Shifts
Number of Pixels in Spectrum: 1044
>>>>>Begin Spectral Data<<<<<
46.04893	0.4125
50.45542	-1.2875
54.85868	0.0125
59.25871	-0.9875
63.6555	47.5125
68.04907	55.5125
72.43941	56.4125
76.82654	63.0125
81.21044	63.9125
85.59113	65.6125
89.96862	66.6125
94.34289	73.5125
98.71396	76.1125
103.08183	77.3125
107.4465	78.6125
111.80798	76.8125
116.16626	74.5125
120.52136	79.5125
124.87327	89.6125
129.222	83.0125
133.56755	90.3125
137.90993	98.2125
142.24913	99.8125
146.58517	109.1125
150.91804	124.3125
155.24774	147.3125
159.57429	178.3125
163.89768	222.4125
168.21792	291.6125
172.53501	394.6125
176.84895	550.3125
181.15975	766.9125
185.46741	1067.9125
189.77193	1469.2125
194.07331	1954.1125
198.37157	2527.7125
202.6667	3114.4125
206.9587	3718.2125
211.24758	4308.2125
215.53334	4889.7125
219.81599	5514.3125
224.09553	6227.0125
228.37195	6970.7125
232.64527	7825.3125
236.91549	8714.1125
241.18261	9602.4125
245.44663	10400.0125
249.70755	11084.7125
253.96539	11673.9125
258.22014	12134.3125
262.4718	12498.3125
266.72039	12720.6125
270.96589	12818.0125
275.20832	12746.6125
279.44768	12574.3125
283.68397	12360.9125
287.91719	12159.4125
292.14735	12012.1125
296.37445	11991.1125
300.59849	12021.7125
304.81948	12096.0125
309.03742	12106.8125
313.25231	12075.4125
317.46415	11899.7125
321.67296	11671.8125
325.87872	11481.7125
330.08145	11417.3125
334.28114	11402.6125
338.47781	11447.9125
342.67145	11579.0125
346.86207	11807.7125
351.04966	12064.0125
355.23424	12315.2125
359.4158	12552.7125
363.59435	12701.9125
367.76989	12772.8125
371.94243	12802.2125
376.11196	12843.9125
380.27849	12872.9125
384.44203	12937.2125
388.60257	13011.1125
392.76012	13070.2125
396.91468	13221.1125
401.06626	13401.9125
405.21485	13509.6125
409.36047	13409.7125
413.50311	13178.0125
417.64277	13008.2125
421.77947	12953.8125
425.9132	12949.5125
430.04396	12980.7125
434.17176	13052.6125
438.2966	13192.1125
442.41849	13457.7125
446.53742	13876.3125
450.6534	14264.4125
454.76644	14508.9125
458.87653	14539.1125
462.98368	14481.9125
467.08789	14343.2125
471.18916	14110.9125
475.2875	13897.1125
479.38291	13651.3125
483.4754	13501.8125
487.56496	13389.1125
491.6516	13278.2125
495.73531	13208.9125
499.81612	13166.2125
503.89401	13264.6125
507.96899	13288.7125
512.04106	13302.8125
516.11023	13252.6125
520.1765	13196.6125
524.23987	13114.9125
528.30034	13124.7125
532.35792	13078.8125
536.41261	12941.2125
540.46441	12734.7125
544.51333	12637.5125
548.55936	12699.6125
552.60252	12894.7125
556.64279	13195.9125
560.6802	13413.4125
564.71473	13533.1125
568.7464	13704.5125
572.7752	14012.6125
576.80114	14329.1125
580.82422	14650.2125
584.84444	15144.9125
588.86181	15987.5125
592.87633	16986.5125
596.888	17361.0125
600.89682	16738.7125
604.9028	16387.1125
608.90594	17425.5125
612.90624	18820.3125
616.90371	17646.5125
620.89834	14762.1125
624.89015	13441.8125
628.87913	13291.1125
632.86528	13383.7125
636.84862	13444.4125
640.82913	13181.4125
644.80683	12824.8125
648.78172	12624.9125
652.75379	12590.2125
656.72306	12803.5125
660.68952	13082.4125
664.65319	12995.9125
668.61405	12713.0125
672.57211	12725.2125
676.52738	12821.0125
680.47986	12855.6125
684.42955	12810.2125
688.37646	12768.2125
692.32058	12824.0125
696.26192	12929.8125
700.20048	13079.0125
704.13626	13172.7125
708.06928	13079.0125
711.99952	13015.4125
715.927	12996.9125
719.85171	13067.5125
723.77365	13012.7125
727.69284	12829.2125
731.60928	12646.5125
735.52295	12632.5125
739.43388	12649.8125
743.34206	12709.2125
747.24749	12823.6125
751.15017	12886.9125
755.05012	13080.7125
758.94733	13428.2125
762.8418	14124.6125
766.73354	15212.6125
770.62254	16336.6125
774.50882	16654.3125
778.39237	15991.1125
782.27321	14877.9125
786.15132	13909.0125
790.02671	13298.2125
793.89938	12964.7125
797.76935	12798.7125
801.6366	12712.6125
805.50115	12603.9125
809.36299	12557.7125
813.22213	12496.1125
817.07857	12440.7125
820.93231	12359.4125
824.78336	12326.8125
828.63172	12297.5125
832.47738	12292.4125
836.32036	12300.0125
840.16066	12310.5125
843.99827	12310.2125
847.8332	12306.1125
851.66546	12267.6125
855.49504	12298.4125
859.32195	12329.2125
863.1462	12302.4125
866.96777	12244.8125
870.78668	12263.4125
874.60293	12264.7125
878.41652	12308.6125
882.22745	12414.1125
886.03573	12444.1125
889.84136	12449.4125
893.64433	12416.5125
897.44466	12373.0125
901.24235	12344.0125
905.0374	12315.4125
908.8298	12256.2125
912.61957	12250.5125
916.40671	12311.5125
920.19121	12421.5125
923.97308	12570.2125
927.75233	12662.7125
931.52895	12598.8125
935.30295	12424.8125
939.07433	12152.7125
942.84309	12006.0125
946.60924	11910.6125
950.37278	11872.5125
954.13371	11855.8125
957.89203	11838.1125
961.64774	11837.8125
965.40086	11846.4125
969.15137	11862.7125
972.89929	11807.7125
976.64461	11809.0125
980.38733	11823.8125
984.12747	11819.0125
987.86502	11871.3125
991.59999	11965.7125
995.33237	12113.3125
999.06217	12303.2125
1002.78939	12619.4125
1006.51404	12909.8125
1010.23611	13183.2125
1013.95561	13322.3125
1017.67255	13330.7125
1021.38692	13185.6125
1025.09872	12931.2125
1028.80796	12792.4125
1032.51465	12768.9125
1036.21877	12848.0125
1039.92035	12896.0125
1043.61937	12925.3125
1047.31584	12896.4125
1051.00976	12834.0125
1054.70114	12803.7125
1058.38998	12810.5125
1062.07627	12878.2125
1065.76003	13008.2125
1069.44126	13159.4125
1073.11995	13409.7125
1076.79611	13643.0125
1080.46974	13816.3125
1084.14085	13969.3125
1087.80943	14111.7125
1091.47549	14248.2125
1095.13903	14227.8125
1098.80005	13998.7125
1102.45857	13636.8125
1106.11456	13411.9125
1109.76805	13335.9125
1113.41903	13365.3125
1117.06751	13470.1125
1120.71348	13647.5125
1124.35696	13881.8125
1127.99793	14096.5125
1131.63641	14172.0125
1135.2724	14110.9125
1138.90589	13981.1125
1142.5369	13945.2125
1146.16542	13956.8125
1149.79145	14058.0125
1153.415	14135.1125
1157.03607	14231.2125
1160.65467	14523.7125
1164.27079	14983.0125
1167.88443	15697.3125
1171.49561	16585.7125
1175.10432	17840.2125
1178.71056	19391.1125
1182.31434	20784.3125
1185.91565	21395.0125
1189.51451	21218.6125
1193.11091	20583.4125
1196.70485	19772.0125
1200.29634	18839.6125
1203.88538	18139.8125
1207.47197	17600.6125
1211.05612	17168.1125
1214.63782	16839.6125
1218.21708	16630.4125
1221.79391	16485.4125
1225.36829	16454.8125
1228.94024	16406.1125
1232.50976	16152.8125
1236.07685	15776.2125
1239.6415	15590.1125
1243.20374	15498.7125
1246.76355	15517.5125
1250.32093	15652.8125
1253.8759	15928.5125
1257.42845	16372.4125
1260.97859	16941.2125
1264.52631	17527.8125
1268.07163	18120.1125
1271.61453	18702.5125
1275.15503	19167.2125
1278.69312	19647.1125
1282.22882	20195.4125
1285.76211	20879.3125
1289.29301	21697.0125
1292.82151	22609.1125
1296.34761	23654.8125
1299.87133	24844.7125
1303.39266	26129.0125
1306.9116	27559.6125
1310.42815	28776.3125
1313.94233	29417.4125
1317.45412	29059.1125
1320.96354	28037.9125
1324.47058	27007.9125
1327.97525	26150.9125
1331.47754	25491.3125
1334.97747	25091.3125
1338.47502	24828.9125
1341.97022	24629.7125
1345.46305	24529.5125
1348.95352	24734.1125
1352.44163	25238.7125
1355.92738	26351.5125
1359.41078	28059.8125
1362.89183	29726.9125
1366.37053	29767.3125
1369.84688	27437.0125
1373.32088	24257.4125
1376.79254	21914.9125
1380.26186	20874.7125
1383.72883	20509.1125
1387.19347	20197.3125
1390.65578	19799.3125
1394.11575	19561.7125
1397.57339	19612.9125
1401.0287	19700.2125
1404.48168	19795.2125
1407.93234	19749.9125
1411.38068	19496.8125
1414.82669	19136.6125
1418.27039	18688.0125
1421.71177	18207.5125
1425.15083	17769.6125
1428.58758	17545.5125
1432.02203	17698.1125
1435.45416	17984.8125
1438.88399	18326.2125
1442.31151	18552.3125
1445.73673	18645.7125
1449.15965	18739.6125
1452.58027	18755.9125
1455.9986	18687.0125
1459.41463	18711.6125
1462.82837	19013.5125
1466.23982	19429.2125
1469.64898	19889.6125
1473.05586	20207.3125
1476.46045	20410.5125
1479.86276	20474.7125
1483.26279	20547.3125
1486.66054	20698.1125
1490.05602	21021.5125
1493.44922	21428.8125
1496.84016	21856.7125
1500.22882	22396.4125
1503.61521	23117.0125
1506.99934	23900.9125
1510.38121	24481.1125
1513.76081	24512.9125
1517.13816	23845.2125
1520.51324	22747.1125
1523.88607	21818.4125
1527.25665	21330.9125
1530.62498	21036.4125
1533.99105	20765.0125
1537.35488	20348.4125
1540.71647	19780.7125
1544.07581	19195.0125
1547.4329	18730.0125
1550.78776	18404.6125
1554.14038	18208.4125
1557.49077	18138.9125
1560.83892	18205.6125
1564.18484	18306.0125
1567.52853	18491.8125
1570.86999	18750.5125
1574.20922	19044.4125
1577.54624	19211.7125
1580.88103	19074.5125
1584.2136	18984.7125
1587.54395	19286.5125
1590.87208	20145.4125
1594.19801	21333.6125
1597.52172	22532.5125
1600.84321	22856.8125
1604.16251	21864.5125
1607.47959	20158.0125
1610.79447	18389.8125
1614.10715	16889.2125
1617.41763	15737.6125
1620.7259	15013.3125
1624.03199	14664.8125
1627.33587	14733.0125
1630.63757	15189.8125
1633.93707	16146.6125
1637.23439	17797.1125
1640.52951	20255.4125
1643.82246	23222.8125
1647.11321	25626.1125
1650.40179	26070.7125
1653.68819	24032.0125
1656.97241	20674.6125
1660.25446	17541.7125
1663.53433	15317.6125
1666.81203	13985.1125
1670.08756	13200.1125
1673.36092	12731.8125
1676.63211	12392.8125
1679.90115	12183.1125
1683.16801	12015.8125
1686.43272	11841.7125
1689.69527	11733.3125
1692.95567	11566.4125
1696.2139	11458.9125
1699.46999	11300.4125
1702.72392	11260.9125
1705.97571	11307.9125
1709.22535	11344.9125
1712.47284	11402.2125
1715.71819	11442.5125
1718.96139	11427.2125
1722.20246	11339.5125
1725.44139	11267.2125
1728.67818	11239.0125
1731.91284	11144.3125
1735.14537	11089.0125
1738.37576	11044.3125
1741.60403	10994.1125
1744.83017	10942.9125
1748.05418	10907.4125
1751.27607	10831.0125
1754.49584	10753.9125
1757.71349	10676.5125
1760.92903	10641.6125
1764.14244	10640.7125
1767.35375	10669.1125
1770.56294	10623.9125
1773.77002	10618.8125
1776.97499	10643.6125
1780.17785	10694.8125
1783.37861	10710.3125
1786.57727	10667.3125
1789.77382	10660.5125
1792.96828	10682.7125
1796.16064	10677.3125
1799.3509	10643.3125
1802.53907	10652.5125
1805.72514	10600.9125
1808.90913	10578.0125
1812.09102	10561.4125
1815.27083	10531.2125
1818.44856	10549.4125
1821.6242	10536.5125
1824.79776	10563.1125
1827.96924	10561.3125
1831.13864	10539.2125
1834.30597	10558.1125
1837.47122	10545.5125
1840.6344	10521.3125
1843.7955	10553.8125
1846.95454	10497.8125
1850.11151	10524.4125
1853.26642	10501.6125
1856.41926	10503.7125
1859.57004	10491.1125
1862.71876	10478.7125
1865.86542	10454.7125
1869.01003	10479.2125
1872.15258	10450.8125
1875.29308	10437.4125
1878.43152	10418.1125
1881.56792	10389.9125
1884.70227	10418.3125
1887.83457	10425.1125
1890.96482	10391.1125
1894.09304	10366.7125
1897.21921	10371.5125
1900.34335	10373.7125
1903.46544	10351.2125
1906.58551	10329.5125
1909.70353	10328.2125
1912.81953	10318.5125
1915.93349	10282.9125
1919.04543	10258.5125
1922.15534	10264.8125
1925.26322	10253.5125
1928.36908	10220.7125
1931.47292	10186.7125
1934.57473	10135.0125
1937.67453	10110.3125
1940.77232	10092.2125
1943.86808	10061.2125
1946.96184	10075.4125
1950.05358	10037.9125
1953.14331	9989.0125
1956.23103	9955.7125
1959.31675	9934.6125
1962.40046	9928.9125
1965.48217	9912.3125
1968.56188	9871.7125
1971.63959	9862.0125
1974.7153	9825.5125
1977.78901	9779.4125
1980.86073	9763.8125
1983.93046	9720.4125
1986.99819	9702.9125
1990.06394	9672.7125
1993.1277	9650.3125
1996.18947	9600.4125
1999.24925	9601.3125
2002.30706	9574.6125
2005.36288	9533.5125
2008.41672	9509.3125
2011.46859	9476.1125
2014.51848	9471.5125
2017.56639	9443.0125
2020.61233	9416.6125
2023.6563	9406.1125
2026.6983	9378.0125
2029.73833	9356.6125
2032.7764	9344.0125
2035.8125	9321.5125
2038.84664	9286.9125
2041.87881	9330.3125
2044.90903	9267.5125
2047.93729	9264.3125
2050.96359	9262.2125
2053.98794	9263.3125
2057.01034	9237.6125
2060.03078	9238.9125
2063.04927	9217.1125
2066.06582	9219.2125
2069.08042	9214.6125
2072.09307	9247.8125
2075.10378	9209.2125
2078.11255	9230.3125
2081.11938	9238.7125
2084.12426	9217.8125
2087.12722	9233.9125
2090.12824	9219.6125
2093.12732	9215.5125
2096.12447	9242.3125
2099.11969	9244.0125
2102.11299	9241.6125
2105.10435	9254.7125
2108.09379	9237.9125
2111.08131	9276.6125
2114.0669	9246.0125
2117.05057	9296.8125
2120.03233	9298.4125
2123.01216	9310.2125
2125.99008	9309.8125
2128.96609	9314.4125
2131.94018	9322.7125
2134.91236	9329.3125
2137.88263	9340.5125
2140.851	9317.0125
2143.81746	9357.2125
2146.78201	9314.2125
2149.74466	9317.3125
2152.7054	9324.2125
2155.66425	9330.3125
2158.6212	9323.8125
2161.57625	9315.7125
2164.52941	9286.2125
2167.48067	9317.0125
2170.43004	9294.3125
2173.37752	9303.5125
2176.32311	9312.0125
2179.26681	9312.4125
2182.20863	9306.0125
2185.14856	9309.7125
2188.08661	9318.3125
2191.02278	9314.2125
2193.95707	9305.5125
2196.88948	9277.8125
2199.82001	9270.9125
2202.74867	9293.2125
2205.67545	9261.6125
2208.60037	9254.0125
2211.52341	9244.8125
2214.44458	9202.0125
2217.36388	9208.1125
2220.28132	9168.1125
2223.1969	9159.1125
2226.11061	9147.2125
2229.02246	9144.0125
2231.93245	9152.9125
2234.84058	9148.5125
2237.74686	9127.7125
2240.65128	9133.2125
2243.55385	9128.2125
2246.45456	9116.2125
2249.35343	9089.5125
2252.25044	9079.7125
2255.14561	9064.8125
2258.03893	9064.8125
2260.93041	9040.8125
2263.82004	9014.5125
2266.70783	8985.7125
2269.59378	9001.8125
2272.4779	8972.9125
2275.36017	8943.6125
2278.24061	8963.4125
2281.11922	8923.5125
2283.996	8924.1125
2286.87094	8911.5125
2289.74405	8894.2125
2292.61534	8889.9125
2295.4848	8866.5125
2298.35243	8883.4125
2301.21824	8866.7125
2304.08223	8875.5125
2306.94439	8849.2125
2309.80474	8864.6125
2312.66327	8855.8125
2315.51999	8849.1125
2318.37489	8849.4125
2321.22797	8833.2125
2324.07925	8819.0125
2326.92871	8809.0125
2329.77637	8800.0125
2332.62222	8758.0125
2335.46626	8785.9125
2338.3085	8769.3125
2341.14893	8777.2125
2343.98756	8766.1125
2346.8244	8751.7125
2349.65943	8789.1125
2352.49267	8766.8125
2355.32411	8766.3125
2358.15376	8781.0125
2360.98161	8783.2125
2363.80768	8788.1125
2366.63195	8769.4125
2369.45444	8767.4125
2372.27514	8764.3125
2375.09405	8743.6125
2377.91118	8752.8125
2380.72652	8719.4125
2383.54009	8703.1125
2386.35187	8676.1125
2389.16188	8666.9125
2391.97011	8643.0125
2394.77657	8630.2125
2397.58125	8619.5125
2400.38416	8601.3125
2403.18529	8592.9125
2405.98466	8585.0125
2408.78226	8596.2125
2411.57809	8572.5125
2414.37216	8557.2125
2417.16446	8546.7125
2419.955	8564.8125
2422.74378	8559.1125
2425.5308	8539.3125
2428.31606	8530.0125
2431.09956	8530.6125
2433.88131	8499.5125
2436.6613	8546.2125
2439.43954	8534.8125
2442.21603	8530.8125
2444.99077	8516.9125
2447.76377	8524.5125
2450.53501	8545.8125
2453.30451	8525.4125
2456.07226	8519.9125
2458.83827	8518.1125
2461.60254	8522.3125
2464.36507	8523.0125
2467.12586	8508.0125
2469.88492	8506.8125
2472.64224	8509.9125
2475.39782	8516.6125
2478.15167	8495.9125
2480.90379	8534.4125
2483.65417	8517.9125
2486.40283	8510.4125
2489.14976	8502.6125
2491.89497	8519.3125
2494.63845	8525.9125
2497.3802	8487.9125
2500.12024	8526.4125
2502.85855	8491.1125
2505.59514	8508.9125
2508.33002	8496.2125
2511.06318	8497.5125
2513.79462	8485.2125
2516.52435	8457.3125
2519.25237	8467.7125
2521.97867	8452.5125
2524.70327	8472.5125
2527.42616	8439.4125
2530.14734	8447.6125
2532.86681	8429.5125
2535.58458	8426.7125
2538.30065	8432.1125
2541.01501	8418.2125
2543.72768	8412.7125
2546.43864	8406.4125
2549.14791	8402.0125
2551.85548	8412.3125
2554.56136	8389.6125
2557.26554	8377.6125
2559.96803	8386.0125
2562.66883	8384.1125
2565.36794	8384.8125
2568.06536	8392.5125
2570.7611	8334.7125
2573.45514	8343.7125
2576.14751	8365.3125
2578.83819	8322.6125
2581.52719	8308.0125
2584.21451	8293.9125
2586.90015	8317.9125
2589.58411	8277.7125
2592.2664	8292.6125
2594.94701	8305.3125
2597.62594	8297.1125
2600.30321	8276.3125
2602.9788	8257.1125
2605.65273	8247.9125
2608.32498	8254.7125
2610.99557	8233.5125
2613.66449	8269.8125
2616.33175	8228.2125
2618.99734	8231.3125
2621.66128	8214.2125
2624.32355	8224.3125
2626.98416	8217.5125
2629.64311	8187.4125
2632.30041	8190.3125
2634.95605	8186.1125
2637.61004	8174.6125
2640.26238	8192.2125
2642.91306	8192.0125
2645.56209	8174.0125
2648.20948	8162.4125
2650.85521	8155.0125
2653.4993	8185.5125
2656.14175	8191.8125
2658.78255	8202.1125
2661.42171	8201.3125
2664.05923	8194.8125
2666.6951	8201.1125
2669.32934	8211.4125
2671.96194	8217.4125
2674.59291	8240.4125
2677.22224	8223.4125
2679.84993	8211.0125
2682.476	8211.1125
2685.10043	8203.7125
2687.72324	8210.5125
2690.34441	8203.8125
2692.96396	8209.3125
2695.58188	8211.8125
2698.19818	8192.3125
2700.81285	8193.6125
2703.4259	8201.0125
2706.03733	8105.1125
2708.64714	8161.8125
2711.25533	8184.5125
2713.86191	8201.8125
2716.46687	8230.8125
2719.07021	8235.4125
2721.67194	8249.6125
2724.27206	8242.7125
2726.87057	8250.2125
2729.46747	8253.0125
2732.06276	8277.0125
2734.65644	8284.3125
2737.24852	8293.5125
2739.83899	8285.8125
2742.42786	8308.1125
2745.01513	8279.7125
2747.60079	8287.4125
2750.18486	8265.1125
2752.76733	8261.5125
2755.3482	8241.9125
2757.92747	8255.3125
2760.50515	8224.5125
2763.08123	8235.8125
2765.65573	8232.6125
2768.22863	8230.4125
2770.79994	8225.7125
2773.36967	8234.4125
2775.9378	8192.7125
2778.50435	8196.1125
2781.06932	8210.2125
2783.6327	8208.2125
2786.1945	8201.1125
2788.75471	8174.1125
2791.31335	8191.3125
2793.87041	8192.7125
2796.42589	8166.1125
2798.97979	8155.4125
2801.53212	8126.0125
2804.08288	8130.8125
2806.63206	8134.5125
2809.17967	8122.4125
2811.72571	8090.5125
2814.27018	8069.7125
2816.81308	8073.4125
2819.35442	8052.5125
2821.89419	8026.1125
2824.43239	8032.4125
2826.96904	8033.0125
2829.50412	8034.5125
2832.03763	8024.5125
2834.56959	8027.5125
2837.1	8020.2125
2839.62884	8011.8125
2842.15613	8008.2125
2844.68186	8008.6125
2847.20604	8015.7125
2849.72867	8028.7125
2852.24974	8009.4125
2854.76927	7992.9125
2857.28724	7978.6125
2859.80367	7997.1125
2862.31855	8002.9125
2864.83189	7994.6125
2867.34368	7991.4125
2869.85393	8023.7125
2872.36264	7996.2125
2874.8698	8010.9125
2877.37543	8040.4125
2879.87952	8035.1125
2882.38207	8056.6125
2884.88308	8021.3125
2887.38256	8035.0125
2889.88051	8041.3125
2892.37692	8043.4125
2894.8718	8033.8125
2897.36515	8043.4125
2899.85698	8060.1125
2902.34727	8077.5125
2904.83604	8087.7125
2907.32328	8089.3125
2909.809	8087.7125
2912.29319	8085.8125
2914.77587	8095.5125
2917.25702	8078.7125
2919.73665	8079.9125
2922.21476	8074.0125
2924.69136	8085.8125
2927.16644	8090.8125
2929.64	8080.8125
2932.11205	8063.7125
2934.58258	8037.5125
2937.05161	8045.7125
2939.51912	8046.7125
2941.98513	8032.0125
2944.44962	8015.4125
2946.91261	7994.6125
2949.37409	8025.8125
2951.83407	7994.2125
2954.29254	8003.6125
2956.74951	7983.8125
2959.20498	7953.8125
2961.65895	7932.4125
2964.11142	7946.4125
2966.56239	7941.7125
2969.01186	7944.1125
2971.45984	7904.4125
2973.90632	7909.1125
2976.35131	7905.1125
2978.7948	7878.0125
2981.23681	7871.3125
2983.67732	7843.1125
2986.11635	7837.9125
2988.55388	7820.2125
2990.98993	7832.5125
2993.4245	7795.0125
2995.85758	7762.0125
2998.28917	7739.9125
3000.71928	7737.1125
3003.14791	7725.6125
3005.57506	7715.4125
3008.00073	7707.0125
3010.42493	7716.0125
3012.84764	7682.4125
3015.26888	7690.3125
3017.68865	7640.5125
3020.10694	7642.9125
3022.52376	7643.1125
3024.9391	7646.3125
3027.35298	7648.3125
3029.76539	7632.9125
3032.17632	7641.2125
3034.5858	7612.1125
3036.9938	7605.9125
3039.40034	7579.9125
3041.80542	7575.0125
3044.20903	7570.2125
3046.61118	7585.0125
3049.01187	7561.5125
3051.4111	7561.3125
3053.80888	7551.6125
3056.20519	7551.0125
3058.60005	7534.5125
3060.99345	7527.3125
3063.3854	7505.6125
3065.7759	7500.3125
3068.16494	7489.0125
3070.55254	7456.4125
