Data from AgNPs_FTO_APTES_UA_50uM_CRN_10uM_R6G_10uM_NaF_0.1M_Addition_RamanShift__14__13-29-44-878.txt Node

Date: Mon Feb 21 13:29:44 GMT 2022
User: TCL
Spectrometer: QEP01345
Trigger mode: 4
Integration Time (sec): 7.000000E0
Scans to average: 10
Electric dark correction enabled: true
Nonlinearity correction enabled: false
Boxcar width: 0
XAxis mode: Raman Shifts
Number of Pixels in Spectrum: 1044
>>>>>Begin Spectral Data<<<<<
46.04893	-0.2375
50.45542	-0.5375
54.85868	-0.2375
59.25871	-1.2375
63.6555	59.0625
68.04907	65.0625
72.43941	63.9625
76.82654	71.1625
81.21044	76.2625
85.59113	78.6625
89.96862	79.3625
94.34289	82.7625
98.71396	85.0625
103.08183	90.0625
107.4465	94.3625
111.80798	92.7625
116.16626	90.8625
120.52136	94.4625
124.87327	106.3625
129.222	106.5625
133.56755	106.4625
137.90993	116.3625
142.24913	125.8625
146.58517	142.1625
150.91804	160.7625
155.24774	192.1625
159.57429	235.7625
163.89768	293.8625
168.21792	392.0625
172.53501	529.0625
176.84895	737.8625
181.15975	1040.6625
185.46741	1451.3625
189.77193	2010.7625
194.07331	2692.9625
198.37157	3471.7625
202.6667	4290.3625
206.9587	5107.3625
211.24758	5913.8625
215.53334	6709.4625
219.81599	7525.5625
224.09553	8445.3625
228.37195	9461.7625
232.64527	10604.3625
236.91549	11800.3625
241.18261	13074.1625
245.44663	14185.6625
249.70755	15189.7625
253.96539	16074.8625
258.22014	16777.0625
262.4718	17345.7625
266.72039	17675.1625
270.96589	17838.8625
275.20832	17799.3625
279.44768	17649.9625
283.68397	17435.4625
287.91719	17240.9625
292.14735	17087.0625
296.37445	16968.7625
300.59849	16956.8625
304.81948	16986.6625
309.03742	16979.3625
313.25231	16870.4625
317.46415	16586.5625
321.67296	16237.3625
325.87872	15951.9625
330.08145	15865.6625
334.28114	15868.1625
338.47781	15975.7625
342.67145	16169.7625
346.86207	16397.8625
351.04966	16707.2625
355.23424	17047.2625
359.4158	17341.9625
363.59435	17523.0625
367.76989	17671.5625
371.94243	17740.3625
376.11196	17778.4625
380.27849	17832.6625
384.44203	17908.3625
388.60257	18004.2625
392.76012	18178.6625
396.91468	18394.5625
401.06626	18638.9625
405.21485	18820.9625
409.36047	18743.7625
413.50311	18425.5625
417.64277	18229.2625
421.77947	18189.0625
425.9132	18271.2625
430.04396	18340.9625
434.17176	18447.0625
438.2966	18597.1625
442.41849	18902.2625
446.53742	19304.8625
450.6534	19681.1625
454.76644	19957.4625
458.87653	20072.6625
462.98368	20056.8625
467.08789	19974.8625
471.18916	19787.8625
475.2875	19521.7625
479.38291	19363.6625
483.4754	19224.7625
487.56496	19130.3625
491.6516	18973.7625
495.73531	18825.7625
499.81612	18715.3625
503.89401	18871.4625
507.96899	18938.6625
512.04106	18989.8625
516.11023	18986.6625
520.1765	18884.2625
524.23987	18754.3625
528.30034	18656.3625
532.35792	18530.7625
536.41261	18344.9625
540.46441	18193.2625
544.51333	18192.7625
548.55936	18322.6625
552.60252	18623.2625
556.64279	18932.9625
560.6802	19164.0625
564.71473	19341.9625
568.7464	19582.6625
572.7752	20089.2625
576.80114	20617.6625
580.82422	21033.6625
584.84444	21481.6625
588.86181	22007.9625
592.87633	22569.2625
596.888	22786.6625
600.89682	22487.7625
604.9028	22513.7625
608.90594	23808.2625
612.90624	25245.5625
616.90371	23820.2625
620.89834	20555.7625
624.89015	19131.0625
628.87913	18963.3625
632.86528	19136.5625
636.84862	19237.8625
640.82913	18995.9625
644.80683	18543.9625
648.78172	18263.7625
652.75379	18187.2625
656.72306	18421.7625
660.68952	18718.4625
664.65319	18703.5625
668.61405	18442.3625
672.57211	18396.4625
676.52738	18493.7625
680.47986	18528.8625
684.42955	18438.0625
688.37646	18379.4625
692.32058	18410.5625
696.26192	18522.6625
700.20048	18663.4625
704.13626	18750.1625
708.06928	18806.7625
711.99952	18737.2625
715.927	18692.2625
719.85171	18668.7625
723.77365	18609.3625
727.69284	18432.7625
731.60928	18243.4625
735.52295	18176.1625
739.43388	18154.8625
743.34206	18253.2625
747.24749	18340.8625
751.15017	18513.6625
755.05012	18765.9625
758.94733	19182.1625
762.8418	20012.2625
766.73354	21371.0625
770.62254	22684.5625
774.50882	23015.8625
778.39237	22203.1625
782.27321	20838.8625
786.15132	19737.2625
790.02671	18975.8625
793.89938	18551.1625
797.76935	18339.5625
801.6366	18193.8625
805.50115	18113.6625
809.36299	17999.4625
813.22213	17923.3625
817.07857	17877.6625
820.93231	17833.2625
824.78336	17798.2625
828.63172	17764.5625
832.47738	17719.9625
836.32036	17705.7625
840.16066	17700.2625
843.99827	17698.0625
847.8332	17638.7625
851.66546	17689.7625
855.49504	17756.8625
859.32195	17773.1625
863.1462	17791.7625
866.96777	17718.5625
870.78668	17744.4625
874.60293	17749.4625
878.41652	17753.8625
882.22745	17838.0625
886.03573	17882.0625
889.84136	17925.6625
893.64433	17859.4625
897.44466	17844.3625
901.24235	17835.8625
905.0374	17836.0625
908.8298	17778.3625
912.61957	17780.3625
916.40671	17870.6625
920.19121	18030.5625
923.97308	18175.2625
927.75233	18192.5625
931.52895	18066.8625
935.30295	17845.3625
939.07433	17532.1625
942.84309	17344.8625
946.60924	17211.5625
950.37278	17181.1625
954.13371	17130.7625
957.89203	17179.3625
961.64774	17165.4625
965.40086	17140.3625
969.15137	17143.5625
972.89929	17057.4625
976.64461	17058.5625
980.38733	17030.5625
984.12747	17022.4625
987.86502	17052.1625
991.59999	17117.3625
995.33237	17232.1625
999.06217	17404.7625
1002.78939	17729.7625
1006.51404	18016.5625
1010.23611	18382.9625
1013.95561	18583.0625
1017.67255	18626.1625
1021.38692	18466.5625
1025.09872	18212.9625
1028.80796	17975.3625
1032.51465	17813.3625
1036.21877	17767.3625
1039.92035	17840.0625
1043.61937	17922.1625
1047.31584	18002.6625
1051.00976	18067.6625
1054.70114	18120.8625
1058.38998	18244.6625
1062.07627	18394.7625
1065.76003	18549.6625
1069.44126	18773.9625
1073.11995	19094.4625
1076.79611	19336.1625
1080.46974	19468.5625
1084.14085	19598.9625
1087.80943	19757.5625
1091.47549	19956.2625
1095.13903	20045.6625
1098.80005	19846.9625
1102.45857	19477.9625
1106.11456	19190.0625
1109.76805	19054.0625
1113.41903	19044.0625
1117.06751	19093.2625
1120.71348	19273.8625
1124.35696	19489.5625
1127.99793	19684.7625
1131.63641	19810.3625
1135.2724	19758.7625
1138.90589	19690.2625
1142.5369	19602.9625
1146.16542	19685.3625
1149.79145	19820.2625
1153.415	19965.0625
1157.03607	20152.0625
1160.65467	20477.4625
1164.27079	21083.0625
1167.88443	21829.4625
1171.49561	22895.3625
1175.10432	24201.3625
1178.71056	25850.6625
1182.31434	27397.0625
1185.91565	28323.3625
1189.51451	28524.9625
1193.11091	28253.5625
1196.70485	27410.8625
1200.29634	26381.6625
1203.88538	25392.8625
1207.47197	24683.7625
1211.05612	24095.4625
1214.63782	23583.5625
1218.21708	23148.2625
1221.79391	22821.1625
1225.36829	22629.7625
1228.94024	22514.9625
1232.50976	22349.3625
1236.07685	22144.9625
1239.6415	21986.9625
1243.20374	21938.1625
1246.76355	21960.4625
1250.32093	22124.4625
1253.8759	22421.4625
1257.42845	22963.4625
1260.97859	23542.4625
1264.52631	24201.8625
1268.07163	24858.5625
1271.61453	25413.5625
1275.15503	25951.9625
1278.69312	26516.3625
1282.22882	27096.8625
1285.76211	27779.3625
1289.29301	28572.7625
1292.82151	29522.4625
1296.34761	30595.1625
1299.87133	31844.3625
1303.39266	33183.2625
1306.9116	34513.8625
1310.42815	35646.6625
1313.94233	36322.2625
1317.45412	36176.5625
1320.96354	35678.5625
1324.47058	35089.7625
1327.97525	34607.8625
1331.47754	34296.1625
1334.97747	34215.1625
1338.47502	34226.7625
1341.97022	34481.0625
1345.46305	34702.9625
1348.95352	34909.9625
1352.44163	35114.7625
1355.92738	35501.3625
1359.41078	36296.4625
1362.89183	37097.9625
1366.37053	36679.1625
1369.84688	34269.5625
1373.32088	31267.9625
1376.79254	28974.6625
1380.26186	27940.6625
1383.72883	27536.6625
1387.19347	27182.3625
1390.65578	26820.4625
1394.11575	26517.2625
1397.57339	26480.1625
1401.0287	26522.7625
1404.48168	26575.1625
1407.93234	26493.0625
1411.38068	26171.8625
1414.82669	25682.1625
1418.27039	25048.5625
1421.71177	24418.4625
1425.15083	23909.4625
1428.58758	23579.6625
1432.02203	23607.3625
1435.45416	23892.1625
1438.88399	24292.5625
1442.31151	24603.4625
1445.73673	24850.1625
1449.15965	25075.3625
1452.58027	25299.8625
1455.9986	25445.6625
1459.41463	25667.3625
1462.82837	26074.6625
1466.23982	26544.1625
1469.64898	26917.3625
1473.05586	27167.1625
1476.46045	27331.9625
1479.86276	27409.5625
1483.26279	27428.0625
1486.66054	27545.3625
1490.05602	27863.1625
1493.44922	28418.0625
1496.84016	29060.7625
1500.22882	30046.6625
1503.61521	31145.8625
1506.99934	32202.1625
1510.38121	32879.4625
1513.76081	32847.0625
1517.13816	32007.1625
1520.51324	30843.4625
1523.88607	29936.8625
1527.25665	29241.8625
1530.62498	28887.9625
1533.99105	28508.1625
1537.35488	27974.7625
1540.71647	27371.5625
1544.07581	26670.2625
1547.4329	26105.6625
1550.78776	25703.6625
1554.14038	25470.5625
1557.49077	25477.7625
1560.83892	25601.3625
1564.18484	25743.3625
1567.52853	25917.9625
1570.86999	26129.1625
1574.20922	26493.4625
1577.54624	26629.5625
1580.88103	26464.4625
1584.2136	26276.8625
1587.54395	26389.1625
1590.87208	27116.8625
1594.19801	28166.3625
1597.52172	29243.9625
1600.84321	29491.0625
1604.16251	28582.9625
1607.47959	27038.6625
1610.79447	25393.7625
1614.10715	23840.2625
1617.41763	22399.8625
1620.7259	21356.2625
1624.03199	20832.2625
1627.33587	20778.0625
1630.63757	21178.7625
1633.93707	22193.4625
1637.23439	23971.8625
1640.52951	26483.8625
1643.82246	29559.1625
1647.11321	31997.6625
1650.40179	32655.0625
1653.68819	30918.1625
1656.97241	27545.4625
1660.25446	24137.4625
1663.53433	21434.2625
1666.81203	19678.4625
1670.08756	18597.1625
1673.36092	17929.0625
1676.63211	17492.8625
1679.90115	17207.4625
1683.16801	16922.7625
1686.43272	16754.7625
1689.69527	16566.4625
1692.95567	16431.1625
1696.2139	16298.7625
1699.46999	16136.8625
1702.72392	16070.6625
1705.97571	16099.3625
1709.22535	16144.6625
1712.47284	16185.7625
1715.71819	16214.5625
1718.96139	16138.9625
1722.20246	16084.9625
1725.44139	16012.5625
1728.67818	15937.1625
1731.91284	15840.9625
1735.14537	15770.9625
1738.37576	15692.7625
1741.60403	15680.5625
1744.83017	15615.6625
1748.05418	15522.2625
1751.27607	15478.8625
1754.49584	15388.1625
1757.71349	15363.0625
1760.92903	15299.7625
1764.14244	15276.4625
1767.35375	15254.6625
1770.56294	15208.0625
1773.77002	15193.2625
1776.97499	15186.6625
1780.17785	15219.1625
1783.37861	15230.7625
1786.57727	15196.8625
1789.77382	15210.0625
1792.96828	15131.2625
1796.16064	15135.2625
1799.3509	15130.6625
1802.53907	15121.0625
1805.72514	15044.1625
1808.90913	15018.7625
1812.09102	14990.4625
1815.27083	14989.2625
1818.44856	14946.4625
1821.6242	14939.2625
1824.79776	14935.8625
1827.96924	14935.2625
1831.13864	14943.6625
1834.30597	14927.3625
1837.47122	14971.1625
1840.6344	14937.8625
1843.7955	14991.3625
1846.95454	14960.7625
1850.11151	14966.3625
1853.26642	14962.8625
1856.41926	14937.0625
1859.57004	14929.3625
1862.71876	14910.8625
1865.86542	14887.7625
1869.01003	14866.1625
1872.15258	14849.3625
1875.29308	14809.7625
1878.43152	14791.6625
1881.56792	14747.6625
1884.70227	14737.6625
1887.83457	14733.3625
1890.96482	14679.4625
1894.09304	14649.5625
1897.21921	14624.7625
1900.34335	14599.2625
1903.46544	14610.5625
1906.58551	14562.3625
1909.70353	14528.8625
1912.81953	14490.7625
1915.93349	14492.2625
1919.04543	14426.9625
1922.15534	14435.8625
1925.26322	14412.0625
1928.36908	14355.7625
1931.47292	14312.3625
1934.57473	14278.0625
1937.67453	14221.2625
1940.77232	14171.7625
1943.86808	14151.1625
1946.96184	14140.0625
1950.05358	14088.8625
1953.14331	14022.3625
1956.23103	13982.3625
1959.31675	13951.2625
1962.40046	13899.5625
1965.48217	13853.8625
1968.56188	13843.1625
1971.63959	13808.6625
1974.7153	13775.6625
1977.78901	13704.5625
1980.86073	13678.5625
1983.93046	13639.5625
1986.99819	13571.1625
1990.06394	13560.4625
1993.1277	13525.7625
1996.18947	13446.3625
1999.24925	13395.4625
2002.30706	13390.4625
2005.36288	13344.9625
2008.41672	13272.3625
2011.46859	13265.1625
2014.51848	13254.6625
2017.56639	13172.6625
2020.61233	13157.6625
2023.6563	13121.2625
2026.6983	13088.8625
2029.73833	13055.6625
2032.7764	13030.6625
2035.8125	13003.9625
2038.84664	12948.1625
2041.87881	12945.8625
2044.90903	12916.4625
2047.93729	12901.3625
2050.96359	12853.6625
2053.98794	12874.5625
2057.01034	12862.7625
2060.03078	12860.2625
2063.04927	12845.6625
2066.06582	12844.6625
2069.08042	12843.2625
2072.09307	12811.8625
2075.10378	12801.7625
2078.11255	12795.2625
2081.11938	12821.0625
2084.12426	12779.8625
2087.12722	12820.0625
2090.12824	12823.3625
2093.12732	12851.6625
2096.12447	12840.3625
2099.11969	12830.4625
2102.11299	12823.6625
2105.10435	12831.7625
2108.09379	12824.2625
2111.08131	12859.5625
2114.0669	12829.2625
2117.05057	12833.3625
2120.03233	12834.9625
2123.01216	12852.4625
2125.99008	12831.4625
2128.96609	12887.3625
2131.94018	12898.6625
2134.91236	12926.5625
2137.88263	12911.4625
2140.851	12902.8625
2143.81746	12916.2625
2146.78201	12894.5625
2149.74466	12921.1625
2152.7054	12921.5625
2155.66425	12910.0625
2158.6212	12871.5625
2161.57625	12859.2625
2164.52941	12867.0625
2167.48067	12842.1625
2170.43004	12825.3625
2173.37752	12832.8625
2176.32311	12810.6625
2179.26681	12793.1625
2182.20863	12778.4625
2185.14856	12812.0625
2188.08661	12829.3625
2191.02278	12806.7625
2193.95707	12807.6625
2196.88948	12786.5625
2199.82001	12783.9625
2202.74867	12763.0625
2205.67545	12759.8625
2208.60037	12729.2625
2211.52341	12700.0625
2214.44458	12683.5625
2217.36388	12643.9625
2220.28132	12617.8625
2223.1969	12602.7625
2226.11061	12601.2625
2229.02246	12559.3625
2231.93245	12542.6625
2234.84058	12511.6625
2237.74686	12507.4625
2240.65128	12503.7625
2243.55385	12507.9625
2246.45456	12478.6625
2249.35343	12442.8625
2252.25044	12421.6625
2255.14561	12402.6625
2258.03893	12413.5625
2260.93041	12334.7625
2263.82004	12337.5625
2266.70783	12306.2625
2269.59378	12273.0625
2272.4779	12240.3625
2275.36017	12226.8625
2278.24061	12203.4625
2281.11922	12173.0625
2283.996	12150.6625
2286.87094	12102.0625
2289.74405	12119.3625
2292.61534	12104.4625
2295.4848	12059.5625
2298.35243	12042.7625
2301.21824	12041.6625
2304.08223	12034.7625
2306.94439	12053.2625
2309.80474	12022.2625
2312.66327	12022.2625
2315.51999	11994.2625
2318.37489	11982.4625
2321.22797	11943.6625
2324.07925	11964.5625
2326.92871	11934.3625
2329.77637	11917.3625
2332.62222	11890.0625
2335.46626	11898.6625
2338.3085	11860.6625
2341.14893	11845.0625
2343.98756	11848.3625
2346.8244	11844.5625
2349.65943	11833.5625
2352.49267	11820.4625
2355.32411	11817.9625
2358.15376	11850.3625
2360.98161	11833.9625
2363.80768	11854.4625
2366.63195	11815.7625
2369.45444	11779.9625
2372.27514	11800.6625
2375.09405	11774.3625
2377.91118	11779.4625
2380.72652	11737.8625
2383.54009	11721.6625
2386.35187	11694.7625
2389.16188	11661.3625
2391.97011	11636.0625
2394.77657	11632.3625
2397.58125	11619.2625
2400.38416	11602.9625
2403.18529	11587.3625
2405.98466	11571.8625
2408.78226	11549.3625
2411.57809	11525.8625
2414.37216	11483.4625
2417.16446	11499.7625
2419.955	11499.1625
2422.74378	11478.1625
2425.5308	11472.7625
2428.31606	11463.4625
2431.09956	11466.4625
2433.88131	11443.8625
2436.6613	11478.5625
2439.43954	11459.7625
2442.21603	11452.7625
2444.99077	11432.3625
2447.76377	11435.0625
2450.53501	11411.1625
2453.30451	11440.0625
2456.07226	11423.5625
2458.83827	11391.0625
2461.60254	11391.9625
2464.36507	11391.2625
2467.12586	11365.0625
2469.88492	11355.8625
2472.64224	11327.3625
2475.39782	11335.6625
2478.15167	11318.0625
2480.90379	11322.8625
2483.65417	11310.1625
2486.40283	11310.2625
2489.14976	11344.9625
2491.89497	11320.4625
2494.63845	11315.3625
2497.3802	11274.1625
2500.12024	11292.8625
2502.85855	11293.6625
2505.59514	11305.9625
2508.33002	11294.0625
2511.06318	11264.6625
2513.79462	11265.0625
2516.52435	11239.9625
2519.25237	11218.5625
2521.97867	11209.8625
2524.70327	11212.5625
2527.42616	11180.7625
2530.14734	11207.2625
2532.86681	11168.7625
2535.58458	11179.2625
2538.30065	11147.6625
2541.01501	11161.5625
2543.72768	11123.9625
2546.43864	11117.0625
2549.14791	11084.7625
2551.85548	11072.1625
2554.56136	11060.0625
2557.26554	11034.8625
2559.96803	11026.0625
2562.66883	11042.3625
2565.36794	11027.5625
2568.06536	11016.1625
2570.7611	11008.6625
2573.45514	10998.4625
2576.14751	10961.9625
2578.83819	10933.7625
2581.52719	10919.1625
2584.21451	10884.7625
2586.90015	10889.7625
2589.58411	10862.2625
2592.2664	10885.9625
2594.94701	10854.5625
2597.62594	10872.2625
2600.30321	10835.3625
2602.9788	10825.1625
2605.65273	10824.1625
2608.32498	10815.7625
2610.99557	10774.1625
2613.66449	10762.4625
2616.33175	10787.6625
2618.99734	10783.7625
2621.66128	10748.7625
2624.32355	10745.0625
2626.98416	10725.3625
2629.64311	10716.2625
2632.30041	10714.8625
2634.95605	10699.6625
2637.61004	10669.2625
2640.26238	10667.4625
2642.91306	10659.7625
2645.56209	10621.3625
2648.20948	10633.6625
2650.85521	10638.6625
2653.4993	10649.2625
2656.14175	10673.2625
2658.78255	10677.3625
2661.42171	10683.5625
2664.05923	10716.8625
2666.6951	10698.1625
2669.32934	10693.8625
2671.96194	10677.8625
2674.59291	10698.2625
2677.22224	10714.0625
2679.84993	10727.1625
2682.476	10682.7625
2685.10043	10698.6625
2687.72324	10668.9625
2690.34441	10688.6625
2692.96396	10668.7625
2695.58188	10680.4625
2698.19818	10650.7625
2700.81285	10680.0625
2703.4259	10641.5625
2706.03733	10616.3625
2708.64714	10589.9625
2711.25533	10636.2625
2713.86191	10647.2625
2716.46687	10666.7625
2719.07021	10652.6625
2721.67194	10677.4625
2724.27206	10657.3625
2726.87057	10695.3625
2729.46747	10704.2625
2732.06276	10705.8625
2734.65644	10707.2625
2737.24852	10689.3625
2739.83899	10679.7625
2742.42786	10677.3625
2745.01513	10643.3625
2747.60079	10651.3625
2750.18486	10617.6625
2752.76733	10609.2625
2755.3482	10613.7625
2757.92747	10615.9625
2760.50515	10569.5625
2763.08123	10588.7625
2765.65573	10545.6625
2768.22863	10539.9625
2770.79994	10501.3625
2773.36967	10514.2625
2775.9378	10534.4625
2778.50435	10517.1625
2781.06932	10526.0625
2783.6327	10492.5625
2786.1945	10489.4625
2788.75471	10491.8625
2791.31335	10485.1625
2793.87041	10476.8625
2796.42589	10430.4625
2798.97979	10441.4625
2801.53212	10412.4625
2804.08288	10399.2625
2806.63206	10365.7625
2809.17967	10360.8625
2811.72571	10290.2625
2814.27018	10282.3625
2816.81308	10268.2625
2819.35442	10257.5625
2821.89419	10220.8625
2824.43239	10234.8625
2826.96904	10241.1625
2829.50412	10214.8625
2832.03763	10171.9625
2834.56959	10178.9625
2837.1	10177.6625
2839.62884	10170.0625
2842.15613	10166.1625
2844.68186	10152.8625
2847.20604	10141.7625
2849.72867	10142.4625
2852.24974	10138.3625
2854.76927	10108.0625
2857.28724	10071.8625
2859.80367	10081.0625
2862.31855	10072.3625
2864.83189	10078.8625
2867.34368	10053.3625
2869.85393	10044.5625
2872.36264	10039.1625
2874.8698	10060.5625
2877.37543	10051.6625
2879.87952	10052.0625
2882.38207	10037.7625
2884.88308	10042.3625
2887.38256	10033.6625
2889.88051	10034.3625
2892.37692	10006.2625
2894.8718	10025.7625
2897.36515	10045.8625
2899.85698	10058.9625
2902.34727	10064.5625
2904.83604	10077.7625
2907.32328	10070.1625
2909.809	10067.2625
2912.29319	10111.0625
2914.77587	10080.6625
2917.25702	10076.9625
2919.73665	10079.2625
2922.21476	10079.8625
2924.69136	10103.2625
2927.16644	10114.0625
2929.64	10043.6625
2932.11205	10036.5625
2934.58258	9995.2625
2937.05161	10005.6625
2939.51912	9996.2625
2941.98513	10011.9625
2944.44962	9990.1625
2946.91261	9943.0625
2949.37409	9968.3625
2951.83407	9945.9625
2954.29254	9926.4625
2956.74951	9927.3625
2959.20498	9934.6625
2961.65895	9921.3625
2964.11142	9903.4625
2966.56239	9903.6625
2969.01186	9869.8625
2971.45984	9867.7625
2973.90632	9839.0625
2976.35131	9828.0625
2978.7948	9809.9625
2981.23681	9807.0625
2983.67732	9801.6625
2986.11635	9764.2625
2988.55388	9732.7625
2990.98993	9730.5625
2993.4245	9717.3625
2995.85758	9709.5625
2998.28917	9667.3625
3000.71928	9659.4625
3003.14791	9635.7625
3005.57506	9581.4625
3008.00073	9577.4625
3010.42493	9558.3625
3012.84764	9542.2625
3015.26888	9540.9625
3017.68865	9508.7625
3020.10694	9488.9625
3022.52376	9465.4625
3024.9391	9471.7625
3027.35298	9455.1625
