Data from AgNPs_FTO_APTES_UA_50uM_CRN_100uM_R6G_10uM_NaF_0.1M_Addition_RamanShift__18__15-36-55-038.txt Node

Date: Mon Feb 21 15:36:55 GMT 2022
User: TCL
Spectrometer: QEP01345
Trigger mode: 4
Integration Time (sec): 7.000000E0
Scans to average: 10
Electric dark correction enabled: true
Nonlinearity correction enabled: false
Boxcar width: 0
XAxis mode: Raman Shifts
Number of Pixels in Spectrum: 1044
>>>>>Begin Spectral Data<<<<<
46.04893	0.3625
50.45542	-0.3375
54.85868	0.6625
59.25871	-2.0375
63.6555	48.6625
68.04907	52.0625
72.43941	53.0625
76.82654	58.1625
81.21044	63.5625
85.59113	62.1625
89.96862	63.6625
94.34289	67.4625
98.71396	68.7625
103.08183	74.0625
107.4465	72.4625
111.80798	74.5625
116.16626	75.1625
120.52136	76.2625
124.87327	85.4625
129.222	81.3625
133.56755	83.5625
137.90993	97.2625
142.24913	98.2625
146.58517	109.3625
150.91804	120.1625
155.24774	146.4625
159.57429	177.4625
163.89768	222.1625
168.21792	295.2625
172.53501	394.9625
176.84895	545.1625
181.15975	764.2625
185.46741	1074.0625
189.77193	1473.1625
194.07331	1976.3625
198.37157	2551.4625
202.6667	3150.0625
206.9587	3757.6625
211.24758	4350.3625
215.53334	4931.3625
219.81599	5569.4625
224.09553	6246.2625
228.37195	7010.9625
232.64527	7873.4625
236.91549	8763.9625
241.18261	9633.0625
245.44663	10476.2625
249.70755	11205.5625
253.96539	11795.1625
258.22014	12322.1625
262.4718	12717.9625
266.72039	12981.8625
270.96589	13131.5625
275.20832	13158.5625
279.44768	13023.6625
283.68397	12856.5625
287.91719	12743.9625
292.14735	12617.8625
296.37445	12622.3625
300.59849	12700.5625
304.81948	12780.5625
309.03742	12815.1625
313.25231	12705.9625
317.46415	12442.9625
321.67296	12105.8625
325.87872	11821.2625
330.08145	11693.2625
334.28114	11718.0625
338.47781	11830.2625
342.67145	11960.2625
346.86207	12236.9625
351.04966	12514.6625
355.23424	12801.9625
359.4158	13110.7625
363.59435	13289.1625
367.76989	13418.3625
371.94243	13530.5625
376.11196	13582.0625
380.27849	13652.6625
384.44203	13703.0625
388.60257	13769.8625
392.76012	13829.4625
396.91468	13905.8625
401.06626	14096.3625
405.21485	14229.7625
409.36047	14152.1625
413.50311	13873.7625
417.64277	13577.9625
421.77947	13450.3625
425.9132	13422.4625
430.04396	13445.8625
434.17176	13534.9625
438.2966	13678.3625
442.41849	13879.8625
446.53742	14192.6625
450.6534	14523.8625
454.76644	14749.1625
458.87653	14886.1625
462.98368	14815.5625
467.08789	14731.7625
471.18916	14581.9625
475.2875	14370.6625
479.38291	14230.3625
483.4754	14126.4625
487.56496	13980.8625
491.6516	13876.7625
495.73531	13815.3625
499.81612	13816.9625
503.89401	13929.7625
507.96899	14005.5625
512.04106	14034.5625
516.11023	14084.7625
520.1765	14060.9625
524.23987	14026.1625
528.30034	13975.7625
532.35792	13904.7625
536.41261	13805.5625
540.46441	13691.8625
544.51333	13639.5625
548.55936	13656.4625
552.60252	13809.4625
556.64279	13995.2625
560.6802	14108.7625
564.71473	14131.5625
568.7464	14252.5625
572.7752	14433.8625
576.80114	14529.1625
580.82422	14547.3625
584.84444	14642.9625
588.86181	14827.5625
592.87633	15017.6625
596.888	15168.5625
600.89682	15244.0625
604.9028	15872.4625
608.90594	17601.3625
612.90624	19527.0625
616.90371	18587.5625
620.89834	15584.8625
624.89015	14295.4625
628.87913	14145.7625
632.86528	14198.3625
636.84862	14196.5625
640.82913	14054.4625
644.80683	13754.1625
648.78172	13512.7625
652.75379	13462.5625
656.72306	13657.8625
660.68952	13883.6625
664.65319	13878.1625
668.61405	13664.2625
672.57211	13624.7625
676.52738	13740.1625
680.47986	13793.2625
684.42955	13705.1625
688.37646	13586.7625
692.32058	13534.1625
696.26192	13564.1625
700.20048	13620.1625
704.13626	13678.7625
708.06928	13614.7625
711.99952	13530.9625
715.927	13493.0625
719.85171	13524.7625
723.77365	13541.0625
727.69284	13468.7625
731.60928	13405.7625
735.52295	13418.2625
739.43388	13444.3625
743.34206	13483.4625
747.24749	13503.0625
751.15017	13515.9625
755.05012	13622.4625
758.94733	13933.9625
762.8418	14492.6625
766.73354	15594.9625
770.62254	16774.3625
774.50882	17377.8625
778.39237	16833.7625
782.27321	15604.5625
786.15132	14454.4625
790.02671	13790.0625
793.89938	13475.3625
797.76935	13311.7625
801.6366	13298.4625
805.50115	13256.0625
809.36299	13149.9625
813.22213	13074.8625
817.07857	12995.6625
820.93231	12938.7625
824.78336	12917.2625
828.63172	12907.6625
832.47738	12921.1625
836.32036	12948.7625
840.16066	12946.4625
843.99827	12998.1625
847.8332	12972.1625
851.66546	12948.8625
855.49504	12915.6625
859.32195	12936.3625
863.1462	12975.0625
866.96777	12959.0625
870.78668	12970.2625
874.60293	12961.4625
878.41652	12994.1625
882.22745	13025.3625
886.03573	13060.9625
889.84136	13011.4625
893.64433	12993.4625
897.44466	12920.8625
901.24235	12838.9625
905.0374	12770.9625
908.8298	12725.8625
912.61957	12699.4625
916.40671	12756.6625
920.19121	12869.6625
923.97308	12988.6625
927.75233	13046.8625
931.52895	13084.3625
935.30295	13014.2625
939.07433	12765.5625
942.84309	12589.9625
946.60924	12518.7625
950.37278	12487.3625
954.13371	12427.5625
957.89203	12338.2625
961.64774	12287.0625
965.40086	12261.8625
969.15137	12193.5625
972.89929	12198.8625
976.64461	12141.5625
980.38733	12172.8625
984.12747	12212.4625
987.86502	12278.4625
991.59999	12394.3625
995.33237	12569.7625
999.06217	12893.6625
1002.78939	13149.8625
1006.51404	13334.3625
1010.23611	13395.9625
1013.95561	13476.2625
1017.67255	13514.6625
1021.38692	13443.6625
1025.09872	13341.4625
1028.80796	13420.6625
1032.51465	13694.1625
1036.21877	14003.1625
1039.92035	14031.1625
1043.61937	13896.0625
1047.31584	13661.9625
1051.00976	13410.0625
1054.70114	13272.1625
1058.38998	13231.2625
1062.07627	13238.9625
1065.76003	13283.6625
1069.44126	13249.2625
1073.11995	13324.4625
1076.79611	13405.7625
1080.46974	13503.1625
1084.14085	13649.4625
1087.80943	13756.2625
1091.47549	13848.9625
1095.13903	13808.2625
1098.80005	13632.8625
1102.45857	13448.1625
1106.11456	13371.8625
1109.76805	13416.0625
1113.41903	13497.8625
1117.06751	13650.5625
1120.71348	13847.9625
1124.35696	14023.3625
1127.99793	14245.1625
1131.63641	14298.8625
1135.2724	14218.5625
1138.90589	13998.9625
1142.5369	13859.9625
1146.16542	13702.6625
1149.79145	13618.9625
1153.415	13590.8625
1157.03607	13690.4625
1160.65467	13910.8625
1164.27079	14323.1625
1167.88443	14859.1625
1171.49561	15611.1625
1175.10432	16640.9625
1178.71056	17998.0625
1182.31434	19254.9625
1185.91565	19896.4625
1189.51451	19796.3625
1193.11091	19078.0625
1196.70485	18169.3625
1200.29634	17396.9625
1203.88538	16752.9625
1207.47197	16163.2625
1211.05612	15624.0625
1214.63782	15321.2625
1218.21708	15179.2625
1221.79391	15174.2625
1225.36829	15238.5625
1228.94024	15182.2625
1232.50976	14974.7625
1236.07685	14758.7625
1239.6415	14672.9625
1243.20374	14649.7625
1246.76355	14739.6625
1250.32093	14877.6625
1253.8759	15078.1625
1257.42845	15430.7625
1260.97859	15761.5625
1264.52631	16086.5625
1268.07163	16451.0625
1271.61453	16901.6625
1275.15503	17340.2625
1278.69312	17774.8625
1282.22882	18083.3625
1285.76211	18353.2625
1289.29301	18624.8625
1292.82151	19027.3625
1296.34761	19625.8625
1299.87133	20504.0625
1303.39266	21641.3625
1306.9116	23151.5625
1310.42815	24664.5625
1313.94233	25583.8625
1317.45412	25359.8625
1320.96354	24413.6625
1324.47058	23348.8625
1327.97525	22373.2625
1331.47754	21699.6625
1334.97747	21399.7625
1338.47502	21324.3625
1341.97022	21494.6625
1345.46305	21760.6625
1348.95352	22216.8625
1352.44163	22890.7625
1355.92738	23948.7625
1359.41078	25495.4625
1362.89183	26830.2625
1366.37053	26277.0625
1369.84688	23689.3625
1373.32088	20894.1625
1376.79254	18960.0625
1380.26186	18047.3625
1383.72883	17611.8625
1387.19347	17321.5625
1390.65578	16995.9625
1394.11575	16750.0625
1397.57339	16760.2625
1401.0287	16875.2625
1404.48168	17038.2625
1407.93234	17065.4625
1411.38068	17015.1625
1414.82669	16815.5625
1418.27039	16541.0625
1421.71177	16224.9625
1425.15083	15898.0625
1428.58758	15644.5625
1432.02203	15662.3625
1435.45416	15844.5625
1438.88399	16076.6625
1442.31151	16245.5625
1445.73673	16394.8625
1449.15965	16551.4625
1452.58027	16651.7625
1455.9986	16654.8625
1459.41463	16749.3625
1462.82837	16979.1625
1466.23982	17247.1625
1469.64898	17548.8625
1473.05586	17764.3625
1476.46045	17903.8625
1479.86276	17917.4625
1483.26279	17867.2625
1486.66054	17862.4625
1490.05602	17992.1625
1493.44922	18198.0625
1496.84016	18640.0625
1500.22882	19338.5625
1503.61521	20384.7625
1506.99934	21674.5625
1510.38121	22715.2625
1513.76081	22990.2625
1517.13816	22188.3625
1520.51324	20720.2625
1523.88607	19392.4625
1527.25665	18516.5625
1530.62498	18015.7625
1533.99105	17750.4625
1537.35488	17522.8625
1540.71647	17365.5625
1544.07581	17221.3625
1547.4329	16995.1625
1550.78776	16893.5625
1554.14038	16810.9625
1557.49077	16813.6625
1560.83892	16895.8625
1564.18484	16985.7625
1567.52853	17158.2625
1570.86999	17331.3625
1574.20922	17496.1625
1577.54624	17497.8625
1580.88103	17185.6625
1584.2136	16774.9625
1587.54395	16687.0625
1590.87208	17111.3625
1594.19801	17964.4625
1597.52172	18992.8625
1600.84321	19456.6625
1604.16251	19032.9625
1607.47959	17984.4625
1610.79447	16869.2625
1614.10715	15804.8625
1617.41763	14931.8625
1620.7259	14269.3625
1624.03199	13905.8625
1627.33587	13861.4625
1630.63757	14083.5625
1633.93707	14647.6625
1637.23439	15584.5625
1640.52951	16872.1625
1643.82246	18432.4625
1647.11321	19862.3625
1650.40179	20412.3625
1653.68819	19523.7625
1656.97241	17529.4625
1660.25446	15462.0625
1663.53433	13911.0625
1666.81203	12976.0625
1670.08756	12428.1625
1673.36092	12054.4625
1676.63211	11825.6625
1679.90115	11627.7625
1683.16801	11535.3625
1686.43272	11413.0625
1689.69527	11289.8625
1692.95567	11185.9625
1696.2139	11046.7625
1699.46999	10914.9625
1702.72392	10846.0625
1705.97571	10913.7625
1709.22535	11008.0625
1712.47284	11018.7625
1715.71819	11037.0625
1718.96139	11044.3625
1722.20246	11024.0625
1725.44139	10984.1625
1728.67818	10934.7625
1731.91284	10897.3625
1735.14537	10830.1625
1738.37576	10825.6625
1741.60403	10744.7625
1744.83017	10745.3625
1748.05418	10723.6625
1751.27607	10693.3625
1754.49584	10633.2625
1757.71349	10586.1625
1760.92903	10526.0625
1764.14244	10504.4625
1767.35375	10502.9625
1770.56294	10429.9625
1773.77002	10422.4625
1776.97499	10432.9625
1780.17785	10426.3625
1783.37861	10468.0625
1786.57727	10512.7625
1789.77382	10455.9625
1792.96828	10439.3625
1796.16064	10431.2625
1799.3509	10406.4625
1802.53907	10394.9625
1805.72514	10358.0625
1808.90913	10333.1625
1812.09102	10328.1625
1815.27083	10292.6625
1818.44856	10293.2625
1821.6242	10266.6625
1824.79776	10272.1625
1827.96924	10248.2625
1831.13864	10230.4625
1834.30597	10235.2625
1837.47122	10227.7625
1840.6344	10195.0625
1843.7955	10215.2625
1846.95454	10179.9625
1850.11151	10198.1625
1853.26642	10195.4625
1856.41926	10164.1625
1859.57004	10150.2625
1862.71876	10157.0625
1865.86542	10145.7625
1869.01003	10130.6625
1872.15258	10129.2625
1875.29308	10132.8625
1878.43152	10115.0625
1881.56792	10109.7625
1884.70227	10103.7625
1887.83457	10082.9625
1890.96482	10086.5625
1894.09304	10073.6625
1897.21921	10057.6625
1900.34335	10043.0625
1903.46544	10032.7625
1906.58551	10015.9625
1909.70353	10035.7625
1912.81953	10020.9625
1915.93349	10032.6625
1919.04543	9986.4625
1922.15534	9958.9625
1925.26322	9939.8625
1928.36908	9895.1625
1931.47292	9874.3625
1934.57473	9879.3625
1937.67453	9874.0625
1940.77232	9833.2625
1943.86808	9811.7625
1946.96184	9790.4625
1950.05358	9748.6625
1953.14331	9717.7625
1956.23103	9690.7625
1959.31675	9641.6625
1962.40046	9639.7625
1965.48217	9636.4625
1968.56188	9618.8625
1971.63959	9595.0625
1974.7153	9555.8625
1977.78901	9551.1625
1980.86073	9506.1625
1983.93046	9460.0625
1986.99819	9430.5625
1990.06394	9401.8625
1993.1277	9385.8625
1996.18947	9338.0625
1999.24925	9345.2625
2002.30706	9302.9625
2005.36288	9273.6625
2008.41672	9262.5625
2011.46859	9220.1625
2014.51848	9220.4625
2017.56639	9193.2625
2020.61233	9161.1625
2023.6563	9135.5625
2026.6983	9120.3625
2029.73833	9096.6625
2032.7764	9088.0625
2035.8125	9061.7625
2038.84664	9041.8625
2041.87881	9054.6625
2044.90903	9034.9625
2047.93729	9033.3625
2050.96359	9021.2625
2053.98794	9013.8625
2057.01034	8989.8625
2060.03078	8991.3625
2063.04927	8985.1625
2066.06582	8961.1625
2069.08042	8953.7625
2072.09307	8955.1625
2075.10378	8937.4625
2078.11255	8945.2625
2081.11938	8944.7625
2084.12426	8912.2625
2087.12722	8922.3625
2090.12824	8922.5625
2093.12732	8910.1625
2096.12447	8904.4625
2099.11969	8909.0625
2102.11299	8907.8625
2105.10435	8924.9625
2108.09379	8917.2625
2111.08131	8932.7625
2114.0669	8934.6625
2117.05057	8920.7625
2120.03233	8930.7625
2123.01216	8963.5625
2125.99008	8969.3625
2128.96609	8976.8625
2131.94018	8986.5625
2134.91236	8989.6625
2137.88263	8995.8625
2140.851	8993.8625
2143.81746	9000.3625
2146.78201	9007.9625
2149.74466	9002.2625
2152.7054	9017.4625
2155.66425	8999.7625
2158.6212	9009.1625
2161.57625	8989.7625
2164.52941	8998.4625
2167.48067	8976.9625
2170.43004	8971.8625
2173.37752	8989.4625
2176.32311	8971.5625
2179.26681	8986.3625
2182.20863	8999.1625
2185.14856	9007.3625
2188.08661	9016.3625
2191.02278	9005.8625
2193.95707	8985.3625
2196.88948	8986.9625
2199.82001	8984.7625
2202.74867	8993.5625
2205.67545	8974.5625
2208.60037	8955.1625
2211.52341	8940.6625
2214.44458	8957.2625
2217.36388	8945.6625
2220.28132	8935.5625
2223.1969	8888.7625
2226.11061	8900.3625
2229.02246	8869.2625
2231.93245	8864.0625
2234.84058	8843.6625
2237.74686	8826.0625
2240.65128	8803.0625
2243.55385	8814.8625
2246.45456	8808.4625
2249.35343	8809.6625
2252.25044	8775.7625
2255.14561	8769.3625
2258.03893	8751.3625
2260.93041	8715.7625
2263.82004	8714.0625
2266.70783	8677.2625
2269.59378	8676.5625
2272.4779	8656.3625
2275.36017	8647.5625
2278.24061	8638.0625
2281.11922	8602.1625
2283.996	8578.2625
2286.87094	8601.9625
2289.74405	8586.4625
2292.61534	8562.7625
2295.4848	8546.0625
2298.35243	8555.3625
2301.21824	8556.9625
2304.08223	8547.2625
2306.94439	8592.6625
2309.80474	8559.7625
2312.66327	8578.7625
2315.51999	8562.7625
2318.37489	8547.8625
2321.22797	8555.6625
2324.07925	8530.3625
2326.92871	8531.2625
2329.77637	8530.8625
2332.62222	8514.6625
2335.46626	8510.7625
2338.3085	8480.8625
2341.14893	8484.1625
2343.98756	8502.2625
2346.8244	8511.2625
2349.65943	8506.9625
2352.49267	8505.0625
2355.32411	8481.8625
2358.15376	8497.3625
2360.98161	8493.4625
2363.80768	8472.1625
2366.63195	8470.1625
2369.45444	8454.1625
2372.27514	8432.3625
2375.09405	8434.5625
2377.91118	8431.3625
2380.72652	8396.8625
2383.54009	8369.1625
2386.35187	8344.5625
2389.16188	8346.1625
2391.97011	8311.7625
2394.77657	8321.8625
2397.58125	8280.9625
2400.38416	8277.6625
2403.18529	8257.4625
2405.98466	8272.7625
2408.78226	8237.6625
2411.57809	8213.3625
2414.37216	8220.0625
2417.16446	8194.4625
2419.955	8193.3625
2422.74378	8193.2625
2425.5308	8157.9625
2428.31606	8185.9625
2431.09956	8192.5625
2433.88131	8167.9625
2436.6613	8170.3625
2439.43954	8176.0625
2442.21603	8167.9625
2444.99077	8153.6625
2447.76377	8161.0625
2450.53501	8159.4625
2453.30451	8144.2625
2456.07226	8141.1625
2458.83827	8121.1625
2461.60254	8109.2625
2464.36507	8133.1625
2467.12586	8127.6625
2469.88492	8141.6625
2472.64224	8131.0625
2475.39782	8113.2625
2478.15167	8121.5625
2480.90379	8146.9625
2483.65417	8153.8625
2486.40283	8162.7625
2489.14976	8159.4625
2491.89497	8143.6625
2494.63845	8130.7625
2497.3802	8118.7625
2500.12024	8119.0625
2502.85855	8113.9625
2505.59514	8100.7625
2508.33002	8114.8625
2511.06318	8094.5625
2513.79462	8086.4625
2516.52435	8076.1625
2519.25237	8071.9625
2521.97867	8034.1625
2524.70327	8048.2625
2527.42616	8047.9625
2530.14734	8038.2625
2532.86681	8024.8625
2535.58458	8045.2625
2538.30065	8025.9625
2541.01501	8010.5625
2543.72768	8004.0625
2546.43864	8003.4625
2549.14791	7968.3625
2551.85548	7977.9625
2554.56136	7948.5625
2557.26554	7950.1625
2559.96803	7941.7625
2562.66883	7938.8625
2565.36794	7933.5625
2568.06536	7930.7625
2570.7611	7926.1625
2573.45514	7909.9625
2576.14751	7895.2625
2578.83819	7876.5625
2581.52719	7885.7625
2584.21451	7872.4625
2586.90015	7860.5625
2589.58411	7842.0625
2592.2664	7852.5625
2594.94701	7855.0625
2597.62594	7838.9625
2600.30321	7822.4625
2602.9788	7838.7625
2605.65273	7807.0625
2608.32498	7822.0625
2610.99557	7809.2625
2613.66449	7824.7625
2616.33175	7805.5625
2618.99734	7815.1625
2621.66128	7815.8625
2624.32355	7829.5625
2626.98416	7814.0625
2629.64311	7804.5625
2632.30041	7805.2625
2634.95605	7791.0625
2637.61004	7778.5625
2640.26238	7773.9625
2642.91306	7755.8625
2645.56209	7764.2625
2648.20948	7748.2625
2650.85521	7728.1625
2653.4993	7744.1625
2656.14175	7733.2625
2658.78255	7723.3625
2661.42171	7721.5625
2664.05923	7721.7625
2666.6951	7747.7625
2669.32934	7759.7625
2671.96194	7755.6625
2674.59291	7739.6625
2677.22224	7749.1625
2679.84993	7737.2625
2682.476	7732.4625
2685.10043	7723.0625
2687.72324	7715.1625
2690.34441	7718.7625
2692.96396	7729.3625
2695.58188	7720.8625
2698.19818	7718.3625
2700.81285	7692.7625
2703.4259	7671.9625
2706.03733	7619.0625
2708.64714	7647.2625
2711.25533	7694.5625
2713.86191	7694.6625
2716.46687	7706.0625
2719.07021	7721.1625
2721.67194	7726.4625
2724.27206	7721.8625
2726.87057	7721.7625
2729.46747	7732.0625
2732.06276	7736.7625
2734.65644	7737.0625
2737.24852	7733.1625
2739.83899	7710.5625
2742.42786	7720.4625
2745.01513	7696.2625
2747.60079	7715.8625
2750.18486	7692.7625
2752.76733	7700.0625
2755.3482	7685.5625
2757.92747	7683.3625
2760.50515	7656.0625
2763.08123	7683.7625
2765.65573	7678.3625
2768.22863	7658.6625
2770.79994	7632.1625
2773.36967	7634.8625
2775.9378	7625.4625
2778.50435	7621.6625
2781.06932	7625.5625
2783.6327	7650.4625
2786.1945	7637.5625
2788.75471	7627.5625
2791.31335	7610.7625
2793.87041	7593.7625
2796.42589	7580.2625
2798.97979	7572.2625
2801.53212	7553.2625
2804.08288	7536.7625
2806.63206	7536.9625
2809.17967	7526.1625
2811.72571	7518.2625
2814.27018	7487.3625
2816.81308	7503.4625
2819.35442	7503.1625
2821.89419	7475.3625
2824.43239	7494.4625
2826.96904	7470.3625
2829.50412	7455.1625
2832.03763	7472.4625
2834.56959	7449.1625
2837.1	7455.1625
2839.62884	7459.3625
2842.15613	7462.0625
2844.68186	7466.4625
2847.20604	7451.8625
2849.72867	7456.8625
2852.24974	7471.1625
2854.76927	7447.4625
2857.28724	7410.7625
2859.80367	7430.4625
2862.31855	7427.6625
2864.83189	7415.3625
2867.34368	7415.3625
2869.85393	7431.3625
2872.36264	7405.7625
2874.8698	7449.5625
2877.37543	7429.8625
2879.87952	7413.4625
2882.38207	7442.4625
2884.88308	7435.7625
2887.38256	7439.6625
2889.88051	7422.5625
2892.37692	7433.8625
2894.8718	7449.4625
2897.36515	7451.6625
2899.85698	7457.0625
2902.34727	7476.9625
2904.83604	7470.0625
2907.32328	7489.8625
2909.809	7529.8625
2912.29319	7510.0625
2914.77587	7538.2625
2917.25702	7529.7625
2919.73665	7515.8625
2922.21476	7530.2625
2924.69136	7515.8625
2927.16644	7500.2625
2929.64	7495.9625
2932.11205	7483.6625
2934.58258	7458.2625
2937.05161	7476.4625
2939.51912	7463.5625
2941.98513	7475.5625
2944.44962	7460.8625
2946.91261	7415.4625
2949.37409	7450.9625
2951.83407	7459.7625
2954.29254	7436.6625
2956.74951	7430.5625
2959.20498	7410.5625
2961.65895	7401.1625
2964.11142	7375.6625
2966.56239	7371.4625
2969.01186	7368.8625
2971.45984	7340.2625
2973.90632	7321.6625
2976.35131	7333.3625
2978.7948	7291.6625
2981.23681	7300.4625
2983.67732	7286.5625
2986.11635	7273.8625
2988.55388	7259.7625
2990.98993	7246.6625
2993.4245	7244.6625
2995.85758	7213.7625
2998.28917	7213.0625
3000.71928	7203.3625
3003.14791	7179.2625
3005.57506	7194.6625
3008.00073	7162.9625
3010.42493	7162.4625
3012.84764	7151.3625
3015.26888	7144.6625
3017.68865	7132.9625
3020.10694	7138.2625
3022.52376	7125.7625
3024.9391	7099.6625
3027.35298	7115.3625
3029.76539	7083.4625
3032.17632	7103.5625
3034.5858	7064.4625
3036.9938	7077.9625
3039.40034	7059.8625
3041.80542	7057.1625
3044.20903	7041.7625
3046.61118	7058.6625
3049.01187	7045.7625
3051.4111	7045.4625
3053.80888	7030.3625
3056.20519	6989.6625
3058.60005	6990.1625
3060.99345	6986.0625
3063.3854	6983.7625
3065.7759	6969.0625
3068.16494	6954.4625
3070.55254	6935.0625
3072.93868	6921.4625
