Data from AgNPs_FTO_APTES_UA_50uM_CRN_50uM_R6G_10uM_NaF_0.1M_Addition_RamanShift__34__15-12-25-007.txt Node

Date: Mon Feb 21 15:12:25 GMT 2022
User: TCL
Spectrometer: QEP01345
Trigger mode: 4
Integration Time (sec): 7.000000E0
Scans to average: 10
Electric dark correction enabled: true
Nonlinearity correction enabled: false
Boxcar width: 0
XAxis mode: Raman Shifts
Number of Pixels in Spectrum: 1044
>>>>>Begin Spectral Data<<<<<
46.04893	-0.225
50.45542	-0.225
54.85868	-1.225
59.25871	-0.825
63.6555	64.375
68.04907	68.675
72.43941	68.575
76.82654	74.575
81.21044	76.275
85.59113	83.475
89.96862	83.075
94.34289	88.575
98.71396	92.375
103.08183	94.575
107.4465	94.875
111.80798	94.575
116.16626	97.575
120.52136	94.175
124.87327	107.675
129.222	103.275
133.56755	111.075
137.90993	116.775
142.24913	124.275
146.58517	138.575
150.91804	155.375
155.24774	180.975
159.57429	221.975
163.89768	276.475
168.21792	366.675
172.53501	491.875
176.84895	682.775
181.15975	956.575
185.46741	1332.775
189.77193	1839.875
194.07331	2449.275
198.37157	3155.175
202.6667	3895.775
206.9587	4638.075
211.24758	5385.775
215.53334	6109.275
219.81599	6910.875
224.09553	7802.775
228.37195	8770.175
232.64527	9875.975
236.91549	10990.175
241.18261	12066.775
245.44663	13052.075
249.70755	13929.575
253.96539	14692.075
258.22014	15345.575
262.4718	15936.375
266.72039	16328.675
270.96589	16498.875
275.20832	16451.875
279.44768	16234.575
283.68397	15946.275
287.91719	15734.775
292.14735	15540.175
296.37445	15557.775
300.59849	15741.375
304.81948	15996.775
309.03742	16174.475
313.25231	16176.775
317.46415	15909.075
321.67296	15484.175
325.87872	15204.375
330.08145	15117.475
334.28114	15164.275
338.47781	15319.775
342.67145	15521.175
346.86207	15848.675
351.04966	16245.175
355.23424	16720.175
359.4158	17120.675
363.59435	17373.075
367.76989	17545.775
371.94243	17683.175
376.11196	17754.875
380.27849	17860.575
384.44203	17909.375
388.60257	17969.475
392.76012	18030.775
396.91468	18135.475
401.06626	18424.075
405.21485	18568.575
409.36047	18486.975
413.50311	18076.675
417.64277	17688.375
421.77947	17479.575
425.9132	17456.075
430.04396	17518.175
434.17176	17697.775
438.2966	18006.775
442.41849	18577.275
446.53742	19299.275
450.6534	20028.075
454.76644	20478.175
458.87653	20490.775
462.98368	20168.175
467.08789	19660.475
471.18916	19232.675
475.2875	18784.675
479.38291	18427.375
483.4754	18209.475
487.56496	17966.075
491.6516	17836.775
495.73531	17726.875
499.81612	17786.275
503.89401	17919.375
507.96899	17977.275
512.04106	17987.075
516.11023	18081.275
520.1765	18153.875
524.23987	18179.675
528.30034	18164.875
532.35792	18140.875
536.41261	17935.775
540.46441	17683.175
544.51333	17514.775
548.55936	17626.775
552.60252	17889.775
556.64279	18294.075
560.6802	18510.175
564.71473	18555.975
568.7464	18686.875
572.7752	18889.675
576.80114	18866.475
580.82422	18900.275
584.84444	19290.675
588.86181	20123.575
592.87633	21395.575
596.888	22336.575
600.89682	22338.475
604.9028	22655.975
608.90594	24747.175
612.90624	27501.975
616.90371	26101.875
620.89834	21488.975
624.89015	19497.375
628.87913	19280.675
632.86528	19237.375
636.84862	19018.275
640.82913	18643.575
644.80683	18135.775
648.78172	17819.175
652.75379	17847.275
656.72306	18188.175
660.68952	18639.675
664.65319	18519.975
668.61405	18154.975
672.57211	17993.175
676.52738	18086.875
680.47986	17992.375
684.42955	17831.775
688.37646	17798.175
692.32058	17905.775
696.26192	18155.875
700.20048	18391.875
704.13626	18464.175
708.06928	18329.875
711.99952	18123.675
715.927	18110.475
719.85171	18259.975
723.77365	18241.675
727.69284	18075.675
731.60928	17905.575
735.52295	17942.475
739.43388	18029.775
743.34206	18108.375
747.24749	18117.675
751.15017	18172.275
755.05012	18386.475
758.94733	18813.275
762.8418	19687.875
766.73354	21280.675
770.62254	22923.675
774.50882	23758.075
778.39237	23128.275
782.27321	21490.475
786.15132	19918.675
790.02671	18971.175
793.89938	18507.975
797.76935	18319.075
801.6366	18249.875
805.50115	18199.875
809.36299	18105.075
813.22213	18002.675
817.07857	17990.075
820.93231	17948.775
824.78336	17956.775
828.63172	18011.575
832.47738	18082.075
836.32036	18148.775
840.16066	18303.275
843.99827	18405.375
847.8332	18358.075
851.66546	18214.675
855.49504	18145.775
859.32195	18176.775
863.1462	18115.275
866.96777	18042.675
870.78668	18008.375
874.60293	17995.075
878.41652	18094.475
882.22745	18185.475
886.03573	18253.075
889.84136	18241.075
893.64433	18131.475
897.44466	18026.975
901.24235	18000.275
905.0374	17960.575
908.8298	17914.975
912.61957	17915.775
916.40671	17993.575
920.19121	18183.675
923.97308	18425.275
927.75233	18655.075
931.52895	18784.875
935.30295	18654.875
939.07433	18343.675
942.84309	18060.175
946.60924	17967.675
950.37278	17919.275
954.13371	17811.575
957.89203	17712.375
961.64774	17619.575
965.40086	17605.175
969.15137	17550.875
972.89929	17579.575
976.64461	17604.875
980.38733	17720.175
984.12747	17868.375
987.86502	18117.775
991.59999	18389.275
995.33237	18820.875
999.06217	19537.975
1002.78939	20232.175
1006.51404	20538.675
1010.23611	20625.875
1013.95561	20721.975
1017.67255	20719.875
1021.38692	20518.975
1025.09872	20340.675
1028.80796	20715.975
1032.51465	21662.975
1036.21877	22455.075
1039.92035	22588.475
1043.61937	22076.575
1047.31584	21352.475
1051.00976	20478.575
1054.70114	19985.175
1058.38998	19784.175
1062.07627	19713.875
1065.76003	19677.175
1069.44126	19641.375
1073.11995	19783.275
1076.79611	20030.575
1080.46974	20320.375
1084.14085	20610.475
1087.80943	20883.675
1091.47549	20999.775
1095.13903	20802.675
1098.80005	20416.175
1102.45857	20129.875
1106.11456	20091.875
1109.76805	20196.275
1113.41903	20356.975
1117.06751	20606.175
1120.71348	20839.475
1124.35696	21167.775
1127.99793	21401.675
1131.63641	21406.875
1135.2724	21094.875
1138.90589	20750.275
1142.5369	20494.375
1146.16542	20377.475
1149.79145	20356.275
1153.415	20362.575
1157.03607	20518.575
1160.65467	20785.475
1164.27079	21398.975
1167.88443	22292.675
1171.49561	23672.675
1175.10432	25528.075
1178.71056	28047.675
1182.31434	30389.675
1185.91565	31370.475
1189.51451	30763.875
1193.11091	29249.575
1196.70485	27585.475
1200.29634	26306.275
1203.88538	25385.175
1207.47197	24583.575
1211.05612	23858.575
1214.63782	23422.675
1218.21708	23445.475
1221.79391	23778.675
1225.36829	24011.475
1228.94024	23843.675
1232.50976	23171.875
1236.07685	22615.975
1239.6415	22295.775
1243.20374	22291.675
1246.76355	22504.675
1250.32093	22918.675
1253.8759	23377.075
1257.42845	23969.675
1260.97859	24663.175
1264.52631	25271.175
1268.07163	26021.675
1271.61453	26808.375
1275.15503	27601.275
1278.69312	28266.675
1282.22882	28759.475
1285.76211	29309.975
1289.29301	29955.275
1292.82151	30837.575
1296.34761	32108.675
1299.87133	33922.575
1303.39266	36466.875
1306.9116	39580.775
1310.42815	42545.175
1313.94233	44080.775
1317.45412	43207.075
1320.96354	40805.575
1324.47058	37951.475
1327.97525	35499.875
1331.47754	33863.575
1334.97747	33120.875
1338.47502	32814.675
1341.97022	32691.775
1345.46305	32792.875
1348.95352	33348.075
1352.44163	34786.575
1355.92738	37378.975
1359.41078	40997.475
1362.89183	44098.975
1366.37053	43345.275
1369.84688	38734.275
1373.32088	33551.475
1376.79254	30245.175
1380.26186	28849.275
1383.72883	28338.775
1387.19347	27850.875
1390.65578	27152.075
1394.11575	26764.675
1397.57339	26846.775
1401.0287	27249.775
1404.48168	27513.075
1407.93234	27564.875
1411.38068	27394.475
1414.82669	27100.475
1418.27039	26595.175
1421.71177	26042.375
1425.15083	25468.375
1428.58758	25296.675
1432.02203	25616.575
1435.45416	26187.575
1438.88399	26669.375
1442.31151	26922.175
1445.73673	26980.975
1449.15965	26976.675
1452.58027	26861.775
1455.9986	26468.975
1459.41463	26295.375
1462.82837	26551.075
1466.23982	27133.075
1469.64898	27845.175
1473.05586	28383.375
1476.46045	28775.175
1479.86276	29148.775
1483.26279	29186.075
1486.66054	29218.175
1490.05602	29491.175
1493.44922	29852.875
1496.84016	30193.875
1500.22882	30794.475
1503.61521	31968.875
1506.99934	33640.375
1510.38121	34985.575
1513.76081	35313.675
1517.13816	33957.875
1520.51324	31813.675
1523.88607	29913.475
1527.25665	28780.975
1530.62498	28250.275
1533.99105	28026.475
1537.35488	27773.475
1540.71647	27477.575
1544.07581	27140.775
1547.4329	26792.475
1550.78776	26505.475
1554.14038	26206.475
1557.49077	26004.375
1560.83892	25965.475
1564.18484	26089.975
1567.52853	26336.275
1570.86999	26780.275
1574.20922	27065.575
1577.54624	27181.675
1580.88103	26759.175
1584.2136	26382.275
1587.54395	26783.275
1590.87208	28112.475
1594.19801	30279.775
1597.52172	32563.575
1600.84321	33735.975
1604.16251	32704.075
1607.47959	30162.575
1610.79447	27309.875
1614.10715	24865.375
1617.41763	23222.775
1620.7259	22287.775
1624.03199	21997.075
1627.33587	22187.875
1630.63757	22808.375
1633.93707	23927.875
1637.23439	25749.075
1640.52951	28296.175
1643.82246	31613.675
1647.11321	34456.775
1650.40179	35164.475
1653.68819	32700.675
1656.97241	28512.575
1660.25446	24703.275
1663.53433	22189.075
1666.81203	20696.275
1670.08756	19867.875
1673.36092	19373.375
1676.63211	19013.675
1679.90115	18769.375
1683.16801	18548.375
1686.43272	18405.875
1689.69527	18287.775
1692.95567	18135.575
1696.2139	17981.275
1699.46999	17893.575
1702.72392	17852.575
1705.97571	17907.875
1709.22535	17969.375
1712.47284	18024.375
1715.71819	18098.175
1718.96139	18070.975
1722.20246	18034.475
1725.44139	17948.775
1728.67818	17907.175
1731.91284	17824.475
1735.14537	17758.675
1738.37576	17724.575
1741.60403	17671.375
1744.83017	17605.375
1748.05418	17588.975
1751.27607	17539.175
1754.49584	17468.975
1757.71349	17389.775
1760.92903	17355.175
1764.14244	17353.475
1767.35375	17339.775
1770.56294	17343.975
1773.77002	17292.275
1776.97499	17302.175
1780.17785	17361.475
1783.37861	17393.875
1786.57727	17393.475
1789.77382	17402.575
1792.96828	17393.175
1796.16064	17374.475
1799.3509	17332.875
1802.53907	17322.075
1805.72514	17279.075
1808.90913	17236.275
1812.09102	17237.975
1815.27083	17214.775
1818.44856	17192.775
1821.6242	17194.675
1824.79776	17208.075
1827.96924	17149.275
1831.13864	17140.575
1834.30597	17096.075
1837.47122	17102.775
1840.6344	17136.775
1843.7955	17110.075
1846.95454	17095.875
1850.11151	17073.875
1853.26642	17058.775
1856.41926	17042.275
1859.57004	17072.675
1862.71876	17049.975
1865.86542	17024.875
1869.01003	17062.275
1872.15258	17049.075
1875.29308	17025.975
1878.43152	17038.775
1881.56792	17021.575
1884.70227	17019.475
1887.83457	17033.375
1890.96482	17019.675
1894.09304	16986.675
1897.21921	16988.175
1900.34335	16986.675
1903.46544	16973.475
1906.58551	17003.775
1909.70353	16955.575
1912.81953	16974.075
1915.93349	16991.875
1919.04543	16933.475
1922.15534	16931.475
1925.26322	16901.075
1928.36908	16887.575
1931.47292	16854.075
1934.57473	16853.375
1937.67453	16830.275
1940.77232	16782.475
1943.86808	16739.575
1946.96184	16655.675
1950.05358	16643.075
1953.14331	16616.475
1956.23103	16584.275
1959.31675	16535.675
1962.40046	16525.775
1965.48217	16492.775
1968.56188	16421.675
1971.63959	16368.275
1974.7153	16356.075
1977.78901	16351.375
1980.86073	16281.675
1983.93046	16234.475
1986.99819	16159.375
1990.06394	16132.575
1993.1277	16139.775
1996.18947	16053.975
1999.24925	16026.375
2002.30706	15970.375
2005.36288	15939.075
2008.41672	15916.275
2011.46859	15851.675
2014.51848	15838.775
2017.56639	15787.075
2020.61233	15717.675
2023.6563	15701.575
2026.6983	15727.175
2029.73833	15654.575
2032.7764	15637.275
2035.8125	15635.975
2038.84664	15639.275
2041.87881	15658.575
2044.90903	15595.675
2047.93729	15591.475
2050.96359	15604.875
2053.98794	15584.275
2057.01034	15581.075
2060.03078	15552.275
2063.04927	15537.175
2066.06582	15534.675
2069.08042	15500.175
2072.09307	15493.675
2075.10378	15518.675
2078.11255	15485.975
2081.11938	15498.075
2084.12426	15461.375
2087.12722	15460.675
2090.12824	15484.975
2093.12732	15482.775
2096.12447	15478.375
2099.11969	15496.975
2102.11299	15505.875
2105.10435	15515.375
2108.09379	15544.375
2111.08131	15526.275
2114.0669	15543.275
2117.05057	15553.975
2120.03233	15572.075
2123.01216	15647.075
2125.99008	15664.275
2128.96609	15634.675
2131.94018	15652.775
2134.91236	15649.175
2137.88263	15678.675
2140.851	15702.875
2143.81746	15757.775
2146.78201	15770.675
2149.74466	15783.775
2152.7054	15743.275
2155.66425	15752.875
2158.6212	15753.975
2161.57625	15749.175
2164.52941	15759.175
2167.48067	15735.275
2170.43004	15741.975
2173.37752	15785.875
2176.32311	15749.775
2179.26681	15761.775
2182.20863	15801.975
2185.14856	15798.975
2188.08661	15830.075
2191.02278	15834.775
2193.95707	15830.575
2196.88948	15812.675
2199.82001	15806.675
2202.74867	15810.475
2205.67545	15830.475
2208.60037	15803.375
2211.52341	15791.175
2214.44458	15785.975
2217.36388	15781.075
2220.28132	15783.675
2223.1969	15742.775
2226.11061	15721.975
2229.02246	15708.875
2231.93245	15685.875
2234.84058	15680.775
2237.74686	15640.875
2240.65128	15621.575
2243.55385	15609.475
2246.45456	15619.675
2249.35343	15592.275
2252.25044	15557.775
2255.14561	15547.975
2258.03893	15569.975
2260.93041	15502.475
2263.82004	15505.075
2266.70783	15476.675
2269.59378	15449.575
2272.4779	15416.175
2275.36017	15401.475
2278.24061	15348.475
2281.11922	15334.275
2283.996	15309.475
2286.87094	15299.975
2289.74405	15302.975
2292.61534	15308.775
2295.4848	15257.875
2298.35243	15312.975
2301.21824	15295.875
2304.08223	15319.975
2306.94439	15317.575
2309.80474	15340.075
2312.66327	15370.175
2315.51999	15337.675
2318.37489	15350.675
2321.22797	15329.175
2324.07925	15329.675
2326.92871	15323.875
2329.77637	15319.775
2332.62222	15292.675
2335.46626	15315.175
2338.3085	15264.775
2341.14893	15304.475
2343.98756	15288.475
2346.8244	15289.075
2349.65943	15323.275
2352.49267	15322.575
2355.32411	15274.475
2358.15376	15291.275
2360.98161	15281.575
2363.80768	15240.775
2366.63195	15209.575
2369.45444	15180.975
2372.27514	15133.275
2375.09405	15151.075
2377.91118	15140.475
2380.72652	15118.375
2383.54009	15102.875
2386.35187	15082.575
2389.16188	15047.175
2391.97011	15014.275
2394.77657	15010.175
2397.58125	14993.775
2400.38416	14966.075
2403.18529	14971.175
2405.98466	14957.275
2408.78226	14929.975
2411.57809	14886.775
2414.37216	14856.175
2417.16446	14870.075
2419.955	14818.175
2422.74378	14824.575
2425.5308	14806.575
2428.31606	14837.375
2431.09956	14807.875
2433.88131	14781.475
2436.6613	14796.075
2439.43954	14828.275
2442.21603	14783.175
2444.99077	14819.875
2447.76377	14853.375
2450.53501	14845.475
2453.30451	14824.075
2456.07226	14796.975
2458.83827	14782.975
2461.60254	14760.875
2464.36507	14817.575
2467.12586	14811.375
2469.88492	14835.675
2472.64224	14808.475
2475.39782	14853.375
2478.15167	14831.175
2480.90379	14848.275
2483.65417	14851.175
2486.40283	14868.575
2489.14976	14892.075
2491.89497	14875.875
2494.63845	14885.975
2497.3802	14837.975
2500.12024	14890.475
2502.85855	14903.775
2505.59514	14874.175
2508.33002	14802.975
2511.06318	14798.275
2513.79462	14800.675
2516.52435	14808.975
2519.25237	14752.175
2521.97867	14752.575
2524.70327	14749.375
2527.42616	14758.275
2530.14734	14756.075
2532.86681	14737.275
2535.58458	14765.775
2538.30065	14756.275
2541.01501	14742.875
2543.72768	14718.475
2546.43864	14707.275
2549.14791	14692.375
2551.85548	14688.475
2554.56136	14633.875
2557.26554	14615.275
2559.96803	14645.275
2562.66883	14626.375
2565.36794	14623.575
2568.06536	14636.175
2570.7611	14605.375
2573.45514	14644.775
2576.14751	14631.375
2578.83819	14581.075
2581.52719	14602.375
2584.21451	14571.475
2586.90015	14567.375
2589.58411	14546.775
2592.2664	14553.775
2594.94701	14485.375
2597.62594	14550.275
2600.30321	14545.075
2602.9788	14540.975
2605.65273	14532.775
2608.32498	14545.975
2610.99557	14509.575
2613.66449	14521.375
2616.33175	14544.775
2618.99734	14545.175
2621.66128	14567.775
2624.32355	14544.475
2626.98416	14514.675
2629.64311	14488.975
2632.30041	14504.175
2634.95605	14474.575
2637.61004	14428.675
2640.26238	14417.175
2642.91306	14432.075
2645.56209	14416.875
2648.20948	14393.575
2650.85521	14359.775
2653.4993	14376.575
2656.14175	14363.675
2658.78255	14356.075
2661.42171	14364.375
2664.05923	14406.875
2666.6951	14448.775
2669.32934	14483.475
2671.96194	14469.375
2674.59291	14444.175
2677.22224	14451.975
2679.84993	14452.175
2682.476	14436.575
2685.10043	14426.975
2687.72324	14396.875
2690.34441	14434.875
2692.96396	14413.775
2695.58188	14391.375
2698.19818	14370.375
2700.81285	14353.775
2703.4259	14345.575
2706.03733	14295.675
2708.64714	14347.175
2711.25533	14392.575
2713.86191	14393.875
2716.46687	14449.575
2719.07021	14432.675
2721.67194	14454.175
2724.27206	14471.675
2726.87057	14473.775
2729.46747	14458.975
2732.06276	14501.475
2734.65644	14498.175
2737.24852	14497.875
2739.83899	14436.875
2742.42786	14455.475
2745.01513	14422.575
2747.60079	14433.275
2750.18486	14428.775
2752.76733	14447.675
2755.3482	14433.275
2757.92747	14429.175
2760.50515	14417.075
2763.08123	14419.675
2765.65573	14387.575
2768.22863	14389.175
2770.79994	14361.975
2773.36967	14360.175
2775.9378	14331.075
2778.50435	14358.375
2781.06932	14361.275
2783.6327	14395.775
2786.1945	14399.175
2788.75471	14403.475
2791.31335	14351.075
2793.87041	14342.775
2796.42589	14286.875
2798.97979	14281.675
2801.53212	14284.075
2804.08288	14269.375
2806.63206	14224.675
2809.17967	14186.975
2811.72571	14178.675
2814.27018	14151.875
2816.81308	14131.875
2819.35442	14147.475
2821.89419	14132.375
2824.43239	14155.575
2826.96904	14143.975
2829.50412	14152.275
2832.03763	14094.475
2834.56959	14122.475
2837.1	14107.975
2839.62884	14114.275
2842.15613	14090.475
2844.68186	14129.575
2847.20604	14105.875
2849.72867	14107.975
2852.24974	14125.175
2854.76927	14103.675
2857.28724	14086.175
2859.80367	14062.375
2862.31855	14057.475
2864.83189	14027.975
2867.34368	14017.775
2869.85393	14068.475
2872.36264	14069.075
2874.8698	14058.975
2877.37543	14062.675
2879.87952	14085.575
2882.38207	14067.575
2884.88308	14061.275
2887.38256	14086.375
2889.88051	14067.675
2892.37692	14100.475
2894.8718	14074.875
2897.36515	14135.575
2899.85698	14160.575
2902.34727	14167.375
2904.83604	14160.275
2907.32328	14222.275
2909.809	14240.775
2912.29319	14254.175
2914.77587	14231.975
2917.25702	14220.275
2919.73665	14214.275
2922.21476	14203.675
2924.69136	14186.875
2927.16644	14205.375
2929.64	14183.275
2932.11205	14170.375
2934.58258	14117.975
2937.05161	14137.175
2939.51912	14140.275
2941.98513	14128.175
2944.44962	14099.275
2946.91261	14063.875
2949.37409	14107.075
2951.83407	14077.875
2954.29254	14093.875
2956.74951	14077.075
2959.20498	14076.575
2961.65895	14042.175
2964.11142	14011.175
2966.56239	14019.975
2969.01186	14004.375
2971.45984	14001.175
2973.90632	13967.575
2976.35131	13956.575
2978.7948	13925.175
2981.23681	13880.075
2983.67732	13872.175
2986.11635	13841.875
2988.55388	13809.075
2990.98993	13826.075
2993.4245	13772.675
2995.85758	13776.375
2998.28917	13744.475
3000.71928	13747.875
3003.14791	13688.375
3005.57506	13710.675
3008.00073	13666.675
3010.42493	13656.375
3012.84764	13683.075
3015.26888	13651.975
3017.68865	13627.375
3020.10694	13610.375
3022.52376	13604.175
3024.9391	13585.775
3027.35298	13532.775
3029.76539	13529.175
3032.17632	13552.975
3034.5858	13519.275
3036.9938	13540.475
3039.40034	13514.775
3041.80542	13530.175
3044.20903	13487.175
3046.61118	13502.375
3049.01187	13470.975
3051.4111	13514.675
3053.80888	13460.275
3056.20519	13432.575
3058.60005	13408.575
3060.99345	13391.675
3063.3854	13396.275
3065.7759	13352.275
3068.16494	13336.575
3070.55254	13312.975
3072.93868	13267.175
3075.32338	13222.975
3077.70662	13238.975
3080.08842	13187.175
3082.46878	13164.275
3084.84769	13157.575
3087.22515	13158.375
3089.60118	13151.475
3091.97576	13194.675
3094.3489	13147.775
3096.72061	13138.075
3099.09087	13162.475
3101.4597	13158.775
3103.82709	13151.475
3106.19305	13155.575
3108.55757	13151.875
3110.92066	13110.775
3113.28232	13118.075
3115.64255	13070.475
3118.00134	13084.575
3120.35871	13072.675
3122.71466	13071.475
3125.06917	13030.975
3127.42226	13016.975
