Data from AgNPs_FTO_APTES_UA_50uM_CRN_500uM_R6G_10uM_NaF_0.1M_Addition_RamanShift__15__16-59-23-536.txt Node

Date: Mon Feb 21 16:59:23 GMT 2022
User: TCL
Spectrometer: QEP01345
Trigger mode: 4
Integration Time (sec): 7.000000E0
Scans to average: 10
Electric dark correction enabled: true
Nonlinearity correction enabled: false
Boxcar width: 0
XAxis mode: Raman Shifts
Number of Pixels in Spectrum: 1044
>>>>>Begin Spectral Data<<<<<
46.04893	-1.3125
50.45542	-0.3125
54.85868	0.4875
59.25871	-1.4125
63.6555	47.7875
68.04907	47.9875
72.43941	55.8875
76.82654	56.3875
81.21044	59.6875
85.59113	60.9875
89.96862	62.4875
94.34289	65.6875
98.71396	66.9875
103.08183	69.6875
107.4465	72.8875
111.80798	72.0875
116.16626	75.3875
120.52136	71.6875
124.87327	77.9875
129.222	79.6875
133.56755	80.8875
137.90993	87.9875
142.24913	88.2875
146.58517	94.3875
150.91804	108.8875
155.24774	122.7875
159.57429	142.1875
163.89768	186.3875
168.21792	237.2875
172.53501	319.1875
176.84895	444.2875
181.15975	618.3875
185.46741	863.0875
189.77193	1192.7875
194.07331	1607.6875
198.37157	2072.0875
202.6667	2575.2875
206.9587	3046.2875
211.24758	3541.3875
215.53334	4031.9875
219.81599	4530.5875
224.09553	5077.0875
228.37195	5694.9875
232.64527	6350.1875
236.91549	7068.4875
241.18261	7765.7875
245.44663	8425.7875
249.70755	9014.0875
253.96539	9529.0875
258.22014	9950.7875
262.4718	10289.7875
266.72039	10510.9875
270.96589	10630.0875
275.20832	10607.0875
279.44768	10490.9875
283.68397	10340.5875
287.91719	10197.2875
292.14735	10085.3875
296.37445	10057.5875
300.59849	10064.0875
304.81948	10111.5875
309.03742	10152.2875
313.25231	10086.2875
317.46415	9931.2875
321.67296	9698.1875
325.87872	9529.8875
330.08145	9443.6875
334.28114	9420.0875
338.47781	9531.1875
342.67145	9667.4875
346.86207	9828.1875
351.04966	10027.5875
355.23424	10251.3875
359.4158	10448.4875
363.59435	10578.1875
367.76989	10718.9875
371.94243	10801.7875
376.11196	10849.7875
380.27849	10902.4875
384.44203	10952.4875
388.60257	10980.5875
392.76012	11037.2875
396.91468	11151.4875
401.06626	11261.5875
405.21485	11358.4875
409.36047	11305.6875
413.50311	11112.8875
417.64277	10922.2875
421.77947	10825.1875
425.9132	10800.7875
430.04396	10822.8875
434.17176	10863.7875
438.2966	10968.6875
442.41849	11063.4875
446.53742	11197.7875
450.6534	11362.7875
454.76644	11445.7875
458.87653	11522.1875
462.98368	11505.1875
467.08789	11518.8875
471.18916	11436.1875
475.2875	11393.4875
479.38291	11275.1875
483.4754	11207.7875
487.56496	11162.2875
491.6516	11132.1875
495.73531	11122.6875
499.81612	11119.7875
503.89401	11201.2875
507.96899	11243.1875
512.04106	11283.9875
516.11023	11345.7875
520.1765	11374.5875
524.23987	11380.3875
528.30034	11310.0875
532.35792	11242.1875
536.41261	11173.4875
540.46441	11108.1875
544.51333	11078.4875
548.55936	11102.1875
552.60252	11220.1875
556.64279	11322.4875
560.6802	11372.2875
564.71473	11384.4875
568.7464	11462.6875
572.7752	11530.9875
576.80114	11524.9875
580.82422	11507.3875
584.84444	11562.9875
588.86181	11568.1875
592.87633	11586.4875
596.888	11673.5875
600.89682	11822.6875
604.9028	12264.9875
608.90594	13471.0875
612.90624	14938.8875
616.90371	14476.5875
620.89834	12453.9875
624.89015	11495.2875
628.87913	11350.6875
632.86528	11387.5875
636.84862	11521.2875
640.82913	11493.5875
644.80683	11324.1875
648.78172	11182.1875
652.75379	11178.5875
656.72306	11273.8875
660.68952	11473.4875
664.65319	11478.6875
668.61405	11370.0875
672.57211	11361.0875
676.52738	11468.6875
680.47986	11507.5875
684.42955	11484.8875
688.37646	11422.9875
692.32058	11427.8875
696.26192	11422.1875
700.20048	11447.6875
704.13626	11446.0875
708.06928	11423.0875
711.99952	11325.8875
715.927	11277.2875
719.85171	11284.3875
723.77365	11288.7875
727.69284	11252.8875
731.60928	11186.7875
735.52295	11160.1875
739.43388	11167.0875
743.34206	11185.6875
747.24749	11200.6875
751.15017	11185.4875
755.05012	11242.1875
758.94733	11454.2875
762.8418	11839.2875
766.73354	12517.0875
770.62254	13325.0875
774.50882	13761.5875
778.39237	13448.3875
782.27321	12619.8875
786.15132	11872.2875
790.02671	11432.5875
793.89938	11219.0875
797.76935	11131.2875
801.6366	11034.7875
805.50115	11000.3875
809.36299	10968.9875
813.22213	10909.3875
817.07857	10925.8875
820.93231	10884.4875
824.78336	10902.4875
828.63172	10866.9875
832.47738	10857.5875
836.32036	10841.7875
840.16066	10845.7875
843.99827	10834.7875
847.8332	10829.9875
851.66546	10823.0875
855.49504	10847.6875
859.32195	10843.5875
863.1462	10852.8875
866.96777	10839.2875
870.78668	10858.8875
874.60293	10853.2875
878.41652	10855.8875
882.22745	10882.0875
886.03573	10906.5875
889.84136	10892.0875
893.64433	10888.3875
897.44466	10849.1875
901.24235	10845.5875
905.0374	10808.7875
908.8298	10787.9875
912.61957	10697.2875
916.40671	10786.1875
920.19121	10801.4875
923.97308	10784.5875
927.75233	10791.2875
931.52895	10809.6875
935.30295	10754.3875
939.07433	10663.7875
942.84309	10548.8875
946.60924	10496.4875
950.37278	10435.9875
954.13371	10430.3875
957.89203	10408.2875
961.64774	10362.0875
965.40086	10354.4875
969.15137	10318.5875
972.89929	10323.1875
976.64461	10282.0875
980.38733	10260.7875
984.12747	10244.4875
987.86502	10284.4875
991.59999	10282.1875
995.33237	10331.4875
999.06217	10377.7875
1002.78939	10437.6875
1006.51404	10491.7875
1010.23611	10576.8875
1013.95561	10656.6875
1017.67255	10682.7875
1021.38692	10664.3875
1025.09872	10587.6875
1028.80796	10536.0875
1032.51465	10509.5875
1036.21877	10472.2875
1039.92035	10506.8875
1043.61937	10573.9875
1047.31584	10606.4875
1051.00976	10640.1875
1054.70114	10636.1875
1058.38998	10657.1875
1062.07627	10700.8875
1065.76003	10720.2875
1069.44126	10743.7875
1073.11995	10798.9875
1076.79611	10857.6875
1080.46974	10926.9875
1084.14085	10952.6875
1087.80943	11018.1875
1091.47549	11071.5875
1095.13903	11073.4875
1098.80005	10995.9875
1102.45857	10904.0875
1106.11456	10834.7875
1109.76805	10782.0875
1113.41903	10832.8875
1117.06751	10915.8875
1120.71348	11049.6875
1124.35696	11163.2875
1127.99793	11342.0875
1131.63641	11367.2875
1135.2724	11256.8875
1138.90589	11071.4875
1142.5369	10964.5875
1146.16542	10883.0875
1149.79145	10818.3875
1153.415	10776.4875
1157.03607	10811.5875
1160.65467	10926.2875
1164.27079	11066.3875
1167.88443	11292.3875
1171.49561	11612.3875
1175.10432	12126.4875
1178.71056	12812.7875
1182.31434	13486.3875
1185.91565	13796.8875
1189.51451	13787.3875
1193.11091	13522.0875
1196.70485	13132.2875
1200.29634	12762.2875
1203.88538	12415.9875
1207.47197	12059.6875
1211.05612	11683.5875
1214.63782	11451.9875
1218.21708	11283.8875
1221.79391	11190.2875
1225.36829	11132.5875
1228.94024	11145.2875
1232.50976	11144.4875
1236.07685	11143.5875
1239.6415	11165.5875
1243.20374	11144.2875
1246.76355	11193.5875
1250.32093	11244.2875
1253.8759	11315.7875
1257.42845	11417.0875
1260.97859	11579.6875
1264.52631	11700.6875
1268.07163	11851.9875
1271.61453	11993.9875
1275.15503	12113.1875
1278.69312	12195.5875
1282.22882	12198.7875
1285.76211	12269.5875
1289.29301	12422.5875
1292.82151	12658.5875
1296.34761	12886.4875
1299.87133	13220.5875
1303.39266	13678.3875
1306.9116	14289.4875
1310.42815	14962.2875
1313.94233	15329.3875
1317.45412	15163.4875
1320.96354	14732.4875
1324.47058	14274.7875
1327.97525	13814.9875
1331.47754	13459.7875
1334.97747	13339.0875
1338.47502	13370.0875
1341.97022	13620.8875
1345.46305	14003.0875
1348.95352	14510.8875
1352.44163	15125.1875
1355.92738	15753.3875
1359.41078	16669.0875
1362.89183	17507.8875
1366.37053	17358.5875
1369.84688	15871.6875
1373.32088	14182.4875
1376.79254	13057.4875
1380.26186	12453.1875
1383.72883	12121.8875
1387.19347	11925.3875
1390.65578	11660.7875
1394.11575	11464.3875
1397.57339	11302.2875
1401.0287	11197.1875
1404.48168	11145.0875
1407.93234	11133.7875
1411.38068	11086.8875
1414.82669	11060.7875
1418.27039	10996.7875
1421.71177	10922.1875
1425.15083	10813.3875
1428.58758	10694.3875
1432.02203	10624.7875
1435.45416	10666.1875
1438.88399	10659.1875
1442.31151	10688.2875
1445.73673	10734.8875
1449.15965	10761.1875
1452.58027	10793.9875
1455.9986	10790.2875
1459.41463	10850.8875
1462.82837	10924.8875
1466.23982	11051.9875
1469.64898	11167.8875
1473.05586	11303.4875
1476.46045	11419.7875
1479.86276	11492.3875
1483.26279	11586.5875
1486.66054	11684.9875
1490.05602	11843.7875
1493.44922	12134.4875
1496.84016	12574.2875
1500.22882	13332.9875
1503.61521	14304.8875
1506.99934	15330.3875
1510.38121	16088.6875
1513.76081	16167.1875
1517.13816	15504.4875
1520.51324	14344.6875
1523.88607	13345.9875
1527.25665	12660.7875
1530.62498	12301.7875
1533.99105	12130.8875
1537.35488	11930.2875
1540.71647	11787.5875
1544.07581	11667.6875
1547.4329	11614.3875
1550.78776	11555.9875
1554.14038	11530.2875
1557.49077	11553.2875
1560.83892	11630.2875
1564.18484	11765.3875
1567.52853	11928.1875
1570.86999	12095.1875
1574.20922	12225.4875
1577.54624	12216.5875
1580.88103	11968.0875
1584.2136	11536.2875
1587.54395	11282.4875
1590.87208	11236.9875
1594.19801	11410.2875
1597.52172	11722.7875
1600.84321	11887.9875
1604.16251	11770.4875
1607.47959	11538.3875
1610.79447	11258.7875
1614.10715	10923.2875
1617.41763	10552.0875
1620.7259	10264.2875
1624.03199	10084.0875
1627.33587	9977.4875
1630.63757	10023.0875
1633.93707	10164.3875
1637.23439	10420.0875
1640.52951	10849.4875
1643.82246	11583.3875
1647.11321	12355.8875
1650.40179	12916.7875
1653.68819	12821.6875
1656.97241	12058.7875
1660.25446	11038.7875
1663.53433	10289.5875
1666.81203	9787.8875
1670.08756	9450.8875
1673.36092	9265.6875
1676.63211	9132.7875
1679.90115	9048.7875
1683.16801	8966.9875
1686.43272	8880.2875
1689.69527	8791.9875
1692.95567	8764.4875
1696.2139	8734.9875
1699.46999	8706.0875
1702.72392	8669.0875
1705.97571	8673.7875
1709.22535	8672.8875
1712.47284	8664.7875
1715.71819	8645.0875
1718.96139	8625.9875
1722.20246	8613.8875
1725.44139	8594.3875
1728.67818	8527.6875
1731.91284	8506.8875
1735.14537	8468.1875
1738.37576	8432.4875
1741.60403	8371.8875
1744.83017	8368.7875
1748.05418	8366.9875
1751.27607	8357.0875
1754.49584	8348.2875
1757.71349	8349.9875
1760.92903	8360.8875
1764.14244	8326.2875
1767.35375	8313.6875
1770.56294	8263.1875
1773.77002	8236.6875
1776.97499	8204.8875
1780.17785	8190.1875
1783.37861	8158.4875
1786.57727	8141.0875
1789.77382	8089.6875
1792.96828	8058.4875
1796.16064	8050.1875
1799.3509	8017.1875
1802.53907	7986.0875
1805.72514	7961.1875
1808.90913	7938.8875
1812.09102	7931.1875
1815.27083	7889.6875
1818.44856	7900.5875
1821.6242	7851.8875
1824.79776	7844.6875
1827.96924	7826.6875
1831.13864	7832.6875
1834.30597	7827.7875
1837.47122	7801.3875
1840.6344	7771.5875
1843.7955	7767.7875
1846.95454	7762.0875
1850.11151	7753.9875
1853.26642	7742.8875
1856.41926	7718.4875
1859.57004	7696.6875
1862.71876	7703.0875
1865.86542	7687.6875
1869.01003	7684.9875
1872.15258	7661.2875
1875.29308	7665.9875
1878.43152	7654.1875
1881.56792	7643.6875
1884.70227	7622.9875
1887.83457	7621.4875
1890.96482	7626.6875
1894.09304	7584.4875
1897.21921	7587.6875
1900.34335	7593.7875
1903.46544	7564.8875
1906.58551	7565.4875
1909.70353	7524.8875
1912.81953	7540.6875
1915.93349	7522.6875
1919.04543	7487.1875
1922.15534	7470.5875
1925.26322	7450.0875
1928.36908	7437.8875
1931.47292	7431.8875
1934.57473	7405.8875
1937.67453	7382.8875
1940.77232	7369.7875
1943.86808	7348.5875
1946.96184	7331.3875
1950.05358	7315.6875
1953.14331	7294.5875
1956.23103	7250.4875
1959.31675	7248.5875
1962.40046	7224.9875
1965.48217	7194.8875
1968.56188	7178.3875
1971.63959	7129.7875
1974.7153	7118.7875
1977.78901	7120.4875
1980.86073	7086.2875
1983.93046	7072.5875
1986.99819	7040.7875
1990.06394	7031.5875
1993.1277	6976.6875
1996.18947	6960.2875
1999.24925	6943.2875
2002.30706	6916.9875
2005.36288	6887.5875
2008.41672	6889.9875
2011.46859	6868.1875
2014.51848	6832.6875
2017.56639	6818.5875
2020.61233	6803.7875
2023.6563	6765.4875
2026.6983	6760.9875
2029.73833	6726.6875
2032.7764	6715.5875
2035.8125	6706.3875
2038.84664	6672.9875
2041.87881	6660.8875
2044.90903	6635.1875
2047.93729	6598.4875
2050.96359	6610.5875
2053.98794	6600.9875
2057.01034	6584.3875
2060.03078	6585.9875
2063.04927	6595.4875
2066.06582	6586.4875
2069.08042	6555.3875
2072.09307	6558.3875
2075.10378	6545.0875
2078.11255	6543.0875
2081.11938	6538.4875
2084.12426	6524.4875
2087.12722	6518.0875
2090.12824	6525.1875
2093.12732	6530.0875
2096.12447	6537.7875
2099.11969	6534.9875
2102.11299	6526.6875
2105.10435	6523.3875
2108.09379	6536.7875
2111.08131	6546.6875
2114.0669	6537.3875
2117.05057	6538.9875
2120.03233	6519.4875
2123.01216	6516.3875
2125.99008	6534.2875
2128.96609	6520.9875
2131.94018	6553.5875
2134.91236	6536.7875
2137.88263	6537.8875
2140.851	6546.7875
2143.81746	6535.9875
2146.78201	6552.2875
2149.74466	6540.8875
2152.7054	6560.9875
2155.66425	6530.8875
2158.6212	6530.3875
2161.57625	6511.9875
2164.52941	6516.6875
2167.48067	6492.5875
2170.43004	6512.5875
2173.37752	6487.0875
2176.32311	6494.9875
2179.26681	6486.2875
2182.20863	6476.9875
2185.14856	6494.8875
2188.08661	6476.7875
2191.02278	6465.3875
2193.95707	6477.4875
2196.88948	6458.7875
2199.82001	6444.5875
2202.74867	6446.2875
2205.67545	6418.0875
2208.60037	6432.2875
2211.52341	6399.3875
2214.44458	6387.3875
2217.36388	6369.1875
2220.28132	6371.5875
2223.1969	6349.9875
2226.11061	6349.8875
2229.02246	6320.1875
2231.93245	6293.2875
2234.84058	6278.4875
2237.74686	6284.5875
2240.65128	6265.9875
2243.55385	6254.7875
2246.45456	6259.2875
2249.35343	6278.8875
2252.25044	6233.7875
2255.14561	6236.9875
2258.03893	6214.8875
2260.93041	6191.1875
2263.82004	6177.7875
2266.70783	6174.4875
2269.59378	6147.2875
2272.4779	6151.2875
2275.36017	6131.9875
2278.24061	6092.0875
2281.11922	6092.9875
2283.996	6071.9875
2286.87094	6053.6875
2289.74405	6042.3875
2292.61534	6037.7875
2295.4848	6032.2875
2298.35243	6046.0875
2301.21824	6015.6875
2304.08223	6003.8875
2306.94439	6006.6875
2309.80474	6004.1875
2312.66327	5990.9875
2315.51999	5970.2875
2318.37489	5968.4875
2321.22797	5975.7875
2324.07925	5961.9875
2326.92871	5926.1875
2329.77637	5931.9875
2332.62222	5918.2875
2335.46626	5897.1875
2338.3085	5896.0875
2341.14893	5877.5875
2343.98756	5868.7875
2346.8244	5851.5875
2349.65943	5854.6875
2352.49267	5858.6875
2355.32411	5861.3875
2358.15376	5856.6875
2360.98161	5861.3875
2363.80768	5836.6875
2366.63195	5839.0875
2369.45444	5830.4875
2372.27514	5835.7875
2375.09405	5833.6875
2377.91118	5810.2875
2380.72652	5775.8875
2383.54009	5782.0875
2386.35187	5774.4875
2389.16188	5722.7875
2391.97011	5722.2875
2394.77657	5696.9875
2397.58125	5701.3875
2400.38416	5659.9875
2403.18529	5661.9875
2405.98466	5675.2875
2408.78226	5640.8875
2411.57809	5637.7875
2414.37216	5627.5875
2417.16446	5630.3875
2419.955	5636.4875
2422.74378	5599.7875
2425.5308	5597.1875
2428.31606	5599.3875
2431.09956	5605.9875
2433.88131	5567.0875
2436.6613	5588.1875
2439.43954	5570.1875
2442.21603	5566.3875
2444.99077	5552.6875
2447.76377	5544.1875
2450.53501	5542.8875
2453.30451	5537.6875
2456.07226	5533.7875
2458.83827	5515.9875
2461.60254	5537.7875
2464.36507	5519.7875
2467.12586	5507.4875
2469.88492	5502.5875
2472.64224	5484.6875
2475.39782	5479.9875
2478.15167	5489.3875
2480.90379	5497.7875
2483.65417	5477.5875
2486.40283	5470.2875
2489.14976	5468.0875
2491.89497	5458.7875
2494.63845	5480.5875
2497.3802	5456.0875
2500.12024	5446.3875
2502.85855	5439.2875
2505.59514	5431.0875
2508.33002	5427.7875
2511.06318	5407.2875
2513.79462	5388.5875
2516.52435	5387.1875
2519.25237	5383.7875
2521.97867	5360.1875
2524.70327	5347.9875
2527.42616	5336.8875
2530.14734	5339.7875
2532.86681	5326.8875
2535.58458	5310.0875
2538.30065	5312.8875
2541.01501	5320.4875
2543.72768	5304.4875
2546.43864	5278.2875
2549.14791	5254.9875
2551.85548	5268.9875
2554.56136	5250.6875
2557.26554	5243.9875
2559.96803	5239.6875
2562.66883	5213.5875
2565.36794	5200.8875
2568.06536	5189.7875
2570.7611	5182.7875
2573.45514	5158.0875
2576.14751	5135.7875
2578.83819	5149.5875
2581.52719	5136.4875
2584.21451	5124.9875
2586.90015	5116.8875
2589.58411	5119.8875
2592.2664	5095.5875
2594.94701	5094.5875
2597.62594	5077.8875
2600.30321	5055.2875
2602.9788	5048.7875
2605.65273	5020.8875
2608.32498	5043.1875
2610.99557	5023.3875
2613.66449	5005.2875
2616.33175	4996.8875
2618.99734	5016.3875
2621.66128	5002.5875
2624.32355	4989.7875
2626.98416	4982.6875
2629.64311	4955.2875
2632.30041	4946.1875
2634.95605	4939.6875
2637.61004	4929.4875
2640.26238	4939.6875
2642.91306	4920.4875
2645.56209	4918.7875
2648.20948	4916.3875
2650.85521	4904.9875
2653.4993	4894.0875
2656.14175	4888.6875
2658.78255	4892.3875
2661.42171	4885.4875
2664.05923	4931.5875
2666.6951	4909.7875
2669.32934	4889.6875
2671.96194	4889.3875
2674.59291	4878.4875
2677.22224	4896.2875
2679.84993	4899.5875
2682.476	4900.5875
2685.10043	4894.5875
2687.72324	4887.9875
2690.34441	4879.9875
2692.96396	4892.2875
2695.58188	4878.1875
2698.19818	4889.9875
2700.81285	4880.2875
2703.4259	4847.5875
2706.03733	4852.7875
2708.64714	4863.8875
2711.25533	4858.7875
2713.86191	4858.8875
2716.46687	4854.1875
2719.07021	4854.6875
2721.67194	4850.3875
2724.27206	4855.7875
2726.87057	4856.9875
2729.46747	4844.0875
2732.06276	4866.6875
2734.65644	4858.8875
2737.24852	4865.8875
2739.83899	4841.6875
2742.42786	4831.1875
2745.01513	4811.2875
2747.60079	4798.1875
2750.18486	4797.5875
2752.76733	4770.3875
2755.3482	4760.9875
2757.92747	4774.0875
2760.50515	4761.0875
2763.08123	4762.5875
2765.65573	4751.3875
2768.22863	4748.2875
2770.79994	4739.7875
2773.36967	4717.5875
2775.9378	4722.7875
2778.50435	4716.2875
2781.06932	4711.9875
2783.6327	4714.9875
2786.1945	4690.9875
2788.75471	4694.9875
2791.31335	4674.2875
2793.87041	4664.8875
2796.42589	4650.8875
2798.97979	4643.2875
2801.53212	4625.6875
2804.08288	4617.5875
2806.63206	4604.0875
2809.17967	4608.2875
2811.72571	4600.6875
2814.27018	4591.8875
2816.81308	4569.5875
2819.35442	4566.8875
2821.89419	4556.6875
2824.43239	4566.5875
2826.96904	4550.2875
2829.50412	4539.5875
2832.03763	4530.8875
2834.56959	4540.7875
2837.1	4539.0875
2839.62884	4556.5875
2842.15613	4548.9875
2844.68186	4568.5875
2847.20604	4581.5875
2849.72867	4567.8875
2852.24974	4575.4875
2854.76927	4558.0875
2857.28724	4542.0875
2859.80367	4531.9875
2862.31855	4539.6875
2864.83189	4532.0875
2867.34368	4529.6875
2869.85393	4505.3875
2872.36264	4515.3875
2874.8698	4522.9875
2877.37543	4514.6875
2879.87952	4486.5875
2882.38207	4481.9875
2884.88308	4489.9875
2887.38256	4487.5875
2889.88051	4487.5875
2892.37692	4504.8875
2894.8718	4491.0875
2897.36515	4495.6875
2899.85698	4492.6875
2902.34727	4504.7875
2904.83604	4504.5875
2907.32328	4515.7875
2909.809	4503.0875
2912.29319	4510.5875
2914.77587	4506.7875
2917.25702	4520.6875
2919.73665	4525.6875
2922.21476	4528.2875
2924.69136	4515.6875
2927.16644	4529.6875
2929.64	4506.4875
2932.11205	4503.7875
2934.58258	4481.6875
2937.05161	4508.1875
2939.51912	4505.0875
2941.98513	4495.3875
2944.44962	4481.1875
2946.91261	4445.4875
2949.37409	4442.0875
2951.83407	4459.8875
2954.29254	4459.8875
2956.74951	4432.7875
2959.20498	4441.2875
2961.65895	4420.8875
2964.11142	4423.2875
2966.56239	4410.3875
2969.01186	4393.1875
2971.45984	4394.4875
2973.90632	4384.9875
2976.35131	4378.1875
2978.7948	4352.8875
2981.23681	4344.5875
2983.67732	4346.8875
2986.11635	4323.3875
2988.55388	4302.0875
2990.98993	4311.4875
2993.4245	4288.4875
2995.85758	4287.0875
2998.28917	4275.8875
3000.71928	4263.4875
3003.14791	4275.0875
3005.57506	4272.7875
3008.00073	4257.6875
3010.42493	4227.4875
3012.84764	4241.4875
3015.26888	4231.6875
3017.68865	4227.9875
3020.10694	4226.1875
3022.52376	4210.1875
3024.9391	4215.1875
3027.35298	4175.4875
3029.76539	4179.1875
3032.17632	4182.5875
3034.5858	4170.1875
3036.9938	4165.2875
3039.40034	4162.3875
3041.80542	4149.0875
3044.20903	4150.5875
3046.61118	4140.1875
3049.01187	4137.8875
3051.4111	4147.2875
3053.80888	4133.7875
3056.20519	4125.5875
3058.60005	4102.1875
3060.99345	4115.9875
3063.3854	4089.5875
3065.7759	4093.0875
3068.16494	4086.1875
3070.55254	4074.7875
3072.93868	4063.1875
3075.32338	4055.2875
3077.70662	4063.8875
3080.08842	4046.1875
3082.46878	4047.7875
