Data from AgNPs_FTO_APTES_UA_50uM_CRN_0uM_R6G_10uM_NaF_0.1M_Addition_RamanShift__32__10-47-34-664.txt Node

Date: Mon Feb 21 10:47:34 GMT 2022
User: TCL
Spectrometer: QEP01345
Trigger mode: 4
Integration Time (sec): 7.000000E0
Scans to average: 10
Electric dark correction enabled: true
Nonlinearity correction enabled: false
Boxcar width: 0
XAxis mode: Raman Shifts
Number of Pixels in Spectrum: 1044
>>>>>Begin Spectral Data<<<<<
46.04893	-0.3375
50.45542	0.3625
54.85868	0.0625
59.25871	-1.2375
63.6555	41.4625
68.04907	50.2625
72.43941	44.6625
76.82654	53.5625
81.21044	56.7625
85.59113	56.9625
89.96862	57.9625
94.34289	62.4625
98.71396	60.1625
103.08183	65.8625
107.4465	66.8625
111.80798	68.2625
116.16626	66.7625
120.52136	66.4625
124.87327	78.1625
129.222	74.4625
133.56755	74.8625
137.90993	82.2625
142.24913	89.1625
146.58517	97.8625
150.91804	115.3625
155.24774	131.6625
159.57429	164.5625
163.89768	208.3625
168.21792	270.3625
172.53501	367.7625
176.84895	507.7625
181.15975	714.0625
185.46741	997.8625
189.77193	1373.7625
194.07331	1843.2625
198.37157	2388.2625
202.6667	2940.8625
206.9587	3495.7625
211.24758	4055.9625
215.53334	4597.7625
219.81599	5194.0625
224.09553	5817.1625
228.37195	6516.6625
232.64527	7279.2625
236.91549	8107.7625
241.18261	8938.0625
245.44663	9724.2625
249.70755	10420.6625
253.96539	11035.6625
258.22014	11512.4625
262.4718	11870.8625
266.72039	12120.9625
270.96589	12203.3625
275.20832	12139.3625
279.44768	12065.5625
283.68397	11884.1625
287.91719	11744.9625
292.14735	11618.5625
296.37445	11561.4625
300.59849	11583.3625
304.81948	11586.1625
309.03742	11628.3625
313.25231	11556.3625
317.46415	11449.8625
321.67296	11208.6625
325.87872	11025.9625
330.08145	10912.3625
334.28114	10863.5625
338.47781	10901.5625
342.67145	11001.5625
346.86207	11150.3625
351.04966	11327.8625
355.23424	11550.6625
359.4158	11723.9625
363.59435	11863.7625
367.76989	11925.3625
371.94243	11955.3625
376.11196	11944.6625
380.27849	11929.2625
384.44203	11945.3625
388.60257	11998.7625
392.76012	12099.9625
396.91468	12296.7625
401.06626	12520.9625
405.21485	12633.4625
409.36047	12592.3625
413.50311	12436.1625
417.64277	12335.7625
421.77947	12349.8625
425.9132	12412.7625
430.04396	12435.3625
434.17176	12471.0625
438.2966	12526.2625
442.41849	12656.7625
446.53742	12906.5625
450.6534	13128.5625
454.76644	13330.0625
458.87653	13398.7625
462.98368	13390.4625
467.08789	13346.0625
471.18916	13229.7625
475.2875	13078.3625
479.38291	12985.6625
483.4754	12953.5625
487.56496	12880.3625
491.6516	12802.3625
495.73531	12656.7625
499.81612	12575.6625
503.89401	12622.1625
507.96899	12630.3625
512.04106	12674.3625
516.11023	12637.1625
520.1765	12512.0625
524.23987	12403.4625
528.30034	12306.8625
532.35792	12177.7625
536.41261	12079.5625
540.46441	11965.9625
544.51333	11927.3625
548.55936	12031.2625
552.60252	12234.1625
556.64279	12469.2625
560.6802	12653.5625
564.71473	12810.6625
568.7464	13055.7625
572.7752	13485.8625
576.80114	14034.3625
580.82422	14531.0625
584.84444	15031.1625
588.86181	15663.4625
592.87633	16332.8625
596.888	16320.4625
600.89682	15540.2625
604.9028	15045.5625
608.90594	15588.7625
612.90624	16348.6625
616.90371	15504.6625
620.89834	13491.8625
624.89015	12587.8625
628.87913	12506.8625
632.86528	12656.9625
636.84862	12704.3625
640.82913	12496.7625
644.80683	12207.2625
648.78172	11963.2625
652.75379	11953.4625
656.72306	12047.7625
660.68952	12236.2625
664.65319	12189.6625
668.61405	12032.8625
672.57211	12002.4625
676.52738	12036.0625
680.47986	12081.6625
684.42955	11965.6625
688.37646	11944.9625
692.32058	11967.4625
696.26192	12108.4625
700.20048	12239.7625
704.13626	12327.4625
708.06928	12373.3625
711.99952	12389.0625
715.927	12403.5625
719.85171	12380.8625
723.77365	12290.1625
727.69284	12065.1625
731.60928	11904.2625
735.52295	11812.0625
739.43388	11806.8625
743.34206	11844.2625
747.24749	11920.0625
751.15017	12031.4625
755.05012	12246.3625
758.94733	12535.7625
762.8418	13079.2625
766.73354	13910.7625
770.62254	14637.1625
774.50882	14758.3625
778.39237	14176.4625
782.27321	13393.1625
786.15132	12736.0625
790.02671	12289.1625
793.89938	12060.0625
797.76935	11885.4625
801.6366	11838.6625
805.50115	11792.5625
809.36299	11771.4625
813.22213	11729.1625
817.07857	11683.3625
820.93231	11666.7625
824.78336	11614.7625
828.63172	11598.4625
832.47738	11537.8625
836.32036	11505.5625
840.16066	11512.6625
843.99827	11520.6625
847.8332	11537.0625
851.66546	11568.9625
855.49504	11572.5625
859.32195	11582.2625
863.1462	11577.6625
866.96777	11558.2625
870.78668	11532.9625
874.60293	11543.0625
878.41652	11572.4625
882.22745	11617.3625
886.03573	11643.8625
889.84136	11669.6625
893.64433	11663.1625
897.44466	11647.7625
901.24235	11643.3625
905.0374	11616.1625
908.8298	11598.3625
912.61957	11579.8625
916.40671	11651.3625
920.19121	11835.1625
923.97308	11955.6625
927.75233	12009.9625
931.52895	11912.8625
935.30295	11669.0625
939.07433	11439.4625
942.84309	11288.7625
946.60924	11189.9625
950.37278	11143.4625
954.13371	11107.9625
957.89203	11079.9625
961.64774	11086.1625
965.40086	11106.8625
969.15137	11062.4625
972.89929	11036.9625
976.64461	11007.5625
980.38733	10984.6625
984.12747	10958.0625
987.86502	10966.7625
991.59999	11020.2625
995.33237	11097.2625
999.06217	11188.8625
1002.78939	11381.6625
1006.51404	11573.7625
1010.23611	11744.8625
1013.95561	11883.9625
1017.67255	11932.2625
1021.38692	11834.6625
1025.09872	11667.1625
1028.80796	11524.5625
1032.51465	11431.3625
1036.21877	11443.9625
1039.92035	11474.8625
1043.61937	11577.6625
1047.31584	11626.8625
1051.00976	11678.1625
1054.70114	11695.9625
1058.38998	11749.7625
1062.07627	11876.5625
1065.76003	11975.0625
1069.44126	12155.4625
1073.11995	12386.9625
1076.79611	12614.3625
1080.46974	12701.2625
1084.14085	12757.7625
1087.80943	12849.5625
1091.47549	12986.5625
1095.13903	13073.2625
1098.80005	12885.1625
1102.45857	12557.3625
1106.11456	12270.5625
1109.76805	12100.3625
1113.41903	12069.3625
1117.06751	12072.9625
1120.71348	12179.4625
1124.35696	12301.4625
1127.99793	12416.1625
1131.63641	12521.3625
1135.2724	12514.9625
1138.90589	12491.7625
1142.5369	12489.8625
1146.16542	12578.9625
1149.79145	12694.6625
1153.415	12778.6625
1157.03607	12921.7625
1160.65467	13181.3625
1164.27079	13583.9625
1167.88443	14145.4625
1171.49561	14719.0625
1175.10432	15500.7625
1178.71056	16526.4625
1182.31434	17381.4625
1185.91565	17884.5625
1189.51451	17949.5625
1193.11091	17737.5625
1196.70485	17280.9625
1200.29634	16698.3625
1203.88538	16224.8625
1207.47197	15938.5625
1211.05612	15790.7625
1214.63782	15601.6625
1218.21708	15250.6625
1221.79391	14824.7625
1225.36829	14503.9625
1228.94024	14321.2625
1232.50976	14214.2625
1236.07685	14090.3625
1239.6415	13983.0625
1243.20374	13930.7625
1246.76355	13937.1625
1250.32093	14049.5625
1253.8759	14262.7625
1257.42845	14620.6625
1260.97859	15030.3625
1264.52631	15479.0625
1268.07163	15944.7625
1271.61453	16335.3625
1275.15503	16771.1625
1278.69312	17259.5625
1282.22882	17779.8625
1285.76211	18421.4625
1289.29301	19067.4625
1292.82151	19769.0625
1296.34761	20614.3625
1299.87133	21599.5625
1303.39266	22560.6625
1306.9116	23344.3625
1310.42815	23868.2625
1313.94233	24088.2625
1317.45412	23880.7625
1320.96354	23482.4625
1324.47058	23222.1625
1327.97525	23042.9625
1331.47754	22991.8625
1334.97747	22840.0625
1338.47502	22642.6625
1341.97022	22485.4625
1345.46305	22318.2625
1348.95352	22205.2625
1352.44163	22230.5625
1355.92738	22484.7625
1359.41078	23091.4625
1362.89183	23843.9625
1366.37053	23841.2625
1369.84688	22487.5625
1373.32088	20412.4625
1376.79254	18803.6625
1380.26186	18048.1625
1383.72883	17868.5625
1387.19347	17682.8625
1390.65578	17451.4625
1394.11575	17282.7625
1397.57339	17348.4625
1401.0287	17498.1625
1404.48168	17626.2625
1407.93234	17529.6625
1411.38068	17178.6625
1414.82669	16694.9625
1418.27039	16111.5625
1421.71177	15608.6625
1425.15083	15216.7625
1428.58758	15025.0625
1432.02203	15170.4625
1435.45416	15446.3625
1438.88399	15781.4625
1442.31151	16022.5625
1445.73673	16167.2625
1449.15965	16280.5625
1452.58027	16379.8625
1455.9986	16418.9625
1459.41463	16584.7625
1462.82837	16792.8625
1466.23982	17041.0625
1469.64898	17247.5625
1473.05586	17377.5625
1476.46045	17413.7625
1479.86276	17398.1625
1483.26279	17401.4625
1486.66054	17486.5625
1490.05602	17704.1625
1493.44922	18053.5625
1496.84016	18470.9625
1500.22882	19023.1625
1503.61521	19617.1625
1506.99934	20167.1625
1510.38121	20585.3625
1513.76081	20609.2625
1517.13816	20297.7625
1520.51324	19774.0625
1523.88607	19409.6625
1527.25665	19162.3625
1530.62498	18976.2625
1533.99105	18747.3625
1537.35488	18388.9625
1540.71647	17851.0625
1544.07581	17289.7625
1547.4329	16789.6625
1550.78776	16362.1625
1554.14038	16150.5625
1557.49077	16025.5625
1560.83892	16036.2625
1564.18484	16091.3625
1567.52853	16164.2625
1570.86999	16328.4625
1574.20922	16590.4625
1577.54624	16801.8625
1580.88103	16860.9625
1584.2136	16946.9625
1587.54395	17327.2625
1590.87208	17990.5625
1594.19801	18759.4625
1597.52172	19448.6625
1600.84321	19461.7625
1604.16251	18581.1625
1607.47959	17312.3625
1610.79447	16054.3625
1614.10715	14919.9625
1617.41763	13974.5625
1620.7259	13328.7625
1624.03199	12997.3625
1627.33587	13005.0625
1630.63757	13291.9625
1633.93707	14014.0625
1637.23439	15250.5625
1640.52951	17123.5625
1643.82246	19467.5625
1647.11321	21409.6625
1650.40179	21927.8625
1653.68819	20495.7625
1656.97241	17948.0625
1660.25446	15408.0625
1663.53433	13504.8625
1666.81203	12326.2625
1670.08756	11609.7625
1673.36092	11187.4625
1676.63211	10920.4625
1679.90115	10745.0625
1683.16801	10561.6625
1686.43272	10435.6625
1689.69527	10329.8625
1692.95567	10223.9625
1696.2139	10058.8625
1699.46999	9918.5625
1702.72392	9886.8625
1705.97571	9937.0625
1709.22535	10034.2625
1712.47284	10070.1625
1715.71819	10090.4625
1718.96139	10083.5625
1722.20246	10073.4625
1725.44139	10033.5625
1728.67818	9956.7625
1731.91284	9924.9625
1735.14537	9879.7625
1738.37576	9835.5625
1741.60403	9808.5625
1744.83017	9774.1625
1748.05418	9694.3625
1751.27607	9656.2625
1754.49584	9576.1625
1757.71349	9509.2625
1760.92903	9438.4625
1764.14244	9440.0625
1767.35375	9461.3625
1770.56294	9458.4625
1773.77002	9462.7625
1776.97499	9483.1625
1780.17785	9530.5625
1783.37861	9540.7625
1786.57727	9542.0625
1789.77382	9520.8625
1792.96828	9565.4625
1796.16064	9526.8625
1799.3509	9522.6625
1802.53907	9474.3625
1805.72514	9441.7625
1808.90913	9435.2625
1812.09102	9415.1625
1815.27083	9405.7625
1818.44856	9371.8625
1821.6242	9382.3625
1824.79776	9345.3625
1827.96924	9337.3625
1831.13864	9332.9625
1834.30597	9332.4625
1837.47122	9344.4625
1840.6344	9355.5625
1843.7955	9332.1625
1846.95454	9330.9625
1850.11151	9332.7625
1853.26642	9271.6625
1856.41926	9306.7625
1859.57004	9285.0625
1862.71876	9296.4625
1865.86542	9266.9625
1869.01003	9281.6625
1872.15258	9245.9625
1875.29308	9213.6625
1878.43152	9220.8625
1881.56792	9221.8625
1884.70227	9199.3625
1887.83457	9207.6625
1890.96482	9154.1625
1894.09304	9138.6625
1897.21921	9138.6625
1900.34335	9143.3625
1903.46544	9127.9625
1906.58551	9099.5625
1909.70353	9086.9625
1912.81953	9054.1625
1915.93349	9052.2625
1919.04543	9049.7625
1922.15534	9021.0625
1925.26322	9024.0625
1928.36908	8975.6625
1931.47292	8962.7625
1934.57473	8932.0625
1937.67453	8914.7625
1940.77232	8914.1625
1943.86808	8877.5625
1946.96184	8864.4625
1950.05358	8826.4625
1953.14331	8797.8625
1956.23103	8774.8625
1959.31675	8739.3625
1962.40046	8719.7625
1965.48217	8699.0625
1968.56188	8681.1625
1971.63959	8655.3625
1974.7153	8639.1625
1977.78901	8596.9625
1980.86073	8543.2625
1983.93046	8537.6625
1986.99819	8484.3625
1990.06394	8471.8625
1993.1277	8450.6625
1996.18947	8431.0625
1999.24925	8409.4625
2002.30706	8373.1625
2005.36288	8363.4625
2008.41672	8339.6625
2011.46859	8318.1625
2014.51848	8282.5625
2017.56639	8250.3625
2020.61233	8249.8625
2023.6563	8236.9625
2026.6983	8202.9625
2029.73833	8199.6625
2032.7764	8165.2625
2035.8125	8140.0625
2038.84664	8113.9625
2041.87881	8115.6625
2044.90903	8102.4625
2047.93729	8054.3625
2050.96359	8051.3625
2053.98794	8054.5625
2057.01034	8058.0625
2060.03078	8029.4625
2063.04927	8019.1625
2066.06582	8036.0625
2069.08042	8021.5625
2072.09307	8016.5625
2075.10378	8024.7625
2078.11255	8022.9625
2081.11938	8028.3625
2084.12426	8029.9625
2087.12722	8037.1625
2090.12824	7995.9625
2093.12732	8016.5625
2096.12447	8029.4625
2099.11969	8030.3625
2102.11299	8015.3625
2105.10435	8046.3625
2108.09379	8014.9625
2111.08131	8022.6625
2114.0669	8031.5625
2117.05057	8055.8625
2120.03233	8038.0625
2123.01216	8034.0625
2125.99008	8065.4625
2128.96609	8106.6625
2131.94018	8072.5625
2134.91236	8071.2625
2137.88263	8084.0625
2140.851	8065.5625
2143.81746	8065.4625
2146.78201	8056.0625
2149.74466	8089.4625
2152.7054	8092.1625
2155.66425	8058.0625
2158.6212	8085.9625
2161.57625	8058.4625
2164.52941	8062.7625
2167.48067	8039.5625
2170.43004	8041.8625
2173.37752	8034.2625
2176.32311	8036.7625
2179.26681	8004.1625
2182.20863	8018.1625
2185.14856	8030.6625
2188.08661	8035.3625
2191.02278	8016.2625
2193.95707	8014.6625
2196.88948	8003.8625
2199.82001	8000.7625
2202.74867	7993.6625
2205.67545	7971.4625
2208.60037	7974.0625
2211.52341	7940.8625
2214.44458	7931.4625
2217.36388	7917.0625
2220.28132	7914.5625
2223.1969	7910.2625
2226.11061	7887.4625
2229.02246	7861.2625
2231.93245	7869.0625
2234.84058	7833.3625
2237.74686	7841.9625
2240.65128	7844.1625
2243.55385	7829.9625
2246.45456	7831.3625
2249.35343	7784.5625
2252.25044	7794.9625
2255.14561	7767.4625
2258.03893	7754.8625
2260.93041	7689.5625
2263.82004	7684.8625
2266.70783	7696.1625
2269.59378	7688.9625
2272.4779	7675.5625
2275.36017	7643.6625
2278.24061	7631.1625
2281.11922	7647.0625
2283.996	7622.1625
2286.87094	7606.3625
2289.74405	7580.8625
2292.61534	7600.2625
2295.4848	7570.8625
2298.35243	7567.0625
2301.21824	7560.3625
2304.08223	7558.6625
2306.94439	7547.8625
2309.80474	7546.9625
2312.66327	7524.2625
2315.51999	7514.5625
2318.37489	7508.2625
2321.22797	7495.7625
2324.07925	7466.4625
2326.92871	7466.6625
2329.77637	7481.9625
2332.62222	7463.2625
2335.46626	7445.4625
2338.3085	7453.1625
2341.14893	7447.4625
2343.98756	7424.3625
2346.8244	7425.4625
2349.65943	7414.7625
2352.49267	7421.2625
2355.32411	7424.2625
2358.15376	7427.8625
2360.98161	7425.4625
2363.80768	7413.0625
2366.63195	7401.7625
2369.45444	7399.3625
2372.27514	7388.3625
2375.09405	7363.6625
2377.91118	7376.5625
2380.72652	7376.9625
2383.54009	7333.3625
2386.35187	7316.8625
2389.16188	7298.2625
2391.97011	7306.4625
2394.77657	7287.1625
2397.58125	7277.6625
2400.38416	7255.8625
2403.18529	7271.3625
2405.98466	7264.0625
2408.78226	7225.1625
2411.57809	7238.9625
2414.37216	7210.0625
2417.16446	7212.3625
2419.955	7209.4625
2422.74378	7209.0625
2425.5308	7179.8625
2428.31606	7179.6625
2431.09956	7194.1625
2433.88131	7185.1625
2436.6613	7203.9625
2439.43954	7211.2625
2442.21603	7191.2625
2444.99077	7161.5625
2447.76377	7191.5625
2450.53501	7145.7625
2453.30451	7153.2625
2456.07226	7167.7625
2458.83827	7143.5625
2461.60254	7141.2625
2464.36507	7121.8625
2467.12586	7110.0625
2469.88492	7112.9625
2472.64224	7103.3625
2475.39782	7103.3625
2478.15167	7077.2625
2480.90379	7121.7625
2483.65417	7123.3625
2486.40283	7109.2625
2489.14976	7133.4625
2491.89497	7113.8625
2494.63845	7101.8625
2497.3802	7061.1625
2500.12024	7104.3625
2502.85855	7075.4625
2505.59514	7071.3625
2508.33002	7079.1625
2511.06318	7069.0625
2513.79462	7059.8625
2516.52435	7035.5625
2519.25237	7045.3625
2521.97867	7028.8625
2524.70327	7014.3625
2527.42616	7030.8625
2530.14734	7018.9625
2532.86681	7020.5625
2535.58458	7009.4625
2538.30065	7014.5625
2541.01501	6987.6625
2543.72768	6969.8625
2546.43864	6989.4625
2549.14791	6960.0625
2551.85548	6984.0625
2554.56136	6939.5625
2557.26554	6944.5625
2559.96803	6931.8625
2562.66883	6904.6625
2565.36794	6902.8625
2568.06536	6885.6625
2570.7611	6897.2625
2573.45514	6891.8625
2576.14751	6874.9625
2578.83819	6869.6625
2581.52719	6834.2625
2584.21451	6836.9625
2586.90015	6828.4625
2589.58411	6824.0625
2592.2664	6804.6625
2594.94701	6798.6625
2597.62594	6806.9625
2600.30321	6797.2625
2602.9788	6797.1625
2605.65273	6779.5625
2608.32498	6801.9625
2610.99557	6795.6625
2613.66449	6778.7625
2616.33175	6781.4625
2618.99734	6764.9625
2621.66128	6762.3625
2624.32355	6754.1625
2626.98416	6750.8625
2629.64311	6753.1625
2632.30041	6748.3625
2634.95605	6734.3625
2637.61004	6709.3625
2640.26238	6695.1625
2642.91306	6689.5625
2645.56209	6690.6625
2648.20948	6693.6625
2650.85521	6687.0625
2653.4993	6688.5625
2656.14175	6804.1625
2658.78255	6693.9625
2661.42171	6701.4625
2664.05923	6711.8625
2666.6951	6699.1625
2669.32934	6729.9625
2671.96194	6709.5625
2674.59291	6719.3625
2677.22224	6722.4625
2679.84993	6697.3625
2682.476	6715.0625
2685.10043	6731.4625
2687.72324	6718.0625
2690.34441	6714.1625
2692.96396	6690.6625
2695.58188	6711.3625
2698.19818	6687.5625
2700.81285	6694.6625
2703.4259	6672.8625
2706.03733	6573.1625
2708.64714	6625.9625
2711.25533	6665.5625
2713.86191	6686.3625
2716.46687	6703.4625
2719.07021	6712.9625
2721.67194	6749.2625
2724.27206	6721.7625
2726.87057	6717.8625
2729.46747	6713.2625
2732.06276	6719.5625
2734.65644	6728.7625
2737.24852	6739.0625
2739.83899	6724.5625
2742.42786	6726.7625
2745.01513	6697.4625
2747.60079	6702.3625
2750.18486	6676.3625
2752.76733	6691.8625
2755.3482	6680.3625
2757.92747	6680.2625
2760.50515	6641.9625
2763.08123	6653.0625
2765.65573	6629.6625
2768.22863	6659.4625
2770.79994	6622.8625
2773.36967	6655.3625
2775.9378	6628.8625
2778.50435	6644.0625
2781.06932	6618.2625
2783.6327	6619.8625
2786.1945	6597.5625
2788.75471	6608.4625
2791.31335	6597.7625
2793.87041	6570.2625
2796.42589	6571.0625
2798.97979	6555.4625
2801.53212	6544.7625
2804.08288	6511.3625
2806.63206	6527.1625
2809.17967	6529.1625
2811.72571	6495.1625
2814.27018	6491.7625
2816.81308	6471.6625
2819.35442	6450.8625
2821.89419	6451.7625
2824.43239	6450.1625
2826.96904	6425.3625
2829.50412	6428.6625
2832.03763	6417.4625
2834.56959	6426.6625
2837.1	6410.8625
2839.62884	6423.7625
2842.15613	6399.1625
2844.68186	6427.8625
2847.20604	6430.4625
2849.72867	6426.9625
2852.24974	6430.0625
2854.76927	6402.6625
2857.28724	6359.9625
2859.80367	6380.7625
2862.31855	6378.0625
2864.83189	6385.0625
2867.34368	6370.7625
2869.85393	6394.9625
2872.36264	6364.2625
2874.8698	6371.4625
2877.37543	6376.0625
2879.87952	6355.5625
2882.38207	6374.0625
2884.88308	6360.3625
2887.38256	6375.2625
2889.88051	6371.0625
2892.37692	6369.6625
2894.8718	6374.5625
2897.36515	6386.1625
2899.85698	6369.7625
2902.34727	6384.6625
2904.83604	6393.1625
2907.32328	6382.5625
2909.809	6379.4625
2912.29319	6394.4625
2914.77587	6395.5625
2917.25702	6392.1625
2919.73665	6393.9625
2922.21476	6394.8625
2924.69136	6399.8625
2927.16644	6394.4625
2929.64	6375.2625
2932.11205	6376.4625
2934.58258	6339.7625
2937.05161	6349.4625
2939.51912	6357.7625
2941.98513	6332.5625
2944.44962	6339.0625
2946.91261	6314.7625
2949.37409	6326.0625
2951.83407	6315.7625
2954.29254	6310.2625
2956.74951	6303.8625
2959.20498	6271.8625
2961.65895	6286.6625
2964.11142	6285.6625
2966.56239	6276.8625
2969.01186	6276.8625
2971.45984	6249.6625
2973.90632	6243.4625
2976.35131	6241.6625
2978.7948	6237.1625
2981.23681	6222.1625
2983.67732	6192.2625
2986.11635	6178.1625
2988.55388	6173.4625
2990.98993	6165.3625
2993.4245	6149.5625
2995.85758	6140.3625
2998.28917	6110.4625
3000.71928	6103.4625
3003.14791	6101.0625
3005.57506	6084.0625
3008.00073	6068.0625
3010.42493	6074.0625
3012.84764	6039.8625
3015.26888	6044.6625
3017.68865	6024.2625
3020.10694	6020.6625
3022.52376	6017.1625
3024.9391	6003.1625
3027.35298	5999.1625
3029.76539	5994.9625
3032.17632	5995.6625
3034.5858	6002.0625
3036.9938	5985.6625
3039.40034	5969.6625
3041.80542	5956.2625
3044.20903	5940.1625
3046.61118	5961.0625
3049.01187	5938.9625
3051.4111	5937.3625
3053.80888	5922.0625
3056.20519	5915.4625
3058.60005	5924.4625
3060.99345	5900.6625
3063.3854	5893.9625
3065.7759	5862.0625
3068.16494	5879.4625
3070.55254	5844.4625
3072.93868	5838.5625
3075.32338	5821.5625
3077.70662	5812.4625
3080.08842	5786.3625
