Data from AgNPs_FTO_APTES_UA_50uM_CRN_0uM_R6G_10uM_NaF_0.1M_Addition_RamanShift__11__10-23-04-631.txt Node

Date: Mon Feb 21 10:23:04 GMT 2022
User: TCL
Spectrometer: QEP01345
Trigger mode: 4
Integration Time (sec): 7.000000E0
Scans to average: 10
Electric dark correction enabled: true
Nonlinearity correction enabled: false
Boxcar width: 0
XAxis mode: Raman Shifts
Number of Pixels in Spectrum: 1044
>>>>>Begin Spectral Data<<<<<
46.04893	0.775
50.45542	-0.125
54.85868	0.375
59.25871	-1.725
63.6555	25.675
68.04907	31.675
72.43941	30.275
76.82654	35.575
81.21044	36.275
85.59113	40.975
89.96862	36.475
94.34289	41.375
98.71396	38.875
103.08183	46.375
107.4465	47.275
111.80798	42.075
116.16626	41.175
120.52136	44.475
124.87327	47.075
129.222	44.775
133.56755	45.175
137.90993	51.075
142.24913	48.675
146.58517	54.375
150.91804	59.375
155.24774	70.675
159.57429	81.375
163.89768	102.475
168.21792	131.675
172.53501	177.375
176.84895	240.175
181.15975	330.575
185.46741	459.075
189.77193	630.975
194.07331	839.175
198.37157	1079.975
202.6667	1336.775
206.9587	1591.075
211.24758	1844.975
215.53334	2109.675
219.81599	2395.975
224.09553	2721.075
228.37195	3071.775
232.64527	3461.175
236.91549	3844.875
241.18261	4200.575
245.44663	4521.175
249.70755	4775.575
253.96539	4990.875
258.22014	5173.975
262.4718	5311.175
266.72039	5387.175
270.96589	5423.775
275.20832	5383.875
279.44768	5281.475
283.68397	5155.575
287.91719	5067.275
292.14735	5036.175
296.37445	5086.075
300.59849	5256.775
304.81948	5475.175
309.03742	5656.875
313.25231	5714.275
317.46415	5545.575
321.67296	5229.075
325.87872	4920.375
330.08145	4762.275
334.28114	4755.275
338.47781	4821.775
342.67145	4911.075
346.86207	5096.275
351.04966	5377.475
355.23424	5654.175
359.4158	5912.175
363.59435	6018.075
367.76989	6058.775
371.94243	6045.875
376.11196	6010.175
380.27849	5970.675
384.44203	5928.475
388.60257	5855.475
392.76012	5786.175
396.91468	5802.375
401.06626	5918.875
405.21485	5999.875
409.36047	5919.975
413.50311	5625.575
417.64277	5346.175
421.77947	5171.175
425.9132	5095.575
430.04396	5070.975
434.17176	5124.575
438.2966	5249.575
442.41849	5411.675
446.53742	5624.575
450.6534	5802.975
454.76644	5877.375
458.87653	5845.375
462.98368	5699.775
467.08789	5576.575
471.18916	5454.375
475.2875	5339.675
479.38291	5189.975
483.4754	5118.275
487.56496	5050.775
491.6516	5023.375
495.73531	5021.875
499.81612	5023.675
503.89401	5078.575
507.96899	5142.275
512.04106	5229.975
516.11023	5327.575
520.1765	5414.675
524.23987	5453.275
528.30034	5383.175
532.35792	5311.975
536.41261	5234.175
540.46441	5105.275
544.51333	5042.775
548.55936	5020.475
552.60252	5085.775
556.64279	5206.575
560.6802	5301.375
564.71473	5339.875
568.7464	5509.475
572.7752	5623.275
576.80114	5478.875
580.82422	5289.375
584.84444	5225.575
588.86181	5346.075
592.87633	5605.175
596.888	5745.275
600.89682	5722.575
604.9028	6036.375
608.90594	7450.675
612.90624	9568.775
616.90371	9499.075
620.89834	6919.475
624.89015	5476.375
628.87913	5202.875
632.86528	5228.175
636.84862	5314.675
640.82913	5244.975
644.80683	5047.875
648.78172	4871.175
652.75379	4875.475
656.72306	5012.475
660.68952	5241.475
664.65319	5190.275
668.61405	4983.575
672.57211	4842.975
676.52738	4839.075
680.47986	4836.675
684.42955	4774.675
688.37646	4748.975
692.32058	4731.475
696.26192	4782.075
700.20048	4824.575
704.13626	4848.575
708.06928	4832.475
711.99952	4806.975
715.927	4810.475
719.85171	4867.275
723.77365	4894.475
727.69284	4835.675
731.60928	4816.675
735.52295	4813.975
739.43388	4835.175
743.34206	4858.175
747.24749	4851.675
751.15017	4856.575
755.05012	4885.275
758.94733	5064.175
762.8418	5541.075
766.73354	6381.175
770.62254	7317.375
774.50882	7877.875
778.39237	7745.775
782.27321	6840.675
786.15132	5852.275
790.02671	5238.075
793.89938	4942.875
797.76935	4823.275
801.6366	4775.075
805.50115	4747.575
809.36299	4756.875
813.22213	4729.575
817.07857	4711.975
820.93231	4707.375
824.78336	4672.075
828.63172	4688.575
832.47738	4685.875
836.32036	4673.275
840.16066	4655.275
843.99827	4652.475
847.8332	4661.775
851.66546	4636.575
855.49504	4626.175
859.32195	4616.075
863.1462	4597.675
866.96777	4592.875
870.78668	4582.275
874.60293	4601.575
878.41652	4610.075
882.22745	4641.375
886.03573	4668.975
889.84136	4661.575
893.64433	4625.675
897.44466	4610.775
901.24235	4606.575
905.0374	4567.875
908.8298	4536.875
912.61957	4506.375
916.40671	4515.775
920.19121	4537.775
923.97308	4575.675
927.75233	4653.075
931.52895	4716.775
935.30295	4678.675
939.07433	4552.275
942.84309	4443.575
946.60924	4353.575
950.37278	4313.375
954.13371	4282.775
957.89203	4249.175
961.64774	4229.575
965.40086	4209.075
969.15137	4203.975
972.89929	4194.275
976.64461	4188.875
980.38733	4173.275
984.12747	4161.775
987.86502	4163.475
991.59999	4198.675
995.33237	4236.175
999.06217	4322.375
1002.78939	4412.975
1006.51404	4488.775
1010.23611	4557.575
1013.95561	4591.175
1017.67255	4553.675
1021.38692	4489.575
1025.09872	4384.875
1028.80796	4309.275
1032.51465	4298.375
1036.21877	4299.175
1039.92035	4313.175
1043.61937	4353.975
1047.31584	4371.975
1051.00976	4382.775
1054.70114	4394.075
1058.38998	4385.475
1062.07627	4393.275
1065.76003	4399.375
1069.44126	4378.075
1073.11995	4402.975
1076.79611	4454.175
1080.46974	4563.675
1084.14085	4689.575
1087.80943	4809.175
1091.47549	4854.775
1095.13903	4750.775
1098.80005	4586.475
1102.45857	4435.575
1106.11456	4409.075
1109.76805	4448.275
1113.41903	4539.575
1117.06751	4705.075
1120.71348	4918.675
1124.35696	5189.475
1127.99793	5408.175
1131.63641	5401.375
1135.2724	5135.075
1138.90589	4865.975
1142.5369	4674.075
1146.16542	4540.075
1149.79145	4468.975
1153.415	4423.275
1157.03607	4411.475
1160.65467	4474.275
1164.27079	4618.175
1167.88443	4879.375
1171.49561	5291.375
1175.10432	5996.975
1178.71056	6912.675
1182.31434	7672.175
1185.91565	7860.475
1189.51451	7571.875
1193.11091	7110.075
1196.70485	6608.075
1200.29634	6178.175
1203.88538	5786.275
1207.47197	5364.675
1211.05612	5003.075
1214.63782	4812.375
1218.21708	4795.175
1221.79391	4836.875
1225.36829	4858.175
1228.94024	4788.075
1232.50976	4698.475
1236.07685	4654.875
1239.6415	4627.475
1243.20374	4625.775
1246.76355	4632.175
1250.32093	4620.875
1253.8759	4682.675
1257.42845	4819.675
1260.97859	4981.375
1264.52631	5167.275
1268.07163	5352.675
1271.61453	5517.975
1275.15503	5616.275
1278.69312	5651.475
1282.22882	5686.075
1285.76211	5829.175
1289.29301	6082.775
1292.82151	6348.875
1296.34761	6636.875
1299.87133	7000.075
1303.39266	7590.375
1306.9116	8513.875
1310.42815	9603.775
1313.94233	10288.675
1317.45412	9996.275
1320.96354	9107.775
1324.47058	8043.275
1327.97525	7165.975
1331.47754	6714.875
1334.97747	6559.275
1338.47502	6638.975
1341.97022	6807.575
1345.46305	7083.075
1348.95352	7593.975
1352.44163	8386.775
1355.92738	9578.975
1359.41078	11164.175
1362.89183	12648.675
1366.37053	12415.975
1369.84688	10475.075
1373.32088	8485.075
1376.79254	7188.975
1380.26186	6489.975
1383.72883	6126.575
1387.19347	5766.575
1390.65578	5480.775
1394.11575	5259.875
1397.57339	5205.975
1401.0287	5210.075
1404.48168	5250.175
1407.93234	5268.375
1411.38068	5279.475
1414.82669	5257.375
1418.27039	5191.075
1421.71177	5097.875
1425.15083	4988.675
1428.58758	4950.675
1432.02203	5014.375
1435.45416	5117.275
1438.88399	5166.275
1442.31151	5157.975
1445.73673	5137.075
1449.15965	5136.175
1452.58027	5131.275
1455.9986	5022.575
1459.41463	4978.675
1462.82837	5031.075
1466.23982	5179.375
1469.64898	5330.775
1473.05586	5440.775
1476.46045	5512.475
1479.86276	5582.375
1483.26279	5664.975
1486.66054	5796.975
1490.05602	5971.275
1493.44922	6207.575
1496.84016	6586.475
1500.22882	7246.175
1503.61521	8209.875
1506.99934	9395.075
1510.38121	10488.175
1513.76081	10942.875
1517.13816	10302.475
1520.51324	8844.275
1523.88607	7405.975
1527.25665	6493.075
1530.62498	6054.175
1533.99105	5811.975
1537.35488	5656.775
1540.71647	5525.475
1544.07581	5445.175
1547.4329	5361.675
1550.78776	5324.075
1554.14038	5322.075
1557.49077	5332.475
1560.83892	5379.575
1564.18484	5545.975
1567.52853	5775.475
1570.86999	6004.375
1574.20922	6157.375
1577.54624	6181.475
1580.88103	5849.875
1584.2136	5361.575
1587.54395	5071.075
1590.87208	5085.675
1594.19801	5381.475
1597.52172	5881.875
1600.84321	6224.375
1604.16251	6110.475
1607.47959	5670.875
1610.79447	5119.375
1614.10715	4637.675
1617.41763	4271.075
1620.7259	4081.375
1624.03199	3982.175
1627.33587	3965.375
1630.63757	4047.775
1633.93707	4256.475
1637.23439	4600.875
1640.52951	5210.275
1643.82246	6134.475
1647.11321	7114.275
1650.40179	7739.575
1653.68819	7395.275
1656.97241	6264.075
1660.25446	5035.375
1663.53433	4194.275
1666.81203	3713.875
1670.08756	3473.875
1673.36092	3344.775
1676.63211	3271.475
1679.90115	3207.075
1683.16801	3159.375
1686.43272	3098.975
1689.69527	3065.075
1692.95567	2971.575
1696.2139	2855.975
1699.46999	2739.575
1702.72392	2715.275
1705.97571	2788.075
1709.22535	2879.275
1712.47284	2939.975
1715.71819	2975.675
1718.96139	2982.575
1722.20246	2994.175
1725.44139	2974.175
1728.67818	2951.675
1731.91284	2929.975
1735.14537	2911.675
1738.37576	2872.875
1741.60403	2866.975
1744.83017	2847.975
1748.05418	2805.175
1751.27607	2768.375
1754.49584	2707.575
1757.71349	2644.275
1760.92903	2593.375
1764.14244	2586.975
1767.35375	2583.275
1770.56294	2572.875
1773.77002	2588.175
1776.97499	2632.275
1780.17785	2684.875
1783.37861	2707.875
1786.57727	2715.975
1789.77382	2723.975
1792.96828	2741.175
1796.16064	2732.375
1799.3509	2717.975
1802.53907	2718.475
1805.72514	2704.875
1808.90913	2696.375
1812.09102	2690.175
1815.27083	2676.875
1818.44856	2667.775
1821.6242	2664.575
1824.79776	2644.175
1827.96924	2656.275
1831.13864	2638.575
1834.30597	2642.975
1837.47122	2634.575
1840.6344	2629.375
1843.7955	2614.675
1846.95454	2613.475
1850.11151	2610.775
1853.26642	2590.175
1856.41926	2601.875
1859.57004	2601.575
1862.71876	2581.975
1865.86542	2583.775
1869.01003	2585.675
1872.15258	2573.875
1875.29308	2574.075
1878.43152	2572.875
1881.56792	2575.375
1884.70227	2558.275
1887.83457	2564.075
1890.96482	2557.775
1894.09304	2546.975
1897.21921	2543.575
1900.34335	2542.675
1903.46544	2550.775
1906.58551	2526.875
1909.70353	2526.475
1912.81953	2533.575
1915.93349	2530.775
1919.04543	2505.475
1922.15534	2504.975
1925.26322	2497.675
1928.36908	2495.375
1931.47292	2470.375
1934.57473	2448.475
1937.67453	2447.975
1940.77232	2434.875
1943.86808	2433.075
1946.96184	2429.575
1950.05358	2408.175
1953.14331	2402.375
1956.23103	2395.975
1959.31675	2375.775
1962.40046	2368.175
1965.48217	2358.675
1968.56188	2370.875
1971.63959	2360.575
1974.7153	2355.475
1977.78901	2350.275
1980.86073	2350.975
1983.93046	2332.875
1986.99819	2306.575
1990.06394	2299.875
1993.1277	2286.475
1996.18947	2270.875
1999.24925	2281.975
2002.30706	2260.075
2005.36288	2257.475
2008.41672	2251.875
2011.46859	2231.175
2014.51848	2228.475
2017.56639	2210.575
2020.61233	2213.275
2023.6563	2203.275
2026.6983	2183.575
2029.73833	2198.675
2032.7764	2167.075
2035.8125	2162.375
2038.84664	2152.275
2041.87881	2158.775
2044.90903	2149.875
2047.93729	2142.975
2050.96359	2137.375
2053.98794	2133.475
2057.01034	2119.275
2060.03078	2124.075
2063.04927	2113.375
2066.06582	2116.275
2069.08042	2110.075
2072.09307	2101.875
2075.10378	2107.175
2078.11255	2096.775
2081.11938	2110.975
2084.12426	2097.075
2087.12722	2095.575
2090.12824	2095.375
2093.12732	2085.175
2096.12447	2086.975
2099.11969	2085.375
2102.11299	2092.275
2105.10435	2095.175
2108.09379	2093.675
2111.08131	2089.175
2114.0669	2090.075
2117.05057	2085.675
2120.03233	2080.475
2123.01216	2090.775
2125.99008	2079.175
2128.96609	2097.375
2131.94018	2083.775
2134.91236	2076.075
2137.88263	2083.075
2140.851	2079.075
2143.81746	2072.975
2146.78201	2071.275
2149.74466	2056.875
2152.7054	2060.575
2155.66425	2062.975
2158.6212	2052.575
2161.57625	2054.675
2164.52941	2043.075
2167.48067	2047.975
2170.43004	2037.575
2173.37752	2041.175
2176.32311	2032.775
2179.26681	2040.075
2182.20863	2035.475
2185.14856	2030.175
2188.08661	2042.475
2191.02278	2037.875
2193.95707	2016.275
2196.88948	2025.275
2199.82001	2022.975
2202.74867	2013.875
2205.67545	2014.875
2208.60037	2007.375
2211.52341	2000.475
2214.44458	1999.475
2217.36388	1975.775
2220.28132	1979.275
2223.1969	1975.175
2226.11061	1970.275
2229.02246	1959.175
2231.93245	1944.375
2234.84058	1951.375
2237.74686	1940.775
2240.65128	1947.875
2243.55385	1945.675
2246.45456	1926.375
2249.35343	1935.875
2252.25044	1932.175
2255.14561	1925.475
2258.03893	1910.475
2260.93041	1883.275
2263.82004	1905.775
2266.70783	1911.775
2269.59378	1903.275
2272.4779	1891.275
2275.36017	1891.475
2278.24061	1891.275
2281.11922	1887.675
2283.996	1878.475
2286.87094	1880.675
2289.74405	1867.175
2292.61534	1860.775
2295.4848	1854.575
2298.35243	1842.775
2301.21824	1853.275
2304.08223	1845.375
2306.94439	1843.875
2309.80474	1832.675
2312.66327	1835.775
2315.51999	1835.875
2318.37489	1826.975
2321.22797	1824.075
2324.07925	1819.375
2326.92871	1811.575
2329.77637	1810.975
2332.62222	1815.675
2335.46626	1802.275
2338.3085	1793.075
2341.14893	1792.075
2343.98756	1789.675
2346.8244	1785.575
2349.65943	1794.475
2352.49267	1791.575
2355.32411	1796.975
2358.15376	1794.375
2360.98161	1798.975
2363.80768	1799.875
2366.63195	1806.375
2369.45444	1810.775
2372.27514	1815.875
2375.09405	1809.475
2377.91118	1802.975
2380.72652	1788.175
2383.54009	1783.475
2386.35187	1766.875
2389.16188	1750.075
2391.97011	1754.275
2394.77657	1749.675
2397.58125	1734.875
2400.38416	1743.675
2403.18529	1732.075
2405.98466	1718.975
2408.78226	1710.875
2411.57809	1709.475
2414.37216	1712.275
2417.16446	1701.175
2419.955	1702.075
2422.74378	1691.675
2425.5308	1695.875
2428.31606	1685.175
2431.09956	1691.675
2433.88131	1687.475
2436.6613	1695.075
2439.43954	1695.175
2442.21603	1694.775
2444.99077	1695.275
2447.76377	1700.675
2450.53501	1697.075
2453.30451	1694.475
2456.07226	1691.375
2458.83827	1701.075
2461.60254	1687.375
2464.36507	1683.875
2467.12586	1680.675
2469.88492	1672.675
2472.64224	1675.375
2475.39782	1665.375
2478.15167	1654.175
2480.90379	1662.775
2483.65417	1675.975
2486.40283	1683.675
2489.14976	1681.275
2491.89497	1686.975
2494.63845	1666.875
2497.3802	1649.875
2500.12024	1674.175
2502.85855	1673.875
2505.59514	1659.275
2508.33002	1658.875
2511.06318	1648.475
2513.79462	1645.375
2516.52435	1632.675
2519.25237	1621.575
2521.97867	1610.875
2524.70327	1611.875
2527.42616	1607.975
2530.14734	1604.275
2532.86681	1612.675
2535.58458	1600.075
2538.30065	1596.675
2541.01501	1598.575
2543.72768	1592.475
2546.43864	1595.575
2549.14791	1588.075
2551.85548	1594.575
2554.56136	1588.575
2557.26554	1601.575
2559.96803	1584.175
2562.66883	1578.475
2565.36794	1573.675
2568.06536	1576.475
2570.7611	1568.075
2573.45514	1574.875
2576.14751	1577.875
2578.83819	1557.575
2581.52719	1559.275
2584.21451	1548.275
2586.90015	1549.175
2589.58411	1543.775
2592.2664	1541.775
2594.94701	1539.575
2597.62594	1532.375
2600.30321	1531.875
2602.9788	1531.375
2605.65273	1530.875
2608.32498	1536.175
2610.99557	1528.275
2613.66449	1528.775
2616.33175	1522.275
2618.99734	1521.175
2621.66128	1519.075
2624.32355	1512.275
2626.98416	1514.075
2629.64311	1505.275
2632.30041	1505.675
2634.95605	1500.175
2637.61004	1499.775
2640.26238	1490.375
2642.91306	1492.975
2645.56209	1487.175
2648.20948	1475.875
2650.85521	1480.175
2653.4993	1473.875
2656.14175	1477.475
2658.78255	1481.075
2661.42171	1491.275
2664.05923	1492.775
2666.6951	1488.375
2669.32934	1489.175
2671.96194	1498.275
2674.59291	1495.475
2677.22224	1494.175
2679.84993	1502.375
2682.476	1487.075
2685.10043	1490.975
2687.72324	1493.575
2690.34441	1494.775
2692.96396	1488.675
2695.58188	1487.775
2698.19818	1488.075
2700.81285	1481.675
2703.4259	1455.475
2706.03733	1351.475
2708.64714	1400.175
2711.25533	1448.475
2713.86191	1460.275
2716.46687	1471.875
2719.07021	1482.975
2721.67194	1500.175
2724.27206	1499.875
2726.87057	1485.875
2729.46747	1496.375
2732.06276	1492.975
2734.65644	1494.475
2737.24852	1495.875
2739.83899	1490.475
2742.42786	1491.175
2745.01513	1479.675
2747.60079	1487.775
2750.18486	1482.475
2752.76733	1479.675
2755.3482	1477.275
2757.92747	1472.175
2760.50515	1470.575
2763.08123	1466.175
2765.65573	1470.775
2768.22863	1477.075
2770.79994	1467.075
2773.36967	1466.775
2775.9378	1468.075
2778.50435	1465.375
2781.06932	1477.175
2783.6327	1470.575
2786.1945	1471.075
2788.75471	1471.275
2791.31335	1469.975
2793.87041	1471.075
2796.42589	1473.575
2798.97979	1480.975
2801.53212	1469.875
2804.08288	1469.675
2806.63206	1484.775
2809.17967	1467.475
2811.72571	1477.975
2814.27018	1473.775
2816.81308	1479.375
2819.35442	1477.575
2821.89419	1484.175
2824.43239	1486.075
2826.96904	1485.575
2829.50412	1484.275
2832.03763	1485.275
2834.56959	1489.575
2837.1	1491.975
2839.62884	1501.375
2842.15613	1509.175
2844.68186	1540.175
2847.20604	1558.075
2849.72867	1571.375
2852.24974	1578.875
2854.76927	1563.575
2857.28724	1539.275
2859.80367	1563.775
2862.31855	1569.875
2864.83189	1579.975
2867.34368	1575.375
2869.85393	1578.275
2872.36264	1586.275
2874.8698	1584.775
2877.37543	1580.375
2879.87952	1586.675
2882.38207	1588.475
2884.88308	1577.275
2887.38256	1595.775
2889.88051	1581.675
2892.37692	1578.275
2894.8718	1580.875
2897.36515	1594.775
2899.85698	1579.375
2902.34727	1585.975
2904.83604	1586.975
2907.32328	1594.975
2909.809	1579.275
2912.29319	1584.675
2914.77587	1589.975
2917.25702	1579.775
2919.73665	1564.875
2922.21476	1572.875
2924.69136	1565.975
2927.16644	1569.375
2929.64	1553.675
2932.11205	1555.075
2934.58258	1541.375
2937.05161	1534.075
2939.51912	1518.875
2941.98513	1505.775
2944.44962	1485.575
2946.91261	1473.275
2949.37409	1463.375
2951.83407	1451.375
2954.29254	1435.175
2956.74951	1432.975
2959.20498	1429.275
2961.65895	1419.875
2964.11142	1409.075
2966.56239	1407.075
2969.01186	1395.175
2971.45984	1396.175
2973.90632	1382.375
2976.35131	1377.075
2978.7948	1370.675
2981.23681	1355.775
2983.67732	1360.775
2986.11635	1343.675
2988.55388	1342.675
2990.98993	1336.175
2993.4245	1333.275
2995.85758	1332.475
2998.28917	1329.675
3000.71928	1320.875
3003.14791	1323.875
3005.57506	1325.575
3008.00073	1319.975
3010.42493	1318.375
3012.84764	1322.375
3015.26888	1315.475
3017.68865	1315.175
3020.10694	1309.275
3022.52376	1304.675
3024.9391	1304.375
3027.35298	1301.775
3029.76539	1300.375
3032.17632	1309.375
3034.5858	1294.275
3036.9938	1296.775
3039.40034	1299.775
3041.80542	1291.175
3044.20903	1290.775
3046.61118	1293.075
3049.01187	1297.775
3051.4111	1293.275
3053.80888	1292.475
3056.20519	1286.675
3058.60005	1295.475
3060.99345	1293.475
3063.3854	1285.575
3065.7759	1287.775
3068.16494	1289.975
3070.55254	1283.475
3072.93868	1280.275
3075.32338	1277.775
3077.70662	1273.375
3080.08842	1269.075
3082.46878	1281.875
3084.84769	1274.975
3087.22515	1278.075
3089.60118	1278.775
3091.97576	1281.775
3094.3489	1283.675
3096.72061	1289.375
3099.09087	1293.375
3101.4597	1294.775
3103.82709	1292.775
3106.19305	1295.675
3108.55757	1304.175
3110.92066	1301.675
3113.28232	1296.375
3115.64255	1299.175
3118.00134	1296.875
3120.35871	1297.975
3122.71466	1309.375
3125.06917	1305.875
3127.42226	1306.675
3129.77393	1314.175
3132.12417	1314.075
3134.47299	1313.075
3136.82039	1318.075
3139.16636	1324.475
3141.51092	1325.775
3143.85406	1335.575
3146.19579	1335.475
3148.53609	1340.475
3150.87499	1337.875
3153.21246	1345.475
3155.54853	1358.675
3157.88318	1349.275
3160.21642	1368.275
3162.54826	1370.775
3164.87868	1371.575
3167.2077	1371.875
3169.5353	1383.275
3171.86151	1394.075
3174.18631	1388.075
3176.5097	1387.775
3178.83169	1390.375
3181.15228	1398.175
3183.47147	1393.175
3185.78926	1401.675
3188.10565	1398.575
3190.42065	1402.175
3192.73424	1405.875
3195.04645	1403.375
3197.35725	1415.375
3199.66667	1420.675
3201.97469	1413.275
3204.28132	1429.875
3206.58656	1428.375
3208.8904	1440.875
3211.19287	1430.275
3213.49394	1441.075
3215.79363	1440.175
3218.09193	1450.675
3220.38884	1431.075
3222.68438	1408.975
3224.97853	1422.075
3227.2713	1443.775
3229.56269	1444.075
3231.8527	1452.075
3234.14133	1458.975
3236.42858	1451.475
