Data from AgNPs_FTO_APTES_UA_50uM_CRN_20uM_R6G_10uM_NaF_0.1M_Addition_RamanShift__3__13-57-44-913.txt Node

Date: Mon Feb 21 13:57:44 GMT 2022
User: TCL
Spectrometer: QEP01345
Trigger mode: 4
Integration Time (sec): 7.000000E0
Scans to average: 10
Electric dark correction enabled: true
Nonlinearity correction enabled: false
Boxcar width: 0
XAxis mode: Raman Shifts
Number of Pixels in Spectrum: 1044
>>>>>Begin Spectral Data<<<<<
46.04893	0.825
50.45542	-0.975
54.85868	-1.175
59.25871	-1.975
63.6555	61.525
68.04907	71.025
72.43941	71.625
76.82654	77.125
81.21044	79.725
85.59113	84.225
89.96862	83.125
94.34289	88.825
98.71396	88.425
103.08183	98.125
107.4465	97.025
111.80798	95.225
116.16626	99.625
120.52136	100.425
124.87327	106.425
129.222	107.225
133.56755	109.025
137.90993	120.525
142.24913	130.425
146.58517	143.325
150.91804	165.525
155.24774	195.025
159.57429	232.725
163.89768	297.825
168.21792	397.425
172.53501	527.125
176.84895	740.825
181.15975	1026.025
185.46741	1442.925
189.77193	1991.225
194.07331	2653.425
198.37157	3413.825
202.6667	4195.925
206.9587	4976.625
211.24758	5756.925
215.53334	6563.325
219.81599	7389.925
224.09553	8360.925
228.37195	9409.925
232.64527	10552.825
236.91549	11767.725
241.18261	12903.125
245.44663	13959.025
249.70755	14876.725
253.96539	15628.025
258.22014	16235.025
262.4718	16770.425
266.72039	17093.425
270.96589	17277.325
275.20832	17247.425
279.44768	17043.725
283.68397	16796.925
287.91719	16558.825
292.14735	16451.525
296.37445	16453.725
300.59849	16588.125
304.81948	16769.425
309.03742	16914.425
313.25231	16909.625
317.46415	16597.525
321.67296	16197.625
325.87872	15893.525
330.08145	15786.525
334.28114	15780.325
338.47781	15888.225
342.67145	16103.225
346.86207	16375.325
351.04966	16779.325
355.23424	17232.025
359.4158	17589.725
363.59435	17853.525
367.76989	18045.625
371.94243	18131.725
376.11196	18221.325
380.27849	18295.525
384.44203	18299.525
388.60257	18418.025
392.76012	18582.825
396.91468	18729.425
401.06626	19015.125
405.21485	19178.025
409.36047	19084.725
413.50311	18786.325
417.64277	18541.925
421.77947	18510.025
425.9132	18543.725
430.04396	18583.725
434.17176	18654.925
438.2966	18873.925
442.41849	19308.725
446.53742	20010.625
450.6534	20695.425
454.76644	21078.225
458.87653	21136.425
462.98368	20843.925
467.08789	20465.125
471.18916	20005.725
475.2875	19477.125
479.38291	19080.425
483.4754	18805.225
487.56496	18576.125
491.6516	18421.425
495.73531	18334.325
499.81612	18370.625
503.89401	18488.225
507.96899	18552.925
512.04106	18479.425
516.11023	18408.925
520.1765	18335.025
524.23987	18326.825
528.30034	18275.125
532.35792	18159.725
536.41261	17923.525
540.46441	17626.325
544.51333	17485.325
548.55936	17613.425
552.60252	18007.325
556.64279	18482.125
560.6802	18813.425
564.71473	18904.025
568.7464	19085.125
572.7752	19561.425
576.80114	19945.125
580.82422	20452.625
584.84444	21366.525
588.86181	22751.625
592.87633	24177.525
596.888	24548.825
600.89682	23398.425
604.9028	22984.125
608.90594	24970.225
612.90624	27400.925
616.90371	25639.925
620.89834	21009.725
624.89015	18982.025
628.87913	18657.525
632.86528	18740.225
636.84862	18665.825
640.82913	18259.925
644.80683	17724.925
648.78172	17392.525
652.75379	17375.225
656.72306	17666.725
660.68952	18096.425
664.65319	17952.425
668.61405	17513.925
672.57211	17498.525
676.52738	17631.825
680.47986	17568.925
684.42955	17382.925
688.37646	17296.125
692.32058	17453.425
696.26192	17722.525
700.20048	18024.925
704.13626	18176.425
708.06928	18008.425
711.99952	17858.625
715.927	17945.625
719.85171	18112.825
723.77365	18090.325
727.69284	17805.225
731.60928	17555.025
735.52295	17470.125
739.43388	17550.025
743.34206	17607.625
747.24749	17703.625
751.15017	17803.125
755.05012	18100.325
758.94733	18543.725
762.8418	19574.025
766.73354	21211.625
770.62254	22831.925
774.50882	23312.225
778.39237	22351.225
782.27321	20697.725
786.15132	19212.125
790.02671	18253.625
793.89938	17815.925
797.76935	17651.725
801.6366	17570.125
805.50115	17496.825
809.36299	17411.525
813.22213	17253.025
817.07857	17147.625
820.93231	17044.225
824.78336	16984.025
828.63172	16967.225
832.47738	16991.125
836.32036	17085.625
840.16066	17192.425
843.99827	17191.825
847.8332	17152.525
851.66546	17083.225
855.49504	17025.825
859.32195	17054.925
863.1462	17001.225
866.96777	16912.625
870.78668	16912.525
874.60293	16920.525
878.41652	16949.925
882.22745	17052.425
886.03573	17168.025
889.84136	17124.425
893.64433	17045.625
897.44466	16962.325
901.24235	16890.925
905.0374	16827.625
908.8298	16768.525
912.61957	16767.925
916.40671	16835.825
920.19121	17062.025
923.97308	17334.525
927.75233	17537.725
931.52895	17505.625
935.30295	17286.325
939.07433	16905.625
942.84309	16661.725
946.60924	16550.025
950.37278	16503.225
954.13371	16472.925
957.89203	16413.025
961.64774	16365.525
965.40086	16333.025
969.15137	16334.925
972.89929	16361.325
976.64461	16333.725
980.38733	16357.525
984.12747	16487.425
987.86502	16626.525
991.59999	16863.325
995.33237	17179.725
999.06217	17755.625
1002.78939	18411.725
1006.51404	18917.225
1010.23611	19210.025
1013.95561	19446.825
1017.67255	19418.825
1021.38692	19138.825
1025.09872	18828.725
1028.80796	18876.125
1032.51465	19383.725
1036.21877	19931.425
1039.92035	20084.725
1043.61937	19909.425
1047.31584	19388.025
1051.00976	18813.325
1054.70114	18461.725
1058.38998	18328.425
1062.07627	18348.725
1065.76003	18399.225
1069.44126	18604.625
1073.11995	18925.225
1076.79611	19284.125
1080.46974	19521.825
1084.14085	19789.125
1087.80943	20008.225
1091.47549	20162.025
1095.13903	20075.625
1098.80005	19638.025
1102.45857	19227.425
1106.11456	19004.625
1109.76805	18905.425
1113.41903	19030.525
1117.06751	19165.225
1120.71348	19435.525
1124.35696	19699.825
1127.99793	20004.125
1131.63641	20149.725
1135.2724	19995.125
1138.90589	19867.325
1142.5369	19773.725
1146.16542	19766.425
1149.79145	19846.325
1153.415	19951.225
1157.03607	20197.025
1160.65467	20726.225
1164.27079	21724.225
1167.88443	22926.425
1171.49561	24391.825
1175.10432	26379.925
1178.71056	28991.425
1182.31434	31404.125
1185.91565	32358.025
1189.51451	31858.525
1193.11091	30461.025
1196.70485	28959.625
1200.29634	27591.025
1203.88538	26526.225
1207.47197	25853.225
1211.05612	25232.925
1214.63782	24681.225
1218.21708	24323.925
1221.79391	24248.625
1225.36829	24205.625
1228.94024	24042.925
1232.50976	23517.025
1236.07685	22972.225
1239.6415	22652.625
1243.20374	22615.425
1246.76355	22784.925
1250.32093	23095.325
1253.8759	23635.725
1257.42845	24425.825
1260.97859	25231.725
1264.52631	26145.525
1268.07163	27134.125
1271.61453	27986.625
1275.15503	28909.525
1278.69312	29788.825
1282.22882	30632.625
1285.76211	31741.425
1289.29301	32875.225
1292.82151	34321.925
1296.34761	36113.225
1299.87133	38316.825
1303.39266	41061.725
1306.9116	43947.025
1310.42815	46408.725
1313.94233	47544.325
1317.45412	46747.525
1320.96354	44666.125
1324.47058	42468.725
1327.97525	40724.425
1331.47754	39551.725
1334.97747	38821.725
1338.47502	38267.025
1341.97022	37620.925
1345.46305	37022.425
1348.95352	37069.525
1352.44163	38168.225
1355.92738	40543.625
1359.41078	43982.825
1362.89183	46865.125
1366.37053	46549.225
1369.84688	42207.325
1373.32088	36600.425
1376.79254	32726.425
1380.26186	31302.025
1383.72883	30872.925
1387.19347	30424.525
1390.65578	29752.725
1394.11575	29387.425
1397.57339	29604.825
1401.0287	30048.325
1404.48168	30460.525
1407.93234	30604.925
1411.38068	30344.225
1414.82669	29682.825
1418.27039	28891.325
1421.71177	28004.425
1425.15083	27206.825
1428.58758	26911.325
1432.02203	27285.125
1435.45416	28041.125
1438.88399	28744.025
1442.31151	29110.425
1445.73673	29269.225
1449.15965	29319.825
1452.58027	29103.025
1455.9986	28753.925
1459.41463	28680.325
1462.82837	29112.225
1466.23982	29932.825
1469.64898	30655.425
1473.05586	31269.125
1476.46045	31533.825
1479.86276	31647.525
1483.26279	31632.425
1486.66054	31664.125
1490.05602	32021.925
1493.44922	32538.125
1496.84016	32901.525
1500.22882	33415.425
1503.61521	34444.625
1506.99934	35698.225
1510.38121	36734.525
1513.76081	36853.625
1517.13816	35638.325
1520.51324	33897.825
1523.88607	32420.625
1527.25665	31695.525
1530.62498	31341.125
1533.99105	31055.525
1537.35488	30510.725
1540.71647	29777.925
1544.07581	29028.325
1547.4329	28341.725
1550.78776	27787.425
1554.14038	27387.425
1557.49077	27161.725
1560.83892	26992.925
1564.18484	27051.825
1567.52853	27233.725
1570.86999	27607.525
1574.20922	28069.425
1577.54624	28410.625
1580.88103	28343.025
1584.2136	28404.025
1587.54395	29354.325
1590.87208	31299.925
1594.19801	33930.025
1597.52172	36328.025
1600.84321	37025.825
1604.16251	35148.825
1607.47959	31810.125
1610.79447	28438.925
1614.10715	25535.125
1617.41763	23488.725
1620.7259	22279.125
1624.03199	21808.025
1627.33587	22004.725
1630.63757	22841.425
1633.93707	24504.025
1637.23439	27231.425
1640.52951	31264.825
1643.82246	36085.525
1647.11321	39801.025
1650.40179	40090.525
1653.68819	36407.025
1656.97241	30692.225
1660.25446	25584.925
1663.53433	22148.125
1666.81203	20183.425
1670.08756	18997.425
1673.36092	18264.325
1676.63211	17797.525
1679.90115	17463.125
1683.16801	17214.725
1686.43272	16989.625
1689.69527	16805.125
1692.95567	16657.725
1696.2139	16496.225
1699.46999	16351.525
1702.72392	16275.425
1705.97571	16318.025
1709.22535	16355.325
1712.47284	16417.725
1715.71819	16403.725
1718.96139	16395.025
1722.20246	16326.725
1725.44139	16252.625
1728.67818	16157.425
1731.91284	16047.925
1735.14537	16001.025
1738.37576	15916.625
1741.60403	15870.325
1744.83017	15820.725
1748.05418	15743.825
1751.27607	15697.025
1754.49584	15588.425
1757.71349	15601.225
1760.92903	15535.325
1764.14244	15470.125
1767.35375	15492.525
1770.56294	15450.925
1773.77002	15476.725
1776.97499	15454.125
1780.17785	15481.825
1783.37861	15494.825
1786.57727	15514.825
1789.77382	15484.325
1792.96828	15488.025
1796.16064	15434.825
1799.3509	15435.425
1802.53907	15404.425
1805.72514	15402.925
1808.90913	15325.925
1812.09102	15326.825
1815.27083	15294.325
1818.44856	15289.025
1821.6242	15249.625
1824.79776	15238.225
1827.96924	15222.425
1831.13864	15229.925
1834.30597	15256.025
1837.47122	15280.025
1840.6344	15253.225
1843.7955	15237.525
1846.95454	15255.525
1850.11151	15250.125
1853.26642	15222.025
1856.41926	15237.825
1859.57004	15231.025
1862.71876	15211.825
1865.86542	15181.025
1869.01003	15187.625
1872.15258	15172.425
1875.29308	15177.025
1878.43152	15152.525
1881.56792	15146.225
1884.70227	15165.625
1887.83457	15177.725
1890.96482	15103.625
1894.09304	15116.725
1897.21921	15096.025
1900.34335	15109.525
1903.46544	15106.825
1906.58551	15095.625
1909.70353	15071.425
1912.81953	15015.625
1915.93349	15036.425
1919.04543	15016.825
1922.15534	14967.225
1925.26322	14895.025
1928.36908	14885.225
1931.47292	14838.125
1934.57473	14807.725
1937.67453	14813.625
1940.77232	14745.925
1943.86808	14690.125
1946.96184	14692.225
1950.05358	14641.225
1953.14331	14613.625
1956.23103	14569.725
1959.31675	14544.925
1962.40046	14476.625
1965.48217	14451.425
1968.56188	14439.325
1971.63959	14385.725
1974.7153	14361.925
1977.78901	14277.725
1980.86073	14287.725
1983.93046	14222.125
1986.99819	14200.425
1990.06394	14137.825
1993.1277	14133.425
1996.18947	14061.425
1999.24925	14019.125
2002.30706	13960.025
2005.36288	13955.025
2008.41672	13922.525
2011.46859	13872.825
2014.51848	13881.425
2017.56639	13851.525
2020.61233	13803.225
2023.6563	13783.225
2026.6983	13739.725
2029.73833	13753.325
2032.7764	13747.825
2035.8125	13730.325
2038.84664	13707.125
2041.87881	13681.325
2044.90903	13627.325
2047.93729	13645.125
2050.96359	13675.925
2053.98794	13643.625
2057.01034	13629.725
2060.03078	13648.225
2063.04927	13628.725
2066.06582	13625.225
2069.08042	13621.125
2072.09307	13590.025
2075.10378	13571.325
2078.11255	13566.525
2081.11938	13571.025
2084.12426	13604.125
2087.12722	13567.425
2090.12824	13547.825
2093.12732	13556.425
2096.12447	13597.925
2099.11969	13594.925
2102.11299	13593.225
2105.10435	13593.125
2108.09379	13586.825
2111.08131	13612.525
2114.0669	13592.925
2117.05057	13582.125
2120.03233	13638.325
2123.01216	13619.025
2125.99008	13667.325
2128.96609	13638.425
2131.94018	13694.025
2134.91236	13725.525
2137.88263	13710.125
2140.851	13725.825
2143.81746	13723.925
2146.78201	13722.325
2149.74466	13733.425
2152.7054	13731.925
2155.66425	13744.725
2158.6212	13725.525
2161.57625	13722.425
2164.52941	13716.725
2167.48067	13732.625
2170.43004	13736.125
2173.37752	13703.725
2176.32311	13718.325
2179.26681	13720.425
2182.20863	13744.625
2185.14856	13771.025
2188.08661	13780.025
2191.02278	13779.525
2193.95707	13745.025
2196.88948	13754.725
2199.82001	13745.925
2202.74867	13762.825
2205.67545	13769.725
2208.60037	13763.925
2211.52341	13705.225
2214.44458	13710.625
2217.36388	13694.225
2220.28132	13678.025
2223.1969	13668.925
2226.11061	13643.225
2229.02246	13626.525
2231.93245	13619.425
2234.84058	13610.825
2237.74686	13604.625
2240.65128	13605.225
2243.55385	13603.925
2246.45456	13607.425
2249.35343	13579.725
2252.25044	13533.125
2255.14561	13507.325
2258.03893	13482.925
2260.93041	13408.325
2263.82004	13376.325
2266.70783	13375.825
2269.59378	13361.925
2272.4779	13361.625
2275.36017	13337.825
2278.24061	13322.325
2281.11922	13270.725
2283.996	13282.725
2286.87094	13258.225
2289.74405	13237.925
2292.61534	13251.925
2295.4848	13261.525
2298.35243	13261.525
2301.21824	13290.225
2304.08223	13293.125
2306.94439	13291.825
2309.80474	13285.925
2312.66327	13293.225
2315.51999	13292.625
2318.37489	13314.525
2321.22797	13253.525
2324.07925	13255.625
2326.92871	13248.225
2329.77637	13262.525
2332.62222	13270.725
2335.46626	13241.025
2338.3085	13222.425
2341.14893	13242.725
2343.98756	13265.625
2346.8244	13262.925
2349.65943	13266.225
2352.49267	13237.725
2355.32411	13230.825
2358.15376	13234.725
2360.98161	13209.325
2363.80768	13185.725
2366.63195	13158.725
2369.45444	13173.025
2372.27514	13144.525
2375.09405	13155.825
2377.91118	13172.525
2380.72652	13107.925
2383.54009	13099.525
2386.35187	13063.525
2389.16188	13067.825
2391.97011	13022.025
2394.77657	13050.925
2397.58125	13005.425
2400.38416	12965.025
2403.18529	12991.625
2405.98466	12955.625
2408.78226	12935.425
2411.57809	12932.725
2414.37216	12886.325
2417.16446	12889.425
2419.955	12899.025
2422.74378	12880.725
2425.5308	12871.425
2428.31606	12880.425
2431.09956	12876.325
2433.88131	12861.425
2436.6613	12860.625
2439.43954	12899.625
2442.21603	12901.125
2444.99077	12888.525
2447.76377	12904.925
2450.53501	12863.625
2453.30451	12890.125
2456.07226	12910.325
2458.83827	12891.625
2461.60254	12924.525
2464.36507	12930.225
2467.12586	12905.525
2469.88492	12916.025
2472.64224	12922.025
2475.39782	12893.825
2478.15167	12902.125
2480.90379	12941.125
2483.65417	12947.325
2486.40283	12997.825
2489.14976	13000.925
2491.89497	12993.025
2494.63845	12988.225
2497.3802	12972.325
2500.12024	12979.425
2502.85855	12984.925
2505.59514	12987.025
2508.33002	12961.425
2511.06318	12950.825
2513.79462	12959.725
2516.52435	12953.925
2519.25237	12951.325
2521.97867	12934.725
2524.70327	12926.825
2527.42616	12914.425
2530.14734	12933.225
2532.86681	12917.425
2535.58458	12910.425
2538.30065	12901.125
2541.01501	12932.825
2543.72768	12889.625
2546.43864	12868.425
2549.14791	12898.225
2551.85548	12894.925
2554.56136	12878.325
2557.26554	12866.725
2559.96803	12844.725
2562.66883	12839.425
2565.36794	12831.625
2568.06536	12845.025
2570.7611	12828.925
2573.45514	12842.325
2576.14751	12853.725
2578.83819	12821.425
2581.52719	12845.925
2584.21451	12818.325
2586.90015	12823.625
2589.58411	12832.525
2592.2664	12816.925
2594.94701	12811.625
2597.62594	12828.825
2600.30321	12821.325
2602.9788	12803.825
2605.65273	12816.325
2608.32498	12810.025
2610.99557	12797.325
2613.66449	12838.325
2616.33175	12804.825
2618.99734	12822.525
2621.66128	12803.725
2624.32355	12796.025
2626.98416	12770.325
2629.64311	12788.625
2632.30041	12802.325
2634.95605	12767.225
2637.61004	12744.825
2640.26238	12743.825
2642.91306	12721.925
2645.56209	12715.325
2648.20948	12731.625
2650.85521	12735.925
2653.4993	12729.425
2656.14175	12750.425
2658.78255	12792.625
2661.42171	12759.425
2664.05923	12809.425
2666.6951	12832.325
2669.32934	12846.925
2671.96194	12800.625
2674.59291	12837.025
2677.22224	12812.225
2679.84993	12807.725
2682.476	12802.025
2685.10043	12824.925
2687.72324	12787.125
2690.34441	12761.025
2692.96396	12773.125
2695.58188	12773.725
2698.19818	12786.925
2700.81285	12771.725
2703.4259	12736.625
2706.03733	12725.325
2708.64714	12758.725
2711.25533	12791.825
2713.86191	12830.325
2716.46687	12828.925
2719.07021	12863.325
2721.67194	12887.125
2724.27206	12899.925
2726.87057	12904.225
2729.46747	12922.925
2732.06276	12967.025
2734.65644	12946.425
2737.24852	12943.725
2739.83899	12947.025
2742.42786	12943.225
2745.01513	12911.125
2747.60079	12917.625
2750.18486	12904.825
2752.76733	12878.725
2755.3482	12854.925
2757.92747	12894.125
2760.50515	12872.625
2763.08123	12915.325
2765.65573	12889.625
2768.22863	12889.625
2770.79994	12905.525
2773.36967	12918.225
2775.9378	12893.025
2778.50435	12919.525
2781.06932	12882.425
2783.6327	12891.925
2786.1945	12884.025
2788.75471	12893.125
2791.31335	12869.625
2793.87041	12866.325
2796.42589	12821.625
2798.97979	12813.925
2801.53212	12794.025
2804.08288	12785.025
2806.63206	12764.625
2809.17967	12737.725
2811.72571	12736.425
2814.27018	12720.225
2816.81308	12709.625
2819.35442	12700.325
2821.89419	12665.025
2824.43239	12700.725
2826.96904	12665.625
2829.50412	12667.825
2832.03763	12631.325
2834.56959	12646.425
2837.1	12646.625
2839.62884	12640.525
2842.15613	12621.325
2844.68186	12657.225
2847.20604	12667.625
2849.72867	12662.225
2852.24974	12664.425
2854.76927	12651.325
2857.28724	12613.925
2859.80367	12649.325
2862.31855	12616.925
2864.83189	12630.425
2867.34368	12605.925
2869.85393	12633.625
2872.36264	12592.725
2874.8698	12578.525
2877.37543	12598.025
2879.87952	12601.625
2882.38207	12595.025
2884.88308	12611.625
2887.38256	12620.225
2889.88051	12639.925
2892.37692	12648.525
2894.8718	12650.225
2897.36515	12702.225
2899.85698	12682.725
2902.34727	12711.225
2904.83604	12735.925
2907.32328	12762.025
2909.809	12751.925
2912.29319	12775.225
2914.77587	12777.925
2917.25702	12777.025
2919.73665	12780.125
2922.21476	12759.225
2924.69136	12743.725
2927.16644	12761.625
2929.64	12736.025
2932.11205	12731.025
2934.58258	12672.125
2937.05161	12681.525
2939.51912	12692.725
2941.98513	12682.325
2944.44962	12655.325
2946.91261	12643.225
2949.37409	12685.325
2951.83407	12685.625
2954.29254	12669.625
2956.74951	12654.725
2959.20498	12646.825
2961.65895	12591.125
2964.11142	12604.825
2966.56239	12588.725
2969.01186	12607.125
2971.45984	12568.825
2973.90632	12549.725
2976.35131	12497.525
2978.7948	12474.925
2981.23681	12428.025
2983.67732	12470.525
2986.11635	12422.425
2988.55388	12408.725
2990.98993	12369.725
2993.4245	12393.925
2995.85758	12368.425
2998.28917	12334.925
3000.71928	12290.225
3003.14791	12282.325
3005.57506	12263.725
3008.00073	12262.325
3010.42493	12239.025
3012.84764	12245.725
3015.26888	12201.125
3017.68865	12175.725
3020.10694	12169.925
3022.52376	12171.125
3024.9391	12124.225
3027.35298	12124.825
3029.76539	12107.125
3032.17632	12139.325
3034.5858	12091.425
3036.9938	12086.925
3039.40034	12100.925
3041.80542	12093.225
3044.20903	12063.325
3046.61118	12074.225
3049.01187	12045.325
3051.4111	12010.925
3053.80888	12011.425
3056.20519	12016.525
3058.60005	11998.325
3060.99345	11971.125
3063.3854	11956.125
3065.7759	11920.525
3068.16494	11923.725
3070.55254	11852.925
3072.93868	11846.625
3075.32338	11805.225
3077.70662	11797.525
3080.08842	11752.425
3082.46878	11730.825
3084.84769	11736.025
3087.22515	11763.725
3089.60118	11774.725
3091.97576	11725.925
3094.3489	11729.625
3096.72061	11731.225
3099.09087	11750.325
3101.4597	11749.725
3103.82709	11756.425
3106.19305	11721.225
3108.55757	11731.225
3110.92066	11691.625
3113.28232	11707.325
3115.64255	11663.625
3118.00134	11659.225
3120.35871	11643.225
3122.71466	11630.225
3125.06917	11605.625
3127.42226	11581.725
