Data from AgNPs_FTO_APTES_UA_50uM_CRN_1000uM_R6G_10uM_NaF_0.1M_Addition_RamanShift__13__17-41-23-590.txt Node

Date: Mon Feb 21 17:41:23 GMT 2022
User: TCL
Spectrometer: QEP01345
Trigger mode: 4
Integration Time (sec): 7.000000E0
Scans to average: 10
Electric dark correction enabled: true
Nonlinearity correction enabled: false
Boxcar width: 0
XAxis mode: Raman Shifts
Number of Pixels in Spectrum: 1044
>>>>>Begin Spectral Data<<<<<
46.04893	-0.925
50.45542	-0.825
54.85868	0.275
59.25871	-1.925
63.6555	46.975
68.04907	53.475
72.43941	58.875
76.82654	58.875
81.21044	63.975
85.59113	63.175
89.96862	67.075
94.34289	70.075
98.71396	74.375
103.08183	73.575
107.4465	76.075
111.80798	79.275
116.16626	80.275
120.52136	82.575
124.87327	83.675
129.222	88.175
133.56755	93.275
137.90993	98.475
142.24913	105.075
146.58517	113.675
150.91804	132.375
155.24774	159.075
159.57429	194.175
163.89768	247.975
168.21792	327.975
172.53501	444.175
176.84895	621.675
181.15975	875.575
185.46741	1238.475
189.77193	1714.675
194.07331	2298.375
198.37157	2982.075
202.6667	3692.775
206.9587	4411.275
211.24758	5118.875
215.53334	5817.775
219.81599	6550.775
224.09553	7377.175
228.37195	8260.075
232.64527	9223.375
236.91549	10259.475
241.18261	11278.775
245.44663	12237.975
249.70755	13071.475
253.96539	13735.175
258.22014	14335.875
262.4718	14837.275
266.72039	15148.275
270.96589	15299.175
275.20832	15307.175
279.44768	15158.375
283.68397	14942.075
287.91719	14722.475
292.14735	14601.675
296.37445	14606.475
300.59849	14701.975
304.81948	14849.975
309.03742	14891.175
313.25231	14814.575
317.46415	14555.675
321.67296	14168.075
325.87872	13807.475
330.08145	13637.175
334.28114	13651.675
338.47781	13762.875
342.67145	13950.775
346.86207	14190.375
351.04966	14545.075
355.23424	14899.575
359.4158	15264.375
363.59435	15456.275
367.76989	15645.575
371.94243	15738.475
376.11196	15807.875
380.27849	15857.175
384.44203	15901.275
388.60257	15971.675
392.76012	16006.075
396.91468	16094.875
401.06626	16266.975
405.21485	16372.375
409.36047	16318.175
413.50311	15968.175
417.64277	15665.775
421.77947	15479.975
425.9132	15449.575
430.04396	15513.575
434.17176	15569.375
438.2966	15711.475
442.41849	15879.275
446.53742	16156.875
450.6534	16445.375
454.76644	16635.475
458.87653	16713.875
462.98368	16709.675
467.08789	16609.875
471.18916	16479.775
475.2875	16284.475
479.38291	16169.275
483.4754	16052.275
487.56496	15935.975
491.6516	15821.075
495.73531	15767.875
499.81612	15773.975
503.89401	15854.475
507.96899	15930.575
512.04106	16024.475
516.11023	16102.575
520.1765	16147.975
524.23987	16139.275
528.30034	16004.175
532.35792	15933.775
536.41261	15829.475
540.46441	15688.875
544.51333	15636.575
548.55936	15699.075
552.60252	15851.075
556.64279	16025.175
560.6802	16133.575
564.71473	16184.775
568.7464	16342.275
572.7752	16537.575
576.80114	16513.375
580.82422	16422.275
584.84444	16471.075
588.86181	16552.175
592.87633	16699.475
596.888	16795.575
600.89682	16908.975
604.9028	17558.875
608.90594	19473.875
612.90624	21934.775
616.90371	21231.375
620.89834	17845.575
624.89015	16194.775
628.87913	15929.975
632.86528	15987.475
636.84862	16174.075
640.82913	16067.275
644.80683	15808.675
648.78172	15567.875
652.75379	15540.775
656.72306	15714.275
660.68952	16010.675
664.65319	15969.575
668.61405	15772.075
672.57211	15756.975
676.52738	15892.475
680.47986	15987.975
684.42955	15905.875
688.37646	15810.775
692.32058	15654.675
696.26192	15647.675
700.20048	15693.675
704.13626	15723.175
708.06928	15671.775
711.99952	15562.975
715.927	15518.975
719.85171	15527.275
723.77365	15554.675
727.69284	15523.475
731.60928	15431.375
735.52295	15402.175
739.43388	15383.875
743.34206	15409.175
747.24749	15441.775
751.15017	15402.875
755.05012	15480.375
758.94733	15764.575
762.8418	16404.675
766.73354	17612.775
770.62254	18973.275
774.50882	19640.375
778.39237	19138.075
782.27321	17768.375
786.15132	16469.275
790.02671	15731.675
793.89938	15356.275
797.76935	15177.375
801.6366	15085.375
805.50115	15007.575
809.36299	14983.175
813.22213	14879.075
817.07857	14859.175
820.93231	14816.975
824.78336	14795.275
828.63172	14760.675
832.47738	14726.775
836.32036	14725.775
840.16066	14682.875
843.99827	14691.775
847.8332	14684.375
851.66546	14666.275
855.49504	14677.375
859.32195	14714.175
863.1462	14718.075
866.96777	14691.175
870.78668	14699.575
874.60293	14685.275
878.41652	14732.975
882.22745	14738.475
886.03573	14780.475
889.84136	14776.575
893.64433	14729.375
897.44466	14641.175
901.24235	14564.375
905.0374	14494.375
908.8298	14430.375
912.61957	14338.875
916.40671	14428.775
920.19121	14438.075
923.97308	14489.475
927.75233	14546.675
931.52895	14542.975
935.30295	14477.075
939.07433	14276.275
942.84309	14102.475
946.60924	13990.275
950.37278	13920.475
954.13371	13884.075
957.89203	13827.575
961.64774	13816.675
965.40086	13755.475
969.15137	13670.875
972.89929	13679.775
976.64461	13620.075
980.38733	13638.975
984.12747	13635.075
987.86502	13641.075
991.59999	13701.075
995.33237	13784.575
999.06217	13910.575
1002.78939	14010.975
1006.51404	14168.575
1010.23611	14262.175
1013.95561	14395.975
1017.67255	14424.975
1021.38692	14322.475
1025.09872	14210.575
1028.80796	14142.875
1032.51465	14133.075
1036.21877	14166.675
1039.92035	14208.475
1043.61937	14249.775
1047.31584	14224.375
1051.00976	14207.375
1054.70114	14187.475
1058.38998	14181.675
1062.07627	14202.675
1065.76003	14238.375
1069.44126	14238.775
1073.11995	14332.475
1076.79611	14392.975
1080.46974	14510.275
1084.14085	14586.575
1087.80943	14733.075
1091.47549	14806.775
1095.13903	14761.475
1098.80005	14590.275
1102.45857	14441.175
1106.11456	14292.375
1109.76805	14318.375
1113.41903	14420.975
1117.06751	14563.875
1120.71348	14795.175
1124.35696	15069.075
1127.99793	15301.175
1131.63641	15444.775
1135.2724	15206.275
1138.90589	14928.075
1142.5369	14736.275
1146.16542	14557.275
1149.79145	14454.775
1153.415	14430.175
1157.03607	14482.775
1160.65467	14637.375
1164.27079	14950.875
1167.88443	15409.275
1171.49561	16070.075
1175.10432	16971.375
1178.71056	18182.875
1182.31434	19293.675
1185.91565	19819.675
1189.51451	19695.075
1193.11091	19126.775
1196.70485	18341.975
1200.29634	17642.575
1203.88538	17061.875
1207.47197	16466.975
1211.05612	15889.775
1214.63782	15548.375
1218.21708	15364.175
1221.79391	15288.375
1225.36829	15255.675
1228.94024	15230.375
1232.50976	15148.675
1236.07685	15075.975
1239.6415	15054.175
1243.20374	15037.075
1246.76355	15071.675
1250.32093	15174.675
1253.8759	15291.475
1257.42845	15564.575
1260.97859	15763.675
1264.52631	16003.875
1268.07163	16309.975
1271.61453	16579.275
1275.15503	16831.875
1278.69312	17061.175
1282.22882	17165.975
1285.76211	17363.375
1289.29301	17700.175
1292.82151	18071.875
1296.34761	18566.475
1299.87133	19239.475
1303.39266	20138.775
1306.9116	21300.575
1310.42815	22622.875
1313.94233	23468.475
1317.45412	23215.875
1320.96354	22325.475
1324.47058	21398.175
1327.97525	20473.275
1331.47754	19803.075
1334.97747	19506.275
1338.47502	19441.375
1341.97022	19696.175
1345.46305	20186.875
1348.95352	20881.875
1352.44163	21744.275
1355.92738	22949.775
1359.41078	24593.975
1362.89183	26142.975
1366.37053	25829.475
1369.84688	23284.175
1373.32088	20373.475
1376.79254	18423.875
1380.26186	17466.175
1383.72883	17061.875
1387.19347	16748.775
1390.65578	16396.575
1394.11575	16138.575
1397.57339	15996.575
1401.0287	15927.775
1404.48168	15936.475
1407.93234	15890.575
1411.38068	15780.575
1414.82669	15693.075
1418.27039	15505.875
1421.71177	15311.875
1425.15083	15067.975
1428.58758	14900.975
1432.02203	14857.575
1435.45416	14962.375
1438.88399	15116.975
1442.31151	15211.475
1445.73673	15275.875
1449.15965	15329.675
1452.58027	15381.775
1455.9986	15393.875
1459.41463	15438.975
1462.82837	15633.875
1466.23982	15787.275
1469.64898	15978.175
1473.05586	16138.575
1476.46045	16232.375
1479.86276	16312.275
1483.26279	16370.975
1486.66054	16463.175
1490.05602	16650.775
1493.44922	17007.375
1496.84016	17616.875
1500.22882	18553.075
1503.61521	19988.875
1506.99934	21565.675
1510.38121	22933.875
1513.76081	23322.575
1517.13816	22392.575
1520.51324	20605.375
1523.88607	18936.675
1527.25665	17817.975
1530.62498	17272.575
1533.99105	16923.975
1537.35488	16673.375
1540.71647	16485.375
1544.07581	16273.575
1547.4329	16117.375
1550.78776	16011.275
1554.14038	15959.575
1557.49077	16011.675
1560.83892	16116.675
1564.18484	16289.975
1567.52853	16485.275
1570.86999	16775.275
1574.20922	16965.875
1577.54624	17021.475
1580.88103	16637.875
1584.2136	16042.175
1587.54395	15703.875
1590.87208	15744.575
1594.19801	16152.175
1597.52172	16832.875
1600.84321	17200.375
1604.16251	16935.575
1607.47959	16380.375
1610.79447	15705.075
1614.10715	14980.375
1617.41763	14301.175
1620.7259	13778.575
1624.03199	13455.875
1627.33587	13367.775
1630.63757	13488.275
1633.93707	13852.475
1637.23439	14473.975
1640.52951	15442.875
1643.82246	16759.575
1647.11321	18178.875
1650.40179	19063.175
1653.68819	18676.975
1656.97241	17074.575
1660.25446	15222.475
1663.53433	13861.575
1666.81203	13026.875
1670.08756	12505.275
1673.36092	12190.175
1676.63211	11941.975
1679.90115	11762.275
1683.16801	11647.075
1686.43272	11526.975
1689.69527	11487.875
1692.95567	11391.075
1696.2139	11331.975
1699.46999	11257.675
1702.72392	11209.875
1705.97571	11200.975
1709.22535	11194.775
1712.47284	11167.675
1715.71819	11122.475
1718.96139	11118.175
1722.20246	11080.275
1725.44139	11044.775
1728.67818	10973.675
1731.91284	10947.175
1735.14537	10878.175
1738.37576	10836.075
1741.60403	10810.075
1744.83017	10793.675
1748.05418	10794.975
1751.27607	10788.975
1754.49584	10808.275
1757.71349	10814.375
1760.92903	10763.375
1764.14244	10692.875
1767.35375	10682.475
1770.56294	10620.975
1773.77002	10554.175
1776.97499	10513.275
1780.17785	10475.775
1783.37861	10444.875
1786.57727	10419.375
1789.77382	10360.275
1792.96828	10333.175
1796.16064	10299.575
1799.3509	10270.875
1802.53907	10240.275
1805.72514	10198.575
1808.90913	10176.175
1812.09102	10160.375
1815.27083	10116.375
1818.44856	10088.775
1821.6242	10071.975
1824.79776	10032.575
1827.96924	10020.575
1831.13864	10012.875
1834.30597	10000.575
1837.47122	9983.875
1840.6344	9944.175
1843.7955	9950.875
1846.95454	9931.475
1850.11151	9917.175
1853.26642	9897.675
1856.41926	9888.375
1859.57004	9878.275
1862.71876	9868.275
1865.86542	9863.175
1869.01003	9836.775
1872.15258	9860.675
1875.29308	9835.875
1878.43152	9842.975
1881.56792	9815.575
1884.70227	9805.775
1887.83457	9781.175
1890.96482	9783.975
1894.09304	9755.775
1897.21921	9735.175
1900.34335	9709.775
1903.46544	9713.875
1906.58551	9712.475
1909.70353	9671.875
1912.81953	9658.075
1915.93349	9626.375
1919.04543	9598.575
1922.15534	9586.975
1925.26322	9563.875
1928.36908	9540.975
1931.47292	9506.675
1934.57473	9473.375
1937.67453	9496.975
1940.77232	9476.575
1943.86808	9451.375
1946.96184	9406.675
1950.05358	9340.175
1953.14331	9332.175
1956.23103	9320.075
1959.31675	9280.975
1962.40046	9248.875
1965.48217	9227.075
1968.56188	9201.575
1971.63959	9166.575
1974.7153	9132.275
1977.78901	9109.075
1980.86073	9056.975
1983.93046	9068.375
1986.99819	9033.575
1990.06394	8991.275
1993.1277	8980.075
1996.18947	8935.475
1999.24925	8911.075
2002.30706	8899.775
2005.36288	8842.675
2008.41672	8810.175
2011.46859	8801.175
2014.51848	8747.075
2017.56639	8728.175
2020.61233	8707.675
2023.6563	8700.275
2026.6983	8639.975
2029.73833	8624.175
2032.7764	8605.775
2035.8125	8575.975
2038.84664	8559.375
2041.87881	8542.575
2044.90903	8514.875
2047.93729	8487.675
2050.96359	8475.175
2053.98794	8460.475
2057.01034	8467.975
2060.03078	8482.075
2063.04927	8438.275
2066.06582	8453.275
2069.08042	8432.575
2072.09307	8411.275
2075.10378	8377.275
2078.11255	8390.975
2081.11938	8386.875
2084.12426	8380.775
2087.12722	8363.875
2090.12824	8349.875
2093.12732	8364.275
2096.12447	8369.275
2099.11969	8383.875
2102.11299	8364.175
2105.10435	8348.375
2108.09379	8347.775
2111.08131	8383.975
2114.0669	8363.075
2117.05057	8377.675
2120.03233	8360.475
2123.01216	8396.675
2125.99008	8371.075
2128.96609	8383.175
2131.94018	8406.075
2134.91236	8385.575
2137.88263	8385.475
2140.851	8393.875
2143.81746	8405.075
2146.78201	8409.375
2149.74466	8380.775
2152.7054	8367.675
2155.66425	8379.175
2158.6212	8357.375
2161.57625	8379.875
2164.52941	8334.575
2167.48067	8334.775
2170.43004	8334.975
2173.37752	8351.375
2176.32311	8330.075
2179.26681	8326.275
2182.20863	8323.075
2185.14856	8320.075
2188.08661	8307.775
2191.02278	8319.875
2193.95707	8308.175
2196.88948	8292.875
2199.82001	8311.375
2202.74867	8295.675
2205.67545	8256.375
2208.60037	8240.775
2211.52341	8236.875
2214.44458	8228.575
2217.36388	8195.875
2220.28132	8171.075
2223.1969	8152.575
2226.11061	8135.475
2229.02246	8131.175
2231.93245	8121.775
2234.84058	8091.275
2237.74686	8078.675
2240.65128	8044.375
2243.55385	8046.475
2246.45456	8024.575
2249.35343	8026.275
2252.25044	7999.075
2255.14561	7993.075
2258.03893	7979.875
2260.93041	7967.775
2263.82004	7945.775
2266.70783	7931.775
2269.59378	7915.275
2272.4779	7890.775
2275.36017	7860.975
2278.24061	7856.975
2281.11922	7835.875
2283.996	7817.175
2286.87094	7796.475
2289.74405	7778.375
2292.61534	7764.675
2295.4848	7764.775
2298.35243	7768.575
2301.21824	7741.375
2304.08223	7733.375
2306.94439	7726.275
2309.80474	7714.375
2312.66327	7708.975
2315.51999	7690.675
2318.37489	7695.975
2321.22797	7653.575
2324.07925	7643.175
2326.92871	7642.975
2329.77637	7645.675
2332.62222	7610.575
2335.46626	7614.775
2338.3085	7585.975
2341.14893	7582.075
2343.98756	7581.375
2346.8244	7568.675
2349.65943	7553.775
2352.49267	7543.475
2355.32411	7572.075
2358.15376	7537.975
2360.98161	7570.375
2363.80768	7544.475
2366.63195	7536.075
2369.45444	7526.875
2372.27514	7514.275
2375.09405	7508.275
2377.91118	7486.475
2380.72652	7468.175
2383.54009	7446.375
2386.35187	7437.375
2389.16188	7389.575
2391.97011	7379.775
2394.77657	7366.775
2397.58125	7371.075
2400.38416	7347.175
2403.18529	7300.375
2405.98466	7299.575
2408.78226	7288.475
2411.57809	7299.675
2414.37216	7255.275
2417.16446	7258.175
2419.955	7273.475
2422.74378	7232.575
2425.5308	7238.375
2428.31606	7237.975
2431.09956	7224.775
2433.88131	7186.575
2436.6613	7209.675
2439.43954	7180.475
2442.21603	7182.075
2444.99077	7171.375
2447.76377	7167.275
2450.53501	7162.175
2453.30451	7166.975
2456.07226	7138.175
2458.83827	7162.675
2461.60254	7144.275
2464.36507	7129.575
2467.12586	7109.875
2469.88492	7108.275
2472.64224	7100.375
2475.39782	7090.975
2478.15167	7080.375
2480.90379	7103.375
2483.65417	7094.175
2486.40283	7089.475
2489.14976	7112.175
2491.89497	7083.375
2494.63845	7083.475
2497.3802	7094.875
2500.12024	7090.075
2502.85855	7065.375
2505.59514	7052.675
2508.33002	7049.775
2511.06318	7021.875
2513.79462	6989.175
2516.52435	6991.575
2519.25237	6961.975
2521.97867	6942.675
2524.70327	6974.475
2527.42616	6927.975
2530.14734	6916.275
2532.86681	6911.875
2535.58458	6927.975
2538.30065	6909.075
2541.01501	6896.275
2543.72768	6878.275
2546.43864	6865.575
2549.14791	6852.975
2551.85548	6846.675
2554.56136	6821.675
2557.26554	6817.175
2559.96803	6816.875
2562.66883	6773.275
2565.36794	6790.275
2568.06536	6771.475
2570.7611	6746.975
2573.45514	6737.475
2576.14751	6729.175
2578.83819	6712.775
2581.52719	6712.275
2584.21451	6683.175
2586.90015	6684.075
2589.58411	6667.575
2592.2664	6654.575
2594.94701	6631.775
2597.62594	6620.175
2600.30321	6600.575
2602.9788	6597.975
2605.65273	6583.575
2608.32498	6583.275
2610.99557	6582.675
2613.66449	6583.075
2616.33175	6572.475
2618.99734	6550.175
2621.66128	6543.175
2624.32355	6520.875
2626.98416	6525.875
2629.64311	6513.375
2632.30041	6482.475
2634.95605	6479.275
2637.61004	6482.975
2640.26238	6469.675
2642.91306	6449.275
2645.56209	6465.675
2648.20948	6451.575
2650.85521	6432.975
2653.4993	6439.275
2656.14175	6418.675
2658.78255	6430.975
2661.42171	6432.375
2664.05923	6442.575
2666.6951	6416.275
2669.32934	6456.475
2671.96194	6437.375
2674.59291	6433.575
2677.22224	6423.675
2679.84993	6430.975
2682.476	6410.075
2685.10043	6409.175
2687.72324	6407.575
2690.34441	6406.675
2692.96396	6399.675
2695.58188	6396.975
2698.19818	6399.875
2700.81285	6405.875
2703.4259	6411.075
2706.03733	6380.275
2708.64714	6377.375
2711.25533	6381.475
2713.86191	6391.875
2716.46687	6397.175
2719.07021	6384.675
2721.67194	6394.775
2724.27206	6387.975
2726.87057	6376.875
2729.46747	6389.275
2732.06276	6377.875
2734.65644	6369.075
2737.24852	6360.675
2739.83899	6359.275
2742.42786	6352.975
2745.01513	6333.575
2747.60079	6334.675
2750.18486	6318.775
2752.76733	6309.375
2755.3482	6295.275
2757.92747	6275.175
2760.50515	6264.875
2763.08123	6274.675
2765.65573	6256.075
2768.22863	6254.675
2770.79994	6245.275
2773.36967	6240.575
2775.9378	6219.475
2778.50435	6216.775
2781.06932	6233.875
2783.6327	6212.175
2786.1945	6218.075
2788.75471	6192.775
2791.31335	6190.275
2793.87041	6172.275
2796.42589	6130.375
2798.97979	6163.075
2801.53212	6125.875
2804.08288	6114.875
2806.63206	6093.975
2809.17967	6090.175
2811.72571	6082.875
2814.27018	6074.575
2816.81308	6068.175
2819.35442	6062.275
2821.89419	6051.475
2824.43239	6047.175
2826.96904	6036.575
2829.50412	6042.675
2832.03763	6036.775
2834.56959	6030.275
2837.1	6020.375
2839.62884	6020.875
2842.15613	6046.675
2844.68186	6046.375
2847.20604	6037.875
2849.72867	6071.575
2852.24974	6065.175
2854.76927	6045.475
2857.28724	6038.175
2859.80367	6050.475
2862.31855	6031.775
2864.83189	6034.375
2867.34368	6016.875
2869.85393	6011.275
2872.36264	6016.775
2874.8698	6000.375
2877.37543	5992.975
2879.87952	5985.175
2882.38207	5992.575
2884.88308	5987.775
2887.38256	5994.875
2889.88051	5994.075
2892.37692	5998.175
2894.8718	5984.275
2897.36515	5989.275
2899.85698	5976.875
2902.34727	6009.775
2904.83604	6022.375
2907.32328	6047.975
2909.809	6036.075
2912.29319	6047.875
2914.77587	6044.675
2917.25702	6043.775
2919.73665	6028.975
2922.21476	6051.075
2924.69136	6060.675
2927.16644	6048.575
2929.64	6018.175
2932.11205	6022.375
2934.58258	6020.575
2937.05161	6026.775
2939.51912	6009.675
2941.98513	6008.275
2944.44962	5976.075
2946.91261	5960.475
2949.37409	6001.375
2951.83407	5962.875
2954.29254	5976.875
2956.74951	5963.475
2959.20498	5938.275
2961.65895	5925.075
2964.11142	5931.375
2966.56239	5906.775
2969.01186	5887.975
2971.45984	5872.375
2973.90632	5849.475
2976.35131	5838.975
2978.7948	5835.675
2981.23681	5806.175
2983.67732	5800.575
2986.11635	5777.775
2988.55388	5762.375
2990.98993	5750.175
2993.4245	5750.475
2995.85758	5734.175
2998.28917	5714.975
3000.71928	5699.075
3003.14791	5702.075
3005.57506	5711.275
3008.00073	5668.875
3010.42493	5659.575
3012.84764	5649.875
3015.26888	5642.175
3017.68865	5645.675
3020.10694	5624.375
3022.52376	5619.775
3024.9391	5609.275
3027.35298	5597.775
3029.76539	5574.275
3032.17632	5574.875
3034.5858	5570.175
3036.9938	5569.475
3039.40034	5557.375
3041.80542	5537.075
3044.20903	5523.475
3046.61118	5540.475
3049.01187	5519.275
3051.4111	5526.075
3053.80888	5515.775
3056.20519	5507.875
3058.60005	5486.175
3060.99345	5479.475
3063.3854	5470.475
3065.7759	5448.675
3068.16494	5454.275
3070.55254	5432.875
3072.93868	5417.375
3075.32338	5404.775
3077.70662	5401.675
3080.08842	5380.975
3082.46878	5374.375
3084.84769	5376.975
3087.22515	5375.575
3089.60118	5381.875
3091.97576	5366.175
3094.3489	5383.375
3096.72061	5384.275
3099.09087	5384.575
3101.4597	5367.075
3103.82709	5364.775
3106.19305	5364.475
3108.55757	5386.775
3110.92066	5375.775
3113.28232	5357.175
3115.64255	5353.975
3118.00134	5337.675
3120.35871	5326.375
3122.71466	5311.675
3125.06917	5306.275
3127.42226	5280.075
3129.77393	5315.675
3132.12417	5298.675
3134.47299	5315.975
3136.82039	5322.475
3139.16636	5319.775
3141.51092	5306.875
3143.85406	5336.975
3146.19579	5319.875
3148.53609	5320.875
3150.87499	5341.075
3153.21246	5340.775
3155.54853	5345.575
3157.88318	5362.175
3160.21642	5371.075
3162.54826	5357.575
3164.87868	5344.175
3167.2077	5360.275
3169.5353	5352.775
3171.86151	5367.375
3174.18631	5342.275
3176.5097	5353.775
3178.83169	5345.275
3181.15228	5337.675
3183.47147	5322.475
