Data from AgNPs_FTO_APTES_UA_50uM_CRN_2uM_R6G_10uM_NaF_0.1M_Addition_RamanShift__6__12-01-04-763.txt Node

Date: Mon Feb 21 12:01:04 GMT 2022
User: TCL
Spectrometer: QEP01345
Trigger mode: 4
Integration Time (sec): 7.000000E0
Scans to average: 10
Electric dark correction enabled: true
Nonlinearity correction enabled: false
Boxcar width: 0
XAxis mode: Raman Shifts
Number of Pixels in Spectrum: 1044
>>>>>Begin Spectral Data<<<<<
46.04893	-0.125
50.45542	-0.925
54.85868	-0.825
59.25871	-1.125
63.6555	76.075
68.04907	80.775
72.43941	85.675
76.82654	86.275
81.21044	92.675
85.59113	94.375
89.96862	96.275
94.34289	104.675
98.71396	101.875
103.08183	109.275
107.4465	109.775
111.80798	110.475
116.16626	112.675
120.52136	114.675
124.87327	125.875
129.222	124.175
133.56755	130.775
137.90993	144.275
142.24913	154.175
146.58517	175.275
150.91804	201.675
155.24774	237.375
159.57429	291.275
163.89768	379.275
168.21792	506.075
172.53501	684.175
176.84895	955.375
181.15975	1353.975
185.46741	1898.275
189.77193	2617.975
194.07331	3498.675
198.37157	4502.275
202.6667	5549.275
206.9587	6625.275
211.24758	7670.875
215.53334	8693.875
219.81599	9783.675
224.09553	10995.975
228.37195	12297.375
232.64527	13795.375
236.91549	15311.275
241.18261	16873.975
245.44663	18399.575
249.70755	19709.475
253.96539	20847.675
258.22014	21836.675
262.4718	22595.975
266.72039	23173.975
270.96589	23377.275
275.20832	23395.275
279.44768	23200.375
283.68397	22935.475
287.91719	22719.575
292.14735	22522.375
296.37445	22432.975
300.59849	22450.275
304.81948	22585.375
309.03742	22618.975
313.25231	22554.575
317.46415	22346.775
321.67296	22006.875
325.87872	21755.675
330.08145	21649.175
334.28114	21631.175
338.47781	21760.675
342.67145	22023.475
346.86207	22402.175
351.04966	22797.675
355.23424	23260.175
359.4158	23626.675
363.59435	23958.575
367.76989	24145.075
371.94243	24292.375
376.11196	24367.775
380.27849	24480.775
384.44203	24605.275
388.60257	24777.175
392.76012	25029.375
396.91468	25342.375
401.06626	25711.675
405.21485	25919.775
409.36047	25860.475
413.50311	25574.775
417.64277	25460.575
421.77947	25503.975
425.9132	25616.775
430.04396	25709.875
434.17176	25829.675
438.2966	26029.375
442.41849	26419.275
446.53742	27105.875
450.6534	27755.075
454.76644	28263.475
458.87653	28490.675
462.98368	28305.575
467.08789	28007.375
471.18916	27613.275
475.2875	27210.675
479.38291	26884.175
483.4754	26713.775
487.56496	26559.175
491.6516	26283.275
495.73531	26067.275
499.81612	25920.475
503.89401	26027.175
507.96899	26144.575
512.04106	26088.075
516.11023	26043.975
520.1765	25885.475
524.23987	25747.375
528.30034	25629.475
532.35792	25501.375
536.41261	25340.875
540.46441	25080.375
544.51333	25013.675
548.55936	25112.075
552.60252	25493.375
556.64279	26074.875
560.6802	26465.975
564.71473	26714.375
568.7464	27141.475
572.7752	27749.875
576.80114	28426.075
580.82422	29168.575
584.84444	30217.075
588.86181	31633.075
592.87633	33052.175
596.888	33237.475
600.89682	31933.775
604.9028	31196.275
608.90594	32534.375
612.90624	34313.975
616.90371	32498.375
620.89834	28353.975
624.89015	26501.175
628.87913	26269.975
632.86528	26442.775
636.84862	26451.475
640.82913	26022.875
644.80683	25452.475
648.78172	25167.275
652.75379	25172.775
656.72306	25433.875
660.68952	25825.775
664.65319	25758.275
668.61405	25358.575
672.57211	25382.175
676.52738	25553.975
680.47986	25573.975
684.42955	25334.575
688.37646	25227.675
692.32058	25384.275
696.26192	25763.675
700.20048	26100.375
704.13626	26294.675
708.06928	26237.375
711.99952	26195.075
715.927	26205.875
719.85171	26305.075
723.77365	26248.275
727.69284	25881.075
731.60928	25546.575
735.52295	25432.175
739.43388	25396.675
743.34206	25529.275
747.24749	25642.575
751.15017	25836.775
755.05012	26180.475
758.94733	26776.575
762.8418	27766.275
766.73354	29260.775
770.62254	30642.875
774.50882	30971.275
778.39237	29923.275
782.27321	28411.275
786.15132	27104.775
790.02671	26264.275
793.89938	25800.575
797.76935	25573.875
801.6366	25513.475
805.50115	25415.875
809.36299	25359.075
813.22213	25214.375
817.07857	25159.775
820.93231	25055.875
824.78336	25001.775
828.63172	24928.775
832.47738	24891.875
836.32036	24912.075
840.16066	24948.975
843.99827	24980.775
847.8332	25031.375
851.66546	25011.375
855.49504	25029.275
859.32195	25075.675
863.1462	24955.875
866.96777	24934.075
870.78668	24962.575
874.60293	24967.375
878.41652	25030.375
882.22745	25121.975
886.03573	25152.675
889.84136	25180.675
893.64433	25135.775
897.44466	24984.775
901.24235	24944.175
905.0374	24818.975
908.8298	24759.675
912.61957	24824.475
916.40671	24938.075
920.19121	25224.175
923.97308	25497.375
927.75233	25580.075
931.52895	25401.775
935.30295	25109.275
939.07433	24739.775
942.84309	24496.475
946.60924	24380.075
950.37278	24397.875
954.13371	24375.075
957.89203	24351.075
961.64774	24334.375
965.40086	24348.875
969.15137	24329.375
972.89929	24289.775
976.64461	24282.475
980.38733	24289.875
984.12747	24357.275
987.86502	24498.875
991.59999	24688.175
995.33237	24909.675
999.06217	25309.275
1002.78939	25783.775
1006.51404	26305.575
1010.23611	26775.675
1013.95561	27036.775
1017.67255	27076.275
1021.38692	26763.575
1025.09872	26431.275
1028.80796	26160.075
1032.51465	26205.075
1036.21877	26429.275
1039.92035	26567.275
1043.61937	26563.475
1047.31584	26454.075
1051.00976	26277.775
1054.70114	26126.375
1058.38998	26210.275
1062.07627	26358.575
1065.76003	26620.575
1069.44126	26922.975
1073.11995	27356.775
1076.79611	27768.775
1080.46974	27941.075
1084.14085	28181.275
1087.80943	28415.475
1091.47549	28606.575
1095.13903	28673.575
1098.80005	28341.175
1102.45857	27792.775
1106.11456	27329.575
1109.76805	27145.675
1113.41903	27124.775
1117.06751	27220.675
1120.71348	27414.175
1124.35696	27660.575
1127.99793	27935.775
1131.63641	28046.675
1135.2724	28037.075
1138.90589	27946.075
1142.5369	27950.375
1146.16542	28109.075
1149.79145	28338.475
1153.415	28520.075
1157.03607	28725.575
1160.65467	29334.575
1164.27079	30304.975
1167.88443	31581.375
1171.49561	32945.675
1175.10432	34714.575
1178.71056	37041.775
1182.31434	39203.375
1185.91565	40185.675
1189.51451	40036.475
1193.11091	39123.575
1196.70485	38038.075
1200.29634	36786.475
1203.88538	35920.875
1207.47197	35464.475
1211.05612	34991.975
1214.63782	34521.975
1218.21708	33905.775
1221.79391	33230.075
1225.36829	32872.775
1228.94024	32580.675
1232.50976	32210.475
1236.07685	31732.775
1239.6415	31432.675
1243.20374	31338.175
1246.76355	31522.775
1250.32093	31975.375
1253.8759	32496.975
1257.42845	33278.475
1260.97859	34131.375
1264.52631	35119.775
1268.07163	36140.275
1271.61453	37102.475
1275.15503	37873.875
1278.69312	38905.975
1282.22882	39840.275
1285.76211	41022.375
1289.29301	42460.375
1292.82151	44076.175
1296.34761	45917.975
1299.87133	48160.175
1303.39266	50445.375
1306.9116	52664.075
1310.42815	54353.575
1313.94233	55211.575
1317.45412	54861.275
1320.96354	53829.575
1324.47058	52686.875
1327.97525	51850.075
1331.47754	51258.575
1334.97747	50776.475
1338.47502	50394.875
1341.97022	49715.075
1345.46305	49022.875
1348.95352	48567.775
1352.44163	48732.175
1355.92738	49989.075
1359.41078	52236.575
1362.89183	54223.775
1366.37053	53985.775
1369.84688	50431.375
1373.32088	45548.475
1376.79254	41920.175
1380.26186	40486.675
1383.72883	40375.175
1387.19347	40319.875
1390.65578	39760.575
1394.11575	39400.975
1397.57339	39516.575
1401.0287	40070.775
1404.48168	40502.275
1407.93234	40461.875
1411.38068	40046.475
1414.82669	39226.475
1418.27039	38080.175
1421.71177	36878.075
1425.15083	35930.475
1428.58758	35551.375
1432.02203	35828.175
1435.45416	36600.475
1438.88399	37551.575
1442.31151	38117.775
1445.73673	38277.775
1449.15965	38443.975
1452.58027	38431.675
1455.9986	38243.275
1459.41463	38260.075
1462.82837	38735.875
1466.23982	39547.475
1469.64898	40261.475
1473.05586	40779.575
1476.46045	40970.975
1479.86276	41054.675
1483.26279	40889.275
1486.66054	40923.775
1490.05602	41139.375
1493.44922	41617.575
1496.84016	42069.475
1500.22882	42621.775
1503.61521	43325.575
1506.99934	44188.075
1510.38121	44832.975
1513.76081	44888.475
1517.13816	44151.975
1520.51324	42907.175
1523.88607	42077.575
1527.25665	41701.375
1530.62498	41512.275
1533.99105	41291.275
1537.35488	40711.475
1540.71647	39927.875
1544.07581	38975.775
1547.4329	38128.875
1550.78776	37308.775
1554.14038	36743.175
1557.49077	36498.575
1560.83892	36399.375
1564.18484	36352.575
1567.52853	36439.575
1570.86999	36773.375
1574.20922	37335.175
1577.54624	37794.075
1580.88103	37930.175
1584.2136	38183.475
1587.54395	39299.275
1590.87208	41205.575
1594.19801	43638.275
1597.52172	45887.575
1600.84321	46435.775
1604.16251	44538.375
1607.47959	41344.975
1610.79447	37916.075
1614.10715	34894.775
1617.41763	32568.875
1620.7259	31106.175
1624.03199	30362.675
1627.33587	30455.375
1630.63757	31333.575
1633.93707	33065.375
1637.23439	36060.775
1640.52951	40525.575
1643.82246	45748.475
1647.11321	49945.775
1650.40179	50605.475
1653.68819	46798.775
1656.97241	40779.475
1660.25446	35112.675
1663.53433	31121.875
1666.81203	28728.675
1670.08756	27241.575
1673.36092	26335.875
1676.63211	25765.775
1679.90115	25328.875
1683.16801	24991.175
1686.43272	24760.975
1689.69527	24544.375
1692.95567	24356.075
1696.2139	24176.875
1699.46999	23971.475
1702.72392	23905.775
1705.97571	23957.875
1709.22535	24055.575
1712.47284	24086.475
1715.71819	24060.875
1718.96139	24042.975
1722.20246	24005.875
1725.44139	23891.575
1728.67818	23762.075
1731.91284	23670.075
1735.14537	23526.275
1738.37576	23468.875
1741.60403	23383.875
1744.83017	23296.375
1748.05418	23243.275
1751.27607	23142.175
1754.49584	23086.375
1757.71349	22996.975
1760.92903	22949.175
1764.14244	22929.675
1767.35375	22901.775
1770.56294	22939.575
1773.77002	22954.075
1776.97499	22971.575
1780.17785	22963.775
1783.37861	22957.375
1786.57727	22952.575
1789.77382	22945.575
1792.96828	22908.575
1796.16064	22858.175
1799.3509	22856.475
1802.53907	22806.275
1805.72514	22729.075
1808.90913	22696.475
1812.09102	22649.775
1815.27083	22614.075
1818.44856	22637.775
1821.6242	22639.375
1824.79776	22614.975
1827.96924	22596.475
1831.13864	22586.175
1834.30597	22616.575
1837.47122	22623.675
1840.6344	22597.275
1843.7955	22562.475
1846.95454	22546.775
1850.11151	22539.375
1853.26642	22527.075
1856.41926	22502.575
1859.57004	22538.875
1862.71876	22486.975
1865.86542	22503.275
1869.01003	22503.775
1872.15258	22442.575
1875.29308	22406.975
1878.43152	22427.475
1881.56792	22377.575
1884.70227	22374.875
1887.83457	22368.375
1890.96482	22342.475
1894.09304	22310.275
1897.21921	22231.275
1900.34335	22185.075
1903.46544	22197.275
1906.58551	22191.875
1909.70353	22166.575
1912.81953	22159.575
1915.93349	22100.675
1919.04543	22064.075
1922.15534	22034.975
1925.26322	22045.175
1928.36908	21981.875
1931.47292	21934.375
1934.57473	21922.775
1937.67453	21870.675
1940.77232	21815.675
1943.86808	21782.775
1946.96184	21714.275
1950.05358	21651.175
1953.14331	21582.275
1956.23103	21513.275
1959.31675	21448.575
1962.40046	21417.875
1965.48217	21388.875
1968.56188	21348.975
1971.63959	21283.775
1974.7153	21215.075
1977.78901	21192.975
1980.86073	21068.975
1983.93046	21023.075
1986.99819	20948.875
1990.06394	20896.575
1993.1277	20880.475
1996.18947	20807.175
1999.24925	20760.675
2002.30706	20689.275
2005.36288	20630.575
2008.41672	20607.675
2011.46859	20547.375
2014.51848	20483.275
2017.56639	20412.175
2020.61233	20370.375
2023.6563	20372.575
2026.6983	20308.675
2029.73833	20272.375
2032.7764	20232.975
2035.8125	20203.675
2038.84664	20179.275
2041.87881	20197.775
2044.90903	20125.675
2047.93729	20093.075
2050.96359	20047.775
2053.98794	20028.075
2057.01034	20056.975
2060.03078	20005.575
2063.04927	19999.375
2066.06582	19989.875
2069.08042	19983.475
2072.09307	19955.375
2075.10378	19950.375
2078.11255	19975.975
2081.11938	19952.675
2084.12426	19952.375
2087.12722	19938.375
2090.12824	19905.075
2093.12732	19923.575
2096.12447	19949.475
2099.11969	19940.875
2102.11299	19959.575
2105.10435	19957.975
2108.09379	19970.275
2111.08131	20010.275
2114.0669	20015.375
2117.05057	20068.475
2120.03233	20064.075
2123.01216	20104.275
2125.99008	20124.775
2128.96609	20151.475
2131.94018	20149.375
2134.91236	20173.275
2137.88263	20127.275
2140.851	20190.175
2143.81746	20216.375
2146.78201	20216.775
2149.74466	20231.075
2152.7054	20216.475
2155.66425	20202.075
2158.6212	20222.175
2161.57625	20173.975
2164.52941	20214.875
2167.48067	20237.175
2170.43004	20165.375
2173.37752	20200.975
2176.32311	20204.275
2179.26681	20198.575
2182.20863	20190.775
2185.14856	20220.275
2188.08661	20221.475
2191.02278	20228.875
2193.95707	20202.475
2196.88948	20211.375
2199.82001	20179.175
2202.74867	20142.375
2205.67545	20153.275
2208.60037	20122.775
2211.52341	20116.875
2214.44458	20079.775
2217.36388	20006.575
2220.28132	20030.175
2223.1969	19945.575
2226.11061	19966.675
2229.02246	19926.275
2231.93245	19916.075
2234.84058	19858.575
2237.74686	19860.875
2240.65128	19802.475
2243.55385	19808.475
2246.45456	19824.375
2249.35343	19757.875
2252.25044	19759.875
2255.14561	19737.675
2258.03893	19720.975
2260.93041	19668.575
2263.82004	19623.475
2266.70783	19649.675
2269.59378	19559.675
2272.4779	19534.075
2275.36017	19499.075
2278.24061	19454.475
2281.11922	19392.475
2283.996	19406.375
2286.87094	19377.075
2289.74405	19373.375
2292.61534	19347.075
2295.4848	19304.575
2298.35243	19336.475
2301.21824	19310.075
2304.08223	19306.775
2306.94439	19300.575
2309.80474	19315.175
2312.66327	19313.175
2315.51999	19288.175
2318.37489	19269.675
2321.22797	19271.975
2324.07925	19242.075
2326.92871	19198.875
2329.77637	19218.975
2332.62222	19230.075
2335.46626	19162.875
2338.3085	19145.575
2341.14893	19168.775
2343.98756	19188.475
2346.8244	19192.875
2349.65943	19157.175
2352.49267	19118.275
2355.32411	19152.875
2358.15376	19120.075
2360.98161	19116.375
2363.80768	19133.175
2366.63195	19067.775
2369.45444	19043.575
2372.27514	19068.375
2375.09405	19023.175
2377.91118	19013.675
2380.72652	18959.075
2383.54009	18911.375
2386.35187	18895.175
2389.16188	18873.775
2391.97011	18865.075
2394.77657	18831.975
2397.58125	18795.875
2400.38416	18787.675
2403.18529	18763.475
2405.98466	18805.875
2408.78226	18747.875
2411.57809	18706.475
2414.37216	18696.175
2417.16446	18684.475
2419.955	18652.475
2422.74378	18663.575
2425.5308	18611.875
2428.31606	18626.775
2431.09956	18643.575
2433.88131	18577.575
2436.6613	18617.975
2439.43954	18647.175
2442.21603	18623.975
2444.99077	18615.075
2447.76377	18608.975
2450.53501	18602.875
2453.30451	18624.575
2456.07226	18554.075
2458.83827	18563.275
2461.60254	18561.375
2464.36507	18555.575
2467.12586	18538.275
2469.88492	18543.375
2472.64224	18517.375
2475.39782	18511.975
2478.15167	18507.775
2480.90379	18553.275
2483.65417	18592.875
2486.40283	18575.375
2489.14976	18609.975
2491.89497	18583.675
2494.63845	18543.175
2497.3802	18481.875
2500.12024	18538.075
2502.85855	18555.675
2505.59514	18547.375
2508.33002	18503.875
2511.06318	18492.075
2513.79462	18491.475
2516.52435	18465.075
2519.25237	18399.575
2521.97867	18407.975
2524.70327	18408.375
2527.42616	18417.275
2530.14734	18398.575
2532.86681	18421.975
2535.58458	18383.875
2538.30065	18398.375
2541.01501	18403.775
2543.72768	18356.075
2546.43864	18354.975
2549.14791	18333.175
2551.85548	18345.075
2554.56136	18287.975
2557.26554	18262.975
2559.96803	18238.875
2562.66883	18193.475
2565.36794	18199.075
2568.06536	18179.575
2570.7611	18173.475
2573.45514	18168.875
2576.14751	18146.875
2578.83819	18139.475
2581.52719	18127.675
2584.21451	18076.175
2586.90015	18064.375
2589.58411	18040.275
2592.2664	18072.275
2594.94701	18049.475
2597.62594	18043.075
2600.30321	18031.575
2602.9788	18050.675
2605.65273	17954.475
2608.32498	18010.875
2610.99557	18034.875
2613.66449	18012.875
2616.33175	17994.075
2618.99734	17941.775
2621.66128	17938.175
2624.32355	17903.475
2626.98416	17909.975
2629.64311	17920.275
2632.30041	17887.775
2634.95605	17879.275
2637.61004	17858.475
2640.26238	17839.675
2642.91306	17852.875
2645.56209	17860.775
2648.20948	17856.675
2650.85521	17806.775
2653.4993	17834.975
2656.14175	17878.675
2658.78255	17873.775
2661.42171	17877.075
2664.05923	17902.075
2666.6951	17906.375
2669.32934	17968.475
2671.96194	17965.075
2674.59291	17937.075
2677.22224	17888.375
2679.84993	17922.075
2682.476	17883.475
2685.10043	17927.875
2687.72324	17915.575
2690.34441	17910.675
2692.96396	17943.875
2695.58188	17903.975
2698.19818	17905.375
2700.81285	17909.675
2703.4259	17857.375
2706.03733	17831.675
2708.64714	17863.575
2711.25533	17909.675
2713.86191	17941.875
2716.46687	18014.175
2719.07021	18014.675
2721.67194	18069.075
2724.27206	18050.675
2726.87057	18033.775
2729.46747	18021.475
2732.06276	18027.475
2734.65644	18026.075
2737.24852	18007.475
2739.83899	18042.275
2742.42786	18054.075
2745.01513	17996.175
2747.60079	18003.675
2750.18486	17977.275
2752.76733	17986.275
2755.3482	17909.675
2757.92747	17904.775
2760.50515	17909.775
2763.08123	17905.575
2765.65573	17868.175
2768.22863	17876.875
2770.79994	17878.075
2773.36967	17858.175
2775.9378	17876.475
2778.50435	17838.475
2781.06932	17843.175
2783.6327	17843.375
2786.1945	17860.875
2788.75471	17835.975
2791.31335	17825.175
2793.87041	17821.275
2796.42589	17755.175
2798.97979	17701.875
2801.53212	17676.775
2804.08288	17694.175
2806.63206	17623.575
2809.17967	17637.075
2811.72571	17574.475
2814.27018	17553.575
2816.81308	17511.275
2819.35442	17488.375
2821.89419	17416.175
2824.43239	17455.075
2826.96904	17412.975
2829.50412	17433.675
2832.03763	17373.175
2834.56959	17375.575
2837.1	17357.375
2839.62884	17355.075
2842.15613	17330.375
2844.68186	17389.075
2847.20604	17338.875
2849.72867	17327.975
2852.24974	17314.575
2854.76927	17281.675
2857.28724	17220.175
2859.80367	17223.675
2862.31855	17175.675
2864.83189	17163.375
2867.34368	17164.975
2869.85393	17166.775
2872.36264	17193.275
2874.8698	17153.075
2877.37543	17152.675
2879.87952	17126.975
2882.38207	17133.875
2884.88308	17118.375
2887.38256	17190.575
2889.88051	17163.375
2892.37692	17185.775
2894.8718	17151.575
2897.36515	17160.375
2899.85698	17132.975
2902.34727	17192.775
2904.83604	17194.475
2907.32328	17191.175
2909.809	17221.075
2912.29319	17240.875
2914.77587	17227.275
2917.25702	17253.375
2919.73665	17228.175
2922.21476	17193.675
2924.69136	17232.175
2927.16644	17204.675
2929.64	17200.575
2932.11205	17187.675
2934.58258	17086.475
2937.05161	17159.575
2939.51912	17133.475
2941.98513	17132.675
2944.44962	17096.675
2946.91261	17083.875
2949.37409	17127.475
2951.83407	17116.175
2954.29254	17115.175
2956.74951	17103.275
2959.20498	17092.575
2961.65895	17072.075
2964.11142	17063.775
2966.56239	17066.975
2969.01186	17067.975
2971.45984	17022.275
2973.90632	17026.275
2976.35131	16985.875
2978.7948	16946.075
2981.23681	16907.575
2983.67732	16895.575
2986.11635	16857.875
2988.55388	16820.975
2990.98993	16810.175
2993.4245	16795.875
2995.85758	16758.675
2998.28917	16705.975
3000.71928	16704.575
3003.14791	16625.475
3005.57506	16635.175
3008.00073	16580.575
3010.42493	16565.075
3012.84764	16540.575
3015.26888	16545.075
3017.68865	16525.075
3020.10694	16467.475
3022.52376	16442.375
3024.9391	16424.575
3027.35298	16391.075
3029.76539	16410.175
3032.17632	16395.575
3034.5858	16341.975
3036.9938	16337.575
3039.40034	16324.075
3041.80542	16323.175
3044.20903	16279.675
3046.61118	16295.175
3049.01187	16262.075
3051.4111	16256.775
3053.80888	16221.275
3056.20519	16233.375
3058.60005	16178.175
3060.99345	16171.775
3063.3854	16103.175
3065.7759	16055.875
3068.16494	16054.075
3070.55254	15964.775
3072.93868	15946.775
3075.32338	15861.275
3077.70662	15861.775
3080.08842	15811.175
3082.46878	15798.875
3084.84769	15774.175
3087.22515	15775.075
3089.60118	15755.275
3091.97576	15780.875
3094.3489	15782.175
3096.72061	15796.875
3099.09087	15768.975
3101.4597	15789.775
3103.82709	15769.975
3106.19305	15721.175
3108.55757	15744.875
3110.92066	15687.575
3113.28232	15680.575
3115.64255	15637.175
3118.00134	15596.175
3120.35871	15590.275
3122.71466	15521.875
3125.06917	15530.975
3127.42226	15475.575
