Data from AgNPs_FTO_APTES_UA_50uM_CRN_2uM_R6G_10uM_NaF_0.1M_Addition_RamanShift__5__11-59-54-761.txt Node

Date: Mon Feb 21 11:59:54 GMT 2022
User: TCL
Spectrometer: QEP01345
Trigger mode: 4
Integration Time (sec): 7.000000E0
Scans to average: 10
Electric dark correction enabled: true
Nonlinearity correction enabled: false
Boxcar width: 0
XAxis mode: Raman Shifts
Number of Pixels in Spectrum: 1044
>>>>>Begin Spectral Data<<<<<
46.04893	-0.1375
50.45542	-1.5375
54.85868	0.1625
59.25871	-1.8375
63.6555	72.4625
68.04907	82.9625
72.43941	81.9625
76.82654	88.5625
81.21044	91.5625
85.59113	94.0625
89.96862	94.3625
94.34289	102.2625
98.71396	97.2625
103.08183	111.0625
107.4465	109.5625
111.80798	111.4625
116.16626	114.2625
120.52136	114.0625
124.87327	121.4625
129.222	120.5625
133.56755	131.8625
137.90993	143.5625
142.24913	158.9625
146.58517	171.2625
150.91804	196.0625
155.24774	233.9625
159.57429	292.0625
163.89768	368.7625
168.21792	491.7625
172.53501	674.9625
176.84895	939.7625
181.15975	1315.5625
185.46741	1861.6625
189.77193	2557.1625
194.07331	3423.8625
198.37157	4409.5625
202.6667	5442.6625
206.9587	6478.8625
211.24758	7512.1625
215.53334	8501.3625
219.81599	9604.8625
224.09553	10793.9625
228.37195	12077.8625
232.64527	13538.0625
236.91549	15059.4625
241.18261	16579.5625
245.44663	18012.6625
249.70755	19313.9625
253.96539	20395.8625
258.22014	21331.8625
262.4718	22112.6625
266.72039	22632.7625
270.96589	22869.6625
275.20832	22872.3625
279.44768	22680.0625
283.68397	22436.1625
287.91719	22184.2625
292.14735	22010.7625
296.37445	21957.2625
300.59849	22022.1625
304.81948	22123.1625
309.03742	22173.4625
313.25231	22133.0625
317.46415	21905.6625
321.67296	21610.5625
325.87872	21292.0625
330.08145	21173.4625
334.28114	21177.1625
338.47781	21298.6625
342.67145	21574.7625
346.86207	21908.8625
351.04966	22343.9625
355.23424	22768.0625
359.4158	23187.8625
363.59435	23550.2625
367.76989	23738.7625
371.94243	23899.3625
376.11196	23976.5625
380.27849	24133.0625
384.44203	24238.5625
388.60257	24428.8625
392.76012	24663.8625
396.91468	24898.7625
401.06626	25271.8625
405.21485	25500.7625
409.36047	25463.3625
413.50311	25212.0625
417.64277	25062.5625
421.77947	25084.6625
425.9132	25166.9625
430.04396	25256.5625
434.17176	25395.6625
438.2966	25612.6625
442.41849	26106.3625
446.53742	26837.8625
450.6534	27655.3625
454.76644	28208.9625
458.87653	28353.6625
462.98368	28134.5625
467.08789	27736.6625
471.18916	27250.0625
475.2875	26755.6625
479.38291	26422.6625
483.4754	26267.5625
487.56496	26042.5625
491.6516	25763.4625
495.73531	25559.0625
499.81612	25463.3625
503.89401	25597.7625
507.96899	25656.7625
512.04106	25555.4625
516.11023	25449.6625
520.1765	25298.6625
524.23987	25236.2625
528.30034	25147.1625
532.35792	25045.5625
536.41261	24834.2625
540.46441	24546.5625
544.51333	24435.5625
548.55936	24557.8625
552.60252	24953.5625
556.64279	25551.1625
560.6802	25997.4625
564.71473	26255.3625
568.7464	26601.7625
572.7752	27215.7625
576.80114	27824.7625
580.82422	28498.7625
584.84444	29493.9625
588.86181	30933.8625
592.87633	32426.8625
596.888	32571.6625
600.89682	31303.0625
604.9028	30750.4625
608.90594	32295.0625
612.90624	34320.1625
616.90371	32506.4625
620.89834	28081.5625
624.89015	26140.9625
628.87913	25806.8625
632.86528	25908.7625
636.84862	25866.8625
640.82913	25396.6625
644.80683	24824.4625
648.78172	24476.3625
652.75379	24526.4625
656.72306	24823.8625
660.68952	25220.3625
664.65319	25108.0625
668.61405	24747.2625
672.57211	24764.7625
676.52738	24879.5625
680.47986	24913.7625
684.42955	24692.5625
688.37646	24566.2625
692.32058	24736.4625
696.26192	25149.9625
700.20048	25560.7625
704.13626	25685.5625
708.06928	25613.8625
711.99952	25453.3625
715.927	25524.3625
719.85171	25643.8625
723.77365	25592.3625
727.69284	25275.0625
731.60928	24909.5625
735.52295	24839.7625
739.43388	24855.6625
743.34206	24936.5625
747.24749	25057.3625
751.15017	25235.0625
755.05012	25527.1625
758.94733	26137.2625
762.8418	27176.2625
766.73354	28687.9625
770.62254	30229.1625
774.50882	30515.9625
778.39237	29491.8625
782.27321	27889.5625
786.15132	26508.4625
790.02671	25611.0625
793.89938	25187.6625
797.76935	25009.2625
801.6366	24901.5625
805.50115	24843.6625
809.36299	24806.0625
813.22213	24647.7625
817.07857	24537.9625
820.93231	24478.7625
824.78336	24397.4625
828.63172	24337.0625
832.47738	24278.0625
836.32036	24331.0625
840.16066	24453.3625
843.99827	24552.9625
847.8332	24529.9625
851.66546	24433.7625
855.49504	24443.4625
859.32195	24418.2625
863.1462	24377.9625
866.96777	24333.9625
870.78668	24325.3625
874.60293	24366.5625
878.41652	24423.3625
882.22745	24504.8625
886.03573	24587.7625
889.84136	24581.4625
893.64433	24502.2625
897.44466	24337.8625
901.24235	24250.4625
905.0374	24159.8625
908.8298	24164.5625
912.61957	24155.8625
916.40671	24308.2625
920.19121	24546.2625
923.97308	24912.8625
927.75233	25057.7625
931.52895	24898.1625
935.30295	24595.5625
939.07433	24229.2625
942.84309	23973.5625
946.60924	23875.2625
950.37278	23839.8625
954.13371	23858.7625
957.89203	23773.7625
961.64774	23743.4625
965.40086	23739.0625
969.15137	23720.7625
972.89929	23719.6625
976.64461	23692.5625
980.38733	23727.7625
984.12747	23841.2625
987.86502	24007.7625
991.59999	24237.1625
995.33237	24587.5625
999.06217	25104.8625
1002.78939	25730.1625
1006.51404	26293.6625
1010.23611	26668.7625
1013.95561	26960.8625
1017.67255	26927.0625
1021.38692	26642.7625
1025.09872	26299.7625
1028.80796	26209.8625
1032.51465	26534.8625
1036.21877	26986.6625
1039.92035	27129.8625
1043.61937	27033.9625
1047.31584	26664.1625
1051.00976	26222.0625
1054.70114	25919.9625
1058.38998	25861.2625
1062.07627	25968.0625
1065.76003	26173.5625
1069.44126	26392.3625
1073.11995	26803.3625
1076.79611	27176.1625
1080.46974	27426.0625
1084.14085	27657.0625
1087.80943	27897.5625
1091.47549	28092.5625
1095.13903	28090.6625
1098.80005	27756.6625
1102.45857	27229.0625
1106.11456	26805.1625
1109.76805	26671.1625
1113.41903	26698.4625
1117.06751	26797.1625
1120.71348	27047.1625
1124.35696	27255.7625
1127.99793	27534.5625
1131.63641	27626.7625
1135.2724	27587.0625
1138.90589	27456.1625
1142.5369	27486.0625
1146.16542	27607.2625
1149.79145	27822.0625
1153.415	27997.9625
1157.03607	28270.6625
1160.65467	28852.0625
1164.27079	29980.4625
1167.88443	31345.1625
1171.49561	32837.2625
1175.10432	34823.3625
1178.71056	37437.1625
1182.31434	39880.4625
1185.91565	40999.7625
1189.51451	40624.4625
1193.11091	39449.4625
1196.70485	38030.5625
1200.29634	36702.4625
1203.88538	35764.3625
1207.47197	35204.4625
1211.05612	34741.7625
1214.63782	34199.0625
1218.21708	33625.0625
1221.79391	33138.7625
1225.36829	32911.1625
1228.94024	32627.1625
1232.50976	32160.2625
1236.07685	31478.6625
1239.6415	31115.8625
1243.20374	31058.2625
1246.76355	31296.7625
1250.32093	31706.2625
1253.8759	32346.3625
1257.42845	33124.4625
1260.97859	34045.6625
1264.52631	35030.9625
1268.07163	36152.4625
1271.61453	37191.1625
1275.15503	38138.7625
1278.69312	39145.3625
1282.22882	40205.6625
1285.76211	41405.4625
1289.29301	42778.1625
1292.82151	44438.4625
1296.34761	46501.0625
1299.87133	48976.2625
1303.39266	51714.3625
1306.9116	54432.3625
1310.42815	56620.4625
1313.94233	57730.6625
1317.45412	57274.5625
1320.96354	55892.8625
1324.47058	54359.3625
1327.97525	53098.3625
1331.47754	52263.1625
1334.97747	51619.2625
1338.47502	51076.1625
1341.97022	50175.8625
1345.46305	49232.2625
1348.95352	48659.0625
1352.44163	48957.1625
1355.92738	50756.8625
1359.41078	53619.3625
1362.89183	56045.8625
1366.37053	55667.5625
1369.84688	51727.3625
1373.32088	46198.9625
1376.79254	42339.8625
1380.26186	40898.5625
1383.72883	40789.9625
1387.19347	40659.4625
1390.65578	40018.0625
1394.11575	39636.8625
1397.57339	39923.3625
1401.0287	40562.7625
1404.48168	41068.6625
1407.93234	41202.9625
1411.38068	40813.3625
1414.82669	39982.1625
1418.27039	38828.3625
1421.71177	37529.5625
1425.15083	36488.4625
1428.58758	35992.2625
1432.02203	36286.7625
1435.45416	37155.2625
1438.88399	38174.3625
1442.31151	38774.2625
1445.73673	39052.1625
1449.15965	39158.5625
1452.58027	39030.8625
1455.9986	38722.4625
1459.41463	38669.7625
1462.82837	39124.0625
1466.23982	39920.3625
1469.64898	40822.1625
1473.05586	41405.9625
1476.46045	41676.9625
1479.86276	41703.3625
1483.26279	41574.8625
1486.66054	41508.3625
1490.05602	41825.9625
1493.44922	42191.3625
1496.84016	42452.3625
1500.22882	42841.2625
1503.61521	43433.4625
1506.99934	44335.6625
1510.38121	45049.7625
1513.76081	45185.4625
1517.13816	44293.3625
1520.51324	42971.9625
1523.88607	41944.6625
1527.25665	41414.9625
1530.62498	41335.2625
1533.99105	41166.7625
1537.35488	40684.0625
1540.71647	39966.3625
1544.07581	39028.5625
1547.4329	38173.0625
1550.78776	37398.8625
1554.14038	36810.0625
1557.49077	36443.2625
1560.83892	36307.4625
1564.18484	36236.8625
1567.52853	36340.3625
1570.86999	36699.8625
1574.20922	37290.0625
1577.54624	37729.1625
1580.88103	37888.0625
1584.2136	38243.3625
1587.54395	39474.4625
1590.87208	41735.5625
1594.19801	44577.6625
1597.52172	47241.4625
1600.84321	47886.8625
1604.16251	45828.0625
1607.47959	42232.1625
1610.79447	38349.5625
1614.10715	34930.2625
1617.41763	32438.7625
1620.7259	30955.5625
1624.03199	30296.0625
1627.33587	30469.4625
1630.63757	31350.5625
1633.93707	33238.3625
1637.23439	36395.7625
1640.52951	41060.8625
1643.82246	46526.4625
1647.11321	50768.0625
1650.40179	51214.8625
1653.68819	47143.3625
1656.97241	40684.7625
1660.25446	34841.0625
1663.53433	30763.2625
1666.81203	28305.7625
1670.08756	26853.5625
1673.36092	25972.9625
1676.63211	25384.4625
1679.90115	24947.7625
1683.16801	24606.4625
1686.43272	24335.2625
1689.69527	24178.1625
1692.95567	23949.4625
1696.2139	23773.3625
1699.46999	23568.2625
1702.72392	23525.3625
1705.97571	23563.7625
1709.22535	23638.4625
1712.47284	23733.3625
1715.71819	23687.1625
1718.96139	23639.7625
1722.20246	23565.6625
1725.44139	23503.8625
1728.67818	23395.9625
1731.91284	23279.9625
1735.14537	23158.8625
1738.37576	23093.0625
1741.60403	23018.7625
1744.83017	22893.2625
1748.05418	22828.8625
1751.27607	22785.1625
1754.49584	22692.4625
1757.71349	22617.9625
1760.92903	22560.1625
1764.14244	22558.3625
1767.35375	22575.7625
1770.56294	22582.9625
1773.77002	22558.2625
1776.97499	22611.2625
1780.17785	22593.5625
1783.37861	22588.0625
1786.57727	22569.3625
1789.77382	22570.7625
1792.96828	22594.5625
1796.16064	22556.6625
1799.3509	22474.3625
1802.53907	22426.3625
1805.72514	22362.2625
1808.90913	22328.0625
1812.09102	22303.9625
1815.27083	22309.1625
1818.44856	22267.2625
1821.6242	22277.8625
1824.79776	22300.4625
1827.96924	22282.4625
1831.13864	22255.4625
1834.30597	22304.7625
1837.47122	22290.8625
1840.6344	22278.7625
1843.7955	22242.1625
1846.95454	22227.6625
1850.11151	22168.5625
1853.26642	22178.8625
1856.41926	22157.3625
1859.57004	22135.2625
1862.71876	22134.3625
1865.86542	22133.0625
1869.01003	22144.1625
1872.15258	22103.4625
1875.29308	22085.4625
1878.43152	22078.3625
1881.56792	22109.4625
1884.70227	22093.5625
1887.83457	22086.2625
1890.96482	22044.8625
1894.09304	21977.8625
1897.21921	21928.7625
1900.34335	21906.7625
1903.46544	21879.4625
1906.58551	21901.9625
1909.70353	21896.0625
1912.81953	21888.1625
1915.93349	21829.6625
1919.04543	21801.6625
1922.15534	21769.4625
1925.26322	21776.2625
1928.36908	21692.1625
1931.47292	21682.6625
1934.57473	21599.9625
1937.67453	21596.0625
1940.77232	21557.8625
1943.86808	21488.8625
1946.96184	21423.5625
1950.05358	21355.8625
1953.14331	21315.2625
1956.23103	21272.9625
1959.31675	21207.6625
1962.40046	21148.0625
1965.48217	21102.4625
1968.56188	21085.5625
1971.63959	21014.5625
1974.7153	20944.0625
1977.78901	20918.6625
1980.86073	20853.0625
1983.93046	20783.7625
1986.99819	20689.3625
1990.06394	20658.2625
1993.1277	20643.9625
1996.18947	20574.8625
1999.24925	20534.2625
2002.30706	20471.7625
2005.36288	20409.0625
2008.41672	20363.6625
2011.46859	20318.0625
2014.51848	20260.6625
2017.56639	20207.7625
2020.61233	20192.1625
2023.6563	20178.4625
2026.6983	20123.5625
2029.73833	20083.5625
2032.7764	20055.7625
2035.8125	20046.2625
2038.84664	19971.1625
2041.87881	19983.3625
2044.90903	19980.6625
2047.93729	19906.6625
2050.96359	19890.3625
2053.98794	19851.4625
2057.01034	19871.0625
2060.03078	19819.4625
2063.04927	19823.0625
2066.06582	19769.7625
2069.08042	19783.2625
2072.09307	19788.3625
2075.10378	19796.6625
2078.11255	19812.8625
2081.11938	19768.4625
2084.12426	19756.0625
2087.12722	19707.7625
2090.12824	19721.7625
2093.12732	19767.7625
2096.12447	19765.0625
2099.11969	19763.1625
2102.11299	19771.5625
2105.10435	19794.9625
2108.09379	19791.7625
2111.08131	19832.1625
2114.0669	19845.3625
2117.05057	19890.0625
2120.03233	19875.8625
2123.01216	19892.7625
2125.99008	19947.2625
2128.96609	19966.2625
2131.94018	19981.7625
2134.91236	19994.6625
2137.88263	19975.1625
2140.851	20014.7625
2143.81746	20057.7625
2146.78201	20008.8625
2149.74466	20035.2625
2152.7054	20030.9625
2155.66425	20046.6625
2158.6212	20017.7625
2161.57625	20025.3625
2164.52941	20038.4625
2167.48067	20012.5625
2170.43004	20071.2625
2173.37752	20047.1625
2176.32311	20053.1625
2179.26681	20036.6625
2182.20863	20079.9625
2185.14856	20091.9625
2188.08661	20071.8625
2191.02278	20082.9625
2193.95707	20089.4625
2196.88948	20045.4625
2199.82001	20070.1625
2202.74867	20060.3625
2205.67545	20064.5625
2208.60037	20027.0625
2211.52341	19986.9625
2214.44458	19984.1625
2217.36388	19905.4625
2220.28132	19910.8625
2223.1969	19844.0625
2226.11061	19831.9625
2229.02246	19795.8625
2231.93245	19772.5625
2234.84058	19753.7625
2237.74686	19767.8625
2240.65128	19745.5625
2243.55385	19728.7625
2246.45456	19693.2625
2249.35343	19650.1625
2252.25044	19620.5625
2255.14561	19624.1625
2258.03893	19594.6625
2260.93041	19560.6625
2263.82004	19497.8625
2266.70783	19511.4625
2269.59378	19460.7625
2272.4779	19434.1625
2275.36017	19366.7625
2278.24061	19355.6625
2281.11922	19312.3625
2283.996	19322.9625
2286.87094	19292.7625
2289.74405	19314.2625
2292.61534	19309.8625
2295.4848	19250.0625
2298.35243	19253.4625
2301.21824	19249.2625
2304.08223	19242.9625
2306.94439	19265.9625
2309.80474	19242.1625
2312.66327	19240.9625
2315.51999	19241.1625
2318.37489	19258.8625
2321.22797	19255.0625
2324.07925	19249.1625
2326.92871	19190.8625
2329.77637	19181.4625
2332.62222	19176.5625
2335.46626	19173.6625
2338.3085	19145.3625
2341.14893	19180.2625
2343.98756	19207.5625
2346.8244	19193.0625
2349.65943	19141.9625
2352.49267	19177.1625
2355.32411	19144.1625
2358.15376	19142.5625
2360.98161	19132.4625
2363.80768	19108.5625
2366.63195	19072.0625
2369.45444	19052.9625
2372.27514	19024.3625
2375.09405	19047.8625
2377.91118	18991.7625
2380.72652	18953.2625
2383.54009	18912.5625
2386.35187	18925.6625
2389.16188	18882.7625
2391.97011	18885.2625
2394.77657	18846.2625
2397.58125	18820.7625
2400.38416	18804.6625
2403.18529	18788.1625
2405.98466	18782.2625
2408.78226	18730.1625
2411.57809	18680.0625
2414.37216	18673.6625
2417.16446	18704.2625
2419.955	18678.0625
2422.74378	18696.6625
2425.5308	18624.0625
2428.31606	18600.4625
2431.09956	18625.9625
2433.88131	18580.2625
2436.6613	18621.6625
2439.43954	18654.2625
2442.21603	18608.3625
2444.99077	18617.2625
2447.76377	18611.3625
2450.53501	18579.6625
2453.30451	18605.0625
2456.07226	18596.3625
2458.83827	18605.2625
2461.60254	18612.2625
2464.36507	18560.5625
2467.12586	18511.5625
2469.88492	18590.1625
2472.64224	18574.3625
2475.39782	18586.0625
2478.15167	18574.0625
2480.90379	18619.8625
2483.65417	18666.9625
2486.40283	18613.4625
2489.14976	18659.0625
2491.89497	18644.2625
2494.63845	18652.0625
2497.3802	18603.7625
2500.12024	18660.6625
2502.85855	18638.2625
2505.59514	18600.1625
2508.33002	18602.5625
2511.06318	18606.6625
2513.79462	18585.9625
2516.52435	18561.4625
2519.25237	18537.9625
2521.97867	18474.1625
2524.70327	18514.0625
2527.42616	18497.1625
2530.14734	18507.1625
2532.86681	18511.9625
2535.58458	18529.1625
2538.30065	18508.1625
2541.01501	18513.8625
2543.72768	18478.3625
2546.43864	18455.5625
2549.14791	18430.1625
2551.85548	18468.1625
2554.56136	18413.8625
2557.26554	18356.0625
2559.96803	18364.4625
2562.66883	18355.3625
2565.36794	18365.1625
2568.06536	18319.8625
2570.7611	18311.5625
2573.45514	18313.7625
2576.14751	18313.6625
2578.83819	18277.0625
2581.52719	18298.6625
2584.21451	18281.8625
2586.90015	18246.3625
2589.58411	18223.9625
2592.2664	18274.2625
2594.94701	18219.8625
2597.62594	18227.3625
2600.30321	18218.1625
2602.9788	18229.8625
2605.65273	18167.7625
2608.32498	18199.4625
2610.99557	18203.3625
2613.66449	18244.3625
2616.33175	18190.0625
2618.99734	18175.7625
2621.66128	18135.9625
2624.32355	18128.0625
2626.98416	18106.6625
2629.64311	18118.0625
2632.30041	18147.7625
2634.95605	18115.4625
2637.61004	18062.4625
2640.26238	18071.8625
2642.91306	18052.6625
2645.56209	18062.8625
2648.20948	18032.3625
2650.85521	18054.4625
2653.4993	18047.8625
2656.14175	18049.2625
2658.78255	18108.8625
2661.42171	18090.8625
2664.05923	18158.6625
2666.6951	18149.0625
2669.32934	18190.6625
2671.96194	18125.1625
2674.59291	18163.1625
2677.22224	18131.5625
2679.84993	18144.7625
2682.476	18118.4625
2685.10043	18128.8625
2687.72324	18149.6625
2690.34441	18133.7625
2692.96396	18144.4625
2695.58188	18139.3625
2698.19818	18123.7625
2700.81285	18124.7625
2703.4259	18103.2625
2706.03733	18041.0625
2708.64714	18073.8625
2711.25533	18156.7625
2713.86191	18161.1625
2716.46687	18217.9625
2719.07021	18273.9625
2721.67194	18281.2625
2724.27206	18278.7625
2726.87057	18272.5625
2729.46747	18280.7625
2732.06276	18309.0625
2734.65644	18284.9625
2737.24852	18284.7625
2739.83899	18297.6625
2742.42786	18324.5625
2745.01513	18266.2625
2747.60079	18282.4625
2750.18486	18241.6625
2752.76733	18223.0625
2755.3482	18193.9625
2757.92747	18183.7625
2760.50515	18189.2625
2763.08123	18200.9625
2765.65573	18174.4625
2768.22863	18175.3625
2770.79994	18157.7625
2773.36967	18140.4625
2775.9378	18163.0625
2778.50435	18147.7625
2781.06932	18128.6625
2783.6327	18139.6625
2786.1945	18130.4625
2788.75471	18160.2625
2791.31335	18124.4625
2793.87041	18124.7625
2796.42589	18061.4625
2798.97979	18025.7625
2801.53212	17964.9625
2804.08288	17946.3625
2806.63206	17973.5625
2809.17967	17947.1625
2811.72571	17885.0625
2814.27018	17892.2625
2816.81308	17804.9625
2819.35442	17800.9625
2821.89419	17798.8625
2824.43239	17789.6625
2826.96904	17772.6625
2829.50412	17779.6625
2832.03763	17722.0625
2834.56959	17694.5625
2837.1	17682.6625
2839.62884	17689.0625
2842.15613	17683.5625
2844.68186	17733.3625
2847.20604	17698.5625
2849.72867	17669.1625
2852.24974	17632.7625
2854.76927	17630.4625
2857.28724	17577.1625
2859.80367	17594.2625
2862.31855	17579.6625
2864.83189	17528.4625
2867.34368	17559.4625
2869.85393	17558.5625
2872.36264	17547.1625
2874.8698	17556.8625
2877.37543	17535.2625
2879.87952	17535.5625
2882.38207	17504.8625
2884.88308	17520.6625
2887.38256	17570.2625
2889.88051	17562.2625
2892.37692	17584.2625
2894.8718	17552.8625
2897.36515	17581.0625
2899.85698	17566.3625
2902.34727	17608.0625
2904.83604	17588.5625
2907.32328	17642.8625
2909.809	17622.6625
2912.29319	17651.8625
2914.77587	17652.4625
2917.25702	17632.1625
2919.73665	17634.2625
2922.21476	17655.8625
2924.69136	17613.4625
2927.16644	17644.1625
2929.64	17625.8625
2932.11205	17599.5625
2934.58258	17527.5625
2937.05161	17558.5625
2939.51912	17538.5625
2941.98513	17533.0625
2944.44962	17523.6625
2946.91261	17529.4625
2949.37409	17549.8625
2951.83407	17541.4625
2954.29254	17529.5625
2956.74951	17550.5625
2959.20498	17551.6625
2961.65895	17518.9625
2964.11142	17549.5625
2966.56239	17467.2625
2969.01186	17511.5625
2971.45984	17481.2625
2973.90632	17459.6625
2976.35131	17451.7625
2978.7948	17397.1625
2981.23681	17356.1625
2983.67732	17326.6625
2986.11635	17302.5625
2988.55388	17260.1625
2990.98993	17231.0625
2993.4245	17236.0625
2995.85758	17212.5625
2998.28917	17153.6625
3000.71928	17124.7625
3003.14791	17144.4625
3005.57506	17121.2625
3008.00073	17039.1625
3010.42493	17048.4625
3012.84764	16996.5625
3015.26888	16986.5625
3017.68865	16959.8625
3020.10694	16932.6625
3022.52376	16868.3625
3024.9391	16893.1625
