Data from AgNPs_FTO_APTES_UA_50uM_CRN_500uM_R6G_10uM_NaF_0.1M_Addition_RamanShift__28__17-14-33-555.txt Node

Date: Mon Feb 21 17:14:33 GMT 2022
User: TCL
Spectrometer: QEP01345
Trigger mode: 4
Integration Time (sec): 7.000000E0
Scans to average: 10
Electric dark correction enabled: true
Nonlinearity correction enabled: false
Boxcar width: 0
XAxis mode: Raman Shifts
Number of Pixels in Spectrum: 1044
>>>>>Begin Spectral Data<<<<<
46.04893	-0.1375
50.45542	0.6625
54.85868	-0.0375
59.25871	-2.0375
63.6555	60.0625
68.04907	65.4625
72.43941	68.4625
76.82654	69.6625
81.21044	74.4625
85.59113	74.4625
89.96862	82.2625
94.34289	82.6625
98.71396	84.1625
103.08183	90.5625
107.4465	89.3625
111.80798	93.6625
116.16626	94.8625
120.52136	96.4625
124.87327	101.0625
129.222	105.9625
133.56755	112.1625
137.90993	119.9625
142.24913	128.6625
146.58517	143.4625
150.91804	159.4625
155.24774	194.0625
159.57429	237.5625
163.89768	312.4625
168.21792	417.5625
172.53501	564.0625
176.84895	787.0625
181.15975	1109.0625
185.46741	1551.3625
189.77193	2154.0625
194.07331	2894.6625
198.37157	3724.8625
202.6667	4636.0625
206.9587	5537.6625
211.24758	6495.1625
215.53334	7450.4625
219.81599	8522.2625
224.09553	9739.3625
228.37195	11121.7625
232.64527	12587.1625
236.91549	14095.6625
241.18261	15404.1625
245.44663	16481.2625
249.70755	17369.3625
253.96539	18189.1625
258.22014	18912.5625
262.4718	19451.9625
266.72039	19702.9625
270.96589	19666.9625
275.20832	19341.5625
279.44768	18791.0625
283.68397	18225.6625
287.91719	17855.4625
292.14735	17852.0625
296.37445	18402.1625
300.59849	19380.3625
304.81948	20539.3625
309.03742	21413.8625
313.25231	21408.0625
317.46415	20223.7625
321.67296	18466.8625
325.87872	16954.5625
330.08145	16270.8625
334.28114	16207.7625
338.47781	16570.6625
342.67145	17166.2625
346.86207	18010.4625
351.04966	19327.8625
355.23424	20821.3625
359.4158	21933.4625
363.59435	22383.0625
367.76989	22485.5625
371.94243	22359.6625
376.11196	22176.7625
380.27849	21949.4625
384.44203	21614.3625
388.60257	21161.3625
392.76012	20896.3625
396.91468	20982.9625
401.06626	21448.1625
405.21485	21772.0625
409.36047	21192.4625
413.50311	19804.2625
417.64277	18403.9625
421.77947	17584.9625
425.9132	17233.8625
430.04396	17138.7625
434.17176	17216.4625
438.2966	17546.1625
442.41849	18029.5625
446.53742	18653.0625
450.6534	19214.1625
454.76644	19547.6625
458.87653	19515.7625
462.98368	19208.0625
467.08789	18778.1625
471.18916	18361.0625
475.2875	17844.5625
479.38291	17398.2625
483.4754	17078.7625
487.56496	16808.9625
491.6516	16560.5625
495.73531	16488.9625
499.81612	16496.6625
503.89401	16729.1625
507.96899	17017.2625
512.04106	17435.0625
516.11023	17887.9625
520.1765	18219.2625
524.23987	18195.3625
528.30034	17893.9625
532.35792	17572.8625
536.41261	17191.0625
540.46441	16756.3625
544.51333	16541.4625
548.55936	16556.7625
552.60252	16910.1625
556.64279	17405.7625
560.6802	17692.1625
564.71473	18132.3625
568.7464	19052.3625
572.7752	19450.8625
576.80114	18474.8625
580.82422	17381.8625
584.84444	17014.4625
588.86181	17076.9625
592.87633	17515.2625
596.888	17873.7625
600.89682	18441.1625
604.9028	20916.5625
608.90594	28335.5625
612.90624	38116.8625
616.90371	36308.5625
620.89834	24080.7625
624.89015	18287.4625
628.87913	17201.1625
632.86528	17484.8625
636.84862	17839.1625
640.82913	17500.8625
644.80683	16414.3625
648.78172	15682.4625
652.75379	15723.7625
656.72306	16420.9625
660.68952	17427.8625
664.65319	17163.7625
668.61405	16067.0625
672.57211	15560.0625
676.52738	15580.7625
680.47986	15591.8625
684.42955	15388.9625
688.37646	15247.8625
692.32058	15213.8625
696.26192	15350.1625
700.20048	15577.2625
704.13626	15693.9625
708.06928	15597.6625
711.99952	15395.3625
715.927	15394.9625
719.85171	15500.4625
723.77365	15602.4625
727.69284	15536.9625
731.60928	15399.9625
735.52295	15386.5625
739.43388	15405.1625
743.34206	15467.1625
747.24749	15498.8625
751.15017	15516.1625
755.05012	15732.7625
758.94733	16696.5625
762.8418	19050.3625
766.73354	23135.5625
770.62254	27291.7625
774.50882	29534.0625
778.39237	28221.4625
782.27321	23730.6625
786.15132	19309.0625
790.02671	16847.7625
793.89938	15797.0625
797.76935	15332.0625
801.6366	15154.5625
805.50115	15100.9625
809.36299	15029.7625
813.22213	14989.6625
817.07857	14948.8625
820.93231	14890.6625
824.78336	14877.3625
828.63172	14957.4625
832.47738	14975.9625
836.32036	14878.7625
840.16066	14755.6625
843.99827	14657.6625
847.8332	14609.8625
851.66546	14594.5625
855.49504	14603.3625
859.32195	14600.9625
863.1462	14573.9625
866.96777	14521.2625
870.78668	14480.7625
874.60293	14520.7625
878.41652	14567.3625
882.22745	14670.7625
886.03573	14743.3625
889.84136	14730.3625
893.64433	14650.8625
897.44466	14590.1625
901.24235	14521.2625
905.0374	14447.9625
908.8298	14296.7625
912.61957	14143.8625
916.40671	14178.7625
920.19121	14239.3625
923.97308	14378.0625
927.75233	14672.4625
931.52895	15000.0625
935.30295	14879.6625
939.07433	14372.5625
942.84309	13873.6625
946.60924	13607.9625
950.37278	13419.5625
954.13371	13357.3625
957.89203	13297.0625
961.64774	13253.9625
965.40086	13177.7625
969.15137	13106.8625
972.89929	13077.7625
976.64461	13064.9625
980.38733	13050.2625
984.12747	13043.7625
987.86502	13138.4625
991.59999	13222.2625
995.33237	13438.5625
999.06217	13768.6625
1002.78939	14159.5625
1006.51404	14538.3625
1010.23611	14837.9625
1013.95561	14993.1625
1017.67255	14967.6625
1021.38692	14735.2625
1025.09872	14446.5625
1028.80796	14318.1625
1032.51465	14460.4625
1036.21877	14636.2625
1039.92035	14695.4625
1043.61937	14707.9625
1047.31584	14589.2625
1051.00976	14430.7625
1054.70114	14279.6625
1058.38998	14181.5625
1062.07627	14175.1625
1065.76003	14167.3625
1069.44126	14183.7625
1073.11995	14280.0625
1076.79611	14519.9625
1080.46974	14972.6625
1084.14085	15595.8625
1087.80943	16184.3625
1091.47549	16428.0625
1095.13903	16030.3625
1098.80005	15335.1625
1102.45857	14891.7625
1106.11456	14801.4625
1109.76805	15117.8625
1113.41903	15698.0625
1117.06751	16638.9625
1120.71348	17849.7625
1124.35696	19008.9625
1127.99793	19810.4625
1131.63641	19340.1625
1135.2724	17968.6625
1138.90589	16765.9625
1142.5369	16002.9625
1146.16542	15478.3625
1149.79145	15201.4625
1153.415	15111.0625
1157.03607	15217.7625
1160.65467	15515.5625
1164.27079	16182.1625
1167.88443	17197.8625
1171.49561	18884.1625
1175.10432	21531.0625
1178.71056	25311.1625
1182.31434	28492.3625
1185.91565	29261.1625
1189.51451	27833.6625
1193.11091	25318.5625
1196.70485	22911.7625
1200.29634	21337.2625
1203.88538	20224.3625
1207.47197	18813.8625
1211.05612	17552.2625
1214.63782	16789.7625
1218.21708	16498.6625
1221.79391	16471.8625
1225.36829	16402.4625
1228.94024	16249.4625
1232.50976	16025.5625
1236.07685	15934.4625
1239.6415	15967.7625
1243.20374	16111.1625
1246.76355	16314.1625
1250.32093	16600.1625
1253.8759	16976.6625
1257.42845	17572.0625
1260.97859	18269.7625
1264.52631	18972.3625
1268.07163	19697.2625
1271.61453	20289.2625
1275.15503	20642.7625
1278.69312	20802.0625
1282.22882	20968.6625
1285.76211	21520.8625
1289.29301	22409.5625
1292.82151	23447.6625
1296.34761	24594.9625
1299.87133	26471.9625
1303.39266	29613.8625
1306.9116	34474.6625
1310.42815	39382.6625
1313.94233	41104.6625
1317.45412	38453.6625
1320.96354	33971.8625
1324.47058	29809.4625
1327.97525	26672.8625
1331.47754	24759.9625
1334.97747	24173.7625
1338.47502	24582.8625
1341.97022	25801.5625
1345.46305	27744.0625
1348.95352	30367.1625
1352.44163	33753.9625
1355.92738	38783.1625
1359.41078	46515.1625
1362.89183	53063.8625
1366.37053	49923.6625
1369.84688	39751.2625
1373.32088	30967.9625
1376.79254	25861.8625
1380.26186	23243.5625
1383.72883	21786.2625
1387.19347	20747.7625
1390.65578	19813.5625
1394.11575	19048.7625
1397.57339	18793.6625
1401.0287	18849.7625
1404.48168	19057.5625
1407.93234	19249.6625
1411.38068	19427.5625
1414.82669	19629.5625
1418.27039	19494.8625
1421.71177	19073.5625
1425.15083	18590.8625
1428.58758	18366.8625
1432.02203	18638.4625
1435.45416	18914.0625
1438.88399	19009.6625
1442.31151	19031.2625
1445.73673	19220.1625
1449.15965	19395.9625
1452.58027	19405.8625
1455.9986	19138.1625
1459.41463	19027.3625
1462.82837	19257.5625
1466.23982	19818.5625
1469.64898	20385.5625
1473.05586	20755.5625
1476.46045	20900.7625
1479.86276	21140.2625
1483.26279	21573.2625
1486.66054	22213.2625
1490.05602	23128.1625
1493.44922	24455.4625
1496.84016	26600.6625
1500.22882	30332.1625
1503.61521	36021.7625
1506.99934	42968.3625
1510.38121	48595.5625
1513.76081	49490.3625
1517.13816	44547.6625
1520.51324	36654.7625
1523.88607	29812.0625
1527.25665	25415.3625
1530.62498	23140.6625
1533.99105	21848.3625
1537.35488	21072.8625
1540.71647	20680.3625
1544.07581	20596.5625
1547.4329	20739.7625
1550.78776	20906.0625
1554.14038	21152.0625
1557.49077	21465.1625
1560.83892	22009.0625
1564.18484	22930.6625
1567.52853	24060.0625
1570.86999	24825.4625
1574.20922	25201.1625
1577.54624	24919.8625
1580.88103	23201.7625
1584.2136	21008.4625
1587.54395	19782.8625
1590.87208	19902.9625
1594.19801	21242.6625
1597.52172	23185.9625
1600.84321	24130.6625
1604.16251	23375.0625
1607.47959	21752.6625
1610.79447	19846.7625
1614.10715	17996.1625
1617.41763	16558.6625
1620.7259	15703.1625
1624.03199	15327.0625
1627.33587	15408.2625
1630.63757	15917.4625
1633.93707	16937.8625
1637.23439	18608.9625
1640.52951	21326.9625
1643.82246	25495.2625
1647.11321	30446.2625
1650.40179	33598.1625
1653.68819	31995.2625
1656.97241	26470.9625
1660.25446	20906.5625
1663.53433	17269.1625
1666.81203	15180.1625
1670.08756	14001.0625
1673.36092	13283.3625
1676.63211	12823.9625
1679.90115	12514.9625
1683.16801	12270.1625
1686.43272	12077.3625
1689.69527	11901.7625
1692.95567	11818.2625
1696.2139	11753.8625
1699.46999	11682.8625
1702.72392	11637.4625
1705.97571	11600.9625
1709.22535	11583.5625
1712.47284	11573.2625
1715.71819	11551.5625
1718.96139	11509.2625
1722.20246	11463.1625
1725.44139	11389.3625
1728.67818	11292.3625
1731.91284	11194.8625
1735.14537	11102.7625
1738.37576	11014.3625
1741.60403	10980.2625
1744.83017	10938.0625
1748.05418	10912.3625
1751.27607	10912.8625
1754.49584	10835.9625
1757.71349	10827.7625
1760.92903	10757.1625
1764.14244	10752.9625
1767.35375	10723.2625
1770.56294	10635.0625
1773.77002	10612.0625
1776.97499	10562.9625
1780.17785	10518.7625
1783.37861	10477.8625
1786.57727	10457.6625
1789.77382	10400.0625
1792.96828	10415.9625
1796.16064	10396.5625
1799.3509	10340.3625
1802.53907	10322.3625
1805.72514	10278.8625
1808.90913	10233.3625
1812.09102	10220.2625
1815.27083	10181.1625
1818.44856	10154.4625
1821.6242	10159.1625
1824.79776	10108.1625
1827.96924	10085.1625
1831.13864	10072.2625
1834.30597	10079.1625
1837.47122	10032.2625
1840.6344	10002.4625
1843.7955	9997.7625
1846.95454	9971.8625
1850.11151	9978.2625
1853.26642	9942.7625
1856.41926	9956.7625
1859.57004	9958.1625
1862.71876	9976.0625
1865.86542	9919.5625
1869.01003	9926.6625
1872.15258	9951.3625
1875.29308	9934.1625
1878.43152	9923.7625
1881.56792	9928.7625
1884.70227	9917.0625
1887.83457	9916.9625
1890.96482	9889.6625
1894.09304	9884.9625
1897.21921	9888.7625
1900.34335	9875.9625
1903.46544	9880.7625
1906.58551	9858.9625
1909.70353	9863.1625
1912.81953	9852.6625
1915.93349	9813.0625
1919.04543	9789.4625
1922.15534	9778.0625
1925.26322	9733.2625
1928.36908	9707.5625
1931.47292	9679.0625
1934.57473	9630.0625
1937.67453	9603.8625
1940.77232	9570.6625
1943.86808	9555.7625
1946.96184	9516.7625
1950.05358	9489.7625
1953.14331	9465.6625
1956.23103	9440.5625
1959.31675	9404.8625
1962.40046	9386.8625
1965.48217	9360.9625
1968.56188	9358.1625
1971.63959	9325.6625
1974.7153	9318.6625
1977.78901	9279.4625
1980.86073	9238.1625
1983.93046	9184.0625
1986.99819	9153.8625
1990.06394	9108.3625
1993.1277	9069.6625
1996.18947	9039.1625
1999.24925	9009.3625
2002.30706	8964.7625
2005.36288	8948.0625
2008.41672	8918.4625
2011.46859	8889.5625
2014.51848	8880.3625
2017.56639	8842.9625
2020.61233	8826.5625
2023.6563	8796.7625
2026.6983	8755.0625
2029.73833	8741.3625
2032.7764	8707.1625
2035.8125	8711.5625
2038.84664	8684.2625
2041.87881	8659.1625
2044.90903	8675.5625
2047.93729	8621.6625
2050.96359	8610.7625
2053.98794	8621.1625
2057.01034	8615.8625
2060.03078	8584.7625
2063.04927	8567.0625
2066.06582	8560.0625
2069.08042	8549.2625
2072.09307	8539.8625
2075.10378	8509.8625
2078.11255	8517.1625
2081.11938	8530.8625
2084.12426	8500.8625
2087.12722	8493.4625
2090.12824	8482.4625
2093.12732	8468.3625
2096.12447	8498.2625
2099.11969	8514.7625
2102.11299	8485.7625
2105.10435	8489.6625
2108.09379	8494.9625
2111.08131	8512.5625
2114.0669	8507.5625
2117.05057	8496.0625
2120.03233	8522.9625
2123.01216	8538.0625
2125.99008	8540.4625
2128.96609	8546.4625
2131.94018	8539.4625
2134.91236	8539.5625
2137.88263	8526.8625
2140.851	8499.6625
2143.81746	8527.9625
2146.78201	8515.7625
2149.74466	8491.9625
2152.7054	8491.5625
2155.66425	8484.7625
2158.6212	8472.8625
2161.57625	8460.8625
2164.52941	8446.8625
2167.48067	8454.1625
2170.43004	8447.0625
2173.37752	8443.6625
2176.32311	8442.8625
2179.26681	8464.6625
2182.20863	8445.2625
2185.14856	8457.2625
2188.08661	8424.1625
2191.02278	8459.3625
2193.95707	8421.1625
2196.88948	8426.3625
2199.82001	8424.0625
2202.74867	8399.4625
2205.67545	8375.3625
2208.60037	8400.2625
2211.52341	8379.2625
2214.44458	8364.8625
2217.36388	8340.6625
2220.28132	8318.1625
2223.1969	8292.0625
2226.11061	8286.8625
2229.02246	8272.3625
2231.93245	8238.3625
2234.84058	8232.5625
2237.74686	8203.7625
2240.65128	8210.3625
2243.55385	8198.0625
2246.45456	8181.0625
2249.35343	8192.9625
2252.25044	8161.9625
2255.14561	8189.7625
2258.03893	8193.6625
2260.93041	8190.3625
2263.82004	8186.3625
2266.70783	8157.1625
2269.59378	8138.6625
2272.4779	8121.4625
2275.36017	8110.8625
2278.24061	8093.5625
2281.11922	8050.5625
2283.996	8031.5625
2286.87094	8005.4625
2289.74405	7996.7625
2292.61534	7961.2625
2295.4848	7963.9625
2298.35243	7943.4625
2301.21824	7938.4625
2304.08223	7920.8625
2306.94439	7931.5625
2309.80474	7936.0625
2312.66327	7929.8625
2315.51999	7917.0625
2318.37489	7915.1625
2321.22797	7899.1625
2324.07925	7898.7625
2326.92871	7882.0625
2329.77637	7893.6625
2332.62222	7865.9625
2335.46626	7877.7625
2338.3085	7872.1625
2341.14893	7859.6625
2343.98756	7879.0625
2346.8244	7878.0625
2349.65943	7879.7625
2352.49267	7911.6625
2355.32411	7927.5625
2358.15376	7911.4625
2360.98161	7950.2625
2363.80768	7943.3625
2366.63195	7975.0625
2369.45444	7969.7625
2372.27514	7944.0625
2375.09405	7949.0625
2377.91118	7909.2625
2380.72652	7872.7625
2383.54009	7827.5625
2386.35187	7794.7625
2389.16188	7747.8625
2391.97011	7718.3625
2394.77657	7694.2625
2397.58125	7658.2625
2400.38416	7637.4625
2403.18529	7619.1625
2405.98466	7610.1625
2408.78226	7596.6625
2411.57809	7579.9625
2414.37216	7568.1625
2417.16446	7569.4625
2419.955	7547.1625
2422.74378	7548.2625
2425.5308	7548.4625
2428.31606	7558.0625
2431.09956	7540.4625
2433.88131	7532.0625
2436.6613	7550.1625
2439.43954	7549.7625
2442.21603	7538.7625
2444.99077	7553.2625
2447.76377	7557.2625
2450.53501	7571.1625
2453.30451	7565.4625
2456.07226	7547.9625
2458.83827	7565.0625
2461.60254	7539.0625
2464.36507	7541.4625
2467.12586	7532.3625
2469.88492	7532.3625
2472.64224	7544.9625
2475.39782	7547.5625
2478.15167	7578.5625
2480.90379	7589.6625
2483.65417	7620.5625
2486.40283	7624.6625
2489.14976	7628.6625
2491.89497	7645.8625
2494.63845	7637.1625
2497.3802	7640.4625
2500.12024	7629.5625
2502.85855	7607.5625
2505.59514	7578.3625
2508.33002	7536.8625
2511.06318	7488.1625
2513.79462	7447.2625
2516.52435	7410.5625
2519.25237	7387.6625
2521.97867	7371.6625
2524.70327	7354.1625
2527.42616	7326.1625
2530.14734	7334.3625
2532.86681	7316.8625
2535.58458	7317.8625
2538.30065	7297.9625
2541.01501	7317.1625
2543.72768	7330.7625
2546.43864	7299.9625
2549.14791	7311.7625
2551.85548	7324.2625
2554.56136	7306.6625
2557.26554	7263.2625
2559.96803	7284.6625
2562.66883	7295.3625
2565.36794	7257.0625
2568.06536	7262.8625
2570.7611	7236.0625
2573.45514	7215.3625
2576.14751	7203.4625
2578.83819	7189.9625
2581.52719	7200.4625
2584.21451	7179.4625
2586.90015	7164.1625
2589.58411	7163.3625
2592.2664	7155.2625
2594.94701	7124.7625
2597.62594	7118.4625
2600.30321	7113.0625
2602.9788	7109.3625
2605.65273	7108.1625
2608.32498	7112.2625
2610.99557	7115.5625
2613.66449	7103.1625
2616.33175	7118.2625
2618.99734	7126.8625
2621.66128	7127.2625
2624.32355	7082.8625
2626.98416	7094.6625
2629.64311	7072.9625
2632.30041	7067.6625
2634.95605	7049.4625
2637.61004	7031.4625
2640.26238	7038.0625
2642.91306	7001.1625
2645.56209	7017.7625
2648.20948	7003.9625
2650.85521	6986.3625
2653.4993	6996.7625
2656.14175	6993.8625
2658.78255	7020.4625
2661.42171	7004.6625
2664.05923	7024.9625
2666.6951	7036.0625
2669.32934	7036.4625
2671.96194	7055.4625
2674.59291	7029.1625
2677.22224	7057.0625
2679.84993	7079.8625
2682.476	7043.1625
2685.10043	7051.5625
2687.72324	7060.7625
2690.34441	7029.8625
2692.96396	7011.9625
2695.58188	7028.9625
2698.19818	7018.4625
2700.81285	7025.8625
2703.4259	7010.8625
2706.03733	7011.2625
2708.64714	7006.5625
2711.25533	7034.0625
2713.86191	7043.3625
2716.46687	7028.0625
2719.07021	7046.4625
2721.67194	7059.5625
2724.27206	7044.2625
2726.87057	7034.7625
2729.46747	7035.5625
2732.06276	7025.0625
2734.65644	7023.1625
2737.24852	7016.2625
2739.83899	7003.1625
2742.42786	7001.6625
2745.01513	6966.6625
2747.60079	6973.8625
2750.18486	6950.4625
2752.76733	6946.8625
2755.3482	6926.3625
2757.92747	6902.8625
2760.50515	6904.8625
2763.08123	6932.6625
2765.65573	6901.8625
2768.22863	6888.4625
2770.79994	6881.4625
2773.36967	6888.6625
2775.9378	6880.5625
2778.50435	6907.2625
2781.06932	6889.5625
2783.6327	6886.3625
2786.1945	6890.2625
2788.75471	6898.1625
2791.31335	6873.2625
2793.87041	6869.8625
2796.42589	6873.0625
2798.97979	6863.5625
2801.53212	6860.1625
2804.08288	6862.0625
2806.63206	6862.5625
2809.17967	6845.4625
2811.72571	6845.2625
2814.27018	6871.1625
2816.81308	6867.9625
2819.35442	6879.5625
2821.89419	6867.2625
2824.43239	6903.1625
2826.96904	6903.6625
2829.50412	6882.8625
2832.03763	6886.8625
2834.56959	6898.2625
2837.1	6872.5625
2839.62884	6874.4625
2842.15613	6865.9625
2844.68186	6897.3625
2847.20604	6908.8625
2849.72867	6923.8625
2852.24974	6936.7625
2854.76927	6926.7625
2857.28724	6923.2625
2859.80367	6928.2625
2862.31855	6940.0625
2864.83189	6925.6625
2867.34368	6926.1625
2869.85393	6953.9625
2872.36264	6951.4625
2874.8698	6972.7625
2877.37543	6966.3625
2879.87952	6930.0625
2882.38207	6937.3625
2884.88308	6922.6625
2887.38256	6922.6625
2889.88051	6893.3625
2892.37692	6914.3625
2894.8718	6893.6625
2897.36515	6895.1625
2899.85698	6909.7625
2902.34727	6903.5625
2904.83604	6901.9625
2907.32328	6938.9625
2909.809	6938.4625
2912.29319	6932.3625
2914.77587	6929.3625
2917.25702	6940.3625
2919.73665	6932.4625
2922.21476	6939.5625
2924.69136	6894.6625
2927.16644	6899.1625
2929.64	6858.4625
2932.11205	6862.5625
2934.58258	6831.4625
2937.05161	6844.7625
2939.51912	6839.2625
2941.98513	6821.0625
2944.44962	6808.3625
2946.91261	6753.6625
2949.37409	6789.5625
2951.83407	6773.9625
2954.29254	6757.7625
2956.74951	6743.2625
2959.20498	6728.3625
2961.65895	6718.3625
2964.11142	6695.8625
2966.56239	6685.4625
2969.01186	6673.6625
2971.45984	6648.9625
2973.90632	6630.5625
2976.35131	6602.6625
2978.7948	6598.2625
2981.23681	6570.5625
2983.67732	6555.4625
2986.11635	6539.2625
2988.55388	6530.3625
2990.98993	6508.7625
2993.4245	6494.5625
2995.85758	6505.2625
2998.28917	6489.5625
3000.71928	6477.0625
3003.14791	6478.7625
3005.57506	6476.4625
3008.00073	6460.0625
3010.42493	6450.3625
3012.84764	6446.6625
3015.26888	6439.9625
3017.68865	6429.2625
3020.10694	6415.8625
3022.52376	6405.9625
3024.9391	6394.3625
3027.35298	6365.0625
3029.76539	6345.4625
3032.17632	6348.5625
3034.5858	6316.2625
3036.9938	6298.2625
3039.40034	6292.0625
3041.80542	6269.9625
3044.20903	6254.0625
3046.61118	6258.6625
3049.01187	6254.8625
3051.4111	6251.4625
3053.80888	6223.4625
3056.20519	6198.8625
3058.60005	6194.7625
3060.99345	6190.7625
3063.3854	6183.3625
3065.7759	6137.9625
3068.16494	6130.7625
3070.55254	6098.5625
3072.93868	6096.0625
