Data from AgNPs_FTO_APTES_UA_50uM_CRN_20uM_R6G_10uM_NaF_0.1M_Addition_RamanShift__14__14-10-34-929.txt Node

Date: Mon Feb 21 14:10:34 GMT 2022
User: TCL
Spectrometer: QEP01345
Trigger mode: 4
Integration Time (sec): 7.000000E0
Scans to average: 10
Electric dark correction enabled: true
Nonlinearity correction enabled: false
Boxcar width: 0
XAxis mode: Raman Shifts
Number of Pixels in Spectrum: 1044
>>>>>Begin Spectral Data<<<<<
46.04893	0.5625
50.45542	-0.8375
54.85868	-0.6375
59.25871	-0.6375
63.6555	51.8625
68.04907	58.6625
72.43941	57.6625
76.82654	61.9625
81.21044	60.5625
85.59113	69.1625
89.96862	67.3625
94.34289	74.7625
98.71396	74.1625
103.08183	80.8625
107.4465	79.5625
111.80798	77.1625
116.16626	81.5625
120.52136	80.4625
124.87327	85.0625
129.222	85.5625
133.56755	91.5625
137.90993	96.3625
142.24913	104.9625
146.58517	113.9625
150.91804	129.6625
155.24774	149.3625
159.57429	181.5625
163.89768	221.0625
168.21792	304.1625
172.53501	409.4625
176.84895	571.8625
181.15975	791.4625
185.46741	1110.7625
189.77193	1530.4625
194.07331	2060.0625
198.37157	2647.6625
202.6667	3275.9625
206.9587	3909.4625
211.24758	4525.7625
215.53334	5151.2625
219.81599	5817.3625
224.09553	6554.3625
228.37195	7390.2625
232.64527	8283.1625
236.91549	9215.1625
241.18261	10118.5625
245.44663	10915.8625
249.70755	11618.9625
253.96539	12220.3625
258.22014	12671.3625
262.4718	13071.3625
266.72039	13320.9625
270.96589	13422.4625
275.20832	13385.1625
279.44768	13252.2625
283.68397	13000.6625
287.91719	12820.8625
292.14735	12743.9625
296.37445	12732.0625
300.59849	12894.8625
304.81948	13037.4625
309.03742	13167.3625
313.25231	13112.3625
317.46415	12778.7625
321.67296	12304.8625
325.87872	11875.4625
330.08145	11662.8625
334.28114	11669.8625
338.47781	11774.6625
342.67145	11931.4625
346.86207	12186.8625
351.04966	12533.5625
355.23424	12904.5625
359.4158	13200.0625
363.59435	13455.2625
367.76989	13551.8625
371.94243	13594.3625
376.11196	13603.6625
380.27849	13640.5625
384.44203	13629.4625
388.60257	13642.6625
392.76012	13700.8625
396.91468	13809.8625
401.06626	14039.1625
405.21485	14167.8625
409.36047	14019.1625
413.50311	13675.3625
417.64277	13306.7625
421.77947	13124.3625
425.9132	13082.6625
430.04396	13106.6625
434.17176	13099.2625
438.2966	13195.6625
442.41849	13376.4625
446.53742	13643.9625
450.6534	13899.0625
454.76644	14081.7625
458.87653	14153.2625
462.98368	14149.5625
467.08789	14069.6625
471.18916	13925.9625
475.2875	13739.9625
479.38291	13588.3625
483.4754	13447.1625
487.56496	13335.5625
491.6516	13271.4625
495.73531	13206.7625
499.81612	13247.6625
503.89401	13310.8625
507.96899	13413.3625
512.04106	13462.5625
516.11023	13497.0625
520.1765	13446.1625
524.23987	13410.9625
528.30034	13324.0625
532.35792	13191.7625
536.41261	13087.6625
540.46441	12937.6625
544.51333	12850.8625
548.55936	12935.3625
552.60252	13128.1625
556.64279	13366.9625
560.6802	13465.8625
564.71473	13546.5625
568.7464	13775.3625
572.7752	14050.7625
576.80114	14165.2625
580.82422	14265.7625
584.84444	14471.9625
588.86181	14668.4625
592.87633	14781.8625
596.888	14797.0625
600.89682	14783.9625
604.9028	15401.4625
608.90594	17536.8625
612.90624	20085.9625
616.90371	19021.4625
620.89834	15214.4625
624.89015	13425.5625
628.87913	13129.6625
632.86528	13283.0625
636.84862	13465.4625
640.82913	13366.4625
644.80683	12992.2625
648.78172	12685.7625
652.75379	12621.8625
656.72306	12908.3625
660.68952	13199.4625
664.65319	13158.5625
668.61405	12864.2625
672.57211	12744.6625
676.52738	12826.8625
680.47986	12853.5625
684.42955	12778.6625
688.37646	12678.4625
692.32058	12678.4625
696.26192	12767.9625
700.20048	12864.5625
704.13626	12934.5625
708.06928	12878.0625
711.99952	12816.2625
715.927	12790.5625
719.85171	12772.3625
723.77365	12771.8625
727.69284	12662.7625
731.60928	12508.8625
735.52295	12488.7625
739.43388	12497.3625
743.34206	12522.1625
747.24749	12588.4625
751.15017	12640.6625
755.05012	12804.4625
758.94733	13142.3625
762.8418	13943.2625
766.73354	15364.1625
770.62254	16878.5625
774.50882	17455.0625
778.39237	16747.3625
782.27321	15353.1625
786.15132	14037.3625
790.02671	13212.2625
793.89938	12765.8625
797.76935	12571.1625
801.6366	12459.2625
805.50115	12360.7625
809.36299	12310.8625
813.22213	12197.4625
817.07857	12156.0625
820.93231	12130.0625
824.78336	12098.3625
828.63172	12073.4625
832.47738	12064.7625
836.32036	12054.2625
840.16066	12047.0625
843.99827	11996.7625
847.8332	11986.4625
851.66546	11981.7625
855.49504	11979.3625
859.32195	12004.0625
863.1462	11999.2625
866.96777	11956.0625
870.78668	11969.5625
874.60293	12005.4625
878.41652	12013.9625
882.22745	12085.4625
886.03573	12129.8625
889.84136	12141.1625
893.64433	12099.2625
897.44466	12092.3625
901.24235	12048.7625
905.0374	11999.5625
908.8298	11946.0625
912.61957	11913.0625
916.40671	11923.2625
920.19121	11997.3625
923.97308	12093.3625
927.75233	12162.1625
931.52895	12144.1625
935.30295	12059.5625
939.07433	11829.3625
942.84309	11617.2625
946.60924	11506.6625
950.37278	11463.4625
954.13371	11440.3625
957.89203	11412.2625
961.64774	11404.6625
965.40086	11418.4625
969.15137	11363.5625
972.89929	11348.1625
976.64461	11301.5625
980.38733	11273.7625
984.12747	11293.0625
987.86502	11316.1625
991.59999	11361.9625
995.33237	11453.8625
999.06217	11593.2625
1002.78939	11742.8625
1006.51404	11948.9625
1010.23611	12132.1625
1013.95561	12294.7625
1017.67255	12336.0625
1021.38692	12245.4625
1025.09872	12069.7625
1028.80796	11923.4625
1032.51465	11864.1625
1036.21877	11903.2625
1039.92035	11967.0625
1043.61937	12003.9625
1047.31584	12070.0625
1051.00976	12081.4625
1054.70114	12101.7625
1058.38998	12110.8625
1062.07627	12174.7625
1065.76003	12281.3625
1069.44126	12425.0625
1073.11995	12621.6625
1076.79611	12843.6625
1080.46974	12970.2625
1084.14085	13108.0625
1087.80943	13279.1625
1091.47549	13384.3625
1095.13903	13367.9625
1098.80005	13164.8625
1102.45857	12873.2625
1106.11456	12669.8625
1109.76805	12591.8625
1113.41903	12650.0625
1117.06751	12777.8625
1120.71348	13025.5625
1124.35696	13295.8625
1127.99793	13564.0625
1131.63641	13662.3625
1135.2724	13484.7625
1138.90589	13241.9625
1142.5369	13075.0625
1146.16542	12917.9625
1149.79145	12903.6625
1153.415	12908.7625
1157.03607	12997.1625
1160.65467	13239.1625
1164.27079	13674.2625
1167.88443	14282.8625
1171.49561	15126.6625
1175.10432	16332.3625
1178.71056	17861.8625
1182.31434	19213.2625
1185.91565	19846.0625
1189.51451	19795.3625
1193.11091	19213.9625
1196.70485	18352.7625
1200.29634	17435.1625
1203.88538	16627.4625
1207.47197	15878.9625
1211.05612	15215.6625
1214.63782	14783.6625
1218.21708	14506.1625
1221.79391	14383.0625
1225.36829	14296.4625
1228.94024	14276.2625
1232.50976	14201.6625
1236.07685	14130.6625
1239.6415	14075.9625
1243.20374	14062.5625
1246.76355	14069.2625
1250.32093	14198.7625
1253.8759	14381.4625
1257.42845	14719.1625
1260.97859	15160.8625
1264.52631	15615.2625
1268.07163	16059.3625
1271.61453	16518.6625
1275.15503	16862.3625
1278.69312	17150.3625
1282.22882	17410.1625
1285.76211	17784.7625
1289.29301	18285.2625
1292.82151	18882.6625
1296.34761	19523.7625
1299.87133	20385.5625
1303.39266	21472.0625
1306.9116	22917.4625
1310.42815	24325.2625
1313.94233	25165.9625
1317.45412	24868.8625
1320.96354	24027.4625
1324.47058	23119.8625
1327.97525	22287.8625
1331.47754	21712.6625
1334.97747	21387.7625
1338.47502	21327.8625
1341.97022	21471.4625
1345.46305	21854.0625
1348.95352	22477.2625
1352.44163	23258.2625
1355.92738	24352.6625
1359.41078	25889.0625
1362.89183	27591.3625
1366.37053	27258.6625
1369.84688	24474.1625
1373.32088	21247.3625
1376.79254	19064.7625
1380.26186	17906.6625
1383.72883	17347.4625
1387.19347	16936.2625
1390.65578	16494.7625
1394.11575	16216.7625
1397.57339	16048.7625
1401.0287	16039.4625
1404.48168	16060.6625
1407.93234	16022.3625
1411.38068	15889.5625
1414.82669	15680.6625
1418.27039	15438.8625
1421.71177	15188.4625
1425.15083	14935.7625
1428.58758	14726.5625
1432.02203	14797.4625
1435.45416	14993.1625
1438.88399	15147.4625
1442.31151	15289.6625
1445.73673	15430.0625
1449.15965	15576.0625
1452.58027	15674.9625
1455.9986	15754.8625
1459.41463	15857.0625
1462.82837	16100.1625
1466.23982	16348.0625
1469.64898	16597.2625
1473.05586	16841.1625
1476.46045	16913.0625
1479.86276	17009.5625
1483.26279	17134.5625
1486.66054	17338.2625
1490.05602	17720.3625
1493.44922	18370.0625
1496.84016	19262.8625
1500.22882	20592.9625
1503.61521	22394.0625
1506.99934	24273.7625
1510.38121	25725.6625
1513.76081	25900.1625
1517.13816	24550.0625
1520.51324	22466.6625
1523.88607	20518.8625
1527.25665	19220.9625
1530.62498	18400.4625
1533.99105	17900.9625
1537.35488	17458.1625
1540.71647	17071.0625
1544.07581	16729.6625
1547.4329	16419.3625
1550.78776	16203.6625
1554.14038	16137.1625
1557.49077	16193.2625
1560.83892	16390.9625
1564.18484	16667.4625
1567.52853	17013.9625
1570.86999	17377.5625
1574.20922	17638.9625
1577.54624	17628.4625
1580.88103	17160.1625
1584.2136	16542.0625
1587.54395	16251.5625
1590.87208	16477.9625
1594.19801	17083.4625
1597.52172	17835.1625
1600.84321	18120.7625
1604.16251	17647.9625
1607.47959	16788.8625
1610.79447	15860.6625
1614.10715	14833.0625
1617.41763	13982.3625
1620.7259	13305.7625
1624.03199	12943.7625
1627.33587	12892.4625
1630.63757	13123.3625
1633.93707	13682.7625
1637.23439	14707.6625
1640.52951	16289.1625
1643.82246	18280.7625
1647.11321	20285.7625
1650.40179	21317.0625
1653.68819	20540.7625
1656.97241	18218.9625
1660.25446	15572.7625
1663.53433	13618.3625
1666.81203	12354.8625
1670.08756	11648.2625
1673.36092	11238.6625
1676.63211	10952.8625
1679.90115	10761.9625
1683.16801	10611.2625
1686.43272	10467.9625
1689.69527	10391.2625
1692.95567	10253.1625
1696.2139	10095.2625
1699.46999	9976.9625
1702.72392	9903.6625
1705.97571	9958.5625
1709.22535	10026.5625
1712.47284	10093.1625
1715.71819	10111.9625
1718.96139	10085.2625
1722.20246	10067.3625
1725.44139	10009.3625
1728.67818	9966.9625
1731.91284	9886.2625
1735.14537	9839.9625
1738.37576	9792.0625
1741.60403	9737.8625
1744.83017	9699.6625
1748.05418	9663.0625
1751.27607	9644.0625
1754.49584	9578.2625
1757.71349	9500.1625
1760.92903	9468.3625
1764.14244	9448.7625
1767.35375	9426.9625
1770.56294	9384.8625
1773.77002	9364.8625
1776.97499	9382.3625
1780.17785	9418.3625
1783.37861	9445.3625
1786.57727	9404.6625
1789.77382	9390.9625
1792.96828	9380.8625
1796.16064	9371.9625
1799.3509	9347.6625
1802.53907	9336.9625
1805.72514	9327.8625
1808.90913	9265.5625
1812.09102	9250.6625
1815.27083	9253.6625
1818.44856	9247.6625
1821.6242	9225.2625
1824.79776	9216.8625
1827.96924	9206.8625
1831.13864	9188.8625
1834.30597	9191.2625
1837.47122	9209.6625
1840.6344	9186.3625
1843.7955	9182.9625
1846.95454	9180.9625
1850.11151	9177.0625
1853.26642	9138.5625
1856.41926	9109.8625
1859.57004	9097.1625
1862.71876	9099.3625
1865.86542	9088.7625
1869.01003	9104.7625
1872.15258	9039.2625
1875.29308	9063.9625
1878.43152	9068.5625
1881.56792	9042.4625
1884.70227	9033.9625
1887.83457	8994.5625
1890.96482	8977.5625
1894.09304	8985.1625
1897.21921	8958.9625
1900.34335	8949.5625
1903.46544	8944.0625
1906.58551	8920.4625
1909.70353	8928.8625
1912.81953	8897.6625
1915.93349	8886.9625
1919.04543	8865.2625
1922.15534	8815.9625
1925.26322	8815.4625
1928.36908	8796.4625
1931.47292	8769.4625
1934.57473	8740.8625
1937.67453	8729.6625
1940.77232	8692.5625
1943.86808	8684.4625
1946.96184	8646.7625
1950.05358	8612.6625
1953.14331	8596.3625
1956.23103	8585.5625
1959.31675	8534.7625
1962.40046	8526.6625
1965.48217	8504.5625
1968.56188	8501.6625
1971.63959	8472.2625
1974.7153	8459.0625
1977.78901	8397.3625
1980.86073	8366.8625
1983.93046	8336.6625
1986.99819	8313.8625
1990.06394	8287.5625
1993.1277	8290.3625
1996.18947	8227.9625
1999.24925	8220.2625
2002.30706	8183.1625
2005.36288	8140.7625
2008.41672	8113.5625
2011.46859	8108.9625
2014.51848	8078.9625
2017.56639	8059.7625
2020.61233	8043.4625
2023.6563	8014.8625
2026.6983	7977.1625
2029.73833	7959.3625
2032.7764	7905.5625
2035.8125	7923.2625
2038.84664	7914.2625
2041.87881	7914.3625
2044.90903	7889.0625
2047.93729	7857.5625
2050.96359	7853.8625
2053.98794	7865.2625
2057.01034	7843.1625
2060.03078	7836.8625
2063.04927	7826.0625
2066.06582	7805.7625
2069.08042	7818.6625
2072.09307	7787.2625
2075.10378	7779.2625
2078.11255	7774.8625
2081.11938	7776.4625
2084.12426	7779.0625
2087.12722	7802.7625
2090.12824	7793.6625
2093.12732	7774.0625
2096.12447	7785.4625
2099.11969	7781.1625
2102.11299	7787.4625
2105.10435	7772.6625
2108.09379	7796.3625
2111.08131	7801.9625
2114.0669	7791.0625
2117.05057	7803.7625
2120.03233	7824.5625
2123.01216	7813.1625
2125.99008	7826.9625
2128.96609	7822.6625
2131.94018	7825.5625
2134.91236	7803.7625
2137.88263	7818.9625
2140.851	7829.6625
2143.81746	7837.7625
2146.78201	7816.4625
2149.74466	7814.5625
2152.7054	7817.2625
2155.66425	7797.0625
2158.6212	7819.8625
2161.57625	7795.6625
2164.52941	7800.5625
2167.48067	7799.1625
2170.43004	7777.6625
2173.37752	7764.8625
2176.32311	7782.7625
2179.26681	7762.6625
2182.20863	7782.8625
2185.14856	7772.9625
2188.08661	7782.1625
2191.02278	7772.9625
2193.95707	7778.5625
2196.88948	7741.8625
2199.82001	7766.5625
2202.74867	7760.7625
2205.67545	7740.5625
2208.60037	7705.7625
2211.52341	7705.7625
2214.44458	7691.3625
2217.36388	7661.7625
2220.28132	7675.4625
2223.1969	7632.9625
2226.11061	7636.1625
2229.02246	7605.9625
2231.93245	7604.6625
2234.84058	7580.3625
2237.74686	7578.5625
2240.65128	7586.4625
2243.55385	7561.4625
2246.45456	7580.5625
2249.35343	7545.4625
2252.25044	7535.2625
2255.14561	7508.0625
2258.03893	7510.5625
2260.93041	7489.8625
2263.82004	7470.7625
2266.70783	7477.9625
2269.59378	7448.3625
2272.4779	7422.8625
2275.36017	7416.0625
2278.24061	7393.4625
2281.11922	7385.5625
2283.996	7348.5625
2286.87094	7348.2625
2289.74405	7332.7625
2292.61534	7321.5625
2295.4848	7302.7625
2298.35243	7330.9625
2301.21824	7303.9625
2304.08223	7293.1625
2306.94439	7279.7625
2309.80474	7286.5625
2312.66327	7277.4625
2315.51999	7275.9625
2318.37489	7266.6625
2321.22797	7268.3625
2324.07925	7246.6625
2326.92871	7238.6625
2329.77637	7224.9625
2332.62222	7236.2625
2335.46626	7194.6625
2338.3085	7178.0625
2341.14893	7196.4625
2343.98756	7178.1625
2346.8244	7169.3625
2349.65943	7185.0625
2352.49267	7170.9625
2355.32411	7170.1625
2358.15376	7171.7625
2360.98161	7151.3625
2363.80768	7190.7625
2366.63195	7176.7625
2369.45444	7177.4625
2372.27514	7163.9625
2375.09405	7150.5625
2377.91118	7138.5625
2380.72652	7131.2625
2383.54009	7097.7625
2386.35187	7087.9625
2389.16188	7053.2625
2391.97011	7046.5625
2394.77657	7015.1625
2397.58125	6993.0625
2400.38416	6989.2625
2403.18529	6990.6625
2405.98466	6980.0625
2408.78226	6958.3625
2411.57809	6962.1625
2414.37216	6938.2625
2417.16446	6936.1625
2419.955	6916.8625
2422.74378	6932.6625
2425.5308	6912.6625
2428.31606	6929.4625
2431.09956	6910.7625
2433.88131	6892.9625
2436.6613	6897.2625
2439.43954	6885.6625
2442.21603	6896.2625
2444.99077	6898.7625
2447.76377	6904.9625
2450.53501	6908.3625
2453.30451	6900.8625
2456.07226	6883.7625
2458.83827	6876.2625
2461.60254	6872.5625
2464.36507	6882.7625
2467.12586	6885.7625
2469.88492	6867.1625
2472.64224	6879.0625
2475.39782	6852.1625
2478.15167	6848.2625
2480.90379	6855.3625
2483.65417	6877.3625
2486.40283	6861.7625
2489.14976	6859.2625
2491.89497	6879.2625
2494.63845	6846.9625
2497.3802	6844.5625
2500.12024	6838.5625
2502.85855	6843.7625
2505.59514	6807.6625
2508.33002	6804.1625
2511.06318	6785.1625
2513.79462	6789.5625
2516.52435	6775.9625
2519.25237	6756.7625
2521.97867	6744.5625
2524.70327	6757.4625
2527.42616	6726.2625
2530.14734	6721.8625
2532.86681	6725.3625
2535.58458	6729.6625
2538.30065	6730.5625
2541.01501	6704.8625
2543.72768	6705.2625
2546.43864	6690.6625
2549.14791	6665.6625
2551.85548	6662.3625
2554.56136	6654.5625
2557.26554	6657.6625
2559.96803	6638.7625
2562.66883	6638.5625
2565.36794	6623.0625
2568.06536	6622.5625
2570.7611	6591.5625
2573.45514	6606.4625
2576.14751	6588.4625
2578.83819	6574.1625
2581.52719	6565.4625
2584.21451	6552.8625
2586.90015	6532.7625
2589.58411	6507.0625
2592.2664	6520.2625
2594.94701	6519.8625
2597.62594	6494.9625
2600.30321	6492.2625
2602.9788	6503.0625
2605.65273	6482.3625
2608.32498	6470.8625
2610.99557	6476.8625
2613.66449	6479.9625
2616.33175	6464.7625
2618.99734	6469.3625
2621.66128	6461.0625
2624.32355	6445.3625
2626.98416	6439.3625
2629.64311	6409.1625
2632.30041	6413.2625
2634.95605	6394.9625
2637.61004	6400.4625
2640.26238	6361.3625
2642.91306	6378.5625
2645.56209	6367.7625
2648.20948	6357.4625
2650.85521	6350.7625
2653.4993	6377.0625
2656.14175	6354.8625
2658.78255	6357.8625
2661.42171	6364.7625
2664.05923	6382.9625
2666.6951	6398.8625
2669.32934	6416.7625
2671.96194	6390.0625
2674.59291	6392.0625
2677.22224	6380.6625
2679.84993	6399.0625
2682.476	6382.9625
2685.10043	6366.2625
2687.72324	6351.0625
2690.34441	6353.6625
2692.96396	6369.4625
2695.58188	6375.9625
2698.19818	6363.3625
2700.81285	6347.2625
2703.4259	6336.9625
2706.03733	6271.7625
2708.64714	6309.8625
2711.25533	6336.7625
2713.86191	6340.3625
2716.46687	6358.4625
2719.07021	6369.5625
2721.67194	6371.3625
2724.27206	6385.3625
2726.87057	6383.5625
2729.46747	6379.2625
2732.06276	6353.0625
2734.65644	6362.8625
2737.24852	6359.5625
2739.83899	6355.0625
2742.42786	6342.5625
2745.01513	6322.3625
2747.60079	6345.2625
2750.18486	6329.4625
2752.76733	6311.0625
2755.3482	6317.6625
2757.92747	6309.3625
2760.50515	6314.1625
2763.08123	6272.2625
2765.65573	6264.8625
2768.22863	6267.4625
2770.79994	6249.7625
2773.36967	6256.0625
2775.9378	6228.9625
2778.50435	6232.9625
2781.06932	6247.2625
2783.6327	6260.6625
2786.1945	6234.2625
2788.75471	6227.3625
2791.31335	6217.0625
2793.87041	6192.6625
2796.42589	6180.2625
2798.97979	6188.0625
2801.53212	6177.0625
2804.08288	6166.7625
2806.63206	6144.0625
2809.17967	6134.1625
2811.72571	6121.1625
2814.27018	6136.3625
2816.81308	6118.9625
2819.35442	6122.3625
2821.89419	6101.0625
2824.43239	6105.5625
2826.96904	6095.2625
2829.50412	6122.8625
2832.03763	6094.1625
2834.56959	6085.7625
2837.1	6076.3625
2839.62884	6087.2625
2842.15613	6085.1625
2844.68186	6074.7625
2847.20604	6077.1625
2849.72867	6077.2625
2852.24974	6091.8625
2854.76927	6066.6625
2857.28724	6050.6625
2859.80367	6044.4625
2862.31855	6059.2625
2864.83189	6038.5625
2867.34368	6040.2625
2869.85393	6064.3625
2872.36264	6068.9625
2874.8698	6055.8625
2877.37543	6056.6625
2879.87952	6059.6625
2882.38207	6055.7625
2884.88308	6041.5625
2887.38256	6047.8625
2889.88051	6056.2625
2892.37692	6048.4625
2894.8718	6034.6625
2897.36515	6041.2625
2899.85698	6061.4625
2902.34727	6061.3625
2904.83604	6063.0625
2907.32328	6086.2625
2909.809	6079.2625
2912.29319	6073.7625
2914.77587	6100.7625
2917.25702	6080.8625
2919.73665	6090.7625
2922.21476	6089.1625
2924.69136	6083.8625
2927.16644	6080.8625
2929.64	6060.3625
2932.11205	6049.4625
2934.58258	6041.1625
2937.05161	6049.2625
2939.51912	6040.4625
2941.98513	6032.1625
2944.44962	6014.8625
2946.91261	6012.9625
2949.37409	6028.0625
2951.83407	5985.2625
2954.29254	5990.1625
2956.74951	5967.2625
2959.20498	5962.1625
2961.65895	5945.7625
2964.11142	5954.7625
2966.56239	5924.4625
2969.01186	5942.0625
2971.45984	5915.4625
2973.90632	5903.9625
2976.35131	5891.3625
2978.7948	5901.3625
2981.23681	5869.6625
2983.67732	5867.7625
2986.11635	5857.1625
2988.55388	5833.1625
2990.98993	5816.1625
2993.4245	5821.0625
2995.85758	5786.0625
2998.28917	5781.5625
3000.71928	5787.4625
3003.14791	5767.3625
3005.57506	5761.9625
3008.00073	5753.3625
3010.42493	5746.9625
3012.84764	5736.4625
3015.26888	5741.2625
3017.68865	5722.1625
3020.10694	5728.3625
3022.52376	5704.3625
3024.9391	5678.7625
3027.35298	5679.2625
3029.76539	5651.8625
3032.17632	5668.1625
3034.5858	5668.6625
3036.9938	5660.6625
3039.40034	5634.3625
3041.80542	5625.0625
3044.20903	5630.5625
3046.61118	5618.5625
3049.01187	5609.3625
3051.4111	5625.2625
3053.80888	5613.0625
3056.20519	5595.0625
3058.60005	5580.4625
3060.99345	5589.9625
3063.3854	5583.5625
3065.7759	5574.2625
3068.16494	5560.3625
3070.55254	5510.9625
3072.93868	5520.7625
3075.32338	5498.6625
3077.70662	5501.2625
3080.08842	5459.1625
