Data from AgNPs_FTO_APTES_UA_50uM_CRN_0uM_R6G_10uM_NaF_0.1M_Addition_RamanShift__40__10-56-54-677.txt Node

Date: Mon Feb 21 10:56:54 GMT 2022
User: TCL
Spectrometer: QEP01345
Trigger mode: 4
Integration Time (sec): 7.000000E0
Scans to average: 10
Electric dark correction enabled: true
Nonlinearity correction enabled: false
Boxcar width: 0
XAxis mode: Raman Shifts
Number of Pixels in Spectrum: 1044
>>>>>Begin Spectral Data<<<<<
46.04893	1.0125
50.45542	-0.1875
54.85868	-0.1875
59.25871	-2.1875
63.6555	50.6125
68.04907	56.8125
72.43941	56.7125
76.82654	61.5125
81.21044	63.6125
85.59113	66.1125
89.96862	67.6125
94.34289	73.6125
98.71396	74.5125
103.08183	77.6125
107.4465	76.1125
111.80798	75.8125
116.16626	79.4125
120.52136	82.3125
124.87327	91.3125
129.222	87.0125
133.56755	91.6125
137.90993	99.2125
142.24913	105.9125
146.58517	115.5125
150.91804	130.0125
155.24774	157.6125
159.57429	193.6125
163.89768	242.0125
168.21792	325.5125
172.53501	437.5125
176.84895	621.1125
181.15975	860.2125
185.46741	1203.5125
189.77193	1665.2125
194.07331	2222.1125
198.37157	2861.8125
202.6667	3519.9125
206.9587	4170.5125
211.24758	4843.5125
215.53334	5516.1125
219.81599	6246.7125
224.09553	7058.6125
228.37195	7986.9125
232.64527	8966.3125
236.91549	9986.0125
241.18261	10955.3125
245.44663	11838.2125
249.70755	12612.0125
253.96539	13246.1125
258.22014	13792.0125
262.4718	14233.2125
266.72039	14598.7125
270.96589	14754.9125
275.20832	14745.2125
279.44768	14592.3125
283.68397	14443.7125
287.91719	14321.5125
292.14735	14263.7125
296.37445	14370.5125
300.59849	14562.3125
304.81948	14806.8125
309.03742	15016.7125
313.25231	14920.4125
317.46415	14495.4125
321.67296	13869.3125
325.87872	13295.8125
330.08145	13019.8125
334.28114	13019.3125
338.47781	13140.0125
342.67145	13342.8125
346.86207	13693.9125
351.04966	14175.9125
355.23424	14701.6125
359.4158	15152.2125
363.59435	15424.4125
367.76989	15527.3125
371.94243	15568.5125
376.11196	15576.7125
380.27849	15556.0125
384.44203	15622.1125
388.60257	15593.9125
392.76012	15642.7125
396.91468	15800.6125
401.06626	16117.7125
405.21485	16332.2125
409.36047	16241.7125
413.50311	15853.7125
417.64277	15452.0125
421.77947	15285.4125
425.9132	15247.4125
430.04396	15274.6125
434.17176	15344.8125
438.2966	15521.8125
442.41849	15791.7125
446.53742	16294.7125
450.6534	16852.7125
454.76644	17232.4125
458.87653	17357.8125
462.98368	17211.4125
467.08789	16932.4125
471.18916	16576.4125
475.2875	16245.4125
479.38291	16001.8125
483.4754	15877.2125
487.56496	15686.1125
491.6516	15487.7125
495.73531	15327.0125
499.81612	15280.1125
503.89401	15387.7125
507.96899	15443.6125
512.04106	15456.3125
516.11023	15430.2125
520.1765	15424.7125
524.23987	15360.0125
528.30034	15218.8125
532.35792	15069.9125
536.41261	14832.0125
540.46441	14572.3125
544.51333	14459.8125
548.55936	14585.4125
552.60252	14914.6125
556.64279	15337.7125
560.6802	15591.9125
564.71473	15816.7125
568.7464	16260.5125
572.7752	16728.8125
576.80114	16814.6125
580.82422	16787.9125
584.84444	16852.9125
588.86181	17086.2125
592.87633	17430.1125
596.888	17595.2125
600.89682	17533.3125
604.9028	18292.7125
608.90594	21063.4125
612.90624	24523.1125
616.90371	23410.9125
620.89834	18305.2125
624.89015	15819.5125
628.87913	15455.1125
632.86528	15494.0125
636.84862	15462.8125
640.82913	15208.2125
644.80683	14680.5125
648.78172	14241.7125
652.75379	14179.4125
656.72306	14471.9125
660.68952	14991.1125
664.65319	14916.7125
668.61405	14500.4125
672.57211	14340.0125
676.52738	14387.5125
680.47986	14418.5125
684.42955	14283.8125
688.37646	14249.7125
692.32058	14334.7125
696.26192	14483.8125
700.20048	14641.8125
704.13626	14756.4125
708.06928	14688.6125
711.99952	14562.3125
715.927	14517.3125
719.85171	14597.0125
723.77365	14551.2125
727.69284	14336.3125
731.60928	14166.9125
735.52295	14137.7125
739.43388	14146.9125
743.34206	14238.2125
747.24749	14308.0125
751.15017	14418.0125
755.05012	14675.6125
758.94733	15179.2125
762.8418	16340.7125
766.73354	18146.6125
770.62254	20045.8125
774.50882	20782.4125
778.39237	19908.0125
782.27321	17997.8125
786.15132	16206.8125
790.02671	15094.6125
793.89938	14574.6125
797.76935	14357.5125
801.6366	14272.9125
805.50115	14196.9125
809.36299	14154.7125
813.22213	14027.4125
817.07857	13989.1125
820.93231	13919.4125
824.78336	13889.2125
828.63172	13903.5125
832.47738	13911.8125
836.32036	13890.9125
840.16066	13912.7125
843.99827	13978.9125
847.8332	13952.6125
851.66546	13893.3125
855.49504	13840.0125
859.32195	13825.0125
863.1462	13783.6125
866.96777	13723.2125
870.78668	13678.8125
874.60293	13695.2125
878.41652	13700.1125
882.22745	13812.6125
886.03573	13870.7125
889.84136	13893.0125
893.64433	13825.5125
897.44466	13772.8125
901.24235	13723.0125
905.0374	13612.4125
908.8298	13552.9125
912.61957	13502.2125
916.40671	13564.9125
920.19121	13743.2125
923.97308	13953.6125
927.75233	14110.9125
931.52895	14149.7125
935.30295	13981.5125
939.07433	13632.7125
942.84309	13361.6125
946.60924	13247.6125
950.37278	13182.0125
954.13371	13127.9125
957.89203	13019.1125
961.64774	12977.3125
965.40086	12926.1125
969.15137	12896.0125
972.89929	12822.6125
976.64461	12856.5125
980.38733	12823.1125
984.12747	12883.0125
987.86502	12993.8125
991.59999	13215.1125
995.33237	13504.6125
999.06217	13975.8125
1002.78939	14560.6125
1006.51404	14975.4125
1010.23611	15171.7125
1013.95561	15341.3125
1017.67255	15321.9125
1021.38692	15158.4125
1025.09872	14944.7125
1028.80796	14990.4125
1032.51465	15387.3125
1036.21877	15779.3125
1039.92035	15843.5125
1043.61937	15666.5125
1047.31584	15256.1125
1051.00976	14792.7125
1054.70114	14522.4125
1058.38998	14461.2125
1062.07627	14511.4125
1065.76003	14556.3125
1069.44126	14657.4125
1073.11995	14858.9125
1076.79611	15105.3125
1080.46974	15257.6125
1084.14085	15475.5125
1087.80943	15808.3125
1091.47549	15930.6125
1095.13903	15829.3125
1098.80005	15450.2125
1102.45857	15028.8125
1106.11456	14809.6125
1109.76805	14789.1125
1113.41903	14930.4125
1117.06751	15179.6125
1120.71348	15519.2125
1124.35696	15904.9125
1127.99793	16245.8125
1131.63641	16302.0125
1135.2724	16019.8125
1138.90589	15687.2125
1142.5369	15403.3125
1146.16542	15295.4125
1149.79145	15237.6125
1153.415	15249.0125
1157.03607	15404.1125
1160.65467	15757.2125
1164.27079	16346.3125
1167.88443	17258.4125
1171.49561	18587.0125
1175.10432	20487.0125
1178.71056	22909.2125
1182.31434	25158.8125
1185.91565	26207.9125
1189.51451	26039.5125
1193.11091	24965.9125
1196.70485	23502.5125
1200.29634	22172.9125
1203.88538	21054.2125
1207.47197	20020.0125
1211.05612	19173.2125
1214.63782	18730.1125
1218.21708	18610.7125
1221.79391	18751.6125
1225.36829	18780.1125
1228.94024	18611.3125
1232.50976	18241.6125
1236.07685	17896.7125
1239.6415	17686.9125
1243.20374	17640.5125
1246.76355	17675.0125
1250.32093	17876.4125
1253.8759	18297.1125
1257.42845	18918.6125
1260.97859	19582.0125
1264.52631	20273.0125
1268.07163	20956.7125
1271.61453	21651.7125
1275.15503	22322.3125
1278.69312	23017.7125
1282.22882	23635.0125
1285.76211	24174.7125
1289.29301	24781.9125
1292.82151	25560.3125
1296.34761	26637.5125
1299.87133	28099.9125
1303.39266	30159.5125
1306.9116	32781.2125
1310.42815	35649.2125
1313.94233	37497.9125
1317.45412	37357.3125
1320.96354	35884.3125
1324.47058	34095.4125
1327.97525	32520.5125
1331.47754	31517.8125
1334.97747	31044.7125
1338.47502	31022.7125
1341.97022	31112.1125
1345.46305	31075.4125
1348.95352	31010.1125
1352.44163	31444.3125
1355.92738	32776.3125
1359.41078	35376.9125
1362.89183	38070.0125
1366.37053	37649.2125
1369.84688	33543.6125
1373.32088	28957.7125
1376.79254	25845.9125
1380.26186	24318.2125
1383.72883	23717.4125
1387.19347	23297.6125
1390.65578	22848.0125
1394.11575	22693.2125
1397.57339	22898.2125
1401.0287	23390.6125
1404.48168	23853.9125
1407.93234	24168.6125
1411.38068	24179.4125
1414.82669	23864.6125
1418.27039	23097.6125
1421.71177	22167.7125
1425.15083	21434.0125
1428.58758	20969.6125
1432.02203	21030.5125
1435.45416	21334.5125
1438.88399	21757.1125
1442.31151	22024.0125
1445.73673	22252.9125
1449.15965	22514.1125
1452.58027	22721.4125
1455.9986	22749.1125
1459.41463	22825.7125
1462.82837	23146.2125
1466.23982	23592.0125
1469.64898	24036.0125
1473.05586	24301.1125
1476.46045	24331.8125
1479.86276	24404.8125
1483.26279	24407.2125
1486.66054	24585.3125
1490.05602	24958.5125
1493.44922	25461.2125
1496.84016	26060.5125
1500.22882	27083.8125
1503.61521	28623.6125
1506.99934	30609.8125
1510.38121	32357.0125
1513.76081	32852.0125
1517.13816	31593.5125
1520.51324	29077.7125
1523.88607	26660.5125
1527.25665	25171.7125
1530.62498	24347.4125
1533.99105	23897.5125
1537.35488	23592.2125
1540.71647	23318.9125
1544.07581	23009.7125
1547.4329	22673.8125
1550.78776	22328.5125
1554.14038	22089.0125
1557.49077	21974.0125
1560.83892	22087.3125
1564.18484	22234.7125
1567.52853	22456.8125
1570.86999	22726.1125
1574.20922	22935.3125
1577.54624	23087.3125
1580.88103	22712.2125
1584.2136	22316.8125
1587.54395	22560.1125
1590.87208	23616.3125
1594.19801	25412.9125
1597.52172	27393.2125
1600.84321	28189.6125
1604.16251	27141.8125
1607.47959	24962.4125
1610.79447	22523.4125
1614.10715	20266.5125
1617.41763	18592.8125
1620.7259	17437.1125
1624.03199	16917.5125
1627.33587	16906.0125
1630.63757	17461.6125
1633.93707	18536.2125
1637.23439	20310.3125
1640.52951	22761.4125
1643.82246	25657.3125
1647.11321	28189.9125
1650.40179	29138.7125
1653.68819	27397.3125
1656.97241	23673.6125
1660.25446	19880.1125
1663.53433	17061.9125
1666.81203	15361.8125
1670.08756	14341.2125
1673.36092	13765.9125
1676.63211	13392.5125
1679.90115	13102.7125
1683.16801	12869.6125
1686.43272	12719.4125
1689.69527	12550.8125
1692.95567	12403.1125
1696.2139	12267.7125
1699.46999	12126.0125
1702.72392	12075.8125
1705.97571	12119.5125
1709.22535	12210.0125
1712.47284	12249.9125
1715.71819	12284.6125
1718.96139	12239.2125
1722.20246	12196.1125
1725.44139	12157.7125
1728.67818	12087.1125
1731.91284	11987.3125
1735.14537	11923.9125
1738.37576	11863.4125
1741.60403	11821.6125
1744.83017	11757.7125
1748.05418	11740.8125
1751.27607	11672.6125
1754.49584	11583.5125
1757.71349	11507.3125
1760.92903	11463.1125
1764.14244	11446.1125
1767.35375	11446.7125
1770.56294	11434.1125
1773.77002	11442.2125
1776.97499	11482.6125
1780.17785	11488.2125
1783.37861	11517.7125
1786.57727	11500.9125
1789.77382	11502.2125
1792.96828	11516.5125
1796.16064	11504.1125
1799.3509	11455.0125
1802.53907	11442.9125
1805.72514	11435.6125
1808.90913	11404.3125
1812.09102	11370.7125
1815.27083	11364.7125
1818.44856	11327.2125
1821.6242	11331.8125
1824.79776	11326.3125
1827.96924	11301.3125
1831.13864	11311.7125
1834.30597	11300.5125
1837.47122	11305.3125
1840.6344	11302.2125
1843.7955	11285.2125
1846.95454	11300.5125
1850.11151	11286.4125
1853.26642	11282.9125
1856.41926	11271.3125
1859.57004	11268.5125
1862.71876	11300.0125
1865.86542	11294.0125
1869.01003	11291.8125
1872.15258	11268.8125
1875.29308	11270.2125
1878.43152	11280.4125
1881.56792	11297.2125
1884.70227	11302.9125
1887.83457	11308.7125
1890.96482	11298.6125
1894.09304	11261.0125
1897.21921	11275.2125
1900.34335	11262.1125
1903.46544	11274.3125
1906.58551	11243.7125
1909.70353	11245.7125
1912.81953	11251.2125
1915.93349	11209.3125
1919.04543	11179.9125
1922.15534	11168.7125
1925.26322	11118.5125
1928.36908	11107.2125
1931.47292	11052.3125
1934.57473	11014.7125
1937.67453	11001.1125
1940.77232	10965.7125
1943.86808	10931.7125
1946.96184	10892.9125
1950.05358	10852.4125
1953.14331	10820.4125
1956.23103	10759.2125
1959.31675	10735.0125
1962.40046	10677.2125
1965.48217	10670.2125
1968.56188	10679.9125
1971.63959	10648.8125
1974.7153	10637.7125
1977.78901	10585.0125
1980.86073	10528.1125
1983.93046	10498.9125
1986.99819	10447.9125
1990.06394	10439.5125
1993.1277	10435.8125
1996.18947	10356.3125
1999.24925	10358.0125
2002.30706	10324.4125
2005.36288	10289.3125
2008.41672	10262.0125
2011.46859	10217.0125
2014.51848	10212.9125
2017.56639	10179.7125
2020.61233	10148.9125
2023.6563	10126.3125
2026.6983	10134.7125
2029.73833	10122.3125
2032.7764	10080.6125
2035.8125	10040.1125
2038.84664	10042.6125
2041.87881	10042.8125
2044.90903	10003.2125
2047.93729	9995.2125
2050.96359	9970.4125
2053.98794	9966.8125
2057.01034	9980.0125
2060.03078	9950.6125
2063.04927	9934.2125
2066.06582	9946.8125
2069.08042	9941.8125
2072.09307	9924.2125
2075.10378	9919.5125
2078.11255	9880.9125
2081.11938	9912.5125
2084.12426	9874.5125
2087.12722	9873.6125
2090.12824	9900.6125
2093.12732	9914.4125
2096.12447	9894.4125
2099.11969	9881.8125
2102.11299	9883.1125
2105.10435	9904.8125
2108.09379	9884.3125
2111.08131	9930.0125
2114.0669	9904.4125
2117.05057	9924.5125
2120.03233	9922.8125
2123.01216	9913.8125
2125.99008	9953.3125
2128.96609	9971.1125
2131.94018	9964.2125
2134.91236	9940.9125
2137.88263	9949.7125
2140.851	9981.2125
2143.81746	10000.2125
2146.78201	9962.8125
2149.74466	9985.4125
2152.7054	9952.8125
2155.66425	9978.2125
2158.6212	9959.8125
2161.57625	9988.8125
2164.52941	9969.2125
2167.48067	9960.3125
2170.43004	9959.9125
2173.37752	9982.4125
2176.32311	9938.6125
2179.26681	9941.6125
2182.20863	9954.6125
2185.14856	9973.3125
2188.08661	9957.4125
2191.02278	9983.6125
2193.95707	9960.1125
2196.88948	9963.8125
2199.82001	9980.4125
2202.74867	9978.9125
2205.67545	9945.6125
2208.60037	9951.4125
2211.52341	9939.7125
2214.44458	9943.6125
2217.36388	9930.2125
2220.28132	9926.9125
2223.1969	9891.5125
2226.11061	9882.2125
2229.02246	9850.7125
2231.93245	9862.8125
2234.84058	9821.2125
2237.74686	9789.1125
2240.65128	9791.1125
2243.55385	9769.6125
2246.45456	9771.1125
2249.35343	9746.2125
2252.25044	9763.0125
2255.14561	9746.5125
2258.03893	9726.8125
2260.93041	9673.7125
2263.82004	9671.6125
2266.70783	9667.2125
2269.59378	9634.4125
2272.4779	9632.8125
2275.36017	9609.2125
2278.24061	9604.6125
2281.11922	9576.0125
2283.996	9563.4125
2286.87094	9571.8125
2289.74405	9545.3125
2292.61534	9548.1125
2295.4848	9533.9125
2298.35243	9550.8125
2301.21824	9520.4125
2304.08223	9539.7125
2306.94439	9545.3125
2309.80474	9543.3125
2312.66327	9529.9125
2315.51999	9555.5125
2318.37489	9569.4125
2321.22797	9549.1125
2324.07925	9552.1125
2326.92871	9531.1125
2329.77637	9531.2125
2332.62222	9522.3125
2335.46626	9519.1125
2338.3085	9514.2125
2341.14893	9508.2125
2343.98756	9527.2125
2346.8244	9563.8125
2349.65943	9578.7125
2352.49267	9564.4125
2355.32411	9563.1125
2358.15376	9537.5125
2360.98161	9555.2125
2363.80768	9526.5125
2366.63195	9511.4125
2369.45444	9525.4125
2372.27514	9490.7125
2375.09405	9466.4125
2377.91118	9463.6125
2380.72652	9427.1125
2383.54009	9402.5125
2386.35187	9411.4125
2389.16188	9352.5125
2391.97011	9356.9125
2394.77657	9350.1125
2397.58125	9362.3125
2400.38416	9329.1125
2403.18529	9286.4125
2405.98466	9296.3125
2408.78226	9244.8125
2411.57809	9246.1125
2414.37216	9231.7125
2417.16446	9231.8125
2419.955	9208.7125
2422.74378	9180.5125
2425.5308	9173.5125
2428.31606	9180.1125
2431.09956	9180.0125
2433.88131	9202.6125
2436.6613	9212.8125
2439.43954	9208.7125
2442.21603	9169.1125
2444.99077	9164.1125
2447.76377	9184.9125
2450.53501	9175.8125
2453.30451	9179.3125
2456.07226	9178.1125
2458.83827	9154.8125
2461.60254	9176.8125
2464.36507	9175.9125
2467.12586	9121.2125
2469.88492	9169.5125
2472.64224	9160.6125
2475.39782	9161.4125
2478.15167	9155.5125
2480.90379	9157.0125
2483.65417	9229.9125
2486.40283	9246.1125
2489.14976	9238.2125
2491.89497	9266.9125
2494.63845	9256.2125
2497.3802	9210.1125
2500.12024	9253.3125
2502.85855	9257.5125
2505.59514	9216.7125
2508.33002	9203.6125
2511.06318	9194.3125
2513.79462	9166.5125
2516.52435	9160.7125
2519.25237	9157.2125
2521.97867	9125.7125
2524.70327	9116.3125
2527.42616	9094.6125
2530.14734	9118.3125
2532.86681	9105.9125
2535.58458	9140.1125
2538.30065	9121.7125
2541.01501	9144.0125
2543.72768	9106.3125
2546.43864	9103.0125
2549.14791	9086.8125
2551.85548	9101.4125
2554.56136	9084.4125
2557.26554	9061.4125
2559.96803	9056.9125
2562.66883	9054.2125
2565.36794	9041.3125
2568.06536	9059.3125
2570.7611	9044.2125
2573.45514	9032.5125
2576.14751	9045.2125
2578.83819	9022.4125
2581.52719	9011.3125
2584.21451	9005.5125
2586.90015	9013.7125
2589.58411	8997.6125
2592.2664	9011.4125
2594.94701	9020.4125
2597.62594	8996.6125
2600.30321	8999.6125
2602.9788	9009.2125
2605.65273	8985.3125
2608.32498	9015.9125
2610.99557	9033.1125
2613.66449	9001.7125
2616.33175	9006.1125
2618.99734	9021.3125
2621.66128	9012.4125
2624.32355	9008.7125
2626.98416	9013.1125
2629.64311	9028.4125
2632.30041	9032.5125
2634.95605	9000.4125
2637.61004	8987.8125
2640.26238	8987.7125
2642.91306	8957.5125
2645.56209	8933.0125
2648.20948	8911.3125
2650.85521	8907.7125
2653.4993	8921.7125
2656.14175	8918.7125
2658.78255	8958.1125
2661.42171	8963.5125
2664.05923	8940.9125
2666.6951	8997.5125
2669.32934	9008.5125
2671.96194	8996.2125
2674.59291	8997.2125
2677.22224	9005.8125
2679.84993	9010.6125
2682.476	8988.5125
2685.10043	8983.6125
2687.72324	8990.1125
2690.34441	8976.8125
2692.96396	8943.6125
2695.58188	8963.3125
2698.19818	8945.6125
2700.81285	8939.1125
2703.4259	8896.1125
2706.03733	8824.7125
2708.64714	8860.0125
2711.25533	8939.4125
2713.86191	8956.9125
2716.46687	8985.8125
2719.07021	8989.7125
2721.67194	8997.4125
2724.27206	8995.1125
2726.87057	9002.1125
2729.46747	9014.2125
2732.06276	9003.7125
2734.65644	9007.5125
2737.24852	8997.6125
2739.83899	9001.1125
2742.42786	8996.4125
2745.01513	8994.7125
2747.60079	8984.4125
2750.18486	8978.5125
2752.76733	8983.3125
2755.3482	8950.0125
2757.92747	8969.7125
2760.50515	8958.8125
2763.08123	8953.3125
2765.65573	8922.9125
2768.22863	8930.4125
2770.79994	8923.2125
2773.36967	8957.4125
2775.9378	8940.0125
2778.50435	8954.5125
2781.06932	8937.7125
2783.6327	8965.4125
2786.1945	8940.5125
2788.75471	8919.1125
2791.31335	8922.9125
2793.87041	8920.8125
2796.42589	8873.6125
2798.97979	8876.1125
2801.53212	8860.2125
2804.08288	8877.4125
2806.63206	8843.5125
2809.17967	8838.1125
2811.72571	8828.0125
2814.27018	8825.2125
2816.81308	8822.0125
2819.35442	8804.4125
2821.89419	8805.8125
2824.43239	8805.8125
2826.96904	8788.1125
2829.50412	8790.5125
2832.03763	8781.8125
2834.56959	8763.3125
2837.1	8756.0125
2839.62884	8784.0125
2842.15613	8775.0125
2844.68186	8795.5125
2847.20604	8773.2125
2849.72867	8780.0125
2852.24974	8783.7125
2854.76927	8766.6125
2857.28724	8726.0125
2859.80367	8754.9125
2862.31855	8756.2125
2864.83189	8750.8125
2867.34368	8746.3125
2869.85393	8759.1125
2872.36264	8761.1125
2874.8698	8765.9125
2877.37543	8751.7125
2879.87952	8767.8125
2882.38207	8783.0125
2884.88308	8777.1125
2887.38256	8773.3125
2889.88051	8744.4125
2892.37692	8785.1125
2894.8718	8766.3125
2897.36515	8782.9125
2899.85698	8791.8125
2902.34727	8816.1125
2904.83604	8807.1125
2907.32328	8829.9125
2909.809	8826.6125
2912.29319	8891.1125
2914.77587	8854.3125
2917.25702	8857.4125
2919.73665	8834.9125
2922.21476	8835.2125
2924.69136	8825.8125
2927.16644	8810.6125
2929.64	8783.6125
2932.11205	8775.9125
2934.58258	8759.8125
2937.05161	8747.3125
2939.51912	8759.0125
2941.98513	8739.1125
2944.44962	8726.5125
2946.91261	8689.8125
2949.37409	8725.8125
2951.83407	8705.5125
2954.29254	8691.0125
2956.74951	8683.6125
2959.20498	8684.2125
2961.65895	8639.4125
2964.11142	8664.2125
2966.56239	8631.0125
2969.01186	8661.3125
2971.45984	8620.9125
2973.90632	8599.5125
2976.35131	8598.6125
2978.7948	8570.7125
2981.23681	8553.6125
2983.67732	8544.1125
2986.11635	8516.6125
2988.55388	8480.6125
2990.98993	8453.0125
2993.4245	8465.1125
2995.85758	8476.2125
2998.28917	8443.2125
3000.71928	8405.4125
3003.14791	8390.8125
3005.57506	8369.5125
3008.00073	8347.0125
3010.42493	8345.6125
3012.84764	8338.9125
3015.26888	8339.6125
3017.68865	8285.6125
3020.10694	8312.0125
3022.52376	8265.6125
3024.9391	8259.4125
3027.35298	8240.5125
3029.76539	8262.5125
3032.17632	8274.6125
3034.5858	8256.8125
3036.9938	8233.4125
3039.40034	8217.2125
3041.80542	8218.7125
3044.20903	8201.0125
3046.61118	8190.5125
3049.01187	8210.4125
3051.4111	8204.7125
3053.80888	8191.4125
3056.20519	8162.3125
3058.60005	8142.5125
3060.99345	8142.0125
3063.3854	8109.6125
3065.7759	8082.1125
3068.16494	8098.1125
