Data from AgNPs_FTO_APTES_UA_50uM_CRN_500uM_R6G_10uM_NaF_0.1M_Addition_RamanShift__13__16-57-03-533.txt Node

Date: Mon Feb 21 16:57:03 GMT 2022
User: TCL
Spectrometer: QEP01345
Trigger mode: 4
Integration Time (sec): 7.000000E0
Scans to average: 10
Electric dark correction enabled: true
Nonlinearity correction enabled: false
Boxcar width: 0
XAxis mode: Raman Shifts
Number of Pixels in Spectrum: 1044
>>>>>Begin Spectral Data<<<<<
46.04893	-0.825
50.45542	0.375
54.85868	0.075
59.25871	-0.925
63.6555	41.975
68.04907	46.075
72.43941	53.575
76.82654	55.075
81.21044	54.875
85.59113	56.475
89.96862	59.675
94.34289	60.875
98.71396	61.275
103.08183	68.075
107.4465	68.975
111.80798	70.275
116.16626	70.775
120.52136	70.375
124.87327	68.375
129.222	72.675
133.56755	76.975
137.90993	78.675
142.24913	82.975
146.58517	86.175
150.91804	95.275
155.24774	111.275
159.57429	129.475
163.89768	163.675
168.21792	209.475
172.53501	280.375
176.84895	391.575
181.15975	540.275
185.46741	751.975
189.77193	1037.975
194.07331	1388.075
198.37157	1785.175
202.6667	2210.075
206.9587	2630.775
211.24758	3061.675
215.53334	3485.675
219.81599	3910.075
224.09553	4373.175
228.37195	4893.175
232.64527	5482.875
236.91549	6099.775
241.18261	6712.575
245.44663	7307.275
249.70755	7810.475
253.96539	8222.775
258.22014	8609.975
262.4718	8894.875
266.72039	9088.375
270.96589	9141.975
275.20832	9150.475
279.44768	9051.275
283.68397	8909.575
287.91719	8775.975
292.14735	8690.475
296.37445	8647.975
300.59849	8653.975
304.81948	8693.975
309.03742	8675.575
313.25231	8616.275
317.46415	8546.175
321.67296	8368.775
325.87872	8212.875
330.08145	8156.475
334.28114	8170.175
338.47781	8223.075
342.67145	8329.275
346.86207	8460.975
351.04966	8599.975
355.23424	8775.675
359.4158	8928.575
363.59435	9026.775
367.76989	9109.575
371.94243	9198.675
376.11196	9231.775
380.27849	9299.275
384.44203	9332.775
388.60257	9385.975
392.76012	9440.575
396.91468	9539.175
401.06626	9637.275
405.21485	9752.775
409.36047	9699.075
413.50311	9558.575
417.64277	9459.675
421.77947	9371.075
425.9132	9344.775
430.04396	9371.675
434.17176	9429.575
438.2966	9499.775
442.41849	9598.475
446.53742	9723.175
450.6534	9861.575
454.76644	9946.575
458.87653	10010.975
462.98368	10011.275
467.08789	10017.675
471.18916	9958.775
475.2875	9888.975
479.38291	9800.975
483.4754	9731.875
487.56496	9704.575
491.6516	9640.375
495.73531	9631.575
499.81612	9635.775
503.89401	9671.375
507.96899	9748.075
512.04106	9754.475
516.11023	9798.575
520.1765	9792.975
524.23987	9785.775
528.30034	9734.475
532.35792	9707.675
536.41261	9638.275
540.46441	9580.475
544.51333	9567.975
548.55936	9627.075
552.60252	9706.975
556.64279	9798.775
560.6802	9859.175
564.71473	9879.175
568.7464	9920.975
572.7752	10014.675
576.80114	10076.675
580.82422	10124.175
584.84444	10181.775
588.86181	10227.875
592.87633	10280.875
596.888	10331.875
600.89682	10427.475
604.9028	10746.775
608.90594	11617.175
612.90624	12648.275
616.90371	12211.475
620.89834	10683.975
624.89015	9946.775
628.87913	9821.875
632.86528	9899.375
636.84862	9964.475
640.82913	9943.275
644.80683	9795.075
648.78172	9682.475
652.75379	9701.575
656.72306	9781.175
660.68952	9899.675
664.65319	9909.975
668.61405	9827.875
672.57211	9808.075
676.52738	9868.075
680.47986	9934.675
684.42955	9910.575
688.37646	9871.875
692.32058	9872.575
696.26192	9879.675
700.20048	9880.675
704.13626	9890.675
708.06928	9861.675
711.99952	9833.675
715.927	9799.075
719.85171	9761.275
723.77365	9766.375
727.69284	9739.775
731.60928	9680.475
735.52295	9675.775
739.43388	9656.775
743.34206	9688.875
747.24749	9712.875
751.15017	9725.975
755.05012	9796.175
758.94733	9952.975
762.8418	10305.975
766.73354	10855.075
770.62254	11479.175
774.50882	11758.175
778.39237	11484.175
782.27321	10836.575
786.15132	10282.875
790.02671	9884.875
793.89938	9717.175
797.76935	9644.775
801.6366	9595.175
805.50115	9538.675
809.36299	9527.075
813.22213	9509.475
817.07857	9471.975
820.93231	9434.975
824.78336	9460.175
828.63172	9433.775
832.47738	9426.075
836.32036	9412.775
840.16066	9398.275
843.99827	9376.075
847.8332	9398.575
851.66546	9408.575
855.49504	9405.775
859.32195	9397.275
863.1462	9429.875
866.96777	9420.775
870.78668	9399.675
874.60293	9419.575
878.41652	9429.075
882.22745	9442.975
886.03573	9461.475
889.84136	9489.675
893.64433	9452.975
897.44466	9432.475
901.24235	9436.075
905.0374	9402.875
908.8298	9390.075
912.61957	9339.175
916.40671	9386.975
920.19121	9395.475
923.97308	9449.975
927.75233	9439.275
931.52895	9430.175
935.30295	9377.775
939.07433	9281.475
942.84309	9212.775
946.60924	9136.175
950.37278	9091.475
954.13371	9060.875
957.89203	9061.075
961.64774	9024.075
965.40086	9023.875
969.15137	8993.175
972.89929	8971.975
976.64461	8959.775
980.38733	8940.875
984.12747	8935.075
987.86502	8951.775
991.59999	8970.875
995.33237	8995.175
999.06217	9031.175
1002.78939	9095.375
1006.51404	9142.375
1010.23611	9243.975
1013.95561	9292.875
1017.67255	9336.975
1021.38692	9323.575
1025.09872	9254.175
1028.80796	9210.175
1032.51465	9146.275
1036.21877	9155.775
1039.92035	9162.875
1043.61937	9200.575
1047.31584	9244.575
1051.00976	9279.075
1054.70114	9310.175
1058.38998	9319.575
1062.07627	9337.975
1065.76003	9370.275
1069.44126	9413.475
1073.11995	9463.675
1076.79611	9535.675
1080.46974	9571.575
1084.14085	9604.775
1087.80943	9645.275
1091.47549	9685.875
1095.13903	9699.075
1098.80005	9616.575
1102.45857	9543.175
1106.11456	9461.875
1109.76805	9436.275
1113.41903	9446.775
1117.06751	9538.075
1120.71348	9625.675
1124.35696	9745.175
1127.99793	9872.875
1131.63641	9920.075
1135.2724	9820.875
1138.90589	9696.875
1142.5369	9585.275
1146.16542	9567.775
1149.79145	9509.375
1153.415	9522.175
1157.03607	9551.275
1160.65467	9635.975
1164.27079	9768.675
1167.88443	10000.975
1171.49561	10299.175
1175.10432	10723.775
1178.71056	11312.375
1182.31434	11841.975
1185.91565	12152.875
1189.51451	12173.875
1193.11091	12016.975
1196.70485	11741.375
1200.29634	11447.475
1203.88538	11106.475
1207.47197	10776.275
1211.05612	10449.375
1214.63782	10229.975
1218.21708	10110.975
1221.79391	10028.675
1225.36829	9971.975
1228.94024	9957.475
1232.50976	9955.475
1236.07685	9954.775
1239.6415	9983.075
1243.20374	9965.375
1246.76355	10004.175
1250.32093	10049.575
1253.8759	10109.175
1257.42845	10228.675
1260.97859	10339.875
1264.52631	10471.075
1268.07163	10621.575
1271.61453	10724.975
1275.15503	10813.975
1278.69312	10908.475
1282.22882	10940.475
1285.76211	11021.275
1289.29301	11173.375
1292.82151	11378.675
1296.34761	11636.775
1299.87133	11923.275
1303.39266	12287.175
1306.9116	12783.775
1310.42815	13325.575
1313.94233	13618.175
1317.45412	13533.675
1320.96354	13236.675
1324.47058	12889.875
1327.97525	12555.675
1331.47754	12310.675
1334.97747	12240.875
1338.47502	12313.475
1341.97022	12507.975
1345.46305	12820.975
1348.95352	13237.975
1352.44163	13638.675
1355.92738	14108.675
1359.41078	14712.375
1362.89183	15325.575
1366.37053	15134.275
1369.84688	13986.575
1373.32088	12605.275
1376.79254	11697.875
1380.26186	11194.175
1383.72883	10954.375
1387.19347	10782.075
1390.65578	10581.375
1394.11575	10398.375
1397.57339	10283.975
1401.0287	10237.775
1404.48168	10206.275
1407.93234	10156.675
1411.38068	10134.875
1414.82669	10069.275
1418.27039	10013.575
1421.71177	9878.675
1425.15083	9732.875
1428.58758	9663.875
1432.02203	9595.775
1435.45416	9604.375
1438.88399	9628.075
1442.31151	9679.975
1445.73673	9699.775
1449.15965	9730.375
1452.58027	9784.975
1455.9986	9782.675
1459.41463	9836.275
1462.82837	9936.775
1466.23982	10049.875
1469.64898	10173.375
1473.05586	10314.075
1476.46045	10406.575
1479.86276	10454.275
1483.26279	10514.275
1486.66054	10611.675
1490.05602	10729.075
1493.44922	10958.575
1496.84016	11367.475
1500.22882	11942.175
1503.61521	12694.075
1506.99934	13474.175
1510.38121	14004.375
1513.76081	13983.375
1517.13816	13474.175
1520.51324	12621.575
1523.88607	11897.775
1527.25665	11404.175
1530.62498	11181.475
1533.99105	10998.875
1537.35488	10883.675
1540.71647	10757.975
1544.07581	10626.075
1547.4329	10537.375
1550.78776	10481.275
1554.14038	10427.975
1557.49077	10424.075
1560.83892	10460.075
1564.18484	10544.475
1567.52853	10687.375
1570.86999	10789.175
1574.20922	10902.975
1577.54624	10912.675
1580.88103	10720.275
1584.2136	10412.275
1587.54395	10229.375
1590.87208	10229.075
1594.19801	10395.575
1597.52172	10673.775
1600.84321	10848.475
1604.16251	10756.175
1607.47959	10535.675
1610.79447	10261.075
1614.10715	9881.075
1617.41763	9542.175
1620.7259	9232.375
1624.03199	9053.375
1627.33587	8957.075
1630.63757	8972.175
1633.93707	9107.275
1637.23439	9386.675
1640.52951	9832.375
1643.82246	10496.975
1647.11321	11162.375
1650.40179	11625.175
1653.68819	11474.375
1656.97241	10794.975
1660.25446	9917.575
1663.53433	9209.475
1666.81203	8740.375
1670.08756	8431.875
1673.36092	8213.475
1676.63211	8114.175
1679.90115	8002.675
1683.16801	7942.575
1686.43272	7828.475
1689.69527	7793.875
1692.95567	7742.275
1696.2139	7689.375
1699.46999	7657.275
1702.72392	7658.175
1705.97571	7653.475
1709.22535	7644.475
1712.47284	7610.675
1715.71819	7597.075
1718.96139	7609.175
1722.20246	7565.575
1725.44139	7543.675
1728.67818	7513.175
1731.91284	7487.275
1735.14537	7449.675
1738.37576	7404.175
1741.60403	7382.675
1744.83017	7378.575
1748.05418	7342.075
1751.27607	7359.375
1754.49584	7358.975
1757.71349	7365.475
1760.92903	7334.875
1764.14244	7332.275
1767.35375	7325.075
1770.56294	7299.175
1773.77002	7266.475
1776.97499	7228.575
1780.17785	7184.075
1783.37861	7191.375
1786.57727	7179.175
1789.77382	7107.775
1792.96828	7109.575
1796.16064	7087.275
1799.3509	7070.175
1802.53907	7049.575
1805.72514	7027.875
1808.90913	7008.475
1812.09102	6970.075
1815.27083	6960.175
1818.44856	6950.375
1821.6242	6947.975
1824.79776	6924.275
1827.96924	6924.775
1831.13864	6908.175
1834.30597	6889.975
1837.47122	6875.575
1840.6344	6875.675
1843.7955	6870.575
1846.95454	6869.575
1850.11151	6851.575
1853.26642	6829.075
1856.41926	6813.175
1859.57004	6827.075
1862.71876	6806.375
1865.86542	6798.575
1869.01003	6776.275
1872.15258	6759.575
1875.29308	6769.075
1878.43152	6755.375
1881.56792	6750.175
1884.70227	6739.375
1887.83457	6736.275
1890.96482	6718.175
1894.09304	6711.275
1897.21921	6708.275
1900.34335	6678.475
1903.46544	6674.275
1906.58551	6670.875
1909.70353	6647.075
1912.81953	6638.275
1915.93349	6619.475
1919.04543	6607.775
1922.15534	6606.475
1925.26322	6555.575
1928.36908	6570.775
1931.47292	6550.475
1934.57473	6534.075
1937.67453	6511.675
1940.77232	6511.475
1943.86808	6477.675
1946.96184	6484.075
1950.05358	6445.975
1953.14331	6409.975
1956.23103	6395.575
1959.31675	6388.775
1962.40046	6362.575
1965.48217	6328.475
1968.56188	6317.175
1971.63959	6293.475
1974.7153	6266.675
1977.78901	6265.475
1980.86073	6245.975
1983.93046	6257.075
1986.99819	6207.075
1990.06394	6184.475
1993.1277	6155.175
1996.18947	6117.475
1999.24925	6121.575
2002.30706	6096.175
2005.36288	6084.075
2008.41672	6078.075
2011.46859	6031.175
2014.51848	6028.775
2017.56639	6009.675
2020.61233	5992.375
2023.6563	5982.475
2026.6983	5953.475
2029.73833	5929.575
2032.7764	5913.875
2035.8125	5918.275
2038.84664	5885.975
2041.87881	5868.475
2044.90903	5845.575
2047.93729	5849.275
2050.96359	5819.575
2053.98794	5822.175
2057.01034	5823.775
2060.03078	5825.875
2063.04927	5817.375
2066.06582	5782.775
2069.08042	5799.675
2072.09307	5781.675
2075.10378	5764.175
2078.11255	5775.875
2081.11938	5757.975
2084.12426	5752.075
2087.12722	5753.075
2090.12824	5745.075
2093.12732	5736.675
2096.12447	5753.075
2099.11969	5744.775
2102.11299	5757.275
2105.10435	5750.475
2108.09379	5740.975
2111.08131	5765.875
2114.0669	5749.675
2117.05057	5737.375
2120.03233	5761.675
2123.01216	5756.975
2125.99008	5754.575
2128.96609	5747.575
2131.94018	5773.175
2134.91236	5745.475
2137.88263	5754.575
2140.851	5754.175
2143.81746	5768.375
2146.78201	5771.275
2149.74466	5769.275
2152.7054	5765.375
2155.66425	5758.675
2158.6212	5744.975
2161.57625	5735.175
2164.52941	5734.075
2167.48067	5740.675
2170.43004	5731.975
2173.37752	5723.775
2176.32311	5718.775
2179.26681	5708.175
2182.20863	5715.275
2185.14856	5724.375
2188.08661	5709.775
2191.02278	5710.675
2193.95707	5691.275
2196.88948	5689.475
2199.82001	5676.375
2202.74867	5672.675
2205.67545	5676.175
2208.60037	5648.475
2211.52341	5668.075
2214.44458	5650.475
2217.36388	5624.375
2220.28132	5610.075
2223.1969	5579.075
2226.11061	5585.075
2229.02246	5556.775
2231.93245	5546.775
2234.84058	5536.975
2237.74686	5546.275
2240.65128	5534.475
2243.55385	5513.875
2246.45456	5507.875
2249.35343	5510.375
2252.25044	5485.975
2255.14561	5478.875
2258.03893	5465.975
2260.93041	5470.475
2263.82004	5448.875
2266.70783	5441.075
2269.59378	5427.075
2272.4779	5403.375
2275.36017	5404.475
2278.24061	5381.975
2281.11922	5363.975
2283.996	5345.675
2286.87094	5341.975
2289.74405	5321.575
2292.61534	5321.675
2295.4848	5312.675
2298.35243	5315.675
2301.21824	5312.975
2304.08223	5290.575
2306.94439	5286.375
2309.80474	5286.475
2312.66327	5282.075
2315.51999	5251.575
2318.37489	5262.375
2321.22797	5235.375
2324.07925	5235.475
2326.92871	5228.475
2329.77637	5228.975
2332.62222	5199.575
2335.46626	5210.475
2338.3085	5194.575
2341.14893	5186.575
2343.98756	5164.875
2346.8244	5174.175
2349.65943	5165.475
2352.49267	5157.475
2355.32411	5155.075
2358.15376	5154.775
2360.98161	5159.875
2363.80768	5129.575
2366.63195	5157.375
2369.45444	5137.375
2372.27514	5119.275
2375.09405	5129.775
2377.91118	5118.175
2380.72652	5098.975
2383.54009	5104.775
2386.35187	5066.675
2389.16188	5048.175
2391.97011	5038.375
2394.77657	5026.775
2397.58125	5013.575
2400.38416	4993.375
2403.18529	4981.375
2405.98466	4967.975
2408.78226	4977.375
2411.57809	4983.975
2414.37216	4965.875
2417.16446	4956.575
2419.955	4959.575
2422.74378	4945.875
2425.5308	4944.975
2428.31606	4931.475
2431.09956	4943.775
2433.88131	4916.675
2436.6613	4904.575
2439.43954	4899.375
2442.21603	4899.275
2444.99077	4896.175
2447.76377	4886.075
2450.53501	4885.075
2453.30451	4888.175
2456.07226	4875.375
2458.83827	4851.275
2461.60254	4868.875
2464.36507	4854.975
2467.12586	4845.275
2469.88492	4833.175
2472.64224	4825.875
2475.39782	4831.775
2478.15167	4840.875
2480.90379	4837.775
2483.65417	4823.275
2486.40283	4811.475
2489.14976	4830.875
2491.89497	4821.775
2494.63845	4823.475
2497.3802	4828.075
2500.12024	4793.075
2502.85855	4806.175
2505.59514	4788.775
2508.33002	4767.575
2511.06318	4769.575
2513.79462	4744.775
2516.52435	4741.475
2519.25237	4741.775
2521.97867	4730.775
2524.70327	4723.075
2527.42616	4698.175
2530.14734	4708.975
2532.86681	4696.575
2535.58458	4694.575
2538.30065	4664.375
2541.01501	4675.175
2543.72768	4680.175
2546.43864	4665.175
2549.14791	4642.875
2551.85548	4652.875
2554.56136	4627.675
2557.26554	4632.375
2559.96803	4621.975
2562.66883	4596.475
2565.36794	4585.675
2568.06536	4582.975
2570.7611	4555.675
2573.45514	4561.575
2576.14751	4543.175
2578.83819	4539.875
2581.52719	4534.975
2584.21451	4514.275
2586.90015	4516.375
2589.58411	4526.775
2592.2664	4500.175
2594.94701	4490.275
2597.62594	4472.675
2600.30321	4467.875
2602.9788	4464.075
2605.65273	4438.875
2608.32498	4438.375
2610.99557	4423.875
2613.66449	4422.275
2616.33175	4426.775
2618.99734	4422.275
2621.66128	4421.075
2624.32355	4411.275
2626.98416	4384.675
2629.64311	4379.675
2632.30041	4381.175
2634.95605	4371.575
2637.61004	4394.375
2640.26238	4360.275
2642.91306	4352.075
2645.56209	4344.475
2648.20948	4348.675
2650.85521	4327.175
2653.4993	4335.275
2656.14175	4342.675
2658.78255	4323.175
2661.42171	4330.075
2664.05923	4333.975
2666.6951	4335.375
2669.32934	4325.575
2671.96194	4321.075
2674.59291	4337.975
2677.22224	4338.675
2679.84993	4332.275
2682.476	4334.375
2685.10043	4306.975
2687.72324	4320.775
2690.34441	4322.075
2692.96396	4306.875
2695.58188	4330.875
2698.19818	4304.775
2700.81285	4315.675
2703.4259	4299.775
2706.03733	4299.875
2708.64714	4288.075
2711.25533	4307.775
2713.86191	4301.675
2716.46687	4300.775
2719.07021	4298.775
2721.67194	4300.175
2724.27206	4308.075
2726.87057	4297.975
2729.46747	4294.575
2732.06276	4306.175
2734.65644	4288.575
2737.24852	4291.375
2739.83899	4278.275
2742.42786	4272.175
2745.01513	4270.675
2747.60079	4262.075
2750.18486	4245.875
2752.76733	4239.975
2755.3482	4230.775
2757.92747	4221.075
2760.50515	4220.275
2763.08123	4214.775
2765.65573	4216.575
2768.22863	4207.875
2770.79994	4189.675
2773.36967	4200.975
2775.9378	4175.175
2778.50435	4185.975
2781.06932	4165.575
2783.6327	4162.875
2786.1945	4165.675
2788.75471	4151.075
2791.31335	4139.675
2793.87041	4140.575
2796.42589	4123.075
2798.97979	4122.475
2801.53212	4108.375
2804.08288	4089.375
2806.63206	4084.275
2809.17967	4067.275
2811.72571	4085.875
2814.27018	4068.975
2816.81308	4059.375
2819.35442	4058.675
2821.89419	4045.575
2824.43239	4049.975
2826.96904	4029.375
2829.50412	4031.075
2832.03763	4022.275
2834.56959	4028.775
2837.1	4025.875
2839.62884	4044.675
2842.15613	4040.175
2844.68186	4042.275
2847.20604	4060.975
2849.72867	4067.175
2852.24974	4074.475
2854.76927	4049.075
2857.28724	4050.775
2859.80367	4054.875
2862.31855	4037.375
2864.83189	4027.775
2867.34368	4022.775
2869.85393	4003.575
2872.36264	4002.675
2874.8698	4006.475
2877.37543	3997.575
2879.87952	4008.975
2882.38207	3989.675
2884.88308	3997.575
2887.38256	4003.675
2889.88051	4001.175
2892.37692	3980.475
2894.8718	3993.075
2897.36515	3985.675
2899.85698	3992.475
2902.34727	4015.275
2904.83604	4003.975
2907.32328	4006.575
2909.809	4007.275
2912.29319	4006.975
2914.77587	4019.375
2917.25702	4013.575
2919.73665	4019.575
2922.21476	4029.075
2924.69136	4019.175
2927.16644	4012.375
2929.64	4001.975
2932.11205	4003.375
2934.58258	3989.675
2937.05161	4003.775
2939.51912	3998.475
2941.98513	3995.675
2944.44962	3984.175
2946.91261	3960.575
2949.37409	3960.175
2951.83407	3957.175
2954.29254	3961.675
2956.74951	3942.375
2959.20498	3934.875
2961.65895	3930.175
2964.11142	3918.775
2966.56239	3919.875
2969.01186	3906.075
2971.45984	3890.675
2973.90632	3902.775
2976.35131	3870.875
2978.7948	3871.375
2981.23681	3874.475
2983.67732	3852.475
2986.11635	3842.575
2988.55388	3832.475
2990.98993	3807.875
2993.4245	3809.775
2995.85758	3804.975
2998.28917	3809.975
3000.71928	3799.375
3003.14791	3782.775
3005.57506	3776.375
3008.00073	3759.875
3010.42493	3747.175
3012.84764	3753.575
3015.26888	3736.875
3017.68865	3741.375
3020.10694	3737.275
3022.52376	3739.675
3024.9391	3725.275
3027.35298	3709.975
3029.76539	3716.675
3032.17632	3709.675
3034.5858	3697.675
3036.9938	3695.375
3039.40034	3695.575
3041.80542	3695.575
3044.20903	3679.075
3046.61118	3673.875
3049.01187	3671.975
3051.4111	3670.575
3053.80888	3668.775
3056.20519	3672.275
3058.60005	3647.675
3060.99345	3663.775
3063.3854	3649.275
3065.7759	3634.375
3068.16494	3641.075
3070.55254	3631.175
3072.93868	3622.375
3075.32338	3607.775
3077.70662	3611.375
3080.08842	3588.275
3082.46878	3597.875
3084.84769	3609.175
3087.22515	3600.175
3089.60118	3594.975
3091.97576	3597.975
3094.3489	3603.975
3096.72061	3605.075
3099.09087	3613.675
3101.4597	3604.975
3103.82709	3612.075
3106.19305	3601.075
3108.55757	3617.575
3110.92066	3609.475
3113.28232	3600.375
3115.64255	3590.775
3118.00134	3565.175
3120.35871	3586.275
3122.71466	3573.275
3125.06917	3569.775
3127.42226	3563.775
3129.77393	3570.875
3132.12417	3567.675
3134.47299	3586.375
3136.82039	3579.175
3139.16636	3575.875
3141.51092	3580.075
3143.85406	3584.575
3146.19579	3582.275
3148.53609	3596.675
3150.87499	3595.675
3153.21246	3598.875
3155.54853	3613.575
3157.88318	3613.775
3160.21642	3626.475
3162.54826	3612.275
3164.87868	3617.775
3167.2077	3634.275
3169.5353	3632.175
3171.86151	3614.075
3174.18631	3618.875
3176.5097	3620.775
3178.83169	3614.075
3181.15228	3619.875
3183.47147	3616.475
3185.78926	3613.475
3188.10565	3606.575
3190.42065	3619.775
3192.73424	3620.575
3195.04645	3607.775
3197.35725	3613.475
3199.66667	3613.075
3201.97469	3631.475
3204.28132	3632.175
3206.58656	3631.975
3208.8904	3630.375
3211.19287	3628.175
3213.49394	3637.375
3215.79363	3637.875
3218.09193	3643.475
3220.38884	3636.975
