Data from AgNPs_FTO_APTES_UA_50uM_CRN_200uM_R6G_10uM_NaF_0.1M_Addition_RamanShift__28__16-27-05-100.txt Node

Date: Mon Feb 21 16:27:05 GMT 2022
User: TCL
Spectrometer: QEP01345
Trigger mode: 4
Integration Time (sec): 7.000000E0
Scans to average: 10
Electric dark correction enabled: true
Nonlinearity correction enabled: false
Boxcar width: 0
XAxis mode: Raman Shifts
Number of Pixels in Spectrum: 1044
>>>>>Begin Spectral Data<<<<<
46.04893	0.325
50.45542	-1.875
54.85868	0.125
59.25871	-2.175
63.6555	57.725
68.04907	63.025
72.43941	63.225
76.82654	68.725
81.21044	71.625
85.59113	74.925
89.96862	74.525
94.34289	79.925
98.71396	80.225
103.08183	87.125
107.4465	88.425
111.80798	85.925
116.16626	89.725
120.52136	91.425
124.87327	99.725
129.222	98.525
133.56755	100.625
137.90993	110.425
142.24913	118.325
146.58517	131.325
150.91804	156.425
155.24774	182.625
159.57429	225.725
163.89768	290.425
168.21792	392.025
172.53501	525.725
176.84895	733.025
181.15975	1032.125
185.46741	1454.525
189.77193	1995.825
194.07331	2667.225
198.37157	3469.625
202.6667	4281.225
206.9587	5116.025
211.24758	5962.925
215.53334	6875.625
219.81599	7868.925
224.09553	9001.425
228.37195	10262.725
232.64527	11623.025
236.91549	12997.925
241.18261	14211.525
245.44663	15216.425
249.70755	16055.425
253.96539	16752.725
258.22014	17368.425
262.4718	17870.425
266.72039	18163.325
270.96589	18138.025
275.20832	17879.725
279.44768	17381.925
283.68397	16945.525
287.91719	16580.125
292.14735	16633.425
296.37445	17146.825
300.59849	18029.925
304.81948	19123.825
309.03742	19884.525
313.25231	19888.925
317.46415	18832.125
321.67296	17140.125
325.87872	15736.825
330.08145	15108.925
334.28114	15102.725
338.47781	15453.625
342.67145	16004.425
346.86207	16836.425
351.04966	18055.225
355.23424	19427.125
359.4158	20479.725
363.59435	20904.225
367.76989	21031.925
371.94243	20905.025
376.11196	20768.225
380.27849	20561.925
384.44203	20241.925
388.60257	19840.925
392.76012	19560.725
396.91468	19654.525
401.06626	20146.725
405.21485	20444.025
409.36047	19971.725
413.50311	18609.325
417.64277	17323.625
421.77947	16557.025
425.9132	16222.125
430.04396	16111.225
434.17176	16229.325
438.2966	16480.625
442.41849	16959.425
446.53742	17603.425
450.6534	18120.425
454.76644	18476.325
458.87653	18466.725
462.98368	18198.425
467.08789	17815.325
471.18916	17386.125
475.2875	16909.425
479.38291	16465.825
483.4754	16165.625
487.56496	15922.325
491.6516	15714.125
495.73531	15614.625
499.81612	15682.325
503.89401	15907.125
507.96899	16174.725
512.04106	16537.325
516.11023	16995.325
520.1765	17292.425
524.23987	17266.025
528.30034	17006.925
532.35792	16682.525
536.41261	16303.125
540.46441	15853.225
544.51333	15662.225
548.55936	15695.625
552.60252	16053.925
556.64279	16513.525
560.6802	16764.725
564.71473	17123.125
568.7464	18023.925
572.7752	18387.725
576.80114	17519.825
580.82422	16561.725
584.84444	16189.625
588.86181	16254.825
592.87633	16620.125
596.888	16964.525
600.89682	17548.925
604.9028	19975.125
608.90594	27019.125
612.90624	36253.825
616.90371	34419.125
620.89834	22939.225
624.89015	17519.325
628.87913	16571.525
632.86528	16749.125
636.84862	17077.625
640.82913	16688.825
644.80683	15718.725
648.78172	15051.825
652.75379	15062.825
656.72306	15774.525
660.68952	16765.625
664.65319	16471.025
668.61405	15444.825
672.57211	14982.525
676.52738	14955.325
680.47986	14972.625
684.42955	14805.225
688.37646	14644.825
692.32058	14647.925
696.26192	14792.525
700.20048	14982.625
704.13626	15101.225
708.06928	14974.925
711.99952	14789.525
715.927	14804.725
719.85171	14939.525
723.77365	15055.525
727.69284	14971.425
731.60928	14847.025
735.52295	14822.125
739.43388	14892.425
743.34206	14959.325
747.24749	15000.425
751.15017	15037.525
755.05012	15304.425
758.94733	16168.525
762.8418	18413.525
766.73354	22217.125
770.62254	26179.725
774.50882	28329.725
778.39237	27126.925
782.27321	22855.225
786.15132	18695.125
790.02671	16328.725
793.89938	15344.525
797.76935	14927.025
801.6366	14769.625
805.50115	14683.925
809.36299	14629.525
813.22213	14535.025
817.07857	14505.825
820.93231	14529.625
824.78336	14501.025
828.63172	14600.925
832.47738	14626.025
836.32036	14549.025
840.16066	14441.925
843.99827	14400.825
847.8332	14358.625
851.66546	14325.225
855.49504	14325.925
859.32195	14323.725
863.1462	14272.025
866.96777	14212.225
870.78668	14182.625
874.60293	14214.325
878.41652	14280.625
882.22745	14397.525
886.03573	14498.925
889.84136	14436.125
893.64433	14358.925
897.44466	14294.925
901.24235	14302.525
905.0374	14195.825
908.8298	14024.525
912.61957	13947.925
916.40671	13973.325
920.19121	14055.225
923.97308	14249.925
927.75233	14513.525
931.52895	14820.225
935.30295	14718.425
939.07433	14214.025
942.84309	13754.025
946.60924	13437.525
950.37278	13335.125
954.13371	13250.925
957.89203	13187.025
961.64774	13153.125
965.40086	13103.825
969.15137	13034.925
972.89929	13004.925
976.64461	12946.825
980.38733	12998.525
984.12747	13027.825
987.86502	13102.425
991.59999	13227.325
995.33237	13453.525
999.06217	13848.925
1002.78939	14278.625
1006.51404	14678.425
1010.23611	14957.225
1013.95561	15119.425
1017.67255	15098.125
1021.38692	14873.725
1025.09872	14649.325
1028.80796	14601.625
1032.51465	14844.525
1036.21877	15115.925
1039.92035	15242.325
1043.61937	15155.125
1047.31584	14931.725
1051.00976	14650.725
1054.70114	14432.025
1058.38998	14310.225
1062.07627	14324.725
1065.76003	14327.925
1069.44126	14344.325
1073.11995	14414.025
1076.79611	14663.825
1080.46974	15104.325
1084.14085	15721.425
1087.80943	16263.225
1091.47549	16473.725
1095.13903	16091.825
1098.80005	15405.425
1102.45857	14945.525
1106.11456	14876.825
1109.76805	15160.525
1113.41903	15754.125
1117.06751	16624.625
1120.71348	17686.625
1124.35696	18825.325
1127.99793	19577.925
1131.63641	19117.225
1135.2724	17827.525
1138.90589	16689.525
1142.5369	15990.025
1146.16542	15510.225
1149.79145	15240.325
1153.415	15135.525
1157.03607	15272.825
1160.65467	15583.725
1164.27079	16224.825
1167.88443	17250.225
1171.49561	18876.325
1175.10432	21494.125
1178.71056	25148.525
1182.31434	28271.525
1185.91565	29007.325
1189.51451	27724.825
1193.11091	25314.525
1196.70485	22923.625
1200.29634	21307.425
1203.88538	20200.425
1207.47197	18854.825
1211.05612	17624.125
1214.63782	16945.125
1218.21708	16717.425
1221.79391	16653.325
1225.36829	16669.725
1228.94024	16511.525
1232.50976	16294.725
1236.07685	16191.925
1239.6415	16249.325
1243.20374	16393.925
1246.76355	16577.025
1250.32093	16831.925
1253.8759	17255.625
1257.42845	17892.225
1260.97859	18582.025
1264.52631	19305.825
1268.07163	19976.025
1271.61453	20611.525
1275.15503	21018.225
1278.69312	21243.125
1282.22882	21464.425
1285.76211	22022.825
1289.29301	22881.725
1292.82151	23825.925
1296.34761	24900.325
1299.87133	26674.625
1303.39266	29783.725
1306.9116	34470.025
1310.42815	39303.125
1313.94233	40981.525
1317.45412	38469.225
1320.96354	34119.125
1324.47058	30143.625
1327.97525	26990.125
1331.47754	25248.825
1334.97747	24705.225
1338.47502	25134.925
1341.97022	26336.325
1345.46305	28167.925
1348.95352	30635.725
1352.44163	33766.925
1355.92738	38497.625
1359.41078	45864.125
1362.89183	52093.825
1366.37053	49202.425
1369.84688	39450.725
1373.32088	30972.325
1376.79254	26003.225
1380.26186	23427.225
1383.72883	22057.625
1387.19347	21039.225
1390.65578	20069.325
1394.11575	19356.425
1397.57339	19128.225
1401.0287	19255.225
1404.48168	19427.525
1407.93234	19689.425
1411.38068	19958.725
1414.82669	20109.325
1418.27039	20009.425
1421.71177	19654.425
1425.15083	19130.325
1428.58758	18953.925
1432.02203	19185.925
1435.45416	19452.525
1438.88399	19556.325
1442.31151	19575.025
1445.73673	19754.125
1449.15965	19903.425
1452.58027	19908.325
1455.9986	19653.725
1459.41463	19528.125
1462.82837	19775.025
1466.23982	20338.125
1469.64898	20884.525
1473.05586	21289.725
1476.46045	21461.225
1479.86276	21757.925
1483.26279	22251.025
1486.66054	22887.625
1490.05602	23817.425
1493.44922	25197.225
1496.84016	27253.525
1500.22882	30821.525
1503.61521	36221.425
1506.99934	42693.625
1510.38121	48004.425
1513.76081	48842.425
1517.13816	44168.625
1520.51324	36698.825
1523.88607	30171.525
1527.25665	26039.225
1530.62498	23777.825
1533.99105	22459.325
1537.35488	21725.625
1540.71647	21311.425
1544.07581	21237.725
1547.4329	21370.925
1550.78776	21584.425
1554.14038	21788.825
1557.49077	22105.025
1560.83892	22638.825
1564.18484	23437.225
1567.52853	24426.125
1570.86999	25204.525
1574.20922	25513.225
1577.54624	25223.725
1580.88103	23621.925
1584.2136	21540.225
1587.54395	20471.825
1590.87208	20686.025
1594.19801	22075.525
1597.52172	24052.925
1600.84321	25018.425
1604.16251	24236.125
1607.47959	22547.425
1610.79447	20558.625
1614.10715	18680.325
1617.41763	17227.925
1620.7259	16419.425
1624.03199	16021.625
1627.33587	16111.025
1630.63757	16622.225
1633.93707	17656.725
1637.23439	19335.325
1640.52951	21925.525
1643.82246	25776.625
1647.11321	30368.125
1650.40179	33261.025
1653.68819	31737.125
1656.97241	26388.725
1660.25446	21053.925
1663.53433	17536.225
1666.81203	15575.625
1670.08756	14422.825
1673.36092	13776.125
1676.63211	13347.925
1679.90115	13074.225
1683.16801	12807.725
1686.43272	12649.725
1689.69527	12493.225
1692.95567	12334.325
1696.2139	12208.825
1699.46999	12088.825
1702.72392	12016.225
1705.97571	12091.325
1709.22535	12124.225
1712.47284	12213.625
1715.71819	12245.725
1718.96139	12197.525
1722.20246	12168.225
1725.44139	12109.025
1728.67818	11996.225
1731.91284	11873.225
1735.14537	11808.525
1738.37576	11740.125
1741.60403	11686.725
1744.83017	11659.625
1748.05418	11601.125
1751.27607	11557.025
1754.49584	11492.925
1757.71349	11427.425
1760.92903	11336.925
1764.14244	11326.425
1767.35375	11345.825
1770.56294	11239.125
1773.77002	11230.325
1776.97499	11253.325
1780.17785	11225.225
1783.37861	11226.525
1786.57727	11249.725
1789.77382	11222.425
1792.96828	11237.225
1796.16064	11216.725
1799.3509	11196.625
1802.53907	11160.325
1805.72514	11139.025
1808.90913	11085.125
1812.09102	11058.625
1815.27083	11038.425
1818.44856	11000.425
1821.6242	11003.425
1824.79776	10961.625
1827.96924	10953.225
1831.13864	10914.125
1834.30597	10894.125
1837.47122	10899.625
1840.6344	10889.725
1843.7955	10864.625
1846.95454	10850.125
1850.11151	10839.625
1853.26642	10807.325
1856.41926	10827.225
1859.57004	10848.725
1862.71876	10839.825
1865.86542	10833.725
1869.01003	10861.125
1872.15258	10868.925
1875.29308	10860.625
1878.43152	10834.825
1881.56792	10840.625
1884.70227	10835.525
1887.83457	10818.825
1890.96482	10813.625
1894.09304	10798.725
1897.21921	10806.825
1900.34335	10798.625
1903.46544	10788.625
1906.58551	10785.625
1909.70353	10787.225
1912.81953	10767.925
1915.93349	10746.325
1919.04543	10722.225
1922.15534	10704.225
1925.26322	10689.125
1928.36908	10659.425
1931.47292	10622.825
1934.57473	10562.425
1937.67453	10553.725
1940.77232	10528.725
1943.86808	10497.425
1946.96184	10468.525
1950.05358	10423.325
1953.14331	10397.925
1956.23103	10379.425
1959.31675	10334.425
1962.40046	10290.625
1965.48217	10291.925
1968.56188	10287.325
1971.63959	10243.225
1974.7153	10237.425
1977.78901	10203.625
1980.86073	10128.525
1983.93046	10134.825
1986.99819	10060.325
1990.06394	10020.825
1993.1277	9990.025
1996.18947	9962.425
1999.24925	9921.625
2002.30706	9886.925
2005.36288	9869.725
2008.41672	9850.225
2011.46859	9822.625
2014.51848	9801.225
2017.56639	9732.525
2020.61233	9710.625
2023.6563	9698.725
2026.6983	9674.925
2029.73833	9665.825
2032.7764	9649.325
2035.8125	9619.125
2038.84664	9597.225
2041.87881	9604.025
2044.90903	9560.325
2047.93729	9546.525
2050.96359	9543.125
2053.98794	9522.625
2057.01034	9522.825
2060.03078	9524.925
2063.04927	9497.825
2066.06582	9476.625
2069.08042	9450.525
2072.09307	9445.625
2075.10378	9434.625
2078.11255	9437.825
2081.11938	9444.925
2084.12426	9413.325
2087.12722	9434.525
2090.12824	9411.625
2093.12732	9412.525
2096.12447	9429.925
2099.11969	9427.225
2102.11299	9408.125
2105.10435	9431.525
2108.09379	9408.325
2111.08131	9429.025
2114.0669	9444.025
2117.05057	9445.925
2120.03233	9490.625
2123.01216	9476.525
2125.99008	9498.725
2128.96609	9486.825
2131.94018	9505.125
2134.91236	9481.125
2137.88263	9486.725
2140.851	9500.225
2143.81746	9482.925
2146.78201	9474.625
2149.74466	9472.925
2152.7054	9489.625
2155.66425	9466.125
2158.6212	9466.325
2161.57625	9469.625
2164.52941	9441.125
2167.48067	9453.525
2170.43004	9451.525
2173.37752	9443.425
2176.32311	9435.125
2179.26681	9459.525
2182.20863	9433.025
2185.14856	9445.225
2188.08661	9464.925
2191.02278	9458.125
2193.95707	9458.425
2196.88948	9436.325
2199.82001	9429.325
2202.74867	9403.325
2205.67545	9417.625
2208.60037	9404.325
2211.52341	9386.825
2214.44458	9375.225
2217.36388	9367.925
2220.28132	9353.825
2223.1969	9333.125
2226.11061	9304.425
2229.02246	9280.925
2231.93245	9253.125
2234.84058	9261.225
2237.74686	9253.525
2240.65128	9224.925
2243.55385	9201.425
2246.45456	9212.925
2249.35343	9213.325
2252.25044	9198.925
2255.14561	9202.225
2258.03893	9207.225
2260.93041	9178.625
2263.82004	9180.525
2266.70783	9184.225
2269.59378	9158.525
2272.4779	9139.025
2275.36017	9108.625
2278.24061	9107.325
2281.11922	9065.925
2283.996	9041.525
2286.87094	9028.225
2289.74405	9023.225
2292.61534	8983.525
2295.4848	8959.425
2298.35243	8986.925
2301.21824	8985.825
2304.08223	8966.325
2306.94439	8967.925
2309.80474	8963.125
2312.66327	8968.125
2315.51999	8935.825
2318.37489	8952.725
2321.22797	8942.125
2324.07925	8956.325
2326.92871	8950.925
2329.77637	8925.625
2332.62222	8924.225
2335.46626	8902.325
2338.3085	8899.825
2341.14893	8911.725
2343.98756	8917.525
2346.8244	8940.125
2349.65943	8984.025
2352.49267	8965.125
2355.32411	8988.025
2358.15376	9003.825
2360.98161	9018.225
2363.80768	9017.225
2366.63195	9032.625
2369.45444	9033.625
2372.27514	9009.525
2375.09405	8992.325
2377.91118	8978.625
2380.72652	8941.925
2383.54009	8864.625
2386.35187	8842.225
2389.16188	8793.125
2391.97011	8794.225
2394.77657	8745.925
2397.58125	8736.925
2400.38416	8699.725
2403.18529	8670.625
2405.98466	8658.125
2408.78226	8633.025
2411.57809	8630.425
2414.37216	8617.325
2417.16446	8601.225
2419.955	8597.525
2422.74378	8582.825
2425.5308	8576.325
2428.31606	8568.725
2431.09956	8590.925
2433.88131	8586.625
2436.6613	8581.225
2439.43954	8617.925
2442.21603	8571.125
2444.99077	8590.225
2447.76377	8601.625
2450.53501	8592.325
2453.30451	8602.525
2456.07226	8598.625
2458.83827	8611.225
2461.60254	8599.525
2464.36507	8612.225
2467.12586	8586.725
2469.88492	8573.525
2472.64224	8588.825
2475.39782	8593.125
2478.15167	8589.625
2480.90379	8640.925
2483.65417	8661.225
2486.40283	8695.925
2489.14976	8730.325
2491.89497	8720.325
2494.63845	8720.925
2497.3802	8697.425
2500.12024	8706.625
2502.85855	8694.625
2505.59514	8641.425
2508.33002	8593.325
2511.06318	8550.825
2513.79462	8553.725
2516.52435	8490.725
2519.25237	8479.525
2521.97867	8445.725
2524.70327	8426.325
2527.42616	8401.125
2530.14734	8399.625
2532.86681	8406.525
2535.58458	8407.625
2538.30065	8379.225
2541.01501	8402.025
2543.72768	8393.625
2546.43864	8400.225
2549.14791	8399.325
2551.85548	8399.625
2554.56136	8383.625
2557.26554	8392.925
2559.96803	8390.125
2562.66883	8363.225
2565.36794	8374.025
2568.06536	8351.325
2570.7611	8319.625
2573.45514	8318.225
2576.14751	8312.925
2578.83819	8282.525
2581.52719	8299.025
2584.21451	8278.125
2586.90015	8244.125
2589.58411	8270.725
2592.2664	8258.325
2594.94701	8246.325
2597.62594	8246.725
2600.30321	8245.525
2602.9788	8240.425
2605.65273	8230.125
2608.32498	8249.125
2610.99557	8219.425
2613.66449	8226.125
2616.33175	8222.625
2618.99734	8228.025
2621.66128	8253.325
2624.32355	8202.625
2626.98416	8220.325
2629.64311	8207.225
2632.30041	8187.625
2634.95605	8161.025
2637.61004	8169.825
2640.26238	8157.025
2642.91306	8118.125
2645.56209	8136.025
2648.20948	8105.925
2650.85521	8098.225
2653.4993	8117.525
2656.14175	8132.425
2658.78255	8148.425
2661.42171	8136.925
2664.05923	8158.625
2666.6951	8154.825
2669.32934	8190.125
2671.96194	8168.025
2674.59291	8191.225
2677.22224	8191.725
2679.84993	8202.625
2682.476	8181.425
2685.10043	8176.125
2687.72324	8175.625
2690.34441	8159.525
2692.96396	8162.125
2695.58188	8155.925
2698.19818	8134.625
2700.81285	8149.525
2703.4259	8125.625
2706.03733	8073.325
2708.64714	8095.125
2711.25533	8133.825
2713.86191	8111.125
2716.46687	8163.925
2719.07021	8147.025
2721.67194	8177.325
2724.27206	8156.325
2726.87057	8190.225
2729.46747	8200.325
2732.06276	8182.225
2734.65644	8168.825
2737.24852	8154.225
2739.83899	8140.525
2742.42786	8130.025
2745.01513	8098.525
2747.60079	8112.325
2750.18486	8080.225
2752.76733	8106.225
2755.3482	8072.225
2757.92747	8058.425
2760.50515	8041.725
2763.08123	8058.625
2765.65573	8048.125
2768.22863	8047.125
2770.79994	8035.925
2773.36967	8031.725
2775.9378	8019.525
2778.50435	8040.725
2781.06932	8027.525
2783.6327	8031.925
2786.1945	8036.925
2788.75471	8042.525
2791.31335	8018.625
2793.87041	8035.325
2796.42589	8003.025
2798.97979	7985.325
2801.53212	7990.425
2804.08288	7971.925
2806.63206	7962.925
2809.17967	7980.325
2811.72571	7980.325
2814.27018	7977.825
2816.81308	7978.225
2819.35442	7990.525
2821.89419	8001.025
2824.43239	8009.125
2826.96904	7999.425
2829.50412	7997.925
2832.03763	7972.725
2834.56959	7984.625
2837.1	7999.325
2839.62884	7973.125
2842.15613	7990.825
2844.68186	7990.725
2847.20604	7993.025
2849.72867	8011.725
2852.24974	7999.725
2854.76927	8008.125
2857.28724	8001.925
2859.80367	8003.625
2862.31855	8021.925
2864.83189	8021.625
2867.34368	8008.625
2869.85393	8030.425
2872.36264	8037.025
2874.8698	8034.525
2877.37543	8029.025
2879.87952	8040.425
2882.38207	8037.325
2884.88308	8001.025
2887.38256	8005.825
2889.88051	7992.425
2892.37692	8014.325
2894.8718	8001.825
2897.36515	8011.725
2899.85698	7992.725
2902.34727	8042.925
2904.83604	8020.825
2907.32328	8035.125
2909.809	8024.525
2912.29319	8047.225
2914.77587	8036.425
2917.25702	8015.425
2919.73665	8037.625
2922.21476	7998.325
2924.69136	8007.425
2927.16644	8013.325
2929.64	7968.025
2932.11205	7957.925
2934.58258	7921.525
2937.05161	7939.825
2939.51912	7895.325
2941.98513	7885.925
2944.44962	7873.325
2946.91261	7835.525
2949.37409	7862.825
2951.83407	7834.425
2954.29254	7845.325
2956.74951	7822.325
2959.20498	7821.425
2961.65895	7799.325
2964.11142	7800.425
2966.56239	7783.225
2969.01186	7771.425
2971.45984	7745.225
2973.90632	7737.425
2976.35131	7698.225
2978.7948	7674.925
2981.23681	7668.225
2983.67732	7654.625
2986.11635	7635.425
2988.55388	7612.325
2990.98993	7627.625
2993.4245	7594.725
2995.85758	7610.625
2998.28917	7583.325
3000.71928	7562.025
3003.14791	7578.725
3005.57506	7548.725
3008.00073	7540.425
3010.42493	7557.925
3012.84764	7529.325
3015.26888	7530.625
3017.68865	7538.425
3020.10694	7511.525
3022.52376	7500.925
3024.9391	7467.325
3027.35298	7439.925
3029.76539	7433.425
3032.17632	7428.225
3034.5858	7380.725
3036.9938	7369.825
3039.40034	7360.625
3041.80542	7332.525
3044.20903	7339.325
3046.61118	7342.625
3049.01187	7335.925
3051.4111	7320.025
3053.80888	7278.425
3056.20519	7275.625
3058.60005	7263.825
3060.99345	7245.225
3063.3854	7230.125
3065.7759	7201.525
3068.16494	7205.025
3070.55254	7172.525
3072.93868	7180.325
3075.32338	7146.825
3077.70662	7136.225
3080.08842	7100.125
3082.46878	7116.525
3084.84769	7086.325
3087.22515	7075.425
3089.60118	7087.325
3091.97576	7066.725
3094.3489	7075.925
3096.72061	7056.225
3099.09087	7053.425
3101.4597	7035.225
3103.82709	7044.125
3106.19305	7038.825
3108.55757	7047.525
3110.92066	7011.125
3113.28232	7004.825
3115.64255	6997.925
3118.00134	6985.625
3120.35871	6978.225
3122.71466	6967.525
3125.06917	6952.125
3127.42226	6959.325
3129.77393	6937.025
3132.12417	6915.825
3134.47299	6936.525
3136.82039	6930.125
3139.16636	6960.925
3141.51092	6939.525
3143.85406	6936.225
3146.19579	6943.125
3148.53609	6935.425
3150.87499	6951.725
3153.21246	6933.125
3155.54853	6963.225
3157.88318	6947.625
3160.21642	6980.425
3162.54826	6971.325
3164.87868	6974.025
3167.2077	6953.725
3169.5353	6962.425
3171.86151	6959.725
3174.18631	6970.025
3176.5097	6946.825
3178.83169	6915.025
