Data from AgNPs_FTO_APTES_UA_50uM_CRN_0uM_R6G_10uM_NaF_0.1M_Addition_RamanShift__50__11-08-34-693.txt Node

Date: Mon Feb 21 11:08:34 GMT 2022
User: TCL
Spectrometer: QEP01345
Trigger mode: 4
Integration Time (sec): 7.000000E0
Scans to average: 10
Electric dark correction enabled: true
Nonlinearity correction enabled: false
Boxcar width: 0
XAxis mode: Raman Shifts
Number of Pixels in Spectrum: 1044
>>>>>Begin Spectral Data<<<<<
46.04893	0.7
50.45542	-1.3
54.85868	-0.6
59.25871	-1.6
63.6555	37.1
68.04907	44.7
72.43941	45.2
76.82654	50
81.21044	52.9
85.59113	55.2
89.96862	54.5
94.34289	60.4
98.71396	59.2
103.08183	67.5
107.4465	62.1
111.80798	59.9
116.16626	57.5
120.52136	59.5
124.87327	68.3
129.222	64.8
133.56755	65.6
137.90993	73.2
142.24913	74.5
146.58517	81.5
150.91804	87.6
155.24774	99
159.57429	118.8
163.89768	146.4
168.21792	191.3
172.53501	248.5
176.84895	345.7
181.15975	469.8
185.46741	657.1
189.77193	899.3
194.07331	1200.9
198.37157	1534.8
202.6667	1910.8
206.9587	2269.2
211.24758	2638
215.53334	3001.6
219.81599	3434.3
224.09553	3901.4
228.37195	4440.5
232.64527	5033.6
236.91549	5612.2
241.18261	6164.6
245.44663	6620.2
249.70755	6983
253.96539	7277.3
258.22014	7508.8
262.4718	7667.6
266.72039	7769.7
270.96589	7823.4
275.20832	7778.8
279.44768	7661
283.68397	7505.6
287.91719	7429.5
292.14735	7449.6
296.37445	7606.8
300.59849	7958.9
304.81948	8338
309.03742	8666.2
313.25231	8684.1
317.46415	8269.9
321.67296	7586.8
325.87872	7026.7
330.08145	6730.6
334.28114	6721.9
338.47781	6842.7
342.67145	7043.9
346.86207	7393.3
351.04966	7912.2
355.23424	8470.1
359.4158	8960.7
363.59435	9192.1
367.76989	9250.2
371.94243	9209.6
376.11196	9119.8
380.27849	9009
384.44203	8902.1
388.60257	8746.7
392.76012	8625.5
396.91468	8709.4
401.06626	8944.6
405.21485	9128.1
409.36047	8970.9
413.50311	8449.2
417.64277	7942.8
421.77947	7647
425.9132	7493.3
430.04396	7434.7
434.17176	7471.2
438.2966	7634.9
442.41849	7860.7
446.53742	8187
450.6534	8463.9
454.76644	8643.3
458.87653	8656
462.98368	8521.8
467.08789	8332.8
471.18916	8097.7
475.2875	7837.3
479.38291	7629.8
483.4754	7489.2
487.56496	7390.5
491.6516	7330.8
495.73531	7281.3
499.81612	7319.9
503.89401	7425.3
507.96899	7518.9
512.04106	7640.8
516.11023	7812.9
520.1765	7904.4
524.23987	7914.1
528.30034	7775.3
532.35792	7596.1
536.41261	7387.4
540.46441	7152.7
544.51333	7045.2
548.55936	7063.7
552.60252	7213.8
556.64279	7446.2
560.6802	7546
564.71473	7687.7
568.7464	8091.4
572.7752	8356.5
576.80114	8141.8
580.82422	7809.8
584.84444	7705.3
588.86181	7729.2
592.87633	7814.8
596.888	7937.6
600.89682	8199.7
604.9028	9197.1
608.90594	11986.4
612.90624	15861.3
616.90371	15450.7
620.89834	10583.4
624.89015	8147.8
628.87913	7697.3
632.86528	7726.7
636.84862	7841.9
640.82913	7699
644.80683	7303.8
648.78172	6970.5
652.75379	6973.9
656.72306	7323.8
660.68952	7806
664.65319	7708.2
668.61405	7231.5
672.57211	6984.8
676.52738	6928.6
680.47986	6929.8
684.42955	6855
688.37646	6825.2
692.32058	6857.1
696.26192	6956.5
700.20048	7036.1
704.13626	7121.3
708.06928	7099.9
711.99952	7024.2
715.927	6983.6
719.85171	7014.7
723.77365	7023.6
727.69284	6962.2
731.60928	6868.7
735.52295	6860.3
739.43388	6920.1
743.34206	6966.9
747.24749	7023.4
751.15017	7058.9
755.05012	7252.7
758.94733	7644.9
762.8418	8594.5
766.73354	10188.7
770.62254	11882.6
774.50882	12847.7
778.39237	12443.5
782.27321	10710
786.15132	8840.7
790.02671	7748.1
793.89938	7277.7
797.76935	7105.1
801.6366	7032.4
805.50115	6972.8
809.36299	6992.7
813.22213	6941.8
817.07857	6933.4
820.93231	6885.6
824.78336	6912.4
828.63172	6923.1
832.47738	6946.1
836.32036	6932.9
840.16066	6903.4
843.99827	6866.4
847.8332	6826
851.66546	6815.7
855.49504	6810.5
859.32195	6766.4
863.1462	6734.9
866.96777	6720
870.78668	6708.4
874.60293	6737.6
878.41652	6788
882.22745	6867.9
886.03573	6906.7
889.84136	6903
893.64433	6838.6
897.44466	6809
901.24235	6783.3
905.0374	6745.6
908.8298	6682
912.61957	6663.5
916.40671	6661.2
920.19121	6739.5
923.97308	6831
927.75233	6942.8
931.52895	7014.7
935.30295	6924.8
939.07433	6686.9
942.84309	6517
946.60924	6382.2
950.37278	6321.3
954.13371	6285.1
957.89203	6243.9
961.64774	6222.8
965.40086	6214.8
969.15137	6196.3
972.89929	6186.9
976.64461	6161.4
980.38733	6175.8
984.12747	6191.6
987.86502	6233
991.59999	6278.7
995.33237	6390.1
999.06217	6577.1
1002.78939	6797.9
1006.51404	6993.9
1010.23611	7158.8
1013.95561	7275.6
1017.67255	7278.6
1021.38692	7143.1
1025.09872	7001.8
1028.80796	6942.9
1032.51465	7010.4
1036.21877	7120.1
1039.92035	7224.3
1043.61937	7208.3
1047.31584	7141.3
1051.00976	7046.3
1054.70114	6966.8
1058.38998	6932
1062.07627	6952.7
1065.76003	6985.3
1069.44126	7030.7
1073.11995	7137.1
1076.79611	7277
1080.46974	7422.6
1084.14085	7635.2
1087.80943	7889.8
1091.47549	7956.3
1095.13903	7791.1
1098.80005	7480.9
1102.45857	7190.8
1106.11456	7081.8
1109.76805	7163.8
1113.41903	7352
1117.06751	7657.4
1120.71348	8092.6
1124.35696	8561.8
1127.99793	8931.7
1131.63641	8837.3
1135.2724	8373.7
1138.90589	7916.3
1142.5369	7607.5
1146.16542	7415.6
1149.79145	7293
1153.415	7267.5
1157.03607	7339
1160.65467	7480.7
1164.27079	7799.4
1167.88443	8258.7
1171.49561	9026.9
1175.10432	10324.3
1178.71056	12033.3
1182.31434	13337.1
1185.91565	13714.5
1189.51451	13320
1193.11091	12461.1
1196.70485	11413.9
1200.29634	10648.9
1203.88538	10008.6
1207.47197	9283.5
1211.05612	8654.6
1214.63782	8312.7
1218.21708	8213.1
1221.79391	8246.1
1225.36829	8282.9
1228.94024	8277.6
1232.50976	8280.2
1236.07685	8277.6
1239.6415	8256.7
1243.20374	8266.8
1246.76355	8293.3
1250.32093	8372.9
1253.8759	8566.9
1257.42845	8885.7
1260.97859	9191.2
1264.52631	9532.8
1268.07163	9827.6
1271.61453	10116.5
1275.15503	10354.1
1278.69312	10492.1
1282.22882	10663.4
1285.76211	10979.5
1289.29301	11423.9
1292.82151	11814.6
1296.34761	12295.3
1299.87133	13035.6
1303.39266	14181.6
1306.9116	15941.7
1310.42815	17877.6
1313.94233	18871.4
1317.45412	18327.1
1320.96354	16881.9
1324.47058	15269.5
1327.97525	14014.6
1331.47754	13283.2
1334.97747	13095.3
1338.47502	13220.6
1341.97022	13612.4
1345.46305	14189.7
1348.95352	15039.7
1352.44163	16301.6
1355.92738	18139.5
1359.41078	20859.5
1362.89183	23090.8
1366.37053	22190.4
1369.84688	18865.1
1373.32088	15578.8
1376.79254	13332.3
1380.26186	12053
1383.72883	11344.9
1387.19347	10815.2
1390.65578	10311.1
1394.11575	9972.3
1397.57339	9860
1401.0287	9962.5
1404.48168	10114.1
1407.93234	10291.8
1411.38068	10423.2
1414.82669	10459.7
1418.27039	10252.3
1421.71177	9963.7
1425.15083	9721.3
1428.58758	9614.2
1432.02203	9707.2
1435.45416	9794.9
1438.88399	9839.2
1442.31151	9839.5
1445.73673	9856.6
1449.15965	9936.1
1452.58027	9915.2
1455.9986	9797.5
1459.41463	9795.8
1462.82837	9879.3
1466.23982	10104.3
1469.64898	10341.2
1473.05586	10506.2
1476.46045	10619.2
1479.86276	10840
1483.26279	11097.9
1486.66054	11432.9
1490.05602	11916.3
1493.44922	12615.3
1496.84016	13600.3
1500.22882	15076.3
1503.61521	17112
1506.99934	19261
1510.38121	20956.7
1513.76081	21365.9
1517.13816	19866.4
1520.51324	17177.8
1523.88607	14638.8
1527.25665	13047.5
1530.62498	12176.8
1533.99105	11682.9
1537.35488	11385.6
1540.71647	11205
1544.07581	11154.9
1547.4329	11102.2
1550.78776	11017.5
1554.14038	10939.8
1557.49077	10893
1560.83892	11001
1564.18484	11294.8
1567.52853	11685.8
1570.86999	12082.1
1574.20922	12320.7
1577.54624	12217.9
1580.88103	11572.1
1584.2136	10724.5
1587.54395	10293.7
1590.87208	10510.5
1594.19801	11257.9
1597.52172	12251.5
1600.84321	12747.6
1604.16251	12395.7
1607.47959	11465.5
1610.79447	10400.5
1614.10715	9400.2
1617.41763	8647.5
1620.7259	8203.3
1624.03199	8011.8
1627.33587	8010.9
1630.63757	8253.5
1633.93707	8700.8
1637.23439	9427.3
1640.52951	10530.4
1643.82246	11950.2
1647.11321	13529.4
1650.40179	14562.4
1653.68819	14025
1656.97241	12011.8
1660.25446	9813.2
1663.53433	8302.5
1666.81203	7420.9
1670.08756	6923.3
1673.36092	6643
1676.63211	6457.8
1679.90115	6335.2
1683.16801	6209.4
1686.43272	6155.3
1689.69527	6052.8
1692.95567	5970
1696.2139	5866
1699.46999	5739.3
1702.72392	5709.2
1705.97571	5778.7
1709.22535	5862.4
1712.47284	5945.5
1715.71819	5970
1718.96139	5959.2
1722.20246	5973.7
1725.44139	5941.8
1728.67818	5897.5
1731.91284	5837.1
1735.14537	5789.2
1738.37576	5761.2
1741.60403	5740.8
1744.83017	5685.9
1748.05418	5655.5
1751.27607	5613.8
1754.49584	5561
1757.71349	5488.9
1760.92903	5439.9
1764.14244	5427.2
1767.35375	5418.1
1770.56294	5420.1
1773.77002	5429.4
1776.97499	5476
1780.17785	5495.2
1783.37861	5520.4
1786.57727	5519.8
1789.77382	5520.6
1792.96828	5534.6
1796.16064	5506.3
1799.3509	5517.7
1802.53907	5509.4
1805.72514	5497.5
1808.90913	5464.4
1812.09102	5473.6
1815.27083	5439.2
1818.44856	5441.8
1821.6242	5426.6
1824.79776	5407.4
1827.96924	5406.5
1831.13864	5397.9
1834.30597	5381.4
1837.47122	5397.6
1840.6344	5398.6
1843.7955	5392.8
1846.95454	5371.4
1850.11151	5372.6
1853.26642	5351.1
1856.41926	5353.1
1859.57004	5370.2
1862.71876	5383
1865.86542	5367.4
1869.01003	5377.3
1872.15258	5371.9
1875.29308	5389.4
1878.43152	5385.8
1881.56792	5387.1
1884.70227	5399.9
1887.83457	5384.3
1890.96482	5385.9
1894.09304	5384.9
1897.21921	5374.5
1900.34335	5379.8
1903.46544	5377.7
1906.58551	5376.4
1909.70353	5379.7
1912.81953	5385
1915.93349	5376.1
1919.04543	5388.1
1922.15534	5364.3
1925.26322	5372.2
1928.36908	5347.9
1931.47292	5311.2
1934.57473	5277.4
1937.67453	5272.9
1940.77232	5248.2
1943.86808	5222.1
1946.96184	5216.5
1950.05358	5183
1953.14331	5168.3
1956.23103	5141.5
1959.31675	5120.5
1962.40046	5110.4
1965.48217	5073.1
1968.56188	5092.4
1971.63959	5069.7
1974.7153	5057.6
1977.78901	5049.7
1980.86073	5021.5
1983.93046	4998.5
1986.99819	4979.2
1990.06394	4945
1993.1277	4947.7
1996.18947	4915.6
1999.24925	4900.5
2002.30706	4893.7
2005.36288	4889.2
2008.41672	4870.3
2011.46859	4849.9
2014.51848	4836.4
2017.56639	4810.6
2020.61233	4799.6
2023.6563	4807.9
2026.6983	4775.5
2029.73833	4761.8
2032.7764	4749
2035.8125	4732.6
2038.84664	4739.8
2041.87881	4745.4
2044.90903	4715.7
2047.93729	4716.1
2050.96359	4695
2053.98794	4697.9
2057.01034	4707.2
2060.03078	4688.4
2063.04927	4678.5
2066.06582	4681.4
2069.08042	4657.3
2072.09307	4660.6
2075.10378	4644.9
2078.11255	4648.8
2081.11938	4669.4
2084.12426	4645
2087.12722	4665
2090.12824	4635.6
2093.12732	4633.1
2096.12447	4651.2
2099.11969	4640.2
2102.11299	4625.4
2105.10435	4643.2
2108.09379	4657.1
2111.08131	4637
2114.0669	4645
2117.05057	4642.7
2120.03233	4653.5
2123.01216	4652.9
2125.99008	4657.4
2128.96609	4678
2131.94018	4664.1
2134.91236	4657.5
2137.88263	4659.7
2140.851	4675.9
2143.81746	4664.9
2146.78201	4655.7
2149.74466	4649.1
2152.7054	4651
2155.66425	4645.4
2158.6212	4638.6
2161.57625	4650.9
2164.52941	4646.2
2167.48067	4618.5
2170.43004	4629.9
2173.37752	4630
2176.32311	4648.6
2179.26681	4640.9
2182.20863	4626.9
2185.14856	4630.2
2188.08661	4626.6
2191.02278	4637.5
2193.95707	4624.2
2196.88948	4618
2199.82001	4617.4
2202.74867	4611.9
2205.67545	4599
2208.60037	4591.3
2211.52341	4600
2214.44458	4578.3
2217.36388	4572.3
2220.28132	4584.8
2223.1969	4556.4
2226.11061	4547.3
2229.02246	4532.1
2231.93245	4528.1
2234.84058	4524.1
2237.74686	4497.1
2240.65128	4495.3
2243.55385	4492.2
2246.45456	4497.3
2249.35343	4481.8
2252.25044	4502.4
2255.14561	4493.9
2258.03893	4482
2260.93041	4436.9
2263.82004	4459.2
2266.70783	4460.3
2269.59378	4461.6
2272.4779	4445.1
2275.36017	4423.8
2278.24061	4411.5
2281.11922	4401.7
2283.996	4398.7
2286.87094	4388.1
2289.74405	4374.4
2292.61534	4362.4
2295.4848	4370.8
2298.35243	4362.1
2301.21824	4344.2
2304.08223	4360.5
2306.94439	4345.9
2309.80474	4349.4
2312.66327	4362.4
2315.51999	4347.7
2318.37489	4341.4
2321.22797	4345
2324.07925	4327.9
2326.92871	4335.4
2329.77637	4327.2
2332.62222	4312.8
2335.46626	4309.5
2338.3085	4304.6
2341.14893	4316.2
2343.98756	4316.2
2346.8244	4308.3
2349.65943	4314.7
2352.49267	4327
2355.32411	4320.1
2358.15376	4323.2
2360.98161	4344
2363.80768	4344.9
2366.63195	4339.5
2369.45444	4337.1
2372.27514	4322.3
2375.09405	4311.1
2377.91118	4322
2380.72652	4297.5
2383.54009	4278.9
2386.35187	4262.1
2389.16188	4235.5
2391.97011	4243.2
2394.77657	4212.1
2397.58125	4202.6
2400.38416	4206.2
2403.18529	4179
2405.98466	4178.2
2408.78226	4173.1
2411.57809	4160
2414.37216	4153.2
2417.16446	4156.8
2419.955	4150.7
2422.74378	4148.1
2425.5308	4129.8
2428.31606	4121.3
2431.09956	4126.2
2433.88131	4134.8
2436.6613	4147.9
2439.43954	4128.2
2442.21603	4139.1
2444.99077	4128.9
2447.76377	4146
2450.53501	4126.3
2453.30451	4134
2456.07226	4118.6
2458.83827	4136
2461.60254	4118.6
2464.36507	4110.3
2467.12586	4106.6
2469.88492	4109.6
2472.64224	4108.7
2475.39782	4104.7
2478.15167	4101.4
2480.90379	4130.2
2483.65417	4139.1
2486.40283	4152.8
2489.14976	4169.1
2491.89497	4169.1
2494.63845	4150.3
2497.3802	4140.1
2500.12024	4169.4
2502.85855	4160.1
2505.59514	4125.8
2508.33002	4130.5
2511.06318	4105.2
2513.79462	4082.1
2516.52435	4073.9
2519.25237	4062.6
2521.97867	4047.5
2524.70327	4030.8
2527.42616	4036.1
2530.14734	4034.4
2532.86681	4031.9
2535.58458	4030.1
2538.30065	4030.1
2541.01501	4028.8
2543.72768	4022.5
2546.43864	4019
2549.14791	4022.4
2551.85548	4017.3
2554.56136	4008.9
2557.26554	4002.2
2559.96803	3993
2562.66883	3990
2565.36794	4000.9
2568.06536	3999.1
2570.7611	3956.2
2573.45514	3957.6
2576.14751	3977.6
2578.83819	3970.5
2581.52719	3966.4
2584.21451	3965.3
2586.90015	3937.2
2589.58411	3948
2592.2664	3927.4
2594.94701	3935
2597.62594	3934.8
2600.30321	3922
2602.9788	3934.2
2605.65273	3950.4
2608.32498	3946.7
2610.99557	3949
2613.66449	3942.2
2616.33175	3921.1
2618.99734	3937.1
2621.66128	3939.8
2624.32355	3922.4
2626.98416	3917.4
2629.64311	3898.2
2632.30041	3906.3
2634.95605	3900.6
2637.61004	3889.3
2640.26238	3875.4
2642.91306	3888.2
2645.56209	3880.6
2648.20948	3858.4
2650.85521	3861.7
2653.4993	3868.7
2656.14175	3863.5
2658.78255	3878.5
2661.42171	3877.8
2664.05923	3876
2666.6951	3891
2669.32934	3887.2
2671.96194	3896.2
2674.59291	3906.2
2677.22224	3912.6
2679.84993	3921.1
2682.476	3912.8
2685.10043	3913.4
2687.72324	3913.8
2690.34441	3908
2692.96396	3903
2695.58188	3915.3
2698.19818	3905.1
2700.81285	3892.5
2703.4259	3845.5
2706.03733	3780.9
2708.64714	3823.2
2711.25533	3879.1
2713.86191	3898.4
2716.46687	3904.5
2719.07021	3931.5
2721.67194	3920.2
2724.27206	3920.2
2726.87057	3918.6
2729.46747	3928
2732.06276	3938
2734.65644	3920
2737.24852	3922.6
2739.83899	3913
2742.42786	3906.5
2745.01513	3911
2747.60079	3897.2
2750.18486	3899.8
2752.76733	3894.7
2755.3482	3894.6
2757.92747	3874.4
2760.50515	3873.4
2763.08123	3874.9
2765.65573	3872.3
2768.22863	3866.6
2770.79994	3859.5
2773.36967	3876.9
2775.9378	3865
2778.50435	3882.5
2781.06932	3874.9
2783.6327	3875.7
2786.1945	3879
2788.75471	3878.4
2791.31335	3858.8
2793.87041	3861.9
2796.42589	3862.5
2798.97979	3869.1
2801.53212	3859.6
2804.08288	3859.5
2806.63206	3867.2
2809.17967	3869.4
2811.72571	3864.5
2814.27018	3869.2
2816.81308	3873.7
2819.35442	3869.4
2821.89419	3886.7
2824.43239	3885.7
2826.96904	3869.6
2829.50412	3889
2832.03763	3895.1
2834.56959	3885.6
2837.1	3883.9
2839.62884	3907.8
2842.15613	3909.5
2844.68186	3925.2
2847.20604	3933.6
2849.72867	3948.9
2852.24974	3950
2854.76927	3942.6
2857.28724	3911.1
2859.80367	3919.1
2862.31855	3927.1
2864.83189	3924.5
2867.34368	3922.5
2869.85393	3939.5
2872.36264	3932.8
2874.8698	3947.5
2877.37543	3931.1
2879.87952	3941.9
2882.38207	3931.2
2884.88308	3918.7
2887.38256	3913.6
2889.88051	3891.8
2892.37692	3920
2894.8718	3910.9
2897.36515	3900.7
2899.85698	3907.2
2902.34727	3913.8
2904.83604	3909.7
2907.32328	3915.8
2909.809	3910.4
2912.29319	3925.4
2914.77587	3918.3
2917.25702	3915.4
2919.73665	3899.9
2922.21476	3886.5
2924.69136	3896
2927.16644	3887.6
2929.64	3861.4
2932.11205	3868.4
2934.58258	3851.7
2937.05161	3846.1
2939.51912	3836.9
2941.98513	3828
2944.44962	3796
2946.91261	3778.6
2949.37409	3770.4
2951.83407	3766
2954.29254	3760.2
2956.74951	3745.2
2959.20498	3731.7
2961.65895	3720.3
2964.11142	3724.4
2966.56239	3708
2969.01186	3712.7
2971.45984	3688.6
2973.90632	3680.1
2976.35131	3667
2978.7948	3669.5
2981.23681	3661.2
2983.67732	3648.9
2986.11635	3636.7
2988.55388	3617.3
2990.98993	3611
2993.4245	3602.8
2995.85758	3604.3
2998.28917	3582.7
3000.71928	3589.6
3003.14791	3565.6
3005.57506	3584.9
3008.00073	3557.2
3010.42493	3552.1
3012.84764	3548.7
3015.26888	3550.9
3017.68865	3554.7
3020.10694	3530.9
3022.52376	3525.7
3024.9391	3528.5
3027.35298	3509.5
3029.76539	3520.4
3032.17632	3493.6
3034.5858	3495.7
3036.9938	3492.5
3039.40034	3483.4
3041.80542	3479.7
3044.20903	3469.7
3046.61118	3474.8
3049.01187	3459.2
3051.4111	3457.1
3053.80888	3459.6
3056.20519	3450.9
3058.60005	3454
3060.99345	3437.7
3063.3854	3426.6
3065.7759	3427.1
3068.16494	3430.2
3070.55254	3404.8
3072.93868	3395.9
3075.32338	3380.9
3077.70662	3378.2
3080.08842	3360.2
3082.46878	3373.9
3084.84769	3343.8
3087.22515	3364.6
3089.60118	3359.7
3091.97576	3349
3094.3489	3348.5
3096.72061	3346.8
3099.09087	3368.8
3101.4597	3364
3103.82709	3331.3
3106.19305	3349.8
3108.55757	3326.7
3110.92066	3330
3113.28232	3331.7
3115.64255	3326.6
3118.00134	3322.4
3120.35871	3325
3122.71466	3305.5
3125.06917	3314.7
3127.42226	3305.2
3129.77393	3298.9
3132.12417	3304.2
3134.47299	3315.6
3136.82039	3314
3139.16636	3313.2
3141.51092	3321.3
3143.85406	3325.1
3146.19579	3328.2
3148.53609	3335.9
3150.87499	3330.8
3153.21246	3327.2
3155.54853	3345
3157.88318	3332.7
3160.21642	3345.3
3162.54826	3349.7
3164.87868	3347.9
3167.2077	3353.8
3169.5353	3348.4
3171.86151	3356.6
3174.18631	3349.8
3176.5097	3340.3
3178.83169	3361.3
3181.15228	3344.8
3183.47147	3354.8
3185.78926	3347.4
3188.10565	3357
3190.42065	3355.7
3192.73424	3346.8
3195.04645	3348.9
3197.35725	3352.5
3199.66667	3354.7
3201.97469	3369.6
3204.28132	3361.2
3206.58656	3382.6
3208.8904	3376.5
3211.19287	3380.5
3213.49394	3397.8
3215.79363	3382.6
3218.09193	3400.5
3220.38884	3345.6
3222.68438	3359.1
3224.97853	3363
3227.2713	3377.1
3229.56269	3378.7
3231.8527	3395.5
3234.14133	3392
3236.42858	3366.4
3238.71446	3373.6
3240.99896	3367.2
3243.28209	3369.2
3245.56384	3362.4
3247.84423	3371
3250.12324	3350.1
3252.40088	3358.9
3254.67715	3342
3256.95205	3337.3
3259.22558	3343.6
3261.49775	3341.5
3263.76855	3335.4
3266.03799	3327.9
3268.30606	3326.3
3270.57277	3326
3272.83812	3309.1
3275.10211	3316.8
3277.36474	3301.1
3279.62601	3308.1
3281.88593	3300
3284.14448	3306.9
3286.40168	3303.2
3288.65753	3299.9
3290.91202	3296.6
3293.16516	3296
3295.41695	3280.1
3297.66738	3269.6
3299.91647	3243.4
3302.16421	3223.1
3304.4106	3228.3
3306.65564	3190.6
3308.89933	3170.9
3311.14169	3147.7
3313.38269	3108
3315.62236	3098
3317.86068	3072.4
3320.09766	3064.4
3322.3333	3034.9
3324.5676	3015.8
3326.80056	2940
3329.03219	2922.1
3331.26248	1.1
3333.49143	-0.3
3335.71905	0.8
