Data from AgNPs_FTO_APTES_UA_50uM_CRN_10uM_R6G_10uM_NaF_0.1M_Addition_RamanShift__19__13-35-34-885.txt Node

Date: Mon Feb 21 13:35:34 GMT 2022
User: TCL
Spectrometer: QEP01345
Trigger mode: 4
Integration Time (sec): 7.000000E0
Scans to average: 10
Electric dark correction enabled: true
Nonlinearity correction enabled: false
Boxcar width: 0
XAxis mode: Raman Shifts
Number of Pixels in Spectrum: 1044
>>>>>Begin Spectral Data<<<<<
46.04893	1.1875
50.45542	-1.3125
54.85868	0.1875
59.25871	-0.7125
63.6555	70.6875
68.04907	72.6875
72.43941	75.4875
76.82654	79.7875
81.21044	84.2875
85.59113	84.6875
89.96862	90.0875
94.34289	96.2875
98.71396	95.4875
103.08183	103.1875
107.4465	103.9875
111.80798	101.6875
116.16626	104.6875
120.52136	110.2875
124.87327	118.0875
129.222	118.3875
133.56755	123.9875
137.90993	138.9875
142.24913	147.7875
146.58517	164.4875
150.91804	193.7875
155.24774	232.4875
159.57429	284.1875
163.89768	366.4875
168.21792	488.4875
172.53501	668.1875
176.84895	929.5875
181.15975	1300.9875
185.46741	1827.6875
189.77193	2514.5875
194.07331	3369.5875
198.37157	4345.5875
202.6667	5366.1875
206.9587	6402.6875
211.24758	7435.0875
215.53334	8493.5875
219.81599	9679.5875
224.09553	11021.1875
228.37195	12543.4875
232.64527	14166.5875
236.91549	15828.9875
241.18261	17297.7875
245.44663	18523.5875
249.70755	19498.7875
253.96539	20283.9875
258.22014	20968.9875
262.4718	21595.1875
266.72039	22062.6875
270.96589	22237.2875
275.20832	22149.1875
279.44768	21831.4875
283.68397	21479.4875
287.91719	21177.4875
292.14735	21118.3875
296.37445	21425.1875
300.59849	21996.5875
304.81948	22663.4875
309.03742	23100.1875
313.25231	23002.3875
317.46415	22209.6875
321.67296	20972.9875
325.87872	19909.4875
330.08145	19444.8875
334.28114	19381.7875
338.47781	19558.4875
342.67145	19998.0875
346.86207	20611.0875
351.04966	21513.8875
355.23424	22486.4875
359.4158	23234.6875
363.59435	23689.3875
367.76989	23870.0875
371.94243	23862.1875
376.11196	23834.5875
380.27849	23781.7875
384.44203	23696.2875
388.60257	23621.1875
392.76012	23587.6875
396.91468	23738.2875
401.06626	24183.8875
405.21485	24485.0875
409.36047	24067.7875
413.50311	23101.3875
417.64277	22161.9875
421.77947	21718.8875
425.9132	21553.1875
430.04396	21587.1875
434.17176	21721.1875
438.2966	22065.3875
442.41849	22599.1875
446.53742	23417.9875
450.6534	24236.9875
454.76644	24715.6875
458.87653	24792.4875
462.98368	24576.8875
467.08789	24184.1875
471.18916	23670.0875
475.2875	23148.7875
479.38291	22756.0875
483.4754	22431.2875
487.56496	22103.9875
491.6516	21790.8875
495.73531	21572.1875
499.81612	21505.0875
503.89401	21779.4875
507.96899	21983.0875
512.04106	22095.0875
516.11023	22167.3875
520.1765	22210.7875
524.23987	22053.1875
528.30034	21886.2875
532.35792	21695.3875
536.41261	21319.7875
540.46441	20958.4875
544.51333	20775.8875
548.55936	20912.4875
552.60252	21393.0875
556.64279	22080.3875
560.6802	22490.1875
564.71473	22895.3875
568.7464	23681.9875
572.7752	24375.7875
576.80114	24324.1875
580.82422	24084.8875
584.84444	24160.0875
588.86181	24703.2875
592.87633	25443.6875
596.888	25818.4875
600.89682	25692.9875
604.9028	27278.4875
608.90594	32776.0875
612.90624	39385.0875
616.90371	36524.5875
620.89834	26794.0875
624.89015	22350.5875
628.87913	21604.7875
632.86528	21861.1875
636.84862	22163.7875
640.82913	21752.0875
644.80683	20775.4875
648.78172	20000.9875
652.75379	19939.9875
656.72306	20578.6875
660.68952	21450.9875
664.65319	21149.0875
668.61405	20275.1875
672.57211	20099.8875
676.52738	20249.4875
680.47986	20255.6875
684.42955	20045.4875
688.37646	19854.0875
692.32058	19894.1875
696.26192	20092.8875
700.20048	20322.8875
704.13626	20440.1875
708.06928	20340.0875
711.99952	20094.1875
715.927	20028.5875
719.85171	20145.3875
723.77365	20162.0875
727.69284	19922.2875
731.60928	19710.4875
735.52295	19661.4875
739.43388	19756.9875
743.34206	19870.7875
747.24749	19974.3875
751.15017	20105.8875
755.05012	20426.6875
758.94733	21357.8875
762.8418	23553.0875
766.73354	27329.6875
770.62254	31082.6875
774.50882	32490.5875
778.39237	30789.3875
782.27321	27045.6875
786.15132	23547.2875
790.02671	21353.1875
793.89938	20298.5875
797.76935	19830.6875
801.6366	19660.8875
805.50115	19489.8875
809.36299	19353.1875
813.22213	19126.7875
817.07857	18956.3875
820.93231	18900.3875
824.78336	18855.2875
828.63172	18872.9875
832.47738	18806.9875
836.32036	18762.5875
840.16066	18724.5875
843.99827	18712.5875
847.8332	18692.8875
851.66546	18685.2875
855.49504	18661.2875
859.32195	18740.5875
863.1462	18684.9875
866.96777	18603.3875
870.78668	18599.9875
874.60293	18601.7875
878.41652	18717.1875
882.22745	18774.4875
886.03573	18916.3875
889.84136	18934.1875
893.64433	18842.4875
897.44466	18744.0875
901.24235	18686.2875
905.0374	18516.8875
908.8298	18334.7875
912.61957	18217.2875
916.40671	18303.0875
920.19121	18521.9875
923.97308	18792.2875
927.75233	18963.1875
931.52895	19030.0875
935.30295	18811.1875
939.07433	18291.5875
942.84309	17866.7875
946.60924	17638.2875
950.37278	17553.9875
954.13371	17548.2875
957.89203	17477.9875
961.64774	17416.6875
965.40086	17357.7875
969.15137	17303.4875
972.89929	17239.8875
976.64461	17195.1875
980.38733	17184.1875
984.12747	17229.5875
987.86502	17369.8875
991.59999	17628.7875
995.33237	17968.5875
999.06217	18533.8875
1002.78939	19257.0875
1006.51404	19863.3875
1010.23611	20413.7875
1013.95561	20690.1875
1017.67255	20646.0875
1021.38692	20336.1875
1025.09872	19862.4875
1028.80796	19661.0875
1032.51465	19819.5875
1036.21877	20088.4875
1039.92035	20190.5875
1043.61937	20058.6875
1047.31584	19856.0875
1051.00976	19590.5875
1054.70114	19418.2875
1058.38998	19402.5875
1062.07627	19504.2875
1065.76003	19618.4875
1069.44126	19787.3875
1073.11995	20112.3875
1076.79611	20537.5875
1080.46974	20928.2875
1084.14085	21504.2875
1087.80943	22058.3875
1091.47549	22364.0875
1095.13903	22165.8875
1098.80005	21594.5875
1102.45857	21046.2875
1106.11456	20729.2875
1109.76805	20713.0875
1113.41903	21083.4875
1117.06751	21633.9875
1120.71348	22361.7875
1124.35696	23153.8875
1127.99793	23844.0875
1131.63641	23912.9875
1135.2724	23227.4875
1138.90589	22505.7875
1142.5369	22019.1875
1146.16542	21742.9875
1149.79145	21577.1875
1153.415	21621.0875
1157.03607	21947.6875
1160.65467	22529.9875
1164.27079	23642.4875
1167.88443	25270.0875
1171.49561	27556.3875
1175.10432	30852.7875
1178.71056	35176.1875
1182.31434	39139.1875
1185.91565	40705.1875
1189.51451	39901.2875
1193.11091	37811.8875
1196.70485	35276.4875
1200.29634	32976.9875
1203.88538	31065.4875
1207.47197	29264.9875
1211.05612	27767.7875
1214.63782	26825.3875
1218.21708	26497.5875
1221.79391	26504.7875
1225.36829	26657.5875
1228.94024	26498.5875
1232.50976	25845.8875
1236.07685	25281.9875
1239.6415	24876.5875
1243.20374	24823.1875
1246.76355	24885.1875
1250.32093	25254.7875
1253.8759	25880.6875
1257.42845	26791.0875
1260.97859	27897.5875
1264.52631	29185.3875
1268.07163	30421.4875
1271.61453	31608.1875
1275.15503	32608.4875
1278.69312	33475.1875
1282.22882	34221.5875
1285.76211	35216.4875
1289.29301	36540.1875
1292.82151	38223.1875
1296.34761	40273.0875
1299.87133	43064.3875
1303.39266	46781.2875
1306.9116	51628.2875
1310.42815	56436.0875
1313.94233	59031.3875
1317.45412	57924.6875
1320.96354	54795.0875
1324.47058	51565.1875
1327.97525	48742.3875
1331.47754	46801.8875
1334.97747	45869.0875
1338.47502	45670.6875
1341.97022	46015.0875
1345.46305	46743.4875
1348.95352	47870.8875
1352.44163	49705.6875
1355.92738	52946.1875
1359.41078	58358.5875
1362.89183	63466.5875
1366.37053	61633.8875
1369.84688	52904.0875
1373.32088	44287.0875
1376.79254	39072.3875
1380.26186	36609.2875
1383.72883	35497.9875
1387.19347	34710.3875
1390.65578	33943.6875
1394.11575	33576.2875
1397.57339	33729.3875
1401.0287	34114.2875
1404.48168	34422.6875
1407.93234	34455.7875
1411.38068	34157.4875
1414.82669	33369.7875
1418.27039	32379.3875
1421.71177	31253.3875
1425.15083	30264.1875
1428.58758	29822.6875
1432.02203	30183.0875
1435.45416	30908.6875
1438.88399	31572.3875
1442.31151	32027.7875
1445.73673	32370.9875
1449.15965	32780.4875
1452.58027	33014.9875
1455.9986	33141.3875
1459.41463	33467.6875
1462.82837	34104.3875
1466.23982	34855.3875
1469.64898	35503.1875
1473.05586	35770.7875
1476.46045	35750.2875
1479.86276	35540.1875
1483.26279	35428.3875
1486.66054	35651.5875
1490.05602	36279.9875
1493.44922	37232.4875
1496.84016	38848.5875
1500.22882	41652.6875
1503.61521	45813.5875
1506.99934	50787.8875
1510.38121	54507.6875
1513.76081	54727.0875
1517.13816	51012.8875
1520.51324	45377.3875
1523.88607	40588.2875
1527.25665	37648.8875
1530.62498	36234.3875
1533.99105	35426.0875
1537.35488	34740.6875
1540.71647	34009.1875
1544.07581	33313.7875
1547.4329	32690.8875
1550.78776	32216.7875
1554.14038	32032.5875
1557.49077	32133.3875
1560.83892	32471.1875
1564.18484	33115.3875
1567.52853	33968.1875
1570.86999	34727.6875
1574.20922	35418.1875
1577.54624	35389.6875
1580.88103	34304.5875
1584.2136	32925.3875
1587.54395	32751.1875
1590.87208	34044.6875
1594.19801	36544.3875
1597.52172	39373.5875
1600.84321	40220.0875
1604.16251	38409.0875
1607.47959	35178.9875
1610.79447	31851.5875
1614.10715	28760.3875
1617.41763	26157.0875
1620.7259	24463.8875
1624.03199	23628.3875
1627.33587	23675.2875
1630.63757	24592.0875
1633.93707	26576.4875
1637.23439	29887.5875
1640.52951	34775.2875
1643.82246	40762.3875
1647.11321	46051.7875
1650.40179	47909.3875
1653.68819	44502.1875
1656.97241	37236.9875
1660.25446	30053.7875
1663.53433	24981.7875
1666.81203	21923.1875
1670.08756	20110.9875
1673.36092	19046.9875
1676.63211	18348.0875
1679.90115	17844.9875
1683.16801	17467.2875
1686.43272	17174.5875
1689.69527	16943.3875
1692.95567	16755.9875
1696.2139	16539.0875
1699.46999	16377.0875
1702.72392	16283.5875
1705.97571	16332.2875
1709.22535	16331.0875
1712.47284	16385.1875
1715.71819	16360.5875
1718.96139	16299.6875
1722.20246	16222.4875
1725.44139	16085.9875
1728.67818	15917.5875
1731.91284	15806.5875
1735.14537	15671.0875
1738.37576	15584.6875
1741.60403	15534.5875
1744.83017	15475.1875
1748.05418	15396.2875
1751.27607	15328.6875
1754.49584	15263.0875
1757.71349	15169.4875
1760.92903	15128.5875
1764.14244	15052.3875
1767.35375	15024.9875
1770.56294	14999.9875
1773.77002	14937.0875
1776.97499	14903.7875
1780.17785	14908.5875
1783.37861	14891.0875
1786.57727	14876.8875
1789.77382	14840.7875
1792.96828	14858.3875
1796.16064	14820.3875
1799.3509	14776.2875
1802.53907	14742.4875
1805.72514	14699.8875
1808.90913	14653.9875
1812.09102	14626.3875
1815.27083	14578.7875
1818.44856	14523.9875
1821.6242	14541.8875
1824.79776	14503.2875
1827.96924	14498.4875
1831.13864	14481.9875
1834.30597	14487.5875
1837.47122	14512.7875
1840.6344	14464.8875
1843.7955	14492.6875
1846.95454	14450.7875
1850.11151	14499.3875
1853.26642	14455.8875
1856.41926	14447.1875
1859.57004	14448.2875
1862.71876	14409.9875
1865.86542	14405.0875
1869.01003	14394.6875
1872.15258	14353.9875
1875.29308	14369.1875
1878.43152	14368.1875
1881.56792	14385.5875
1884.70227	14378.0875
1887.83457	14360.4875
1890.96482	14358.5875
1894.09304	14335.7875
1897.21921	14321.9875
1900.34335	14301.8875
1903.46544	14308.9875
1906.58551	14271.4875
1909.70353	14254.2875
1912.81953	14220.3875
1915.93349	14180.3875
1919.04543	14162.1875
1922.15534	14089.4875
1925.26322	14029.5875
1928.36908	13983.8875
1931.47292	13940.8875
1934.57473	13857.2875
1937.67453	13822.0875
1940.77232	13770.8875
1943.86808	13714.7875
1946.96184	13708.6875
1950.05358	13652.8875
1953.14331	13636.3875
1956.23103	13571.6875
1959.31675	13524.9875
1962.40046	13500.9875
1965.48217	13447.0875
1968.56188	13426.0875
1971.63959	13397.0875
1974.7153	13355.4875
1977.78901	13296.1875
1980.86073	13269.7875
1983.93046	13219.3875
1986.99819	13166.3875
1990.06394	13125.2875
1993.1277	13069.2875
1996.18947	13029.5875
1999.24925	12971.2875
2002.30706	12963.9875
2005.36288	12894.1875
2008.41672	12862.2875
2011.46859	12828.2875
2014.51848	12795.5875
2017.56639	12735.2875
2020.61233	12709.8875
2023.6563	12699.5875
2026.6983	12660.4875
2029.73833	12648.3875
2032.7764	12624.2875
2035.8125	12581.4875
2038.84664	12566.3875
2041.87881	12559.7875
2044.90903	12525.8875
2047.93729	12511.8875
2050.96359	12509.7875
2053.98794	12493.8875
2057.01034	12491.0875
2060.03078	12479.8875
2063.04927	12444.9875
2066.06582	12434.8875
2069.08042	12393.3875
2072.09307	12422.8875
2075.10378	12393.8875
2078.11255	12370.9875
2081.11938	12377.2875
2084.12426	12382.4875
2087.12722	12374.3875
2090.12824	12364.8875
2093.12732	12348.4875
2096.12447	12351.8875
2099.11969	12354.6875
2102.11299	12355.9875
2105.10435	12370.4875
2108.09379	12393.4875
2111.08131	12392.3875
2114.0669	12381.5875
2117.05057	12398.1875
2120.03233	12403.4875
2123.01216	12430.2875
2125.99008	12400.7875
2128.96609	12428.6875
2131.94018	12435.3875
2134.91236	12453.5875
2137.88263	12453.9875
2140.851	12450.9875
2143.81746	12452.2875
2146.78201	12417.9875
2149.74466	12436.3875
2152.7054	12419.5875
2155.66425	12387.5875
2158.6212	12382.3875
2161.57625	12368.0875
2164.52941	12405.8875
2167.48067	12375.0875
2170.43004	12337.8875
2173.37752	12365.2875
2176.32311	12350.3875
2179.26681	12375.3875
2182.20863	12383.5875
2185.14856	12400.0875
2188.08661	12380.9875
2191.02278	12386.3875
2193.95707	12346.0875
2196.88948	12332.7875
2199.82001	12332.4875
2202.74867	12310.3875
2205.67545	12335.1875
2208.60037	12303.6875
2211.52341	12287.9875
2214.44458	12267.5875
2217.36388	12236.9875
2220.28132	12240.5875
2223.1969	12185.9875
2226.11061	12205.2875
2229.02246	12165.6875
2231.93245	12148.0875
2234.84058	12126.3875
2237.74686	12124.6875
2240.65128	12100.0875
2243.55385	12076.4875
2246.45456	12066.4875
2249.35343	12093.9875
2252.25044	12029.1875
2255.14561	12036.3875
2258.03893	12011.3875
2260.93041	11974.5875
2263.82004	11947.2875
2266.70783	11956.5875
2269.59378	11905.7875
2272.4779	11892.6875
2275.36017	11882.6875
2278.24061	11877.6875
2281.11922	11780.7875
2283.996	11798.4875
2286.87094	11756.8875
2289.74405	11756.3875
2292.61534	11749.4875
2295.4848	11728.3875
2298.35243	11731.2875
2301.21824	11724.4875
2304.08223	11714.7875
2306.94439	11738.2875
2309.80474	11752.8875
2312.66327	11756.7875
2315.51999	11730.5875
2318.37489	11734.6875
2321.22797	11701.5875
2324.07925	11672.2875
2326.92871	11656.9875
2329.77637	11645.0875
2332.62222	11649.4875
2335.46626	11679.1875
2338.3085	11644.9875
2341.14893	11664.6875
2343.98756	11633.6875
2346.8244	11659.2875
2349.65943	11698.4875
2352.49267	11702.0875
2355.32411	11722.0875
2358.15376	11717.1875
2360.98161	11702.6875
2363.80768	11721.6875
2366.63195	11717.5875
2369.45444	11726.4875
2372.27514	11703.9875
2375.09405	11677.3875
2377.91118	11655.5875
2380.72652	11623.4875
2383.54009	11559.1875
2386.35187	11542.3875
2389.16188	11483.4875
2391.97011	11468.8875
2394.77657	11471.1875
2397.58125	11417.2875
2400.38416	11425.3875
2403.18529	11391.8875
2405.98466	11405.7875
2408.78226	11371.8875
2411.57809	11316.4875
2414.37216	11317.4875
2417.16446	11307.4875
2419.955	11280.0875
2422.74378	11300.0875
2425.5308	11282.5875
2428.31606	11278.9875
2431.09956	11279.3875
2433.88131	11279.6875
2436.6613	11297.9875
2439.43954	11311.8875
2442.21603	11283.2875
2444.99077	11289.9875
2447.76377	11292.6875
2450.53501	11311.0875
2453.30451	11330.1875
2456.07226	11311.5875
2458.83827	11317.3875
2461.60254	11302.7875
2464.36507	11297.7875
2467.12586	11315.7875
2469.88492	11313.3875
2472.64224	11349.9875
2475.39782	11298.8875
2478.15167	11321.2875
2480.90379	11351.1875
2483.65417	11352.7875
2486.40283	11390.2875
2489.14976	11421.3875
2491.89497	11409.8875
2494.63845	11445.0875
2497.3802	11400.0875
2500.12024	11407.6875
2502.85855	11385.8875
2505.59514	11384.2875
2508.33002	11347.8875
2511.06318	11314.2875
2513.79462	11294.4875
2516.52435	11265.5875
2519.25237	11228.4875
2521.97867	11222.6875
2524.70327	11215.8875
2527.42616	11226.2875
2530.14734	11219.1875
2532.86681	11206.1875
2535.58458	11217.6875
2538.30065	11210.2875
2541.01501	11219.5875
2543.72768	11212.9875
2546.43864	11187.2875
2549.14791	11178.3875
2551.85548	11179.6875
2554.56136	11162.5875
2557.26554	11153.0875
2559.96803	11147.4875
2562.66883	11125.0875
2565.36794	11131.3875
2568.06536	11128.4875
2570.7611	11098.3875
2573.45514	11106.9875
2576.14751	11094.9875
2578.83819	11118.5875
2581.52719	11082.7875
2584.21451	11088.4875
2586.90015	11083.1875
2589.58411	11065.6875
2592.2664	11095.9875
2594.94701	11084.3875
2597.62594	11071.9875
2600.30321	11059.0875
2602.9788	11056.2875
2605.65273	11027.7875
2608.32498	11044.9875
2610.99557	11044.1875
2613.66449	11094.0875
2616.33175	11094.1875
2618.99734	11070.9875
2621.66128	11073.0875
2624.32355	11079.9875
2626.98416	11040.1875
2629.64311	11015.4875
2632.30041	11038.4875
2634.95605	11005.5875
2637.61004	11011.8875
2640.26238	10998.2875
2642.91306	10981.1875
2645.56209	10988.2875
2648.20948	10988.6875
2650.85521	10983.4875
2653.4993	10976.3875
2656.14175	11008.9875
2658.78255	11023.0875
2661.42171	11008.0875
2664.05923	11040.4875
2666.6951	11037.0875
2669.32934	11068.7875
2671.96194	11073.2875
2674.59291	11089.6875
2677.22224	11053.2875
2679.84993	11071.1875
2682.476	11058.5875
2685.10043	11025.9875
2687.72324	11031.5875
2690.34441	11016.5875
2692.96396	10987.0875
2695.58188	10986.1875
2698.19818	10986.3875
2700.81285	11006.6875
2703.4259	10966.4875
2706.03733	10930.4875
2708.64714	10956.5875
2711.25533	10993.3875
2713.86191	11016.6875
2716.46687	11015.2875
2719.07021	11037.5875
2721.67194	11021.9875
2724.27206	11051.5875
2726.87057	11066.2875
2729.46747	11066.1875
2732.06276	11053.8875
2734.65644	11092.3875
2737.24852	11075.9875
2739.83899	11042.9875
2742.42786	11059.7875
2745.01513	11051.1875
2747.60079	11031.5875
2750.18486	11015.8875
2752.76733	11020.0875
2755.3482	10997.6875
2757.92747	11044.3875
2760.50515	10999.5875
2763.08123	11008.7875
2765.65573	10978.2875
2768.22863	10996.8875
2770.79994	10965.8875
2773.36967	10979.2875
2775.9378	10991.3875
2778.50435	10987.2875
2781.06932	10975.5875
2783.6327	11017.5875
2786.1945	10994.6875
2788.75471	10999.5875
2791.31335	10957.8875
2793.87041	10980.3875
2796.42589	10932.9875
2798.97979	10936.0875
2801.53212	10922.6875
2804.08288	10891.2875
2806.63206	10886.1875
2809.17967	10864.6875
2811.72571	10886.9875
2814.27018	10864.7875
2816.81308	10836.4875
2819.35442	10818.6875
2821.89419	10807.3875
2824.43239	10820.9875
2826.96904	10815.9875
2829.50412	10817.8875
2832.03763	10773.1875
2834.56959	10790.3875
2837.1	10789.0875
2839.62884	10747.4875
2842.15613	10746.2875
2844.68186	10741.5875
2847.20604	10745.9875
2849.72867	10739.9875
2852.24974	10746.6875
2854.76927	10747.0875
2857.28724	10701.5875
2859.80367	10730.0875
2862.31855	10764.8875
2864.83189	10733.7875
2867.34368	10755.9875
2869.85393	10773.4875
2872.36264	10809.0875
2874.8698	10797.5875
2877.37543	10800.8875
2879.87952	10768.2875
2882.38207	10774.6875
2884.88308	10795.0875
2887.38256	10777.8875
2889.88051	10771.2875
2892.37692	10775.0875
2894.8718	10791.5875
2897.36515	10827.3875
2899.85698	10817.5875
2902.34727	10819.1875
2904.83604	10861.6875
2907.32328	10828.5875
2909.809	10839.2875
2912.29319	10879.2875
2914.77587	10894.1875
2917.25702	10863.8875
2919.73665	10860.4875
2922.21476	10866.3875
2924.69136	10845.7875
2927.16644	10830.8875
2929.64	10809.4875
2932.11205	10784.2875
2934.58258	10731.5875
2937.05161	10751.3875
2939.51912	10750.4875
2941.98513	10722.1875
2944.44962	10695.7875
2946.91261	10653.8875
2949.37409	10660.3875
2951.83407	10682.0875
2954.29254	10660.2875
2956.74951	10653.2875
2959.20498	10609.7875
2961.65895	10580.6875
2964.11142	10580.9875
2966.56239	10561.0875
2969.01186	10556.9875
2971.45984	10541.3875
2973.90632	10502.0875
2976.35131	10488.5875
2978.7948	10443.4875
2981.23681	10420.4875
2983.67732	10410.5875
2986.11635	10379.1875
2988.55388	10345.7875
2990.98993	10326.4875
2993.4245	10324.3875
2995.85758	10295.8875
2998.28917	10271.7875
3000.71928	10250.5875
3003.14791	10211.9875
3005.57506	10234.2875
3008.00073	10179.1875
3010.42493	10175.3875
3012.84764	10166.0875
3015.26888	10145.7875
3017.68865	10133.5875
3020.10694	10091.7875
3022.52376	10088.4875
3024.9391	10067.9875
