Data from AgNPs_FTO_APTES_UA_50uM_CRN_500uM_R6G_10uM_NaF_0.1M_Addition_RamanShift__4__16-46-33-520.txt Node

Date: Mon Feb 21 16:46:33 GMT 2022
User: TCL
Spectrometer: QEP01345
Trigger mode: 4
Integration Time (sec): 7.000000E0
Scans to average: 10
Electric dark correction enabled: true
Nonlinearity correction enabled: false
Boxcar width: 0
XAxis mode: Raman Shifts
Number of Pixels in Spectrum: 1044
>>>>>Begin Spectral Data<<<<<
46.04893	-0.9625
50.45542	0.2375
54.85868	0.0375
59.25871	-1.1625
63.6555	43.2375
68.04907	48.0375
72.43941	56.9375
76.82654	54.4375
81.21044	56.5375
85.59113	58.4375
89.96862	59.1375
94.34289	62.9375
98.71396	63.9375
103.08183	67.6375
107.4465	66.8375
111.80798	71.3375
116.16626	70.1375
120.52136	74.3375
124.87327	74.8375
129.222	79.4375
133.56755	80.9375
137.90993	85.2375
142.24913	91.6375
146.58517	98.9375
150.91804	110.6375
155.24774	128.8375
159.57429	158.3375
163.89768	202.1375
168.21792	267.6375
172.53501	358.1375
176.84895	497.4375
181.15975	692.9375
185.46741	979.6375
189.77193	1352.0375
194.07331	1811.3375
198.37157	2342.1375
202.6667	2895.9375
206.9587	3445.8375
211.24758	3981.3375
215.53334	4549.8375
219.81599	5131.0375
224.09553	5760.9375
228.37195	6476.4375
232.64527	7300.6375
236.91549	8100.3375
241.18261	8880.3375
245.44663	9602.0375
249.70755	10221.1375
253.96539	10758.0375
258.22014	11137.5375
262.4718	11530.7375
266.72039	11777.4375
270.96589	11906.7375
275.20832	11891.3375
279.44768	11756.0375
283.68397	11592.8375
287.91719	11417.3375
292.14735	11372.4375
296.37445	11393.7375
300.59849	11562.6375
304.81948	11762.0375
309.03742	11899.6375
313.25231	11884.7375
317.46415	11623.7375
321.67296	11249.4375
325.87872	10890.4375
330.08145	10746.1375
334.28114	10709.9375
338.47781	10816.8375
342.67145	10954.5375
346.86207	11217.6375
351.04966	11535.2375
355.23424	11866.5375
359.4158	12154.1375
363.59435	12296.1375
367.76989	12391.3375
371.94243	12468.2375
376.11196	12487.6375
380.27849	12472.4375
384.44203	12534.1375
388.60257	12534.3375
392.76012	12583.0375
396.91468	12689.4375
401.06626	12855.3375
405.21485	12960.4375
409.36047	12839.5375
413.50311	12507.8375
417.64277	12193.7375
421.77947	12029.3375
425.9132	11995.1375
430.04396	12001.1375
434.17176	12069.7375
438.2966	12192.8375
442.41849	12355.1375
446.53742	12610.4375
450.6534	12878.4375
454.76644	13046.7375
458.87653	13092.6375
462.98368	13006.1375
467.08789	12919.9375
471.18916	12752.8375
475.2875	12589.6375
479.38291	12426.1375
483.4754	12319.9375
487.56496	12221.5375
491.6516	12118.0375
495.73531	12050.2375
499.81612	12036.0375
503.89401	12124.4375
507.96899	12180.2375
512.04106	12251.6375
516.11023	12331.3375
520.1765	12362.7375
524.23987	12370.6375
528.30034	12292.5375
532.35792	12229.9375
536.41261	12116.6375
540.46441	11971.9375
544.51333	11934.2375
548.55936	11945.9375
552.60252	12123.7375
556.64279	12346.5375
560.6802	12435.8375
564.71473	12480.4375
568.7464	12624.4375
572.7752	12805.5375
576.80114	12782.2375
580.82422	12733.8375
584.84444	12803.7375
588.86181	12997.3375
592.87633	13278.6375
596.888	13394.9375
600.89682	13449.9375
604.9028	13995.6375
608.90594	15807.9375
612.90624	18230.9375
616.90371	17475.2375
620.89834	14116.2375
624.89015	12529.8375
628.87913	12289.2375
632.86528	12413.1375
636.84862	12571.8375
640.82913	12450.1375
644.80683	12140.0375
648.78172	11893.2375
652.75379	11851.9375
656.72306	12028.8375
660.68952	12284.2375
664.65319	12228.6375
668.61405	11878.5375
672.57211	11802.9375
676.52738	11880.9375
680.47986	11897.9375
684.42955	11825.3375
688.37646	11743.5375
692.32058	11750.7375
696.26192	11814.6375
700.20048	11898.4375
704.13626	11964.6375
708.06928	11927.2375
711.99952	11856.8375
715.927	11841.8375
719.85171	11889.7375
723.77365	11858.3375
727.69284	11784.1375
731.60928	11728.8375
735.52295	11673.4375
739.43388	11692.5375
743.34206	11754.3375
747.24749	11749.1375
751.15017	11787.1375
755.05012	11902.2375
758.94733	12168.6375
762.8418	12888.9375
766.73354	14083.2375
770.62254	15328.8375
774.50882	15911.0375
778.39237	15381.2375
782.27321	14079.2375
786.15132	12870.0375
790.02671	12144.5375
793.89938	11836.8375
797.76935	11675.9375
801.6366	11619.0375
805.50115	11569.5375
809.36299	11497.9375
813.22213	11483.0375
817.07857	11434.4375
820.93231	11430.6375
824.78336	11395.4375
828.63172	11402.0375
832.47738	11373.5375
836.32036	11346.4375
840.16066	11368.3375
843.99827	11375.4375
847.8332	11337.4375
851.66546	11303.2375
855.49504	11317.7375
859.32195	11319.2375
863.1462	11325.8375
866.96777	11305.7375
870.78668	11310.5375
874.60293	11304.8375
878.41652	11339.0375
882.22745	11400.8375
886.03573	11453.8375
889.84136	11436.0375
893.64433	11390.0375
897.44466	11350.4375
901.24235	11287.4375
905.0374	11261.7375
908.8298	11196.7375
912.61957	11139.7375
916.40671	11179.1375
920.19121	11268.4375
923.97308	11328.6375
927.75233	11371.4375
931.52895	11396.1375
935.30295	11334.6375
939.07433	11154.1375
942.84309	11002.8375
946.60924	10881.4375
950.37278	10819.0375
954.13371	10776.2375
957.89203	10728.0375
961.64774	10715.9375
965.40086	10717.4375
969.15137	10669.1375
972.89929	10649.9375
976.64461	10638.0375
980.38733	10640.8375
984.12747	10626.4375
987.86502	10684.2375
991.59999	10761.9375
995.33237	10885.9375
999.06217	11016.5375
1002.78939	11191.0375
1006.51404	11322.0375
1010.23611	11418.5375
1013.95561	11511.2375
1017.67255	11544.1375
1021.38692	11478.6375
1025.09872	11390.3375
1028.80796	11312.7375
1032.51465	11356.9375
1036.21877	11506.5375
1039.92035	11548.2375
1043.61937	11557.0375
1047.31584	11478.3375
1051.00976	11373.5375
1054.70114	11309.6375
1058.38998	11309.2375
1062.07627	11345.3375
1065.76003	11365.9375
1069.44126	11409.3375
1073.11995	11507.6375
1076.79611	11591.6375
1080.46974	11721.3375
1084.14085	11828.3375
1087.80943	11983.1375
1091.47549	12040.7375
1095.13903	12028.1375
1098.80005	11847.0375
1102.45857	11637.5375
1106.11456	11552.2375
1109.76805	11546.0375
1113.41903	11652.6375
1117.06751	11831.2375
1120.71348	12100.7375
1124.35696	12334.3375
1127.99793	12587.2375
1131.63641	12641.3375
1135.2724	12422.8375
1138.90589	12138.4375
1142.5369	11957.8375
1146.16542	11819.1375
1149.79145	11766.2375
1153.415	11719.3375
1157.03607	11769.9375
1160.65467	11956.6375
1164.27079	12251.7375
1167.88443	12714.6375
1171.49561	13379.4375
1175.10432	14333.8375
1178.71056	15598.5375
1182.31434	16758.8375
1185.91565	17237.1375
1189.51451	17054.1375
1193.11091	16426.7375
1196.70485	15664.7375
1200.29634	14984.0375
1203.88538	14468.8375
1207.47197	13883.1375
1211.05612	13365.7375
1214.63782	12993.6375
1218.21708	12809.3375
1221.79391	12744.7375
1225.36829	12735.1375
1228.94024	12676.0375
1232.50976	12643.5375
1236.07685	12525.2375
1239.6415	12459.9375
1243.20374	12498.8375
1246.76355	12551.6375
1250.32093	12675.0375
1253.8759	12823.2375
1257.42845	13054.5375
1260.97859	13318.9375
1264.52631	13624.2375
1268.07163	13928.7375
1271.61453	14237.8375
1275.15503	14489.3375
1278.69312	14659.6375
1282.22882	14772.8375
1285.76211	15023.1375
1289.29301	15374.2375
1292.82151	15820.4375
1296.34761	16415.7375
1299.87133	17171.1375
1303.39266	18173.5375
1306.9116	19480.7375
1310.42815	20860.5375
1313.94233	21648.2375
1317.45412	21239.4375
1320.96354	20244.6375
1324.47058	19118.9375
1327.97525	18137.1375
1331.47754	17413.6375
1334.97747	17064.1375
1338.47502	17017.5375
1341.97022	17222.9375
1345.46305	17676.2375
1348.95352	18392.8375
1352.44163	19347.8375
1355.92738	20577.8375
1359.41078	22418.5375
1362.89183	24127.6375
1366.37053	23747.1375
1369.84688	21027.5375
1373.32088	18050.8375
1376.79254	16191.7375
1380.26186	15274.0375
1383.72883	14845.7375
1387.19347	14562.8375
1390.65578	14208.0375
1394.11575	13905.0375
1397.57339	13755.2375
1401.0287	13740.0375
1404.48168	13711.1375
1407.93234	13651.1375
1411.38068	13574.1375
1414.82669	13483.7375
1418.27039	13327.5375
1421.71177	13167.9375
1425.15083	12930.1375
1428.58758	12772.4375
1432.02203	12822.7375
1435.45416	12956.8375
1438.88399	13113.1375
1442.31151	13202.5375
1445.73673	13243.3375
1449.15965	13314.6375
1452.58027	13292.8375
1455.9986	13255.1375
1459.41463	13298.2375
1462.82837	13401.8375
1466.23982	13587.4375
1469.64898	13812.9375
1473.05586	14013.1375
1476.46045	14136.0375
1479.86276	14247.4375
1483.26279	14324.5375
1486.66054	14488.1375
1490.05602	14778.9375
1493.44922	15218.9375
1496.84016	15913.0375
1500.22882	16998.9375
1503.61521	18530.8375
1506.99934	20228.6375
1510.38121	21562.4375
1513.76081	21844.5375
1517.13816	20696.9375
1520.51324	18791.2375
1523.88607	17015.4375
1527.25665	15932.2375
1530.62498	15355.9375
1533.99105	15035.0375
1537.35488	14729.7375
1540.71647	14487.2375
1544.07581	14260.1375
1547.4329	14117.8375
1550.78776	13925.0375
1554.14038	13923.1375
1557.49077	13948.0375
1560.83892	14024.5375
1564.18484	14250.1375
1567.52853	14511.6375
1570.86999	14815.9375
1574.20922	15027.7375
1577.54624	15057.3375
1580.88103	14640.5375
1584.2136	14079.5375
1587.54395	13776.6375
1590.87208	13912.1375
1594.19801	14421.2375
1597.52172	15130.9375
1600.84321	15492.7375
1604.16251	15187.2375
1607.47959	14549.9375
1610.79447	13780.0375
1614.10715	12967.5375
1617.41763	12301.1375
1620.7259	11807.0375
1624.03199	11568.5375
1627.33587	11501.9375
1630.63757	11661.8375
1633.93707	12073.7375
1637.23439	12801.8375
1640.52951	13927.4375
1643.82246	15424.0375
1647.11321	17035.1375
1650.40179	17939.1375
1653.68819	17361.9375
1656.97241	15481.4375
1660.25446	13506.7375
1663.53433	12060.8375
1666.81203	11170.3375
1670.08756	10689.7375
1673.36092	10334.7375
1676.63211	10129.7375
1679.90115	9987.1375
1683.16801	9868.4375
1686.43272	9745.0375
1689.69527	9680.4375
1692.95567	9610.1375
1696.2139	9546.8375
1699.46999	9502.0375
1702.72392	9440.9375
1705.97571	9429.2375
1709.22535	9408.9375
1712.47284	9399.8375
1715.71819	9396.5375
1718.96139	9346.1375
1722.20246	9332.5375
1725.44139	9299.8375
1728.67818	9255.4375
1731.91284	9208.9375
1735.14537	9148.4375
1738.37576	9129.4375
1741.60403	9077.5375
1744.83017	9070.1375
1748.05418	9059.1375
1751.27607	9050.8375
1754.49584	9052.5375
1757.71349	9015.6375
1760.92903	9025.0375
1764.14244	8988.9375
1767.35375	8976.4375
1770.56294	8935.7375
1773.77002	8907.9375
1776.97499	8892.0375
1780.17785	8848.2375
1783.37861	8836.6375
1786.57727	8839.4375
1789.77382	8805.2375
1792.96828	8805.4375
1796.16064	8786.5375
1799.3509	8746.2375
1802.53907	8753.7375
1805.72514	8681.7375
1808.90913	8680.8375
1812.09102	8666.7375
1815.27083	8628.5375
1818.44856	8639.2375
1821.6242	8618.5375
1824.79776	8589.5375
1827.96924	8568.6375
1831.13864	8578.6375
1834.30597	8592.8375
1837.47122	8553.5375
1840.6344	8563.5375
1843.7955	8526.1375
1846.95454	8525.2375
1850.11151	8510.1375
1853.26642	8498.9375
1856.41926	8475.5375
1859.57004	8480.8375
1862.71876	8459.8375
1865.86542	8479.7375
1869.01003	8462.3375
1872.15258	8460.0375
1875.29308	8441.1375
1878.43152	8441.2375
1881.56792	8416.2375
1884.70227	8413.1375
1887.83457	8395.1375
1890.96482	8419.6375
1894.09304	8389.2375
1897.21921	8367.2375
1900.34335	8363.6375
1903.46544	8373.7375
1906.58551	8375.3375
1909.70353	8351.0375
1912.81953	8323.2375
1915.93349	8319.2375
1919.04543	8299.0375
1922.15534	8282.5375
1925.26322	8254.1375
1928.36908	8247.3375
1931.47292	8211.7375
1934.57473	8206.8375
1937.67453	8190.7375
1940.77232	8176.2375
1943.86808	8155.1375
1946.96184	8113.2375
1950.05358	8073.5375
1953.14331	8083.0375
1956.23103	8048.2375
1959.31675	8032.1375
1962.40046	8000.2375
1965.48217	7994.5375
1968.56188	7976.7375
1971.63959	7942.0375
1974.7153	7916.9375
1977.78901	7900.6375
1980.86073	7866.0375
1983.93046	7840.2375
1986.99819	7830.0375
1990.06394	7801.9375
1993.1277	7784.9375
1996.18947	7726.2375
1999.24925	7728.8375
2002.30706	7693.2375
2005.36288	7673.8375
2008.41672	7669.1375
2011.46859	7645.7375
2014.51848	7630.5375
2017.56639	7591.5375
2020.61233	7588.4375
2023.6563	7568.1375
2026.6983	7523.9375
2029.73833	7488.9375
2032.7764	7501.9375
2035.8125	7484.5375
2038.84664	7467.5375
2041.87881	7453.4375
2044.90903	7442.5375
2047.93729	7406.4375
2050.96359	7407.1375
2053.98794	7404.9375
2057.01034	7412.9375
2060.03078	7378.9375
2063.04927	7390.1375
2066.06582	7367.5375
2069.08042	7361.5375
2072.09307	7368.5375
2075.10378	7342.9375
2078.11255	7353.5375
2081.11938	7348.5375
2084.12426	7345.6375
2087.12722	7340.0375
2090.12824	7341.1375
2093.12732	7329.5375
2096.12447	7323.1375
2099.11969	7328.7375
2102.11299	7332.0375
2105.10435	7349.2375
2108.09379	7327.7375
2111.08131	7356.5375
2114.0669	7344.3375
2117.05057	7365.7375
2120.03233	7371.7375
2123.01216	7365.2375
2125.99008	7356.8375
2128.96609	7380.2375
2131.94018	7373.1375
2134.91236	7377.4375
2137.88263	7377.9375
2140.851	7390.1375
2143.81746	7382.5375
2146.78201	7392.0375
2149.74466	7393.9375
2152.7054	7386.7375
2155.66425	7380.0375
2158.6212	7359.1375
2161.57625	7357.8375
2164.52941	7365.8375
2167.48067	7358.6375
2170.43004	7360.9375
2173.37752	7366.3375
2176.32311	7348.8375
2179.26681	7344.6375
2182.20863	7352.7375
2185.14856	7350.0375
2188.08661	7344.0375
2191.02278	7362.5375
2193.95707	7368.2375
2196.88948	7358.6375
2199.82001	7326.2375
2202.74867	7338.0375
2205.67545	7334.9375
2208.60037	7293.6375
2211.52341	7288.3375
2214.44458	7265.3375
2217.36388	7251.4375
2220.28132	7257.3375
2223.1969	7250.2375
2226.11061	7245.5375
2229.02246	7229.3375
2231.93245	7209.7375
2234.84058	7206.4375
2237.74686	7175.9375
2240.65128	7153.8375
2243.55385	7148.6375
2246.45456	7139.5375
2249.35343	7157.2375
2252.25044	7126.1375
2255.14561	7127.0375
2258.03893	7113.3375
2260.93041	7099.4375
2263.82004	7090.7375
2266.70783	7051.0375
2269.59378	7059.6375
2272.4779	7048.6375
2275.36017	7027.1375
2278.24061	7007.2375
2281.11922	6987.4375
2283.996	6985.4375
2286.87094	6969.0375
2289.74405	6967.8375
2292.61534	6951.1375
2295.4848	6939.3375
2298.35243	6927.2375
2301.21824	6945.8375
2304.08223	6926.9375
2306.94439	6926.0375
2309.80474	6940.0375
2312.66327	6915.1375
2315.51999	6920.3375
2318.37489	6907.1375
2321.22797	6904.5375
2324.07925	6887.5375
2326.92871	6890.8375
2329.77637	6872.4375
2332.62222	6849.8375
2335.46626	6864.4375
2338.3085	6826.5375
2341.14893	6817.2375
2343.98756	6805.4375
2346.8244	6847.4375
2349.65943	6824.6375
2352.49267	6807.1375
2355.32411	6812.3375
2358.15376	6823.7375
2360.98161	6831.2375
2363.80768	6808.2375
2366.63195	6821.5375
2369.45444	6820.2375
2372.27514	6813.5375
2375.09405	6789.8375
2377.91118	6783.3375
2380.72652	6758.3375
2383.54009	6744.5375
2386.35187	6732.5375
2389.16188	6710.2375
2391.97011	6700.9375
2394.77657	6677.9375
2397.58125	6662.9375
2400.38416	6639.3375
2403.18529	6637.0375
2405.98466	6661.7375
2408.78226	6620.7375
2411.57809	6615.6375
2414.37216	6589.3375
2417.16446	6589.2375
2419.955	6593.1375
2422.74378	6581.8375
2425.5308	6572.9375
2428.31606	6575.8375
2431.09956	6583.9375
2433.88131	6561.8375
2436.6613	6569.5375
2439.43954	6567.1375
2442.21603	6565.5375
2444.99077	6556.4375
2447.76377	6548.8375
2450.53501	6552.4375
2453.30451	6528.8375
2456.07226	6522.6375
2458.83827	6525.5375
2461.60254	6535.4375
2464.36507	6515.7375
2467.12586	6509.5375
2469.88492	6519.5375
2472.64224	6489.1375
2475.39782	6508.1375
2478.15167	6513.9375
2480.90379	6499.1375
2483.65417	6511.8375
2486.40283	6537.0375
2489.14976	6497.1375
2491.89497	6520.7375
2494.63845	6512.2375
2497.3802	6532.1375
2500.12024	6524.6375
2502.85855	6499.9375
2505.59514	6498.3375
2508.33002	6451.5375
2511.06318	6458.3375
2513.79462	6450.1375
2516.52435	6436.4375
2519.25237	6387.9375
2521.97867	6393.8375
2524.70327	6413.3375
2527.42616	6377.2375
2530.14734	6394.4375
2532.86681	6362.3375
2535.58458	6360.0375
2538.30065	6354.1375
2541.01501	6368.8375
2543.72768	6347.3375
2546.43864	6348.9375
2549.14791	6358.4375
2551.85548	6330.7375
2554.56136	6313.0375
2557.26554	6304.3375
2559.96803	6318.4375
2562.66883	6301.9375
2565.36794	6302.5375
2568.06536	6280.6375
2570.7611	6256.9375
2573.45514	6254.5375
2576.14751	6244.1375
2578.83819	6227.0375
2581.52719	6227.7375
2584.21451	6205.8375
2586.90015	6200.9375
2589.58411	6195.8375
2592.2664	6193.5375
2594.94701	6177.0375
2597.62594	6172.4375
2600.30321	6146.9375
2602.9788	6145.2375
2605.65273	6147.2375
2608.32498	6129.0375
2610.99557	6130.3375
2613.66449	6146.0375
2616.33175	6136.1375
2618.99734	6126.5375
2621.66128	6136.6375
2624.32355	6112.5375
2626.98416	6084.8375
2629.64311	6096.2375
2632.30041	6088.9375
2634.95605	6063.6375
2637.61004	6066.1375
2640.26238	6061.3375
2642.91306	6077.5375
2645.56209	6055.1375
2648.20948	6051.3375
2650.85521	6051.6375
2653.4993	6043.3375
2656.14175	6039.0375
2658.78255	6035.1375
2661.42171	6048.6375
2664.05923	6054.3375
2666.6951	6053.1375
2669.32934	6073.4375
2671.96194	6053.1375
2674.59291	6048.2375
2677.22224	6057.7375
2679.84993	6058.2375
2682.476	6060.4375
2685.10043	6040.8375
2687.72324	6042.9375
2690.34441	6041.1375
2692.96396	6036.9375
2695.58188	6033.3375
2698.19818	6038.1375
2700.81285	6027.9375
2703.4259	6022.6375
2706.03733	6044.0375
2708.64714	6028.7375
2711.25533	6015.5375
2713.86191	6017.1375
2716.46687	6050.7375
2719.07021	6033.1375
2721.67194	6042.1375
2724.27206	6044.7375
2726.87057	6039.2375
2729.46747	6040.4375
2732.06276	6043.8375
2734.65644	6049.9375
2737.24852	6032.0375
2739.83899	6022.3375
2742.42786	6023.2375
2745.01513	6005.5375
2747.60079	5985.3375
2750.18486	6014.7375
2752.76733	5994.8375
2755.3482	5977.3375
2757.92747	5981.5375
2760.50515	5985.8375
2763.08123	5966.6375
2765.65573	5957.4375
2768.22863	5943.4375
2770.79994	5951.8375
2773.36967	5958.4375
2775.9378	5946.0375
2778.50435	5929.3375
2781.06932	5920.6375
2783.6327	5899.7375
2786.1945	5923.0375
2788.75471	5910.6375
2791.31335	5897.5375
2793.87041	5883.8375
2796.42589	5885.2375
2798.97979	5865.1375
2801.53212	5853.7375
2804.08288	5850.1375
2806.63206	5833.3375
2809.17967	5851.7375
2811.72571	5825.8375
2814.27018	5828.8375
2816.81308	5806.9375
2819.35442	5822.3375
2821.89419	5811.4375
2824.43239	5794.4375
2826.96904	5816.1375
2829.50412	5804.6375
2832.03763	5786.5375
2834.56959	5790.8375
2837.1	5782.2375
2839.62884	5792.1375
2842.15613	5771.6375
2844.68186	5823.7375
2847.20604	5829.6375
2849.72867	5819.3375
2852.24974	5834.5375
2854.76927	5831.9375
2857.28724	5805.0375
2859.80367	5821.0375
2862.31855	5801.1375
2864.83189	5814.1375
2867.34368	5788.5375
2869.85393	5803.2375
2872.36264	5786.7375
2874.8698	5800.9375
2877.37543	5777.3375
2879.87952	5790.8375
2882.38207	5778.4375
2884.88308	5777.1375
2887.38256	5778.0375
2889.88051	5788.0375
2892.37692	5780.0375
2894.8718	5795.7375
2897.36515	5790.3375
2899.85698	5799.6375
2902.34727	5788.8375
2904.83604	5798.4375
2907.32328	5811.0375
2909.809	5832.4375
2912.29319	5833.3375
2914.77587	5844.7375
2917.25702	5837.3375
2919.73665	5845.0375
2922.21476	5862.0375
2924.69136	5828.9375
2927.16644	5845.4375
2929.64	5828.6375
2932.11205	5794.3375
2934.58258	5795.6375
2937.05161	5792.7375
2939.51912	5792.6375
2941.98513	5764.5375
2944.44962	5773.9375
2946.91261	5749.3375
2949.37409	5765.8375
2951.83407	5747.8375
2954.29254	5734.8375
2956.74951	5738.7375
2959.20498	5732.9375
2961.65895	5697.5375
2964.11142	5695.6375
2966.56239	5698.9375
2969.01186	5696.8375
2971.45984	5677.6375
2973.90632	5653.6375
2976.35131	5650.0375
2978.7948	5653.7375
2981.23681	5632.7375
2983.67732	5621.0375
2986.11635	5601.2375
2988.55388	5591.6375
2990.98993	5570.4375
2993.4245	5568.4375
2995.85758	5572.8375
2998.28917	5560.6375
3000.71928	5532.9375
3003.14791	5535.9375
3005.57506	5529.2375
3008.00073	5515.2375
3010.42493	5493.4375
3012.84764	5499.9375
3015.26888	5498.1375
3017.68865	5487.9375
3020.10694	5500.7375
3022.52376	5499.2375
3024.9391	5485.7375
3027.35298	5469.2375
3029.76539	5449.4375
3032.17632	5449.8375
3034.5858	5433.3375
3036.9938	5418.5375
3039.40034	5418.6375
3041.80542	5425.3375
3044.20903	5391.3375
3046.61118	5410.8375
3049.01187	5399.6375
3051.4111	5387.1375
3053.80888	5375.7375
3056.20519	5393.5375
3058.60005	5378.9375
3060.99345	5380.1375
3063.3854	5352.5375
3065.7759	5338.0375
3068.16494	5358.3375
3070.55254	5333.6375
3072.93868	5315.1375
3075.32338	5319.6375
3077.70662	5297.7375
3080.08842	5285.6375
