Data from AgNPs_FTO_APTES_UA_50uM_CRN_5uM_R6G_10uM_NaF_0.1M_Addition_RamanShift__8__12-41-54-816.txt Node

Date: Mon Feb 21 12:41:54 GMT 2022
User: TCL
Spectrometer: QEP01345
Trigger mode: 4
Integration Time (sec): 7.000000E0
Scans to average: 10
Electric dark correction enabled: true
Nonlinearity correction enabled: false
Boxcar width: 0
XAxis mode: Raman Shifts
Number of Pixels in Spectrum: 1044
>>>>>Begin Spectral Data<<<<<
46.04893	0.2625
50.45542	-0.6375
54.85868	-0.2375
59.25871	-2.3375
63.6555	49.4625
68.04907	53.9625
72.43941	56.0625
76.82654	57.6625
81.21044	65.4625
85.59113	65.5625
89.96862	68.0625
94.34289	73.2625
98.71396	72.1625
103.08183	78.8625
107.4465	78.2625
111.80798	80.3625
116.16626	79.2625
120.52136	79.2625
124.87327	88.4625
129.222	83.3625
133.56755	85.2625
137.90993	97.5625
142.24913	100.2625
146.58517	112.1625
150.91804	125.7625
155.24774	149.9625
159.57429	175.1625
163.89768	220.2625
168.21792	293.2625
172.53501	390.0625
176.84895	555.0625
181.15975	762.4625
185.46741	1067.5625
189.77193	1475.2625
194.07331	1971.3625
198.37157	2523.1625
202.6667	3127.5625
206.9587	3732.5625
211.24758	4328.4625
215.53334	4895.6625
219.81599	5549.9625
224.09553	6242.1625
228.37195	7020.2625
232.64527	7874.8625
236.91549	8765.9625
241.18261	9615.2625
245.44663	10428.2625
249.70755	11136.0625
253.96539	11725.9625
258.22014	12205.0625
262.4718	12539.3625
266.72039	12773.7625
270.96589	12856.0625
275.20832	12803.6625
279.44768	12660.8625
283.68397	12430.7625
287.91719	12245.9625
292.14735	12106.2625
296.37445	12035.7625
300.59849	12055.0625
304.81948	12130.3625
309.03742	12160.1625
313.25231	12122.6625
317.46415	11895.6625
321.67296	11689.7625
325.87872	11489.2625
330.08145	11394.7625
334.28114	11362.8625
338.47781	11434.2625
342.67145	11557.6625
346.86207	11789.3625
351.04966	12029.9625
355.23424	12296.7625
359.4158	12508.0625
363.59435	12658.3625
367.76989	12750.6625
371.94243	12786.0625
376.11196	12829.0625
380.27849	12878.1625
384.44203	12934.8625
388.60257	12984.3625
392.76012	13086.3625
396.91468	13207.4625
401.06626	13382.4625
405.21485	13492.2625
409.36047	13386.9625
413.50311	13160.3625
417.64277	12981.5625
421.77947	12938.1625
425.9132	12938.0625
430.04396	12945.1625
434.17176	13039.6625
438.2966	13120.8625
442.41849	13389.8625
446.53742	13730.2625
450.6534	14132.7625
454.76644	14359.0625
458.87653	14411.9625
462.98368	14377.6625
467.08789	14242.6625
471.18916	14037.7625
475.2875	13824.6625
479.38291	13633.4625
483.4754	13505.9625
487.56496	13419.2625
491.6516	13273.6625
495.73531	13218.4625
499.81612	13192.0625
503.89401	13240.7625
507.96899	13293.2625
512.04106	13305.3625
516.11023	13256.4625
520.1765	13173.4625
524.23987	13127.1625
528.30034	13098.5625
532.35792	13018.7625
536.41261	12891.6625
540.46441	12677.2625
544.51333	12633.6625
548.55936	12714.6625
552.60252	12909.9625
556.64279	13195.6625
560.6802	13421.8625
564.71473	13498.0625
568.7464	13702.1625
572.7752	14013.2625
576.80114	14334.6625
580.82422	14647.2625
584.84444	15079.8625
588.86181	15803.3625
592.87633	16692.2625
596.888	17031.9625
600.89682	16488.6625
604.9028	16217.9625
608.90594	17253.7625
612.90624	18690.2625
616.90371	17544.8625
620.89834	14695.7625
624.89015	13418.4625
628.87913	13225.1625
632.86528	13358.4625
636.84862	13388.0625
640.82913	13194.4625
644.80683	12862.0625
648.78172	12621.9625
652.75379	12625.6625
656.72306	12794.9625
660.68952	13081.3625
664.65319	12988.6625
668.61405	12712.4625
672.57211	12721.6625
676.52738	12841.3625
680.47986	12867.9625
684.42955	12831.3625
688.37646	12792.6625
692.32058	12832.0625
696.26192	12940.9625
700.20048	13087.0625
704.13626	13136.0625
708.06928	13079.7625
711.99952	13012.6625
715.927	12997.5625
719.85171	13054.1625
723.77365	12981.0625
727.69284	12810.2625
731.60928	12652.9625
735.52295	12614.3625
739.43388	12646.3625
743.34206	12699.0625
747.24749	12771.9625
751.15017	12894.9625
755.05012	13083.5625
758.94733	13408.3625
762.8418	14097.1625
766.73354	15196.5625
770.62254	16309.4625
774.50882	16620.9625
778.39237	15945.2625
782.27321	14870.7625
786.15132	13903.7625
790.02671	13282.4625
793.89938	12937.6625
797.76935	12797.3625
801.6366	12691.2625
805.50115	12576.8625
809.36299	12554.1625
813.22213	12473.9625
817.07857	12438.3625
820.93231	12368.1625
824.78336	12315.1625
828.63172	12296.8625
832.47738	12281.7625
836.32036	12252.7625
840.16066	12298.9625
843.99827	12282.9625
847.8332	12254.9625
851.66546	12258.0625
855.49504	12287.1625
859.32195	12307.0625
863.1462	12282.2625
866.96777	12278.5625
870.78668	12234.2625
874.60293	12261.6625
878.41652	12295.7625
882.22745	12354.1625
886.03573	12399.6625
889.84136	12433.6625
893.64433	12395.8625
897.44466	12351.5625
901.24235	12359.2625
905.0374	12332.6625
908.8298	12244.3625
912.61957	12239.5625
916.40671	12285.6625
920.19121	12408.6625
923.97308	12530.2625
927.75233	12662.1625
931.52895	12590.0625
935.30295	12380.7625
939.07433	12135.8625
942.84309	11958.8625
946.60924	11894.3625
950.37278	11847.9625
954.13371	11839.2625
957.89203	11805.2625
961.64774	11810.3625
965.40086	11815.2625
969.15137	11821.6625
972.89929	11822.6625
976.64461	11768.3625
980.38733	11753.8625
984.12747	11765.5625
987.86502	11812.9625
991.59999	11877.7625
995.33237	12019.5625
999.06217	12182.9625
1002.78939	12468.0625
1006.51404	12763.5625
1010.23611	12988.6625
1013.95561	13206.0625
1017.67255	13182.8625
1021.38692	13036.4625
1025.09872	12814.6625
1028.80796	12665.3625
1032.51465	12616.5625
1036.21877	12681.2625
1039.92035	12687.0625
1043.61937	12738.7625
1047.31584	12743.1625
1051.00976	12708.1625
1054.70114	12680.0625
1058.38998	12717.2625
1062.07627	12801.7625
1065.76003	12910.1625
1069.44126	13068.4625
1073.11995	13321.7625
1076.79611	13545.9625
1080.46974	13723.6625
1084.14085	13857.1625
1087.80943	14011.1625
1091.47549	14130.6625
1095.13903	14095.9625
1098.80005	13857.8625
1102.45857	13555.7625
1106.11456	13329.9625
1109.76805	13234.9625
1113.41903	13263.9625
1117.06751	13376.3625
1120.71348	13552.5625
1124.35696	13745.8625
1127.99793	13959.4625
1131.63641	14072.3625
1135.2724	13995.4625
1138.90589	13894.4625
1142.5369	13811.4625
1146.16542	13841.2625
1149.79145	13939.3625
1153.415	14004.9625
1157.03607	14113.0625
1160.65467	14369.7625
1164.27079	14853.0625
1167.88443	15532.3625
1171.49561	16409.5625
1175.10432	17589.9625
1178.71056	19105.4625
1182.31434	20467.7625
1185.91565	21058.3625
1189.51451	20926.3625
1193.11091	20282.3625
1196.70485	19520.7625
1200.29634	18681.2625
1203.88538	17895.2625
1207.47197	17416.2625
1211.05612	16990.3625
1214.63782	16610.0625
1218.21708	16389.7625
1221.79391	16235.1625
1225.36829	16227.8625
1228.94024	16116.6625
1232.50976	15903.1625
1236.07685	15611.0625
1239.6415	15356.9625
1243.20374	15331.4625
1246.76355	15313.4625
1250.32093	15464.1625
1253.8759	15748.5625
1257.42845	16158.2625
1260.97859	16675.3625
1264.52631	17272.1625
1268.07163	17850.6625
1271.61453	18391.5625
1275.15503	18838.5625
1278.69312	19303.5625
1282.22882	19810.2625
1285.76211	20473.9625
1289.29301	21250.1625
1292.82151	22103.1625
1296.34761	23082.8625
1299.87133	24292.6625
1303.39266	25523.4625
1306.9116	26820.5625
1310.42815	28022.2625
1313.94233	28552.4625
1317.45412	28243.8625
1320.96354	27345.8625
1324.47058	26406.6625
1327.97525	25615.1625
1331.47754	25034.2625
1334.97747	24702.3625
1338.47502	24438.8625
1341.97022	24346.5625
1345.46305	24288.5625
1348.95352	24431.8625
1352.44163	24954.7625
1355.92738	25914.5625
1359.41078	27480.8625
1362.89183	29015.3625
1366.37053	29079.1625
1369.84688	26829.6625
1373.32088	23725.1625
1376.79254	21490.2625
1380.26186	20473.6625
1383.72883	20082.6625
1387.19347	19787.4625
1390.65578	19395.9625
1394.11575	19222.5625
1397.57339	19231.3625
1401.0287	19352.0625
1404.48168	19388.9625
1407.93234	19353.0625
1411.38068	19086.7625
1414.82669	18684.8625
1418.27039	18269.4625
1421.71177	17796.3625
1425.15083	17366.4625
1428.58758	17175.1625
1432.02203	17297.8625
1435.45416	17585.5625
1438.88399	17878.6625
1442.31151	18085.5625
1445.73673	18200.1625
1449.15965	18276.5625
1452.58027	18335.9625
1455.9986	18271.1625
1459.41463	18342.4625
1462.82837	18645.3625
1466.23982	19050.4625
1469.64898	19431.8625
1473.05586	19751.0625
1476.46045	19897.2625
1479.86276	19994.4625
1483.26279	20066.7625
1486.66054	20196.0625
1490.05602	20536.3625
1493.44922	20979.5625
1496.84016	21445.5625
1500.22882	22054.5625
1503.61521	22836.2625
1506.99934	23688.7625
1510.38121	24313.1625
1513.76081	24295.4625
1517.13816	23627.6625
1520.51324	22529.7625
1523.88607	21596.3625
1527.25665	21008.5625
1530.62498	20763.6625
1533.99105	20442.4625
1537.35488	19979.9625
1540.71647	19460.9625
1544.07581	18886.5625
1547.4329	18415.2625
1550.78776	18094.8625
1554.14038	17938.4625
1557.49077	17881.7625
1560.83892	17980.6625
1564.18484	18095.3625
1567.52853	18317.3625
1570.86999	18538.5625
1574.20922	18857.7625
1577.54624	19023.0625
1580.88103	18854.2625
1584.2136	18702.5625
1587.54395	19003.1625
1590.87208	19734.2625
1594.19801	20803.0625
1597.52172	21912.5625
1600.84321	22180.6625
1604.16251	21235.1625
1607.47959	19670.4625
1610.79447	18057.9625
1614.10715	16615.7625
1617.41763	15520.6625
1620.7259	14805.4625
1624.03199	14467.8625
1627.33587	14498.3625
1630.63757	14947.1625
1633.93707	15827.8625
1637.23439	17413.8625
1640.52951	19744.6625
1643.82246	22597.0625
1647.11321	24884.8625
1650.40179	25310.4625
1653.68819	23468.7625
1656.97241	20309.8625
1660.25446	17288.8625
1663.53433	15140.0625
1666.81203	13791.6625
1670.08756	13032.9625
1673.36092	12556.7625
1676.63211	12245.0625
1679.90115	12029.0625
1683.16801	11851.9625
1686.43272	11701.6625
1689.69527	11580.1625
1692.95567	11444.1625
1696.2139	11299.9625
1699.46999	11140.0625
1702.72392	11086.7625
1705.97571	11135.6625
1709.22535	11196.5625
1712.47284	11250.1625
1715.71819	11285.9625
1718.96139	11259.0625
1722.20246	11245.6625
1725.44139	11123.6625
1728.67818	11087.9625
1731.91284	11008.9625
1735.14537	10960.2625
1738.37576	10900.5625
1741.60403	10832.9625
1744.83017	10772.4625
1748.05418	10734.8625
1751.27607	10693.1625
1754.49584	10628.0625
1757.71349	10558.9625
1760.92903	10514.9625
1764.14244	10510.5625
1767.35375	10509.6625
1770.56294	10488.0625
1773.77002	10479.5625
1776.97499	10492.6625
1780.17785	10537.3625
1783.37861	10548.9625
1786.57727	10542.9625
1789.77382	10502.2625
1792.96828	10538.9625
1796.16064	10520.8625
1799.3509	10484.5625
1802.53907	10465.1625
1805.72514	10445.2625
1808.90913	10421.7625
1812.09102	10414.9625
1815.27083	10392.7625
1818.44856	10364.0625
1821.6242	10388.3625
1824.79776	10393.7625
1827.96924	10368.3625
1831.13864	10378.4625
1834.30597	10375.0625
1837.47122	10373.6625
1840.6344	10377.4625
1843.7955	10376.7625
1846.95454	10361.5625
1850.11151	10346.6625
1853.26642	10341.9625
1856.41926	10336.5625
1859.57004	10352.2625
1862.71876	10337.6625
1865.86542	10298.7625
1869.01003	10297.5625
1872.15258	10261.8625
1875.29308	10278.0625
1878.43152	10258.2625
1881.56792	10239.5625
1884.70227	10246.1625
1887.83457	10254.4625
1890.96482	10233.7625
1894.09304	10195.5625
1897.21921	10191.2625
1900.34335	10161.3625
1903.46544	10164.0625
1906.58551	10160.9625
1909.70353	10167.2625
1912.81953	10156.2625
1915.93349	10100.8625
1919.04543	10083.1625
1922.15534	10055.8625
1925.26322	10055.2625
1928.36908	10046.7625
1931.47292	10004.0625
1934.57473	9974.5625
1937.67453	9940.5625
1940.77232	9924.9625
1943.86808	9904.9625
1946.96184	9875.6625
1950.05358	9826.0625
1953.14331	9800.1625
1956.23103	9789.5625
1959.31675	9745.5625
1962.40046	9722.7625
1965.48217	9711.0625
1968.56188	9693.7625
1971.63959	9662.5625
1974.7153	9618.6625
1977.78901	9605.8625
1980.86073	9555.4625
1983.93046	9528.7625
1986.99819	9513.0625
1990.06394	9508.1625
1993.1277	9470.5625
1996.18947	9433.9625
1999.24925	9406.7625
2002.30706	9385.1625
2005.36288	9361.2625
2008.41672	9318.8625
2011.46859	9326.6625
2014.51848	9290.0625
2017.56639	9242.9625
2020.61233	9239.2625
2023.6563	9210.3625
2026.6983	9183.2625
2029.73833	9186.1625
2032.7764	9124.9625
2035.8125	9137.4625
2038.84664	9126.2625
2041.87881	9121.0625
2044.90903	9096.5625
2047.93729	9068.9625
2050.96359	9074.5625
2053.98794	9070.9625
2057.01034	9048.0625
2060.03078	9047.0625
2063.04927	9031.7625
2066.06582	9020.2625
2069.08042	9030.1625
2072.09307	9048.0625
2075.10378	9032.6625
2078.11255	9024.7625
2081.11938	9023.9625
2084.12426	9042.4625
2087.12722	9050.4625
2090.12824	9022.4625
2093.12732	9043.1625
2096.12447	9029.5625
2099.11969	9052.8625
2102.11299	9053.4625
2105.10435	9070.9625
2108.09379	9074.9625
2111.08131	9075.8625
2114.0669	9096.6625
2117.05057	9088.8625
2120.03233	9085.1625
2123.01216	9088.6625
2125.99008	9102.5625
2128.96609	9125.4625
2131.94018	9127.2625
2134.91236	9126.6625
2137.88263	9130.8625
2140.851	9129.2625
2143.81746	9166.6625
2146.78201	9126.1625
2149.74466	9135.2625
2152.7054	9106.9625
2155.66425	9102.6625
2158.6212	9135.4625
2161.57625	9120.4625
2164.52941	9125.6625
2167.48067	9086.3625
2170.43004	9094.2625
2173.37752	9100.4625
2176.32311	9110.8625
2179.26681	9102.5625
2182.20863	9105.7625
2185.14856	9100.7625
2188.08661	9083.0625
2191.02278	9093.0625
2193.95707	9063.5625
2196.88948	9065.3625
2199.82001	9079.2625
2202.74867	9065.6625
2205.67545	9046.9625
2208.60037	9055.9625
2211.52341	9026.2625
2214.44458	8988.3625
2217.36388	8976.5625
2220.28132	8970.7625
2223.1969	8957.2625
2226.11061	8949.9625
2229.02246	8928.5625
2231.93245	8919.9625
2234.84058	8923.7625
2237.74686	8903.6625
2240.65128	8893.8625
2243.55385	8902.6625
2246.45456	8907.3625
2249.35343	8859.9625
2252.25044	8869.3625
2255.14561	8854.0625
2258.03893	8836.2625
2260.93041	8809.1625
2263.82004	8814.0625
2266.70783	8797.8625
2269.59378	8759.3625
2272.4779	8741.4625
2275.36017	8725.9625
2278.24061	8722.0625
2281.11922	8716.9625
2283.996	8693.4625
2286.87094	8696.4625
2289.74405	8673.9625
2292.61534	8630.0625
2295.4848	8651.1625
2298.35243	8656.3625
2301.21824	8641.1625
2304.08223	8634.8625
2306.94439	8629.3625
2309.80474	8616.1625
2312.66327	8628.3625
2315.51999	8616.1625
2318.37489	8614.0625
2321.22797	8570.1625
2324.07925	8570.2625
2326.92871	8567.9625
2329.77637	8568.2625
2332.62222	8549.4625
2335.46626	8563.2625
2338.3085	8546.3625
2341.14893	8518.2625
2343.98756	8539.9625
2346.8244	8522.7625
2349.65943	8533.1625
2352.49267	8541.2625
2355.32411	8531.4625
2358.15376	8508.8625
2360.98161	8518.3625
2363.80768	8518.8625
2366.63195	8541.2625
2369.45444	8523.3625
2372.27514	8526.1625
2375.09405	8512.0625
2377.91118	8519.5625
2380.72652	8489.4625
2383.54009	8465.3625
2386.35187	8459.1625
2389.16188	8425.6625
2391.97011	8404.4625
2394.77657	8404.5625
2397.58125	8355.9625
2400.38416	8355.5625
2403.18529	8347.9625
2405.98466	8348.8625
2408.78226	8352.1625
2411.57809	8319.1625
2414.37216	8337.3625
2417.16446	8303.6625
2419.955	8311.2625
2422.74378	8318.8625
2425.5308	8312.5625
2428.31606	8306.8625
2431.09956	8310.5625
2433.88131	8270.1625
2436.6613	8296.4625
2439.43954	8290.0625
2442.21603	8272.2625
2444.99077	8292.0625
2447.76377	8271.2625
2450.53501	8273.3625
2453.30451	8311.0625
2456.07226	8278.7625
2458.83827	8268.7625
2461.60254	8263.5625
2464.36507	8267.2625
2467.12586	8259.9625
2469.88492	8251.2625
2472.64224	8264.7625
2475.39782	8245.2625
2478.15167	8251.1625
2480.90379	8266.5625
2483.65417	8269.5625
2486.40283	8278.0625
2489.14976	8275.1625
2491.89497	8265.5625
2494.63845	8265.2625
2497.3802	8232.3625
2500.12024	8262.1625
2502.85855	8212.5625
2505.59514	8243.6625
2508.33002	8237.1625
2511.06318	8225.2625
2513.79462	8211.9625
2516.52435	8200.8625
2519.25237	8197.7625
2521.97867	8175.7625
2524.70327	8175.8625
2527.42616	8194.5625
2530.14734	8182.3625
2532.86681	8175.8625
2535.58458	8157.2625
2538.30065	8161.8625
2541.01501	8174.8625
2543.72768	8136.2625
2546.43864	8137.8625
2549.14791	8140.8625
2551.85548	8137.2625
2554.56136	8112.2625
2557.26554	8121.0625
2559.96803	8101.5625
2562.66883	8107.2625
2565.36794	8106.2625
2568.06536	8089.0625
2570.7611	8089.1625
2573.45514	8059.4625
2576.14751	8073.6625
2578.83819	8050.8625
2581.52719	8016.4625
2584.21451	8022.2625
2586.90015	8015.0625
2589.58411	8000.9625
2592.2664	8020.4625
2594.94701	8016.2625
2597.62594	7993.0625
2600.30321	7992.3625
2602.9788	7989.5625
2605.65273	7988.7625
2608.32498	7975.9625
2610.99557	7975.2625
2613.66449	7966.3625
2616.33175	7956.5625
2618.99734	7959.4625
2621.66128	7925.0625
2624.32355	7956.4625
2626.98416	7933.9625
2629.64311	7925.0625
2632.30041	7916.9625
2634.95605	7903.5625
2637.61004	7881.1625
2640.26238	7881.0625
2642.91306	7899.6625
2645.56209	7857.9625
2648.20948	7879.8625
2650.85521	7875.9625
2653.4993	7883.9625
2656.14175	7900.6625
2658.78255	7912.4625
2661.42171	7901.9625
2664.05923	7890.8625
2666.6951	7933.1625
2669.32934	7911.0625
2671.96194	7912.9625
2674.59291	7928.4625
2677.22224	7935.8625
2679.84993	7918.5625
2682.476	7914.2625
2685.10043	7922.1625
2687.72324	7917.3625
2690.34441	7921.2625
2692.96396	7894.0625
2695.58188	7915.8625
2698.19818	7918.1625
2700.81285	7906.1625
2703.4259	7894.6625
2706.03733	7821.5625
2708.64714	7869.0625
2711.25533	7893.9625
2713.86191	7920.9625
2716.46687	7947.1625
2719.07021	7945.7625
2721.67194	7951.0625
2724.27206	7940.6625
2726.87057	7973.4625
2729.46747	7948.2625
2732.06276	7962.1625
2734.65644	7961.9625
2737.24852	7994.1625
2739.83899	7973.6625
2742.42786	7992.4625
2745.01513	7961.7625
2747.60079	7967.5625
2750.18486	7951.0625
2752.76733	7962.5625
2755.3482	7915.1625
2757.92747	7960.4625
2760.50515	7922.6625
2763.08123	7923.3625
2765.65573	7915.8625
2768.22863	7918.1625
2770.79994	7894.1625
2773.36967	7912.4625
2775.9378	7898.8625
2778.50435	7903.5625
2781.06932	7906.2625
2783.6327	7901.5625
2786.1945	7892.2625
2788.75471	7883.7625
2791.31335	7854.5625
2793.87041	7871.0625
2796.42589	7857.4625
2798.97979	7853.1625
2801.53212	7817.4625
2804.08288	7810.5625
2806.63206	7809.2625
2809.17967	7808.8625
2811.72571	7789.8625
2814.27018	7757.8625
2816.81308	7751.2625
2819.35442	7738.5625
2821.89419	7735.4625
2824.43239	7728.7625
2826.96904	7736.7625
2829.50412	7713.9625
2832.03763	7709.6625
2834.56959	7716.6625
2837.1	7713.2625
2839.62884	7695.5625
2842.15613	7695.8625
2844.68186	7704.5625
2847.20604	7686.9625
2849.72867	7707.6625
2852.24974	7693.8625
2854.76927	7698.6625
2857.28724	7664.0625
2859.80367	7676.4625
2862.31855	7701.7625
2864.83189	7683.8625
2867.34368	7680.7625
2869.85393	7697.3625
2872.36264	7689.6625
2874.8698	7678.1625
2877.37543	7699.0625
2879.87952	7693.9625
2882.38207	7709.3625
2884.88308	7696.6625
2887.38256	7705.2625
2889.88051	7703.2625
2892.37692	7718.6625
2894.8718	7719.2625
2897.36515	7753.9625
2899.85698	7731.2625
2902.34727	7754.7625
2904.83604	7740.1625
2907.32328	7760.2625
2909.809	7742.9625
2912.29319	7755.9625
2914.77587	7759.5625
2917.25702	7752.8625
2919.73665	7756.7625
2922.21476	7747.7625
2924.69136	7757.7625
2927.16644	7755.7625
2929.64	7745.7625
2932.11205	7737.1625
2934.58258	7685.4625
2937.05161	7698.0625
2939.51912	7714.0625
2941.98513	7701.7625
2944.44962	7693.3625
2946.91261	7671.6625
2949.37409	7678.8625
2951.83407	7660.0625
2954.29254	7661.1625
2956.74951	7656.2625
2959.20498	7639.1625
2961.65895	7609.5625
2964.11142	7617.1625
2966.56239	7606.6625
2969.01186	7617.7625
2971.45984	7581.1625
2973.90632	7577.9625
2976.35131	7563.3625
2978.7948	7568.3625
2981.23681	7534.2625
2983.67732	7533.2625
2986.11635	7514.1625
2988.55388	7485.8625
2990.98993	7480.4625
2993.4245	7463.3625
2995.85758	7443.4625
2998.28917	7420.4625
3000.71928	7407.3625
3003.14791	7402.0625
3005.57506	7378.8625
3008.00073	7377.0625
3010.42493	7375.4625
3012.84764	7374.2625
3015.26888	7337.0625
3017.68865	7327.1625
3020.10694	7344.9625
3022.52376	7318.7625
3024.9391	7303.2625
3027.35298	7299.8625
3029.76539	7298.5625
3032.17632	7306.7625
3034.5858	7294.2625
3036.9938	7287.3625
3039.40034	7251.1625
3041.80542	7264.4625
3044.20903	7235.5625
3046.61118	7241.0625
3049.01187	7257.2625
3051.4111	7245.1625
3053.80888	7226.2625
3056.20519	7212.7625
3058.60005	7215.2625
3060.99345	7200.3625
3063.3854	7185.7625
3065.7759	7170.6625
3068.16494	7176.5625
3070.55254	7140.6625
3072.93868	7113.7625
