Data from AgNPs_FTO_APTES_UA_50uM_CRN_10uM_R6G_10uM_NaF_0.1M_Addition_RamanShift__6__13-20-24-866.txt Node

Date: Mon Feb 21 13:20:24 GMT 2022
User: TCL
Spectrometer: QEP01345
Trigger mode: 4
Integration Time (sec): 7.000000E0
Scans to average: 10
Electric dark correction enabled: true
Nonlinearity correction enabled: false
Boxcar width: 0
XAxis mode: Raman Shifts
Number of Pixels in Spectrum: 1044
>>>>>Begin Spectral Data<<<<<
46.04893	0.6125
50.45542	-0.8875
54.85868	-0.6875
59.25871	-1.6875
63.6555	71.5125
68.04907	77.7125
72.43941	79.9125
76.82654	84.5125
81.21044	87.3125
85.59113	89.5125
89.96862	95.0125
94.34289	97.3125
98.71396	98.5125
103.08183	102.9125
107.4465	105.2125
111.80798	105.2125
116.16626	104.9125
120.52136	107.8125
124.87327	117.9125
129.222	118.6125
133.56755	124.6125
137.90993	138.4125
142.24913	149.6125
146.58517	164.5125
150.91804	193.3125
155.24774	224.1125
159.57429	283.5125
163.89768	358.5125
168.21792	480.1125
172.53501	646.5125
176.84895	901.5125
181.15975	1272.9125
185.46741	1777.1125
189.77193	2439.8125
194.07331	3267.3125
198.37157	4202.1125
202.6667	5181.6125
206.9587	6161.2125
211.24758	7127.4125
215.53334	8081.3125
219.81599	9121.1125
224.09553	10263.4125
228.37195	11539.7125
232.64527	12947.4125
236.91549	14441.7125
241.18261	15920.4125
245.44663	17273.4125
249.70755	18378.1125
253.96539	19341.0125
258.22014	20121.5125
262.4718	20767.9125
266.72039	21183.5125
270.96589	21427.5125
275.20832	21338.8125
279.44768	21125.2125
283.68397	20864.2125
287.91719	20613.9125
292.14735	20457.7125
296.37445	20392.8125
300.59849	20384.5125
304.81948	20505.2125
309.03742	20590.9125
313.25231	20545.8125
317.46415	20352.1125
321.67296	20069.4125
325.87872	19859.7125
330.08145	19856.4125
334.28114	19859.8125
338.47781	19954.4125
342.67145	20256.7125
346.86207	20550.5125
351.04966	20939.5125
355.23424	21374.4125
359.4158	21751.1125
363.59435	21950.5125
367.76989	22071.6125
371.94243	22184.3125
376.11196	22240.0125
380.27849	22357.4125
384.44203	22450.1125
388.60257	22625.6125
392.76012	22819.9125
396.91468	23073.5125
401.06626	23363.8125
405.21485	23556.0125
409.36047	23461.1125
413.50311	23124.3125
417.64277	22919.3125
421.77947	23007.8125
425.9132	23134.0125
430.04396	23254.6125
434.17176	23433.1125
438.2966	23709.9125
442.41849	24301.9125
446.53742	25219.7125
450.6534	26135.7125
454.76644	26649.0125
458.87653	26706.4125
462.98368	26425.4125
467.08789	25946.5125
471.18916	25335.2125
475.2875	24679.2125
479.38291	24209.3125
483.4754	23841.3125
487.56496	23562.6125
491.6516	23347.2125
495.73531	23175.8125
499.81612	23132.5125
503.89401	23344.7125
507.96899	23432.5125
512.04106	23333.3125
516.11023	23173.2125
520.1765	23056.4125
524.23987	22972.9125
528.30034	22956.6125
532.35792	22866.9125
536.41261	22601.0125
540.46441	22254.0125
544.51333	22165.7125
548.55936	22275.3125
552.60252	22724.7125
556.64279	23410.8125
560.6802	23949.0125
564.71473	24080.4125
568.7464	24299.7125
572.7752	24939.6125
576.80114	25694.2125
580.82422	26493.6125
584.84444	27731.4125
588.86181	29865.6125
592.87633	32292.9125
596.888	33280.5125
600.89682	31586.9125
604.9028	30081.9125
608.90594	31113.3125
612.90624	32799.2125
616.90371	30492.6125
620.89834	25740.5125
624.89015	23659.7125
628.87913	23374.2125
632.86528	23546.6125
636.84862	23459.2125
640.82913	22943.9125
644.80683	22304.9125
648.78172	21951.7125
652.75379	21991.1125
656.72306	22311.3125
660.68952	22778.0125
664.65319	22558.2125
668.61405	22098.1125
672.57211	22058.8125
676.52738	22333.1125
680.47986	22269.3125
684.42955	22096.4125
688.37646	21931.5125
692.32058	22080.0125
696.26192	22440.2125
700.20048	22828.4125
704.13626	23028.1125
708.06928	22925.8125
711.99952	22755.4125
715.927	22761.4125
719.85171	22927.5125
723.77365	22891.7125
727.69284	22538.7125
731.60928	22258.3125
735.52295	22205.1125
739.43388	22311.1125
743.34206	22395.3125
747.24749	22543.8125
751.15017	22789.8125
755.05012	23110.6125
758.94733	23743.4125
762.8418	24938.3125
766.73354	26793.6125
770.62254	28575.4125
774.50882	28874.3125
778.39237	27644.1125
782.27321	25742.2125
786.15132	24189.9125
790.02671	23172.3125
793.89938	22615.3125
797.76935	22331.7125
801.6366	22192.5125
805.50115	22110.6125
809.36299	21955.6125
813.22213	21799.7125
817.07857	21634.7125
820.93231	21538.9125
824.78336	21462.8125
828.63172	21452.9125
832.47738	21406.2125
836.32036	21414.6125
840.16066	21492.9125
843.99827	21537.2125
847.8332	21481.7125
851.66546	21508.3125
855.49504	21506.3125
859.32195	21485.7125
863.1462	21483.7125
866.96777	21403.7125
870.78668	21386.2125
874.60293	21464.4125
878.41652	21502.5125
882.22745	21625.3125
886.03573	21746.4125
889.84136	21700.0125
893.64433	21624.0125
897.44466	21560.4125
901.24235	21531.6125
905.0374	21403.8125
908.8298	21342.5125
912.61957	21285.5125
916.40671	21453.6125
920.19121	21713.9125
923.97308	22091.1125
927.75233	22234.2125
931.52895	22100.4125
935.30295	21695.5125
939.07433	21264.4125
942.84309	20982.2125
946.60924	20832.6125
950.37278	20830.4125
954.13371	20847.7125
957.89203	20820.1125
961.64774	20783.7125
965.40086	20801.4125
969.15137	20840.2125
972.89929	20766.5125
976.64461	20819.2125
980.38733	20821.5125
984.12747	20889.4125
987.86502	21028.0125
991.59999	21211.2125
995.33237	21459.1125
999.06217	22023.4125
1002.78939	22704.9125
1006.51404	23434.4125
1010.23611	23978.5125
1013.95561	24306.5125
1017.67255	24322.8125
1021.38692	23954.0125
1025.09872	23386.6125
1028.80796	23051.5125
1032.51465	23093.7125
1036.21877	23297.1125
1039.92035	23348.6125
1043.61937	23319.5125
1047.31584	23120.7125
1051.00976	22910.6125
1054.70114	22793.4125
1058.38998	22814.2125
1062.07627	22981.7125
1065.76003	23204.5125
1069.44126	23504.7125
1073.11995	23935.3125
1076.79611	24370.6125
1080.46974	24609.7125
1084.14085	24945.7125
1087.80943	25284.9125
1091.47549	25508.1125
1095.13903	25453.2125
1098.80005	25014.1125
1102.45857	24469.2125
1106.11456	24040.6125
1109.76805	24000.9125
1113.41903	24082.1125
1117.06751	24264.6125
1120.71348	24577.2125
1124.35696	24833.8125
1127.99793	25136.6125
1131.63641	25315.2125
1135.2724	25224.3125
1138.90589	25170.4125
1142.5369	25189.1125
1146.16542	25373.5125
1149.79145	25658.8125
1153.415	25947.5125
1157.03607	26215.9125
1160.65467	26906.0125
1164.27079	28040.0125
1167.88443	29559.2125
1171.49561	31514.9125
1175.10432	34049.4125
1178.71056	37085.1125
1182.31434	39910.4125
1185.91565	41018.5125
1189.51451	40382.7125
1193.11091	39036.3125
1196.70485	37424.3125
1200.29634	35760.4125
1203.88538	34369.3125
1207.47197	33438.6125
1211.05612	32760.2125
1214.63782	32131.5125
1218.21708	31685.0125
1221.79391	31562.6125
1225.36829	31609.5125
1228.94024	31425.0125
1232.50976	30731.1125
1236.07685	29895.0125
1239.6415	29340.5125
1243.20374	29200.2125
1246.76355	29259.1125
1250.32093	29554.1125
1253.8759	30194.8125
1257.42845	31143.5125
1260.97859	32204.6125
1264.52631	33376.3125
1268.07163	34672.9125
1271.61453	35762.1125
1275.15503	36807.0125
1278.69312	37882.6125
1282.22882	39118.4125
1285.76211	40696.3125
1289.29301	42436.5125
1292.82151	44475.9125
1296.34761	46967.4125
1299.87133	49800.7125
1303.39266	52845.9125
1306.9116	55870.2125
1310.42815	58279.2125
1313.94233	59597.0125
1317.45412	58913.6125
1320.96354	57119.7125
1324.47058	55147.0125
1327.97525	53386.6125
1331.47754	52155.1125
1334.97747	51412.6125
1338.47502	50783.0125
1341.97022	50169.4125
1345.46305	49519.8125
1348.95352	49289.9125
1352.44163	49942.3125
1355.92738	52063.8125
1359.41078	55301.6125
1362.89183	58049.3125
1366.37053	57702.7125
1369.84688	53172.1125
1373.32088	46802.7125
1376.79254	42339.6125
1380.26186	40738.0125
1383.72883	40483.9125
1387.19347	40289.3125
1390.65578	39699.8125
1394.11575	39337.6125
1397.57339	39593.2125
1401.0287	40123.6125
1404.48168	40584.9125
1407.93234	40620.9125
1411.38068	40163.1125
1414.82669	39329.1125
1418.27039	38179.1125
1421.71177	36830.1125
1425.15083	35701.6125
1428.58758	35204.6125
1432.02203	35602.3125
1435.45416	36510.9125
1438.88399	37458.7125
1442.31151	38088.2125
1445.73673	38297.8125
1449.15965	38362.6125
1452.58027	38210.6125
1455.9986	37872.4125
1459.41463	37888.7125
1462.82837	38528.7125
1466.23982	39526.2125
1469.64898	40551.4125
1473.05586	41402.9125
1476.46045	41846.3125
1479.86276	41998.4125
1483.26279	41886.3125
1486.66054	41913.9125
1490.05602	42322.1125
1493.44922	42901.6125
1496.84016	43184.1125
1500.22882	43451.8125
1503.61521	43821.8125
1506.99934	44501.7125
1510.38121	44937.2125
1513.76081	44731.2125
1517.13816	43727.1125
1520.51324	42481.4125
1523.88607	41517.4125
1527.25665	41221.3125
1530.62498	41283.8125
1533.99105	41008.0125
1537.35488	40293.3125
1540.71647	39193.0125
1544.07581	38033.5125
1547.4329	36939.1125
1550.78776	36097.8125
1554.14038	35520.0125
1557.49077	35185.2125
1560.83892	35120.1125
1564.18484	35173.1125
1567.52853	35308.8125
1570.86999	35684.4125
1574.20922	36268.5125
1577.54624	36805.0125
1580.88103	36857.7125
1584.2136	37076.4125
1587.54395	38376.4125
1590.87208	40728.9125
1594.19801	43942.4125
1597.52172	47011.1125
1600.84321	48039.4125
1604.16251	45759.4125
1607.47959	41653.7125
1610.79447	37241.0125
1614.10715	33514.9125
1617.41763	30692.3125
1620.7259	28994.9125
1624.03199	28252.8125
1627.33587	28404.9125
1630.63757	29561.3125
1633.93707	31857.1125
1637.23439	35783.7125
1640.52951	41682.6125
1643.82246	48633.7125
1647.11321	53841.5125
1650.40179	53937.2125
1653.68819	48623.4125
1656.97241	40914.5125
1660.25446	33999.2125
1663.53433	29254.8125
1666.81203	26376.6125
1670.08756	24660.5125
1673.36092	23643.7125
1676.63211	22938.3125
1679.90115	22483.4125
1683.16801	22149.6125
1686.43272	21841.2125
1689.69527	21607.8125
1692.95567	21359.7125
1696.2139	21169.4125
1699.46999	21006.3125
1702.72392	20885.5125
1705.97571	20907.9125
1709.22535	20923.9125
1712.47284	20993.6125
1715.71819	20969.3125
1718.96139	20949.7125
1722.20246	20859.1125
1725.44139	20712.2125
1728.67818	20568.1125
1731.91284	20495.8125
1735.14537	20373.8125
1738.37576	20296.0125
1741.60403	20214.5125
1744.83017	20156.9125
1748.05418	20053.1125
1751.27607	19954.8125
1754.49584	19906.5125
1757.71349	19866.3125
1760.92903	19800.7125
1764.14244	19762.1125
1767.35375	19781.5125
1770.56294	19747.5125
1773.77002	19713.1125
1776.97499	19711.3125
1780.17785	19717.1125
1783.37861	19711.8125
1786.57727	19696.6125
1789.77382	19648.8125
1792.96828	19652.2125
1796.16064	19607.6125
1799.3509	19577.4125
1802.53907	19547.9125
1805.72514	19545.2125
1808.90913	19469.1125
1812.09102	19461.8125
1815.27083	19412.8125
1818.44856	19400.3125
1821.6242	19375.6125
1824.79776	19377.1125
1827.96924	19410.9125
1831.13864	19388.8125
1834.30597	19440.6125
1837.47122	19422.4125
1840.6344	19394.4125
1843.7955	19402.0125
1846.95454	19427.7125
1850.11151	19403.5125
1853.26642	19374.5125
1856.41926	19381.8125
1859.57004	19355.8125
1862.71876	19307.4125
1865.86542	19332.3125
1869.01003	19285.1125
1872.15258	19293.3125
1875.29308	19241.8125
1878.43152	19237.9125
1881.56792	19240.9125
1884.70227	19228.8125
1887.83457	19233.4125
1890.96482	19203.5125
1894.09304	19163.2125
1897.21921	19121.7125
1900.34335	19127.4125
1903.46544	19143.2125
1906.58551	19077.7125
1909.70353	19048.3125
1912.81953	19016.6125
1915.93349	19032.9125
1919.04543	18949.1125
1922.15534	18905.0125
1925.26322	18865.0125
1928.36908	18793.0125
1931.47292	18765.3125
1934.57473	18709.4125
1937.67453	18669.8125
1940.77232	18620.1125
1943.86808	18558.4125
1946.96184	18562.4125
1950.05358	18472.2125
1953.14331	18462.8125
1956.23103	18400.0125
1959.31675	18324.4125
1962.40046	18339.9125
1965.48217	18260.2125
1968.56188	18223.4125
1971.63959	18152.3125
1974.7153	18115.0125
1977.78901	18054.6125
1980.86073	17997.4125
1983.93046	17910.3125
1986.99819	17882.6125
1990.06394	17849.0125
1993.1277	17825.7125
1996.18947	17723.9125
1999.24925	17670.3125
2002.30706	17620.9125
2005.36288	17595.6125
2008.41672	17546.6125
2011.46859	17498.1125
2014.51848	17482.6125
2017.56639	17408.0125
2020.61233	17383.7125
2023.6563	17364.3125
2026.6983	17317.8125
2029.73833	17301.7125
2032.7764	17291.4125
2035.8125	17249.5125
2038.84664	17208.4125
2041.87881	17180.6125
2044.90903	17165.0125
2047.93729	17140.1125
2050.96359	17135.3125
2053.98794	17107.5125
2057.01034	17092.2125
2060.03078	17101.5125
2063.04927	17120.9125
2066.06582	17104.4125
2069.08042	17058.9125
2072.09307	17065.3125
2075.10378	17043.9125
2078.11255	17044.1125
2081.11938	17061.1125
2084.12426	17020.3125
2087.12722	17072.3125
2090.12824	17063.7125
2093.12732	17063.4125
2096.12447	17088.4125
2099.11969	17066.8125
2102.11299	17058.2125
2105.10435	17069.5125
2108.09379	17051.1125
2111.08131	17062.2125
2114.0669	17071.2125
2117.05057	17121.8125
2120.03233	17086.2125
2123.01216	17119.7125
2125.99008	17147.2125
2128.96609	17147.2125
2131.94018	17168.0125
2134.91236	17223.3125
2137.88263	17221.6125
2140.851	17247.6125
2143.81746	17223.4125
2146.78201	17236.9125
2149.74466	17228.5125
2152.7054	17231.4125
2155.66425	17200.7125
2158.6212	17221.2125
2161.57625	17212.0125
2164.52941	17223.9125
2167.48067	17183.6125
2170.43004	17163.9125
2173.37752	17158.1125
2176.32311	17153.0125
2179.26681	17218.9125
2182.20863	17206.2125
2185.14856	17211.5125
2188.08661	17220.3125
2191.02278	17249.8125
2193.95707	17203.0125
2196.88948	17190.6125
2199.82001	17195.9125
2202.74867	17176.0125
2205.67545	17158.6125
2208.60037	17147.3125
2211.52341	17093.8125
2214.44458	17076.6125
2217.36388	17050.1125
2220.28132	17003.6125
2223.1969	17006.6125
2226.11061	16987.9125
2229.02246	16973.0125
2231.93245	16953.4125
2234.84058	16911.0125
2237.74686	16938.9125
2240.65128	16944.5125
2243.55385	16928.6125
2246.45456	16938.2125
2249.35343	16866.7125
2252.25044	16809.7125
2255.14561	16779.6125
2258.03893	16794.9125
2260.93041	16726.5125
2263.82004	16714.8125
2266.70783	16654.1125
2269.59378	16633.5125
2272.4779	16595.9125
2275.36017	16555.3125
2278.24061	16562.6125
2281.11922	16503.0125
2283.996	16501.3125
2286.87094	16465.3125
2289.74405	16443.0125
2292.61534	16438.9125
2295.4848	16424.9125
2298.35243	16424.0125
2301.21824	16464.4125
2304.08223	16431.8125
2306.94439	16461.9125
2309.80474	16469.2125
2312.66327	16454.7125
2315.51999	16416.0125
2318.37489	16398.6125
2321.22797	16374.4125
2324.07925	16379.9125
2326.92871	16366.8125
2329.77637	16321.8125
2332.62222	16293.9125
2335.46626	16307.2125
2338.3085	16300.1125
2341.14893	16265.4125
2343.98756	16298.0125
2346.8244	16305.8125
2349.65943	16329.2125
2352.49267	16308.5125
2355.32411	16321.5125
2358.15376	16276.8125
2360.98161	16283.5125
2363.80768	16284.2125
2366.63195	16246.9125
2369.45444	16268.4125
2372.27514	16299.0125
2375.09405	16259.3125
2377.91118	16245.6125
2380.72652	16189.6125
2383.54009	16151.2125
2386.35187	16156.2125
2389.16188	16115.5125
2391.97011	16108.4125
2394.77657	16098.3125
2397.58125	16052.0125
2400.38416	16039.6125
2403.18529	16041.9125
2405.98466	16024.6125
2408.78226	15990.0125
2411.57809	15971.8125
2414.37216	15955.2125
2417.16446	15938.8125
2419.955	15919.0125
2422.74378	15953.6125
2425.5308	15896.9125
2428.31606	15880.6125
2431.09956	15919.9125
2433.88131	15861.1125
2436.6613	15899.1125
2439.43954	15902.4125
2442.21603	15892.4125
2444.99077	15894.7125
2447.76377	15891.9125
2450.53501	15895.9125
2453.30451	15909.1125
2456.07226	15852.5125
2458.83827	15899.5125
2461.60254	15883.8125
2464.36507	15880.9125
2467.12586	15879.1125
2469.88492	15881.9125
2472.64224	15906.7125
2475.39782	15906.0125
2478.15167	15891.6125
2480.90379	15908.7125
2483.65417	15921.1125
2486.40283	15927.4125
2489.14976	15917.9125
2491.89497	15930.8125
2494.63845	15954.1125
2497.3802	15917.4125
2500.12024	15900.2125
2502.85855	15943.1125
2505.59514	15916.6125
2508.33002	15893.8125
2511.06318	15910.9125
2513.79462	15858.9125
2516.52435	15863.4125
2519.25237	15837.1125
2521.97867	15876.8125
2524.70327	15844.3125
2527.42616	15844.5125
2530.14734	15844.2125
2532.86681	15843.3125
2535.58458	15829.8125
2538.30065	15819.1125
2541.01501	15821.6125
2543.72768	15773.7125
2546.43864	15814.7125
2549.14791	15770.5125
2551.85548	15765.5125
2554.56136	15720.7125
2557.26554	15751.0125
2559.96803	15743.4125
2562.66883	15763.4125
2565.36794	15776.6125
2568.06536	15774.5125
2570.7611	15767.5125
2573.45514	15710.0125
2576.14751	15738.7125
2578.83819	15648.2125
2581.52719	15694.1125
2584.21451	15670.8125
2586.90015	15679.8125
2589.58411	15642.1125
2592.2664	15673.1125
2594.94701	15652.5125
2597.62594	15653.8125
2600.30321	15642.1125
2602.9788	15635.8125
2605.65273	15623.6125
2608.32498	15638.3125
2610.99557	15627.0125
2613.66449	15632.0125
2616.33175	15625.7125
2618.99734	15681.8125
2621.66128	15605.2125
2624.32355	15595.3125
2626.98416	15598.7125
2629.64311	15575.3125
2632.30041	15561.9125
2634.95605	15553.8125
2637.61004	15568.3125
2640.26238	15521.9125
2642.91306	15548.1125
2645.56209	15515.4125
2648.20948	15516.5125
2650.85521	15545.1125
2653.4993	15589.2125
2656.14175	15574.4125
2658.78255	15608.8125
2661.42171	15597.0125
2664.05923	15660.3125
2666.6951	15668.1125
2669.32934	15694.0125
2671.96194	15680.3125
2674.59291	15664.1125
2677.22224	15642.6125
2679.84993	15689.8125
2682.476	15636.9125
2685.10043	15642.6125
2687.72324	15631.3125
2690.34441	15630.8125
2692.96396	15635.8125
2695.58188	15641.3125
2698.19818	15624.6125
2700.81285	15632.4125
2703.4259	15628.1125
2706.03733	15542.2125
2708.64714	15574.4125
2711.25533	15649.5125
2713.86191	15649.9125
2716.46687	15659.0125
2719.07021	15680.1125
2721.67194	15717.3125
2724.27206	15723.4125
2726.87057	15761.8125
2729.46747	15785.1125
2732.06276	15785.6125
2734.65644	15799.4125
2737.24852	15755.8125
2739.83899	15752.7125
2742.42786	15779.3125
2745.01513	15771.9125
2747.60079	15767.4125
2750.18486	15713.4125
2752.76733	15712.3125
2755.3482	15685.3125
2757.92747	15721.6125
2760.50515	15692.2125
2763.08123	15698.3125
2765.65573	15724.3125
2768.22863	15696.3125
2770.79994	15673.3125
2773.36967	15700.0125
2775.9378	15690.2125
2778.50435	15704.7125
2781.06932	15707.4125
2783.6327	15702.4125
2786.1945	15690.9125
2788.75471	15732.1125
2791.31335	15704.3125
2793.87041	15681.6125
2796.42589	15609.0125
2798.97979	15611.1125
2801.53212	15573.3125
2804.08288	15575.8125
2806.63206	15571.9125
2809.17967	15534.1125
2811.72571	15485.0125
2814.27018	15439.0125
2816.81308	15428.8125
2819.35442	15426.4125
2821.89419	15395.2125
2824.43239	15375.8125
2826.96904	15381.5125
2829.50412	15403.0125
2832.03763	15361.5125
2834.56959	15354.5125
2837.1	15344.7125
2839.62884	15302.1125
2842.15613	15249.0125
2844.68186	15253.8125
2847.20604	15283.4125
2849.72867	15310.5125
2852.24974	15267.5125
2854.76927	15268.2125
2857.28724	15216.1125
2859.80367	15237.2125
2862.31855	15216.6125
2864.83189	15219.7125
2867.34368	15200.6125
2869.85393	15230.6125
2872.36264	15199.0125
2874.8698	15196.1125
2877.37543	15201.6125
2879.87952	15165.7125
2882.38207	15197.6125
2884.88308	15192.6125
2887.38256	15226.4125
2889.88051	15197.4125
2892.37692	15206.8125
2894.8718	15254.9125
2897.36515	15251.9125
2899.85698	15294.4125
2902.34727	15296.7125
2904.83604	15290.5125
2907.32328	15336.6125
2909.809	15327.1125
2912.29319	15347.4125
2914.77587	15337.6125
2917.25702	15318.8125
2919.73665	15312.1125
2922.21476	15327.6125
2924.69136	15311.6125
2927.16644	15332.9125
2929.64	15305.1125
2932.11205	15262.2125
2934.58258	15206.6125
2937.05161	15248.0125
2939.51912	15249.7125
2941.98513	15253.3125
2944.44962	15246.5125
2946.91261	15178.2125
2949.37409	15227.0125
2951.83407	15209.2125
2954.29254	15214.3125
2956.74951	15191.5125
2959.20498	15173.5125
2961.65895	15122.5125
2964.11142	15194.0125
2966.56239	15142.5125
2969.01186	15099.0125
2971.45984	15053.7125
2973.90632	15070.4125
2976.35131	15054.8125
2978.7948	14992.8125
2981.23681	15007.1125
2983.67732	14990.4125
2986.11635	14924.8125
2988.55388	14888.0125
2990.98993	14851.0125
2993.4245	14817.2125
2995.85758	14826.2125
2998.28917	14800.8125
3000.71928	14777.3125
3003.14791	14713.6125
3005.57506	14680.0125
3008.00073	14626.5125
3010.42493	14631.0125
3012.84764	14607.6125
3015.26888	14594.3125
3017.68865	14590.8125
3020.10694	14523.7125
3022.52376	14482.5125
3024.9391	14479.5125
