Data from AgNPs_FTO_APTES_UA_50uM_CRN_50uM_R6G_10uM_NaF_0.1M_Addition_RamanShift__2__14-35-04-960.txt Node

Date: Mon Feb 21 14:35:04 GMT 2022
User: TCL
Spectrometer: QEP01345
Trigger mode: 4
Integration Time (sec): 7.000000E0
Scans to average: 10
Electric dark correction enabled: true
Nonlinearity correction enabled: false
Boxcar width: 0
XAxis mode: Raman Shifts
Number of Pixels in Spectrum: 1044
>>>>>Begin Spectral Data<<<<<
46.04893	-0.0375
50.45542	-2.0375
54.85868	-0.4375
59.25871	-0.6375
63.6555	70.1625
68.04907	76.3625
72.43941	76.4625
76.82654	81.4625
81.21044	85.8625
85.59113	87.1625
89.96862	87.5625
94.34289	94.3625
98.71396	93.8625
103.08183	102.0625
107.4465	101.9625
111.80798	104.0625
116.16626	100.7625
120.52136	107.9625
124.87327	115.6625
129.222	114.0625
133.56755	121.9625
137.90993	130.7625
142.24913	136.7625
146.58517	154.1625
150.91804	174.9625
155.24774	207.9625
159.57429	254.5625
163.89768	326.4625
168.21792	428.9625
172.53501	581.4625
176.84895	814.0625
181.15975	1140.4625
185.46741	1600.3625
189.77193	2206.3625
194.07331	2946.3625
198.37157	3795.1625
202.6667	4684.0625
206.9587	5534.5625
211.24758	6439.6625
215.53334	7307.4625
219.81599	8232.9625
224.09553	9282.1625
228.37195	10417.6625
232.64527	11693.2625
236.91549	13038.2625
241.18261	14308.3625
245.44663	15486.2625
249.70755	16522.9625
253.96539	17428.0625
258.22014	18136.4625
262.4718	18745.3625
266.72039	19190.1625
270.96589	19395.2625
275.20832	19334.8625
279.44768	19157.7625
283.68397	18867.6625
287.91719	18618.2625
292.14735	18463.7625
296.37445	18453.5625
300.59849	18562.7625
304.81948	18759.4625
309.03742	18800.6625
313.25231	18778.6625
317.46415	18535.7625
321.67296	18201.8625
325.87872	17950.5625
330.08145	17834.6625
334.28114	17855.5625
338.47781	17997.5625
342.67145	18193.7625
346.86207	18546.7625
351.04966	18924.8625
355.23424	19342.3625
359.4158	19740.3625
363.59435	20003.6625
367.76989	20165.0625
371.94243	20281.0625
376.11196	20389.5625
380.27849	20511.3625
384.44203	20660.2625
388.60257	20778.2625
392.76012	20888.4625
396.91468	21081.3625
401.06626	21425.6625
405.21485	21597.1625
409.36047	21551.9625
413.50311	21218.1625
417.64277	20992.5625
421.77947	20953.3625
425.9132	21001.4625
430.04396	21118.7625
434.17176	21237.0625
438.2966	21495.0625
442.41849	21982.6625
446.53742	22723.2625
450.6534	23493.4625
454.76644	23950.3625
458.87653	24011.5625
462.98368	23658.1625
467.08789	23197.5625
471.18916	22726.1625
475.2875	22192.7625
479.38291	21778.1625
483.4754	21491.0625
487.56496	21288.4625
491.6516	21179.5625
495.73531	21092.3625
499.81612	21112.8625
503.89401	21300.2625
507.96899	21347.5625
512.04106	21239.2625
516.11023	21148.5625
520.1765	21079.9625
524.23987	21054.0625
528.30034	21061.3625
532.35792	20962.2625
536.41261	20744.3625
540.46441	20435.6625
544.51333	20301.6625
548.55936	20423.7625
552.60252	20792.9625
556.64279	21335.2625
560.6802	21675.8625
564.71473	21740.0625
568.7464	21960.3625
572.7752	22366.4625
576.80114	22827.6625
580.82422	23280.9625
584.84444	24229.8625
588.86181	25693.1625
592.87633	27309.0625
596.888	27780.3625
600.89682	26712.5625
604.9028	26206.7625
608.90594	28011.2625
612.90624	30236.8625
616.90371	28419.1625
620.89834	23964.1625
624.89015	21942.6625
628.87913	21697.2625
632.86528	21726.7625
636.84862	21625.4625
640.82913	21185.7625
644.80683	20675.3625
648.78172	20324.8625
652.75379	20339.0625
656.72306	20610.4625
660.68952	21062.2625
664.65319	20893.5625
668.61405	20541.8625
672.57211	20530.7625
676.52738	20676.7625
680.47986	20621.7625
684.42955	20437.6625
688.37646	20323.8625
692.32058	20473.1625
696.26192	20807.0625
700.20048	21154.5625
704.13626	21256.7625
708.06928	21155.4625
711.99952	20952.7625
715.927	20973.6625
719.85171	21124.6625
723.77365	21110.8625
727.69284	20824.5625
731.60928	20547.9625
735.52295	20516.2625
739.43388	20585.2625
743.34206	20683.9625
747.24749	20768.1625
751.15017	20884.2625
755.05012	21168.2625
758.94733	21688.8625
762.8418	22637.1625
766.73354	24229.6625
770.62254	25757.3625
774.50882	26314.7625
778.39237	25403.2625
782.27321	23826.2625
786.15132	22383.4625
790.02671	21442.0625
793.89938	21001.5625
797.76935	20803.2625
801.6366	20745.0625
805.50115	20702.1625
809.36299	20594.0625
813.22213	20404.5625
817.07857	20294.7625
820.93231	20182.0625
824.78336	20174.7625
828.63172	20152.6625
832.47738	20188.8625
836.32036	20270.1625
840.16066	20406.0625
843.99827	20486.9625
847.8332	20438.2625
851.66546	20322.3625
855.49504	20300.3625
859.32195	20255.7625
863.1462	20254.0625
866.96777	20179.6625
870.78668	20114.9625
874.60293	20146.2625
878.41652	20205.6625
882.22745	20355.5625
886.03573	20454.7625
889.84136	20423.1625
893.64433	20287.7625
897.44466	20215.7625
901.24235	20168.0625
905.0374	20078.6625
908.8298	19966.0625
912.61957	20025.0625
916.40671	20108.5625
920.19121	20365.2625
923.97308	20666.6625
927.75233	20871.8625
931.52895	20867.1625
935.30295	20647.8625
939.07433	20285.4625
942.84309	19975.1625
946.60924	19876.8625
950.37278	19841.1625
954.13371	19808.1625
957.89203	19701.5625
961.64774	19664.3625
965.40086	19666.8625
969.15137	19666.3625
972.89929	19668.9625
976.64461	19681.3625
980.38733	19746.4625
984.12747	19844.6625
987.86502	20065.1625
991.59999	20330.0625
995.33237	20706.5625
999.06217	21381.0625
1002.78939	22097.2625
1006.51404	22642.9625
1010.23611	22922.9625
1013.95561	23129.2625
1017.67255	23144.8625
1021.38692	22843.6625
1025.09872	22492.2625
1028.80796	22652.9625
1032.51465	23319.2625
1036.21877	23977.2625
1039.92035	24178.9625
1043.61937	23860.9625
1047.31584	23284.5625
1051.00976	22566.5625
1054.70114	22137.4625
1058.38998	21970.0625
1062.07627	21939.8625
1065.76003	21956.9625
1069.44126	22135.4625
1073.11995	22445.8625
1076.79611	22752.1625
1080.46974	23077.0625
1084.14085	23323.8625
1087.80943	23573.9625
1091.47549	23716.5625
1095.13903	23593.9625
1098.80005	23170.9625
1102.45857	22761.1625
1106.11456	22486.4625
1109.76805	22482.0625
1113.41903	22572.4625
1117.06751	22724.3625
1120.71348	22956.3625
1124.35696	23195.4625
1127.99793	23479.5625
1131.63641	23583.7625
1135.2724	23467.4625
1138.90589	23288.2625
1142.5369	23238.7625
1146.16542	23286.7625
1149.79145	23318.0625
1153.415	23391.7625
1157.03607	23635.4625
1160.65467	24219.3625
1164.27079	25203.4625
1167.88443	26508.5625
1171.49561	27994.5625
1175.10432	30045.1625
1178.71056	32725.4625
1182.31434	35256.9625
1185.91565	36275.8625
1189.51451	35766.5625
1193.11091	34305.4625
1196.70485	32778.0625
1200.29634	31427.4625
1203.88538	30386.2625
1207.47197	29610.4625
1211.05612	28938.0625
1214.63782	28295.3625
1218.21708	27960.0625
1221.79391	27939.2625
1225.36829	27969.2625
1228.94024	27789.2625
1232.50976	27209.4625
1236.07685	26535.7625
1239.6415	26150.7625
1243.20374	26109.0625
1246.76355	26265.4625
1250.32093	26681.3625
1253.8759	27240.8625
1257.42845	28008.9625
1260.97859	28852.9625
1264.52631	29854.6625
1268.07163	30787.4625
1271.61453	31846.6625
1275.15503	32832.6625
1278.69312	33784.3625
1282.22882	34583.5625
1285.76211	35616.0625
1289.29301	36833.2625
1292.82151	38318.6625
1296.34761	40102.7625
1299.87133	42534.2625
1303.39266	45447.5625
1306.9116	48453.3625
1310.42815	50989.7625
1313.94233	52220.7625
1317.45412	51356.4625
1320.96354	49214.1625
1324.47058	46871.2625
1327.97525	44928.0625
1331.47754	43708.5625
1334.97747	42870.4625
1338.47502	42254.4625
1341.97022	41542.7625
1345.46305	41043.6625
1348.95352	40997.6625
1352.44163	42034.1625
1355.92738	44421.5625
1359.41078	47851.5625
1362.89183	50564.6625
1366.37053	50088.1625
1369.84688	45788.7625
1373.32088	40224.3625
1376.79254	36330.4625
1380.26186	34836.3625
1383.72883	34495.2625
1387.19347	34131.2625
1390.65578	33423.0625
1394.11575	33181.9625
1397.57339	33391.2625
1401.0287	33875.0625
1404.48168	34345.2625
1407.93234	34359.6625
1411.38068	34058.8625
1414.82669	33512.3625
1418.27039	32583.9625
1421.71177	31702.1625
1425.15083	30828.9625
1428.58758	30524.4625
1432.02203	30961.5625
1435.45416	31716.8625
1438.88399	32435.2625
1442.31151	32815.2625
1445.73673	33000.7625
1449.15965	32988.8625
1452.58027	32770.0625
1455.9986	32460.2625
1459.41463	32285.9625
1462.82837	32741.8625
1466.23982	33543.2625
1469.64898	34351.4625
1473.05586	35008.7625
1476.46045	35396.1625
1479.86276	35512.1625
1483.26279	35455.7625
1486.66054	35439.3625
1490.05602	35753.0625
1493.44922	36206.6625
1496.84016	36524.4625
1500.22882	36886.5625
1503.61521	37650.5625
1506.99934	38736.1625
1510.38121	39633.3625
1513.76081	39678.6625
1517.13816	38589.3625
1520.51324	36917.7625
1523.88607	35591.9625
1527.25665	34929.3625
1530.62498	34722.9625
1533.99105	34444.1625
1537.35488	34048.7625
1540.71647	33426.0625
1544.07581	32695.7625
1547.4329	32020.3625
1550.78776	31432.5625
1554.14038	30991.8625
1557.49077	30799.2625
1560.83892	30651.6625
1564.18484	30637.6625
1567.52853	30806.6625
1570.86999	31128.1625
1574.20922	31611.4625
1577.54624	31994.9625
1580.88103	31869.6625
1584.2136	31965.3625
1587.54395	33016.6625
1590.87208	35069.0625
1594.19801	37714.9625
1597.52172	40261.8625
1600.84321	41085.6625
1604.16251	39417.8625
1607.47959	36010.3625
1610.79447	32358.1625
1614.10715	29298.2625
1617.41763	27156.8625
1620.7259	25923.3625
1624.03199	25438.0625
1627.33587	25646.5625
1630.63757	26525.4625
1633.93707	28214.6625
1637.23439	30981.8625
1640.52951	35054.6625
1643.82246	39891.9625
1647.11321	43619.5625
1650.40179	43924.8625
1653.68819	40165.0625
1656.97241	34372.2625
1660.25446	29249.9625
1663.53433	25783.5625
1666.81203	23720.1625
1670.08756	22554.8625
1673.36092	21793.0625
1676.63211	21327.9625
1679.90115	20987.4625
1683.16801	20696.0625
1686.43272	20559.4625
1689.69527	20341.4625
1692.95567	20196.3625
1696.2139	20053.5625
1699.46999	19855.4625
1702.72392	19806.9625
1705.97571	19816.0625
1709.22535	19900.7625
1712.47284	19978.8625
1715.71819	19965.7625
1718.96139	19933.3625
1722.20246	19875.4625
1725.44139	19807.7625
1728.67818	19743.3625
1731.91284	19645.7625
1735.14537	19536.9625
1738.37576	19497.1625
1741.60403	19411.7625
1744.83017	19368.3625
1748.05418	19293.7625
1751.27607	19236.9625
1754.49584	19213.9625
1757.71349	19102.9625
1760.92903	19091.9625
1764.14244	19041.0625
1767.35375	19049.3625
1770.56294	19026.1625
1773.77002	18961.5625
1776.97499	18994.0625
1780.17785	19045.1625
1783.37861	19079.5625
1786.57727	19091.2625
1789.77382	19047.2625
1792.96828	19019.3625
1796.16064	18991.0625
1799.3509	18982.1625
1802.53907	18958.6625
1805.72514	18947.3625
1808.90913	18886.8625
1812.09102	18875.7625
1815.27083	18853.8625
1818.44856	18849.2625
1821.6242	18849.9625
1824.79776	18840.0625
1827.96924	18816.2625
1831.13864	18797.3625
1834.30597	18789.5625
1837.47122	18809.9625
1840.6344	18815.1625
1843.7955	18799.3625
1846.95454	18815.8625
1850.11151	18824.7625
1853.26642	18805.0625
1856.41926	18757.4625
1859.57004	18744.5625
1862.71876	18739.0625
1865.86542	18720.0625
1869.01003	18721.4625
1872.15258	18747.4625
1875.29308	18760.7625
1878.43152	18718.6625
1881.56792	18693.6625
1884.70227	18691.0625
1887.83457	18677.2625
1890.96482	18657.3625
1894.09304	18638.4625
1897.21921	18630.4625
1900.34335	18633.2625
1903.46544	18601.0625
1906.58551	18622.1625
1909.70353	18571.0625
1912.81953	18544.0625
1915.93349	18576.4625
1919.04543	18524.5625
1922.15534	18515.8625
1925.26322	18447.9625
1928.36908	18424.8625
1931.47292	18383.5625
1934.57473	18373.0625
1937.67453	18336.8625
1940.77232	18282.3625
1943.86808	18247.0625
1946.96184	18202.4625
1950.05358	18165.7625
1953.14331	18114.2625
1956.23103	18078.3625
1959.31675	18042.3625
1962.40046	17979.0625
1965.48217	17943.1625
1968.56188	17915.7625
1971.63959	17896.0625
1974.7153	17829.7625
1977.78901	17789.7625
1980.86073	17759.3625
1983.93046	17657.3625
1986.99819	17589.8625
1990.06394	17606.5625
1993.1277	17568.3625
1996.18947	17480.3625
1999.24925	17502.7625
2002.30706	17384.7625
2005.36288	17305.7625
2008.41672	17330.2625
2011.46859	17276.5625
2014.51848	17228.4625
2017.56639	17234.4625
2020.61233	17179.0625
2023.6563	17145.9625
2026.6983	17136.3625
2029.73833	17100.7625
2032.7764	17061.6625
2035.8125	17038.2625
2038.84664	17048.1625
2041.87881	17047.7625
2044.90903	16993.2625
2047.93729	16980.3625
2050.96359	17000.6625
2053.98794	16971.5625
2057.01034	16976.1625
2060.03078	16973.9625
2063.04927	16889.9625
2066.06582	16925.3625
2069.08042	16901.6625
2072.09307	16892.1625
2075.10378	16889.5625
2078.11255	16875.1625
2081.11938	16882.1625
2084.12426	16863.8625
2087.12722	16893.2625
2090.12824	16848.1625
2093.12732	16898.5625
2096.12447	16900.8625
2099.11969	16910.9625
2102.11299	16922.8625
2105.10435	16932.6625
2108.09379	16915.7625
2111.08131	16949.9625
2114.0669	16942.2625
2117.05057	16953.0625
2120.03233	16995.6625
2123.01216	17016.4625
2125.99008	17063.6625
2128.96609	17036.3625
2131.94018	17085.1625
2134.91236	17086.6625
2137.88263	17081.9625
2140.851	17088.3625
2143.81746	17136.9625
2146.78201	17140.4625
2149.74466	17169.3625
2152.7054	17151.8625
2155.66425	17137.7625
2158.6212	17131.5625
2161.57625	17165.2625
2164.52941	17184.4625
2167.48067	17162.3625
2170.43004	17134.1625
2173.37752	17164.1625
2176.32311	17186.9625
2179.26681	17167.6625
2182.20863	17194.2625
2185.14856	17223.1625
2188.08661	17222.9625
2191.02278	17210.0625
2193.95707	17225.3625
2196.88948	17221.6625
2199.82001	17204.8625
2202.74867	17219.4625
2205.67545	17224.1625
2208.60037	17189.6625
2211.52341	17192.9625
2214.44458	17193.7625
2217.36388	17187.0625
2220.28132	17139.9625
2223.1969	17115.8625
2226.11061	17107.4625
2229.02246	17064.8625
2231.93245	17063.4625
2234.84058	17011.1625
2237.74686	17048.0625
2240.65128	17038.2625
2243.55385	17045.4625
2246.45456	17040.1625
2249.35343	16965.5625
2252.25044	16962.4625
2255.14561	16933.7625
2258.03893	16909.6625
2260.93041	16871.9625
2263.82004	16879.8625
2266.70783	16826.2625
2269.59378	16794.2625
2272.4779	16772.1625
2275.36017	16718.4625
2278.24061	16671.4625
2281.11922	16657.6625
2283.996	16645.2625
2286.87094	16659.8625
2289.74405	16650.7625
2292.61534	16642.5625
2295.4848	16638.8625
2298.35243	16660.2625
2301.21824	16686.7625
2304.08223	16664.9625
2306.94439	16674.3625
2309.80474	16676.0625
2312.66327	16692.2625
2315.51999	16698.2625
2318.37489	16678.9625
2321.22797	16669.6625
2324.07925	16701.6625
2326.92871	16671.8625
2329.77637	16664.6625
2332.62222	16664.7625
2335.46626	16630.9625
2338.3085	16602.4625
2341.14893	16613.1625
2343.98756	16629.2625
2346.8244	16664.9625
2349.65943	16662.1625
2352.49267	16629.8625
2355.32411	16632.0625
2358.15376	16604.9625
2360.98161	16573.8625
2363.80768	16590.6625
2366.63195	16565.4625
2369.45444	16517.6625
2372.27514	16523.4625
2375.09405	16509.6625
2377.91118	16496.4625
2380.72652	16502.0625
2383.54009	16436.1625
2386.35187	16408.4625
2389.16188	16380.4625
2391.97011	16381.1625
2394.77657	16332.5625
2397.58125	16347.7625
2400.38416	16343.4625
2403.18529	16332.9625
2405.98466	16314.9625
2408.78226	16270.5625
2411.57809	16233.0625
2414.37216	16244.5625
2417.16446	16217.0625
2419.955	16179.2625
2422.74378	16180.5625
2425.5308	16186.7625
2428.31606	16162.9625
2431.09956	16189.6625
2433.88131	16179.9625
2436.6613	16149.0625
2439.43954	16182.7625
2442.21603	16177.8625
2444.99077	16181.6625
2447.76377	16250.4625
2450.53501	16225.5625
2453.30451	16203.3625
2456.07226	16162.8625
2458.83827	16161.5625
2461.60254	16161.3625
2464.36507	16186.8625
2467.12586	16200.5625
2469.88492	16218.3625
2472.64224	16244.3625
2475.39782	16260.6625
2478.15167	16231.2625
2480.90379	16275.5625
2483.65417	16270.6625
2486.40283	16266.7625
2489.14976	16284.1625
2491.89497	16255.8625
2494.63845	16246.8625
2497.3802	16254.8625
2500.12024	16278.7625
2502.85855	16269.6625
2505.59514	16250.7625
2508.33002	16250.3625
2511.06318	16241.6625
2513.79462	16207.9625
2516.52435	16226.8625
2519.25237	16198.7625
2521.97867	16188.8625
2524.70327	16189.7625
2527.42616	16186.0625
2530.14734	16168.9625
2532.86681	16173.6625
2535.58458	16188.8625
2538.30065	16183.9625
2541.01501	16191.8625
2543.72768	16177.6625
2546.43864	16160.6625
2549.14791	16151.2625
2551.85548	16142.0625
2554.56136	16113.1625
2557.26554	16137.4625
2559.96803	16107.4625
2562.66883	16116.1625
2565.36794	16112.2625
2568.06536	16093.3625
2570.7611	16102.3625
2573.45514	16111.9625
2576.14751	16090.9625
2578.83819	16063.6625
2581.52719	16056.2625
2584.21451	16053.0625
2586.90015	16059.1625
2589.58411	16028.7625
2592.2664	16000.6625
2594.94701	16022.4625
2597.62594	16008.4625
2600.30321	16027.7625
2602.9788	16046.4625
2605.65273	16037.2625
2608.32498	16040.2625
2610.99557	16027.7625
2613.66449	16055.5625
2616.33175	16047.4625
2618.99734	16069.7625
2621.66128	16048.7625
2624.32355	16038.6625
2626.98416	16017.6625
2629.64311	15986.9625
2632.30041	15998.4625
2634.95605	15974.7625
2637.61004	15936.2625
2640.26238	15899.1625
2642.91306	15938.8625
2645.56209	15926.3625
2648.20948	15881.3625
2650.85521	15910.9625
2653.4993	15940.3625
2656.14175	15891.8625
2658.78255	15920.6625
2661.42171	15921.4625
2664.05923	15971.3625
2666.6951	16033.0625
2669.32934	16072.0625
2671.96194	16044.3625
2674.59291	16029.1625
2677.22224	16026.8625
2679.84993	16006.2625
2682.476	15977.1625
2685.10043	15965.9625
2687.72324	15954.6625
2690.34441	16000.1625
2692.96396	15959.2625
2695.58188	15983.1625
2698.19818	15951.1625
2700.81285	15968.6625
2703.4259	15905.7625
2706.03733	15912.6625
2708.64714	15938.5625
2711.25533	15942.6625
2713.86191	15952.7625
2716.46687	16030.8625
2719.07021	16039.3625
2721.67194	16094.5625
2724.27206	16095.7625
2726.87057	16107.3625
2729.46747	16100.0625
2732.06276	16135.3625
2734.65644	16133.1625
2737.24852	16106.7625
2739.83899	16083.7625
2742.42786	16110.7625
2745.01513	16095.0625
2747.60079	16118.3625
2750.18486	16125.1625
2752.76733	16111.4625
2755.3482	16097.6625
2757.92747	16082.0625
2760.50515	16089.5625
2763.08123	16082.1625
2765.65573	16058.1625
2768.22863	16043.4625
2770.79994	16047.3625
2773.36967	16044.8625
2775.9378	15991.5625
2778.50435	16012.2625
2781.06932	16019.5625
2783.6327	16061.6625
2786.1945	16072.9625
2788.75471	16060.5625
2791.31335	16026.5625
2793.87041	15972.7625
2796.42589	15951.2625
2798.97979	15949.5625
2801.53212	15925.9625
2804.08288	15922.8625
2806.63206	15876.3625
2809.17967	15877.4625
2811.72571	15853.9625
2814.27018	15797.0625
2816.81308	15798.5625
2819.35442	15792.7625
2821.89419	15785.3625
2824.43239	15788.3625
2826.96904	15782.5625
2829.50412	15813.2625
2832.03763	15767.0625
2834.56959	15777.3625
2837.1	15759.9625
2839.62884	15802.8625
2842.15613	15737.0625
2844.68186	15724.4625
2847.20604	15723.1625
2849.72867	15729.0625
2852.24974	15694.3625
2854.76927	15716.6625
2857.28724	15692.2625
2859.80367	15680.0625
2862.31855	15672.5625
2864.83189	15652.2625
2867.34368	15655.3625
2869.85393	15681.6625
2872.36264	15686.7625
2874.8698	15678.6625
2877.37543	15666.4625
2879.87952	15652.3625
2882.38207	15647.9625
2884.88308	15677.4625
2887.38256	15693.2625
2889.88051	15690.6625
2892.37692	15706.0625
2894.8718	15728.9625
2897.36515	15738.9625
2899.85698	15756.3625
2902.34727	15800.6625
2904.83604	15799.2625
2907.32328	15860.0625
2909.809	15805.6625
2912.29319	15877.6625
2914.77587	15890.0625
2917.25702	15880.7625
2919.73665	15839.1625
2922.21476	15845.7625
2924.69136	15851.2625
2927.16644	15848.1625
2929.64	15814.5625
2932.11205	15828.7625
2934.58258	15758.2625
2937.05161	15804.6625
2939.51912	15803.7625
2941.98513	15815.4625
2944.44962	15742.0625
2946.91261	15728.4625
2949.37409	15747.6625
2951.83407	15745.9625
2954.29254	15736.3625
2956.74951	15753.7625
2959.20498	15736.9625
2961.65895	15712.6625
2964.11142	15675.5625
2966.56239	15636.9625
2969.01186	15702.5625
2971.45984	15669.6625
2973.90632	15676.0625
2976.35131	15620.8625
2978.7948	15587.9625
2981.23681	15597.9625
2983.67732	15550.7625
2986.11635	15498.9625
2988.55388	15474.0625
2990.98993	15452.1625
2993.4245	15416.4625
2995.85758	15441.5625
2998.28917	15386.5625
3000.71928	15387.6625
3003.14791	15363.5625
3005.57506	15347.3625
3008.00073	15299.6625
3010.42493	15309.6625
3012.84764	15299.4625
3015.26888	15289.0625
3017.68865	15259.1625
3020.10694	15263.9625
3022.52376	15214.6625
3024.9391	15198.4625
