Data from AgNPs_FTO_APTES_UA_50uM_CRN_500uM_R6G_10uM_NaF_0.1M_Addition_RamanShift__17__17-01-43-539.txt Node

Date: Mon Feb 21 17:01:43 GMT 2022
User: TCL
Spectrometer: QEP01345
Trigger mode: 4
Integration Time (sec): 7.000000E0
Scans to average: 10
Electric dark correction enabled: true
Nonlinearity correction enabled: false
Boxcar width: 0
XAxis mode: Raman Shifts
Number of Pixels in Spectrum: 1044
>>>>>Begin Spectral Data<<<<<
46.04893	-1.1125
50.45542	-0.4125
54.85868	-0.1125
59.25871	-1.5125
63.6555	50.7875
68.04907	56.2875
72.43941	60.7875
76.82654	60.8875
81.21044	67.4875
85.59113	68.2875
89.96862	71.9875
94.34289	75.4875
98.71396	75.4875
103.08183	79.1875
107.4465	80.4875
111.80798	82.5875
116.16626	80.8875
120.52136	83.8875
124.87327	83.8875
129.222	87.5875
133.56755	94.5875
137.90993	96.2875
142.24913	103.7875
146.58517	113.3875
150.91804	123.9875
155.24774	144.9875
159.57429	178.5875
163.89768	221.6875
168.21792	295.3875
172.53501	394.3875
176.84895	556.1875
181.15975	765.5875
185.46741	1072.3875
189.77193	1494.4875
194.07331	1985.3875
198.37157	2570.3875
202.6667	3180.7875
206.9587	3809.9875
211.24758	4397.5875
215.53334	5005.8875
219.81599	5630.8875
224.09553	6330.2875
228.37195	7090.4875
232.64527	7968.5875
236.91549	8832.8875
241.18261	9726.2875
245.44663	10540.0875
249.70755	11242.2875
253.96539	11814.7875
258.22014	12311.5875
262.4718	12728.3875
266.72039	13004.6875
270.96589	13151.6875
275.20832	13127.5875
279.44768	12976.2875
283.68397	12786.1875
287.91719	12589.4875
292.14735	12476.1875
296.37445	12484.5875
300.59849	12571.1875
304.81948	12697.0875
309.03742	12734.2875
313.25231	12637.8875
317.46415	12398.5875
321.67296	12115.9875
325.87872	11848.2875
330.08145	11694.6875
334.28114	11719.3875
338.47781	11810.4875
342.67145	11974.2875
346.86207	12197.8875
351.04966	12490.4875
355.23424	12786.6875
359.4158	13065.5875
363.59435	13243.7875
367.76989	13390.6875
371.94243	13507.2875
376.11196	13564.7875
380.27849	13583.0875
384.44203	13628.0875
388.60257	13697.6875
392.76012	13754.3875
396.91468	13835.5875
401.06626	13990.5875
405.21485	14093.7875
409.36047	14033.2875
413.50311	13755.2875
417.64277	13505.9875
421.77947	13346.7875
425.9132	13332.7875
430.04396	13387.4875
434.17176	13464.1875
438.2966	13596.8875
442.41849	13773.2875
446.53742	14031.8875
450.6534	14328.4875
454.76644	14507.3875
458.87653	14560.5875
462.98368	14524.1875
467.08789	14426.0875
471.18916	14278.7875
475.2875	14095.8875
479.38291	13958.6875
483.4754	13885.0875
487.56496	13723.7875
491.6516	13648.4875
495.73531	13619.1875
499.81612	13605.1875
503.89401	13679.1875
507.96899	13772.6875
512.04106	13831.2875
516.11023	13884.5875
520.1765	13908.8875
524.23987	13907.0875
528.30034	13853.1875
532.35792	13773.9875
536.41261	13705.0875
540.46441	13578.4875
544.51333	13547.6875
548.55936	13564.0875
552.60252	13674.9875
556.64279	13858.7875
560.6802	13933.5875
564.71473	13937.9875
568.7464	14075.3875
572.7752	14235.0875
576.80114	14249.6875
580.82422	14189.8875
584.84444	14242.8875
588.86181	14425.4875
592.87633	14630.4875
596.888	14765.4875
600.89682	14825.1875
604.9028	15350.5875
608.90594	16980.9875
612.90624	18976.5875
616.90371	18202.9875
620.89834	15343.6875
624.89015	14031.6875
628.87913	13794.4875
632.86528	13890.6875
636.84862	14004.9875
640.82913	13893.3875
644.80683	13676.0875
648.78172	13454.6875
652.75379	13419.5875
656.72306	13571.0875
660.68952	13811.6875
664.65319	13801.8875
668.61405	13599.8875
672.57211	13613.8875
676.52738	13745.9875
680.47986	13807.9875
684.42955	13765.1875
688.37646	13593.2875
692.32058	13519.3875
696.26192	13532.9875
700.20048	13559.5875
704.13626	13566.9875
708.06928	13525.0875
711.99952	13449.4875
715.927	13424.0875
719.85171	13428.1875
723.77365	13440.5875
727.69284	13405.4875
731.60928	13363.1875
735.52295	13350.6875
739.43388	13346.5875
743.34206	13325.4875
747.24749	13369.0875
751.15017	13329.9875
755.05012	13391.5875
758.94733	13656.1875
762.8418	14211.2875
766.73354	15248.7875
770.62254	16386.7875
774.50882	16999.6875
778.39237	16517.1875
782.27321	15329.7875
786.15132	14268.1875
790.02671	13552.8875
793.89938	13257.0875
797.76935	13127.3875
801.6366	13048.1875
805.50115	13004.3875
809.36299	12965.5875
813.22213	12841.3875
817.07857	12842.0875
820.93231	12796.4875
824.78336	12797.2875
828.63172	12773.6875
832.47738	12751.8875
836.32036	12748.0875
840.16066	12712.0875
843.99827	12724.5875
847.8332	12707.7875
851.66546	12708.5875
855.49504	12733.8875
859.32195	12759.4875
863.1462	12753.7875
866.96777	12746.2875
870.78668	12757.4875
874.60293	12775.0875
878.41652	12747.7875
882.22745	12766.3875
886.03573	12802.5875
889.84136	12779.8875
893.64433	12727.1875
897.44466	12651.1875
901.24235	12611.5875
905.0374	12546.0875
908.8298	12475.8875
912.61957	12408.6875
916.40671	12472.8875
920.19121	12531.9875
923.97308	12570.0875
927.75233	12604.3875
931.52895	12624.0875
935.30295	12534.5875
939.07433	12368.0875
942.84309	12244.8875
946.60924	12177.2875
950.37278	12127.1875
954.13371	12068.1875
957.89203	12027.1875
961.64774	11975.3875
965.40086	11932.5875
969.15137	11882.5875
972.89929	11848.2875
976.64461	11822.7875
980.38733	11821.9875
984.12747	11834.0875
987.86502	11872.7875
991.59999	11963.2875
995.33237	12021.2875
999.06217	12151.7875
1002.78939	12300.9875
1006.51404	12424.6875
1010.23611	12528.8875
1013.95561	12635.5875
1017.67255	12651.3875
1021.38692	12596.0875
1025.09872	12456.7875
1028.80796	12405.8875
1032.51465	12432.4875
1036.21877	12519.5875
1039.92035	12536.2875
1043.61937	12543.2875
1047.31584	12504.3875
1051.00976	12448.9875
1054.70114	12409.8875
1058.38998	12418.4875
1062.07627	12437.2875
1065.76003	12465.9875
1069.44126	12452.5875
1073.11995	12516.6875
1076.79611	12578.8875
1080.46974	12659.9875
1084.14085	12741.0875
1087.80943	12848.0875
1091.47549	12960.6875
1095.13903	12890.7875
1098.80005	12752.7875
1102.45857	12632.3875
1106.11456	12554.2875
1109.76805	12572.5875
1113.41903	12641.9875
1117.06751	12805.9875
1120.71348	13001.9875
1124.35696	13220.0875
1127.99793	13443.1875
1131.63641	13540.6875
1135.2724	13341.8875
1138.90589	13125.7875
1142.5369	12975.4875
1146.16542	12828.0875
1149.79145	12718.0875
1153.415	12669.9875
1157.03607	12729.3875
1160.65467	12900.3875
1164.27079	13172.4875
1167.88443	13577.5875
1171.49561	14198.2875
1175.10432	15013.9875
1178.71056	16092.4875
1182.31434	17121.4875
1185.91565	17586.8875
1189.51451	17377.3875
1193.11091	16852.4875
1196.70485	16184.9875
1200.29634	15546.8875
1203.88538	15036.1875
1207.47197	14485.3875
1211.05612	14046.4875
1214.63782	13735.9875
1218.21708	13588.0875
1221.79391	13564.5875
1225.36829	13557.5875
1228.94024	13576.1875
1232.50976	13432.9875
1236.07685	13320.6875
1239.6415	13300.8875
1243.20374	13291.0875
1246.76355	13338.4875
1250.32093	13433.8875
1253.8759	13580.4875
1257.42845	13811.8875
1260.97859	14010.1875
1264.52631	14244.0875
1268.07163	14495.6875
1271.61453	14775.7875
1275.15503	15020.9875
1278.69312	15214.6875
1282.22882	15396.2875
1285.76211	15604.6875
1289.29301	15854.6875
1292.82151	16254.4875
1296.34761	16730.6875
1299.87133	17352.4875
1303.39266	18185.3875
1306.9116	19282.4875
1310.42815	20482.1875
1313.94233	21237.2875
1317.45412	21089.6875
1320.96354	20275.1875
1324.47058	19396.1875
1327.97525	18524.2875
1331.47754	17908.8875
1334.97747	17634.0875
1338.47502	17622.6875
1341.97022	17808.5875
1345.46305	18179.3875
1348.95352	18795.2875
1352.44163	19598.0875
1355.92738	20650.0875
1359.41078	22077.2875
1362.89183	23344.8875
1366.37053	22990.3875
1369.84688	20687.2875
1373.32088	18118.7875
1376.79254	16443.4875
1380.26186	15620.5875
1383.72883	15252.6875
1387.19347	15020.4875
1390.65578	14705.6875
1394.11575	14482.3875
1397.57339	14401.2875
1401.0287	14412.0875
1404.48168	14473.5875
1407.93234	14450.1875
1411.38068	14392.6875
1414.82669	14284.6875
1418.27039	14112.1875
1421.71177	13903.6875
1425.15083	13645.4875
1428.58758	13473.4875
1432.02203	13486.5875
1435.45416	13610.6875
1438.88399	13704.1875
1442.31151	13836.1875
1445.73673	13934.2875
1449.15965	14011.4875
1452.58027	14017.6875
1455.9986	14050.0875
1459.41463	14093.4875
1462.82837	14259.0875
1466.23982	14450.1875
1469.64898	14647.5875
1473.05586	14788.9875
1476.46045	14888.5875
1479.86276	14921.8875
1483.26279	14953.9875
1486.66054	14965.8875
1490.05602	15117.8875
1493.44922	15363.8875
1496.84016	15792.1875
1500.22882	16573.0875
1503.61521	17650.5875
1506.99934	18982.0875
1510.38121	20028.0875
1513.76081	20307.8875
1517.13816	19578.5875
1520.51324	18125.8875
1523.88607	16727.8875
1527.25665	15822.3875
1530.62498	15371.7875
1533.99105	15104.4875
1537.35488	14914.4875
1540.71647	14714.4875
1544.07581	14575.0875
1547.4329	14471.2875
1550.78776	14380.0875
1554.14038	14309.6875
1557.49077	14344.3875
1560.83892	14424.5875
1564.18484	14565.3875
1567.52853	14778.5875
1570.86999	14951.6875
1574.20922	15110.2875
1577.54624	15144.9875
1580.88103	14811.7875
1584.2136	14340.3875
1587.54395	14133.1875
1590.87208	14258.0875
1594.19801	14722.9875
1597.52172	15433.0875
1600.84321	15816.6875
1604.16251	15582.5875
1607.47959	14982.2875
1610.79447	14275.8875
1614.10715	13491.2875
1617.41763	12836.1875
1620.7259	12372.8875
1624.03199	12102.3875
1627.33587	12009.7875
1630.63757	12151.4875
1633.93707	12529.0875
1637.23439	13197.8875
1640.52951	14152.1875
1643.82246	15431.5875
1647.11321	16697.5875
1650.40179	17332.9875
1653.68819	16854.0875
1656.97241	15267.8875
1660.25446	13565.1875
1663.53433	12364.8875
1666.81203	11613.2875
1670.08756	11156.5875
1673.36092	10847.2875
1676.63211	10662.8875
1679.90115	10521.4875
1683.16801	10408.7875
1686.43272	10327.1875
1689.69527	10221.4875
1692.95567	10146.5875
1696.2139	10089.3875
1699.46999	10033.0875
1702.72392	10014.6875
1705.97571	10021.6875
1709.22535	9964.5875
1712.47284	9955.9875
1715.71819	9948.4875
1718.96139	9921.1875
1722.20246	9888.7875
1725.44139	9847.5875
1728.67818	9799.0875
1731.91284	9748.2875
1735.14537	9710.7875
1738.37576	9670.2875
1741.60403	9650.0875
1744.83017	9631.2875
1748.05418	9613.8875
1751.27607	9611.4875
1754.49584	9637.5875
1757.71349	9620.3875
1760.92903	9605.2875
1764.14244	9550.8875
1767.35375	9531.6875
1770.56294	9468.1875
1773.77002	9417.5875
1776.97499	9393.8875
1780.17785	9343.8875
1783.37861	9345.7875
1786.57727	9324.5875
1789.77382	9244.6875
1792.96828	9241.2875
1796.16064	9213.8875
1799.3509	9180.1875
1802.53907	9189.0875
1805.72514	9136.9875
1808.90913	9086.9875
1812.09102	9101.2875
1815.27083	9047.6875
1818.44856	9053.0875
1821.6242	9013.6875
1824.79776	8992.1875
1827.96924	9000.2875
1831.13864	8977.5875
1834.30597	8980.8875
1837.47122	8941.6875
1840.6344	8934.0875
1843.7955	8940.9875
1846.95454	8920.2875
1850.11151	8908.3875
1853.26642	8893.7875
1856.41926	8878.3875
1859.57004	8855.9875
1862.71876	8867.9875
1865.86542	8861.9875
1869.01003	8859.7875
1872.15258	8841.5875
1875.29308	8823.2875
1878.43152	8822.8875
1881.56792	8819.8875
1884.70227	8800.2875
1887.83457	8801.7875
1890.96482	8781.3875
1894.09304	8773.7875
1897.21921	8750.8875
1900.34335	8751.7875
1903.46544	8732.7875
1906.58551	8741.2875
1909.70353	8705.4875
1912.81953	8688.0875
1915.93349	8708.8875
1919.04543	8654.5875
1922.15534	8649.8875
1925.26322	8615.8875
1928.36908	8584.0875
1931.47292	8576.0875
1934.57473	8525.3875
1937.67453	8537.5875
1940.77232	8509.1875
1943.86808	8496.6875
1946.96184	8484.5875
1950.05358	8449.8875
1953.14331	8430.8875
1956.23103	8411.4875
1959.31675	8380.6875
1962.40046	8335.4875
1965.48217	8324.8875
1968.56188	8284.4875
1971.63959	8271.1875
1974.7153	8247.1875
1977.78901	8202.0875
1980.86073	8199.4875
1983.93046	8181.8875
1986.99819	8144.7875
1990.06394	8134.6875
1993.1277	8084.0875
1996.18947	8095.4875
1999.24925	8038.1875
2002.30706	8000.0875
2005.36288	7983.9875
2008.41672	7985.2875
2011.46859	7951.0875
2014.51848	7916.2875
2017.56639	7884.7875
2020.61233	7886.7875
2023.6563	7854.1875
2026.6983	7801.8875
2029.73833	7818.2875
2032.7764	7788.9875
2035.8125	7761.4875
2038.84664	7738.6875
2041.87881	7741.3875
2044.90903	7715.1875
2047.93729	7682.3875
2050.96359	7697.3875
2053.98794	7676.0875
2057.01034	7685.4875
2060.03078	7668.7875
2063.04927	7676.5875
2066.06582	7644.7875
2069.08042	7657.7875
2072.09307	7638.5875
2075.10378	7598.4875
2078.11255	7609.6875
2081.11938	7631.5875
2084.12426	7602.1875
2087.12722	7586.6875
2090.12824	7591.6875
2093.12732	7575.9875
2096.12447	7607.0875
2099.11969	7591.1875
2102.11299	7610.2875
2105.10435	7567.2875
2108.09379	7581.3875
2111.08131	7590.4875
2114.0669	7606.3875
2117.05057	7599.9875
2120.03233	7603.7875
2123.01216	7592.8875
2125.99008	7605.0875
2128.96609	7596.7875
2131.94018	7630.4875
2134.91236	7617.9875
2137.88263	7622.8875
2140.851	7622.5875
2143.81746	7620.9875
2146.78201	7621.9875
2149.74466	7628.5875
2152.7054	7623.2875
2155.66425	7623.7875
2158.6212	7613.9875
2161.57625	7613.6875
2164.52941	7595.5875
2167.48067	7594.6875
2170.43004	7581.1875
2173.37752	7566.4875
2176.32311	7579.0875
2179.26681	7552.7875
2182.20863	7554.4875
2185.14856	7566.5875
2188.08661	7562.4875
2191.02278	7580.9875
2193.95707	7553.1875
2196.88948	7536.9875
2199.82001	7538.3875
2202.74867	7541.4875
2205.67545	7517.5875
2208.60037	7506.5875
2211.52341	7516.0875
2214.44458	7485.6875
2217.36388	7461.6875
2220.28132	7455.9875
2223.1969	7438.0875
2226.11061	7445.7875
2229.02246	7415.9875
2231.93245	7420.4875
2234.84058	7363.1875
2237.74686	7385.5875
2240.65128	7364.2875
2243.55385	7343.8875
2246.45456	7326.9875
2249.35343	7330.3875
2252.25044	7303.2875
2255.14561	7300.6875
2258.03893	7285.0875
2260.93041	7277.3875
2263.82004	7260.4875
2266.70783	7234.9875
2269.59378	7231.6875
2272.4779	7221.1875
2275.36017	7203.9875
2278.24061	7176.4875
2281.11922	7154.7875
2283.996	7139.9875
2286.87094	7136.1875
2289.74405	7092.3875
2292.61534	7102.1875
2295.4848	7090.9875
2298.35243	7087.1875
2301.21824	7080.7875
2304.08223	7100.1875
2306.94439	7072.8875
2309.80474	7073.7875
2312.66327	7047.7875
2315.51999	7037.9875
2318.37489	7061.3875
2321.22797	7012.0875
2324.07925	7008.0875
2326.92871	6993.5875
2329.77637	7000.7875
2332.62222	6968.7875
2335.46626	6979.0875
2338.3085	6969.8875
2341.14893	6930.9875
2343.98756	6957.0875
2346.8244	6942.9875
2349.65943	6940.7875
2352.49267	6942.6875
2355.32411	6932.0875
2358.15376	6926.2875
2360.98161	6944.3875
2363.80768	6912.0875
2366.63195	6905.9875
2369.45444	6906.0875
2372.27514	6904.7875
2375.09405	6885.8875
2377.91118	6881.1875
2380.72652	6860.2875
2383.54009	6841.2875
2386.35187	6839.6875
2389.16188	6803.8875
2391.97011	6786.8875
2394.77657	6782.4875
2397.58125	6761.4875
2400.38416	6731.0875
2403.18529	6722.8875
2405.98466	6705.9875
2408.78226	6701.1875
2411.57809	6707.7875
2414.37216	6671.4875
2417.16446	6672.0875
2419.955	6672.1875
2422.74378	6679.1875
2425.5308	6663.2875
2428.31606	6648.2875
2431.09956	6639.5875
2433.88131	6625.7875
2436.6613	6626.8875
2439.43954	6629.6875
2442.21603	6598.0875
2444.99077	6616.4875
2447.76377	6610.8875
2450.53501	6598.8875
2453.30451	6590.2875
2456.07226	6583.5875
2458.83827	6564.0875
2461.60254	6591.4875
2464.36507	6597.5875
2467.12586	6558.0875
2469.88492	6558.4875
2472.64224	6541.5875
2475.39782	6531.0875
2478.15167	6558.8875
2480.90379	6542.1875
2483.65417	6554.2875
2486.40283	6535.1875
2489.14976	6534.5875
2491.89497	6546.3875
2494.63845	6544.0875
2497.3802	6541.6875
2500.12024	6541.9875
2502.85855	6494.5875
2505.59514	6508.1875
2508.33002	6478.9875
2511.06318	6458.2875
2513.79462	6470.4875
2516.52435	6458.9875
2519.25237	6448.0875
2521.97867	6426.7875
2524.70327	6425.5875
2527.42616	6420.0875
2530.14734	6419.0875
2532.86681	6383.3875
2535.58458	6384.8875
2538.30065	6362.3875
2541.01501	6385.3875
2543.72768	6381.7875
2546.43864	6339.8875
2549.14791	6315.4875
2551.85548	6342.2875
2554.56136	6307.2875
2557.26554	6310.2875
2559.96803	6298.5875
2562.66883	6293.0875
2565.36794	6270.0875
2568.06536	6273.8875
2570.7611	6258.0875
2573.45514	6242.2875
2576.14751	6242.7875
2578.83819	6225.1875
2581.52719	6221.5875
2584.21451	6189.9875
2586.90015	6189.9875
2589.58411	6187.6875
2592.2664	6172.9875
2594.94701	6160.3875
2597.62594	6144.5875
2600.30321	6119.1875
2602.9788	6111.8875
2605.65273	6098.1875
2608.32498	6135.0875
2610.99557	6118.1875
2613.66449	6092.8875
2616.33175	6090.4875
2618.99734	6086.0875
2621.66128	6092.9875
2624.32355	6075.0875
2626.98416	6057.2875
2629.64311	6061.6875
2632.30041	6055.1875
2634.95605	6057.5875
2637.61004	6034.9875
2640.26238	6029.6875
2642.91306	6037.4875
2645.56209	6024.9875
2648.20948	6028.9875
2650.85521	5999.2875
2653.4993	5986.9875
2656.14175	6002.2875
2658.78255	6009.7875
2661.42171	6011.8875
2664.05923	6012.3875
2666.6951	6005.5875
2669.32934	6001.3875
2671.96194	5978.8875
2674.59291	6009.0875
2677.22224	5984.8875
2679.84993	6000.6875
2682.476	5985.8875
2685.10043	6014.0875
2687.72324	5995.9875
2690.34441	5976.6875
2692.96396	5973.2875
2695.58188	6001.2875
2698.19818	5980.2875
2700.81285	5977.2875
2703.4259	5979.1875
2706.03733	5970.4875
2708.64714	5971.0875
2711.25533	5989.8875
2713.86191	5965.4875
2716.46687	5985.8875
2719.07021	5960.1875
2721.67194	5989.9875
2724.27206	5966.1875
2726.87057	5972.9875
2729.46747	5961.5875
2732.06276	5972.7875
2734.65644	5969.5875
2737.24852	5967.2875
2739.83899	5949.4875
2742.42786	5934.1875
2745.01513	5933.6875
2747.60079	5942.2875
2750.18486	5911.2875
2752.76733	5920.2875
2755.3482	5909.3875
2757.92747	5895.8875
2760.50515	5876.2875
2763.08123	5898.3875
2765.65573	5884.8875
2768.22863	5884.5875
2770.79994	5856.5875
2773.36967	5852.9875
2775.9378	5858.2875
2778.50435	5851.1875
2781.06932	5844.8875
2783.6327	5842.4875
2786.1945	5844.7875
2788.75471	5816.6875
2791.31335	5814.3875
2793.87041	5801.3875
2796.42589	5795.0875
2798.97979	5788.6875
2801.53212	5765.2875
2804.08288	5762.4875
2806.63206	5746.0875
2809.17967	5732.1875
2811.72571	5720.3875
2814.27018	5732.0875
2816.81308	5714.4875
2819.35442	5716.3875
2821.89419	5684.4875
2824.43239	5690.6875
2826.96904	5694.1875
2829.50412	5685.1875
2832.03763	5670.2875
2834.56959	5689.8875
2837.1	5692.2875
2839.62884	5685.2875
2842.15613	5686.7875
2844.68186	5710.1875
2847.20604	5717.1875
2849.72867	5716.9875
2852.24974	5718.2875
2854.76927	5691.6875
2857.28724	5680.3875
2859.80367	5682.2875
2862.31855	5664.6875
2864.83189	5677.0875
2867.34368	5642.0875
2869.85393	5659.5875
2872.36264	5667.1875
2874.8698	5647.7875
2877.37543	5650.4875
2879.87952	5637.1875
2882.38207	5647.2875
2884.88308	5643.4875
2887.38256	5660.7875
2889.88051	5644.4875
2892.37692	5637.6875
2894.8718	5643.2875
2897.36515	5667.0875
2899.85698	5663.6875
2902.34727	5678.9875
2904.83604	5677.6875
2907.32328	5700.1875
2909.809	5713.9875
2912.29319	5707.2875
2914.77587	5705.1875
2917.25702	5711.7875
2919.73665	5713.6875
2922.21476	5730.5875
2924.69136	5724.2875
2927.16644	5711.3875
2929.64	5717.8875
2932.11205	5709.4875
2934.58258	5680.2875
2937.05161	5690.2875
2939.51912	5709.6875
2941.98513	5688.6875
2944.44962	5651.8875
2946.91261	5653.7875
2949.37409	5668.9875
2951.83407	5662.0875
2954.29254	5647.4875
2956.74951	5626.1875
2959.20498	5634.2875
2961.65895	5608.3875
2964.11142	5608.8875
2966.56239	5588.1875
2969.01186	5579.8875
2971.45984	5553.0875
2973.90632	5566.8875
2976.35131	5524.1875
2978.7948	5524.1875
2981.23681	5495.6875
2983.67732	5475.2875
2986.11635	5469.9875
2988.55388	5466.6875
2990.98993	5445.1875
2993.4245	5444.5875
2995.85758	5438.9875
2998.28917	5422.0875
3000.71928	5417.2875
3003.14791	5412.3875
3005.57506	5398.1875
3008.00073	5375.5875
3010.42493	5368.9875
3012.84764	5366.9875
3015.26888	5363.3875
3017.68865	5353.7875
3020.10694	5346.0875
3022.52376	5318.0875
3024.9391	5330.9875
3027.35298	5313.8875
3029.76539	5312.5875
3032.17632	5303.4875
3034.5858	5265.0875
3036.9938	5276.2875
3039.40034	5264.0875
3041.80542	5276.9875
3044.20903	5273.4875
3046.61118	5260.7875
3049.01187	5250.6875
3051.4111	5254.7875
3053.80888	5230.4875
3056.20519	5245.0875
3058.60005	5223.4875
3060.99345	5200.9875
3063.3854	5211.3875
3065.7759	5188.6875
3068.16494	5168.9875
3070.55254	5172.3875
3072.93868	5150.2875
3075.32338	5146.4875
3077.70662	5148.5875
3080.08842	5113.3875
