Data from AgNPs_FTO_APTES_UA_50uM_CRN_20uM_R6G_10uM_NaF_0.1M_Addition_RamanShift__22__14-19-54-941.txt Node

Date: Mon Feb 21 14:19:54 GMT 2022
User: TCL
Spectrometer: QEP01345
Trigger mode: 4
Integration Time (sec): 7.000000E0
Scans to average: 10
Electric dark correction enabled: true
Nonlinearity correction enabled: false
Boxcar width: 0
XAxis mode: Raman Shifts
Number of Pixels in Spectrum: 1044
>>>>>Begin Spectral Data<<<<<
46.04893	0.375
50.45542	0.075
54.85868	-0.525
59.25871	-2.125
63.6555	60.075
68.04907	65.475
72.43941	65.675
76.82654	70.275
81.21044	72.875
85.59113	75.675
89.96862	79.275
94.34289	86.175
98.71396	83.075
103.08183	90.475
107.4465	91.275
111.80798	90.875
116.16626	94.475
120.52136	93.375
124.87327	102.875
129.222	99.375
133.56755	106.375
137.90993	114.075
142.24913	121.975
146.58517	131.075
150.91804	151.575
155.24774	181.475
159.57429	221.075
163.89768	283.075
168.21792	373.975
172.53501	512.375
176.84895	708.475
181.15975	985.475
185.46741	1370.775
189.77193	1893.275
194.07331	2526.575
198.37157	3259.575
202.6667	4027.975
206.9587	4812.275
211.24758	5592.075
215.53334	6405.675
219.81599	7317.475
224.09553	8380.675
228.37195	9496.675
232.64527	10771.675
236.91549	12002.975
241.18261	13141.575
245.44663	14072.675
249.70755	14793.175
253.96539	15383.575
258.22014	15941.075
262.4718	16386.875
266.72039	16723.875
270.96589	16836.275
275.20832	16691.375
279.44768	16389.675
283.68397	16072.475
287.91719	15860.975
292.14735	15923.975
296.37445	16190.775
300.59849	16789.475
304.81948	17439.575
309.03742	17849.675
313.25231	17779.375
317.46415	17004.975
321.67296	15821.075
325.87872	14814.675
330.08145	14377.175
334.28114	14345.875
338.47781	14586.075
342.67145	14964.875
346.86207	15519.575
351.04966	16341.375
355.23424	17277.775
359.4158	18034.275
363.59435	18409.675
367.76989	18498.175
371.94243	18481.375
376.11196	18371.075
380.27849	18300.375
384.44203	18195.575
388.60257	17975.775
392.76012	17891.075
396.91468	18038.275
401.06626	18391.175
405.21485	18696.075
409.36047	18301.275
413.50311	17406.475
417.64277	16548.075
421.77947	16078.575
425.9132	15893.875
430.04396	15871.575
434.17176	15962.975
438.2966	16155.675
442.41849	16597.875
446.53742	17190.775
450.6534	17775.075
454.76644	18158.875
458.87653	18203.675
462.98368	17995.575
467.08789	17642.875
471.18916	17229.175
475.2875	16889.575
479.38291	16614.275
483.4754	16339.075
487.56496	16096.775
491.6516	15869.275
495.73531	15715.075
499.81612	15708.375
503.89401	15896.375
507.96899	16043.875
512.04106	16218.675
516.11023	16428.575
520.1765	16521.375
524.23987	16507.275
528.30034	16327.675
532.35792	16156.675
536.41261	15902.175
540.46441	15573.875
544.51333	15325.375
548.55936	15376.775
552.60252	15695.875
556.64279	16126.375
560.6802	16391.275
564.71473	16653.675
568.7464	17320.475
572.7752	17745.075
576.80114	17444.575
580.82422	17036.175
584.84444	17005.475
588.86181	17214.875
592.87633	17685.575
596.888	18061.375
600.89682	18352.175
604.9028	19993.175
608.90594	25006.875
612.90624	31256.775
616.90371	29200.575
620.89834	20645.575
624.89015	16831.275
628.87913	16197.975
632.86528	16419.975
636.84862	16618.275
640.82913	16281.375
644.80683	15427.475
648.78172	14731.975
652.75379	14659.375
656.72306	15232.375
660.68952	15930.475
664.65319	15727.175
668.61405	15040.975
672.57211	14770.075
676.52738	14841.275
680.47986	14873.075
684.42955	14626.175
688.37646	14454.275
692.32058	14423.275
696.26192	14508.875
700.20048	14721.775
704.13626	14813.775
708.06928	14728.675
711.99952	14556.675
715.927	14488.575
719.85171	14573.175
723.77365	14624.675
727.69284	14526.075
731.60928	14424.175
735.52295	14417.475
739.43388	14495.675
743.34206	14620.575
747.24749	14647.375
751.15017	14705.675
755.05012	14941.475
758.94733	15682.875
762.8418	17505.675
766.73354	20665.875
770.62254	23893.075
774.50882	25320.575
778.39237	24019.875
782.27321	20678.975
786.15132	17585.475
790.02671	15704.375
793.89938	14803.175
797.76935	14425.875
801.6366	14313.875
805.50115	14236.175
809.36299	14123.575
813.22213	13981.975
817.07857	13918.175
820.93231	13901.175
824.78336	13874.575
828.63172	13885.875
832.47738	13897.575
836.32036	13887.275
840.16066	13883.575
843.99827	13878.575
847.8332	13849.775
851.66546	13765.975
855.49504	13721.175
859.32195	13733.075
863.1462	13728.175
866.96777	13649.375
870.78668	13678.775
874.60293	13656.875
878.41652	13709.775
882.22745	13776.375
886.03573	13920.775
889.84136	13867.575
893.64433	13816.575
897.44466	13736.375
901.24235	13651.675
905.0374	13524.075
908.8298	13411.175
912.61957	13310.675
916.40671	13392.175
920.19121	13550.075
923.97308	13775.075
927.75233	14037.775
931.52895	14199.275
935.30295	14010.875
939.07433	13578.075
942.84309	13179.675
946.60924	12987.375
950.37278	12867.475
954.13371	12784.275
957.89203	12703.275
961.64774	12643.175
965.40086	12603.375
969.15137	12499.075
972.89929	12452.175
976.64461	12399.275
980.38733	12392.775
984.12747	12470.175
987.86502	12583.375
991.59999	12765.075
995.33237	13099.375
999.06217	13664.575
1002.78939	14299.775
1006.51404	14747.175
1010.23611	15004.375
1013.95561	15194.475
1017.67255	15186.875
1021.38692	14938.575
1025.09872	14665.975
1028.80796	14674.475
1032.51465	15140.275
1036.21877	15610.775
1039.92035	15755.175
1043.61937	15519.675
1047.31584	15147.375
1051.00976	14696.975
1054.70114	14400.675
1058.38998	14246.575
1062.07627	14242.775
1065.76003	14273.275
1069.44126	14323.975
1073.11995	14486.175
1076.79611	14737.575
1080.46974	15056.675
1084.14085	15504.975
1087.80943	15942.875
1091.47549	16100.375
1095.13903	15879.975
1098.80005	15354.575
1102.45857	14874.375
1106.11456	14705.175
1109.76805	14834.175
1113.41903	15236.675
1117.06751	15824.075
1120.71348	16581.075
1124.35696	17434.475
1127.99793	18049.075
1131.63641	17966.275
1135.2724	17226.775
1138.90589	16452.475
1142.5369	15976.875
1146.16542	15544.575
1149.79145	15377.975
1153.415	15299.875
1157.03607	15398.375
1160.65467	15857.175
1164.27079	16593.175
1167.88443	17753.475
1171.49561	19434.675
1175.10432	22000.075
1178.71056	25405.775
1182.31434	28401.675
1185.91565	29488.475
1189.51451	28599.475
1193.11091	26645.075
1196.70485	24475.175
1200.29634	22776.375
1203.88538	21377.975
1207.47197	19998.675
1211.05612	18822.275
1214.63782	18179.775
1218.21708	18017.075
1221.79391	18222.775
1225.36829	18371.675
1228.94024	18209.375
1232.50976	17807.175
1236.07685	17458.775
1239.6415	17272.975
1243.20374	17255.975
1246.76355	17363.175
1250.32093	17691.275
1253.8759	18179.775
1257.42845	18879.575
1260.97859	19670.875
1264.52631	20466.475
1268.07163	21323.375
1271.61453	22209.475
1275.15503	22986.575
1278.69312	23607.475
1282.22882	24145.175
1285.76211	24853.675
1289.29301	25675.975
1292.82151	26685.775
1296.34761	28013.275
1299.87133	30047.475
1303.39266	32993.975
1306.9116	37125.475
1310.42815	41299.075
1313.94233	43085.475
1317.45412	41591.775
1320.96354	38358.275
1324.47058	35192.275
1327.97525	32593.375
1331.47754	30919.375
1334.97747	30255.175
1338.47502	30255.175
1341.97022	30885.375
1345.46305	31875.675
1348.95352	33248.675
1352.44163	35392.375
1355.92738	38789.475
1359.41078	44006.975
1362.89183	48622.875
1366.37053	46604.575
1369.84688	38959.475
1373.32088	31801.975
1376.79254	27470.175
1380.26186	25213.275
1383.72883	24100.275
1387.19347	23269.175
1390.65578	22586.975
1394.11575	22298.875
1397.57339	22454.275
1401.0287	22879.275
1404.48168	23241.075
1407.93234	23408.075
1411.38068	23396.175
1414.82669	23052.375
1418.27039	22458.275
1421.71177	21731.875
1425.15083	21047.475
1428.58758	20691.575
1432.02203	20914.775
1435.45416	21317.075
1438.88399	21619.675
1442.31151	21791.075
1445.73673	22032.475
1449.15965	22331.575
1452.58027	22485.775
1455.9986	22514.075
1459.41463	22670.075
1462.82837	23068.875
1466.23982	23662.075
1469.64898	24209.775
1473.05586	24479.175
1476.46045	24522.875
1479.86276	24523.975
1483.26279	24671.175
1486.66054	25025.475
1490.05602	25687.675
1493.44922	26678.775
1496.84016	28229.975
1500.22882	30800.075
1503.61521	34619.575
1506.99934	39140.975
1510.38121	42607.875
1513.76081	42786.275
1517.13816	39251.175
1520.51324	34045.975
1523.88607	29607.475
1527.25665	26876.875
1530.62498	25409.275
1533.99105	24519.075
1537.35488	23906.675
1540.71647	23501.775
1544.07581	23200.875
1547.4329	22988.075
1550.78776	22880.475
1554.14038	22908.875
1557.49077	23098.875
1560.83892	23454.875
1564.18484	23958.275
1567.52853	24615.975
1570.86999	25174.275
1574.20922	25566.675
1577.54624	25330.775
1580.88103	24200.475
1584.2136	22869.575
1587.54395	22507.775
1590.87208	23308.175
1594.19801	25175.975
1597.52172	27313.675
1600.84321	28164.975
1604.16251	26929.975
1607.47959	24605.475
1610.79447	22155.175
1614.10715	19938.575
1617.41763	18227.275
1620.7259	17173.075
1624.03199	16681.275
1627.33587	16870.875
1630.63757	17521.975
1633.93707	18889.775
1637.23439	20965.675
1640.52951	24014.075
1643.82246	27884.775
1647.11321	31686.575
1650.40179	33434.875
1653.68819	31278.275
1656.97241	26162.775
1660.25446	21103.175
1663.53433	17591.675
1666.81203	15541.875
1670.08756	14370.275
1673.36092	13693.175
1676.63211	13201.775
1679.90115	12885.875
1683.16801	12646.675
1686.43272	12454.775
1689.69527	12251.675
1692.95567	12124.075
1696.2139	11918.475
1699.46999	11790.775
1702.72392	11694.375
1705.97571	11760.375
1709.22535	11803.475
1712.47284	11855.775
1715.71819	11864.875
1718.96139	11822.375
1722.20246	11784.775
1725.44139	11685.975
1728.67818	11595.675
1731.91284	11499.975
1735.14537	11408.575
1738.37576	11372.175
1741.60403	11316.175
1744.83017	11269.475
1748.05418	11222.975
1751.27607	11175.775
1754.49584	11103.575
1757.71349	11026.175
1760.92903	10950.575
1764.14244	10921.875
1767.35375	10908.675
1770.56294	10854.575
1773.77002	10857.675
1776.97499	10855.475
1780.17785	10865.475
1783.37861	10882.775
1786.57727	10857.475
1789.77382	10869.975
1792.96828	10841.675
1796.16064	10806.175
1799.3509	10802.375
1802.53907	10813.975
1805.72514	10761.275
1808.90913	10714.775
1812.09102	10699.375
1815.27083	10681.175
1818.44856	10645.075
1821.6242	10643.975
1824.79776	10638.975
1827.96924	10609.575
1831.13864	10597.475
1834.30597	10574.075
1837.47122	10578.475
1840.6344	10572.175
1843.7955	10555.575
1846.95454	10550.075
1850.11151	10566.075
1853.26642	10535.075
1856.41926	10543.275
1859.57004	10542.075
1862.71876	10567.075
1865.86542	10563.375
1869.01003	10542.275
1872.15258	10541.275
1875.29308	10550.675
1878.43152	10544.975
1881.56792	10542.875
1884.70227	10556.175
1887.83457	10560.375
1890.96482	10553.275
1894.09304	10524.375
1897.21921	10544.575
1900.34335	10547.675
1903.46544	10554.975
1906.58551	10529.875
1909.70353	10530.875
1912.81953	10530.675
1915.93349	10505.475
1919.04543	10480.575
1922.15534	10453.475
1925.26322	10414.875
1928.36908	10334.975
1931.47292	10318.075
1934.57473	10278.975
1937.67453	10254.475
1940.77232	10204.575
1943.86808	10165.175
1946.96184	10138.975
1950.05358	10104.575
1953.14331	10063.675
1956.23103	10022.675
1959.31675	10007.675
1962.40046	10010.175
1965.48217	9989.475
1968.56188	9940.475
1971.63959	9930.475
1974.7153	9896.875
1977.78901	9870.175
1980.86073	9824.975
1983.93046	9769.175
1986.99819	9749.675
1990.06394	9723.075
1993.1277	9696.875
1996.18947	9647.175
1999.24925	9610.075
2002.30706	9550.775
2005.36288	9553.375
2008.41672	9517.575
2011.46859	9470.775
2014.51848	9456.675
2017.56639	9430.275
2020.61233	9433.475
2023.6563	9430.275
2026.6983	9371.475
2029.73833	9352.675
2032.7764	9312.175
2035.8125	9302.275
2038.84664	9314.975
2041.87881	9315.475
2044.90903	9272.075
2047.93729	9259.275
2050.96359	9267.575
2053.98794	9253.975
2057.01034	9228.075
2060.03078	9241.675
2063.04927	9226.875
2066.06582	9227.875
2069.08042	9209.875
2072.09307	9174.975
2075.10378	9152.475
2078.11255	9150.375
2081.11938	9149.575
2084.12426	9126.175
2087.12722	9144.575
2090.12824	9119.675
2093.12732	9125.375
2096.12447	9131.875
2099.11969	9129.875
2102.11299	9141.375
2105.10435	9155.475
2108.09379	9139.575
2111.08131	9135.075
2114.0669	9128.875
2117.05057	9131.675
2120.03233	9169.775
2123.01216	9180.875
2125.99008	9194.275
2128.96609	9187.575
2131.94018	9190.275
2134.91236	9195.275
2137.88263	9199.275
2140.851	9167.375
2143.81746	9203.575
2146.78201	9183.075
2149.74466	9177.475
2152.7054	9178.975
2155.66425	9171.475
2158.6212	9168.275
2161.57625	9158.175
2164.52941	9152.775
2167.48067	9132.875
2170.43004	9136.575
2173.37752	9137.175
2176.32311	9118.575
2179.26681	9134.775
2182.20863	9146.075
2185.14856	9176.475
2188.08661	9160.975
2191.02278	9139.575
2193.95707	9153.075
2196.88948	9145.075
2199.82001	9146.075
2202.74867	9145.175
2205.67545	9144.075
2208.60037	9124.775
2211.52341	9127.075
2214.44458	9114.575
2217.36388	9086.875
2220.28132	9094.075
2223.1969	9082.975
2226.11061	9052.875
2229.02246	9031.275
2231.93245	9036.075
2234.84058	8998.075
2237.74686	8974.875
2240.65128	8981.375
2243.55385	8988.175
2246.45456	8979.175
2249.35343	8944.275
2252.25044	8917.975
2255.14561	8947.075
2258.03893	8936.875
2260.93041	8919.475
2263.82004	8918.675
2266.70783	8898.975
2269.59378	8872.075
2272.4779	8854.875
2275.36017	8807.575
2278.24061	8806.675
2281.11922	8780.275
2283.996	8800.675
2286.87094	8765.075
2289.74405	8757.375
2292.61534	8732.475
2295.4848	8710.675
2298.35243	8718.875
2301.21824	8726.575
2304.08223	8764.775
2306.94439	8736.875
2309.80474	8756.175
2312.66327	8782.975
2315.51999	8769.475
2318.37489	8750.475
2321.22797	8734.975
2324.07925	8734.875
2326.92871	8726.575
2329.77637	8744.775
2332.62222	8715.775
2335.46626	8727.575
2338.3085	8722.075
2341.14893	8742.375
2343.98756	8759.475
2346.8244	8759.575
2349.65943	8789.675
2352.49267	8798.975
2355.32411	8785.475
2358.15376	8803.275
2360.98161	8799.175
2363.80768	8788.275
2366.63195	8792.075
2369.45444	8766.475
2372.27514	8764.375
2375.09405	8754.175
2377.91118	8700.875
2380.72652	8708.675
2383.54009	8666.275
2386.35187	8631.875
2389.16188	8570.875
2391.97011	8568.475
2394.77657	8571.075
2397.58125	8541.575
2400.38416	8539.875
2403.18529	8503.575
2405.98466	8507.875
2408.78226	8454.575
2411.57809	8437.475
2414.37216	8412.775
2417.16446	8416.575
2419.955	8423.675
2422.74378	8408.175
2425.5308	8405.175
2428.31606	8412.775
2431.09956	8402.975
2433.88131	8381.075
2436.6613	8416.675
2439.43954	8415.975
2442.21603	8394.575
2444.99077	8416.575
2447.76377	8442.975
2450.53501	8431.175
2453.30451	8447.475
2456.07226	8431.575
2458.83827	8415.975
2461.60254	8426.875
2464.36507	8428.375
2467.12586	8445.875
2469.88492	8445.375
2472.64224	8449.975
2475.39782	8432.875
2478.15167	8457.975
2480.90379	8478.275
2483.65417	8509.075
2486.40283	8521.775
2489.14976	8540.775
2491.89497	8540.675
2494.63845	8555.975
2497.3802	8544.575
2500.12024	8534.375
2502.85855	8540.575
2505.59514	8507.875
2508.33002	8458.875
2511.06318	8452.375
2513.79462	8425.975
2516.52435	8399.675
2519.25237	8386.775
2521.97867	8376.875
2524.70327	8350.475
2527.42616	8334.675
2530.14734	8351.675
2532.86681	8336.775
2535.58458	8358.775
2538.30065	8360.975
2541.01501	8362.775
2543.72768	8366.975
2546.43864	8341.175
2549.14791	8347.075
2551.85548	8348.275
2554.56136	8316.575
2557.26554	8318.875
2559.96803	8308.775
2562.66883	8324.775
2565.36794	8312.875
2568.06536	8306.475
2570.7611	8303.075
2573.45514	8309.375
2576.14751	8297.275
2578.83819	8306.075
2581.52719	8283.075
2584.21451	8271.875
2586.90015	8284.075
2589.58411	8255.175
2592.2664	8283.375
2594.94701	8259.975
2597.62594	8280.275
2600.30321	8286.875
2602.9788	8286.275
2605.65273	8280.175
2608.32498	8290.575
2610.99557	8269.975
2613.66449	8288.875
2616.33175	8282.675
2618.99734	8289.575
2621.66128	8298.375
2624.32355	8301.475
2626.98416	8323.675
2629.64311	8304.075
2632.30041	8319.875
2634.95605	8284.675
2637.61004	8274.575
2640.26238	8252.275
2642.91306	8234.975
2645.56209	8227.675
2648.20948	8214.675
2650.85521	8205.975
2653.4993	8206.275
2656.14175	8201.475
2658.78255	8220.575
2661.42171	8237.175
2664.05923	8261.475
2666.6951	8282.775
2669.32934	8296.475
2671.96194	8290.175
2674.59291	8298.875
2677.22224	8299.875
2679.84993	8294.875
2682.476	8270.975
2685.10043	8243.375
2687.72324	8234.775
2690.34441	8243.875
2692.96396	8235.475
2695.58188	8245.475
2698.19818	8243.975
2700.81285	8211.475
2703.4259	8193.575
2706.03733	8131.575
2708.64714	8193.775
2711.25533	8196.975
2713.86191	8208.175
2716.46687	8253.775
2719.07021	8238.775
2721.67194	8258.175
2724.27206	8266.575
2726.87057	8275.575
2729.46747	8261.175
2732.06276	8257.275
2734.65644	8242.075
2737.24852	8230.975
2739.83899	8219.275
2742.42786	8236.275
2745.01513	8229.275
2747.60079	8215.175
2750.18486	8231.275
2752.76733	8220.575
2755.3482	8214.975
2757.92747	8200.375
2760.50515	8199.375
2763.08123	8211.275
2765.65573	8184.775
2768.22863	8195.375
2770.79994	8182.775
2773.36967	8176.275
2775.9378	8170.375
2778.50435	8177.875
2781.06932	8180.275
2783.6327	8219.075
2786.1945	8228.475
2788.75471	8183.175
2791.31335	8193.075
2793.87041	8177.875
2796.42589	8164.075
2798.97979	8175.675
2801.53212	8165.075
2804.08288	8119.375
2806.63206	8130.175
2809.17967	8146.675
2811.72571	8127.975
2814.27018	8126.375
2816.81308	8150.575
2819.35442	8151.575
2821.89419	8140.475
2824.43239	8158.475
2826.96904	8120.975
2829.50412	8145.475
2832.03763	8122.075
2834.56959	8115.675
2837.1	8128.175
2839.62884	8115.175
2842.15613	8099.875
2844.68186	8120.375
2847.20604	8100.875
2849.72867	8130.275
2852.24974	8122.775
2854.76927	8095.775
2857.28724	8089.475
2859.80367	8098.675
2862.31855	8108.875
2864.83189	8135.175
2867.34368	8128.875
2869.85393	8169.275
2872.36264	8161.175
2874.8698	8171.275
2877.37543	8150.875
2879.87952	8167.175
2882.38207	8143.275
2884.88308	8140.775
2887.38256	8163.775
2889.88051	8149.975
2892.37692	8176.575
2894.8718	8156.675
2897.36515	8173.175
2899.85698	8198.875
2902.34727	8179.975
2904.83604	8205.575
2907.32328	8217.675
2909.809	8219.775
2912.29319	8237.575
2914.77587	8251.575
2917.25702	8237.575
2919.73665	8212.875
2922.21476	8215.875
2924.69136	8187.875
2927.16644	8172.975
2929.64	8146.275
2932.11205	8147.875
2934.58258	8116.475
2937.05161	8101.575
2939.51912	8117.875
2941.98513	8116.975
2944.44962	8081.075
2946.91261	8059.975
2949.37409	8094.175
2951.83407	8070.375
2954.29254	8064.375
2956.74951	8069.175
2959.20498	8016.975
2961.65895	8035.675
2964.11142	8012.575
2966.56239	7967.675
2969.01186	7954.475
2971.45984	7941.675
2973.90632	7922.975
2976.35131	7892.575
2978.7948	7904.975
2981.23681	7884.175
2983.67732	7863.675
2986.11635	7834.675
2988.55388	7822.375
2990.98993	7780.675
2993.4245	7779.375
2995.85758	7776.375
2998.28917	7751.075
3000.71928	7755.275
3003.14791	7742.175
3005.57506	7708.675
3008.00073	7710.075
3010.42493	7718.175
3012.84764	7682.775
3015.26888	7672.475
3017.68865	7658.375
3020.10694	7666.675
3022.52376	7629.275
3024.9391	7632.575
3027.35298	7610.875
3029.76539	7608.875
3032.17632	7604.375
3034.5858	7576.775
3036.9938	7566.275
3039.40034	7548.775
3041.80542	7569.575
3044.20903	7553.975
3046.61118	7531.875
3049.01187	7529.775
3051.4111	7516.675
3053.80888	7509.675
3056.20519	7479.475
3058.60005	7473.875
3060.99345	7454.275
3063.3854	7439.775
3065.7759	7421.575
3068.16494	7396.975
3070.55254	7379.175
3072.93868	7366.675
3075.32338	7325.275
3077.70662	7308.875
3080.08842	7300.875
3082.46878	7312.975
3084.84769	7291.375
3087.22515	7264.875
3089.60118	7274.975
3091.97576	7270.075
3094.3489	7244.675
3096.72061	7260.175
3099.09087	7266.275
3101.4597	7265.075
3103.82709	7258.575
3106.19305	7231.375
3108.55757	7226.275
3110.92066	7225.575
3113.28232	7208.875
3115.64255	7182.675
3118.00134	7179.975
3120.35871	7206.375
3122.71466	7190.775
3125.06917	7163.675
3127.42226	7168.075
3129.77393	7175.875
3132.12417	7145.675
3134.47299	7147.975
3136.82039	7126.275
3139.16636	7118.075
3141.51092	7136.175
3143.85406	7132.175
3146.19579	7129.975
3148.53609	7150.775
3150.87499	7153.575
3153.21246	7139.975
3155.54853	7166.975
3157.88318	7179.175
3160.21642	7180.575
3162.54826	7177.575
3164.87868	7165.375
3167.2077	7163.075
3169.5353	7190.675
3171.86151	7183.875
3174.18631	7171.175
3176.5097	7174.475
3178.83169	7184.075
