Data from AgNPs_FTO_APTES_UA_50uM_CRN_0uM_R6G_10uM_NaF_0.1M_Addition_RamanShift__46__11-03-54-686.txt Node

Date: Mon Feb 21 11:03:54 GMT 2022
User: TCL
Spectrometer: QEP01345
Trigger mode: 4
Integration Time (sec): 7.000000E0
Scans to average: 10
Electric dark correction enabled: true
Nonlinearity correction enabled: false
Boxcar width: 0
XAxis mode: Raman Shifts
Number of Pixels in Spectrum: 1044
>>>>>Begin Spectral Data<<<<<
46.04893	0.325
50.45542	-0.875
54.85868	-0.175
59.25871	-1.175
63.6555	54.525
68.04907	60.425
72.43941	60.325
76.82654	64.825
81.21044	67.625
85.59113	68.925
89.96862	70.325
94.34289	75.825
98.71396	73.225
103.08183	81.625
107.4465	81.625
111.80798	81.625
116.16626	79.225
120.52136	81.225
124.87327	91.725
129.222	87.325
133.56755	92.825
137.90993	103.825
142.24913	105.125
146.58517	117.225
150.91804	134.025
155.24774	153.725
159.57429	190.025
163.89768	243.925
168.21792	323.625
172.53501	439.625
176.84895	600.425
181.15975	838.625
185.46741	1178.025
189.77193	1633.325
194.07331	2184.325
198.37157	2801.625
202.6667	3478.725
206.9587	4135.425
211.24758	4804.725
215.53334	5480.825
219.81599	6183.825
224.09553	6997.725
228.37195	7874.625
232.64527	8875.225
236.91549	9898.125
241.18261	10880.225
245.44663	11734.325
249.70755	12550.425
253.96539	13210.725
258.22014	13808.125
262.4718	14265.225
266.72039	14551.125
270.96589	14712.025
275.20832	14676.325
279.44768	14531.325
283.68397	14360.925
287.91719	14204.125
292.14735	14129.725
296.37445	14209.725
300.59849	14452.925
304.81948	14758.525
309.03742	14950.425
313.25231	14935.325
317.46415	14501.725
321.67296	13879.625
325.87872	13317.425
330.08145	13052.425
334.28114	13041.625
338.47781	13206.925
342.67145	13480.125
346.86207	13884.025
351.04966	14429.125
355.23424	15061.025
359.4158	15575.225
363.59435	15857.925
367.76989	15944.225
371.94243	16000.025
376.11196	15966.125
380.27849	15969.725
384.44203	15967.225
388.60257	15890.625
392.76012	15888.525
396.91468	16013.825
401.06626	16388.525
405.21485	16642.625
409.36047	16578.425
413.50311	16127.925
417.64277	15765.525
421.77947	15513.425
425.9132	15475.025
430.04396	15503.925
434.17176	15624.125
438.2966	15844.325
442.41849	16220.825
446.53742	16764.825
450.6534	17315.025
454.76644	17718.325
458.87653	17822.425
462.98368	17628.425
467.08789	17317.525
471.18916	16947.025
475.2875	16584.425
479.38291	16261.325
483.4754	16109.125
487.56496	15916.925
491.6516	15714.725
495.73531	15608.725
499.81612	15507.425
503.89401	15608.625
507.96899	15725.225
512.04106	15797.325
516.11023	15860.925
520.1765	15913.425
524.23987	15882.325
528.30034	15756.025
532.35792	15620.825
536.41261	15379.025
540.46441	15138.625
544.51333	15040.225
548.55936	15128.025
552.60252	15384.325
556.64279	15713.025
560.6802	15928.025
564.71473	16104.025
568.7464	16599.225
572.7752	16969.325
576.80114	16921.625
580.82422	16731.425
584.84444	16748.525
588.86181	16943.825
592.87633	17297.325
596.888	17529.125
600.89682	17739.425
604.9028	18689.225
608.90594	21763.925
612.90624	25657.525
616.90371	24722.925
620.89834	19440.525
624.89015	16888.225
628.87913	16489.225
632.86528	16446.525
636.84862	16314.925
640.82913	15984.025
644.80683	15420.825
648.78172	15001.225
652.75379	14979.825
656.72306	15349.825
660.68952	15857.325
664.65319	15840.425
668.61405	15413.725
672.57211	15185.125
676.52738	15173.025
680.47986	15125.025
684.42955	15036.025
688.37646	15043.725
692.32058	15087.625
696.26192	15262.725
700.20048	15394.325
704.13626	15489.725
708.06928	15435.925
711.99952	15305.725
715.927	15282.525
719.85171	15325.725
723.77365	15289.325
727.69284	15116.925
731.60928	14970.225
735.52295	14977.325
739.43388	15051.625
743.34206	15139.625
747.24749	15276.725
751.15017	15353.825
755.05012	15597.325
758.94733	16098.625
762.8418	17200.225
766.73354	19030.225
770.62254	20869.825
774.50882	21707.825
778.39237	20971.225
782.27321	19054.925
786.15132	17135.625
790.02671	15967.225
793.89938	15440.025
797.76935	15225.325
801.6366	15160.025
805.50115	15121.325
809.36299	15104.925
813.22213	15033.425
817.07857	15031.325
820.93231	14985.525
824.78336	14963.925
828.63172	14984.025
832.47738	15009.725
836.32036	15037.725
840.16066	15107.025
843.99827	15141.425
847.8332	15118.525
851.66546	15046.025
855.49504	15004.825
859.32195	14913.425
863.1462	14904.425
866.96777	14801.025
870.78668	14749.825
874.60293	14781.025
878.41652	14828.625
882.22745	14924.025
886.03573	14960.525
889.84136	14912.325
893.64433	14835.025
897.44466	14776.425
901.24235	14738.325
905.0374	14660.125
908.8298	14588.625
912.61957	14576.925
916.40671	14675.725
920.19121	14837.025
923.97308	15008.925
927.75233	15183.225
931.52895	15292.525
935.30295	15118.125
939.07433	14773.025
942.84309	14497.325
946.60924	14392.625
950.37278	14291.825
954.13371	14177.925
957.89203	14077.925
961.64774	14019.725
965.40086	13969.325
969.15137	13958.025
972.89929	13919.925
976.64461	13892.725
980.38733	13901.325
984.12747	13948.825
987.86502	14070.325
991.59999	14263.425
995.33237	14601.225
999.06217	15172.925
1002.78939	15834.725
1006.51404	16223.325
1010.23611	16457.125
1013.95561	16614.425
1017.67255	16690.125
1021.38692	16477.025
1025.09872	16351.225
1028.80796	16526.925
1032.51465	17048.225
1036.21877	17556.725
1039.92035	17559.725
1043.61937	17248.525
1047.31584	16698.825
1051.00976	16128.625
1054.70114	15761.325
1058.38998	15643.325
1062.07627	15663.825
1065.76003	15696.525
1069.44126	15747.525
1073.11995	15897.725
1076.79611	16043.525
1080.46974	16200.325
1084.14085	16450.625
1087.80943	16702.825
1091.47549	16774.325
1095.13903	16591.525
1098.80005	16202.325
1102.45857	15805.225
1106.11456	15649.625
1109.76805	15699.125
1113.41903	15907.625
1117.06751	16219.125
1120.71348	16633.625
1124.35696	17088.625
1127.99793	17499.025
1131.63641	17485.825
1135.2724	17120.225
1138.90589	16645.525
1142.5369	16331.125
1146.16542	16127.525
1149.79145	16005.525
1153.415	16073.125
1157.03607	16208.025
1160.65467	16455.625
1164.27079	16960.825
1167.88443	17762.625
1171.49561	18976.025
1175.10432	20826.525
1178.71056	23197.625
1182.31434	25306.025
1185.91565	26283.225
1189.51451	26134.325
1193.11091	25023.825
1196.70485	23544.225
1200.29634	22274.825
1203.88538	21193.225
1207.47197	20136.925
1211.05612	19337.125
1214.63782	18904.025
1218.21708	18915.425
1221.79391	19098.425
1225.36829	19277.425
1228.94024	19178.725
1232.50976	18889.625
1236.07685	18619.625
1239.6415	18445.825
1243.20374	18401.725
1246.76355	18487.225
1250.32093	18705.925
1253.8759	19159.625
1257.42845	19776.825
1260.97859	20381.125
1264.52631	20920.725
1268.07163	21433.025
1271.61453	21996.325
1275.15503	22631.625
1278.69312	23284.825
1282.22882	23865.625
1285.76211	24449.025
1289.29301	25039.925
1292.82151	25647.125
1296.34761	26559.225
1299.87133	27885.625
1303.39266	29808.825
1306.9116	32562.325
1310.42815	35568.425
1313.94233	37388.225
1317.45412	36966.825
1320.96354	35126.625
1324.47058	32955.625
1327.97525	31106.925
1331.47754	30032.025
1334.97747	29726.925
1338.47502	29942.625
1341.97022	30451.425
1345.46305	30755.825
1348.95352	31057.325
1352.44163	31665.625
1355.92738	33304.725
1359.41078	36250.625
1362.89183	39054.025
1366.37053	38174.525
1369.84688	33935.025
1373.32088	29346.925
1376.79254	26337.725
1380.26186	24755.125
1383.72883	23995.625
1387.19347	23401.125
1390.65578	22927.425
1394.11575	22655.525
1397.57339	22846.925
1401.0287	23313.225
1404.48168	23850.525
1407.93234	24330.425
1411.38068	24571.325
1414.82669	24465.725
1418.27039	23866.725
1421.71177	22941.125
1425.15083	22236.825
1428.58758	21892.625
1432.02203	21941.625
1435.45416	22194.125
1438.88399	22377.225
1442.31151	22477.125
1445.73673	22623.325
1449.15965	22803.425
1452.58027	22890.025
1455.9986	22757.225
1459.41463	22830.125
1462.82837	22989.525
1466.23982	23407.025
1469.64898	23895.925
1473.05586	24180.525
1476.46045	24338.225
1479.86276	24561.925
1483.26279	24888.525
1486.66054	25261.425
1490.05602	25732.325
1493.44922	26412.825
1496.84016	27159.525
1500.22882	28277.425
1503.61521	29963.525
1506.99934	31935.625
1510.38121	33669.725
1513.76081	34072.325
1517.13816	32674.925
1520.51324	30012.525
1523.88607	27467.925
1527.25665	25825.625
1530.62498	24936.725
1533.99105	24429.125
1537.35488	24162.025
1540.71647	23974.125
1544.07581	23820.525
1547.4329	23625.125
1550.78776	23339.425
1554.14038	23166.025
1557.49077	22965.625
1560.83892	23032.025
1564.18484	23191.725
1567.52853	23416.825
1570.86999	23603.525
1574.20922	23780.525
1577.54624	23717.225
1580.88103	23289.425
1584.2136	22763.025
1587.54395	22833.025
1590.87208	23896.925
1594.19801	25748.625
1597.52172	27940.125
1600.84321	29038.825
1604.16251	28261.825
1607.47959	26148.025
1610.79447	23584.025
1614.10715	21309.625
1617.41763	19725.125
1620.7259	18708.125
1624.03199	18274.125
1627.33587	18354.425
1630.63757	18887.625
1633.93707	19981.125
1637.23439	21561.125
1640.52951	23578.425
1643.82246	25956.825
1647.11321	28026.925
1650.40179	28817.325
1653.68819	27257.025
1656.97241	23871.525
1660.25446	20488.325
1663.53433	18007.525
1666.81203	16543.225
1670.08756	15647.625
1673.36092	15161.325
1676.63211	14837.025
1679.90115	14585.325
1683.16801	14407.425
1686.43272	14248.125
1689.69527	14101.425
1692.95567	13982.025
1696.2139	13848.925
1699.46999	13693.125
1702.72392	13671.725
1705.97571	13694.425
1709.22535	13789.925
1712.47284	13869.625
1715.71819	13908.425
1718.96139	13875.925
1722.20246	13861.925
1725.44139	13791.925
1728.67818	13713.625
1731.91284	13666.725
1735.14537	13578.525
1738.37576	13526.225
1741.60403	13473.925
1744.83017	13477.425
1748.05418	13386.225
1751.27607	13351.425
1754.49584	13288.225
1757.71349	13197.125
1760.92903	13139.125
1764.14244	13167.525
1767.35375	13154.525
1770.56294	13129.725
1773.77002	13157.025
1776.97499	13176.525
1780.17785	13201.825
1783.37861	13233.925
1786.57727	13198.625
1789.77382	13227.425
1792.96828	13269.625
1796.16064	13240.725
1799.3509	13232.925
1802.53907	13170.625
1805.72514	13194.425
1808.90913	13152.025
1812.09102	13113.825
1815.27083	13096.125
1818.44856	13100.825
1821.6242	13059.925
1824.79776	13077.625
1827.96924	13035.525
1831.13864	13054.025
1834.30597	13019.325
1837.47122	13016.625
1840.6344	13017.125
1843.7955	13011.825
1846.95454	12984.925
1850.11151	12990.525
1853.26642	13001.625
1856.41926	13001.125
1859.57004	13029.325
1862.71876	13003.325
1865.86542	13038.125
1869.01003	13015.725
1872.15258	12997.725
1875.29308	13035.225
1878.43152	13053.425
1881.56792	13051.825
1884.70227	13037.025
1887.83457	13082.325
1890.96482	13016.725
1894.09304	12998.125
1897.21921	13029.325
1900.34335	13017.125
1903.46544	13022.425
1906.58551	13033.825
1909.70353	13027.025
1912.81953	13039.425
1915.93349	13008.525
1919.04543	13028.025
1922.15534	12995.525
1925.26322	12948.725
1928.36908	12910.225
1931.47292	12887.525
1934.57473	12847.125
1937.67453	12805.825
1940.77232	12804.925
1943.86808	12747.925
1946.96184	12707.925
1950.05358	12659.125
1953.14331	12575.425
1956.23103	12546.025
1959.31675	12517.525
1962.40046	12483.125
1965.48217	12467.825
1968.56188	12443.725
1971.63959	12420.025
1974.7153	12390.725
1977.78901	12342.225
1980.86073	12290.525
1983.93046	12252.125
1986.99819	12189.225
1990.06394	12182.225
1993.1277	12143.125
1996.18947	12110.825
1999.24925	12053.825
2002.30706	12031.725
2005.36288	12045.025
2008.41672	11992.625
2011.46859	11960.725
2014.51848	11914.925
2017.56639	11886.225
2020.61233	11862.225
2023.6563	11838.925
2026.6983	11818.025
2029.73833	11793.325
2032.7764	11757.325
2035.8125	11753.625
2038.84664	11734.025
2041.87881	11711.125
2044.90903	11718.325
2047.93729	11683.225
2050.96359	11672.525
2053.98794	11668.825
2057.01034	11638.925
2060.03078	11639.825
2063.04927	11622.325
2066.06582	11603.825
2069.08042	11608.925
2072.09307	11588.425
2075.10378	11594.225
2078.11255	11579.425
2081.11938	11591.225
2084.12426	11579.725
2087.12722	11578.425
2090.12824	11546.025
2093.12732	11547.825
2096.12447	11546.725
2099.11969	11544.925
2102.11299	11532.325
2105.10435	11553.125
2108.09379	11558.725
2111.08131	11551.725
2114.0669	11569.425
2117.05057	11571.825
2120.03233	11590.325
2123.01216	11596.025
2125.99008	11633.425
2128.96609	11637.325
2131.94018	11618.325
2134.91236	11618.325
2137.88263	11644.025
2140.851	11632.125
2143.81746	11652.725
2146.78201	11644.925
2149.74466	11653.225
2152.7054	11663.025
2155.66425	11664.625
2158.6212	11664.725
2161.57625	11654.825
2164.52941	11668.925
2167.48067	11650.925
2170.43004	11634.925
2173.37752	11641.725
2176.32311	11625.925
2179.26681	11612.325
2182.20863	11622.925
2185.14856	11660.925
2188.08661	11682.925
2191.02278	11652.325
2193.95707	11680.825
2196.88948	11659.225
2199.82001	11654.125
2202.74867	11657.225
2205.67545	11645.525
2208.60037	11630.125
2211.52341	11658.825
2214.44458	11622.825
2217.36388	11616.225
2220.28132	11623.125
2223.1969	11613.325
2226.11061	11554.625
2229.02246	11543.525
2231.93245	11561.425
2234.84058	11499.625
2237.74686	11472.025
2240.65128	11459.325
2243.55385	11463.525
2246.45456	11438.525
2249.35343	11456.325
2252.25044	11423.825
2255.14561	11426.025
2258.03893	11413.625
2260.93041	11376.325
2263.82004	11327.625
2266.70783	11326.125
2269.59378	11305.325
2272.4779	11297.525
2275.36017	11248.825
2278.24061	11218.325
2281.11922	11200.925
2283.996	11198.025
2286.87094	11183.025
2289.74405	11155.625
2292.61534	11180.225
2295.4848	11178.625
2298.35243	11150.325
2301.21824	11141.025
2304.08223	11172.825
2306.94439	11200.925
2309.80474	11196.325
2312.66327	11211.825
2315.51999	11218.825
2318.37489	11215.225
2321.22797	11206.725
2324.07925	11198.525
2326.92871	11168.725
2329.77637	11164.425
2332.62222	11181.125
2335.46626	11135.025
2338.3085	11159.925
2341.14893	11173.125
2343.98756	11208.125
2346.8244	11190.725
2349.65943	11217.225
2352.49267	11210.725
2355.32411	11232.425
2358.15376	11205.925
2360.98161	11190.825
2363.80768	11183.425
2366.63195	11156.125
2369.45444	11114.025
2372.27514	11101.525
2375.09405	11071.125
2377.91118	11092.725
2380.72652	11045.525
2383.54009	10990.225
2386.35187	11009.325
2389.16188	10960.225
2391.97011	10932.125
2394.77657	10951.025
2397.58125	10911.025
2400.38416	10943.725
2403.18529	10909.925
2405.98466	10874.025
2408.78226	10841.525
2411.57809	10811.925
2414.37216	10783.625
2417.16446	10791.425
2419.955	10785.925
2422.74378	10746.125
2425.5308	10722.625
2428.31606	10727.225
2431.09956	10735.625
2433.88131	10741.225
2436.6613	10762.425
2439.43954	10753.025
2442.21603	10734.325
2444.99077	10729.125
2447.76377	10737.025
2450.53501	10711.325
2453.30451	10689.925
2456.07226	10712.425
2458.83827	10682.125
2461.60254	10690.025
2464.36507	10674.625
2467.12586	10672.625
2469.88492	10668.225
2472.64224	10664.225
2475.39782	10691.225
2478.15167	10684.625
2480.90379	10729.325
2483.65417	10740.825
2486.40283	10781.025
2489.14976	10785.425
2491.89497	10787.125
2494.63845	10773.325
2497.3802	10748.525
2500.12024	10784.625
2502.85855	10780.425
2505.59514	10766.225
2508.33002	10707.425
2511.06318	10700.525
2513.79462	10709.725
2516.52435	10678.125
2519.25237	10662.225
2521.97867	10631.325
2524.70327	10612.325
2527.42616	10624.725
2530.14734	10621.125
2532.86681	10652.525
2535.58458	10622.925
2538.30065	10634.325
2541.01501	10622.025
2543.72768	10603.025
2546.43864	10626.225
2549.14791	10596.925
2551.85548	10594.125
2554.56136	10572.425
2557.26554	10538.725
2559.96803	10537.925
2562.66883	10516.125
2565.36794	10512.425
2568.06536	10540.025
2570.7611	10514.225
2573.45514	10503.325
2576.14751	10535.425
2578.83819	10502.325
2581.52719	10493.925
2584.21451	10491.025
2586.90015	10471.325
2589.58411	10485.625
2592.2664	10492.125
2594.94701	10497.125
2597.62594	10479.325
2600.30321	10460.825
2602.9788	10479.625
2605.65273	10489.125
2608.32498	10488.625
2610.99557	10490.625
2613.66449	10511.525
2616.33175	10486.325
2618.99734	10521.825
2621.66128	10497.525
2624.32355	10513.825
2626.98416	10516.625
2629.64311	10534.225
2632.30041	10517.725
2634.95605	10500.925
2637.61004	10482.225
2640.26238	10482.625
2642.91306	10446.225
2645.56209	10395.925
2648.20948	10396.725
2650.85521	10362.525
2653.4993	10379.125
2656.14175	10382.225
2658.78255	10414.525
2661.42171	10393.825
2664.05923	10443.025
2666.6951	10410.725
2669.32934	10477.825
2671.96194	10461.225
2674.59291	10478.725
2677.22224	10448.125
2679.84993	10442.025
2682.476	10448.625
2685.10043	10476.725
2687.72324	10452.725
2690.34441	10459.325
2692.96396	10457.625
2695.58188	10423.925
2698.19818	10418.525
2700.81285	10399.625
2703.4259	10375.025
2706.03733	10304.825
2708.64714	10332.325
2711.25533	10407.125
2713.86191	10421.025
2716.46687	10438.125
2719.07021	10447.325
2721.67194	10472.825
2724.27206	10466.725
2726.87057	10460.025
2729.46747	10468.825
2732.06276	10470.425
2734.65644	10458.925
2737.24852	10449.225
2739.83899	10458.325
2742.42786	10495.125
2745.01513	10428.825
2747.60079	10465.525
2750.18486	10419.525
2752.76733	10427.125
2755.3482	10435.625
2757.92747	10420.925
2760.50515	10417.225
2763.08123	10398.025
2765.65573	10381.025
2768.22863	10422.125
2770.79994	10406.925
2773.36967	10379.625
2775.9378	10403.325
2778.50435	10394.325
2781.06932	10414.825
2783.6327	10407.225
2786.1945	10377.225
2788.75471	10379.025
2791.31335	10343.025
2793.87041	10330.725
2796.42589	10340.625
2798.97979	10335.725
2801.53212	10280.925
2804.08288	10273.725
2806.63206	10270.725
2809.17967	10270.725
2811.72571	10266.725
2814.27018	10248.825
2816.81308	10239.725
2819.35442	10233.825
2821.89419	10234.025
2824.43239	10223.625
2826.96904	10218.025
2829.50412	10237.225
2832.03763	10191.625
2834.56959	10224.725
2837.1	10214.925
2839.62884	10234.225
2842.15613	10207.525
2844.68186	10227.325
2847.20604	10219.425
2849.72867	10229.625
2852.24974	10230.425
2854.76927	10194.925
2857.28724	10178.525
2859.80367	10185.425
2862.31855	10152.325
2864.83189	10156.525
2867.34368	10180.625
2869.85393	10172.225
2872.36264	10166.025
2874.8698	10162.325
2877.37543	10181.025
2879.87952	10147.525
2882.38207	10188.225
2884.88308	10154.825
2887.38256	10181.225
2889.88051	10169.225
2892.37692	10159.925
2894.8718	10139.425
2897.36515	10197.725
2899.85698	10193.325
2902.34727	10213.925
2904.83604	10232.625
2907.32328	10209.625
2909.809	10238.525
2912.29319	10258.725
2914.77587	10250.225
2917.25702	10229.525
2919.73665	10239.925
2922.21476	10221.625
2924.69136	10193.225
2927.16644	10210.025
2929.64	10152.125
2932.11205	10168.125
2934.58258	10110.125
2937.05161	10139.525
2939.51912	10136.625
2941.98513	10111.825
2944.44962	10113.125
2946.91261	10062.825
2949.37409	10089.825
2951.83407	10079.825
2954.29254	10086.425
2956.74951	10071.025
2959.20498	10043.725
2961.65895	10033.725
2964.11142	10041.025
2966.56239	10015.525
2969.01186	10011.025
2971.45984	9976.225
2973.90632	9979.225
2976.35131	9942.325
2978.7948	9929.425
2981.23681	9915.025
2983.67732	9904.425
2986.11635	9862.325
2988.55388	9848.425
2990.98993	9829.825
2993.4245	9799.425
2995.85758	9806.925
2998.28917	9755.825
3000.71928	9754.025
3003.14791	9702.025
3005.57506	9701.225
3008.00073	9689.125
3010.42493	9701.425
3012.84764	9657.825
3015.26888	9656.325
3017.68865	9645.225
3020.10694	9624.625
3022.52376	9604.025
3024.9391	9583.925
3027.35298	9560.725
3029.76539	9537.425
3032.17632	9563.325
3034.5858	9563.125
3036.9938	9547.425
3039.40034	9521.025
3041.80542	9527.625
3044.20903	9498.225
3046.61118	9511.025
3049.01187	9501.025
3051.4111	9490.625
3053.80888	9466.025
3056.20519	9451.725
3058.60005	9433.925
3060.99345	9425.725
3063.3854	9383.325
3065.7759	9368.425
3068.16494	9336.725
3070.55254	9308.025
3072.93868	9264.225
3075.32338	9249.225
3077.70662	9213.825
3080.08842	9204.325
3082.46878	9198.925
3084.84769	9196.225
3087.22515	9190.125
3089.60118	9196.725
3091.97576	9196.225
3094.3489	9196.025
3096.72061	9185.225
3099.09087	9211.725
3101.4597	9196.225
3103.82709	9176.625
3106.19305	9149.825
3108.55757	9138.225
3110.92066	9130.325
3113.28232	9138.525
3115.64255	9115.625
3118.00134	9111.225
3120.35871	9086.525
3122.71466	9043.625
3125.06917	9057.125
3127.42226	9035.525
3129.77393	9041.025
3132.12417	9008.825
3134.47299	9023.425
3136.82039	9018.725
