Data from AgNPs_FTO_APTES_UA_50uM_CRN_1uM_R6G_10uM_NaF_0.1M_Addition_RamanShift__16__11-34-14-727.txt Node

Date: Mon Feb 21 11:34:14 GMT 2022
User: TCL
Spectrometer: QEP01345
Trigger mode: 4
Integration Time (sec): 7.000000E0
Scans to average: 10
Electric dark correction enabled: true
Nonlinearity correction enabled: false
Boxcar width: 0
XAxis mode: Raman Shifts
Number of Pixels in Spectrum: 1044
>>>>>Begin Spectral Data<<<<<
46.04893	0.1875
50.45542	-1.1125
54.85868	-0.1125
59.25871	-1.7125
63.6555	66.7875
68.04907	68.4875
72.43941	70.9875
76.82654	78.9875
81.21044	78.4875
85.59113	81.8875
89.96862	84.9875
94.34289	89.4875
98.71396	89.0875
103.08183	93.0875
107.4465	93.5875
111.80798	96.8875
116.16626	96.8875
120.52136	99.4875
124.87327	106.9875
129.222	109.8875
133.56755	116.5875
137.90993	127.0875
142.24913	131.3875
146.58517	148.7875
150.91804	169.5875
155.24774	208.3875
159.57429	253.8875
163.89768	325.2875
168.21792	432.0875
172.53501	594.0875
176.84895	834.0875
181.15975	1166.2875
185.46741	1639.2875
189.77193	2268.6875
194.07331	3027.4875
198.37157	3907.6875
202.6667	4805.3875
206.9587	5727.0875
211.24758	6643.7875
215.53334	7553.9875
219.81599	8511.3875
224.09553	9644.5875
228.37195	10855.1875
232.64527	12199.2875
236.91549	13557.3875
241.18261	14877.3875
245.44663	16108.6875
249.70755	17145.5875
253.96539	18049.5875
258.22014	18823.6875
262.4718	19471.4875
266.72039	19907.8875
270.96589	20104.9875
275.20832	20120.8875
279.44768	19940.3875
283.68397	19706.4875
287.91719	19503.2875
292.14735	19460.8875
296.37445	19530.2875
300.59849	19735.0875
304.81948	20036.4875
309.03742	20192.5875
313.25231	20081.4875
317.46415	19611.2875
321.67296	18857.6875
325.87872	18198.5875
330.08145	17885.5875
334.28114	17809.2875
338.47781	17981.8875
342.67145	18254.4875
346.86207	18652.0875
351.04966	19187.0875
355.23424	19817.9875
359.4158	20313.7875
363.59435	20655.7875
367.76989	20839.8875
371.94243	20891.1875
376.11196	20935.0875
380.27849	20935.6875
384.44203	21016.8875
388.60257	21054.9875
392.76012	21140.6875
396.91468	21406.1875
401.06626	21842.6875
405.21485	22030.9875
409.36047	21840.9875
413.50311	21310.1875
417.64277	20896.2875
421.77947	20675.4875
425.9132	20612.9875
430.04396	20631.5875
434.17176	20719.1875
438.2966	20886.8875
442.41849	21275.4875
446.53742	21823.5875
450.6534	22438.3875
454.76644	22896.2875
458.87653	23064.2875
462.98368	23012.8875
467.08789	22757.6875
471.18916	22437.3875
475.2875	22052.5875
479.38291	21836.4875
483.4754	21663.4875
487.56496	21492.3875
491.6516	21187.1875
495.73531	20940.0875
499.81612	20813.1875
503.89401	20908.9875
507.96899	21046.9875
512.04106	21036.5875
516.11023	20984.1875
520.1765	20899.2875
524.23987	20747.5875
528.30034	20560.5875
532.35792	20375.6875
536.41261	20107.3875
540.46441	19842.0875
544.51333	19740.4875
548.55936	19914.5875
552.60252	20336.6875
556.64279	20905.1875
560.6802	21268.3875
564.71473	21594.6875
568.7464	22088.6875
572.7752	22760.1875
576.80114	22978.7875
580.82422	23088.8875
584.84444	23294.6875
588.86181	23560.0875
592.87633	23850.8875
596.888	23862.7875
600.89682	23662.3875
604.9028	24535.0875
608.90594	27759.2875
612.90624	31539.7875
616.90371	29936.9875
620.89834	23868.7875
624.89015	20980.6875
628.87913	20483.7875
632.86528	20599.2875
636.84862	20727.9875
640.82913	20462.4875
644.80683	19891.9875
648.78172	19393.0875
652.75379	19263.9875
656.72306	19658.5875
660.68952	20221.5875
664.65319	20131.1875
668.61405	19608.8875
672.57211	19493.7875
676.52738	19544.4875
680.47986	19535.4875
684.42955	19409.4875
688.37646	19375.2875
692.32058	19472.2875
696.26192	19672.9875
700.20048	19913.2875
704.13626	20021.6875
708.06928	19929.6875
711.99952	19762.2875
715.927	19729.7875
719.85171	19827.8875
723.77365	19856.0875
727.69284	19555.9875
731.60928	19322.7875
735.52295	19220.7875
739.43388	19247.1875
743.34206	19308.4875
747.24749	19396.8875
751.15017	19541.4875
755.05012	19857.2875
758.94733	20467.2875
762.8418	21765.3875
766.73354	23996.9875
770.62254	26154.2875
774.50882	26923.6875
778.39237	25771.3875
782.27321	23544.2875
786.15132	21573.3875
790.02671	20286.2875
793.89938	19633.7875
797.76935	19394.4875
801.6366	19253.3875
805.50115	19183.9875
809.36299	19070.4875
813.22213	18926.5875
817.07857	18849.7875
820.93231	18777.9875
824.78336	18682.9875
828.63172	18649.1875
832.47738	18619.1875
836.32036	18596.8875
840.16066	18570.5875
843.99827	18615.8875
847.8332	18617.9875
851.66546	18562.7875
855.49504	18574.3875
859.32195	18559.1875
863.1462	18528.7875
866.96777	18481.8875
870.78668	18424.9875
874.60293	18468.9875
878.41652	18528.0875
882.22745	18587.2875
886.03573	18643.0875
889.84136	18646.9875
893.64433	18582.0875
897.44466	18511.0875
901.24235	18403.2875
905.0374	18321.9875
908.8298	18197.2875
912.61957	18169.4875
916.40671	18242.3875
920.19121	18460.5875
923.97308	18623.5875
927.75233	18761.3875
931.52895	18697.3875
935.30295	18509.8875
939.07433	18158.2875
942.84309	17887.2875
946.60924	17682.3875
950.37278	17641.5875
954.13371	17637.5875
957.89203	17590.1875
961.64774	17495.5875
965.40086	17485.1875
969.15137	17423.3875
972.89929	17371.8875
976.64461	17356.0875
980.38733	17338.7875
984.12747	17366.7875
987.86502	17516.5875
991.59999	17756.3875
995.33237	18057.3875
999.06217	18492.7875
1002.78939	18977.7875
1006.51404	19412.2875
1010.23611	19719.5875
1013.95561	19930.2875
1017.67255	19912.6875
1021.38692	19706.8875
1025.09872	19368.1875
1028.80796	19215.0875
1032.51465	19384.7875
1036.21877	19596.3875
1039.92035	19684.3875
1043.61937	19641.3875
1047.31584	19428.3875
1051.00976	19154.6875
1054.70114	19103.6875
1058.38998	19099.5875
1062.07627	19209.8875
1065.76003	19372.4875
1069.44126	19571.2875
1073.11995	19880.8875
1076.79611	20273.2875
1080.46974	20481.9875
1084.14085	20779.8875
1087.80943	21149.7875
1091.47549	21358.8875
1095.13903	21340.5875
1098.80005	21006.8875
1102.45857	20471.4875
1106.11456	20157.3875
1109.76805	20029.1875
1113.41903	20132.9875
1117.06751	20341.8875
1120.71348	20719.6875
1124.35696	21071.6875
1127.99793	21458.0875
1131.63641	21593.8875
1135.2724	21307.9875
1138.90589	20954.6875
1142.5369	20753.1875
1146.16542	20657.6875
1149.79145	20657.0875
1153.415	20764.7875
1157.03607	20994.4875
1160.65467	21468.0875
1164.27079	22337.7875
1167.88443	23583.2875
1171.49561	25124.1875
1175.10432	27304.0875
1178.71056	30144.1875
1182.31434	32822.5875
1185.91565	34059.2875
1189.51451	33802.6875
1193.11091	32645.3875
1196.70485	31067.4875
1200.29634	29537.6875
1203.88538	28251.1875
1207.47197	27208.0875
1211.05612	26398.9875
1214.63782	25789.3875
1218.21708	25394.0875
1221.79391	25142.7875
1225.36829	25034.2875
1228.94024	24811.5875
1232.50976	24392.1875
1236.07685	23988.7875
1239.6415	23734.8875
1243.20374	23709.3875
1246.76355	23786.7875
1250.32093	24068.1875
1253.8759	24596.7875
1257.42845	25308.6875
1260.97859	26188.3875
1264.52631	27099.4875
1268.07163	28098.2875
1271.61453	28914.0875
1275.15503	29704.1875
1278.69312	30438.8875
1282.22882	31055.4875
1285.76211	31818.2875
1289.29301	32813.4875
1292.82151	33955.9875
1296.34761	35423.8875
1299.87133	37345.6875
1303.39266	39766.0875
1306.9116	42690.4875
1310.42815	45694.0875
1313.94233	47472.2875
1317.45412	47442.8875
1320.96354	46056.7875
1324.47058	44473.5875
1327.97525	43101.6875
1331.47754	42236.1875
1334.97747	41859.0875
1338.47502	41682.6875
1341.97022	41669.9875
1345.46305	41444.0875
1348.95352	41333.6875
1352.44163	41580.3875
1355.92738	42811.5875
1359.41078	45508.8875
1362.89183	48288.5875
1366.37053	47614.3875
1369.84688	42769.2875
1373.32088	37407.9875
1376.79254	33766.4875
1380.26186	32164.0875
1383.72883	31622.4875
1387.19347	31297.7875
1390.65578	30840.7875
1394.11575	30592.0875
1397.57339	30773.6875
1401.0287	31248.6875
1404.48168	31740.7875
1407.93234	31916.3875
1411.38068	31658.7875
1414.82669	30987.2875
1418.27039	29956.4875
1421.71177	28878.7875
1425.15083	27950.0875
1428.58758	27473.2875
1432.02203	27607.6875
1435.45416	28229.7875
1438.88399	28920.6875
1442.31151	29435.7875
1445.73673	29835.4875
1449.15965	30179.5875
1452.58027	30419.8875
1455.9986	30479.2875
1459.41463	30735.2875
1462.82837	31156.6875
1466.23982	31764.1875
1469.64898	32271.0875
1473.05586	32505.4875
1476.46045	32497.8875
1479.86276	32297.5875
1483.26279	32136.0875
1486.66054	32107.7875
1490.05602	32422.2875
1493.44922	32901.7875
1496.84016	33711.7875
1500.22882	35003.2875
1503.61521	37069.6875
1506.99934	39579.5875
1510.38121	41672.7875
1513.76081	42106.6875
1517.13816	40357.9875
1520.51324	37360.4875
1523.88607	34658.4875
1527.25665	32967.4875
1530.62498	32147.6875
1533.99105	31689.8875
1537.35488	31365.5875
1540.71647	30854.2875
1544.07581	30313.6875
1547.4329	29791.3875
1550.78776	29287.7875
1554.14038	28976.6875
1557.49077	28908.8875
1560.83892	29009.1875
1564.18484	29256.2875
1567.52853	29627.2875
1570.86999	30056.6875
1574.20922	30490.9875
1577.54624	30718.5875
1580.88103	30360.1875
1584.2136	29963.6875
1587.54395	30301.4875
1590.87208	31566.6875
1594.19801	33634.6875
1597.52172	35724.1875
1600.84321	36389.9875
1604.16251	34869.8875
1607.47959	32297.6875
1610.79447	29456.5875
1614.10715	26822.8875
1617.41763	24689.2875
1620.7259	23184.1875
1624.03199	22409.4875
1627.33587	22394.2875
1630.63757	23040.9875
1633.93707	24514.5875
1637.23439	27088.5875
1640.52951	30691.4875
1643.82246	34956.7875
1647.11321	38608.8875
1650.40179	39688.4875
1653.68819	37135.8875
1656.97241	31998.4875
1660.25446	26772.8875
1663.53433	22950.9875
1666.81203	20596.7875
1670.08756	19201.3875
1673.36092	18361.8875
1676.63211	17834.9875
1679.90115	17417.6875
1683.16801	17105.4875
1686.43272	16883.5875
1689.69527	16728.0875
1692.95567	16511.1875
1696.2139	16364.3875
1699.46999	16181.6875
1702.72392	16118.5875
1705.97571	16176.6875
1709.22535	16210.7875
1712.47284	16245.9875
1715.71819	16262.7875
1718.96139	16222.2875
1722.20246	16169.0875
1725.44139	16068.9875
1728.67818	15943.3875
1731.91284	15880.5875
1735.14537	15758.5875
1738.37576	15667.7875
1741.60403	15596.2875
1744.83017	15519.2875
1748.05418	15457.1875
1751.27607	15384.2875
1754.49584	15338.0875
1757.71349	15233.6875
1760.92903	15173.0875
1764.14244	15115.7875
1767.35375	15150.2875
1770.56294	15105.7875
1773.77002	15116.1875
1776.97499	15122.9875
1780.17785	15123.6875
1783.37861	15159.4875
1786.57727	15108.8875
1789.77382	15125.0875
1792.96828	15107.3875
1796.16064	15086.6875
1799.3509	15090.9875
1802.53907	15011.5875
1805.72514	14971.6875
1808.90913	14924.8875
1812.09102	14924.1875
1815.27083	14879.5875
1818.44856	14872.1875
1821.6242	14853.8875
1824.79776	14831.5875
1827.96924	14847.7875
1831.13864	14832.6875
1834.30597	14832.6875
1837.47122	14821.7875
1840.6344	14848.6875
1843.7955	14832.8875
1846.95454	14806.3875
1850.11151	14804.0875
1853.26642	14783.5875
1856.41926	14760.1875
1859.57004	14759.0875
1862.71876	14759.2875
1865.86542	14762.7875
1869.01003	14757.2875
1872.15258	14737.4875
1875.29308	14735.6875
1878.43152	14720.7875
1881.56792	14696.8875
1884.70227	14693.6875
1887.83457	14676.4875
1890.96482	14668.8875
1894.09304	14636.9875
1897.21921	14628.3875
1900.34335	14590.3875
1903.46544	14604.7875
1906.58551	14572.3875
1909.70353	14550.2875
1912.81953	14524.2875
1915.93349	14485.8875
1919.04543	14415.2875
1922.15534	14414.2875
1925.26322	14373.6875
1928.36908	14334.2875
1931.47292	14284.6875
1934.57473	14226.7875
1937.67453	14212.3875
1940.77232	14180.4875
1943.86808	14136.4875
1946.96184	14093.1875
1950.05358	14046.5875
1953.14331	14001.1875
1956.23103	13946.5875
1959.31675	13885.1875
1962.40046	13846.2875
1965.48217	13833.4875
1968.56188	13830.0875
1971.63959	13810.8875
1974.7153	13752.8875
1977.78901	13709.1875
1980.86073	13653.6875
1983.93046	13593.7875
1986.99819	13519.2875
1990.06394	13524.7875
1993.1277	13477.6875
1996.18947	13444.6875
1999.24925	13400.8875
2002.30706	13355.2875
2005.36288	13322.8875
2008.41672	13296.5875
2011.46859	13238.2875
2014.51848	13213.3875
2017.56639	13161.0875
2020.61233	13119.2875
2023.6563	13122.6875
2026.6983	13082.5875
2029.73833	13044.1875
2032.7764	13007.3875
2035.8125	12976.9875
2038.84664	12959.7875
2041.87881	12978.3875
2044.90903	12947.7875
2047.93729	12910.6875
2050.96359	12885.4875
2053.98794	12894.5875
2057.01034	12902.3875
2060.03078	12853.2875
2063.04927	12848.2875
2066.06582	12819.0875
2069.08042	12812.2875
2072.09307	12819.4875
2075.10378	12811.3875
2078.11255	12812.6875
2081.11938	12803.6875
2084.12426	12784.5875
2087.12722	12798.6875
2090.12824	12784.1875
2093.12732	12792.2875
2096.12447	12804.5875
2099.11969	12769.2875
2102.11299	12778.0875
2105.10435	12809.2875
2108.09379	12771.6875
2111.08131	12784.1875
2114.0669	12813.2875
2117.05057	12845.9875
2120.03233	12839.1875
2123.01216	12841.9875
2125.99008	12866.3875
2128.96609	12879.9875
2131.94018	12842.1875
2134.91236	12871.3875
2137.88263	12864.6875
2140.851	12882.1875
2143.81746	12882.9875
2146.78201	12901.7875
2149.74466	12893.9875
2152.7054	12886.7875
2155.66425	12862.6875
2158.6212	12878.5875
2161.57625	12867.6875
2164.52941	12876.0875
2167.48067	12863.5875
2170.43004	12829.5875
2173.37752	12832.8875
2176.32311	12833.3875
2179.26681	12837.8875
2182.20863	12849.8875
2185.14856	12856.5875
2188.08661	12853.5875
2191.02278	12839.9875
2193.95707	12829.6875
2196.88948	12796.3875
2199.82001	12832.0875
2202.74867	12820.0875
2205.67545	12743.0875
2208.60037	12755.2875
2211.52341	12764.7875
2214.44458	12747.5875
2217.36388	12720.9875
2220.28132	12731.5875
2223.1969	12696.1875
2226.11061	12686.4875
2229.02246	12640.1875
2231.93245	12647.6875
2234.84058	12602.1875
2237.74686	12559.6875
2240.65128	12534.6875
2243.55385	12527.5875
2246.45456	12508.6875
2249.35343	12506.3875
2252.25044	12476.8875
2255.14561	12484.9875
2258.03893	12453.8875
2260.93041	12436.4875
2263.82004	12404.5875
2266.70783	12407.0875
2269.59378	12392.9875
2272.4779	12342.4875
2275.36017	12313.9875
2278.24061	12297.8875
2281.11922	12265.5875
2283.996	12266.9875
2286.87094	12265.7875
2289.74405	12194.0875
2292.61534	12173.4875
2295.4848	12169.4875
2298.35243	12172.3875
2301.21824	12177.4875
2304.08223	12192.3875
2306.94439	12196.9875
2309.80474	12200.3875
2312.66327	12178.2875
2315.51999	12151.7875
2318.37489	12172.0875
2321.22797	12157.8875
2324.07925	12146.0875
2326.92871	12128.7875
2329.77637	12140.6875
2332.62222	12113.9875
2335.46626	12109.9875
2338.3085	12087.6875
2341.14893	12091.0875
2343.98756	12108.2875
2346.8244	12096.4875
2349.65943	12104.6875
2352.49267	12106.8875
2355.32411	12094.2875
2358.15376	12084.1875
2360.98161	12097.4875
2363.80768	12084.0875
2366.63195	12090.1875
2369.45444	12066.8875
2372.27514	12048.4875
2375.09405	12020.2875
2377.91118	11995.3875
2380.72652	11968.2875
2383.54009	11909.0875
2386.35187	11917.3875
2389.16188	11890.5875
2391.97011	11897.1875
2394.77657	11851.1875
2397.58125	11856.5875
2400.38416	11821.8875
2403.18529	11821.4875
2405.98466	11798.0875
2408.78226	11782.9875
2411.57809	11772.8875
2414.37216	11729.0875
2417.16446	11726.4875
2419.955	11717.6875
2422.74378	11703.9875
2425.5308	11696.1875
2428.31606	11675.4875
2431.09956	11679.1875
2433.88131	11687.8875
2436.6613	11714.8875
2439.43954	11697.1875
2442.21603	11674.5875
2444.99077	11678.0875
2447.76377	11680.4875
2450.53501	11686.7875
2453.30451	11676.3875
2456.07226	11659.2875
2458.83827	11695.1875
2461.60254	11659.7875
2464.36507	11655.4875
2467.12586	11650.7875
2469.88492	11627.2875
2472.64224	11648.7875
2475.39782	11627.9875
2478.15167	11641.5875
2480.90379	11685.1875
2483.65417	11705.9875
2486.40283	11698.3875
2489.14976	11720.5875
2491.89497	11697.3875
2494.63845	11680.1875
2497.3802	11667.6875
2500.12024	11705.6875
2502.85855	11678.0875
2505.59514	11661.4875
2508.33002	11639.2875
2511.06318	11657.5875
2513.79462	11623.8875
2516.52435	11604.0875
2519.25237	11572.6875
2521.97867	11546.4875
2524.70327	11547.0875
2527.42616	11538.4875
2530.14734	11537.1875
2532.86681	11539.8875
2535.58458	11562.7875
2538.30065	11550.9875
2541.01501	11553.3875
2543.72768	11513.9875
2546.43864	11518.8875
2549.14791	11501.6875
2551.85548	11521.3875
2554.56136	11490.8875
2557.26554	11469.2875
2559.96803	11455.5875
2562.66883	11420.2875
2565.36794	11404.8875
2568.06536	11416.4875
2570.7611	11388.5875
2573.45514	11401.6875
2576.14751	11408.5875
2578.83819	11393.0875
2581.52719	11361.4875
2584.21451	11352.9875
2586.90015	11343.3875
2589.58411	11353.0875
2592.2664	11330.7875
2594.94701	11341.9875
2597.62594	11388.8875
2600.30321	11345.5875
2602.9788	11347.1875
2605.65273	11335.8875
2608.32498	11331.9875
2610.99557	11321.7875
2613.66449	11331.9875
2616.33175	11330.7875
2618.99734	11328.2875
2621.66128	11285.5875
2624.32355	11287.3875
2626.98416	11308.2875
2629.64311	11298.2875
2632.30041	11286.3875
2634.95605	11288.7875
2637.61004	11247.2875
2640.26238	11266.2875
2642.91306	11261.9875
2645.56209	11272.9875
2648.20948	11201.5875
2650.85521	11213.9875
2653.4993	11236.7875
2656.14175	11243.1875
2658.78255	11246.9875
2661.42171	11254.9875
2664.05923	11284.2875
2666.6951	11287.4875
2669.32934	11319.5875
2671.96194	11271.5875
2674.59291	11265.1875
2677.22224	11273.6875
2679.84993	11272.3875
2682.476	11273.5875
2685.10043	11299.0875
2687.72324	11294.2875
2690.34441	11287.2875
2692.96396	11254.6875
2695.58188	11263.2875
2698.19818	11240.3875
2700.81285	11234.2875
2703.4259	11194.7875
2706.03733	11113.0875
2708.64714	11174.7875
2711.25533	11234.9875
2713.86191	11259.9875
2716.46687	11308.5875
2719.07021	11307.7875
2721.67194	11328.2875
2724.27206	11325.4875
2726.87057	11325.6875
2729.46747	11339.2875
2732.06276	11333.9875
2734.65644	11312.7875
2737.24852	11341.2875
2739.83899	11329.0875
2742.42786	11320.5875
2745.01513	11306.5875
2747.60079	11307.9875
2750.18486	11263.9875
2752.76733	11286.0875
2755.3482	11256.5875
2757.92747	11262.1875
2760.50515	11230.3875
2763.08123	11221.7875
2765.65573	11202.1875
2768.22863	11210.3875
2770.79994	11204.1875
2773.36967	11193.0875
2775.9378	11204.4875
2778.50435	11194.9875
2781.06932	11185.0875
2783.6327	11210.7875
2786.1945	11179.8875
2788.75471	11203.2875
2791.31335	11194.1875
2793.87041	11187.8875
2796.42589	11135.8875
2798.97979	11128.2875
2801.53212	11089.4875
2804.08288	11106.2875
2806.63206	11079.2875
2809.17967	11063.3875
2811.72571	11045.4875
2814.27018	11004.6875
2816.81308	10987.1875
2819.35442	11019.9875
2821.89419	10985.6875
2824.43239	10993.9875
2826.96904	10964.7875
2829.50412	10959.1875
2832.03763	10944.1875
2834.56959	10953.8875
2837.1	10927.8875
2839.62884	10931.1875
2842.15613	10914.7875
2844.68186	10938.6875
2847.20604	10908.0875
2849.72867	10879.5875
2852.24974	10906.9875
2854.76927	10880.5875
2857.28724	10834.0875
2859.80367	10848.1875
2862.31855	10816.5875
2864.83189	10836.5875
2867.34368	10833.7875
2869.85393	10859.6875
2872.36264	10860.2875
2874.8698	10860.5875
2877.37543	10875.9875
2879.87952	10868.3875
2882.38207	10852.4875
2884.88308	10857.0875
2887.38256	10863.2875
2889.88051	10841.4875
2892.37692	10849.3875
2894.8718	10862.4875
2897.36515	10874.4875
2899.85698	10876.2875
2902.34727	10885.9875
2904.83604	10884.9875
2907.32328	10894.9875
2909.809	10915.8875
2912.29319	10935.2875
2914.77587	10932.6875
2917.25702	10947.1875
2919.73665	10898.6875
2922.21476	10901.9875
2924.69136	10872.8875
2927.16644	10888.7875
2929.64	10862.1875
2932.11205	10843.0875
2934.58258	10797.5875
2937.05161	10841.4875
2939.51912	10810.7875
2941.98513	10789.7875
2944.44962	10773.6875
2946.91261	10746.1875
2949.37409	10770.6875
2951.83407	10751.0875
2954.29254	10756.7875
2956.74951	10742.3875
2959.20498	10752.6875
2961.65895	10716.9875
2964.11142	10719.6875
2966.56239	10711.7875
2969.01186	10688.5875
2971.45984	10651.3875
2973.90632	10645.2875
2976.35131	10630.8875
2978.7948	10602.5875
2981.23681	10592.2875
2983.67732	10592.0875
2986.11635	10570.5875
2988.55388	10533.0875
2990.98993	10515.5875
2993.4245	10468.9875
2995.85758	10456.8875
2998.28917	10425.3875
3000.71928	10410.7875
3003.14791	10400.2875
3005.57506	10369.4875
3008.00073	10360.8875
3010.42493	10329.0875
3012.84764	10320.4875
3015.26888	10318.1875
3017.68865	10296.7875
3020.10694	10274.0875
3022.52376	10245.6875
3024.9391	10214.7875
