Data from AgNPs_FTO_APTES_UA_50uM_CRN_100uM_R6G_10uM_NaF_0.1M_Addition_RamanShift__15__15-33-25-034.txt Node

Date: Mon Feb 21 15:33:25 GMT 2022
User: TCL
Spectrometer: QEP01345
Trigger mode: 4
Integration Time (sec): 7.000000E0
Scans to average: 10
Electric dark correction enabled: true
Nonlinearity correction enabled: false
Boxcar width: 0
XAxis mode: Raman Shifts
Number of Pixels in Spectrum: 1044
>>>>>Begin Spectral Data<<<<<
46.04893	0.275
50.45542	-1.425
54.85868	-1.025
59.25871	-2.425
63.6555	48.275
68.04907	54.275
72.43941	55.775
76.82654	58.675
81.21044	63.875
85.59113	64.975
89.96862	68.475
94.34289	69.775
98.71396	71.875
103.08183	76.975
107.4465	76.675
111.80798	77.075
116.16626	78.075
120.52136	78.175
124.87327	86.775
129.222	84.975
133.56755	87.475
137.90993	95.375
142.24913	99.675
146.58517	114.375
150.91804	125.675
155.24774	146.375
159.57429	184.775
163.89768	232.975
168.21792	308.675
172.53501	420.775
176.84895	579.375
181.15975	806.475
185.46741	1139.275
189.77193	1580.775
194.07331	2106.475
198.37157	2730.275
202.6667	3377.575
206.9587	4012.675
211.24758	4638.275
215.53334	5271.775
219.81599	5930.775
224.09553	6659.475
228.37195	7491.075
232.64527	8381.275
236.91549	9350.075
241.18261	10315.075
245.44663	11187.475
249.70755	11950.475
253.96539	12633.975
258.22014	13132.975
262.4718	13566.075
266.72039	13910.975
270.96589	14063.775
275.20832	14059.475
279.44768	13962.975
283.68397	13746.475
287.91719	13575.875
292.14735	13477.075
296.37445	13463.075
300.59849	13566.975
304.81948	13660.875
309.03742	13738.875
313.25231	13625.675
317.46415	13321.375
321.67296	12940.775
325.87872	12624.275
330.08145	12497.575
334.28114	12528.875
338.47781	12624.475
342.67145	12831.575
346.86207	13055.975
351.04966	13378.175
355.23424	13741.875
359.4158	14045.775
363.59435	14240.475
367.76989	14405.175
371.94243	14497.175
376.11196	14555.575
380.27849	14652.575
384.44203	14684.775
388.60257	14709.975
392.76012	14812.775
396.91468	14880.175
401.06626	15088.175
405.21485	15196.275
409.36047	15141.975
413.50311	14829.775
417.64277	14530.275
421.77947	14357.975
425.9132	14288.075
430.04396	14325.575
434.17176	14380.775
438.2966	14532.875
442.41849	14731.775
446.53742	14995.475
450.6534	15296.275
454.76644	15534.975
458.87653	15614.875
462.98368	15618.375
467.08789	15532.575
471.18916	15390.175
475.2875	15223.775
479.38291	15080.075
483.4754	14933.075
487.56496	14801.275
491.6516	14733.675
495.73531	14682.275
499.81612	14689.675
503.89401	14847.375
507.96899	14931.075
512.04106	14948.975
516.11023	15014.275
520.1765	15013.975
524.23987	14997.475
528.30034	14929.875
532.35792	14852.575
536.41261	14775.975
540.46441	14637.075
544.51333	14574.375
548.55936	14619.975
552.60252	14802.975
556.64279	14959.875
560.6802	15016.175
564.71473	15042.275
568.7464	15154.075
572.7752	15346.575
576.80114	15356.575
580.82422	15362.375
584.84444	15432.775
588.86181	15546.775
592.87633	15687.675
596.888	15792.875
600.89682	15977.975
604.9028	16701.075
608.90594	18608.075
612.90624	20869.475
616.90371	19966.575
620.89834	16674.675
624.89015	15175.775
628.87913	14980.575
632.86528	15059.975
636.84862	15155.075
640.82913	15026.475
644.80683	14727.075
648.78172	14461.475
652.75379	14428.575
656.72306	14659.175
660.68952	14902.875
664.65319	14871.275
668.61405	14673.075
672.57211	14675.875
676.52738	14774.175
680.47986	14837.775
684.42955	14745.175
688.37646	14607.875
692.32058	14509.475
696.26192	14557.775
700.20048	14643.375
704.13626	14652.375
708.06928	14631.375
711.99952	14528.875
715.927	14469.075
719.85171	14551.175
723.77365	14525.575
727.69284	14510.575
731.60928	14423.175
735.52295	14450.875
739.43388	14447.975
743.34206	14470.775
747.24749	14487.975
751.15017	14490.275
755.05012	14614.075
758.94733	14880.375
762.8418	15522.475
766.73354	16686.275
770.62254	18045.975
774.50882	18674.675
778.39237	18135.475
782.27321	16788.275
786.15132	15611.275
790.02671	14817.275
793.89938	14453.575
797.76935	14305.975
801.6366	14270.575
805.50115	14224.275
809.36299	14129.275
813.22213	14038.375
817.07857	13963.875
820.93231	13938.975
824.78336	13927.575
828.63172	13915.975
832.47738	13894.875
836.32036	13916.375
840.16066	13885.175
843.99827	13952.975
847.8332	13905.975
851.66546	13888.175
855.49504	13876.375
859.32195	13939.775
863.1462	13924.575
866.96777	13941.975
870.78668	13950.375
874.60293	13939.875
878.41652	13976.775
882.22745	14025.775
886.03573	14069.675
889.84136	14048.075
893.64433	13981.275
897.44466	13905.275
901.24235	13839.775
905.0374	13791.775
908.8298	13719.375
912.61957	13701.475
916.40671	13738.075
920.19121	13810.175
923.97308	13915.575
927.75233	13964.675
931.52895	13983.975
935.30295	13921.875
939.07433	13749.975
942.84309	13559.375
946.60924	13439.575
950.37278	13400.075
954.13371	13375.675
957.89203	13295.675
961.64774	13271.075
965.40086	13246.675
969.15137	13178.475
972.89929	13150.875
976.64461	13108.775
980.38733	13147.075
984.12747	13183.775
987.86502	13256.975
991.59999	13366.675
995.33237	13509.375
999.06217	13707.375
1002.78939	13941.675
1006.51404	14094.275
1010.23611	14194.175
1013.95561	14285.875
1017.67255	14341.875
1021.38692	14285.775
1025.09872	14144.575
1028.80796	14141.875
1032.51465	14286.375
1036.21877	14452.375
1039.92035	14521.275
1043.61937	14465.375
1047.31584	14329.275
1051.00976	14165.275
1054.70114	14120.175
1058.38998	14102.275
1062.07627	14143.775
1065.76003	14186.975
1069.44126	14218.675
1073.11995	14305.575
1076.79611	14396.075
1080.46974	14516.775
1084.14085	14660.875
1087.80943	14787.175
1091.47549	14883.975
1095.13903	14815.175
1098.80005	14642.475
1102.45857	14442.275
1106.11456	14383.375
1109.76805	14384.875
1113.41903	14477.075
1117.06751	14635.175
1120.71348	14818.075
1124.35696	15067.575
1127.99793	15268.375
1131.63641	15357.075
1135.2724	15183.275
1138.90589	14986.075
1142.5369	14798.875
1146.16542	14621.775
1149.79145	14489.975
1153.415	14489.075
1157.03607	14533.075
1160.65467	14713.275
1164.27079	15112.675
1167.88443	15613.275
1171.49561	16390.575
1175.10432	17310.975
1178.71056	18663.875
1182.31434	19883.175
1185.91565	20516.275
1189.51451	20432.875
1193.11091	19781.675
1196.70485	18941.875
1200.29634	18184.375
1203.88538	17545.475
1207.47197	16907.475
1211.05612	16346.675
1214.63782	15942.875
1218.21708	15813.875
1221.79391	15756.375
1225.36829	15789.975
1228.94024	15751.675
1232.50976	15619.575
1236.07685	15475.075
1239.6415	15422.775
1243.20374	15438.275
1246.76355	15515.375
1250.32093	15604.175
1253.8759	15821.375
1257.42845	16114.475
1260.97859	16421.075
1264.52631	16765.475
1268.07163	17115.675
1271.61453	17506.275
1275.15503	17924.675
1278.69312	18221.175
1282.22882	18449.475
1285.76211	18699.575
1289.29301	18947.975
1292.82151	19334.775
1296.34761	19896.875
1299.87133	20641.275
1303.39266	21660.175
1306.9116	23030.575
1310.42815	24459.275
1313.94233	25252.475
1317.45412	25030.475
1320.96354	24148.175
1324.47058	23195.275
1327.97525	22275.675
1331.47754	21688.675
1334.97747	21417.975
1338.47502	21441.275
1341.97022	21660.575
1345.46305	22066.175
1348.95352	22611.675
1352.44163	23385.875
1355.92738	24533.275
1359.41078	26103.275
1362.89183	27496.275
1366.37053	26949.675
1369.84688	24284.875
1373.32088	21467.775
1376.79254	19509.975
1380.26186	18523.575
1383.72883	18035.375
1387.19347	17730.675
1390.65578	17362.975
1394.11575	17071.975
1397.57339	16960.275
1401.0287	17018.975
1404.48168	17091.175
1407.93234	17127.275
1411.38068	17087.575
1414.82669	16974.975
1418.27039	16768.575
1421.71177	16525.175
1425.15083	16213.575
1428.58758	16053.975
1432.02203	16061.375
1435.45416	16254.275
1438.88399	16416.575
1442.31151	16534.675
1445.73673	16654.175
1449.15965	16783.375
1452.58027	16901.875
1455.9986	16896.975
1459.41463	17035.875
1462.82837	17236.875
1466.23982	17530.875
1469.64898	17744.675
1473.05586	17971.575
1476.46045	18096.975
1479.86276	18161.975
1483.26279	18197.875
1486.66054	18211.875
1490.05602	18408.275
1493.44922	18746.875
1496.84016	19277.575
1500.22882	20196.175
1503.61521	21410.475
1506.99934	22879.675
1510.38121	24112.175
1513.76081	24367.075
1517.13816	23428.275
1520.51324	21732.275
1523.88607	20200.775
1527.25665	19191.675
1530.62498	18615.775
1533.99105	18274.675
1537.35488	18019.775
1540.71647	17816.975
1544.07581	17657.375
1547.4329	17500.075
1550.78776	17368.275
1554.14038	17341.775
1557.49077	17418.375
1560.83892	17519.975
1564.18484	17664.075
1567.52853	17914.475
1570.86999	18068.375
1574.20922	18269.675
1577.54624	18227.975
1580.88103	17843.775
1584.2136	17320.275
1587.54395	17112.675
1590.87208	17350.075
1594.19801	17976.475
1597.52172	18861.575
1600.84321	19298.675
1604.16251	18947.575
1607.47959	18160.875
1610.79447	17312.975
1614.10715	16347.275
1617.41763	15516.875
1620.7259	14905.975
1624.03199	14549.275
1627.33587	14489.675
1630.63757	14675.575
1633.93707	15119.775
1637.23439	15955.375
1640.52951	17114.575
1643.82246	18572.375
1647.11321	20024.375
1650.40179	20734.175
1653.68819	20029.675
1656.97241	18180.675
1660.25446	16164.675
1663.53433	14680.075
1666.81203	13722.175
1670.08756	13170.475
1673.36092	12816.075
1676.63211	12568.875
1679.90115	12431.175
1683.16801	12295.875
1686.43272	12205.175
1689.69527	12083.275
1692.95567	11991.175
1696.2139	11846.375
1699.46999	11714.375
1702.72392	11664.775
1705.97571	11699.075
1709.22535	11786.775
1712.47284	11848.075
1715.71819	11872.075
1718.96139	11826.875
1722.20246	11814.575
1725.44139	11783.275
1728.67818	11739.375
1731.91284	11702.575
1735.14537	11639.275
1738.37576	11614.575
1741.60403	11572.175
1744.83017	11518.675
1748.05418	11510.475
1751.27607	11475.475
1754.49584	11440.375
1757.71349	11356.675
1760.92903	11311.675
1764.14244	11312.475
1767.35375	11269.575
1770.56294	11221.275
1773.77002	11213.875
1776.97499	11204.675
1780.17785	11251.475
1783.37861	11277.775
1786.57727	11252.875
1789.77382	11232.875
1792.96828	11192.775
1796.16064	11178.675
1799.3509	11157.575
1802.53907	11134.675
1805.72514	11109.475
1808.90913	11072.475
1812.09102	11095.475
1815.27083	11050.275
1818.44856	11037.475
1821.6242	11048.075
1824.79776	11032.575
1827.96924	10993.175
1831.13864	10961.175
1834.30597	10976.375
1837.47122	10966.975
1840.6344	10931.375
1843.7955	10947.475
1846.95454	10942.875
1850.11151	10929.675
1853.26642	10946.075
1856.41926	10929.175
1859.57004	10917.075
1862.71876	10869.075
1865.86542	10864.375
1869.01003	10889.475
1872.15258	10836.875
1875.29308	10853.275
1878.43152	10828.575
1881.56792	10831.375
1884.70227	10801.075
1887.83457	10807.375
1890.96482	10791.675
1894.09304	10737.475
1897.21921	10759.975
1900.34335	10723.375
1903.46544	10746.275
1906.58551	10723.875
1909.70353	10723.475
1912.81953	10697.875
1915.93349	10708.475
1919.04543	10680.275
1922.15534	10664.775
1925.26322	10631.975
1928.36908	10589.375
1931.47292	10593.175
1934.57473	10553.475
1937.67453	10524.975
1940.77232	10494.475
1943.86808	10482.175
1946.96184	10463.275
1950.05358	10435.075
1953.14331	10398.275
1956.23103	10374.675
1959.31675	10330.575
1962.40046	10325.675
1965.48217	10310.875
1968.56188	10290.175
1971.63959	10240.975
1974.7153	10223.375
1977.78901	10211.875
1980.86073	10169.475
1983.93046	10121.675
1986.99819	10097.575
1990.06394	10070.575
1993.1277	10028.675
1996.18947	9987.875
1999.24925	9982.075
2002.30706	9932.575
2005.36288	9885.375
2008.41672	9898.975
2011.46859	9846.275
2014.51848	9808.375
2017.56639	9811.975
2020.61233	9785.375
2023.6563	9747.575
2026.6983	9753.775
2029.73833	9722.875
2032.7764	9658.375
2035.8125	9650.075
2038.84664	9655.075
2041.87881	9632.175
2044.90903	9613.275
2047.93729	9612.275
2050.96359	9594.675
2053.98794	9613.175
2057.01034	9581.575
2060.03078	9570.975
2063.04927	9569.875
2066.06582	9548.175
2069.08042	9531.375
2072.09307	9522.675
2075.10378	9512.975
2078.11255	9518.175
2081.11938	9533.175
2084.12426	9509.375
2087.12722	9502.375
2090.12824	9503.875
2093.12732	9491.375
2096.12447	9505.575
2099.11969	9507.375
2102.11299	9514.675
2105.10435	9504.975
2108.09379	9494.675
2111.08131	9485.875
2114.0669	9513.275
2117.05057	9511.475
2120.03233	9531.775
2123.01216	9552.875
2125.99008	9557.975
2128.96609	9554.775
2131.94018	9573.175
2134.91236	9554.375
2137.88263	9571.475
2140.851	9565.675
2143.81746	9597.875
2146.78201	9590.775
2149.74466	9586.875
2152.7054	9599.675
2155.66425	9583.675
2158.6212	9585.775
2161.57625	9580.275
2164.52941	9559.375
2167.48067	9559.175
2170.43004	9553.875
2173.37752	9547.675
2176.32311	9560.675
2179.26681	9555.775
2182.20863	9559.375
2185.14856	9570.575
2188.08661	9569.275
2191.02278	9550.575
2193.95707	9572.575
2196.88948	9524.775
2199.82001	9565.475
2202.74867	9532.675
2205.67545	9538.775
2208.60037	9507.075
2211.52341	9495.075
2214.44458	9483.075
2217.36388	9476.275
2220.28132	9462.775
2223.1969	9439.175
2226.11061	9432.075
2229.02246	9394.675
2231.93245	9381.775
2234.84058	9370.575
2237.74686	9352.375
2240.65128	9343.275
2243.55385	9371.375
2246.45456	9314.375
2249.35343	9311.875
2252.25044	9301.875
2255.14561	9288.575
2258.03893	9269.475
2260.93041	9241.875
2263.82004	9231.875
2266.70783	9225.975
2269.59378	9194.275
2272.4779	9179.675
2275.36017	9141.375
2278.24061	9143.475
2281.11922	9101.375
2283.996	9064.075
2286.87094	9079.075
2289.74405	9078.475
2292.61534	9057.075
2295.4848	9059.675
2298.35243	9045.975
2301.21824	9052.075
2304.08223	9027.475
2306.94439	9055.775
2309.80474	9066.575
2312.66327	9052.875
2315.51999	9023.675
2318.37489	9037.475
2321.22797	9006.075
2324.07925	9000.875
2326.92871	8996.875
2329.77637	8995.975
2332.62222	8959.675
2335.46626	8964.175
2338.3085	8945.575
2341.14893	8938.275
2343.98756	8956.875
2346.8244	8945.475
2349.65943	8945.175
2352.49267	8931.275
2355.32411	8933.375
2358.15376	8922.775
2360.98161	8935.875
2363.80768	8904.775
2366.63195	8923.275
2369.45444	8894.775
2372.27514	8889.475
2375.09405	8871.275
2377.91118	8880.075
2380.72652	8814.475
2383.54009	8811.775
2386.35187	8801.175
2389.16188	8767.975
2391.97011	8760.275
2394.77657	8721.475
2397.58125	8720.575
2400.38416	8720.975
2403.18529	8696.375
2405.98466	8682.475
2408.78226	8645.075
2411.57809	8640.775
2414.37216	8640.875
2417.16446	8622.475
2419.955	8615.875
2422.74378	8612.775
2425.5308	8595.175
2428.31606	8612.575
2431.09956	8599.375
2433.88131	8597.275
2436.6613	8590.375
2439.43954	8572.675
2442.21603	8560.175
2444.99077	8574.375
2447.76377	8578.075
2450.53501	8557.175
2453.30451	8563.475
2456.07226	8544.675
2458.83827	8559.075
2461.60254	8521.375
2464.36507	8530.675
2467.12586	8542.075
2469.88492	8531.075
2472.64224	8516.875
2475.39782	8492.775
2478.15167	8520.675
2480.90379	8532.775
2483.65417	8527.475
2486.40283	8528.675
2489.14976	8536.075
2491.89497	8506.175
2494.63845	8504.075
2497.3802	8500.975
2500.12024	8479.775
2502.85855	8495.975
2505.59514	8487.675
2508.33002	8462.175
2511.06318	8458.575
2513.79462	8445.075
2516.52435	8437.775
2519.25237	8413.675
2521.97867	8409.975
2524.70327	8406.475
2527.42616	8393.375
2530.14734	8380.175
2532.86681	8357.075
2535.58458	8388.775
2538.30065	8357.575
2541.01501	8374.575
2543.72768	8343.275
2546.43864	8349.275
2549.14791	8326.575
2551.85548	8314.575
2554.56136	8296.075
2557.26554	8260.075
2559.96803	8285.275
2562.66883	8266.875
2565.36794	8280.075
2568.06536	8259.975
2570.7611	8253.675
2573.45514	8227.775
2576.14751	8223.675
2578.83819	8208.975
2581.52719	8192.075
2584.21451	8184.875
2586.90015	8176.975
2589.58411	8168.775
2592.2664	8149.375
2594.94701	8138.675
2597.62594	8143.475
2600.30321	8117.575
2602.9788	8129.175
2605.65273	8121.775
2608.32498	8113.775
2610.99557	8090.975
2613.66449	8108.175
2616.33175	8083.075
2618.99734	8096.575
2621.66128	8082.275
2624.32355	8096.075
2626.98416	8075.175
2629.64311	8052.575
2632.30041	8066.475
2634.95605	8031.275
2637.61004	8026.075
2640.26238	8001.375
2642.91306	8010.175
2645.56209	8000.675
2648.20948	7981.575
2650.85521	7990.275
2653.4993	7976.975
2656.14175	7967.975
2658.78255	7973.575
2661.42171	7967.975
2664.05923	7985.375
2666.6951	8011.675
2669.32934	8013.275
2671.96194	8011.375
2674.59291	7997.975
2677.22224	8001.875
2679.84993	7992.175
2682.476	7994.475
2685.10043	7977.775
2687.72324	7964.475
2690.34441	7989.875
2692.96396	7962.075
2695.58188	7984.175
2698.19818	7948.275
2700.81285	7970.875
2703.4259	7917.075
2706.03733	7866.475
2708.64714	7899.875
2711.25533	7947.975
2713.86191	7944.275
2716.46687	7947.675
2719.07021	7981.375
2721.67194	7973.475
2724.27206	7988.375
2726.87057	7972.875
2729.46747	7955.275
2732.06276	7974.575
2734.65644	7975.675
2737.24852	7970.275
2739.83899	7967.975
2742.42786	7958.775
2745.01513	7924.175
2747.60079	7936.375
2750.18486	7931.775
2752.76733	7928.975
2755.3482	7918.675
2757.92747	7898.375
2760.50515	7898.375
2763.08123	7882.875
2765.65573	7888.075
2768.22863	7865.775
2770.79994	7854.575
2773.36967	7829.875
2775.9378	7844.375
2778.50435	7824.575
2781.06932	7830.475
2783.6327	7826.475
2786.1945	7846.575
2788.75471	7816.075
2791.31335	7788.475
2793.87041	7777.375
2796.42589	7748.875
2798.97979	7750.675
2801.53212	7747.875
2804.08288	7745.075
2806.63206	7734.775
2809.17967	7715.275
2811.72571	7685.475
2814.27018	7701.075
2816.81308	7660.975
2819.35442	7668.075
2821.89419	7657.375
2824.43239	7664.075
2826.96904	7650.975
2829.50412	7637.775
2832.03763	7627.675
2834.56959	7642.775
2837.1	7612.375
2839.62884	7627.375
2842.15613	7623.075
2844.68186	7631.775
2847.20604	7639.475
2849.72867	7624.075
2852.24974	7638.675
2854.76927	7607.675
2857.28724	7583.575
2859.80367	7600.375
2862.31855	7585.875
2864.83189	7571.875
2867.34368	7572.475
2869.85393	7578.875
2872.36264	7588.475
2874.8698	7574.875
2877.37543	7595.275
2879.87952	7582.475
2882.38207	7576.975
2884.88308	7569.175
2887.38256	7578.775
2889.88051	7585.475
2892.37692	7594.975
2894.8718	7563.375
2897.36515	7596.175
2899.85698	7606.175
2902.34727	7629.075
2904.83604	7614.775
2907.32328	7629.275
2909.809	7638.075
2912.29319	7656.275
2914.77587	7647.475
2917.25702	7654.675
2919.73665	7658.175
2922.21476	7650.475
2924.69136	7628.675
2927.16644	7634.675
2929.64	7625.275
2932.11205	7633.075
2934.58258	7581.775
2937.05161	7606.875
2939.51912	7602.175
2941.98513	7595.675
2944.44962	7551.775
2946.91261	7566.475
2949.37409	7569.775
2951.83407	7584.575
2954.29254	7569.475
2956.74951	7560.975
2959.20498	7527.175
2961.65895	7529.475
2964.11142	7502.875
2966.56239	7488.575
2969.01186	7485.075
2971.45984	7475.075
2973.90632	7466.175
2976.35131	7438.875
2978.7948	7443.775
2981.23681	7417.975
2983.67732	7400.275
2986.11635	7380.975
2988.55388	7367.875
2990.98993	7354.975
2993.4245	7350.475
2995.85758	7326.075
2998.28917	7319.075
3000.71928	7318.475
3003.14791	7302.675
3005.57506	7297.175
3008.00073	7277.675
3010.42493	7271.875
3012.84764	7263.875
3015.26888	7261.575
3017.68865	7248.575
3020.10694	7248.475
3022.52376	7227.975
3024.9391	7216.475
3027.35298	7203.975
3029.76539	7185.375
3032.17632	7184.775
3034.5858	7179.575
3036.9938	7158.675
3039.40034	7155.675
3041.80542	7145.875
3044.20903	7148.875
3046.61118	7157.675
3049.01187	7143.275
3051.4111	7131.075
3053.80888	7107.075
3056.20519	7118.575
3058.60005	7087.975
3060.99345	7082.575
3063.3854	7070.275
3065.7759	7048.275
3068.16494	7048.375
3070.55254	7016.675
3072.93868	7015.175
3075.32338	6994.075
3077.70662	6978.175
3080.08842	6973.875
3082.46878	6978.975
3084.84769	6954.675
3087.22515	6952.375
3089.60118	6975.375
3091.97576	6966.975
3094.3489	6968.175
3096.72061	6971.275
3099.09087	6954.475
3101.4597	6948.575
3103.82709	6957.175
3106.19305	6950.475
3108.55757	6959.375
3110.92066	6932.075
3113.28232	6931.975
3115.64255	6932.675
3118.00134	6918.475
3120.35871	6923.475
3122.71466	6911.275
3125.06917	6906.175
3127.42226	6875.775
3129.77393	6891.875
3132.12417	6874.475
3134.47299	6879.075
3136.82039	6865.975
3139.16636	6876.075
3141.51092	6870.275
3143.85406	6867.875
3146.19579	6880.175
3148.53609	6882.075
3150.87499	6876.775
3153.21246	6898.275
3155.54853	6914.075
3157.88318	6904.975
3160.21642	6938.875
3162.54826	6925.275
3164.87868	6928.875
3167.2077	6926.075
3169.5353	6935.575
3171.86151	6927.875
3174.18631	6923.275
3176.5097	6934.975
3178.83169	6904.875
