Data from AgNPs_FTO_APTES_UA_50uM_CRN_10uM_R6G_10uM_NaF_0.1M_Addition_RamanShift__26__13-43-44-895.txt Node

Date: Mon Feb 21 13:43:44 GMT 2022
User: TCL
Spectrometer: QEP01345
Trigger mode: 4
Integration Time (sec): 7.000000E0
Scans to average: 10
Electric dark correction enabled: true
Nonlinearity correction enabled: false
Boxcar width: 0
XAxis mode: Raman Shifts
Number of Pixels in Spectrum: 1044
>>>>>Begin Spectral Data<<<<<
46.04893	0.125
50.45542	-1.375
54.85868	-0.475
59.25871	-1.775
63.6555	68.925
68.04907	77.425
72.43941	77.025
76.82654	79.625
81.21044	86.625
85.59113	85.925
89.96862	88.625
94.34289	97.425
98.71396	96.225
103.08183	102.625
107.4465	102.225
111.80798	104.525
116.16626	104.525
120.52136	108.125
124.87327	115.225
129.222	116.825
133.56755	122.725
137.90993	140.425
142.24913	151.325
146.58517	169.125
150.91804	189.425
155.24774	229.925
159.57429	282.225
163.89768	371.725
168.21792	493.725
172.53501	675.625
176.84895	948.225
181.15975	1319.825
185.46741	1855.025
189.77193	2568.425
194.07331	3446.125
198.37157	4467.625
202.6667	5538.625
206.9587	6634.025
211.24758	7780.825
215.53334	8978.625
219.81599	10342.825
224.09553	11932.625
228.37195	13670.225
232.64527	15552.125
236.91549	17357.425
241.18261	18855.225
245.44663	20071.525
249.70755	20927.425
253.96539	21712.725
258.22014	22339.325
262.4718	22820.225
266.72039	23053.325
270.96589	23061.925
275.20832	22686.725
279.44768	22080.225
283.68397	21559.025
287.91719	21287.125
292.14735	21486.525
296.37445	22226.825
300.59849	23568.425
304.81948	25182.525
309.03742	26395.625
313.25231	26520.625
317.46415	25052.925
321.67296	22526.125
325.87872	20530.425
330.08145	19590.725
334.28114	19607.625
338.47781	20074.125
342.67145	20836.925
346.86207	22063.625
351.04966	23882.325
355.23424	25971.525
359.4158	27441.325
363.59435	28022.025
367.76989	27961.625
371.94243	27611.725
376.11196	27167.725
380.27849	26814.825
384.44203	26326.325
388.60257	25769.725
392.76012	25410.225
396.91468	25585.325
401.06626	26334.825
405.21485	26859.025
409.36047	26082.825
413.50311	24215.825
417.64277	22470.125
421.77947	21395.925
425.9132	20927.725
430.04396	20813.225
434.17176	20975.525
438.2966	21327.025
442.41849	22017.025
446.53742	22886.625
450.6534	23718.625
454.76644	24134.525
458.87653	24183.725
462.98368	23828.125
467.08789	23298.725
471.18916	22612.825
475.2875	21842.725
479.38291	21233.725
483.4754	20769.725
487.56496	20376.125
491.6516	20088.725
495.73531	19930.925
499.81612	20049.525
503.89401	20371.825
507.96899	20783.225
512.04106	21261.925
516.11023	21763.925
520.1765	22103.425
524.23987	22083.025
528.30034	21674.025
532.35792	21273.725
536.41261	20727.925
540.46441	20134.025
544.51333	19795.725
548.55936	19942.225
552.60252	20555.525
556.64279	21290.125
560.6802	21700.825
564.71473	22378.325
568.7464	23803.325
572.7752	24388.225
576.80114	23162.125
580.82422	21837.025
584.84444	21373.425
588.86181	21426.125
592.87633	21840.725
596.888	22406.725
600.89682	23368.225
604.9028	27206.625
608.90594	37742.925
612.90624	51167.625
616.90371	47830.525
620.89834	30745.125
624.89015	23003.325
628.87913	21723.325
632.86528	22118.025
636.84862	22572.325
640.82913	21898.125
644.80683	20275.825
648.78172	19164.225
652.75379	19196.225
656.72306	20430.225
660.68952	21868.925
664.65319	21404.025
668.61405	19851.625
672.57211	19244.725
676.52738	19243.825
680.47986	19215.025
684.42955	18932.325
688.37646	18717.425
692.32058	18791.625
696.26192	19027.025
700.20048	19353.125
704.13626	19558.725
708.06928	19438.625
711.99952	19175.725
715.927	19080.025
719.85171	19305.225
723.77365	19399.425
727.69284	19156.925
731.60928	18900.225
735.52295	18893.725
739.43388	18989.325
743.34206	19162.225
747.24749	19280.325
751.15017	19425.725
755.05012	19967.625
758.94733	21529.625
762.8418	25326.425
766.73354	31484.625
770.62254	37159.925
774.50882	39760.725
778.39237	37765.625
782.27321	31485.325
786.15132	25241.125
790.02671	21632.925
793.89938	20055.425
797.76935	19395.225
801.6366	19088.125
805.50115	18903.425
809.36299	18797.725
813.22213	18653.225
817.07857	18580.025
820.93231	18561.025
824.78336	18651.525
828.63172	18814.725
832.47738	18880.125
836.32036	18827.125
840.16066	18696.025
843.99827	18597.325
847.8332	18506.625
851.66546	18413.525
855.49504	18409.525
859.32195	18416.125
863.1462	18302.225
866.96777	18201.325
870.78668	18182.425
874.60293	18245.725
878.41652	18349.625
882.22745	18555.225
886.03573	18724.525
889.84136	18628.225
893.64433	18576.225
897.44466	18550.225
901.24235	18545.625
905.0374	18396.825
908.8298	18173.125
912.61957	18064.725
916.40671	18164.925
920.19121	18351.825
923.97308	18705.825
927.75233	19181.025
931.52895	19607.025
935.30295	19322.025
939.07433	18461.825
942.84309	17779.025
946.60924	17449.525
950.37278	17279.225
954.13371	17143.225
957.89203	17030.825
961.64774	16957.625
965.40086	16884.825
969.15137	16849.425
972.89929	16747.625
976.64461	16717.325
980.38733	16740.025
984.12747	16835.625
987.86502	17020.225
991.59999	17273.725
995.33237	17743.925
999.06217	18487.225
1002.78939	19457.925
1006.51404	20233.425
1010.23611	20759.625
1013.95561	21007.225
1017.67255	20978.525
1021.38692	20666.225
1025.09872	20313.725
1028.80796	20325.325
1032.51465	20912.325
1036.21877	21500.625
1039.92035	21656.425
1043.61937	21415.125
1047.31584	20851.525
1051.00976	20245.025
1054.70114	19771.125
1058.38998	19604.725
1062.07627	19618.225
1065.76003	19691.225
1069.44126	19740.325
1073.11995	20018.625
1076.79611	20465.125
1080.46974	21173.925
1084.14085	22164.725
1087.80943	23010.225
1091.47549	23222.625
1095.13903	22551.925
1098.80005	21480.125
1102.45857	20758.925
1106.11456	20565.825
1109.76805	20940.225
1113.41903	21818.425
1117.06751	23159.125
1120.71348	24862.525
1124.35696	26835.225
1127.99793	27993.925
1131.63641	27130.225
1135.2724	25060.725
1138.90589	23370.525
1142.5369	22346.125
1146.16542	21590.925
1149.79145	21201.525
1153.415	21223.525
1157.03607	21436.625
1160.65467	22046.125
1164.27079	23202.525
1167.88443	25008.325
1171.49561	27693.025
1175.10432	32071.925
1178.71056	37924.525
1182.31434	42751.425
1185.91565	44045.325
1189.51451	42322.825
1193.11091	38916.925
1196.70485	35339.525
1200.29634	32778.025
1203.88538	30662.725
1207.47197	28234.225
1211.05612	26119.925
1214.63782	24981.425
1218.21708	24642.625
1221.79391	24705.025
1225.36829	24853.425
1228.94024	24722.725
1232.50976	24404.625
1236.07685	24177.725
1239.6415	24118.425
1243.20374	24214.025
1246.76355	24426.325
1250.32093	24900.325
1253.8759	25680.725
1257.42845	26859.925
1260.97859	28123.825
1264.52631	29371.225
1268.07163	30645.825
1271.61453	31758.725
1275.15503	32638.125
1278.69312	33344.225
1282.22882	34140.025
1285.76211	35283.325
1289.29301	36722.525
1292.82151	38169.625
1296.34761	39971.425
1299.87133	42985.225
1303.39266	48184.325
1306.9116	55923.425
1310.42815	63585.625
1313.94233	66244.225
1317.45412	62233.925
1320.96354	55456.125
1324.47058	49215.025
1327.97525	44631.725
1331.47754	41998.525
1334.97747	41273.625
1338.47502	42067.825
1341.97022	43990.925
1345.46305	46889.525
1348.95352	50390.325
1352.44163	54810.525
1355.92738	61917.525
1359.41078	73168.625
1362.89183	82038.925
1366.37053	76178.525
1369.84688	60707.425
1373.32088	48162.825
1376.79254	41049.125
1380.26186	37277.625
1383.72883	34965.825
1387.19347	33198.225
1390.65578	31674.725
1394.11575	30714.725
1397.57339	30704.925
1401.0287	31022.425
1404.48168	31529.625
1407.93234	32010.425
1411.38068	32450.425
1414.82669	32538.025
1418.27039	32086.825
1421.71177	31147.725
1425.15083	30285.125
1428.58758	30057.725
1432.02203	30459.425
1435.45416	30916.025
1438.88399	30922.425
1442.31151	30926.025
1445.73673	31182.325
1449.15965	31459.825
1452.58027	31481.325
1455.9986	31171.725
1459.41463	31214.425
1462.82837	31772.125
1466.23982	32723.525
1469.64898	33608.325
1473.05586	34039.125
1476.46045	34244.725
1479.86276	34684.325
1483.26279	35377.525
1486.66054	36641.325
1490.05602	38330.325
1493.44922	40790.225
1496.84016	44568.825
1500.22882	50632.725
1503.61521	59205.025
1506.99934	69112.425
1510.38121	76385.025
1513.76081	76323.125
1517.13816	68247.725
1520.51324	56828.625
1523.88607	47359.425
1527.25665	41528.325
1530.62498	38352.525
1533.99105	36496.025
1537.35488	35288.625
1540.71647	34579.925
1544.07581	34309.625
1547.4329	34296.625
1550.78776	34429.225
1554.14038	34590.525
1557.49077	35054.725
1560.83892	35791.725
1564.18484	37085.225
1567.52853	38592.525
1570.86999	39642.325
1574.20922	40058.625
1577.54624	39412.025
1580.88103	36767.425
1584.2136	33723.025
1587.54395	32485.625
1590.87208	33410.625
1594.19801	36206.825
1597.52172	39586.325
1600.84321	40933.925
1604.16251	39189.125
1607.47959	35868.525
1610.79447	32407.525
1614.10715	29214.125
1617.41763	26762.025
1620.7259	25253.525
1624.03199	24682.925
1627.33587	24933.425
1630.63757	26045.025
1633.93707	28133.925
1637.23439	31387.525
1640.52951	36107.625
1643.82246	42571.225
1647.11321	49549.625
1650.40179	53087.925
1653.68819	49522.525
1656.97241	40698.525
1660.25446	32117.725
1663.53433	26414.025
1666.81203	23135.125
1670.08756	21301.225
1673.36092	20171.025
1676.63211	19477.425
1679.90115	18989.825
1683.16801	18590.225
1686.43272	18321.025
1689.69527	18082.325
1692.95567	17895.525
1696.2139	17708.825
1699.46999	17575.125
1702.72392	17560.625
1705.97571	17574.825
1709.22535	17629.925
1712.47284	17695.925
1715.71819	17717.525
1718.96139	17688.725
1722.20246	17586.325
1725.44139	17426.725
1728.67818	17266.025
1731.91284	17093.125
1735.14537	16980.625
1738.37576	16876.225
1741.60403	16766.925
1744.83017	16728.425
1748.05418	16647.525
1751.27607	16559.925
1754.49584	16497.825
1757.71349	16407.825
1760.92903	16344.925
1764.14244	16291.025
1767.35375	16287.725
1770.56294	16215.125
1773.77002	16153.625
1776.97499	16151.925
1780.17785	16137.325
1783.37861	16128.625
1786.57727	16106.025
1789.77382	16084.425
1792.96828	16079.725
1796.16064	16046.025
1799.3509	16025.825
1802.53907	16017.625
1805.72514	15960.925
1808.90913	15938.625
1812.09102	15872.125
1815.27083	15825.025
1818.44856	15794.725
1821.6242	15772.025
1824.79776	15728.225
1827.96924	15743.225
1831.13864	15729.025
1834.30597	15711.125
1837.47122	15707.525
1840.6344	15659.425
1843.7955	15654.725
1846.95454	15622.625
1850.11151	15633.725
1853.26642	15656.625
1856.41926	15673.625
1859.57004	15694.625
1862.71876	15686.725
1865.86542	15711.125
1869.01003	15688.525
1872.15258	15732.325
1875.29308	15720.125
1878.43152	15729.725
1881.56792	15750.225
1884.70227	15771.625
1887.83457	15791.825
1890.96482	15788.925
1894.09304	15743.325
1897.21921	15810.625
1900.34335	15817.025
1903.46544	15848.725
1906.58551	15819.525
1909.70353	15801.325
1912.81953	15800.925
1915.93349	15799.725
1919.04543	15772.725
1922.15534	15721.325
1925.26322	15664.125
1928.36908	15585.925
1931.47292	15517.025
1934.57473	15453.425
1937.67453	15393.125
1940.77232	15306.725
1943.86808	15267.025
1946.96184	15215.525
1950.05358	15174.125
1953.14331	15103.725
1956.23103	15051.625
1959.31675	15009.925
1962.40046	14997.525
1965.48217	14959.825
1968.56188	14937.625
1971.63959	14905.225
1974.7153	14882.125
1977.78901	14802.825
1980.86073	14784.025
1983.93046	14694.025
1986.99819	14584.225
1990.06394	14559.925
1993.1277	14516.525
1996.18947	14446.725
1999.24925	14420.125
2002.30706	14329.625
2005.36288	14295.525
2008.41672	14298.625
2011.46859	14255.725
2014.51848	14205.325
2017.56639	14170.125
2020.61233	14152.225
2023.6563	14099.825
2026.6983	14055.625
2029.73833	14060.925
2032.7764	14042.725
2035.8125	14009.525
2038.84664	14014.025
2041.87881	14004.925
2044.90903	13955.525
2047.93729	13945.525
2050.96359	13914.425
2053.98794	13901.125
2057.01034	13869.025
2060.03078	13860.525
2063.04927	13823.225
2066.06582	13816.225
2069.08042	13822.825
2072.09307	13790.625
2075.10378	13762.225
2078.11255	13769.825
2081.11938	13768.525
2084.12426	13739.425
2087.12722	13746.025
2090.12824	13723.425
2093.12732	13710.425
2096.12447	13711.925
2099.11969	13717.925
2102.11299	13741.725
2105.10435	13732.225
2108.09379	13731.925
2111.08131	13750.625
2114.0669	13771.025
2117.05057	13800.825
2120.03233	13839.025
2123.01216	13823.425
2125.99008	13863.125
2128.96609	13884.725
2131.94018	13871.825
2134.91236	13871.025
2137.88263	13836.525
2140.851	13844.425
2143.81746	13843.425
2146.78201	13850.425
2149.74466	13828.825
2152.7054	13834.125
2155.66425	13832.025
2158.6212	13806.125
2161.57625	13791.225
2164.52941	13800.825
2167.48067	13801.025
2170.43004	13772.925
2173.37752	13799.425
2176.32311	13806.825
2179.26681	13800.725
2182.20863	13796.625
2185.14856	13823.725
2188.08661	13826.425
2191.02278	13797.825
2193.95707	13809.725
2196.88948	13790.425
2199.82001	13823.425
2202.74867	13795.825
2205.67545	13819.325
2208.60037	13790.825
2211.52341	13802.825
2214.44458	13772.225
2217.36388	13738.825
2220.28132	13718.025
2223.1969	13708.625
2226.11061	13701.025
2229.02246	13637.425
2231.93245	13620.525
2234.84058	13605.225
2237.74686	13580.425
2240.65128	13580.125
2243.55385	13561.525
2246.45456	13562.525
2249.35343	13567.325
2252.25044	13539.025
2255.14561	13537.525
2258.03893	13574.925
2260.93041	13550.925
2263.82004	13565.225
2266.70783	13505.925
2269.59378	13460.725
2272.4779	13435.425
2275.36017	13438.325
2278.24061	13423.925
2281.11922	13340.325
2283.996	13311.925
2286.87094	13280.925
2289.74405	13258.225
2292.61534	13249.825
2295.4848	13248.425
2298.35243	13229.925
2301.21824	13243.425
2304.08223	13265.725
2306.94439	13252.325
2309.80474	13287.425
2312.66327	13304.025
2315.51999	13304.025
2318.37489	13303.925
2321.22797	13264.925
2324.07925	13249.825
2326.92871	13235.725
2329.77637	13249.625
2332.62222	13213.725
2335.46626	13248.125
2338.3085	13248.525
2341.14893	13292.225
2343.98756	13317.325
2346.8244	13321.025
2349.65943	13370.925
2352.49267	13336.425
2355.32411	13374.925
2358.15376	13417.925
2360.98161	13418.725
2363.80768	13407.025
2366.63195	13402.525
2369.45444	13416.125
2372.27514	13394.325
2375.09405	13385.125
2377.91118	13335.025
2380.72652	13290.125
2383.54009	13236.625
2386.35187	13190.125
2389.16188	13115.325
2391.97011	13113.625
2394.77657	13061.625
2397.58125	13015.425
2400.38416	12979.725
2403.18529	12963.525
2405.98466	12954.125
2408.78226	12906.425
2411.57809	12870.825
2414.37216	12829.025
2417.16446	12835.025
2419.955	12818.425
2422.74378	12844.625
2425.5308	12843.125
2428.31606	12827.725
2431.09956	12797.825
2433.88131	12818.225
2436.6613	12841.625
2439.43954	12843.825
2442.21603	12867.925
2444.99077	12867.225
2447.76377	12868.425
2450.53501	12885.225
2453.30451	12897.425
2456.07226	12912.325
2458.83827	12889.925
2461.60254	12879.825
2464.36507	12898.825
2467.12586	12923.025
2469.88492	12899.725
2472.64224	12906.625
2475.39782	12886.925
2478.15167	12918.525
2480.90379	13008.225
2483.65417	13064.825
2486.40283	13098.025
2489.14976	13128.025
2491.89497	13137.725
2494.63845	13160.825
2497.3802	13127.525
2500.12024	13128.525
2502.85855	13123.825
2505.59514	13078.125
2508.33002	13012.125
2511.06318	12956.125
2513.79462	12920.725
2516.52435	12855.725
2519.25237	12797.325
2521.97867	12786.025
2524.70327	12769.025
2527.42616	12741.725
2530.14734	12771.325
2532.86681	12767.125
2535.58458	12757.825
2538.30065	12765.625
2541.01501	12776.525
2543.72768	12762.425
2546.43864	12757.925
2549.14791	12780.025
2551.85548	12775.825
2554.56136	12797.925
2557.26554	12768.925
2559.96803	12756.625
2562.66883	12761.425
2565.36794	12747.325
2568.06536	12725.725
2570.7611	12720.425
2573.45514	12713.225
2576.14751	12726.225
2578.83819	12704.525
2581.52719	12728.125
2584.21451	12650.225
2586.90015	12689.425
2589.58411	12653.825
2592.2664	12678.525
2594.94701	12679.925
2597.62594	12689.225
2600.30321	12638.325
2602.9788	12645.425
2605.65273	12686.025
2608.32498	12663.125
2610.99557	12687.225
2613.66449	12705.225
2616.33175	12735.525
2618.99734	12735.025
2621.66128	12752.625
2624.32355	12754.225
2626.98416	12743.925
2629.64311	12688.725
2632.30041	12721.825
2634.95605	12668.525
2637.61004	12693.425
2640.26238	12631.725
2642.91306	12634.425
2645.56209	12570.025
2648.20948	12578.925
2650.85521	12566.225
2653.4993	12585.425
2656.14175	12583.725
2658.78255	12621.125
2661.42171	12634.325
2664.05923	12628.825
2666.6951	12676.225
2669.32934	12716.625
2671.96194	12727.825
2674.59291	12715.525
2677.22224	12704.025
2679.84993	12706.725
2682.476	12710.325
2685.10043	12701.825
2687.72324	12697.225
2690.34441	12657.725
2692.96396	12631.925
2695.58188	12630.525
2698.19818	12632.125
2700.81285	12613.325
2703.4259	12603.525
2706.03733	12546.325
2708.64714	12586.225
2711.25533	12625.825
2713.86191	12650.825
2716.46687	12661.625
2719.07021	12675.125
2721.67194	12708.125
2724.27206	12692.125
2726.87057	12706.725
2729.46747	12735.325
2732.06276	12732.825
2734.65644	12694.225
2737.24852	12715.625
2739.83899	12660.825
2742.42786	12676.025
2745.01513	12634.025
2747.60079	12647.825
2750.18486	12620.525
2752.76733	12608.625
2755.3482	12607.725
2757.92747	12588.425
2760.50515	12596.025
2763.08123	12611.425
2765.65573	12587.225
2768.22863	12602.625
2770.79994	12568.225
2773.36967	12570.425
2775.9378	12574.025
2778.50435	12591.925
2781.06932	12556.425
2783.6327	12591.425
2786.1945	12617.825
2788.75471	12598.725
2791.31335	12595.425
2793.87041	12569.025
2796.42589	12547.625
2798.97979	12563.925
2801.53212	12550.025
2804.08288	12522.125
2806.63206	12529.425
2809.17967	12513.425
2811.72571	12517.925
2814.27018	12550.325
2816.81308	12527.525
2819.35442	12557.725
2821.89419	12586.525
2824.43239	12577.625
2826.96904	12591.525
2829.50412	12565.325
2832.03763	12533.125
2834.56959	12547.125
2837.1	12542.925
2839.62884	12557.425
2842.15613	12509.725
2844.68186	12552.525
2847.20604	12575.225
2849.72867	12576.825
2852.24974	12535.725
2854.76927	12561.825
2857.28724	12556.525
2859.80367	12595.325
2862.31855	12611.825
2864.83189	12602.025
2867.34368	12621.125
2869.85393	12650.825
2872.36264	12662.825
2874.8698	12628.825
2877.37543	12624.625
2879.87952	12621.925
2882.38207	12624.025
2884.88308	12585.525
2887.38256	12602.625
2889.88051	12585.125
2892.37692	12592.325
2894.8718	12598.725
2897.36515	12627.025
2899.85698	12607.025
2902.34727	12636.025
2904.83604	12626.125
2907.32328	12651.725
2909.809	12599.725
2912.29319	12644.325
2914.77587	12664.225
2917.25702	12619.825
2919.73665	12567.825
2922.21476	12558.025
2924.69136	12547.825
2927.16644	12511.425
2929.64	12494.625
2932.11205	12440.625
2934.58258	12391.925
2937.05161	12411.925
2939.51912	12393.525
2941.98513	12390.925
2944.44962	12368.425
2946.91261	12322.325
2949.37409	12345.425
2951.83407	12349.625
2954.29254	12357.725
2956.74951	12344.525
2959.20498	12327.025
2961.65895	12275.225
2964.11142	12277.825
2966.56239	12231.025
2969.01186	12212.525
2971.45984	12196.025
2973.90632	12142.925
2976.35131	12121.425
2978.7948	12106.625
2981.23681	12062.225
2983.67732	12096.125
2986.11635	12025.325
2988.55388	11977.225
2990.98993	11992.825
2993.4245	11994.025
2995.85758	11980.025
2998.28917	11916.525
3000.71928	11898.225
3003.14791	11896.725
3005.57506	11897.725
3008.00073	11869.925
3010.42493	11865.425
3012.84764	11836.825
3015.26888	11823.825
3017.68865	11789.625
3020.10694	11775.425
3022.52376	11731.525
3024.9391	11707.825
3027.35298	11674.025
3029.76539	11663.325
3032.17632	11656.725
3034.5858	11628.625
3036.9938	11601.625
3039.40034	11551.025
3041.80542	11548.925
3044.20903	11545.825
3046.61118	11527.825
3049.01187	11489.225
3051.4111	11475.025
3053.80888	11447.925
3056.20519	11431.925
3058.60005	11411.025
3060.99345	11357.425
3063.3854	11330.325
3065.7759	11314.425
3068.16494	11274.225
3070.55254	11210.525
3072.93868	11193.425
3075.32338	11138.125
3077.70662	11084.625
3080.08842	11081.725
3082.46878	11037.325
3084.84769	11032.625
3087.22515	11015.425
3089.60118	11022.425
3091.97576	11010.625
3094.3489	11030.925
3096.72061	11021.525
3099.09087	11001.925
3101.4597	10984.825
3103.82709	10984.125
3106.19305	10985.625
3108.55757	10967.025
3110.92066	10942.125
3113.28232	10935.625
3115.64255	10913.425
3118.00134	10857.725
3120.35871	10868.225
3122.71466	10817.025
3125.06917	10815.925
3127.42226	10812.725
