Data from AgNPs_FTO_APTES_UA_50uM_CRN_1uM_R6G_10uM_NaF_0.1M_Addition_RamanShift__31__11-51-44-750.txt Node

Date: Mon Feb 21 11:51:44 GMT 2022
User: TCL
Spectrometer: QEP01345
Trigger mode: 4
Integration Time (sec): 7.000000E0
Scans to average: 10
Electric dark correction enabled: true
Nonlinearity correction enabled: false
Boxcar width: 0
XAxis mode: Raman Shifts
Number of Pixels in Spectrum: 1044
>>>>>Begin Spectral Data<<<<<
46.04893	0.6125
50.45542	-0.9875
54.85868	-0.1875
59.25871	-1.3875
63.6555	44.7125
68.04907	51.0125
72.43941	50.6125
76.82654	56.3125
81.21044	58.4125
85.59113	62.7125
89.96862	66.3125
94.34289	68.9125
98.71396	64.1125
103.08183	70.4125
107.4465	71.8125
111.80798	73.5125
116.16626	70.0125
120.52136	69.6125
124.87327	77.2125
129.222	74.0125
133.56755	78.2125
137.90993	81.9125
142.24913	86.0125
146.58517	91.4125
150.91804	103.1125
155.24774	116.5125
159.57429	140.7125
163.89768	175.6125
168.21792	237.9125
172.53501	306.1125
176.84895	417.6125
181.15975	581.5125
185.46741	806.2125
189.77193	1102.8125
194.07331	1484.1125
198.37157	1907.4125
202.6667	2361.0125
206.9587	2798.4125
211.24758	3244.8125
215.53334	3712.4125
219.81599	4265.7125
224.09553	4878.4125
228.37195	5569.1125
232.64527	6352.9125
236.91549	7095.4125
241.18261	7782.2125
245.44663	8333.8125
249.70755	8735.6125
253.96539	9087.1125
258.22014	9335.4125
262.4718	9550.1125
266.72039	9707.5125
270.96589	9785.9125
275.20832	9697.4125
279.44768	9560.0125
283.68397	9375.1125
287.91719	9252.8125
292.14735	9293.0125
296.37445	9556.4125
300.59849	10051.7125
304.81948	10627.3125
309.03742	11118.9125
313.25231	11112.8125
317.46415	10537.5125
321.67296	9543.5125
325.87872	8731.6125
330.08145	8324.8125
334.28114	8300.8125
338.47781	8472.4125
342.67145	8761.4125
346.86207	9225.3125
351.04966	9947.7125
355.23424	10751.7125
359.4158	11399.7125
363.59435	11735.1125
367.76989	11797.7125
371.94243	11759.3125
376.11196	11638.9125
380.27849	11508.5125
384.44203	11333.7125
388.60257	11081.1125
392.76012	10934.4125
396.91468	10998.8125
401.06626	11317.9125
405.21485	11539.5125
409.36047	11286.6125
413.50311	10538.3125
417.64277	9781.8125
421.77947	9338.2125
425.9132	9115.1125
430.04396	9053.0125
434.17176	9062.3125
438.2966	9242.4125
442.41849	9514.3125
446.53742	9864.5125
450.6534	10172.2125
454.76644	10390.3125
458.87653	10391.6125
462.98368	10297.1125
467.08789	10048.3125
471.18916	9766.9125
475.2875	9433.4125
479.38291	9161.2125
483.4754	8982.6125
487.56496	8860.2125
491.6516	8768.6125
495.73531	8720.7125
499.81612	8770.7125
503.89401	8925.8125
507.96899	9095.6125
512.04106	9314.7125
516.11023	9543.4125
520.1765	9716.5125
524.23987	9705.5125
528.30034	9475.3125
532.35792	9201.6125
536.41261	8945.6125
540.46441	8640.9125
544.51333	8484.7125
548.55936	8523.5125
552.60252	8746.2125
556.64279	9025.6125
560.6802	9168.9125
564.71473	9366.1125
568.7464	9882.1125
572.7752	10234.7125
576.80114	9889.2125
580.82422	9417.0125
584.84444	9232.2125
588.86181	9163.5125
592.87633	9226.5125
596.888	9362.0125
600.89682	9747.4125
604.9028	11241.8125
608.90594	15315.3125
612.90624	20960.5125
616.90371	20309.2125
620.89834	13367.0125
624.89015	9905.6125
628.87913	9245.3125
632.86528	9344.3125
636.84862	9551.8125
640.82913	9387.8125
644.80683	8832.5125
648.78172	8404.7125
652.75379	8404.3125
656.72306	8906.0125
660.68952	9542.4125
664.65319	9394.5125
668.61405	8747.3125
672.57211	8393.0125
676.52738	8369.7125
680.47986	8352.9125
684.42955	8235.6125
688.37646	8185.1125
692.32058	8250.9125
696.26192	8339.0125
700.20048	8477.8125
704.13626	8570.9125
708.06928	8555.6125
711.99952	8454.1125
715.927	8412.3125
719.85171	8482.7125
723.77365	8509.5125
727.69284	8402.1125
731.60928	8327.5125
735.52295	8306.7125
739.43388	8349.9125
743.34206	8407.5125
747.24749	8475.7125
751.15017	8572.0125
755.05012	8756.0125
758.94733	9332.9125
762.8418	10657.3125
766.73354	12953.5125
770.62254	15382.1125
774.50882	16772.4125
778.39237	16170.4125
782.27321	13631.6125
786.15132	11050.5125
790.02671	9545.3125
793.89938	8858.0125
797.76935	8585.2125
801.6366	8490.3125
805.50115	8436.0125
809.36299	8409.8125
813.22213	8366.6125
817.07857	8321.9125
820.93231	8309.7125
824.78336	8331.5125
828.63172	8377.9125
832.47738	8391.1125
836.32036	8371.5125
840.16066	8315.7125
843.99827	8252.7125
847.8332	8213.2125
851.66546	8194.8125
855.49504	8198.4125
859.32195	8182.1125
863.1462	8137.7125
866.96777	8091.4125
870.78668	8073.0125
874.60293	8116.3125
878.41652	8175.3125
882.22745	8256.9125
886.03573	8311.2125
889.84136	8318.6125
893.64433	8241.5125
897.44466	8215.5125
901.24235	8215.3125
905.0374	8159.2125
908.8298	8090.4125
912.61957	8057.0125
916.40671	8081.2125
920.19121	8162.3125
923.97308	8249.1125
927.75233	8413.4125
931.52895	8526.0125
935.30295	8428.2125
939.07433	8129.5125
942.84309	7854.8125
946.60924	7707.3125
950.37278	7626.5125
954.13371	7568.8125
957.89203	7534.1125
961.64774	7505.0125
965.40086	7498.6125
969.15137	7448.4125
972.89929	7441.9125
976.64461	7441.8125
980.38733	7428.0125
984.12747	7452.6125
987.86502	7507.4125
991.59999	7569.6125
995.33237	7684.8125
999.06217	7923.5125
1002.78939	8196.5125
1006.51404	8443.7125
1010.23611	8689.7125
1013.95561	8861.1125
1017.67255	8823.2125
1021.38692	8664.6125
1025.09872	8506.5125
1028.80796	8432.9125
1032.51465	8526.7125
1036.21877	8678.0125
1039.92035	8788.6125
1043.61937	8795.4125
1047.31584	8718.7125
1051.00976	8597.9125
1054.70114	8506.0125
1058.38998	8451.8125
1062.07627	8493.7125
1065.76003	8521.0125
1069.44126	8578.7125
1073.11995	8716.0125
1076.79611	8884.2125
1080.46974	9096.3125
1084.14085	9429.8125
1087.80943	9758.1125
1091.47549	9900.4125
1095.13903	9679.2125
1098.80005	9225.9125
1102.45857	8859.4125
1106.11456	8763.1125
1109.76805	8872.7125
1113.41903	9140.4125
1117.06751	9601.5125
1120.71348	10181.2125
1124.35696	10846.6125
1127.99793	11327.9125
1131.63641	11179.5125
1135.2724	10493.4125
1138.90589	9824.5125
1142.5369	9390.0125
1146.16542	9147.4125
1149.79145	8969.2125
1153.415	8948.5125
1157.03607	9032.0125
1160.65467	9256.6125
1164.27079	9646.5125
1167.88443	10304.9125
1171.49561	11314.6125
1175.10432	13019.5125
1178.71056	15382.5125
1182.31434	17216.3125
1185.91565	17637.6125
1189.51451	17061.5125
1193.11091	15759.2125
1196.70485	14245.3125
1200.29634	13162.7125
1203.88538	12334.4125
1207.47197	11438.5125
1211.05612	10635.6125
1214.63782	10186.6125
1218.21708	10000.2125
1221.79391	9996.6125
1225.36829	10038.3125
1228.94024	10086.4125
1232.50976	10105.5125
1236.07685	10125.9125
1239.6415	10172.3125
1243.20374	10205.2125
1246.76355	10259.3125
1250.32093	10359.5125
1253.8759	10636.9125
1257.42845	11034.5125
1260.97859	11431.3125
1264.52631	11876.5125
1268.07163	12322.0125
1271.61453	12706.3125
1275.15503	13023.5125
1278.69312	13161.3125
1282.22882	13311.2125
1285.76211	13706.8125
1289.29301	14209.7125
1292.82151	14777.3125
1296.34761	15404.4125
1299.87133	16359.7125
1303.39266	17960.8125
1306.9116	20487.8125
1310.42815	23132.9125
1313.94233	24369.1125
1317.45412	23431.3125
1320.96354	21345.1125
1324.47058	19164.8125
1327.97525	17416.5125
1331.47754	16448.0125
1334.97747	16133.9125
1338.47502	16351.6125
1341.97022	16915.1125
1345.46305	17852.4125
1348.95352	19185.5125
1352.44163	20921.3125
1355.92738	23617.5125
1359.41078	27650.9125
1362.89183	31044.6125
1366.37053	29735.7125
1369.84688	24763.5125
1373.32088	19989.5125
1376.79254	16839.6125
1380.26186	15119.7125
1383.72883	14175.1125
1387.19347	13465.1125
1390.65578	12761.9125
1394.11575	12256.5125
1397.57339	12038.2125
1401.0287	12123.7125
1404.48168	12295.1125
1407.93234	12544.7125
1411.38068	12777.6125
1414.82669	12869.5125
1418.27039	12743.0125
1421.71177	12402.3125
1425.15083	12096.6125
1428.58758	11958.7125
1432.02203	12015.2125
1435.45416	12137.0125
1438.88399	12190.4125
1442.31151	12174.5125
1445.73673	12207.6125
1449.15965	12289.9125
1452.58027	12296.7125
1455.9986	12136.0125
1459.41463	12132.1125
1462.82837	12241.0125
1466.23982	12547.8125
1469.64898	12859.2125
1473.05586	13095.7125
1476.46045	13264.6125
1479.86276	13542.5125
1483.26279	13978.7125
1486.66054	14516.7125
1490.05602	15211.4125
1493.44922	16213.4125
1496.84016	17750.6125
1500.22882	20090.4125
1503.61521	23199.8125
1506.99934	26587.8125
1510.38121	29291.5125
1513.76081	29796.7125
1517.13816	27404.8125
1520.51324	23299.1125
1523.88607	19562.4125
1527.25665	17089.3125
1530.62498	15707.8125
1533.99105	14932.2125
1537.35488	14397.8125
1540.71647	14158.3125
1544.07581	14049.6125
1547.4329	14065.6125
1550.78776	13991.5125
1554.14038	13955.8125
1557.49077	14045.6125
1560.83892	14265.2125
1564.18484	14755.2125
1567.52853	15345.3125
1570.86999	15894.3125
1574.20922	16244.9125
1577.54624	16080.7125
1580.88103	15102.5125
1584.2136	13797.2125
1587.54395	13119.1125
1590.87208	13340.1125
1594.19801	14244.8125
1597.52172	15484.8125
1600.84321	16000.5125
1604.16251	15435.0125
1607.47959	14290.8125
1610.79447	13013.8125
1614.10715	11793.8125
1617.41763	10916.0125
1620.7259	10380.5125
1624.03199	10112.7125
1627.33587	10161.7125
1630.63757	10469.4125
1633.93707	11051.9125
1637.23439	12007.3125
1640.52951	13451.3125
1643.82246	15370.3125
1647.11321	17715.7125
1650.40179	19323.4125
1653.68819	18711.4125
1656.97241	15922.0125
1660.25446	12838.7125
1663.53433	10738.4125
1666.81203	9503.9125
1670.08756	8799.4125
1673.36092	8430.4125
1676.63211	8170.0125
1679.90115	7968.5125
1683.16801	7861.4125
1686.43272	7740.8125
1689.69527	7643.2125
1692.95567	7548.5125
1696.2139	7412.8125
1699.46999	7320.6125
1702.72392	7268.9125
1705.97571	7326.9125
1709.22535	7434.6125
1712.47284	7519.3125
1715.71819	7538.2125
1718.96139	7536.7125
1722.20246	7544.6125
1725.44139	7498.7125
1728.67818	7419.8125
1731.91284	7338.7125
1735.14537	7267.3125
1738.37576	7232.1125
1741.60403	7194.8125
1744.83017	7161.0125
1748.05418	7100.0125
1751.27607	7069.9125
1754.49584	6994.5125
1757.71349	6923.7125
1760.92903	6887.8125
1764.14244	6875.2125
1767.35375	6888.7125
1770.56294	6855.5125
1773.77002	6856.3125
1776.97499	6858.4125
1780.17785	6909.2125
1783.37861	6939.6125
1786.57727	6922.8125
1789.77382	6930.0125
1792.96828	6935.5125
1796.16064	6954.9125
1799.3509	6930.6125
1802.53907	6906.8125
1805.72514	6889.8125
1808.90913	6869.8125
1812.09102	6848.0125
1815.27083	6833.3125
1818.44856	6802.9125
1821.6242	6809.7125
1824.79776	6795.5125
1827.96924	6821.4125
1831.13864	6779.7125
1834.30597	6798.5125
1837.47122	6789.4125
1840.6344	6768.6125
1843.7955	6762.8125
1846.95454	6752.2125
1850.11151	6747.2125
1853.26642	6746.6125
1856.41926	6745.8125
1859.57004	6745.8125
1862.71876	6760.3125
1865.86542	6754.0125
1869.01003	6762.5125
1872.15258	6752.9125
1875.29308	6775.0125
1878.43152	6778.2125
1881.56792	6766.4125
1884.70227	6767.8125
1887.83457	6793.9125
1890.96482	6787.5125
1894.09304	6763.6125
1897.21921	6778.6125
1900.34335	6770.1125
1903.46544	6772.4125
1906.58551	6798.7125
1909.70353	6810.6125
1912.81953	6781.9125
1915.93349	6786.6125
1919.04543	6772.6125
1922.15534	6777.4125
1925.26322	6733.8125
1928.36908	6720.6125
1931.47292	6703.8125
1934.57473	6659.3125
1937.67453	6648.0125
1940.77232	6606.9125
1943.86808	6573.8125
1946.96184	6564.8125
1950.05358	6533.7125
1953.14331	6498.9125
1956.23103	6485.2125
1959.31675	6449.7125
1962.40046	6436.0125
1965.48217	6440.4125
1968.56188	6428.2125
1971.63959	6399.5125
1974.7153	6390.1125
1977.78901	6382.3125
1980.86073	6330.0125
1983.93046	6299.3125
1986.99819	6287.0125
1990.06394	6260.0125
1993.1277	6229.0125
1996.18947	6213.8125
1999.24925	6203.2125
2002.30706	6175.1125
2005.36288	6176.6125
2008.41672	6157.7125
2011.46859	6113.5125
2014.51848	6095.1125
2017.56639	6071.4125
2020.61233	6073.9125
2023.6563	6066.0125
2026.6983	6042.5125
2029.73833	5999.3125
2032.7764	5993.4125
2035.8125	5998.0125
2038.84664	5983.1125
2041.87881	5980.3125
2044.90903	5968.6125
2047.93729	5957.9125
2050.96359	5939.6125
2053.98794	5945.8125
2057.01034	5930.3125
2060.03078	5932.6125
2063.04927	5895.0125
2066.06582	5901.5125
2069.08042	5887.6125
2072.09307	5891.9125
2075.10378	5880.6125
2078.11255	5861.9125
2081.11938	5882.7125
2084.12426	5884.1125
2087.12722	5884.6125
2090.12824	5875.0125
2093.12732	5860.8125
2096.12447	5888.8125
2099.11969	5866.6125
2102.11299	5878.8125
2105.10435	5870.1125
2108.09379	5870.8125
2111.08131	5862.6125
2114.0669	5874.3125
2117.05057	5885.9125
2120.03233	5898.0125
2123.01216	5896.3125
2125.99008	5908.1125
2128.96609	5914.5125
2131.94018	5907.8125
2134.91236	5912.3125
2137.88263	5906.1125
2140.851	5912.4125
2143.81746	5906.7125
2146.78201	5902.9125
2149.74466	5901.4125
2152.7054	5903.3125
2155.66425	5897.8125
2158.6212	5883.3125
2161.57625	5866.0125
2164.52941	5862.2125
2167.48067	5877.4125
2170.43004	5868.8125
2173.37752	5870.1125
2176.32311	5857.4125
2179.26681	5868.4125
2182.20863	5886.1125
2185.14856	5872.5125
2188.08661	5868.2125
2191.02278	5879.9125
2193.95707	5860.2125
2196.88948	5846.4125
2199.82001	5851.2125
2202.74867	5838.1125
2205.67545	5834.2125
2208.60037	5826.2125
2211.52341	5833.6125
2214.44458	5785.9125
2217.36388	5796.5125
2220.28132	5810.4125
2223.1969	5775.1125
2226.11061	5761.6125
2229.02246	5749.0125
2231.93245	5767.3125
2234.84058	5738.4125
2237.74686	5718.4125
2240.65128	5711.7125
2243.55385	5697.4125
2246.45456	5696.4125
2249.35343	5699.9125
2252.25044	5692.8125
2255.14561	5715.3125
2258.03893	5693.4125
2260.93041	5678.9125
2263.82004	5686.6125
2266.70783	5681.9125
2269.59378	5674.8125
2272.4779	5647.2125
2275.36017	5660.5125
2278.24061	5627.8125
2281.11922	5612.5125
2283.996	5599.5125
2286.87094	5589.3125
2289.74405	5579.9125
2292.61534	5560.8125
2295.4848	5564.2125
2298.35243	5554.8125
2301.21824	5526.8125
2304.08223	5552.3125
2306.94439	5545.2125
2309.80474	5522.1125
2312.66327	5545.4125
2315.51999	5545.4125
2318.37489	5540.7125
2321.22797	5543.1125
2324.07925	5521.5125
2326.92871	5518.5125
2329.77637	5523.9125
2332.62222	5507.5125
2335.46626	5499.6125
2338.3085	5492.3125
2341.14893	5501.7125
2343.98756	5503.3125
2346.8244	5517.0125
2349.65943	5527.0125
2352.49267	5534.3125
2355.32411	5545.6125
2358.15376	5536.5125
2360.98161	5555.9125
2363.80768	5559.3125
2366.63195	5551.7125
2369.45444	5573.7125
2372.27514	5572.9125
2375.09405	5559.1125
2377.91118	5554.7125
2380.72652	5507.1125
2383.54009	5489.6125
2386.35187	5459.0125
2389.16188	5458.2125
2391.97011	5445.5125
2394.77657	5414.4125
2397.58125	5404.1125
2400.38416	5384.4125
2403.18529	5366.8125
2405.98466	5350.1125
2408.78226	5325.1125
2411.57809	5314.8125
2414.37216	5316.0125
2417.16446	5314.1125
2419.955	5315.7125
2422.74378	5322.9125
2425.5308	5288.9125
2428.31606	5301.3125
2431.09956	5295.1125
2433.88131	5309.8125
2436.6613	5298.3125
2439.43954	5316.3125
2442.21603	5306.2125
2444.99077	5303.8125
2447.76377	5314.8125
2450.53501	5304.6125
2453.30451	5300.7125
2456.07226	5307.2125
2458.83827	5303.4125
2461.60254	5309.0125
2464.36507	5291.3125
2467.12586	5287.3125
2469.88492	5273.8125
2472.64224	5288.9125
2475.39782	5288.3125
2478.15167	5294.8125
2480.90379	5318.6125
2483.65417	5323.1125
2486.40283	5351.2125
2489.14976	5374.0125
2491.89497	5389.0125
2494.63845	5371.6125
2497.3802	5357.1125
2500.12024	5375.1125
2502.85855	5350.8125
2505.59514	5321.9125
2508.33002	5318.0125
2511.06318	5286.9125
2513.79462	5285.1125
2516.52435	5246.0125
2519.25237	5234.8125
2521.97867	5208.4125
2524.70327	5194.9125
2527.42616	5196.0125
2530.14734	5192.6125
2532.86681	5170.9125
2535.58458	5192.6125
2538.30065	5203.6125
2541.01501	5197.0125
2543.72768	5178.7125
2546.43864	5194.8125
2549.14791	5182.6125
2551.85548	5208.8125
2554.56136	5186.6125
2557.26554	5181.7125
2559.96803	5159.9125
2562.66883	5155.0125
2565.36794	5128.0125
2568.06536	5141.7125
2570.7611	5126.5125
2573.45514	5127.7125
2576.14751	5119.1125
2578.83819	5125.3125
2581.52719	5107.0125
2584.21451	5106.3125
2586.90015	5100.4125
2589.58411	5086.8125
2592.2664	5078.2125
2594.94701	5083.5125
2597.62594	5103.4125
2600.30321	5068.8125
2602.9788	5089.3125
2605.65273	5083.1125
2608.32498	5077.1125
2610.99557	5082.6125
2613.66449	5087.1125
2616.33175	5076.2125
2618.99734	5093.0125
2621.66128	5077.5125
2624.32355	5070.6125
2626.98416	5056.1125
2629.64311	5065.0125
2632.30041	5076.5125
2634.95605	5045.5125
2637.61004	5040.0125
2640.26238	5012.8125
2642.91306	5014.9125
2645.56209	5021.1125
2648.20948	4989.0125
2650.85521	4990.8125
2653.4993	4993.5125
2656.14175	5005.2125
2658.78255	5003.0125
2661.42171	5035.1125
2664.05923	5038.1125
2666.6951	5042.6125
2669.32934	5055.4125
2671.96194	5046.8125
2674.59291	5043.1125
2677.22224	5074.8125
2679.84993	5060.6125
2682.476	5059.3125
2685.10043	5062.1125
2687.72324	5071.3125
2690.34441	5061.1125
2692.96396	5045.4125
2695.58188	5039.2125
2698.19818	5056.4125
2700.81285	5050.7125
2703.4259	5007.1125
2706.03733	4935.8125
2708.64714	4981.7125
2711.25533	5014.3125
2713.86191	5047.3125
2716.46687	5074.5125
2719.07021	5061.5125
2721.67194	5090.1125
2724.27206	5087.0125
2726.87057	5099.7125
2729.46747	5088.9125
2732.06276	5082.2125
2734.65644	5082.4125
2737.24852	5066.3125
2739.83899	5059.3125
2742.42786	5082.0125
2745.01513	5066.7125
2747.60079	5045.3125
2750.18486	5050.5125
2752.76733	5044.9125
2755.3482	5029.3125
2757.92747	5023.3125
2760.50515	5020.6125
2763.08123	5014.4125
2765.65573	4986.9125
2768.22863	4989.7125
2770.79994	4989.1125
2773.36967	4998.9125
2775.9378	4996.0125
2778.50435	4992.3125
2781.06932	4985.0125
2783.6327	5002.9125
2786.1945	4994.5125
2788.75471	5008.2125
2791.31335	4991.2125
2793.87041	4994.8125
2796.42589	4974.0125
2798.97979	4975.9125
2801.53212	4982.9125
2804.08288	4970.8125
2806.63206	4977.1125
2809.17967	4979.9125
2811.72571	4980.7125
2814.27018	4970.9125
2816.81308	4983.5125
2819.35442	5002.0125
2821.89419	4984.9125
2824.43239	5009.0125
2826.96904	4995.0125
2829.50412	5025.9125
2832.03763	4984.3125
2834.56959	5006.9125
2837.1	5008.6125
2839.62884	5023.4125
2842.15613	5008.3125
2844.68186	5038.6125
2847.20604	5035.7125
2849.72867	5055.7125
2852.24974	5068.9125
2854.76927	5054.6125
2857.28724	5014.5125
2859.80367	5031.8125
2862.31855	5037.7125
2864.83189	5041.3125
2867.34368	5038.0125
2869.85393	5057.8125
2872.36264	5065.7125
2874.8698	5046.4125
2877.37543	5032.6125
2879.87952	5039.9125
2882.38207	5036.2125
2884.88308	5028.1125
2887.38256	5032.2125
2889.88051	5012.3125
2892.37692	5016.1125
2894.8718	4999.8125
2897.36515	5021.7125
2899.85698	5008.7125
2902.34727	5010.6125
2904.83604	5017.4125
2907.32328	5031.3125
2909.809	5021.6125
2912.29319	5041.2125
2914.77587	5030.5125
2917.25702	5000.0125
2919.73665	5002.6125
2922.21476	4999.9125
2924.69136	4976.8125
2927.16644	4990.0125
2929.64	4986.1125
2932.11205	4974.9125
2934.58258	4939.7125
2937.05161	4945.2125
2939.51912	4940.7125
2941.98513	4921.3125
2944.44962	4907.5125
2946.91261	4885.4125
2949.37409	4900.4125
2951.83407	4882.5125
2954.29254	4855.8125
2956.74951	4862.7125
2959.20498	4847.5125
2961.65895	4831.5125
2964.11142	4818.9125
2966.56239	4818.0125
2969.01186	4814.7125
2971.45984	4813.6125
2973.90632	4793.0125
2976.35131	4783.6125
2978.7948	4762.6125
2981.23681	4759.6125
2983.67732	4743.7125
2986.11635	4727.4125
2988.55388	4716.2125
2990.98993	4716.2125
2993.4245	4683.4125
2995.85758	4688.0125
2998.28917	4677.8125
3000.71928	4667.8125
3003.14791	4677.8125
3005.57506	4669.3125
3008.00073	4635.5125
3010.42493	4624.6125
3012.84764	4632.2125
3015.26888	4633.4125
3017.68865	4621.2125
3020.10694	4611.6125
3022.52376	4595.3125
3024.9391	4583.9125
3027.35298	4576.6125
3029.76539	4567.9125
3032.17632	4576.0125
3034.5858	4559.2125
3036.9938	4552.9125
3039.40034	4558.5125
3041.80542	4548.3125
3044.20903	4543.0125
3046.61118	4535.1125
3049.01187	4512.5125
3051.4111	4514.0125
3053.80888	4498.5125
3056.20519	4491.2125
3058.60005	4489.5125
3060.99345	4456.5125
3063.3854	4460.3125
3065.7759	4452.9125
3068.16494	4456.9125
3070.55254	4433.2125
3072.93868	4398.8125
3075.32338	4379.7125
3077.70662	4367.7125
3080.08842	4365.6125
3082.46878	4360.0125
3084.84769	4339.3125
3087.22515	4344.5125
3089.60118	4321.0125
3091.97576	4335.2125
3094.3489	4337.0125
3096.72061	4359.8125
3099.09087	4325.8125
3101.4597	4313.1125
3103.82709	4317.4125
