Data from AgNPs_FTO_APTES_UA_50uM_CRN_2uM_R6G_10uM_NaF_0.1M_Addition_RamanShift__16__12-12-44-779.txt Node

Date: Mon Feb 21 12:12:44 GMT 2022
User: TCL
Spectrometer: QEP01345
Trigger mode: 4
Integration Time (sec): 7.000000E0
Scans to average: 10
Electric dark correction enabled: true
Nonlinearity correction enabled: false
Boxcar width: 0
XAxis mode: Raman Shifts
Number of Pixels in Spectrum: 1044
>>>>>Begin Spectral Data<<<<<
46.04893	-1.6875
50.45542	-1.2875
54.85868	-0.3875
59.25871	-1.5875
63.6555	73.8125
68.04907	84.1125
72.43941	85.8125
76.82654	88.8125
81.21044	89.8125
85.59113	99.6125
89.96862	97.7125
94.34289	103.8125
98.71396	102.9125
103.08183	109.1125
107.4465	114.7125
111.80798	114.1125
116.16626	117.0125
120.52136	118.9125
124.87327	127.9125
129.222	128.8125
133.56755	137.0125
137.90993	152.3125
142.24913	160.8125
146.58517	179.9125
150.91804	204.3125
155.24774	246.6125
159.57429	307.6125
163.89768	393.7125
168.21792	534.5125
172.53501	723.4125
176.84895	1019.6125
181.15975	1428.7125
185.46741	2007.1125
189.77193	2779.1125
194.07331	3713.8125
198.37157	4781.2125
202.6667	5939.4125
206.9587	7050.5125
211.24758	8164.6125
215.53334	9284.1125
219.81599	10476.9125
224.09553	11832.3125
228.37195	13337.0125
232.64527	14960.4125
236.91549	16663.5125
241.18261	18320.6125
245.44663	19811.9125
249.70755	21103.6125
253.96539	22213.5125
258.22014	23158.8125
262.4718	23965.4125
266.72039	24531.9125
270.96589	24823.4125
275.20832	24821.6125
279.44768	24652.7125
283.68397	24303.9125
287.91719	24043.4125
292.14735	23930.4125
296.37445	24027.4125
300.59849	24323.7125
304.81948	24635.0125
309.03742	24861.1125
313.25231	24710.7125
317.46415	24088.5125
321.67296	23177.3125
325.87872	22402.3125
330.08145	22048.9125
334.28114	22054.6125
338.47781	22238.6125
342.67145	22554.9125
346.86207	23008.5125
351.04966	23696.9125
355.23424	24488.5125
359.4158	25150.9125
363.59435	25540.1125
367.76989	25725.7125
371.94243	25866.7125
376.11196	25899.3125
380.27849	25919.8125
384.44203	26006.1125
388.60257	26064.4125
392.76012	26126.1125
396.91468	26409.6125
401.06626	26795.4125
405.21485	27132.0125
409.36047	26897.3125
413.50311	26283.2125
417.64277	25696.8125
421.77947	25404.9125
425.9132	25349.4125
430.04396	25375.4125
434.17176	25489.4125
438.2966	25691.4125
442.41849	26105.9125
446.53742	26816.0125
450.6534	27481.4125
454.76644	27992.7125
458.87653	28252.7125
462.98368	28163.5125
467.08789	27844.3125
471.18916	27463.7125
475.2875	27051.0125
479.38291	26779.4125
483.4754	26637.7125
487.56496	26361.9125
491.6516	26018.1125
495.73531	25756.0125
499.81612	25640.9125
503.89401	25815.9125
507.96899	25880.4125
512.04106	25915.5125
516.11023	25917.8125
520.1765	25801.4125
524.23987	25636.0125
528.30034	25461.6125
532.35792	25208.4125
536.41261	24977.4125
540.46441	24680.2125
544.51333	24550.2125
548.55936	24734.3125
552.60252	25241.0125
556.64279	25818.3125
560.6802	26232.1125
564.71473	26616.7125
568.7464	27217.9125
572.7752	27810.0125
576.80114	27995.5125
580.82422	28030.7125
584.84444	28245.5125
588.86181	28541.8125
592.87633	28876.3125
596.888	28923.6125
600.89682	28847.1125
604.9028	30070.3125
608.90594	34020.7125
612.90624	38677.6125
616.90371	36555.5125
620.89834	29363.3125
624.89015	26028.4125
628.87913	25454.2125
632.86528	25619.4125
636.84862	25796.7125
640.82913	25463.5125
644.80683	24711.3125
648.78172	24197.4125
652.75379	24041.3125
656.72306	24531.6125
660.68952	25179.2125
664.65319	25038.6125
668.61405	24488.5125
672.57211	24279.4125
676.52738	24400.5125
680.47986	24392.4125
684.42955	24202.4125
688.37646	24128.7125
692.32058	24235.7125
696.26192	24501.6125
700.20048	24764.1125
704.13626	24914.5125
708.06928	24819.8125
711.99952	24613.8125
715.927	24595.1125
719.85171	24705.0125
723.77365	24686.9125
727.69284	24421.9125
731.60928	24099.4125
735.52295	24057.1125
739.43388	24016.7125
743.34206	24101.9125
747.24749	24176.8125
751.15017	24354.4125
755.05012	24670.5125
758.94733	25396.3125
762.8418	27067.2125
766.73354	29657.6125
770.62254	32300.8125
774.50882	33204.7125
778.39237	31803.9125
782.27321	29114.5125
786.15132	26693.2125
790.02671	25121.2125
793.89938	24426.3125
797.76935	24084.6125
801.6366	23989.3125
805.50115	23905.7125
809.36299	23788.7125
813.22213	23600.2125
817.07857	23541.3125
820.93231	23471.5125
824.78336	23365.0125
828.63172	23291.8125
832.47738	23272.4125
836.32036	23281.6125
840.16066	23260.5125
843.99827	23252.2125
847.8332	23261.3125
851.66546	23247.7125
855.49504	23235.0125
859.32195	23207.8125
863.1462	23208.3125
866.96777	23132.7125
870.78668	23155.1125
874.60293	23167.6125
878.41652	23173.0125
882.22745	23258.5125
886.03573	23378.4125
889.84136	23351.0125
893.64433	23247.4125
897.44466	23156.1125
901.24235	23054.1125
905.0374	22964.4125
908.8298	22875.4125
912.61957	22783.2125
916.40671	22875.6125
920.19121	23062.9125
923.97308	23296.6125
927.75233	23395.3125
931.52895	23410.8125
935.30295	23185.8125
939.07433	22755.6125
942.84309	22385.4125
946.60924	22292.7125
950.37278	22160.3125
954.13371	22167.6125
957.89203	22086.7125
961.64774	22020.4125
965.40086	22059.3125
969.15137	21969.5125
972.89929	21887.8125
976.64461	21836.4125
980.38733	21840.5125
984.12747	21931.0125
987.86502	22087.2125
991.59999	22289.8125
995.33237	22641.1125
999.06217	23103.9125
1002.78939	23644.6125
1006.51404	24169.3125
1010.23611	24544.6125
1013.95561	24778.6125
1017.67255	24765.6125
1021.38692	24507.2125
1025.09872	24143.0125
1028.80796	23956.7125
1032.51465	24099.1125
1036.21877	24376.8125
1039.92035	24502.2125
1043.61937	24444.3125
1047.31584	24234.3125
1051.00976	23925.1125
1054.70114	23839.0125
1058.38998	23819.4125
1062.07627	24000.3125
1065.76003	24189.4125
1069.44126	24408.0125
1073.11995	24760.9125
1076.79611	25196.5125
1080.46974	25500.7125
1084.14085	25809.0125
1087.80943	26271.6125
1091.47549	26512.6125
1095.13903	26456.6125
1098.80005	26023.0125
1102.45857	25516.1125
1106.11456	25170.9125
1109.76805	25041.6125
1113.41903	25172.8125
1117.06751	25452.6125
1120.71348	25912.6125
1124.35696	26368.0125
1127.99793	26836.9125
1131.63641	26913.9125
1135.2724	26545.0125
1138.90589	26116.7125
1142.5369	25827.6125
1146.16542	25671.2125
1149.79145	25651.9125
1153.415	25728.4125
1157.03607	25978.4125
1160.65467	26521.5125
1164.27079	27503.4125
1167.88443	28906.7125
1171.49561	30699.4125
1175.10432	33244.3125
1178.71056	36518.9125
1182.31434	39542.6125
1185.91565	40888.3125
1189.51451	40597.1125
1193.11091	39183.2125
1196.70485	37311.1125
1200.29634	35571.4125
1203.88538	34150.4125
1207.47197	32875.9125
1211.05612	31876.8125
1214.63782	31161.8125
1218.21708	30693.5125
1221.79391	30424.5125
1225.36829	30367.7125
1228.94024	30088.9125
1232.50976	29647.3125
1236.07685	29289.5125
1239.6415	29030.6125
1243.20374	29026.3125
1246.76355	29125.0125
1250.32093	29499.8125
1253.8759	30032.5125
1257.42845	30848.4125
1260.97859	31801.5125
1264.52631	32840.4125
1268.07163	33859.5125
1271.61453	34827.6125
1275.15503	35714.8125
1278.69312	36491.5125
1282.22882	37180.3125
1285.76211	38014.1125
1289.29301	39037.4125
1292.82151	40294.8125
1296.34761	41889.4125
1299.87133	44033.2125
1303.39266	46801.6125
1306.9116	50128.7125
1310.42815	53527.1125
1313.94233	55632.9125
1317.45412	55321.0125
1320.96354	53679.3125
1324.47058	51814.0125
1327.97525	50206.7125
1331.47754	49151.8125
1334.97747	48745.0125
1338.47502	48599.0125
1341.97022	48661.0125
1345.46305	48695.0125
1348.95352	48826.5125
1352.44163	49460.1125
1355.92738	51108.9125
1359.41078	54268.8125
1362.89183	57628.2125
1366.37053	56633.4125
1369.84688	50859.4125
1373.32088	44464.0125
1376.79254	40301.6125
1380.26186	38375.3125
1383.72883	37650.2125
1387.19347	37167.9125
1390.65578	36622.4125
1394.11575	36299.8125
1397.57339	36372.5125
1401.0287	36852.2125
1404.48168	37314.4125
1407.93234	37485.1125
1411.38068	37259.7125
1414.82669	36634.4125
1418.27039	35588.6125
1421.71177	34462.2125
1425.15083	33512.6125
1428.58758	33061.5125
1432.02203	33201.8125
1435.45416	33790.5125
1438.88399	34558.1125
1442.31151	35051.5125
1445.73673	35472.1125
1449.15965	35823.0125
1452.58027	36014.0125
1455.9986	36093.7125
1459.41463	36309.1125
1462.82837	36817.7125
1466.23982	37557.9125
1469.64898	38150.6125
1473.05586	38444.8125
1476.46045	38444.7125
1479.86276	38258.4125
1483.26279	38160.2125
1486.66054	38246.1125
1490.05602	38576.0125
1493.44922	39260.6125
1496.84016	40334.3125
1500.22882	42047.1125
1503.61521	44681.1125
1506.99934	47832.4125
1510.38121	50480.5125
1513.76081	50939.3125
1517.13816	48657.8125
1520.51324	44948.3125
1523.88607	41570.6125
1527.25665	39472.3125
1530.62498	38439.7125
1533.99105	37954.5125
1537.35488	37479.8125
1540.71647	36955.7125
1544.07581	36394.7125
1547.4329	35789.5125
1550.78776	35247.2125
1554.14038	34971.4125
1557.49077	34845.0125
1560.83892	35044.2125
1564.18484	35425.4125
1567.52853	35882.0125
1570.86999	36389.2125
1574.20922	36861.2125
1577.54624	37041.9125
1580.88103	36546.9125
1584.2136	35868.9125
1587.54395	36087.1125
1590.87208	37416.3125
1594.19801	39554.9125
1597.52172	41915.2125
1600.84321	42624.0125
1604.16251	41022.0125
1607.47959	38276.3125
1610.79447	35284.8125
1614.10715	32397.5125
1617.41763	30047.0125
1620.7259	28376.6125
1624.03199	27513.7125
1627.33587	27448.7125
1630.63757	28150.8125
1633.93707	29821.2125
1637.23439	32648.3125
1640.52951	36651.0125
1643.82246	41525.0125
1647.11321	45687.9125
1650.40179	47127.8125
1653.68819	44266.7125
1656.97241	38399.3125
1660.25446	32421.9125
1663.53433	28072.2125
1666.81203	25407.6125
1670.08756	23805.4125
1673.36092	22848.7125
1676.63211	22237.3125
1679.90115	21750.5125
1683.16801	21425.9125
1686.43272	21184.5125
1689.69527	20964.0125
1692.95567	20792.9125
1696.2139	20609.7125
1699.46999	20442.0125
1702.72392	20355.1125
1705.97571	20398.7125
1709.22535	20449.1125
1712.47284	20456.2125
1715.71819	20484.2125
1718.96139	20435.9125
1722.20246	20342.8125
1725.44139	20251.2125
1728.67818	20109.4125
1731.91284	19992.7125
1735.14537	19896.4125
1738.37576	19796.1125
1741.60403	19717.5125
1744.83017	19629.2125
1748.05418	19559.5125
1751.27607	19450.7125
1754.49584	19349.1125
1757.71349	19278.4125
1760.92903	19220.6125
1764.14244	19217.5125
1767.35375	19231.0125
1770.56294	19155.9125
1773.77002	19138.7125
1776.97499	19185.8125
1780.17785	19191.1125
1783.37861	19144.0125
1786.57727	19136.1125
1789.77382	19129.2125
1792.96828	19101.5125
1796.16064	19069.3125
1799.3509	18991.7125
1802.53907	18974.0125
1805.72514	18899.1125
1808.90913	18840.7125
1812.09102	18859.3125
1815.27083	18807.1125
1818.44856	18762.5125
1821.6242	18759.4125
1824.79776	18754.3125
1827.96924	18730.0125
1831.13864	18705.0125
1834.30597	18722.5125
1837.47122	18712.7125
1840.6344	18689.3125
1843.7955	18681.0125
1846.95454	18686.1125
1850.11151	18630.0125
1853.26642	18672.9125
1856.41926	18662.7125
1859.57004	18675.0125
1862.71876	18611.5125
1865.86542	18592.5125
1869.01003	18604.8125
1872.15258	18569.7125
1875.29308	18558.3125
1878.43152	18502.6125
1881.56792	18561.8125
1884.70227	18506.0125
1887.83457	18532.5125
1890.96482	18457.9125
1894.09304	18433.3125
1897.21921	18432.7125
1900.34335	18432.6125
1903.46544	18392.5125
1906.58551	18365.2125
1909.70353	18340.7125
1912.81953	18310.9125
1915.93349	18253.6125
1919.04543	18226.2125
1922.15534	18226.4125
1925.26322	18167.6125
1928.36908	18133.3125
1931.47292	18053.4125
1934.57473	18029.4125
1937.67453	17954.0125
1940.77232	17937.4125
1943.86808	17852.4125
1946.96184	17795.9125
1950.05358	17752.5125
1953.14331	17701.7125
1956.23103	17668.1125
1959.31675	17593.2125
1962.40046	17564.1125
1965.48217	17518.5125
1968.56188	17470.7125
1971.63959	17425.1125
1974.7153	17373.3125
1977.78901	17266.3125
1980.86073	17269.3125
1983.93046	17212.5125
1986.99819	17138.7125
1990.06394	17102.5125
1993.1277	17060.4125
1996.18947	17012.9125
1999.24925	16914.8125
2002.30706	16871.5125
2005.36288	16830.6125
2008.41672	16771.3125
2011.46859	16728.1125
2014.51848	16699.7125
2017.56639	16632.8125
2020.61233	16594.1125
2023.6563	16594.2125
2026.6983	16520.4125
2029.73833	16508.3125
2032.7764	16497.8125
2035.8125	16438.8125
2038.84664	16450.4125
2041.87881	16399.8125
2044.90903	16346.6125
2047.93729	16298.0125
2050.96359	16308.4125
2053.98794	16264.2125
2057.01034	16253.4125
2060.03078	16230.5125
2063.04927	16254.7125
2066.06582	16215.5125
2069.08042	16179.8125
2072.09307	16178.0125
2075.10378	16161.9125
2078.11255	16170.5125
2081.11938	16175.5125
2084.12426	16182.5125
2087.12722	16174.5125
2090.12824	16137.8125
2093.12732	16160.4125
2096.12447	16161.4125
2099.11969	16127.4125
2102.11299	16149.4125
2105.10435	16160.4125
2108.09379	16162.5125
2111.08131	16197.2125
2114.0669	16180.0125
2117.05057	16215.8125
2120.03233	16197.1125
2123.01216	16215.5125
2125.99008	16225.0125
2128.96609	16276.2125
2131.94018	16262.2125
2134.91236	16267.2125
2137.88263	16269.3125
2140.851	16256.3125
2143.81746	16301.0125
2146.78201	16302.4125
2149.74466	16284.6125
2152.7054	16282.5125
2155.66425	16285.3125
2158.6212	16310.4125
2161.57625	16282.3125
2164.52941	16264.5125
2167.48067	16284.7125
2170.43004	16268.6125
2173.37752	16218.2125
2176.32311	16220.8125
2179.26681	16216.9125
2182.20863	16242.3125
2185.14856	16248.6125
2188.08661	16274.3125
2191.02278	16265.2125
2193.95707	16225.6125
2196.88948	16201.3125
2199.82001	16188.2125
2202.74867	16168.9125
2205.67545	16167.5125
2208.60037	16160.9125
2211.52341	16112.6125
2214.44458	16097.9125
2217.36388	16079.5125
2220.28132	16051.7125
2223.1969	16022.4125
2226.11061	15992.5125
2229.02246	15974.1125
2231.93245	15939.6125
2234.84058	15926.8125
2237.74686	15881.6125
2240.65128	15847.4125
2243.55385	15850.4125
2246.45456	15825.9125
2249.35343	15843.0125
2252.25044	15816.4125
2255.14561	15758.8125
2258.03893	15781.0125
2260.93041	15732.2125
2263.82004	15695.9125
2266.70783	15674.9125
2269.59378	15658.8125
2272.4779	15640.4125
2275.36017	15568.8125
2278.24061	15570.1125
2281.11922	15502.7125
2283.996	15486.3125
2286.87094	15452.7125
2289.74405	15440.8125
2292.61534	15443.8125
2295.4848	15388.9125
2298.35243	15398.2125
2301.21824	15384.6125
2304.08223	15403.3125
2306.94439	15375.9125
2309.80474	15372.7125
2312.66327	15361.8125
2315.51999	15370.6125
2318.37489	15383.8125
2321.22797	15332.7125
2324.07925	15318.2125
2326.92871	15328.3125
2329.77637	15284.3125
2332.62222	15270.5125
2335.46626	15299.7125
2338.3085	15252.3125
2341.14893	15275.3125
2343.98756	15239.7125
2346.8244	15265.7125
2349.65943	15278.4125
2352.49267	15270.2125
2355.32411	15268.6125
2358.15376	15248.4125
2360.98161	15249.1125
2363.80768	15259.1125
2366.63195	15244.0125
2369.45444	15223.9125
2372.27514	15209.5125
2375.09405	15154.8125
2377.91118	15156.8125
2380.72652	15123.0125
2383.54009	15081.1125
2386.35187	15052.0125
2389.16188	15029.1125
2391.97011	14978.6125
2394.77657	14959.7125
2397.58125	14943.9125
2400.38416	14898.3125
2403.18529	14871.0125
2405.98466	14855.3125
2408.78226	14867.9125
2411.57809	14816.3125
2414.37216	14774.7125
2417.16446	14803.2125
2419.955	14765.9125
2422.74378	14754.1125
2425.5308	14730.0125
2428.31606	14743.5125
2431.09956	14745.9125
2433.88131	14738.5125
2436.6613	14770.2125
2439.43954	14748.2125
2442.21603	14741.3125
2444.99077	14734.4125
2447.76377	14766.9125
2450.53501	14751.6125
2453.30451	14712.4125
2456.07226	14720.2125
2458.83827	14706.4125
2461.60254	14697.2125
2464.36507	14685.4125
2467.12586	14685.8125
2469.88492	14674.3125
2472.64224	14693.2125
2475.39782	14700.5125
2478.15167	14747.0125
2480.90379	14727.5125
2483.65417	14736.5125
2486.40283	14731.3125
2489.14976	14748.8125
2491.89497	14710.0125
2494.63845	14726.2125
2497.3802	14726.0125
2500.12024	14765.1125
2502.85855	14738.5125
2505.59514	14680.5125
2508.33002	14666.7125
2511.06318	14688.3125
2513.79462	14626.9125
2516.52435	14598.1125
2519.25237	14581.8125
2521.97867	14549.5125
2524.70327	14569.2125
2527.42616	14536.5125
2530.14734	14536.6125
2532.86681	14576.2125
2535.58458	14566.9125
2538.30065	14537.5125
2541.01501	14551.5125
2543.72768	14518.7125
2546.43864	14502.2125
2549.14791	14475.7125
2551.85548	14464.6125
2554.56136	14466.7125
2557.26554	14467.6125
2559.96803	14438.8125
2562.66883	14385.6125
2565.36794	14384.4125
2568.06536	14359.4125
2570.7611	14352.5125
2573.45514	14335.9125
2576.14751	14329.7125
2578.83819	14292.8125
2581.52719	14337.1125
2584.21451	14309.2125
2586.90015	14316.5125
2589.58411	14248.3125
2592.2664	14258.4125
2594.94701	14226.7125
2597.62594	14239.2125
2600.30321	14216.2125
2602.9788	14227.4125
2605.65273	14185.5125
2608.32498	14209.4125
2610.99557	14207.8125
2613.66449	14193.7125
2616.33175	14176.4125
2618.99734	14186.1125
2621.66128	14181.7125
2624.32355	14162.9125
2626.98416	14179.8125
2629.64311	14164.8125
2632.30041	14204.7125
2634.95605	14111.3125
2637.61004	14115.3125
2640.26238	14081.8125
2642.91306	14097.5125
2645.56209	14099.3125
2648.20948	14077.2125
2650.85521	14084.7125
2653.4993	14063.9125
2656.14175	14109.4125
2658.78255	14129.8125
2661.42171	14128.4125
2664.05923	14125.9125
2666.6951	14093.9125
2669.32934	14121.3125
2671.96194	14134.3125
2674.59291	14137.3125
2677.22224	14112.9125
2679.84993	14155.3125
2682.476	14113.3125
2685.10043	14168.7125
2687.72324	14131.8125
2690.34441	14122.6125
2692.96396	14112.7125
2695.58188	14104.5125
2698.19818	14096.0125
2700.81285	14064.6125
2703.4259	14031.0125
2706.03733	13963.1125
2708.64714	14047.9125
2711.25533	14099.7125
2713.86191	14107.1125
2716.46687	14128.8125
2719.07021	14139.9125
2721.67194	14159.2125
2724.27206	14147.5125
2726.87057	14147.2125
2729.46747	14159.4125
2732.06276	14183.2125
2734.65644	14181.5125
2737.24852	14167.4125
2739.83899	14151.8125
2742.42786	14173.8125
2745.01513	14131.2125
2747.60079	14141.6125
2750.18486	14130.7125
2752.76733	14124.5125
2755.3482	14109.2125
2757.92747	14087.0125
2760.50515	14099.1125
2763.08123	14073.9125
2765.65573	14061.0125
2768.22863	14023.4125
2770.79994	14032.1125
2773.36967	14044.5125
2775.9378	14016.9125
2778.50435	13996.7125
2781.06932	13994.1125
2783.6327	13995.5125
2786.1945	13983.2125
2788.75471	14012.6125
2791.31335	13953.3125
2793.87041	13971.5125
2796.42589	13894.2125
2798.97979	13895.4125
2801.53212	13847.7125
2804.08288	13863.5125
2806.63206	13832.1125
2809.17967	13814.2125
2811.72571	13780.2125
2814.27018	13756.8125
2816.81308	13727.3125
2819.35442	13713.3125
2821.89419	13723.6125
2824.43239	13696.8125
2826.96904	13689.6125
2829.50412	13680.3125
2832.03763	13631.5125
2834.56959	13638.0125
2837.1	13630.1125
2839.62884	13615.2125
2842.15613	13564.4125
2844.68186	13573.6125
2847.20604	13533.3125
2849.72867	13558.2125
2852.24974	13552.9125
2854.76927	13541.1125
2857.28724	13524.4125
2859.80367	13500.6125
2862.31855	13486.7125
2864.83189	13520.3125
2867.34368	13504.2125
2869.85393	13531.3125
2872.36264	13536.8125
2874.8698	13540.3125
2877.37543	13534.1125
2879.87952	13520.0125
2882.38207	13499.7125
2884.88308	13470.1125
2887.38256	13503.0125
2889.88051	13486.8125
2892.37692	13482.3125
2894.8718	13492.1125
2897.36515	13541.0125
2899.85698	13541.0125
2902.34727	13569.2125
2904.83604	13547.8125
2907.32328	13585.6125
2909.809	13559.3125
2912.29319	13606.3125
2914.77587	13610.6125
2917.25702	13584.1125
2919.73665	13551.0125
2922.21476	13590.7125
2924.69136	13555.6125
2927.16644	13555.5125
2929.64	13502.4125
2932.11205	13477.7125
2934.58258	13434.2125
2937.05161	13433.2125
2939.51912	13439.0125
2941.98513	13419.3125
2944.44962	13420.4125
2946.91261	13358.8125
2949.37409	13413.9125
2951.83407	13394.3125
2954.29254	13407.4125
2956.74951	13342.7125
2959.20498	13372.1125
2961.65895	13344.3125
2964.11142	13356.2125
2966.56239	13319.5125
2969.01186	13326.4125
2971.45984	13285.7125
2973.90632	13288.4125
2976.35131	13231.6125
2978.7948	13221.4125
2981.23681	13221.5125
2983.67732	13171.2125
2986.11635	13133.5125
2988.55388	13096.2125
2990.98993	13076.3125
2993.4245	13079.9125
2995.85758	13035.9125
2998.28917	12999.8125
3000.71928	13005.1125
3003.14791	12938.6125
3005.57506	12947.7125
3008.00073	12880.2125
3010.42493	12872.6125
3012.84764	12858.8125
3015.26888	12842.6125
3017.68865	12844.9125
3020.10694	12825.4125
3022.52376	12774.8125
