Data from AgNPs_FTO_APTES_UA_50uM_CRN_10uM_R6G_10uM_NaF_0.1M_Addition_RamanShift__7__13-21-34-867.txt Node

Date: Mon Feb 21 13:21:34 GMT 2022
User: TCL
Spectrometer: QEP01345
Trigger mode: 4
Integration Time (sec): 7.000000E0
Scans to average: 10
Electric dark correction enabled: true
Nonlinearity correction enabled: false
Boxcar width: 0
XAxis mode: Raman Shifts
Number of Pixels in Spectrum: 1044
>>>>>Begin Spectral Data<<<<<
46.04893	0.275
50.45542	-1.125
54.85868	-0.225
59.25871	-2.225
63.6555	70.575
68.04907	78.175
72.43941	76.875
76.82654	80.675
81.21044	86.475
85.59113	87.875
89.96862	92.175
94.34289	95.675
98.71396	93.875
103.08183	103.175
107.4465	103.275
111.80798	105.175
116.16626	107.275
120.52136	112.175
124.87327	119.075
129.222	117.675
133.56755	125.475
137.90993	138.875
142.24913	146.475
146.58517	164.675
150.91804	187.775
155.24774	222.975
159.57429	280.675
163.89768	355.175
168.21792	474.475
172.53501	647.775
176.84895	902.975
181.15975	1256.375
185.46741	1767.875
189.77193	2431.875
194.07331	3240.675
198.37157	4183.075
202.6667	5151.875
206.9587	6128.475
211.24758	7070.275
215.53334	8035.275
219.81599	9059.175
224.09553	10193.975
228.37195	11456.675
232.64527	12843.875
236.91549	14337.875
241.18261	15783.475
245.44663	17085.175
249.70755	18263.675
253.96539	19199.475
258.22014	19987.475
262.4718	20650.875
266.72039	21073.075
270.96589	21282.375
275.20832	21213.075
279.44768	21006.075
283.68397	20750.575
287.91719	20524.775
292.14735	20382.175
296.37445	20298.875
300.59849	20303.575
304.81948	20403.975
309.03742	20463.475
313.25231	20432.075
317.46415	20206.275
321.67296	19921.575
325.87872	19680.275
330.08145	19604.475
334.28114	19624.875
338.47781	19758.275
342.67145	20030.675
346.86207	20327.375
351.04966	20736.575
355.23424	21143.175
359.4158	21535.075
363.59435	21762.975
367.76989	21876.875
371.94243	21934.875
376.11196	22014.575
380.27849	22083.075
384.44203	22208.275
388.60257	22389.575
392.76012	22601.575
396.91468	22773.775
401.06626	23094.575
405.21485	23342.675
409.36047	23172.875
413.50311	22840.975
417.64277	22638.975
421.77947	22662.675
425.9132	22797.675
430.04396	22955.475
434.17176	23075.375
438.2966	23334.975
442.41849	23864.275
446.53742	24674.775
450.6534	25468.375
454.76644	25933.575
458.87653	26042.675
462.98368	25825.375
467.08789	25423.975
471.18916	24929.075
475.2875	24348.275
479.38291	23883.175
483.4754	23568.375
487.56496	23279.775
491.6516	23082.675
495.73531	22924.675
499.81612	22890.875
503.89401	23079.175
507.96899	23144.475
512.04106	23126.175
516.11023	23039.075
520.1765	22826.075
524.23987	22728.075
528.30034	22664.675
532.35792	22588.175
536.41261	22309.275
540.46441	22070.675
544.51333	21934.175
548.55936	22082.275
552.60252	22551.175
556.64279	23159.075
560.6802	23628.975
564.71473	23807.975
568.7464	24021.075
572.7752	24646.675
576.80114	25427.775
580.82422	26200.075
584.84444	27307.675
588.86181	29190.175
592.87633	31444.275
596.888	32261.975
600.89682	30751.475
604.9028	29487.075
608.90594	30556.775
612.90624	32159.775
616.90371	29937.475
620.89834	25386.575
624.89015	23335.875
628.87913	23083.075
632.86528	23263.575
636.84862	23266.275
640.82913	22788.675
644.80683	22180.375
648.78172	21789.475
652.75379	21817.575
656.72306	22162.575
660.68952	22553.175
664.65319	22371.975
668.61405	21906.075
672.57211	21919.375
676.52738	22083.175
680.47986	22110.475
684.42955	21921.775
688.37646	21798.775
692.32058	21886.475
696.26192	22255.575
700.20048	22573.375
704.13626	22755.475
708.06928	22711.375
711.99952	22563.175
715.927	22562.275
719.85171	22673.275
723.77365	22606.875
727.69284	22290.975
731.60928	21998.875
735.52295	21940.875
739.43388	22064.175
743.34206	22139.775
747.24749	22324.975
751.15017	22510.775
755.05012	22858.775
758.94733	23485.875
762.8418	24634.975
766.73354	26481.275
770.62254	28212.275
774.50882	28533.675
778.39237	27274.375
782.27321	25476.675
786.15132	23957.575
790.02671	22953.075
793.89938	22394.875
797.76935	22093.875
801.6366	21962.175
805.50115	21847.075
809.36299	21743.375
813.22213	21526.775
817.07857	21468.175
820.93231	21375.275
824.78336	21264.575
828.63172	21228.875
832.47738	21187.875
836.32036	21194.575
840.16066	21222.075
843.99827	21247.575
847.8332	21242.075
851.66546	21242.375
855.49504	21275.175
859.32195	21321.575
863.1462	21250.775
866.96777	21196.875
870.78668	21221.475
874.60293	21207.575
878.41652	21274.875
882.22745	21354.975
886.03573	21501.775
889.84136	21499.875
893.64433	21414.475
897.44466	21351.175
901.24235	21267.875
905.0374	21230.775
908.8298	21108.675
912.61957	21105.275
916.40671	21250.075
920.19121	21522.975
923.97308	21844.375
927.75233	21966.375
931.52895	21794.975
935.30295	21429.675
939.07433	21008.475
942.84309	20705.975
946.60924	20599.175
950.37278	20519.075
954.13371	20532.775
957.89203	20544.475
961.64774	20524.675
965.40086	20538.175
969.15137	20514.475
972.89929	20499.675
976.64461	20491.075
980.38733	20456.375
984.12747	20534.075
987.86502	20619.775
991.59999	20780.675
995.33237	21031.675
999.06217	21476.375
1002.78939	22104.275
1006.51404	22746.475
1010.23611	23306.875
1013.95561	23595.875
1017.67255	23661.375
1021.38692	23317.475
1025.09872	22799.675
1028.80796	22475.375
1032.51465	22401.775
1036.21877	22513.375
1039.92035	22582.575
1043.61937	22606.675
1047.31584	22482.475
1051.00976	22323.575
1054.70114	22336.475
1058.38998	22351.275
1062.07627	22539.975
1065.76003	22767.975
1069.44126	23101.175
1073.11995	23516.075
1076.79611	23929.975
1080.46974	24183.975
1084.14085	24489.375
1087.80943	24818.075
1091.47549	25071.975
1095.13903	25050.275
1098.80005	24619.175
1102.45857	24091.575
1106.11456	23700.675
1109.76805	23552.575
1113.41903	23654.575
1117.06751	23819.375
1120.71348	24122.575
1124.35696	24388.575
1127.99793	24661.575
1131.63641	24853.075
1135.2724	24772.075
1138.90589	24690.475
1142.5369	24772.675
1146.16542	24924.875
1149.79145	25202.075
1153.415	25434.575
1157.03607	25779.875
1160.65467	26363.675
1164.27079	27491.175
1167.88443	28874.875
1171.49561	30669.675
1175.10432	32957.675
1178.71056	35873.675
1182.31434	38449.975
1185.91565	39516.875
1189.51451	39054.775
1193.11091	37905.075
1196.70485	36409.175
1200.29634	34869.175
1203.88538	33536.275
1207.47197	32610.475
1211.05612	31998.575
1214.63782	31406.775
1218.21708	30906.175
1221.79391	30606.575
1225.36829	30558.775
1228.94024	30422.175
1232.50976	29855.175
1236.07685	29144.375
1239.6415	28600.675
1243.20374	28447.975
1246.76355	28533.475
1250.32093	28845.875
1253.8759	29447.575
1257.42845	30320.475
1260.97859	31319.475
1264.52631	32477.875
1268.07163	33629.475
1271.61453	34682.375
1275.15503	35664.375
1278.69312	36701.175
1282.22882	37909.875
1285.76211	39354.775
1289.29301	41003.975
1292.82151	42934.575
1296.34761	45189.775
1299.87133	47779.375
1303.39266	50564.175
1306.9116	53222.375
1310.42815	55404.275
1313.94233	56466.475
1317.45412	55875.675
1320.96354	54309.575
1324.47058	52620.675
1327.97525	51137.075
1331.47754	50097.775
1334.97747	49432.875
1338.47502	48998.875
1341.97022	48616.275
1345.46305	48101.675
1348.95352	47927.775
1352.44163	48531.875
1355.92738	50282.675
1359.41078	53057.175
1362.89183	55453.675
1366.37053	55083.575
1369.84688	50964.575
1373.32088	45015.075
1376.79254	40829.775
1380.26186	39237.875
1383.72883	39004.575
1387.19347	38840.775
1390.65578	38214.675
1394.11575	37922.375
1397.57339	38109.075
1401.0287	38563.375
1404.48168	38974.275
1407.93234	38943.575
1411.38068	38440.375
1414.82669	37580.775
1418.27039	36490.075
1421.71177	35320.075
1425.15083	34233.575
1428.58758	33755.875
1432.02203	34116.775
1435.45416	34923.175
1438.88399	35754.875
1442.31151	36309.375
1445.73673	36538.075
1449.15965	36665.775
1452.58027	36636.075
1455.9986	36412.575
1459.41463	36528.575
1462.82837	37096.275
1466.23982	38030.975
1469.64898	38971.175
1473.05586	39647.175
1476.46045	40098.875
1479.86276	40195.875
1483.26279	40153.175
1486.66054	40189.075
1490.05602	40605.375
1493.44922	41202.375
1496.84016	41674.675
1500.22882	42088.875
1503.61521	42694.175
1506.99934	43434.475
1510.38121	43960.975
1513.76081	43783.175
1517.13816	42799.675
1520.51324	41544.075
1523.88607	40601.275
1527.25665	40233.275
1530.62498	40157.175
1533.99105	39881.975
1537.35488	39091.575
1540.71647	38020.475
1544.07581	36878.875
1547.4329	35839.675
1550.78776	35062.175
1554.14038	34563.975
1557.49077	34287.475
1560.83892	34253.375
1564.18484	34357.375
1567.52853	34502.275
1570.86999	34825.775
1574.20922	35486.975
1577.54624	35948.175
1580.88103	35953.675
1584.2136	36064.075
1587.54395	37161.875
1590.87208	39236.475
1594.19801	42110.475
1597.52172	44775.275
1600.84321	45510.575
1604.16251	43487.075
1607.47959	39780.075
1610.79447	35880.175
1614.10715	32475.975
1617.41763	29892.475
1620.7259	28242.875
1624.03199	27511.675
1627.33587	27645.275
1630.63757	28641.175
1633.93707	30772.275
1637.23439	34487.675
1640.52951	39913.775
1643.82246	46343.475
1647.11321	51280.475
1650.40179	51557.675
1653.68819	46785.475
1656.97241	39579.175
1660.25446	33110.175
1663.53433	28592.575
1666.81203	25796.275
1670.08756	24086.175
1673.36092	23143.275
1676.63211	22462.875
1679.90115	22015.675
1683.16801	21652.675
1686.43272	21350.275
1689.69527	21131.175
1692.95567	20918.375
1696.2139	20729.275
1699.46999	20514.475
1702.72392	20438.175
1705.97571	20503.075
1709.22535	20516.575
1712.47284	20524.775
1715.71819	20495.975
1718.96139	20448.775
1722.20246	20380.875
1725.44139	20288.575
1728.67818	20157.675
1731.91284	20049.575
1735.14537	19939.175
1738.37576	19856.575
1741.60403	19773.275
1744.83017	19710.375
1748.05418	19627.975
1751.27607	19562.175
1754.49584	19482.375
1757.71349	19406.575
1760.92903	19382.175
1764.14244	19338.875
1767.35375	19350.075
1770.56294	19299.175
1773.77002	19263.975
1776.97499	19252.775
1780.17785	19259.475
1783.37861	19281.975
1786.57727	19258.675
1789.77382	19244.475
1792.96828	19213.875
1796.16064	19164.075
1799.3509	19139.775
1802.53907	19088.475
1805.72514	19058.275
1808.90913	19045.475
1812.09102	18991.475
1815.27083	18978.375
1818.44856	18922.775
1821.6242	18913.375
1824.79776	18943.875
1827.96924	18942.675
1831.13864	18925.975
1834.30597	18998.375
1837.47122	19015.575
1840.6344	18996.675
1843.7955	18986.375
1846.95454	18952.575
1850.11151	18956.575
1853.26642	18958.775
1856.41926	18936.475
1859.57004	18909.075
1862.71876	18851.775
1865.86542	18880.575
1869.01003	18858.375
1872.15258	18830.475
1875.29308	18815.275
1878.43152	18794.775
1881.56792	18787.075
1884.70227	18759.375
1887.83457	18762.875
1890.96482	18744.575
1894.09304	18704.975
1897.21921	18677.975
1900.34335	18664.075
1903.46544	18677.475
1906.58551	18615.175
1909.70353	18583.475
1912.81953	18566.575
1915.93349	18525.075
1919.04543	18474.275
1922.15534	18446.775
1925.26322	18383.475
1928.36908	18360.475
1931.47292	18295.075
1934.57473	18254.775
1937.67453	18181.275
1940.77232	18109.175
1943.86808	18105.375
1946.96184	18062.975
1950.05358	18046.375
1953.14331	17970.775
1956.23103	17935.175
1959.31675	17871.175
1962.40046	17822.875
1965.48217	17820.075
1968.56188	17756.975
1971.63959	17696.375
1974.7153	17622.775
1977.78901	17579.375
1980.86073	17551.075
1983.93046	17479.275
1986.99819	17423.775
1990.06394	17383.275
1993.1277	17357.675
1996.18947	17287.375
1999.24925	17194.175
2002.30706	17146.375
2005.36288	17126.375
2008.41672	17107.275
2011.46859	17051.575
2014.51848	17024.675
2017.56639	16951.575
2020.61233	16932.375
2023.6563	16907.975
2026.6983	16848.775
2029.73833	16826.275
2032.7764	16814.475
2035.8125	16820.875
2038.84664	16749.975
2041.87881	16726.575
2044.90903	16672.775
2047.93729	16667.175
2050.96359	16671.175
2053.98794	16660.575
2057.01034	16632.575
2060.03078	16618.575
2063.04927	16610.475
2066.06582	16629.575
2069.08042	16602.475
2072.09307	16617.175
2075.10378	16569.075
2078.11255	16571.675
2081.11938	16581.175
2084.12426	16593.375
2087.12722	16576.375
2090.12824	16567.275
2093.12732	16565.975
2096.12447	16643.875
2099.11969	16597.375
2102.11299	16595.775
2105.10435	16579.675
2108.09379	16566.075
2111.08131	16591.075
2114.0669	16604.675
2117.05057	16664.675
2120.03233	16630.375
2123.01216	16654.275
2125.99008	16668.775
2128.96609	16661.875
2131.94018	16716.875
2134.91236	16745.075
2137.88263	16741.575
2140.851	16747.275
2143.81746	16730.275
2146.78201	16704.375
2149.74466	16731.475
2152.7054	16771.675
2155.66425	16710.175
2158.6212	16715.975
2161.57625	16685.975
2164.52941	16712.175
2167.48067	16679.775
2170.43004	16669.375
2173.37752	16659.275
2176.32311	16687.575
2179.26681	16709.575
2182.20863	16713.275
2185.14856	16702.875
2188.08661	16722.475
2191.02278	16727.375
2193.95707	16722.975
2196.88948	16696.775
2199.82001	16701.575
2202.74867	16635.775
2205.67545	16654.075
2208.60037	16646.075
2211.52341	16572.975
2214.44458	16559.275
2217.36388	16530.175
2220.28132	16525.675
2223.1969	16475.675
2226.11061	16441.875
2229.02246	16432.475
2231.93245	16419.975
2234.84058	16395.475
2237.74686	16379.275
2240.65128	16436.575
2243.55385	16404.475
2246.45456	16409.175
2249.35343	16352.575
2252.25044	16316.875
2255.14561	16287.875
2258.03893	16261.575
2260.93041	16206.075
2263.82004	16194.075
2266.70783	16164.075
2269.59378	16111.975
2272.4779	16070.175
2275.36017	16052.675
2278.24061	16026.975
2281.11922	15991.875
2283.996	15972.175
2286.87094	15942.475
2289.74405	15936.875
2292.61534	15934.475
2295.4848	15895.875
2298.35243	15899.775
2301.21824	15915.475
2304.08223	15888.375
2306.94439	15928.575
2309.80474	15942.075
2312.66327	15922.475
2315.51999	15876.475
2318.37489	15823.375
2321.22797	15824.675
2324.07925	15840.475
2326.92871	15797.375
2329.77637	15791.875
2332.62222	15744.175
2335.46626	15738.175
2338.3085	15712.575
2341.14893	15730.175
2343.98756	15739.775
2346.8244	15744.575
2349.65943	15744.575
2352.49267	15758.075
2355.32411	15757.075
2358.15376	15724.875
2360.98161	15747.175
2363.80768	15693.075
2366.63195	15694.275
2369.45444	15654.575
2372.27514	15666.775
2375.09405	15692.875
2377.91118	15674.275
2380.72652	15651.375
2383.54009	15586.375
2386.35187	15634.575
2389.16188	15588.275
2391.97011	15546.475
2394.77657	15541.675
2397.58125	15529.375
2400.38416	15479.975
2403.18529	15460.175
2405.98466	15426.175
2408.78226	15400.575
2411.57809	15419.675
2414.37216	15394.575
2417.16446	15378.675
2419.955	15347.575
2422.74378	15361.275
2425.5308	15340.775
2428.31606	15324.775
2431.09956	15300.875
2433.88131	15304.475
2436.6613	15319.175
2439.43954	15321.075
2442.21603	15314.575
2444.99077	15299.175
2447.76377	15328.775
2450.53501	15307.875
2453.30451	15333.275
2456.07226	15329.875
2458.83827	15312.875
2461.60254	15309.975
2464.36507	15313.075
2467.12586	15293.475
2469.88492	15301.975
2472.64224	15293.475
2475.39782	15313.375
2478.15167	15293.575
2480.90379	15302.675
2483.65417	15317.875
2486.40283	15313.375
2489.14976	15328.175
2491.89497	15339.975
2494.63845	15329.175
2497.3802	15321.475
2500.12024	15329.275
2502.85855	15311.075
2505.59514	15312.375
2508.33002	15271.475
2511.06318	15273.975
2513.79462	15252.275
2516.52435	15244.275
2519.25237	15253.375
2521.97867	15233.575
2524.70327	15265.375
2527.42616	15220.075
2530.14734	15223.975
2532.86681	15210.775
2535.58458	15222.475
2538.30065	15221.775
2541.01501	15202.075
2543.72768	15175.575
2546.43864	15154.475
2549.14791	15156.375
2551.85548	15139.875
2554.56136	15092.375
2557.26554	15098.275
2559.96803	15106.675
2562.66883	15122.875
2565.36794	15121.575
2568.06536	15115.875
2570.7611	15114.075
2573.45514	15086.075
2576.14751	15071.875
2578.83819	15057.975
2581.52719	15037.775
2584.21451	15013.075
2586.90015	15008.475
2589.58411	14996.975
2592.2664	15011.075
2594.94701	14985.075
2597.62594	15034.375
2600.30321	14982.975
2602.9788	14977.975
2605.65273	14937.575
2608.32498	14958.675
2610.99557	14917.575
2613.66449	14966.775
2616.33175	14957.575
2618.99734	14993.175
2621.66128	14923.575
2624.32355	14924.275
2626.98416	14905.475
2629.64311	14893.875
2632.30041	14911.575
2634.95605	14867.275
2637.61004	14875.275
2640.26238	14852.075
2642.91306	14862.075
2645.56209	14833.375
2648.20948	14841.275
2650.85521	14879.375
2653.4993	14896.575
2656.14175	14910.075
2658.78255	14922.675
2661.42171	14927.175
2664.05923	14943.775
2666.6951	14950.775
2669.32934	14962.275
2671.96194	14956.775
2674.59291	14981.475
2677.22224	14983.475
2679.84993	14983.875
2682.476	14948.075
2685.10043	14941.175
2687.72324	14924.375
2690.34441	14919.775
2692.96396	14955.575
2695.58188	14984.575
2698.19818	14965.975
2700.81285	14927.275
2703.4259	14927.075
2706.03733	14881.675
2708.64714	14895.275
2711.25533	14930.275
2713.86191	14951.175
2716.46687	14990.975
2719.07021	14992.475
2721.67194	15023.875
2724.27206	15001.575
2726.87057	15037.375
2729.46747	15028.775
2732.06276	15073.275
2734.65644	15052.475
2737.24852	15051.775
2739.83899	15055.575
2742.42786	15043.275
2745.01513	15038.375
2747.60079	15033.275
2750.18486	15009.075
2752.76733	15004.875
2755.3482	14991.175
2757.92747	14961.675
2760.50515	14946.275
2763.08123	14991.275
2765.65573	14983.475
2768.22863	14930.375
2770.79994	14942.975
2773.36967	14937.075
2775.9378	14961.175
2778.50435	14955.875
2781.06932	14942.675
2783.6327	14949.475
2786.1945	14995.675
2788.75471	14966.975
2791.31335	14933.175
2793.87041	14924.475
2796.42589	14868.475
2798.97979	14878.875
2801.53212	14815.075
2804.08288	14811.275
2806.63206	14817.775
2809.17967	14773.275
2811.72571	14730.575
2814.27018	14697.075
2816.81308	14661.375
2819.35442	14628.775
2821.89419	14613.875
2824.43239	14654.275
2826.96904	14634.675
2829.50412	14626.375
2832.03763	14615.075
2834.56959	14621.075
2837.1	14595.275
2839.62884	14545.975
2842.15613	14504.175
2844.68186	14517.175
2847.20604	14518.875
2849.72867	14531.075
2852.24974	14529.275
2854.76927	14493.575
2857.28724	14454.675
2859.80367	14495.175
2862.31855	14470.275
2864.83189	14453.775
2867.34368	14432.675
2869.85393	14461.875
2872.36264	14451.075
2874.8698	14437.175
2877.37543	14446.575
2879.87952	14413.875
2882.38207	14429.875
2884.88308	14446.175
2887.38256	14431.375
2889.88051	14416.275
2892.37692	14447.475
2894.8718	14463.575
2897.36515	14472.075
2899.85698	14476.175
2902.34727	14488.675
2904.83604	14517.575
2907.32328	14543.575
2909.809	14540.775
2912.29319	14554.875
2914.77587	14548.275
2917.25702	14539.675
2919.73665	14519.775
2922.21476	14549.175
2924.69136	14546.875
2927.16644	14535.075
2929.64	14525.375
2932.11205	14492.375
2934.58258	14459.475
2937.05161	14481.475
2939.51912	14480.575
2941.98513	14476.275
2944.44962	14452.475
2946.91261	14392.975
2949.37409	14444.875
2951.83407	14427.775
2954.29254	14419.675
2956.74951	14384.475
2959.20498	14390.375
2961.65895	14371.275
2964.11142	14383.075
2966.56239	14344.275
2969.01186	14325.575
2971.45984	14299.375
2973.90632	14275.975
2976.35131	14256.175
2978.7948	14211.675
2981.23681	14210.775
2983.67732	14176.675
2986.11635	14143.375
2988.55388	14109.675
2990.98993	14097.275
2993.4245	14077.675
2995.85758	14038.075
2998.28917	14014.375
3000.71928	13967.175
3003.14791	13923.475
3005.57506	13908.675
3008.00073	13880.375
3010.42493	13909.375
3012.84764	13832.475
3015.26888	13841.075
3017.68865	13782.275
3020.10694	13749.375
3022.52376	13724.175
3024.9391	13736.475
3027.35298	13718.175
3029.76539	13718.975
3032.17632	13689.375
3034.5858	13698.075
3036.9938	13647.075
3039.40034	13644.775
3041.80542	13645.175
3044.20903	13621.075
3046.61118	13659.675
3049.01187	13588.575
3051.4111	13600.475
3053.80888	13574.975
3056.20519	13573.375
3058.60005	13534.075
3060.99345	13523.775
3063.3854	13479.875
3065.7759	13443.375
3068.16494	13401.375
3070.55254	13346.675
3072.93868	13327.675
3075.32338	13297.675
3077.70662	13253.375
3080.08842	13240.275
3082.46878	13241.575
3084.84769	13178.275
3087.22515	13205.475
3089.60118	13206.675
3091.97576	13201.775
3094.3489	13171.175
3096.72061	13171.075
3099.09087	13169.375
3101.4597	13168.475
3103.82709	13160.075
3106.19305	13161.975
3108.55757	13134.975
3110.92066	13095.875
3113.28232	13091.875
3115.64255	13022.675
3118.00134	13017.575
3120.35871	12987.875
3122.71466	12953.675
3125.06917	12952.175
3127.42226	12935.775
