Data from AgNPs_FTO_APTES_UA_50uM_CRN_1000uM_R6G_10uM_NaF_0.1M_Addition_RamanShift__3__17-29-43-575.txt Node

Date: Mon Feb 21 17:29:43 GMT 2022
User: TCL
Spectrometer: QEP01345
Trigger mode: 4
Integration Time (sec): 7.000000E0
Scans to average: 10
Electric dark correction enabled: true
Nonlinearity correction enabled: false
Boxcar width: 0
XAxis mode: Raman Shifts
Number of Pixels in Spectrum: 1044
>>>>>Begin Spectral Data<<<<<
46.04893	-1.875
50.45542	-0.975
54.85868	-0.075
59.25871	-2.675
63.6555	51.525
68.04907	55.125
72.43941	58.625
76.82654	59.225
81.21044	65.725
85.59113	66.225
89.96862	68.425
94.34289	71.925
98.71396	73.025
103.08183	78.825
107.4465	79.925
111.80798	81.425
116.16626	82.825
120.52136	83.725
124.87327	85.725
129.222	88.125
133.56755	90.825
137.90993	99.525
142.24913	101.425
146.58517	112.325
150.91804	123.125
155.24774	144.325
159.57429	174.125
163.89768	219.825
168.21792	283.425
172.53501	385.225
176.84895	538.725
181.15975	755.925
185.46741	1065.825
189.77193	1464.525
194.07331	1960.925
198.37157	2530.025
202.6667	3113.325
206.9587	3722.825
211.24758	4317.725
215.53334	4911.325
219.81599	5535.825
224.09553	6227.725
228.37195	7007.225
232.64527	7841.625
236.91549	8728.225
241.18261	9587.925
245.44663	10345.625
249.70755	11016.425
253.96539	11603.325
258.22014	12092.625
262.4718	12486.625
266.72039	12697.225
270.96589	12813.825
275.20832	12804.525
279.44768	12690.725
283.68397	12471.625
287.91719	12298.725
292.14735	12211.825
296.37445	12213.625
300.59849	12250.125
304.81948	12396.425
309.03742	12459.125
313.25231	12430.525
317.46415	12311.725
321.67296	12028.025
325.87872	11754.025
330.08145	11670.525
334.28114	11653.825
338.47781	11723.425
342.67145	11849.625
346.86207	12094.925
351.04966	12320.625
355.23424	12601.825
359.4158	12856.525
363.59435	13015.525
367.76989	13092.625
371.94243	13189.225
376.11196	13190.625
380.27849	13260.125
384.44203	13315.225
388.60257	13380.425
392.76012	13460.525
396.91468	13562.725
401.06626	13703.125
405.21485	13805.825
409.36047	13704.725
413.50311	13443.025
417.64277	13244.725
421.77947	13174.325
425.9132	13154.025
430.04396	13220.225
434.17176	13313.625
438.2966	13429.325
442.41849	13656.625
446.53742	14026.125
450.6534	14361.625
454.76644	14576.325
458.87653	14596.825
462.98368	14489.525
467.08789	14328.325
471.18916	14177.925
475.2875	13976.425
479.38291	13755.125
483.4754	13614.125
487.56496	13511.825
491.6516	13379.825
495.73531	13319.025
499.81612	13308.825
503.89401	13374.525
507.96899	13428.125
512.04106	13471.825
516.11023	13498.125
520.1765	13460.425
524.23987	13501.625
528.30034	13448.425
532.35792	13403.025
536.41261	13308.125
540.46441	13147.025
544.51333	13089.325
548.55936	13129.125
552.60252	13337.225
556.64279	13609.325
560.6802	13753.125
564.71473	13781.925
568.7464	13910.925
572.7752	14078.125
576.80114	14159.525
580.82422	14203.125
584.84444	14437.925
588.86181	14868.525
592.87633	15441.125
596.888	15683.125
600.89682	15411.225
604.9028	15526.125
608.90594	16774.925
612.90624	18518.325
616.90371	17779.925
620.89834	15016.125
624.89015	13678.325
628.87913	13489.725
632.86528	13600.025
636.84862	13704.825
640.82913	13636.525
644.80683	13341.725
648.78172	13144.325
652.75379	13106.325
656.72306	13231.725
660.68952	13461.425
664.65319	13349.125
668.61405	13075.525
672.57211	13042.325
676.52738	13124.625
680.47986	13181.125
684.42955	13131.125
688.37646	13033.225
692.32058	13028.925
696.26192	13052.725
700.20048	13171.125
704.13626	13222.525
708.06928	13161.525
711.99952	13135.425
715.927	13115.325
719.85171	13153.425
723.77365	13189.425
727.69284	13081.825
731.60928	13001.925
735.52295	12973.625
739.43388	12990.925
743.34206	13009.425
747.24749	13043.625
751.15017	13086.525
755.05012	13182.625
758.94733	13468.625
762.8418	14076.025
766.73354	15084.225
770.62254	16159.925
774.50882	16583.925
778.39237	16078.525
782.27321	14962.825
786.15132	13957.925
790.02671	13315.225
793.89938	13032.625
797.76935	12883.925
801.6366	12824.625
805.50115	12775.025
809.36299	12722.525
813.22213	12692.525
817.07857	12657.625
820.93231	12633.925
824.78336	12575.125
828.63172	12554.825
832.47738	12520.725
836.32036	12520.525
840.16066	12500.625
843.99827	12506.225
847.8332	12504.525
851.66546	12477.325
855.49504	12518.125
859.32195	12516.225
863.1462	12506.125
866.96777	12520.025
870.78668	12505.825
874.60293	12501.425
878.41652	12532.825
882.22745	12615.425
886.03573	12611.525
889.84136	12642.625
893.64433	12616.525
897.44466	12513.725
901.24235	12464.525
905.0374	12410.025
908.8298	12349.525
912.61957	12309.225
916.40671	12351.325
920.19121	12438.025
923.97308	12541.825
927.75233	12536.025
931.52895	12539.525
935.30295	12414.425
939.07433	12250.125
942.84309	12091.725
946.60924	11987.825
950.37278	11961.825
954.13371	11898.725
957.89203	11876.125
961.64774	11891.225
965.40086	11858.025
969.15137	11836.325
972.89929	11795.425
976.64461	11770.325
980.38733	11760.025
984.12747	11769.525
987.86502	11801.425
991.59999	11873.625
995.33237	11919.325
999.06217	12068.725
1002.78939	12215.725
1006.51404	12404.725
1010.23611	12590.325
1013.95561	12681.825
1017.67255	12712.025
1021.38692	12678.925
1025.09872	12497.725
1028.80796	12361.125
1032.51465	12300.725
1036.21877	12333.625
1039.92035	12343.225
1043.61937	12357.625
1047.31584	12396.025
1051.00976	12352.625
1054.70114	12355.025
1058.38998	12375.125
1062.07627	12411.225
1065.76003	12461.125
1069.44126	12551.425
1073.11995	12654.225
1076.79611	12762.325
1080.46974	12829.525
1084.14085	12935.125
1087.80943	13025.125
1091.47549	13116.325
1095.13903	13061.225
1098.80005	12956.025
1102.45857	12743.125
1106.11456	12637.325
1109.76805	12625.825
1113.41903	12711.125
1117.06751	12883.125
1120.71348	13091.525
1124.35696	13338.425
1127.99793	13566.325
1131.63641	13696.425
1135.2724	13530.425
1138.90589	13304.725
1142.5369	13182.425
1146.16542	13111.225
1149.79145	13063.125
1153.415	13072.625
1157.03607	13095.525
1160.65467	13292.625
1164.27079	13658.825
1167.88443	14146.925
1171.49561	14780.025
1175.10432	15713.725
1178.71056	16915.425
1182.31434	18030.225
1185.91565	18494.825
1189.51451	18320.625
1193.11091	17819.325
1196.70485	17129.625
1200.29634	16518.825
1203.88538	15977.425
1207.47197	15382.125
1211.05612	14945.725
1214.63782	14650.625
1218.21708	14475.125
1221.79391	14404.825
1225.36829	14378.625
1228.94024	14370.125
1232.50976	14232.725
1236.07685	14076.025
1239.6415	13996.525
1243.20374	13947.925
1246.76355	13994.025
1250.32093	14096.725
1253.8759	14240.525
1257.42845	14496.325
1260.97859	14744.625
1264.52631	15048.825
1268.07163	15368.025
1271.61453	15607.625
1275.15503	15857.825
1278.69312	16124.425
1282.22882	16333.925
1285.76211	16673.025
1289.29301	17173.125
1292.82151	17760.625
1296.34761	18442.225
1299.87133	19272.325
1303.39266	20237.825
1306.9116	21409.725
1310.42815	22606.625
1313.94233	23399.325
1317.45412	23220.825
1320.96354	22429.525
1324.47058	21404.325
1327.97525	20484.125
1331.47754	19868.425
1334.97747	19500.625
1338.47502	19362.225
1341.97022	19482.725
1345.46305	19752.225
1348.95352	20243.025
1352.44163	20958.025
1355.92738	22094.625
1359.41078	23573.225
1362.89183	24942.625
1366.37053	24604.525
1369.84688	22311.225
1373.32088	19558.825
1376.79254	17726.225
1380.26186	16981.425
1383.72883	16658.125
1387.19347	16426.825
1390.65578	16140.525
1394.11575	15921.125
1397.57339	15900.525
1401.0287	15970.125
1404.48168	16014.125
1407.93234	15976.225
1411.38068	15801.225
1414.82669	15593.725
1418.27039	15316.725
1421.71177	15066.825
1425.15083	14740.625
1428.58758	14545.125
1432.02203	14592.925
1435.45416	14729.625
1438.88399	14972.625
1442.31151	15084.325
1445.73673	15157.325
1449.15965	15208.325
1452.58027	15242.425
1455.9986	15159.025
1459.41463	15163.525
1462.82837	15305.125
1466.23982	15523.525
1469.64898	15765.025
1473.05586	15948.525
1476.46045	16093.025
1479.86276	16132.725
1483.26279	16159.525
1486.66054	16250.625
1490.05602	16455.325
1493.44922	16753.825
1496.84016	17247.125
1500.22882	18013.425
1503.61521	19081.625
1506.99934	20270.625
1510.38121	21216.625
1513.76081	21377.625
1517.13816	20549.425
1520.51324	19158.525
1523.88607	17872.125
1527.25665	17196.925
1530.62498	16861.425
1533.99105	16676.025
1537.35488	16440.725
1540.71647	16169.225
1544.07581	15914.925
1547.4329	15623.425
1550.78776	15411.525
1554.14038	15271.325
1557.49077	15200.425
1560.83892	15201.725
1564.18484	15304.325
1567.52853	15503.925
1570.86999	15798.625
1574.20922	16018.425
1577.54624	16139.225
1580.88103	15867.225
1584.2136	15531.325
1587.54395	15415.225
1590.87208	15699.025
1594.19801	16325.925
1597.52172	17125.225
1600.84321	17600.625
1604.16251	17281.525
1607.47959	16428.125
1610.79447	15446.125
1614.10715	14428.025
1617.41763	13629.325
1620.7259	13078.125
1624.03199	12762.225
1627.33587	12730.425
1630.63757	12938.825
1633.93707	13432.325
1637.23439	14319.925
1640.52951	15708.125
1643.82246	17510.425
1647.11321	19194.925
1650.40179	19837.025
1653.68819	18838.125
1656.97241	16760.825
1660.25446	14640.825
1663.53433	13165.225
1666.81203	12263.525
1670.08756	11726.825
1673.36092	11386.625
1676.63211	11149.125
1679.90115	10977.625
1683.16801	10866.425
1686.43272	10749.725
1689.69527	10644.825
1692.95567	10531.925
1696.2139	10455.325
1699.46999	10386.525
1702.72392	10344.925
1705.97571	10321.325
1709.22535	10289.825
1712.47284	10275.725
1715.71819	10255.125
1718.96139	10228.525
1722.20246	10209.825
1725.44139	10196.925
1728.67818	10107.125
1731.91284	10053.325
1735.14537	10017.325
1738.37576	9975.625
1741.60403	9936.225
1744.83017	9898.825
1748.05418	9909.325
1751.27607	9868.825
1754.49584	9878.225
1757.71349	9867.125
1760.92903	9842.925
1764.14244	9809.825
1767.35375	9803.825
1770.56294	9757.525
1773.77002	9738.225
1776.97499	9691.925
1780.17785	9672.225
1783.37861	9656.125
1786.57727	9649.625
1789.77382	9620.125
1792.96828	9603.125
1796.16064	9585.125
1799.3509	9563.925
1802.53907	9534.325
1805.72514	9503.425
1808.90913	9459.425
1812.09102	9461.125
1815.27083	9454.425
1818.44856	9425.025
1821.6242	9396.425
1824.79776	9401.425
1827.96924	9361.625
1831.13864	9373.925
1834.30597	9347.425
1837.47122	9364.125
1840.6344	9292.425
1843.7955	9293.925
1846.95454	9291.725
1850.11151	9286.525
1853.26642	9282.025
1856.41926	9266.625
1859.57004	9267.325
1862.71876	9232.625
1865.86542	9227.625
1869.01003	9247.525
1872.15258	9223.225
1875.29308	9230.925
1878.43152	9214.125
1881.56792	9194.825
1884.70227	9192.725
1887.83457	9201.925
1890.96482	9194.225
1894.09304	9155.625
1897.21921	9143.425
1900.34335	9154.325
1903.46544	9142.125
1906.58551	9132.425
1909.70353	9103.925
1912.81953	9098.225
1915.93349	9066.325
1919.04543	9056.625
1922.15534	9011.225
1925.26322	8995.225
1928.36908	8958.925
1931.47292	8946.025
1934.57473	8927.425
1937.67453	8918.825
1940.77232	8913.925
1943.86808	8884.725
1946.96184	8845.025
1950.05358	8815.125
1953.14331	8815.125
1956.23103	8780.825
1959.31675	8754.325
1962.40046	8721.625
1965.48217	8684.025
1968.56188	8670.125
1971.63959	8630.525
1974.7153	8617.425
1977.78901	8601.425
1980.86073	8569.325
1983.93046	8543.325
1986.99819	8504.025
1990.06394	8501.225
1993.1277	8478.125
1996.18947	8464.025
1999.24925	8420.025
2002.30706	8382.225
2005.36288	8346.425
2008.41672	8337.625
2011.46859	8291.225
2014.51848	8304.525
2017.56639	8248.525
2020.61233	8249.925
2023.6563	8219.625
2026.6983	8201.125
2029.73833	8158.825
2032.7764	8150.925
2035.8125	8156.425
2038.84664	8109.625
2041.87881	8102.225
2044.90903	8080.325
2047.93729	8069.025
2050.96359	8064.725
2053.98794	8056.425
2057.01034	8053.625
2060.03078	8031.625
2063.04927	8005.725
2066.06582	8015.825
2069.08042	8013.625
2072.09307	7987.225
2075.10378	7978.025
2078.11255	7974.925
2081.11938	7984.725
2084.12426	7972.425
2087.12722	7963.925
2090.12824	7974.225
2093.12732	7969.025
2096.12447	7973.625
2099.11969	7958.125
2102.11299	7953.925
2105.10435	7974.125
2108.09379	7969.725
2111.08131	7974.925
2114.0669	7959.525
2117.05057	7979.325
2120.03233	7976.725
2123.01216	7969.025
2125.99008	8005.125
2128.96609	7993.925
2131.94018	8023.825
2134.91236	8002.725
2137.88263	7997.025
2140.851	8008.725
2143.81746	8009.525
2146.78201	8005.725
2149.74466	7988.025
2152.7054	8007.225
2155.66425	8007.425
2158.6212	7984.425
2161.57625	7963.825
2164.52941	7981.125
2167.48067	7971.725
2170.43004	7955.125
2173.37752	7980.525
2176.32311	7958.525
2179.26681	7947.025
2182.20863	7970.625
2185.14856	7936.725
2188.08661	7958.725
2191.02278	7957.425
2193.95707	7961.025
2196.88948	7959.525
2199.82001	7961.125
2202.74867	7933.025
2205.67545	7921.725
2208.60037	7914.625
2211.52341	7878.825
2214.44458	7868.425
2217.36388	7834.625
2220.28132	7835.825
2223.1969	7809.225
2226.11061	7793.825
2229.02246	7780.725
2231.93245	7788.925
2234.84058	7768.425
2237.74686	7753.325
2240.65128	7750.025
2243.55385	7720.525
2246.45456	7696.725
2249.35343	7703.225
2252.25044	7701.925
2255.14561	7693.625
2258.03893	7669.725
2260.93041	7659.425
2263.82004	7636.125
2266.70783	7644.725
2269.59378	7630.625
2272.4779	7608.725
2275.36017	7591.725
2278.24061	7553.925
2281.11922	7539.925
2283.996	7524.025
2286.87094	7505.125
2289.74405	7471.725
2292.61534	7490.325
2295.4848	7467.725
2298.35243	7473.925
2301.21824	7467.925
2304.08223	7463.625
2306.94439	7467.025
2309.80474	7433.925
2312.66327	7457.025
2315.51999	7419.125
2318.37489	7422.025
2321.22797	7421.225
2324.07925	7387.525
2326.92871	7361.025
2329.77637	7355.625
2332.62222	7364.925
2335.46626	7362.425
2338.3085	7334.925
2341.14893	7322.825
2343.98756	7335.425
2346.8244	7309.325
2349.65943	7312.825
2352.49267	7289.725
2355.32411	7311.225
2358.15376	7292.625
2360.98161	7289.325
2363.80768	7301.025
2366.63195	7294.525
2369.45444	7292.925
2372.27514	7270.525
2375.09405	7297.325
2377.91118	7244.725
2380.72652	7243.725
2383.54009	7215.225
2386.35187	7198.825
2389.16188	7164.925
2391.97011	7175.225
2394.77657	7172.325
2397.58125	7140.025
2400.38416	7108.725
2403.18529	7095.525
2405.98466	7095.425
2408.78226	7084.725
2411.57809	7082.825
2414.37216	7055.625
2417.16446	7067.425
2419.955	7049.625
2422.74378	7066.625
2425.5308	7052.525
2428.31606	7038.725
2431.09956	7022.725
2433.88131	7034.825
2436.6613	7035.825
2439.43954	7018.725
2442.21603	7012.225
2444.99077	7002.125
2447.76377	6998.825
2450.53501	6989.025
2453.30451	7005.825
2456.07226	6991.325
2458.83827	6974.525
2461.60254	6964.125
2464.36507	6959.525
2467.12586	6968.125
2469.88492	6952.925
2472.64224	6937.425
2475.39782	6942.225
2478.15167	6937.425
2480.90379	6953.725
2483.65417	6939.925
2486.40283	6945.625
2489.14976	6951.825
2491.89497	6933.125
2494.63845	6938.825
2497.3802	6932.225
2500.12024	6943.925
2502.85855	6920.625
2505.59514	6912.925
2508.33002	6892.025
2511.06318	6875.825
2513.79462	6860.025
2516.52435	6851.225
2519.25237	6846.525
2521.97867	6835.425
2524.70327	6824.625
2527.42616	6814.325
2530.14734	6809.725
2532.86681	6796.725
2535.58458	6796.425
2538.30065	6795.925
2541.01501	6789.225
2543.72768	6776.825
2546.43864	6757.725
2549.14791	6759.125
2551.85548	6735.625
2554.56136	6722.625
2557.26554	6711.425
2559.96803	6713.625
2562.66883	6713.625
2565.36794	6678.225
2568.06536	6682.425
2570.7611	6670.325
2573.45514	6661.925
2576.14751	6652.325
2578.83819	6636.125
2581.52719	6636.925
2584.21451	6639.225
2586.90015	6599.825
2589.58411	6615.625
2592.2664	6588.225
2594.94701	6562.625
2597.62594	6557.925
2600.30321	6557.525
2602.9788	6548.925
2605.65273	6535.225
2608.32498	6533.025
2610.99557	6536.625
2613.66449	6540.125
2616.33175	6507.725
2618.99734	6519.325
2621.66128	6496.625
2624.32355	6489.525
2626.98416	6480.525
2629.64311	6470.825
2632.30041	6465.825
2634.95605	6447.425
2637.61004	6441.725
2640.26238	6437.025
2642.91306	6443.925
2645.56209	6443.125
2648.20948	6445.025
2650.85521	6426.625
2653.4993	6414.625
2656.14175	6425.225
2658.78255	6408.925
2661.42171	6417.125
2664.05923	6430.025
2666.6951	6435.225
2669.32934	6428.925
2671.96194	6417.725
2674.59291	6427.525
2677.22224	6408.025
2679.84993	6403.525
2682.476	6436.025
2685.10043	6421.325
2687.72324	6403.525
2690.34441	6401.825
2692.96396	6408.625
2695.58188	6402.325
2698.19818	6387.625
2700.81285	6404.325
2703.4259	6391.925
2706.03733	6383.925
2708.64714	6377.325
2711.25533	6406.425
2713.86191	6389.925
2716.46687	6419.325
2719.07021	6416.725
2721.67194	6409.725
2724.27206	6406.525
2726.87057	6411.725
2729.46747	6397.525
2732.06276	6399.525
2734.65644	6407.525
2737.24852	6395.825
2739.83899	6395.025
2742.42786	6394.525
2745.01513	6375.625
2747.60079	6387.125
2750.18486	6384.225
2752.76733	6352.625
2755.3482	6353.125
2757.92747	6317.925
2760.50515	6304.925
2763.08123	6311.225
2765.65573	6300.125
2768.22863	6300.925
2770.79994	6290.225
2773.36967	6286.725
2775.9378	6295.125
2778.50435	6266.025
2781.06932	6257.025
2783.6327	6254.625
2786.1945	6253.525
2788.75471	6263.025
2791.31335	6252.825
2793.87041	6239.025
2796.42589	6226.825
2798.97979	6199.825
2801.53212	6199.125
2804.08288	6207.125
2806.63206	6168.925
2809.17967	6174.325
2811.72571	6140.225
2814.27018	6120.725
2816.81308	6135.625
2819.35442	6125.225
2821.89419	6128.725
2824.43239	6121.725
2826.96904	6110.825
2829.50412	6126.525
2832.03763	6119.725
2834.56959	6115.925
2837.1	6100.925
2839.62884	6111.525
2842.15613	6118.125
2844.68186	6139.325
2847.20604	6153.125
2849.72867	6155.225
2852.24974	6165.325
2854.76927	6139.325
2857.28724	6142.225
2859.80367	6131.425
2862.31855	6159.625
2864.83189	6127.525
2867.34368	6116.325
2869.85393	6115.825
2872.36264	6102.425
2874.8698	6108.025
2877.37543	6094.225
2879.87952	6082.625
2882.38207	6095.825
2884.88308	6092.925
2887.38256	6093.225
2889.88051	6095.625
2892.37692	6105.125
2894.8718	6109.025
2897.36515	6111.025
2899.85698	6092.125
2902.34727	6111.725
2904.83604	6126.525
2907.32328	6144.725
2909.809	6142.725
2912.29319	6147.425
2914.77587	6149.825
2917.25702	6144.325
2919.73665	6139.025
2922.21476	6156.125
2924.69136	6158.825
2927.16644	6153.225
2929.64	6151.125
2932.11205	6126.025
2934.58258	6120.625
2937.05161	6125.525
2939.51912	6135.025
2941.98513	6107.125
2944.44962	6090.325
2946.91261	6063.825
2949.37409	6075.925
2951.83407	6040.225
2954.29254	6059.725
2956.74951	6048.425
2959.20498	6049.225
2961.65895	6014.125
2964.11142	6019.725
2966.56239	6009.225
2969.01186	5995.925
2971.45984	5962.625
2973.90632	5967.025
2976.35131	5939.625
2978.7948	5923.125
2981.23681	5898.925
2983.67732	5896.225
2986.11635	5874.225
2988.55388	5847.925
2990.98993	5849.225
2993.4245	5825.625
2995.85758	5825.125
2998.28917	5820.125
3000.71928	5795.425
3003.14791	5809.025
3005.57506	5795.925
3008.00073	5770.925
3010.42493	5759.225
3012.84764	5756.525
3015.26888	5759.625
3017.68865	5734.025
3020.10694	5735.725
3022.52376	5723.825
3024.9391	5723.625
3027.35298	5707.025
3029.76539	5700.325
3032.17632	5671.625
3034.5858	5668.125
3036.9938	5675.925
3039.40034	5660.325
3041.80542	5655.625
3044.20903	5639.825
3046.61118	5659.125
3049.01187	5626.225
3051.4111	5641.325
3053.80888	5631.725
3056.20519	5626.525
3058.60005	5613.525
3060.99345	5602.225
3063.3854	5582.325
3065.7759	5572.725
3068.16494	5573.225
3070.55254	5542.525
3072.93868	5527.825
3075.32338	5522.225
3077.70662	5504.825
3080.08842	5495.625
3082.46878	5495.425
3084.84769	5503.125
3087.22515	5485.625
3089.60118	5482.125
3091.97576	5501.225
3094.3489	5479.225
3096.72061	5490.925
3099.09087	5476.625
3101.4597	5481.825
3103.82709	5489.325
3106.19305	5487.225
3108.55757	5499.025
3110.92066	5469.425
3113.28232	5466.425
3115.64255	5451.725
3118.00134	5451.925
3120.35871	5436.025
3122.71466	5418.925
3125.06917	5427.925
3127.42226	5409.225
3129.77393	5407.725
3132.12417	5429.525
3134.47299	5439.125
3136.82039	5428.925
3139.16636	5422.525
3141.51092	5432.325
3143.85406	5423.725
3146.19579	5424.425
3148.53609	5425.025
3150.87499	5450.825
3153.21246	5431.725
3155.54853	5447.325
3157.88318	5453.125
3160.21642	5468.825
3162.54826	5456.625
3164.87868	5452.825
3167.2077	5470.925
3169.5353	5456.525
3171.86151	5457.925
3174.18631	5454.025
3176.5097	5445.925
3178.83169	5447.425
3181.15228	5436.025
3183.47147	5431.925
3185.78926	5434.125
3188.10565	5420.025
