Data from AgNPs_FTO_APTES_UA_50uM_CRN_1uM_R6G_10uM_NaF_0.1M_Addition_RamanShift__26__11-45-54-743.txt Node

Date: Mon Feb 21 11:45:54 GMT 2022
User: TCL
Spectrometer: QEP01345
Trigger mode: 4
Integration Time (sec): 7.000000E0
Scans to average: 10
Electric dark correction enabled: true
Nonlinearity correction enabled: false
Boxcar width: 0
XAxis mode: Raman Shifts
Number of Pixels in Spectrum: 1044
>>>>>Begin Spectral Data<<<<<
46.04893	1.2625
50.45542	-0.8375
54.85868	-0.9375
59.25871	-1.9375
63.6555	66.3625
68.04907	73.8625
72.43941	72.5625
76.82654	79.2625
81.21044	81.9625
85.59113	81.3625
89.96862	83.0625
94.34289	89.5625
98.71396	90.3625
103.08183	97.7625
107.4465	99.9625
111.80798	99.8625
116.16626	98.8625
120.52136	99.9625
124.87327	112.0625
129.222	112.3625
133.56755	110.0625
137.90993	123.8625
142.24913	132.4625
146.58517	149.1625
150.91804	167.5625
155.24774	200.4625
159.57429	240.9625
163.89768	308.3625
168.21792	409.8625
172.53501	554.0625
176.84895	772.9625
181.15975	1081.9625
185.46741	1511.4625
189.77193	2097.0625
194.07331	2821.0625
198.37157	3628.5625
202.6667	4473.9625
206.9587	5338.5625
211.24758	6200.6625
215.53334	7057.0625
219.81599	8013.6625
224.09553	9065.1625
228.37195	10236.3625
232.64527	11569.2625
236.91549	12845.6625
241.18261	14124.1625
245.44663	15249.7625
249.70755	16258.7625
253.96539	17076.5625
258.22014	17876.7625
262.4718	18447.8625
266.72039	18841.7625
270.96589	19051.7625
275.20832	19011.6625
279.44768	18835.8625
283.68397	18591.1625
287.91719	18420.0625
292.14735	18383.1625
296.37445	18514.7625
300.59849	18868.1625
304.81948	19312.8625
309.03742	19616.9625
313.25231	19548.4625
317.46415	18933.6625
321.67296	18005.0625
325.87872	17213.9625
330.08145	16814.3625
334.28114	16809.9625
338.47781	17056.6625
342.67145	17443.1625
346.86207	17958.3625
351.04966	18728.2625
355.23424	19553.6625
359.4158	20259.1625
363.59435	20640.4625
367.76989	20826.8625
371.94243	20829.1625
376.11196	20800.5625
380.27849	20760.3625
384.44203	20728.7625
388.60257	20681.7625
392.76012	20671.2625
396.91468	20863.6625
401.06626	21309.4625
405.21485	21646.9625
409.36047	21524.4625
413.50311	20857.3625
417.64277	20294.6625
421.77947	19988.3625
425.9132	19873.1625
430.04396	19907.0625
434.17176	20017.0625
438.2966	20283.2625
442.41849	20697.1625
446.53742	21316.7625
450.6534	21952.9625
454.76644	22489.7625
458.87653	22667.0625
462.98368	22518.0625
467.08789	22184.6625
471.18916	21731.7625
475.2875	21265.5625
479.38291	20898.3625
483.4754	20652.3625
487.56496	20416.6625
491.6516	20186.8625
495.73531	19959.0625
499.81612	19895.1625
503.89401	20004.8625
507.96899	20116.2625
512.04106	20206.5625
516.11023	20312.4625
520.1765	20375.1625
524.23987	20360.8625
528.30034	20162.7625
532.35792	19951.6625
536.41261	19632.3625
540.46441	19296.1625
544.51333	19245.3625
548.55936	19396.2625
552.60252	19787.4625
556.64279	20195.6625
560.6802	20497.7625
564.71473	20767.6625
568.7464	21321.6625
572.7752	21849.8625
576.80114	21684.1625
580.82422	21460.7625
584.84444	21459.2625
588.86181	21569.7625
592.87633	21876.0625
596.888	22191.7625
600.89682	22558.2625
604.9028	24068.0625
608.90594	28345.6625
612.90624	33686.3625
616.90371	32366.0625
620.89834	25038.5625
624.89015	21579.4625
628.87913	21027.3625
632.86528	20995.0625
636.84862	20982.7625
640.82913	20559.3625
644.80683	19786.1625
648.78172	19205.7625
652.75379	19167.4625
656.72306	19669.1625
660.68952	20367.9625
664.65319	20298.0625
668.61405	19706.9625
672.57211	19400.4625
676.52738	19387.7625
680.47986	19366.5625
684.42955	19236.5625
688.37646	19221.5625
692.32058	19335.3625
696.26192	19525.7625
700.20048	19708.4625
704.13626	19862.1625
708.06928	19777.6625
711.99952	19588.7625
715.927	19567.6625
719.85171	19610.3625
723.77365	19608.7625
727.69284	19420.2625
731.60928	19227.9625
735.52295	19190.1625
739.43388	19237.8625
743.34206	19336.0625
747.24749	19472.7625
751.15017	19653.5625
755.05012	20042.9625
758.94733	20753.3625
762.8418	22323.0625
766.73354	24908.6625
770.62254	27434.1625
774.50882	28484.6625
778.39237	27368.3625
782.27321	24644.3625
786.15132	22002.2625
790.02671	20460.5625
793.89938	19725.8625
797.76935	19464.2625
801.6366	19396.9625
805.50115	19320.4625
809.36299	19241.7625
813.22213	19192.7625
817.07857	19151.0625
820.93231	19145.9625
824.78336	19125.4625
828.63172	19132.0625
832.47738	19183.4625
836.32036	19220.4625
840.16066	19275.3625
843.99827	19317.0625
847.8332	19301.8625
851.66546	19190.3625
855.49504	19090.8625
859.32195	19086.6625
863.1462	18987.9625
866.96777	18884.7625
870.78668	18858.4625
874.60293	18869.0625
878.41652	18920.5625
882.22745	19003.6625
886.03573	19126.2625
889.84136	19066.4625
893.64433	18944.2625
897.44466	18914.1625
901.24235	18849.5625
905.0374	18776.2625
908.8298	18680.9625
912.61957	18680.4625
916.40671	18778.7625
920.19121	18978.5625
923.97308	19241.7625
927.75233	19452.3625
931.52895	19575.9625
935.30295	19411.1625
939.07433	18938.4625
942.84309	18579.5625
946.60924	18433.7625
950.37278	18349.4625
954.13371	18210.9625
957.89203	18058.8625
961.64774	17992.6625
965.40086	17932.1625
969.15137	17895.0625
972.89929	17815.0625
976.64461	17811.7625
980.38733	17821.0625
984.12747	17905.1625
987.86502	18074.1625
991.59999	18326.7625
995.33237	18771.0625
999.06217	19487.6625
1002.78939	20282.5625
1006.51404	20883.0625
1010.23611	21220.4625
1013.95561	21450.1625
1017.67255	21494.1625
1021.38692	21288.5625
1025.09872	21132.7625
1028.80796	21353.9625
1032.51465	22046.1625
1036.21877	22602.3625
1039.92035	22700.7625
1043.61937	22332.6625
1047.31584	21635.6625
1051.00976	20859.8625
1054.70114	20408.3625
1058.38998	20267.7625
1062.07627	20275.5625
1065.76003	20317.1625
1069.44126	20421.6625
1073.11995	20569.5625
1076.79611	20828.0625
1080.46974	21058.1625
1084.14085	21391.3625
1087.80943	21724.8625
1091.47549	21886.3625
1095.13903	21639.8625
1098.80005	21166.6625
1102.45857	20656.8625
1106.11456	20418.3625
1109.76805	20467.6625
1113.41903	20775.4625
1117.06751	21195.9625
1120.71348	21818.1625
1124.35696	22427.6625
1127.99793	22966.8625
1131.63641	22907.8625
1135.2724	22270.7625
1138.90589	21742.9625
1142.5369	21280.8625
1146.16542	21031.1625
1149.79145	20909.2625
1153.415	21014.5625
1157.03607	21167.0625
1160.65467	21599.6625
1164.27079	22314.5625
1167.88443	23369.3625
1171.49561	24986.9625
1175.10432	27354.7625
1178.71056	30506.4625
1182.31434	33322.8625
1185.91565	34637.2625
1189.51451	34370.1625
1193.11091	32791.6625
1196.70485	30846.8625
1200.29634	29181.3625
1203.88538	27785.9625
1207.47197	26511.5625
1211.05612	25459.2625
1214.63782	24919.2625
1218.21708	24832.2625
1221.79391	24980.5625
1225.36829	25110.8625
1228.94024	25005.0625
1232.50976	24737.7625
1236.07685	24480.8625
1239.6415	24324.2625
1243.20374	24297.3625
1246.76355	24428.3625
1250.32093	24743.3625
1253.8759	25379.3625
1257.42845	26183.9625
1260.97859	26975.5625
1264.52631	27656.5625
1268.07163	28383.9625
1271.61453	29143.2625
1275.15503	29947.4625
1278.69312	30793.3625
1282.22882	31580.7625
1285.76211	32315.6625
1289.29301	33115.6625
1292.82151	33913.7625
1296.34761	35062.8625
1299.87133	36849.8625
1303.39266	39478.7625
1306.9116	43179.6625
1310.42815	47063.1625
1313.94233	49276.1625
1317.45412	48582.2625
1320.96354	46192.5625
1324.47058	43543.5625
1327.97525	41213.0625
1331.47754	39971.2625
1334.97747	39664.3625
1338.47502	40109.4625
1341.97022	40778.7625
1345.46305	41386.2625
1348.95352	41816.2625
1352.44163	42615.8625
1355.92738	44786.4625
1359.41078	48785.3625
1362.89183	52678.8625
1366.37053	51189.1625
1369.84688	44892.7625
1373.32088	38723.9625
1376.79254	34727.1625
1380.26186	32726.7625
1383.72883	31778.6625
1387.19347	31071.6625
1390.65578	30371.7625
1394.11575	30117.7625
1397.57339	30306.0625
1401.0287	30932.2625
1404.48168	31619.4625
1407.93234	32282.1625
1411.38068	32707.8625
1414.82669	32618.4625
1418.27039	31837.1625
1421.71177	30722.0625
1425.15083	29757.7625
1428.58758	29228.5625
1432.02203	29248.9625
1435.45416	29502.7625
1438.88399	29722.3625
1442.31151	29891.6625
1445.73673	30135.6625
1449.15965	30390.0625
1452.58027	30542.2625
1455.9986	30502.7625
1459.41463	30522.3625
1462.82837	30786.9625
1466.23982	31393.6625
1469.64898	32006.2625
1473.05586	32475.2625
1476.46045	32655.9625
1479.86276	32929.7625
1483.26279	33378.6625
1486.66054	33868.6625
1490.05602	34574.1625
1493.44922	35513.2625
1496.84016	36707.7625
1500.22882	38517.2625
1503.61521	41118.4625
1506.99934	44209.2625
1510.38121	46777.4625
1513.76081	47146.2625
1517.13816	44739.0625
1520.51324	40767.1625
1523.88607	37147.4625
1527.25665	34857.1625
1530.62498	33572.6625
1533.99105	32750.1625
1537.35488	32349.6625
1540.71647	32068.5625
1544.07581	31849.5625
1547.4329	31652.1625
1550.78776	31391.2625
1554.14038	31160.8625
1557.49077	31106.5625
1560.83892	31257.4625
1564.18484	31500.2625
1567.52853	31839.8625
1570.86999	32089.0625
1574.20922	32269.6625
1577.54624	32213.9625
1580.88103	31439.1625
1584.2136	30649.5625
1587.54395	30802.9625
1590.87208	32220.5625
1594.19801	34610.4625
1597.52172	37333.5625
1600.84321	38532.9625
1604.16251	37286.4625
1607.47959	34596.7625
1610.79447	31422.9625
1614.10715	28639.2625
1617.41763	26500.6625
1620.7259	25159.0625
1624.03199	24511.8625
1627.33587	24692.7625
1630.63757	25435.5625
1633.93707	26929.8625
1637.23439	29048.7625
1640.52951	31860.5625
1643.82246	35033.1625
1647.11321	37967.2625
1650.40179	39041.9625
1653.68819	36938.1625
1656.97241	32252.9625
1660.25446	27548.3625
1663.53433	24163.3625
1666.81203	22168.4625
1670.08756	20909.6625
1673.36092	20221.7625
1676.63211	19764.5625
1679.90115	19367.6625
1683.16801	19090.3625
1686.43272	18918.6625
1689.69527	18748.3625
1692.95567	18544.5625
1696.2139	18383.3625
1699.46999	18245.5625
1702.72392	18220.2625
1705.97571	18244.5625
1709.22535	18326.3625
1712.47284	18422.8625
1715.71819	18414.6625
1718.96139	18424.8625
1722.20246	18419.6625
1725.44139	18304.1625
1728.67818	18176.8625
1731.91284	18066.4625
1735.14537	18011.3625
1738.37576	17933.3625
1741.60403	17846.7625
1744.83017	17815.8625
1748.05418	17743.9625
1751.27607	17683.7625
1754.49584	17568.5625
1757.71349	17539.0625
1760.92903	17446.2625
1764.14244	17440.4625
1767.35375	17422.9625
1770.56294	17416.5625
1773.77002	17437.1625
1776.97499	17499.7625
1780.17785	17461.1625
1783.37861	17505.9625
1786.57727	17502.7625
1789.77382	17510.2625
1792.96828	17523.1625
1796.16064	17515.3625
1799.3509	17515.4625
1802.53907	17436.4625
1805.72514	17418.1625
1808.90913	17380.1625
1812.09102	17360.4625
1815.27083	17328.3625
1818.44856	17309.6625
1821.6242	17291.9625
1824.79776	17290.5625
1827.96924	17282.7625
1831.13864	17269.7625
1834.30597	17295.1625
1837.47122	17259.7625
1840.6344	17249.6625
1843.7955	17262.3625
1846.95454	17216.0625
1850.11151	17199.1625
1853.26642	17222.8625
1856.41926	17218.7625
1859.57004	17259.1625
1862.71876	17255.9625
1865.86542	17266.9625
1869.01003	17274.7625
1872.15258	17300.7625
1875.29308	17306.7625
1878.43152	17274.7625
1881.56792	17290.4625
1884.70227	17345.1625
1887.83457	17320.9625
1890.96482	17302.0625
1894.09304	17277.8625
1897.21921	17277.8625
1900.34335	17295.5625
1903.46544	17316.6625
1906.58551	17337.9625
1909.70353	17327.9625
1912.81953	17345.2625
1915.93349	17301.2625
1919.04543	17272.8625
1922.15534	17249.1625
1925.26322	17207.1625
1928.36908	17140.8625
1931.47292	17095.8625
1934.57473	17007.3625
1937.67453	17000.1625
1940.77232	16947.1625
1943.86808	16878.4625
1946.96184	16816.6625
1950.05358	16782.6625
1953.14331	16724.4625
1956.23103	16661.5625
1959.31675	16591.6625
1962.40046	16539.3625
1965.48217	16512.1625
1968.56188	16499.8625
1971.63959	16457.8625
1974.7153	16433.6625
1977.78901	16387.5625
1980.86073	16309.3625
1983.93046	16262.7625
1986.99819	16196.9625
1990.06394	16137.8625
1993.1277	16122.6625
1996.18947	16061.4625
1999.24925	16044.4625
2002.30706	15951.2625
2005.36288	15963.9625
2008.41672	15945.0625
2011.46859	15887.4625
2014.51848	15832.3625
2017.56639	15760.6625
2020.61233	15737.2625
2023.6563	15697.0625
2026.6983	15688.1625
2029.73833	15663.3625
2032.7764	15635.3625
2035.8125	15613.1625
2038.84664	15548.4625
2041.87881	15578.9625
2044.90903	15551.0625
2047.93729	15530.5625
2050.96359	15530.4625
2053.98794	15470.3625
2057.01034	15499.8625
2060.03078	15477.8625
2063.04927	15434.6625
2066.06582	15415.4625
2069.08042	15415.6625
2072.09307	15427.5625
2075.10378	15397.8625
2078.11255	15379.4625
2081.11938	15365.5625
2084.12426	15346.9625
2087.12722	15352.0625
2090.12824	15357.7625
2093.12732	15365.4625
2096.12447	15350.0625
2099.11969	15331.4625
2102.11299	15322.0625
2105.10435	15353.5625
2108.09379	15363.5625
2111.08131	15361.7625
2114.0669	15359.9625
2117.05057	15387.6625
2120.03233	15409.1625
2123.01216	15454.2625
2125.99008	15430.7625
2128.96609	15487.8625
2131.94018	15456.2625
2134.91236	15460.1625
2137.88263	15491.0625
2140.851	15499.8625
2143.81746	15523.9625
2146.78201	15509.1625
2149.74466	15503.0625
2152.7054	15527.6625
2155.66425	15505.5625
2158.6212	15506.6625
2161.57625	15500.0625
2164.52941	15519.6625
2167.48067	15489.2625
2170.43004	15522.0625
2173.37752	15464.1625
2176.32311	15482.4625
2179.26681	15487.9625
2182.20863	15494.5625
2185.14856	15510.2625
2188.08661	15478.0625
2191.02278	15495.3625
2193.95707	15510.2625
2196.88948	15502.3625
2199.82001	15512.0625
2202.74867	15484.8625
2205.67545	15490.9625
2208.60037	15468.8625
2211.52341	15471.8625
2214.44458	15499.1625
2217.36388	15456.5625
2220.28132	15449.2625
2223.1969	15424.5625
2226.11061	15403.7625
2229.02246	15401.3625
2231.93245	15355.5625
2234.84058	15317.2625
2237.74686	15258.7625
2240.65128	15237.1625
2243.55385	15230.7625
2246.45456	15254.7625
2249.35343	15201.7625
2252.25044	15202.1625
2255.14561	15188.9625
2258.03893	15208.1625
2260.93041	15124.7625
2263.82004	15129.1625
2266.70783	15128.6625
2269.59378	15098.2625
2272.4779	15038.5625
2275.36017	15009.9625
2278.24061	14969.4625
2281.11922	14943.5625
2283.996	14930.8625
2286.87094	14927.7625
2289.74405	14891.1625
2292.61534	14873.9625
2295.4848	14895.3625
2298.35243	14889.5625
2301.21824	14867.3625
2304.08223	14900.3625
2306.94439	14901.8625
2309.80474	14912.0625
2312.66327	14958.0625
2315.51999	14919.5625
2318.37489	14933.9625
2321.22797	14952.2625
2324.07925	14941.3625
2326.92871	14909.3625
2329.77637	14878.5625
2332.62222	14878.6625
2335.46626	14902.5625
2338.3085	14891.7625
2341.14893	14904.1625
2343.98756	14949.8625
2346.8244	14950.5625
2349.65943	14959.2625
2352.49267	14938.7625
2355.32411	14995.6625
2358.15376	14954.1625
2360.98161	14944.5625
2363.80768	14927.6625
2366.63195	14921.8625
2369.45444	14894.3625
2372.27514	14857.9625
2375.09405	14817.9625
2377.91118	14768.5625
2380.72652	14718.2625
2383.54009	14685.8625
2386.35187	14669.1625
2389.16188	14627.4625
2391.97011	14636.1625
2394.77657	14612.4625
2397.58125	14597.1625
2400.38416	14574.7625
2403.18529	14557.5625
2405.98466	14543.4625
2408.78226	14504.4625
2411.57809	14444.7625
2414.37216	14429.3625
2417.16446	14420.1625
2419.955	14415.7625
2422.74378	14409.6625
2425.5308	14363.1625
2428.31606	14358.8625
2431.09956	14345.6625
2433.88131	14326.6625
2436.6613	14392.0625
2439.43954	14346.8625
2442.21603	14359.9625
2444.99077	14330.0625
2447.76377	14371.7625
2450.53501	14321.0625
2453.30451	14362.3625
2456.07226	14306.9625
2458.83827	14327.4625
2461.60254	14323.2625
2464.36507	14303.0625
2467.12586	14288.6625
2469.88492	14293.7625
2472.64224	14294.5625
2475.39782	14310.7625
2478.15167	14333.4625
2480.90379	14356.1625
2483.65417	14418.8625
2486.40283	14409.9625
2489.14976	14447.7625
2491.89497	14447.2625
2494.63845	14443.8625
2497.3802	14433.5625
2500.12024	14471.1625
2502.85855	14442.4625
2505.59514	14431.9625
2508.33002	14392.1625
2511.06318	14381.4625
2513.79462	14354.8625
2516.52435	14282.9625
2519.25237	14300.9625
2521.97867	14259.8625
2524.70327	14260.0625
2527.42616	14229.9625
2530.14734	14242.9625
2532.86681	14274.1625
2535.58458	14254.1625
2538.30065	14272.8625
2541.01501	14306.1625
2543.72768	14259.7625
2546.43864	14242.1625
2549.14791	14233.2625
2551.85548	14270.3625
2554.56136	14210.9625
2557.26554	14161.8625
2559.96803	14177.8625
2562.66883	14129.7625
2565.36794	14131.1625
2568.06536	14142.1625
2570.7611	14113.1625
2573.45514	14129.9625
2576.14751	14100.4625
2578.83819	14123.7625
2581.52719	14110.9625
2584.21451	14104.8625
2586.90015	14104.4625
2589.58411	14114.7625
2592.2664	14091.9625
2594.94701	14128.3625
2597.62594	14141.0625
2600.30321	14118.5625
2602.9788	14120.0625
2605.65273	14101.7625
2608.32498	14116.6625
2610.99557	14114.1625
2613.66449	14121.8625
2616.33175	14130.6625
2618.99734	14147.9625
2621.66128	14121.1625
2624.32355	14122.5625
2626.98416	14154.6625
2629.64311	14174.7625
2632.30041	14154.7625
2634.95605	14130.1625
2637.61004	14083.7625
2640.26238	14068.7625
2642.91306	14064.9625
2645.56209	14059.0625
2648.20948	14053.1625
2650.85521	13991.5625
2653.4993	13991.5625
2656.14175	14045.1625
2658.78255	14032.5625
2661.42171	14026.3625
2664.05923	14063.6625
2666.6951	14064.3625
2669.32934	14088.5625
2671.96194	14099.9625
2674.59291	14125.0625
2677.22224	14126.0625
2679.84993	14129.3625
2682.476	14089.2625
2685.10043	14147.7625
2687.72324	14101.4625
2690.34441	14102.6625
2692.96396	14067.7625
2695.58188	14063.2625
2698.19818	14037.2625
2700.81285	14042.0625
2703.4259	14002.7625
2706.03733	13914.8625
2708.64714	13959.3625
2711.25533	14025.1625
2713.86191	14083.4625
2716.46687	14114.0625
2719.07021	14116.7625
2721.67194	14138.8625
2724.27206	14147.4625
2726.87057	14161.8625
2729.46747	14129.5625
2732.06276	14149.1625
2734.65644	14170.3625
2737.24852	14141.1625
2739.83899	14125.2625
2742.42786	14156.9625
2745.01513	14124.7625
2747.60079	14153.0625
2750.18486	14124.1625
2752.76733	14117.3625
2755.3482	14081.6625
2757.92747	14079.3625
2760.50515	14062.6625
2763.08123	14073.1625
2765.65573	14040.7625
2768.22863	14031.1625
2770.79994	14015.0625
2773.36967	14062.6625
2775.9378	14038.2625
2778.50435	14036.8625
2781.06932	14052.8625
2783.6327	14022.2625
2786.1945	14051.5625
2788.75471	14053.3625
2791.31335	14019.4625
2793.87041	13992.0625
2796.42589	13976.2625
2798.97979	13955.9625
2801.53212	13971.4625
2804.08288	13932.0625
2806.63206	13887.5625
2809.17967	13877.7625
2811.72571	13877.1625
2814.27018	13868.5625
2816.81308	13867.9625
2819.35442	13857.3625
2821.89419	13837.2625
2824.43239	13839.7625
2826.96904	13837.7625
2829.50412	13838.5625
2832.03763	13826.0625
2834.56959	13817.3625
2837.1	13789.2625
2839.62884	13795.6625
2842.15613	13797.9625
2844.68186	13822.1625
2847.20604	13824.3625
2849.72867	13771.5625
2852.24974	13769.5625
2854.76927	13757.1625
2857.28724	13728.8625
2859.80367	13697.4625
2862.31855	13703.4625
2864.83189	13708.2625
2867.34368	13697.3625
2869.85393	13728.6625
2872.36264	13717.2625
2874.8698	13715.4625
2877.37543	13723.1625
2879.87952	13752.0625
2882.38207	13747.1625
2884.88308	13710.3625
2887.38256	13744.9625
2889.88051	13741.8625
2892.37692	13721.1625
2894.8718	13749.8625
2897.36515	13748.2625
2899.85698	13737.2625
2902.34727	13777.3625
2904.83604	13780.5625
2907.32328	13784.0625
2909.809	13779.6625
2912.29319	13833.8625
2914.77587	13837.5625
2917.25702	13811.5625
2919.73665	13770.2625
2922.21476	13739.7625
2924.69136	13746.2625
2927.16644	13755.3625
2929.64	13700.8625
2932.11205	13699.2625
2934.58258	13660.9625
2937.05161	13670.6625
2939.51912	13685.2625
2941.98513	13665.6625
2944.44962	13665.4625
2946.91261	13605.0625
2949.37409	13643.0625
2951.83407	13622.9625
2954.29254	13638.0625
2956.74951	13612.0625
2959.20498	13638.6625
2961.65895	13571.6625
2964.11142	13571.3625
2966.56239	13542.2625
2969.01186	13542.5625
2971.45984	13528.5625
2973.90632	13499.5625
2976.35131	13454.9625
2978.7948	13423.9625
2981.23681	13421.4625
2983.67732	13410.3625
2986.11635	13397.5625
2988.55388	13328.4625
2990.98993	13291.5625
2993.4245	13280.7625
2995.85758	13271.0625
2998.28917	13240.0625
3000.71928	13235.4625
3003.14791	13206.7625
3005.57506	13189.9625
3008.00073	13152.6625
3010.42493	13137.0625
3012.84764	13121.9625
3015.26888	13112.0625
3017.68865	13055.5625
3020.10694	13051.2625
3022.52376	12999.6625
3024.9391	12983.9625
