Data from AgNPs_FTO_APTES_UA_50uM_CRN_50uM_R6G_10uM_NaF_0.1M_Addition_RamanShift__12__14-46-44-975.txt Node

Date: Mon Feb 21 14:46:44 GMT 2022
User: TCL
Spectrometer: QEP01345
Trigger mode: 4
Integration Time (sec): 7.000000E0
Scans to average: 10
Electric dark correction enabled: true
Nonlinearity correction enabled: false
Boxcar width: 0
XAxis mode: Raman Shifts
Number of Pixels in Spectrum: 1044
>>>>>Begin Spectral Data<<<<<
46.04893	1.125
50.45542	-0.775
54.85868	-1.475
59.25871	-1.375
63.6555	52.825
68.04907	59.125
72.43941	58.725
76.82654	66.025
81.21044	68.025
85.59113	74.325
89.96862	72.225
94.34289	77.325
98.71396	76.125
103.08183	82.125
107.4465	79.525
111.80798	82.825
116.16626	82.225
120.52136	81.225
124.87327	89.025
129.222	85.825
133.56755	93.425
137.90993	98.725
142.24913	102.125
146.58517	114.125
150.91804	126.125
155.24774	149.325
159.57429	176.225
163.89768	213.225
168.21792	280.325
172.53501	378.325
176.84895	529.025
181.15975	733.225
185.46741	1021.425
189.77193	1423.625
194.07331	1897.725
198.37157	2441.725
202.6667	3027.925
206.9587	3600.425
211.24758	4159.125
215.53334	4732.325
219.81599	5309.625
224.09553	5947.525
228.37195	6668.125
232.64527	7476.125
236.91549	8313.225
241.18261	9152.325
245.44663	9963.025
249.70755	10673.625
253.96539	11312.425
258.22014	11803.925
262.4718	12212.725
266.72039	12474.225
270.96589	12626.025
275.20832	12598.525
279.44768	12514.425
283.68397	12327.325
287.91719	12186.925
292.14735	12063.725
296.37445	12009.825
300.59849	12034.725
304.81948	12076.725
309.03742	12058.325
313.25231	11999.725
317.46415	11791.125
321.67296	11582.325
325.87872	11370.625
330.08145	11287.925
334.28114	11312.825
338.47781	11376.825
342.67145	11503.525
346.86207	11699.025
351.04966	11887.825
355.23424	12115.125
359.4158	12321.925
363.59435	12471.325
367.76989	12578.125
371.94243	12673.225
376.11196	12706.325
380.27849	12768.625
384.44203	12825.925
388.60257	12903.025
392.76012	13002.025
396.91468	13139.825
401.06626	13336.425
405.21485	13496.825
409.36047	13431.725
413.50311	13233.925
417.64277	13103.525
421.77947	12991.525
425.9132	13017.725
430.04396	13058.425
434.17176	13108.825
438.2966	13220.225
442.41849	13348.625
446.53742	13528.925
450.6534	13730.025
454.76644	13889.425
458.87653	13979.125
462.98368	14010.125
467.08789	13984.825
471.18916	13861.425
475.2875	13747.525
479.38291	13654.025
483.4754	13549.925
487.56496	13452.225
491.6516	13384.225
495.73531	13379.925
499.81612	13383.425
503.89401	13485.125
507.96899	13553.625
512.04106	13583.825
516.11023	13570.725
520.1765	13532.525
524.23987	13485.525
528.30034	13399.525
532.35792	13300.625
536.41261	13219.525
540.46441	13170.425
544.51333	13158.525
548.55936	13250.525
552.60252	13385.125
556.64279	13559.125
560.6802	13642.125
564.71473	13660.025
568.7464	13752.725
572.7752	13928.825
576.80114	14126.025
580.82422	14398.425
584.84444	14606.925
588.86181	14760.125
592.87633	14895.625
596.888	14934.925
600.89682	14994.325
604.9028	15344.225
608.90594	16471.325
612.90624	17716.725
616.90371	16929.725
620.89834	14716.925
624.89015	13704.325
628.87913	13575.525
632.86528	13676.525
636.84862	13782.225
640.82913	13702.725
644.80683	13479.425
648.78172	13297.125
652.75379	13264.925
656.72306	13396.525
660.68952	13626.225
664.65319	13592.125
668.61405	13442.025
672.57211	13426.925
676.52738	13504.825
680.47986	13506.925
684.42955	13467.725
688.37646	13414.925
692.32058	13433.525
696.26192	13484.525
700.20048	13580.925
704.13626	13623.625
708.06928	13600.925
711.99952	13554.925
715.927	13501.525
719.85171	13488.825
723.77365	13481.525
727.69284	13399.225
731.60928	13298.625
735.52295	13246.725
739.43388	13223.825
743.34206	13265.925
747.24749	13337.325
751.15017	13387.325
755.05012	13536.325
758.94733	13809.025
762.8418	14279.525
766.73354	15157.125
770.62254	16031.125
774.50882	16352.125
778.39237	15859.225
782.27321	14980.525
786.15132	14214.725
790.02671	13708.925
793.89938	13441.825
797.76935	13283.625
801.6366	13215.425
805.50115	13168.125
809.36299	13112.625
813.22213	13047.425
817.07857	13015.125
820.93231	12998.125
824.78336	12985.625
828.63172	13001.025
832.47738	12962.425
836.32036	12959.325
840.16066	12961.625
843.99827	12947.725
847.8332	12932.425
851.66546	12946.125
855.49504	12970.225
859.32195	12980.025
863.1462	12974.225
866.96777	12971.125
870.78668	12971.725
874.60293	12977.425
878.41652	13033.025
882.22745	13068.225
886.03573	13101.425
889.84136	13080.025
893.64433	13062.025
897.44466	13041.525
901.24235	13026.725
905.0374	13023.325
908.8298	12994.025
912.61957	12968.825
916.40671	13014.525
920.19121	13078.125
923.97308	13189.525
927.75233	13197.025
931.52895	13140.625
935.30295	13051.725
939.07433	12884.425
942.84309	12777.225
946.60924	12659.025
950.37278	12609.325
954.13371	12648.725
957.89203	12588.525
961.64774	12610.925
965.40086	12606.025
969.15137	12568.925
972.89929	12538.425
976.64461	12534.525
980.38733	12517.925
984.12747	12530.225
987.86502	12565.925
991.59999	12608.125
995.33237	12639.225
999.06217	12783.125
1002.78939	12936.225
1006.51404	13061.825
1010.23611	13229.825
1013.95561	13358.525
1017.67255	13392.925
1021.38692	13321.125
1025.09872	13208.425
1028.80796	13079.525
1032.51465	13049.825
1036.21877	13045.525
1039.92035	13091.325
1043.61937	13137.825
1047.31584	13177.925
1051.00976	13227.825
1054.70114	13259.725
1058.38998	13328.025
1062.07627	13380.825
1065.76003	13514.625
1069.44126	13621.325
1073.11995	13795.925
1076.79611	13941.125
1080.46974	14068.425
1084.14085	14118.225
1087.80943	14190.225
1091.47549	14290.225
1095.13903	14300.325
1098.80005	14163.925
1102.45857	13946.325
1106.11456	13754.125
1109.76805	13651.825
1113.41903	13663.525
1117.06751	13701.225
1120.71348	13805.525
1124.35696	13956.225
1127.99793	14098.125
1131.63641	14208.325
1135.2724	14127.225
1138.90589	14040.325
1142.5369	14023.525
1146.16542	13957.025
1149.79145	13961.925
1153.415	13970.725
1157.03607	14019.525
1160.65467	14197.625
1164.27079	14514.325
1167.88443	14938.925
1171.49561	15535.725
1175.10432	16241.925
1178.71056	17189.325
1182.31434	18139.925
1185.91565	18722.925
1189.51451	18905.625
1193.11091	18725.125
1196.70485	18240.925
1200.29634	17578.925
1203.88538	17010.225
1207.47197	16457.925
1211.05612	16008.225
1214.63782	15628.525
1218.21708	15406.525
1221.79391	15254.925
1225.36829	15134.525
1228.94024	15115.225
1232.50976	15103.325
1236.07685	15059.925
1239.6415	15068.425
1243.20374	15036.125
1246.76355	15124.125
1250.32093	15217.925
1253.8759	15347.325
1257.42845	15596.725
1260.97859	15897.825
1264.52631	16246.325
1268.07163	16558.725
1271.61453	16881.225
1275.15503	17111.225
1278.69312	17361.025
1282.22882	17542.425
1285.76211	17780.225
1289.29301	18070.125
1292.82151	18402.925
1296.34761	18820.425
1299.87133	19348.225
1303.39266	19993.525
1306.9116	20779.925
1310.42815	21529.025
1313.94233	21896.425
1317.45412	21842.025
1320.96354	21558.125
1324.47058	21234.625
1327.97525	20955.725
1331.47754	20866.825
1334.97747	20904.625
1338.47502	21082.325
1341.97022	21349.225
1345.46305	21676.925
1348.95352	21945.825
1352.44163	22222.925
1355.92738	22588.025
1359.41078	23175.625
1362.89183	23703.725
1366.37053	23414.125
1369.84688	21873.625
1373.32088	20069.525
1376.79254	18674.325
1380.26186	17893.725
1383.72883	17468.925
1387.19347	17172.025
1390.65578	16856.025
1394.11575	16578.925
1397.57339	16455.225
1401.0287	16411.025
1404.48168	16444.325
1407.93234	16475.025
1411.38068	16454.625
1414.82669	16317.125
1418.27039	16082.825
1421.71177	15855.225
1425.15083	15610.525
1428.58758	15451.925
1432.02203	15416.725
1435.45416	15471.525
1438.88399	15627.925
1442.31151	15762.225
1445.73673	15830.425
1449.15965	15952.525
1452.58027	16066.125
1455.9986	16142.525
1459.41463	16229.225
1462.82837	16464.025
1466.23982	16728.925
1469.64898	17059.225
1473.05586	17268.925
1476.46045	17489.325
1479.86276	17610.125
1483.26279	17695.425
1486.66054	17800.025
1490.05602	18012.425
1493.44922	18437.225
1496.84016	19011.225
1500.22882	19778.225
1503.61521	20743.425
1506.99934	21712.125
1510.38121	22219.225
1513.76081	22047.425
1517.13816	21228.925
1520.51324	20187.025
1523.88607	19272.525
1527.25665	18661.725
1530.62498	18322.925
1533.99105	18070.225
1537.35488	17798.025
1540.71647	17556.025
1544.07581	17288.525
1547.4329	17038.425
1550.78776	16852.125
1554.14038	16778.125
1557.49077	16772.125
1560.83892	16891.925
1564.18484	17017.625
1567.52853	17196.025
1570.86999	17313.125
1574.20922	17456.125
1577.54624	17486.025
1580.88103	17219.125
1584.2136	16876.625
1587.54395	16725.325
1590.87208	16909.525
1594.19801	17343.525
1597.52172	17942.925
1600.84321	18178.125
1604.16251	17870.525
1607.47959	17249.625
1610.79447	16564.925
1614.10715	15813.725
1617.41763	15131.225
1620.7259	14560.125
1624.03199	14209.925
1627.33587	14125.625
1630.63757	14253.125
1633.93707	14611.625
1637.23439	15364.825
1640.52951	16428.725
1643.82246	17735.225
1647.11321	18976.325
1650.40179	19552.125
1653.68819	18985.325
1656.97241	17499.225
1660.25446	15783.525
1663.53433	14404.925
1666.81203	13524.925
1670.08756	12959.825
1673.36092	12617.925
1676.63211	12396.725
1679.90115	12226.925
1683.16801	12080.725
1686.43272	11985.325
1689.69527	11885.125
1692.95567	11761.325
1696.2139	11636.625
1699.46999	11503.325
1702.72392	11446.425
1705.97571	11535.325
1709.22535	11586.625
1712.47284	11651.725
1715.71819	11643.325
1718.96139	11626.525
1722.20246	11626.625
1725.44139	11564.225
1728.67818	11527.825
1731.91284	11483.125
1735.14537	11433.625
1738.37576	11400.025
1741.60403	11364.325
1744.83017	11312.325
1748.05418	11282.625
1751.27607	11232.825
1754.49584	11195.825
1757.71349	11125.225
1760.92903	11116.125
1764.14244	11072.025
1767.35375	11092.025
1770.56294	11043.925
1773.77002	10995.025
1776.97499	11023.025
1780.17785	11080.825
1783.37861	11087.125
1786.57727	11075.825
1789.77382	11062.825
1792.96828	11058.225
1796.16064	11009.225
1799.3509	10997.625
1802.53907	10975.125
1805.72514	10982.725
1808.90913	10953.325
1812.09102	10922.625
1815.27083	10925.925
1818.44856	10914.125
1821.6242	10894.025
1824.79776	10882.625
1827.96924	10886.325
1831.13864	10869.025
1834.30597	10863.025
1837.47122	10862.225
1840.6344	10844.425
1843.7955	10865.925
1846.95454	10882.825
1850.11151	10853.425
1853.26642	10857.425
1856.41926	10864.125
1859.57004	10830.125
1862.71876	10814.325
1865.86542	10810.425
1869.01003	10793.825
1872.15258	10753.925
1875.29308	10769.125
1878.43152	10744.925
1881.56792	10748.625
1884.70227	10711.925
1887.83457	10656.025
1890.96482	10673.225
1894.09304	10627.825
1897.21921	10628.125
1900.34335	10615.325
1903.46544	10605.325
1906.58551	10599.225
1909.70353	10575.525
1912.81953	10571.425
1915.93349	10561.625
1919.04543	10524.225
1922.15534	10535.825
1925.26322	10461.325
1928.36908	10469.225
1931.47292	10444.825
1934.57473	10443.225
1937.67453	10411.725
1940.77232	10392.025
1943.86808	10343.125
1946.96184	10299.825
1950.05358	10285.425
1953.14331	10277.425
1956.23103	10251.325
1959.31675	10196.225
1962.40046	10207.025
1965.48217	10153.525
1968.56188	10129.825
1971.63959	10080.125
1974.7153	10073.525
1977.78901	10056.525
1980.86073	10000.325
1983.93046	9949.425
1986.99819	9901.925
1990.06394	9913.025
1993.1277	9895.125
1996.18947	9838.225
1999.24925	9827.825
2002.30706	9778.625
2005.36288	9749.125
2008.41672	9721.825
2011.46859	9687.725
2014.51848	9664.925
2017.56639	9649.825
2020.61233	9613.425
2023.6563	9610.825
2026.6983	9581.325
2029.73833	9556.725
2032.7764	9523.225
2035.8125	9503.225
2038.84664	9514.125
2041.87881	9493.225
2044.90903	9465.925
2047.93729	9435.925
2050.96359	9440.025
2053.98794	9432.325
2057.01034	9403.225
2060.03078	9419.125
2063.04927	9392.225
2066.06582	9397.125
2069.08042	9368.925
2072.09307	9365.225
2075.10378	9369.325
2078.11255	9376.125
2081.11938	9382.625
2084.12426	9363.325
2087.12722	9375.725
2090.12824	9354.425
2093.12732	9364.225
2096.12447	9372.525
2099.11969	9349.825
2102.11299	9375.125
2105.10435	9368.025
2108.09379	9366.225
2111.08131	9389.325
2114.0669	9374.025
2117.05057	9380.725
2120.03233	9386.725
2123.01216	9406.125
2125.99008	9415.025
2128.96609	9437.425
2131.94018	9423.825
2134.91236	9435.625
2137.88263	9437.225
2140.851	9430.125
2143.81746	9467.425
2146.78201	9478.025
2149.74466	9443.825
2152.7054	9469.225
2155.66425	9453.225
2158.6212	9447.025
2161.57625	9416.225
2164.52941	9432.225
2167.48067	9427.425
2170.43004	9425.625
2173.37752	9397.325
2176.32311	9416.725
2179.26681	9422.825
2182.20863	9407.725
2185.14856	9431.825
2188.08661	9421.725
2191.02278	9410.525
2193.95707	9382.225
2196.88948	9396.025
2199.82001	9386.925
2202.74867	9394.025
2205.67545	9386.125
2208.60037	9359.725
2211.52341	9358.125
2214.44458	9344.725
2217.36388	9321.525
2220.28132	9292.325
2223.1969	9253.025
2226.11061	9253.225
2229.02246	9214.025
2231.93245	9223.425
2234.84058	9198.025
2237.74686	9205.125
2240.65128	9169.525
2243.55385	9183.525
2246.45456	9163.025
2249.35343	9169.825
2252.25044	9151.725
2255.14561	9145.325
2258.03893	9128.625
2260.93041	9092.125
2263.82004	9090.025
2266.70783	9073.825
2269.59378	9052.125
2272.4779	9018.125
2275.36017	8998.425
2278.24061	8982.525
2281.11922	8963.725
2283.996	8941.325
2286.87094	8946.425
2289.74405	8951.025
2292.61534	8933.125
2295.4848	8893.825
2298.35243	8895.925
2301.21824	8909.325
2304.08223	8888.925
2306.94439	8865.025
2309.80474	8875.025
2312.66327	8865.325
2315.51999	8848.625
2318.37489	8855.725
2321.22797	8827.025
2324.07925	8822.125
2326.92871	8811.225
2329.77637	8824.525
2332.62222	8800.025
2335.46626	8774.525
2338.3085	8763.925
2341.14893	8777.925
2343.98756	8738.625
2346.8244	8739.725
2349.65943	8762.225
2352.49267	8741.025
2355.32411	8736.325
2358.15376	8719.125
2360.98161	8731.125
2363.80768	8706.425
2366.63195	8721.025
2369.45444	8690.725
2372.27514	8700.025
2375.09405	8704.625
2377.91118	8688.225
2380.72652	8684.025
2383.54009	8645.325
2386.35187	8656.025
2389.16188	8589.625
2391.97011	8582.425
2394.77657	8589.625
2397.58125	8560.225
2400.38416	8554.925
2403.18529	8524.025
2405.98466	8518.425
2408.78226	8497.025
2411.57809	8495.225
2414.37216	8478.525
2417.16446	8485.425
2419.955	8470.625
2422.74378	8476.525
2425.5308	8450.525
2428.31606	8439.625
2431.09956	8459.025
2433.88131	8429.525
2436.6613	8440.525
2439.43954	8428.425
2442.21603	8424.625
2444.99077	8427.425
2447.76377	8445.325
2450.53501	8416.325
2453.30451	8423.625
2456.07226	8404.225
2458.83827	8392.325
2461.60254	8405.125
2464.36507	8386.925
2467.12586	8390.925
2469.88492	8371.725
2472.64224	8364.225
2475.39782	8359.925
2478.15167	8352.625
2480.90379	8364.425
2483.65417	8347.625
2486.40283	8354.025
2489.14976	8350.525
2491.89497	8360.725
2494.63845	8317.925
2497.3802	8309.925
2500.12024	8294.625
2502.85855	8311.925
2505.59514	8312.625
2508.33002	8302.325
2511.06318	8309.625
2513.79462	8259.425
2516.52435	8287.825
2519.25237	8275.025
2521.97867	8236.925
2524.70327	8241.325
2527.42616	8235.225
2530.14734	8233.125
2532.86681	8216.625
2535.58458	8222.725
2538.30065	8214.125
2541.01501	8190.525
2543.72768	8181.625
2546.43864	8173.025
2549.14791	8145.825
2551.85548	8152.525
2554.56136	8119.325
2557.26554	8121.625
2559.96803	8120.025
2562.66883	8124.925
2565.36794	8096.125
2568.06536	8087.325
2570.7611	8059.725
2573.45514	8060.925
2576.14751	8056.125
2578.83819	8009.125
2581.52719	8019.925
2584.21451	7995.325
2586.90015	7980.925
2589.58411	7956.925
2592.2664	7961.425
2594.94701	7937.325
2597.62594	7955.225
2600.30321	7931.725
2602.9788	7929.425
2605.65273	7944.625
2608.32498	7924.325
2610.99557	7914.625
2613.66449	7920.825
2616.33175	7911.525
2618.99734	7893.925
2621.66128	7899.125
2624.32355	7877.125
2626.98416	7872.525
2629.64311	7852.625
2632.30041	7839.825
2634.95605	7842.825
2637.61004	7808.225
2640.26238	7793.525
2642.91306	7803.525
2645.56209	7785.525
2648.20948	7778.025
2650.85521	7774.225
2653.4993	7791.325
2656.14175	7791.825
2658.78255	7790.825
2661.42171	7797.125
2664.05923	7797.825
2666.6951	7806.225
2669.32934	7819.525
2671.96194	7814.425
2674.59291	7802.625
2677.22224	7824.525
2679.84993	7806.525
2682.476	7770.325
2685.10043	7816.025
2687.72324	7782.125
2690.34441	7801.725
2692.96396	7786.425
2695.58188	7796.825
2698.19818	7778.625
2700.81285	7759.925
2703.4259	7758.125
2706.03733	7686.825
2708.64714	7724.425
2711.25533	7761.425
2713.86191	7757.225
2716.46687	7770.025
2719.07021	7776.025
2721.67194	7802.425
2724.27206	7790.225
2726.87057	7776.225
2729.46747	7774.425
2732.06276	7810.725
2734.65644	7798.725
2737.24852	7789.125
2739.83899	7768.225
2742.42786	7783.125
2745.01513	7762.325
2747.60079	7748.325
2750.18486	7754.925
2752.76733	7741.725
2755.3482	7750.225
2757.92747	7728.525
2760.50515	7703.625
2763.08123	7716.025
2765.65573	7709.125
2768.22863	7683.825
2770.79994	7674.225
2773.36967	7660.525
2775.9378	7656.525
2778.50435	7657.125
2781.06932	7630.225
2783.6327	7662.725
2786.1945	7645.125
2788.75471	7649.125
2791.31335	7586.425
2793.87041	7600.425
2796.42589	7577.025
2798.97979	7592.425
2801.53212	7559.825
2804.08288	7558.225
2806.63206	7543.725
2809.17967	7526.525
2811.72571	7487.925
2814.27018	7477.625
2816.81308	7480.025
2819.35442	7469.225
2821.89419	7475.125
2824.43239	7437.925
2826.96904	7439.525
2829.50412	7440.625
2832.03763	7449.525
2834.56959	7433.325
2837.1	7428.525
2839.62884	7425.925
2842.15613	7393.725
2844.68186	7407.125
2847.20604	7408.125
2849.72867	7412.225
2852.24974	7407.325
2854.76927	7399.025
2857.28724	7370.425
2859.80367	7365.825
2862.31855	7362.625
2864.83189	7351.425
2867.34368	7348.425
2869.85393	7342.125
2872.36264	7350.525
2874.8698	7333.925
2877.37543	7326.425
2879.87952	7333.725
2882.38207	7323.225
2884.88308	7316.825
2887.38256	7334.725
2889.88051	7311.925
2892.37692	7312.125
2894.8718	7302.525
2897.36515	7344.025
2899.85698	7341.825
2902.34727	7323.525
2904.83604	7339.525
2907.32328	7340.625
2909.809	7337.825
2912.29319	7365.625
2914.77587	7381.725
2917.25702	7366.225
2919.73665	7364.025
2922.21476	7359.725
2924.69136	7321.425
2927.16644	7352.825
2929.64	7363.525
2932.11205	7335.825
2934.58258	7312.325
2937.05161	7342.225
2939.51912	7304.725
2941.98513	7310.525
2944.44962	7293.025
2946.91261	7298.725
2949.37409	7286.225
2951.83407	7285.925
2954.29254	7266.325
2956.74951	7280.625
2959.20498	7276.725
2961.65895	7259.125
2964.11142	7247.725
2966.56239	7239.425
2969.01186	7234.425
2971.45984	7239.725
2973.90632	7207.725
2976.35131	7200.325
2978.7948	7179.225
2981.23681	7152.725
2983.67732	7190.225
2986.11635	7157.825
2988.55388	7143.825
2990.98993	7109.025
2993.4245	7114.525
2995.85758	7088.125
2998.28917	7097.925
3000.71928	7078.425
3003.14791	7076.125
3005.57506	7053.825
3008.00073	7026.925
3010.42493	7012.825
3012.84764	7006.925
3015.26888	7015.025
3017.68865	7001.225
3020.10694	6985.925
3022.52376	7001.925
3024.9391	6964.825
3027.35298	6939.425
3029.76539	6955.725
3032.17632	6935.525
3034.5858	6934.325
3036.9938	6920.925
3039.40034	6912.825
3041.80542	6916.925
3044.20903	6890.225
3046.61118	6894.225
3049.01187	6872.225
3051.4111	6885.925
3053.80888	6866.625
3056.20519	6856.025
3058.60005	6849.725
3060.99345	6835.525
3063.3854	6828.125
3065.7759	6816.325
3068.16494	6811.125
3070.55254	6778.625
3072.93868	6773.225
3075.32338	6744.225
3077.70662	6738.025
3080.08842	6725.425
3082.46878	6718.825
3084.84769	6717.925
3087.22515	6703.425
3089.60118	6728.725
3091.97576	6712.025
3094.3489	6714.325
3096.72061	6699.225
3099.09087	6715.925
3101.4597	6725.025
3103.82709	6708.425
3106.19305	6701.325
3108.55757	6728.625
3110.92066	6672.825
3113.28232	6691.325
3115.64255	6652.025
3118.00134	6645.525
3120.35871	6655.625
3122.71466	6642.525
3125.06917	6643.425
3127.42226	6629.325
3129.77393	6633.325
3132.12417	6610.325
3134.47299	6602.225
3136.82039	6636.225
3139.16636	6637.225
3141.51092	6616.325
3143.85406	6608.325
3146.19579	6620.025
3148.53609	6616.425
3150.87499	6622.025
3153.21246	6641.525
3155.54853	6652.725
3157.88318	6655.625
3160.21642	6665.525
3162.54826	6629.925
3164.87868	6651.725
3167.2077	6654.925
3169.5353	6661.925
3171.86151	6646.825
3174.18631	6648.225
3176.5097	6647.025
3178.83169	6639.825
