Data from AgNPs_FTO_APTES_UA_50uM_CRN_1000uM_R6G_10uM_NaF_0.1M_Addition_RamanShift__16__17-44-53-594.txt Node

Date: Mon Feb 21 17:44:53 GMT 2022
User: TCL
Spectrometer: QEP01345
Trigger mode: 4
Integration Time (sec): 7.000000E0
Scans to average: 10
Electric dark correction enabled: true
Nonlinearity correction enabled: false
Boxcar width: 0
XAxis mode: Raman Shifts
Number of Pixels in Spectrum: 1044
>>>>>Begin Spectral Data<<<<<
46.04893	-0.675
50.45542	-0.375
54.85868	0.025
59.25871	-0.375
63.6555	46.425
68.04907	51.225
72.43941	57.725
76.82654	55.525
81.21044	61.325
85.59113	63.325
89.96862	65.825
94.34289	65.825
98.71396	68.725
103.08183	73.725
107.4465	72.525
111.80798	76.825
116.16626	76.325
120.52136	78.725
124.87327	81.825
129.222	87.325
133.56755	92.525
137.90993	95.525
142.24913	103.125
146.58517	110.625
150.91804	130.725
155.24774	154.025
159.57429	186.525
163.89768	246.125
168.21792	325.725
172.53501	443.225
176.84895	614.425
181.15975	865.225
185.46741	1219.925
189.77193	1685.025
194.07331	2270.425
198.37157	2925.625
202.6667	3625.525
206.9587	4347.425
211.24758	5025.925
215.53334	5696.825
219.81599	6429.925
224.09553	7226.325
228.37195	8077.625
232.64527	9046.525
236.91549	10064.225
241.18261	11041.125
245.44663	11968.025
249.70755	12827.125
253.96539	13489.725
258.22014	14058.025
262.4718	14551.525
266.72039	14875.325
270.96589	15034.525
275.20832	15023.025
279.44768	14857.125
283.68397	14654.925
287.91719	14443.925
292.14735	14337.725
296.37445	14304.425
300.59849	14401.025
304.81948	14485.525
309.03742	14511.725
313.25231	14436.725
317.46415	14207.225
321.67296	13852.325
325.87872	13573.225
330.08145	13428.425
334.28114	13454.425
338.47781	13545.925
342.67145	13749.925
346.86207	13945.725
351.04966	14259.125
355.23424	14606.625
359.4158	14870.025
363.59435	15096.925
367.76989	15253.025
371.94243	15325.125
376.11196	15408.425
380.27849	15468.525
384.44203	15544.925
388.60257	15617.725
392.76012	15657.225
396.91468	15758.125
401.06626	15931.825
405.21485	16027.525
409.36047	15958.425
413.50311	15677.925
417.64277	15426.625
421.77947	15311.725
425.9132	15315.825
430.04396	15387.625
434.17176	15479.425
438.2966	15640.225
442.41849	15887.425
446.53742	16217.025
450.6534	16615.725
454.76644	16844.525
458.87653	16921.425
462.98368	16838.525
467.08789	16668.025
471.18916	16511.625
475.2875	16292.225
479.38291	16114.025
483.4754	16033.425
487.56496	15837.025
491.6516	15717.725
495.73531	15625.825
499.81612	15614.825
503.89401	15685.725
507.96899	15741.825
512.04106	15804.525
516.11023	15852.725
520.1765	15854.625
524.23987	15847.425
528.30034	15720.225
532.35792	15673.925
536.41261	15585.625
540.46441	15433.325
544.51333	15372.525
548.55936	15425.025
552.60252	15601.525
556.64279	15828.625
560.6802	15991.425
564.71473	16042.125
568.7464	16190.325
572.7752	16394.825
576.80114	16441.125
580.82422	16446.825
584.84444	16563.725
588.86181	16850.925
592.87633	17199.925
596.888	17376.225
600.89682	17233.425
604.9028	17569.925
608.90594	19136.625
612.90624	21062.425
616.90371	20321.325
620.89834	17318.325
624.89015	15863.425
628.87913	15641.125
632.86528	15690.625
636.84862	15777.225
640.82913	15716.325
644.80683	15444.825
648.78172	15194.425
652.75379	15172.725
656.72306	15312.925
660.68952	15554.725
664.65319	15550.125
668.61405	15342.925
672.57211	15366.625
676.52738	15494.025
680.47986	15583.625
684.42955	15516.025
688.37646	15354.825
692.32058	15253.925
696.26192	15277.225
700.20048	15315.525
704.13626	15353.225
708.06928	15293.525
711.99952	15216.925
715.927	15145.525
719.85171	15155.225
723.77365	15148.725
727.69284	15148.725
731.60928	15039.725
735.52295	15039.325
739.43388	15033.425
743.34206	15047.825
747.24749	15058.525
751.15017	15091.025
755.05012	15152.225
758.94733	15436.625
762.8418	16072.925
766.73354	17153.525
770.62254	18358.525
774.50882	18916.025
778.39237	18376.525
782.27321	17132.325
786.15132	15980.725
790.02671	15272.525
793.89938	14927.125
797.76935	14785.225
801.6366	14688.125
805.50115	14648.625
809.36299	14572.625
813.22213	14480.225
817.07857	14438.425
820.93231	14387.725
824.78336	14334.825
828.63172	14314.625
832.47738	14278.325
836.32036	14279.925
840.16066	14238.125
843.99827	14256.825
847.8332	14238.425
851.66546	14210.725
855.49504	14228.825
859.32195	14252.125
863.1462	14259.725
866.96777	14261.525
870.78668	14248.525
874.60293	14228.725
878.41652	14251.425
882.22745	14282.325
886.03573	14304.725
889.84136	14274.825
893.64433	14222.125
897.44466	14171.125
901.24235	14080.225
905.0374	13999.425
908.8298	13920.525
912.61957	13870.625
916.40671	13919.325
920.19121	14023.525
923.97308	14057.425
927.75233	14076.125
931.52895	14062.525
935.30295	13973.825
939.07433	13816.825
942.84309	13619.525
946.60924	13508.025
950.37278	13471.825
954.13371	13423.225
957.89203	13351.725
961.64774	13299.625
965.40086	13284.825
969.15137	13186.325
972.89929	13151.925
976.64461	13122.825
980.38733	13090.225
984.12747	13116.225
987.86502	13147.025
991.59999	13193.425
995.33237	13280.525
999.06217	13482.325
1002.78939	13635.925
1006.51404	13809.425
1010.23611	13940.625
1013.95561	14027.125
1017.67255	14091.025
1021.38692	13980.125
1025.09872	13816.225
1028.80796	13736.325
1032.51465	13726.125
1036.21877	13791.025
1039.92035	13858.825
1043.61937	13828.525
1047.31584	13787.125
1051.00976	13720.425
1054.70114	13679.325
1058.38998	13702.025
1062.07627	13707.125
1065.76003	13754.425
1069.44126	13782.725
1073.11995	13796.125
1076.79611	13900.825
1080.46974	13966.425
1084.14085	14036.825
1087.80943	14156.025
1091.47549	14253.725
1095.13903	14195.525
1098.80005	14060.825
1102.45857	13907.825
1106.11456	13798.525
1109.76805	13788.325
1113.41903	13909.425
1117.06751	14070.725
1120.71348	14247.725
1124.35696	14471.625
1127.99793	14696.725
1131.63641	14856.025
1135.2724	14680.825
1138.90589	14473.325
1142.5369	14272.825
1146.16542	14140.925
1149.79145	14091.225
1153.415	14107.925
1157.03607	14192.425
1160.65467	14390.025
1164.27079	14772.625
1167.88443	15291.625
1171.49561	15980.325
1175.10432	16954.325
1178.71056	18233.725
1182.31434	19389.225
1185.91565	19912.525
1189.51451	19729.025
1193.11091	19117.825
1196.70485	18355.025
1200.29634	17610.325
1203.88538	17024.125
1207.47197	16480.625
1211.05612	15979.525
1214.63782	15637.225
1218.21708	15500.725
1221.79391	15429.025
1225.36829	15426.825
1228.94024	15360.625
1232.50976	15200.225
1236.07685	14993.125
1239.6415	14933.425
1243.20374	14902.125
1246.76355	14917.625
1250.32093	15009.925
1253.8759	15221.825
1257.42845	15448.925
1260.97859	15753.925
1264.52631	15993.425
1268.07163	16301.125
1271.61453	16642.725
1275.15503	16925.425
1278.69312	17204.325
1282.22882	17433.725
1285.76211	17750.425
1289.29301	18159.725
1292.82151	18658.825
1296.34761	19310.325
1299.87133	20193.125
1303.39266	21211.125
1306.9116	22510.625
1310.42815	23830.725
1313.94233	24687.325
1317.45412	24609.025
1320.96354	23769.325
1324.47058	22770.125
1327.97525	21881.225
1331.47754	21231.625
1334.97747	20867.525
1338.47502	20800.925
1341.97022	20973.925
1345.46305	21229.025
1348.95352	21651.425
1352.44163	22351.225
1355.92738	23453.825
1359.41078	24891.625
1362.89183	26277.125
1366.37053	25945.025
1369.84688	23458.325
1373.32088	20616.025
1376.79254	18692.325
1380.26186	17823.225
1383.72883	17528.725
1387.19347	17318.925
1390.65578	17042.425
1394.11575	16809.625
1397.57339	16870.225
1401.0287	16952.925
1404.48168	17083.425
1407.93234	17059.525
1411.38068	16938.025
1414.82669	16665.725
1418.27039	16345.125
1421.71177	15978.925
1425.15083	15581.825
1428.58758	15357.025
1432.02203	15363.025
1435.45416	15565.725
1438.88399	15759.525
1442.31151	15956.725
1445.73673	16069.925
1449.15965	16205.425
1452.58027	16240.425
1455.9986	16229.125
1459.41463	16300.825
1462.82837	16447.025
1466.23982	16694.025
1469.64898	16894.525
1473.05586	17101.325
1476.46045	17173.525
1479.86276	17148.025
1483.26279	17115.725
1486.66054	17151.125
1490.05602	17221.525
1493.44922	17441.025
1496.84016	17815.525
1500.22882	18456.025
1503.61521	19539.725
1506.99934	20751.925
1510.38121	21860.525
1513.76081	22199.825
1517.13816	21457.525
1520.51324	20013.825
1523.88607	18660.825
1527.25665	17822.425
1530.62498	17425.925
1533.99105	17238.725
1537.35488	17074.625
1540.71647	16852.525
1544.07581	16649.025
1547.4329	16409.625
1550.78776	16237.025
1554.14038	16136.925
1557.49077	16119.725
1560.83892	16144.925
1564.18484	16249.125
1567.52853	16385.625
1570.86999	16594.225
1574.20922	16830.825
1577.54624	16894.325
1580.88103	16644.225
1584.2136	16259.825
1587.54395	16108.125
1590.87208	16405.125
1594.19801	17058.325
1597.52172	17945.525
1600.84321	18435.825
1604.16251	18107.425
1607.47959	17243.125
1610.79447	16221.525
1614.10715	15184.725
1617.41763	14311.825
1620.7259	13690.225
1624.03199	13366.725
1627.33587	13285.125
1630.63757	13458.025
1633.93707	13960.525
1637.23439	14794.725
1640.52951	16132.425
1643.82246	17806.625
1647.11321	19370.325
1650.40179	20053.425
1653.68819	19240.525
1656.97241	17283.725
1660.25446	15190.025
1663.53433	13670.325
1666.81203	12733.525
1670.08756	12132.625
1673.36092	11781.125
1676.63211	11523.925
1679.90115	11346.425
1683.16801	11224.425
1686.43272	11097.825
1689.69527	11010.325
1692.95567	10918.425
1696.2139	10835.625
1699.46999	10768.125
1702.72392	10722.825
1705.97571	10706.425
1709.22535	10685.625
1712.47284	10666.125
1715.71819	10640.625
1718.96139	10597.825
1722.20246	10583.025
1725.44139	10528.725
1728.67818	10474.925
1731.91284	10409.825
1735.14537	10357.825
1738.37576	10331.025
1741.60403	10264.025
1744.83017	10247.225
1748.05418	10261.625
1751.27607	10271.025
1754.49584	10277.225
1757.71349	10262.725
1760.92903	10230.425
1764.14244	10211.625
1767.35375	10147.625
1770.56294	10088.425
1773.77002	10060.325
1776.97499	9999.025
1780.17785	9968.225
1783.37861	9919.025
1786.57727	9891.025
1789.77382	9858.725
1792.96828	9829.925
1796.16064	9826.025
1799.3509	9764.825
1802.53907	9728.225
1805.72514	9712.825
1808.90913	9672.825
1812.09102	9633.425
1815.27083	9628.225
1818.44856	9598.225
1821.6242	9578.825
1824.79776	9562.525
1827.96924	9543.525
1831.13864	9514.425
1834.30597	9517.425
1837.47122	9511.225
1840.6344	9488.225
1843.7955	9459.025
1846.95454	9440.925
1850.11151	9448.225
1853.26642	9418.625
1856.41926	9401.625
1859.57004	9409.525
1862.71876	9401.125
1865.86542	9394.525
1869.01003	9378.825
1872.15258	9366.425
1875.29308	9361.125
1878.43152	9342.125
1881.56792	9330.425
1884.70227	9317.625
1887.83457	9323.225
1890.96482	9313.025
1894.09304	9303.625
1897.21921	9265.425
1900.34335	9259.925
1903.46544	9268.325
1906.58551	9243.525
1909.70353	9230.625
1912.81953	9201.025
1915.93349	9199.025
1919.04543	9129.625
1922.15534	9114.225
1925.26322	9100.325
1928.36908	9072.625
1931.47292	9044.725
1934.57473	9030.225
1937.67453	9014.725
1940.77232	9001.925
1943.86808	8980.025
1946.96184	8939.725
1950.05358	8905.225
1953.14331	8894.625
1956.23103	8856.925
1959.31675	8840.225
1962.40046	8820.325
1965.48217	8755.825
1968.56188	8739.025
1971.63959	8734.525
1974.7153	8689.625
1977.78901	8667.825
1980.86073	8605.125
1983.93046	8608.825
1986.99819	8593.525
1990.06394	8560.225
1993.1277	8526.625
1996.18947	8505.725
1999.24925	8466.425
2002.30706	8449.525
2005.36288	8407.625
2008.41672	8399.025
2011.46859	8349.525
2014.51848	8314.125
2017.56639	8301.425
2020.61233	8285.725
2023.6563	8267.425
2026.6983	8239.225
2029.73833	8202.425
2032.7764	8210.125
2035.8125	8164.325
2038.84664	8178.125
2041.87881	8130.525
2044.90903	8100.225
2047.93729	8074.025
2050.96359	8086.525
2053.98794	8076.725
2057.01034	8073.425
2060.03078	8068.325
2063.04927	8044.225
2066.06582	8040.925
2069.08042	8018.425
2072.09307	8023.025
2075.10378	7998.825
2078.11255	7988.025
2081.11938	7990.825
2084.12426	7998.125
2087.12722	7978.025
2090.12824	7987.925
2093.12732	7975.925
2096.12447	7981.225
2099.11969	7957.525
2102.11299	7973.625
2105.10435	7959.125
2108.09379	7957.625
2111.08131	7970.425
2114.0669	7966.825
2117.05057	7959.825
2120.03233	7963.325
2123.01216	7961.325
2125.99008	7979.025
2128.96609	7984.325
2131.94018	8000.825
2134.91236	7982.325
2137.88263	7999.525
2140.851	7974.525
2143.81746	7989.525
2146.78201	8000.325
2149.74466	7989.525
2152.7054	7976.825
2155.66425	7965.825
2158.6212	7981.025
2161.57625	7963.225
2164.52941	7932.025
2167.48067	7955.425
2170.43004	7947.625
2173.37752	7935.925
2176.32311	7931.325
2179.26681	7924.825
2182.20863	7911.425
2185.14856	7908.625
2188.08661	7907.625
2191.02278	7900.325
2193.95707	7914.525
2196.88948	7901.125
2199.82001	7917.425
2202.74867	7899.925
2205.67545	7884.625
2208.60037	7868.125
2211.52341	7846.225
2214.44458	7807.125
2217.36388	7790.125
2220.28132	7806.425
2223.1969	7756.025
2226.11061	7767.725
2229.02246	7743.825
2231.93245	7737.125
2234.84058	7704.625
2237.74686	7703.425
2240.65128	7674.525
2243.55385	7676.325
2246.45456	7651.425
2249.35343	7652.525
2252.25044	7621.325
2255.14561	7622.225
2258.03893	7617.425
2260.93041	7608.625
2263.82004	7584.625
2266.70783	7556.125
2269.59378	7546.325
2272.4779	7511.825
2275.36017	7489.925
2278.24061	7481.425
2281.11922	7467.225
2283.996	7451.125
2286.87094	7415.225
2289.74405	7418.925
2292.61534	7398.825
2295.4848	7389.125
2298.35243	7395.425
2301.21824	7368.825
2304.08223	7382.125
2306.94439	7374.825
2309.80474	7357.525
2312.66327	7348.925
2315.51999	7343.225
2318.37489	7326.325
2321.22797	7317.925
2324.07925	7315.525
2326.92871	7307.725
2329.77637	7296.625
2332.62222	7267.425
2335.46626	7264.225
2338.3085	7233.525
2341.14893	7224.825
2343.98756	7240.725
2346.8244	7230.525
2349.65943	7206.525
2352.49267	7205.325
2355.32411	7222.325
2358.15376	7204.725
2360.98161	7214.225
2363.80768	7207.325
2366.63195	7204.325
2369.45444	7188.225
2372.27514	7170.025
2375.09405	7181.325
2377.91118	7161.225
2380.72652	7123.925
2383.54009	7125.725
2386.35187	7102.225
2389.16188	7060.625
2391.97011	7065.025
2394.77657	7029.125
2397.58125	7027.225
2400.38416	6999.925
2403.18529	6997.625
2405.98466	6978.025
2408.78226	6951.925
2411.57809	6959.325
2414.37216	6941.925
2417.16446	6951.925
2419.955	6927.725
2422.74378	6912.025
2425.5308	6918.725
2428.31606	6898.225
2431.09956	6902.425
2433.88131	6867.125
2436.6613	6887.325
2439.43954	6881.425
2442.21603	6860.825
2444.99077	6845.525
2447.76377	6864.825
2450.53501	6854.625
2453.30451	6856.625
2456.07226	6837.325
2458.83827	6814.025
2461.60254	6846.325
2464.36507	6826.225
2467.12586	6798.325
2469.88492	6804.125
2472.64224	6804.725
2475.39782	6796.425
2478.15167	6796.125
2480.90379	6810.725
2483.65417	6785.125
2486.40283	6814.225
2489.14976	6786.225
2491.89497	6795.125
2494.63845	6780.325
2497.3802	6778.925
2500.12024	6784.025
2502.85855	6769.125
2505.59514	6766.125
2508.33002	6739.225
2511.06318	6724.525
2513.79462	6715.825
2516.52435	6691.225
2519.25237	6670.925
2521.97867	6666.725
2524.70327	6660.825
2527.42616	6643.625
2530.14734	6637.225
2532.86681	6629.725
2535.58458	6638.825
2538.30065	6626.425
2541.01501	6643.025
2543.72768	6604.525
2546.43864	6600.225
2549.14791	6553.025
2551.85548	6571.325
2554.56136	6569.825
2557.26554	6548.425
2559.96803	6531.025
2562.66883	6528.225
2565.36794	6527.225
2568.06536	6510.725
2570.7611	6488.425
2573.45514	6501.425
2576.14751	6466.425
2578.83819	6466.125
2581.52719	6461.325
2584.21451	6452.925
2586.90015	6429.125
2589.58411	6415.625
2592.2664	6421.125
2594.94701	6392.925
2597.62594	6380.025
2600.30321	6381.725
2602.9788	6367.625
2605.65273	6370.225
2608.32498	6367.125
2610.99557	6346.625
2613.66449	6356.425
2616.33175	6348.125
2618.99734	6335.625
2621.66128	6339.025
2624.32355	6319.125
2626.98416	6298.825
2629.64311	6299.225
2632.30041	6293.625
2634.95605	6281.425
2637.61004	6278.425
2640.26238	6272.125
2642.91306	6272.925
2645.56209	6289.225
2648.20948	6278.425
2650.85521	6278.025
2653.4993	6241.425
2656.14175	6241.125
2658.78255	6242.125
2661.42171	6235.825
2664.05923	6257.625
2666.6951	6241.125
2669.32934	6239.925
2671.96194	6236.625
2674.59291	6238.425
2677.22224	6236.625
2679.84993	6237.625
2682.476	6224.225
2685.10043	6237.225
2687.72324	6214.325
2690.34441	6215.225
2692.96396	6208.725
2695.58188	6215.025
2698.19818	6214.725
2700.81285	6222.525
2703.4259	6217.325
2706.03733	6198.425
2708.64714	6184.225
2711.25533	6220.725
2713.86191	6197.625
2716.46687	6195.925
2719.07021	6217.925
2721.67194	6214.925
2724.27206	6203.825
2726.87057	6206.525
2729.46747	6203.525
2732.06276	6202.925
2734.65644	6209.225
2737.24852	6181.525
2739.83899	6193.325
2742.42786	6200.725
2745.01513	6183.325
2747.60079	6161.925
2750.18486	6154.225
2752.76733	6151.925
2755.3482	6134.425
2757.92747	6122.025
2760.50515	6101.825
2763.08123	6092.325
2765.65573	6088.025
2768.22863	6095.025
2770.79994	6084.325
2773.36967	6090.725
2775.9378	6069.225
2778.50435	6082.225
2781.06932	6072.525
2783.6327	6053.125
2786.1945	6051.425
2788.75471	6044.525
2791.31335	6035.325
2793.87041	6027.325
2796.42589	6000.125
2798.97979	6014.325
2801.53212	6007.025
2804.08288	5989.925
2806.63206	5963.225
2809.17967	5975.125
2811.72571	5945.925
2814.27018	5951.825
2816.81308	5924.225
2819.35442	5928.525
2821.89419	5918.825
2824.43239	5927.725
2826.96904	5911.925
2829.50412	5906.125
2832.03763	5903.925
2834.56959	5908.025
2837.1	5900.125
2839.62884	5917.225
2842.15613	5918.125
2844.68186	5920.025
2847.20604	5928.025
2849.72867	5947.425
2852.24974	5931.725
2854.76927	5931.025
2857.28724	5918.225
2859.80367	5915.325
2862.31855	5917.025
2864.83189	5895.625
2867.34368	5893.825
2869.85393	5887.225
2872.36264	5880.525
2874.8698	5887.925
2877.37543	5864.825
2879.87952	5864.825
2882.38207	5864.925
2884.88308	5864.825
2887.38256	5880.025
2889.88051	5876.025
2892.37692	5884.525
2894.8718	5891.625
2897.36515	5886.525
2899.85698	5884.625
2902.34727	5903.925
2904.83604	5910.625
2907.32328	5925.125
2909.809	5939.125
2912.29319	5927.625
2914.77587	5924.225
2917.25702	5944.125
2919.73665	5946.825
2922.21476	5954.125
2924.69136	5950.025
2927.16644	5944.125
2929.64	5956.125
2932.11205	5948.025
2934.58258	5924.525
2937.05161	5932.125
2939.51912	5941.325
2941.98513	5916.625
2944.44962	5913.525
2946.91261	5877.225
2949.37409	5868.925
2951.83407	5876.125
2954.29254	5882.325
2956.74951	5877.225
2959.20498	5850.825
2961.65895	5813.925
2964.11142	5822.625
2966.56239	5816.825
2969.01186	5788.225
2971.45984	5784.125
2973.90632	5750.925
2976.35131	5749.025
2978.7948	5731.925
2981.23681	5692.025
2983.67732	5697.925
2986.11635	5673.225
2988.55388	5664.125
2990.98993	5640.425
2993.4245	5636.625
2995.85758	5627.825
2998.28917	5604.225
3000.71928	5594.825
3003.14791	5584.325
3005.57506	5614.725
3008.00073	5574.625
3010.42493	5563.225
3012.84764	5550.125
3015.26888	5557.325
3017.68865	5545.325
3020.10694	5548.225
3022.52376	5516.125
3024.9391	5496.425
3027.35298	5502.225
3029.76539	5485.125
3032.17632	5495.925
3034.5858	5464.125
3036.9938	5444.925
3039.40034	5453.325
3041.80542	5415.125
3044.20903	5426.725
3046.61118	5420.625
3049.01187	5420.725
3051.4111	5416.025
3053.80888	5417.825
3056.20519	5408.725
3058.60005	5387.825
3060.99345	5383.125
3063.3854	5371.925
3065.7759	5350.125
3068.16494	5343.525
3070.55254	5324.525
3072.93868	5306.925
3075.32338	5301.425
3077.70662	5306.125
3080.08842	5294.025
3082.46878	5289.625
3084.84769	5282.025
3087.22515	5279.625
3089.60118	5279.825
3091.97576	5293.325
3094.3489	5281.325
3096.72061	5280.925
3099.09087	5283.925
3101.4597	5264.525
3103.82709	5290.725
3106.19305	5270.125
3108.55757	5291.225
3110.92066	5252.425
3113.28232	5255.725
3115.64255	5252.325
3118.00134	5242.225
3120.35871	5229.225
3122.71466	5208.225
3125.06917	5209.525
3127.42226	5203.425
3129.77393	5220.525
3132.12417	5210.625
3134.47299	5224.425
3136.82039	5220.525
3139.16636	5213.825
3141.51092	5209.825
3143.85406	5223.525
3146.19579	5206.325
3148.53609	5216.725
3150.87499	5230.125
3153.21246	5229.125
3155.54853	5243.225
3157.88318	5228.125
3160.21642	5261.425
3162.54826	5242.825
3164.87868	5268.725
3167.2077	5257.925
3169.5353	5248.825
3171.86151	5248.125
3174.18631	5247.925
3176.5097	5244.125
3178.83169	5231.925
3181.15228	5225.325
3183.47147	5232.725
3185.78926	5227.025
