Data from AgNPs_FTO_APTES_UA_50uM_CRN_1uM_R6G_10uM_NaF_0.1M_Addition_RamanShift__22__11-41-14-737.txt Node

Date: Mon Feb 21 11:41:14 GMT 2022
User: TCL
Spectrometer: QEP01345
Trigger mode: 4
Integration Time (sec): 7.000000E0
Scans to average: 10
Electric dark correction enabled: true
Nonlinearity correction enabled: false
Boxcar width: 0
XAxis mode: Raman Shifts
Number of Pixels in Spectrum: 1044
>>>>>Begin Spectral Data<<<<<
46.04893	0.475
50.45542	-1.025
54.85868	-0.425
59.25871	-1.525
63.6555	66.275
68.04907	68.675
72.43941	72.675
76.82654	73.375
81.21044	79.875
85.59113	82.875
89.96862	82.975
94.34289	88.575
98.71396	89.075
103.08183	94.275
107.4465	95.875
111.80798	95.475
116.16626	95.775
120.52136	98.075
124.87327	106.975
129.222	104.375
133.56755	111.975
137.90993	119.875
142.24913	129.875
146.58517	145.475
150.91804	168.075
155.24774	198.675
159.57429	241.375
163.89768	311.275
168.21792	415.275
172.53501	562.075
176.84895	792.475
181.15975	1108.475
185.46741	1548.375
189.77193	2140.275
194.07331	2856.875
198.37157	3682.275
202.6667	4559.775
206.9587	5403.675
211.24758	6274.175
215.53334	7166.575
219.81599	8099.675
224.09553	9178.775
228.37195	10364.975
232.64527	11671.775
236.91549	13001.375
241.18261	14292.475
245.44663	15400.875
249.70755	16376.975
253.96539	17178.375
258.22014	17988.175
262.4718	18563.575
266.72039	18971.475
270.96589	19207.775
275.20832	19184.775
279.44768	18998.475
283.68397	18777.075
287.91719	18600.575
292.14735	18559.275
296.37445	18686.975
300.59849	19042.275
304.81948	19378.375
309.03742	19609.175
313.25231	19523.675
317.46415	18917.475
321.67296	18043.575
325.87872	17288.075
330.08145	16923.775
334.28114	16882.375
338.47781	17075.275
342.67145	17397.375
346.86207	17847.475
351.04966	18501.475
355.23424	19203.875
359.4158	19866.475
363.59435	20206.675
367.76989	20375.275
371.94243	20469.575
376.11196	20431.975
380.27849	20434.875
384.44203	20447.775
388.60257	20377.275
392.76012	20455.975
396.91468	20675.275
401.06626	21118.975
405.21485	21382.175
409.36047	21216.075
413.50311	20599.475
417.64277	20087.775
421.77947	19773.575
425.9132	19739.875
430.04396	19766.175
434.17176	19837.375
438.2966	20072.975
442.41849	20450.375
446.53742	21058.075
450.6534	21701.575
454.76644	22212.075
458.87653	22405.375
462.98368	22274.275
467.08789	21968.175
471.18916	21565.875
475.2875	21098.675
479.38291	20813.075
483.4754	20597.275
487.56496	20396.275
491.6516	20067.775
495.73531	19818.475
499.81612	19756.875
503.89401	19876.575
507.96899	19978.875
512.04106	20055.475
516.11023	20040.275
520.1765	20031.475
524.23987	19947.475
528.30034	19791.675
532.35792	19548.275
536.41261	19238.075
540.46441	18953.375
544.51333	18831.775
548.55936	19021.175
552.60252	19448.475
556.64279	19933.975
560.6802	20308.375
564.71473	20557.475
568.7464	21158.675
572.7752	21680.675
576.80114	21702.575
580.82422	21624.175
584.84444	21718.075
588.86181	21894.775
592.87633	22238.575
596.888	22544.075
600.89682	22708.775
604.9028	23938.575
608.90594	27726.075
612.90624	32399.575
616.90371	30842.575
620.89834	23948.075
624.89015	20702.975
628.87913	20203.575
632.86528	20213.975
636.84862	20271.375
640.82913	19881.175
644.80683	19179.475
648.78172	18603.675
652.75379	18498.975
656.72306	18923.975
660.68952	19555.875
664.65319	19506.275
668.61405	18941.075
672.57211	18713.875
676.52738	18739.175
680.47986	18744.575
684.42955	18589.475
688.37646	18549.275
692.32058	18669.175
696.26192	18846.275
700.20048	19096.675
704.13626	19191.975
708.06928	19078.175
711.99952	18887.075
715.927	18822.275
719.85171	18956.475
723.77365	18952.475
727.69284	18683.475
731.60928	18484.975
735.52295	18433.675
739.43388	18469.675
743.34206	18578.675
747.24749	18660.075
751.15017	18813.175
755.05012	19144.675
758.94733	19838.075
762.8418	21391.075
766.73354	23912.075
770.62254	26419.875
774.50882	27428.075
778.39237	26163.375
782.27321	23485.775
786.15132	21104.775
790.02671	19584.975
793.89938	18937.375
797.76935	18625.075
801.6366	18537.975
805.50115	18446.875
809.36299	18391.075
813.22213	18243.375
817.07857	18179.875
820.93231	18120.575
824.78336	18126.675
828.63172	18118.375
832.47738	18098.875
836.32036	18106.675
840.16066	18160.875
843.99827	18186.375
847.8332	18146.775
851.66546	18083.675
855.49504	18028.075
859.32195	18021.175
863.1462	17918.375
866.96777	17831.675
870.78668	17824.975
874.60293	17822.475
878.41652	17862.475
882.22745	17974.475
886.03573	18043.375
889.84136	18039.275
893.64433	17944.375
897.44466	17860.875
901.24235	17795.975
905.0374	17701.275
908.8298	17616.375
912.61957	17593.775
916.40671	17704.875
920.19121	17923.975
923.97308	18152.975
927.75233	18342.775
931.52895	18382.475
935.30295	18192.375
939.07433	17797.275
942.84309	17477.475
946.60924	17299.075
950.37278	17208.875
954.13371	17134.775
957.89203	16989.475
961.64774	16938.175
965.40086	16894.675
969.15137	16843.075
972.89929	16786.675
976.64461	16736.875
980.38733	16745.275
984.12747	16839.475
987.86502	17019.575
991.59999	17291.775
995.33237	17658.175
999.06217	18308.775
1002.78939	19053.075
1006.51404	19622.875
1010.23611	19955.375
1013.95561	20114.775
1017.67255	20128.275
1021.38692	19896.275
1025.09872	19661.875
1028.80796	19782.575
1032.51465	20318.875
1036.21877	20818.075
1039.92035	20945.275
1043.61937	20718.775
1047.31584	20154.275
1051.00976	19546.375
1054.70114	19126.375
1058.38998	19014.575
1062.07627	19059.875
1065.76003	19113.075
1069.44126	19243.675
1073.11995	19479.175
1076.79611	19779.775
1080.46974	19998.675
1084.14085	20337.475
1087.80943	20746.075
1091.47549	20916.275
1095.13903	20765.375
1098.80005	20283.675
1102.45857	19796.375
1106.11456	19541.075
1109.76805	19554.075
1113.41903	19762.175
1117.06751	20165.675
1120.71348	20668.975
1124.35696	21181.275
1127.99793	21650.975
1131.63641	21680.175
1135.2724	21254.475
1138.90589	20731.675
1142.5369	20385.375
1146.16542	20177.575
1149.79145	20091.475
1153.415	20183.075
1157.03607	20417.775
1160.65467	20890.675
1164.27079	21670.175
1167.88443	22885.475
1171.49561	24564.375
1175.10432	27000.775
1178.71056	30176.075
1182.31434	33144.975
1185.91565	34513.675
1189.51451	34285.375
1193.11091	32728.375
1196.70485	30838.875
1200.29634	29085.075
1203.88538	27624.475
1207.47197	26415.075
1211.05612	25320.275
1214.63782	24744.075
1218.21708	24536.775
1221.79391	24589.475
1225.36829	24687.175
1228.94024	24492.475
1232.50976	24086.075
1236.07685	23767.475
1239.6415	23530.975
1243.20374	23473.775
1246.76355	23548.475
1250.32093	23866.775
1253.8759	24465.275
1257.42845	25299.275
1260.97859	26120.375
1264.52631	26978.675
1268.07163	27841.975
1271.61453	28780.275
1275.15503	29647.675
1278.69312	30509.875
1282.22882	31193.775
1285.76211	31927.275
1289.29301	32805.075
1292.82151	33855.475
1296.34761	35219.975
1299.87133	37155.375
1303.39266	39892.375
1306.9116	43460.375
1310.42815	47191.075
1313.94233	49325.175
1317.45412	48979.175
1320.96354	46988.975
1324.47058	44616.875
1327.97525	42602.875
1331.47754	41348.975
1334.97747	40900.675
1338.47502	41086.875
1341.97022	41400.075
1345.46305	41530.875
1348.95352	41680.375
1352.44163	42323.375
1355.92738	44196.175
1359.41078	47888.275
1362.89183	51488.575
1366.37053	50459.175
1369.84688	44496.175
1373.32088	38274.275
1376.79254	34245.075
1380.26186	32348.475
1383.72883	31568.875
1387.19347	31014.375
1390.65578	30513.375
1394.11575	30283.875
1397.57339	30544.575
1401.0287	31159.575
1404.48168	31739.575
1407.93234	32232.475
1411.38068	32367.575
1414.82669	31951.475
1418.27039	31014.175
1421.71177	29834.075
1425.15083	28813.075
1428.58758	28257.675
1432.02203	28275.175
1435.45416	28741.075
1438.88399	29173.575
1442.31151	29532.675
1445.73673	29857.375
1449.15965	30227.575
1452.58027	30449.675
1455.9986	30470.075
1459.41463	30635.875
1462.82837	30976.875
1466.23982	31590.075
1469.64898	32244.475
1473.05586	32588.975
1476.46045	32651.275
1479.86276	32699.275
1483.26279	32864.375
1486.66054	33097.875
1490.05602	33633.775
1493.44922	34286.675
1496.84016	35228.075
1500.22882	36707.175
1503.61521	39042.075
1506.99934	42018.475
1510.38121	44485.775
1513.76081	45017.575
1517.13816	42858.475
1520.51324	39248.375
1523.88607	35936.575
1527.25665	33835.175
1530.62498	32738.275
1533.99105	32055.475
1537.35488	31665.975
1540.71647	31267.775
1544.07581	30860.475
1547.4329	30499.175
1550.78776	30128.475
1554.14038	29891.775
1557.49077	29848.375
1560.83892	29971.475
1564.18484	30224.575
1567.52853	30530.575
1570.86999	30873.675
1574.20922	31199.675
1577.54624	31261.775
1580.88103	30685.175
1584.2136	30122.275
1587.54395	30403.575
1590.87208	31758.475
1594.19801	34114.475
1597.52172	36636.675
1600.84321	37648.575
1604.16251	36174.675
1607.47959	33414.875
1610.79447	30300.075
1614.10715	27490.575
1617.41763	25222.775
1620.7259	23741.475
1624.03199	23040.175
1627.33587	23097.275
1630.63757	23821.675
1633.93707	25352.375
1637.23439	27749.875
1640.52951	31051.375
1643.82246	34835.175
1647.11321	38201.175
1650.40179	39377.775
1653.68819	37008.075
1656.97241	31950.275
1660.25446	26799.175
1663.53433	23062.875
1666.81203	20804.175
1670.08756	19457.275
1673.36092	18622.975
1676.63211	18126.675
1679.90115	17711.175
1683.16801	17429.975
1686.43272	17217.475
1689.69527	17005.575
1692.95567	16783.975
1696.2139	16645.275
1699.46999	16505.975
1702.72392	16396.175
1705.97571	16442.475
1709.22535	16528.575
1712.47284	16565.975
1715.71819	16574.875
1718.96139	16514.275
1722.20246	16502.575
1725.44139	16392.575
1728.67818	16291.675
1731.91284	16152.975
1735.14537	16090.975
1738.37576	16014.475
1741.60403	15942.275
1744.83017	15873.975
1748.05418	15835.675
1751.27607	15748.775
1754.49584	15687.175
1757.71349	15619.975
1760.92903	15544.375
1764.14244	15521.575
1767.35375	15535.675
1770.56294	15531.375
1773.77002	15509.375
1776.97499	15524.975
1780.17785	15529.075
1783.37861	15573.275
1786.57727	15551.275
1789.77382	15553.375
1792.96828	15537.275
1796.16064	15547.975
1799.3509	15507.075
1802.53907	15459.475
1805.72514	15398.475
1808.90913	15403.075
1812.09102	15373.275
1815.27083	15336.875
1818.44856	15316.575
1821.6242	15296.075
1824.79776	15307.675
1827.96924	15272.575
1831.13864	15262.575
1834.30597	15275.975
1837.47122	15289.575
1840.6344	15282.375
1843.7955	15290.175
1846.95454	15268.275
1850.11151	15249.675
1853.26642	15218.575
1856.41926	15231.775
1859.57004	15259.275
1862.71876	15257.775
1865.86542	15279.175
1869.01003	15280.275
1872.15258	15247.075
1875.29308	15279.275
1878.43152	15257.475
1881.56792	15283.475
1884.70227	15285.375
1887.83457	15286.575
1890.96482	15257.675
1894.09304	15269.775
1897.21921	15276.875
1900.34335	15240.575
1903.46544	15264.975
1906.58551	15292.675
1909.70353	15218.875
1912.81953	15263.775
1915.93349	15199.275
1919.04543	15185.375
1922.15534	15139.975
1925.26322	15087.075
1928.36908	15036.775
1931.47292	14979.075
1934.57473	14917.475
1937.67453	14898.875
1940.77232	14832.275
1943.86808	14795.875
1946.96184	14719.575
1950.05358	14720.475
1953.14331	14635.075
1956.23103	14555.775
1959.31675	14534.975
1962.40046	14487.475
1965.48217	14481.175
1968.56188	14472.775
1971.63959	14416.175
1974.7153	14353.075
1977.78901	14352.475
1980.86073	14286.075
1983.93046	14221.275
1986.99819	14150.375
1990.06394	14142.075
1993.1277	14092.575
1996.18947	14057.875
1999.24925	14000.775
2002.30706	13960.975
2005.36288	13941.075
2008.41672	13902.175
2011.46859	13884.475
2014.51848	13822.375
2017.56639	13775.375
2020.61233	13739.975
2023.6563	13723.575
2026.6983	13706.575
2029.73833	13670.475
2032.7764	13648.875
2035.8125	13612.275
2038.84664	13614.475
2041.87881	13639.475
2044.90903	13605.775
2047.93729	13575.875
2050.96359	13549.075
2053.98794	13551.675
2057.01034	13534.975
2060.03078	13508.575
2063.04927	13489.275
2066.06582	13484.975
2069.08042	13446.975
2072.09307	13461.675
2075.10378	13452.575
2078.11255	13440.175
2081.11938	13432.575
2084.12426	13414.675
2087.12722	13415.275
2090.12824	13390.875
2093.12732	13413.175
2096.12447	13406.575
2099.11969	13405.375
2102.11299	13396.675
2105.10435	13408.175
2108.09379	13404.075
2111.08131	13439.875
2114.0669	13410.975
2117.05057	13463.775
2120.03233	13445.375
2123.01216	13485.175
2125.99008	13482.475
2128.96609	13531.275
2131.94018	13497.475
2134.91236	13468.475
2137.88263	13511.975
2140.851	13552.275
2143.81746	13539.175
2146.78201	13541.075
2149.74466	13547.575
2152.7054	13533.875
2155.66425	13538.775
2158.6212	13546.475
2161.57625	13510.275
2164.52941	13501.775
2167.48067	13537.475
2170.43004	13501.575
2173.37752	13480.875
2176.32311	13490.775
2179.26681	13496.275
2182.20863	13487.575
2185.14856	13518.575
2188.08661	13516.675
2191.02278	13525.875
2193.95707	13515.275
2196.88948	13528.175
2199.82001	13506.475
2202.74867	13532.075
2205.67545	13501.475
2208.60037	13504.375
2211.52341	13524.975
2214.44458	13482.475
2217.36388	13456.175
2220.28132	13447.875
2223.1969	13429.175
2226.11061	13428.675
2229.02246	13390.375
2231.93245	13366.475
2234.84058	13335.075
2237.74686	13272.675
2240.65128	13270.875
2243.55385	13237.475
2246.45456	13249.275
2249.35343	13216.375
2252.25044	13233.275
2255.14561	13227.875
2258.03893	13233.575
2260.93041	13159.675
2263.82004	13148.075
2266.70783	13157.975
2269.59378	13114.575
2272.4779	13075.375
2275.36017	13066.675
2278.24061	13042.275
2281.11922	13006.775
2283.996	13015.475
2286.87094	12979.775
2289.74405	12972.475
2292.61534	12946.675
2295.4848	12960.075
2298.35243	12940.675
2301.21824	12933.975
2304.08223	12956.975
2306.94439	12962.275
2309.80474	12991.075
2312.66327	13001.075
2315.51999	12985.275
2318.37489	12981.475
2321.22797	12980.875
2324.07925	12978.375
2326.92871	12975.075
2329.77637	12959.575
2332.62222	12945.875
2335.46626	12922.875
2338.3085	12918.675
2341.14893	12973.575
2343.98756	12984.175
2346.8244	12988.275
2349.65943	13002.575
2352.49267	13004.275
2355.32411	13013.475
2358.15376	12995.875
2360.98161	13006.075
2363.80768	12966.275
2366.63195	12977.975
2369.45444	12921.775
2372.27514	12921.075
2375.09405	12883.775
2377.91118	12859.475
2380.72652	12805.575
2383.54009	12765.175
2386.35187	12757.175
2389.16188	12743.775
2391.97011	12715.675
2394.77657	12734.775
2397.58125	12694.175
2400.38416	12705.075
2403.18529	12683.075
2405.98466	12661.275
2408.78226	12605.675
2411.57809	12578.775
2414.37216	12531.875
2417.16446	12543.375
2419.955	12539.675
2422.74378	12534.175
2425.5308	12478.875
2428.31606	12475.675
2431.09956	12506.275
2433.88131	12496.375
2436.6613	12502.875
2439.43954	12518.175
2442.21603	12499.975
2444.99077	12482.675
2447.76377	12512.375
2450.53501	12489.975
2453.30451	12514.975
2456.07226	12483.175
2458.83827	12512.575
2461.60254	12483.475
2464.36507	12473.675
2467.12586	12453.975
2469.88492	12472.275
2472.64224	12502.475
2475.39782	12480.375
2478.15167	12519.475
2480.90379	12540.975
2483.65417	12574.575
2486.40283	12586.275
2489.14976	12613.375
2491.89497	12574.175
2494.63845	12595.375
2497.3802	12546.975
2500.12024	12617.575
2502.85855	12598.475
2505.59514	12570.075
2508.33002	12551.875
2511.06318	12554.275
2513.79462	12513.575
2516.52435	12496.175
2519.25237	12436.975
2521.97867	12427.875
2524.70327	12426.475
2527.42616	12422.975
2530.14734	12436.275
2532.86681	12447.775
2535.58458	12421.875
2538.30065	12420.575
2541.01501	12445.375
2543.72768	12435.275
2546.43864	12426.775
2549.14791	12440.475
2551.85548	12400.175
2554.56136	12412.675
2557.26554	12383.375
2559.96803	12387.975
2562.66883	12353.475
2565.36794	12325.475
2568.06536	12337.175
2570.7611	12328.175
2573.45514	12332.275
2576.14751	12347.175
2578.83819	12323.175
2581.52719	12322.075
2584.21451	12311.075
2586.90015	12341.675
2589.58411	12309.475
2592.2664	12328.375
2594.94701	12333.675
2597.62594	12327.975
2600.30321	12315.875
2602.9788	12316.675
2605.65273	12323.375
2608.32498	12309.975
2610.99557	12328.075
2613.66449	12328.075
2616.33175	12296.175
2618.99734	12355.175
2621.66128	12322.075
2624.32355	12318.775
2626.98416	12355.575
2629.64311	12352.875
2632.30041	12333.675
2634.95605	12328.375
2637.61004	12301.275
2640.26238	12299.875
2642.91306	12297.175
2645.56209	12277.775
2648.20948	12244.775
2650.85521	12248.775
2653.4993	12237.775
2656.14175	12237.275
2658.78255	12259.275
2661.42171	12260.475
2664.05923	12300.775
2666.6951	12294.175
2669.32934	12329.075
2671.96194	12325.975
2674.59291	12328.475
2677.22224	12332.275
2679.84993	12316.775
2682.476	12313.875
2685.10043	12302.775
2687.72324	12291.675
2690.34441	12294.375
2692.96396	12286.975
2695.58188	12282.175
2698.19818	12261.775
2700.81285	12255.775
2703.4259	12225.875
2706.03733	12137.275
2708.64714	12155.575
2711.25533	12252.875
2713.86191	12285.175
2716.46687	12329.975
2719.07021	12332.375
2721.67194	12358.075
2724.27206	12331.875
2726.87057	12360.875
2729.46747	12378.875
2732.06276	12367.175
2734.65644	12358.375
2737.24852	12348.375
2739.83899	12348.575
2742.42786	12349.475
2745.01513	12352.975
2747.60079	12347.275
2750.18486	12323.775
2752.76733	12324.375
2755.3482	12290.075
2757.92747	12303.875
2760.50515	12297.875
2763.08123	12293.975
2765.65573	12271.875
2768.22863	12275.875
2770.79994	12253.175
2773.36967	12250.275
2775.9378	12258.275
2778.50435	12231.975
2781.06932	12263.775
2783.6327	12284.375
2786.1945	12284.575
2788.75471	12293.775
2791.31335	12245.075
2793.87041	12249.075
2796.42589	12214.675
2798.97979	12210.175
2801.53212	12185.875
2804.08288	12148.575
2806.63206	12139.775
2809.17967	12132.275
2811.72571	12121.575
2814.27018	12120.075
2816.81308	12102.575
2819.35442	12120.475
2821.89419	12080.875
2824.43239	12092.275
2826.96904	12072.975
2829.50412	12059.875
2832.03763	12059.475
2834.56959	12047.275
2837.1	12048.375
2839.62884	12054.075
2842.15613	12025.875
2844.68186	12033.775
2847.20604	12054.975
2849.72867	12029.875
2852.24974	11980.575
2854.76927	12003.975
2857.28724	11970.175
2859.80367	11954.075
2862.31855	11932.975
2864.83189	11962.075
2867.34368	11936.675
2869.85393	11987.975
2872.36264	11972.175
2874.8698	12005.375
2877.37543	11985.475
2879.87952	11976.075
2882.38207	11987.875
2884.88308	11986.875
2887.38256	11994.375
2889.88051	11975.275
2892.37692	11973.075
2894.8718	11978.275
2897.36515	11987.275
2899.85698	12002.175
2902.34727	12032.575
2904.83604	12050.475
2907.32328	12046.275
2909.809	12046.775
2912.29319	12074.875
2914.77587	12080.875
2917.25702	12065.675
2919.73665	12035.775
2922.21476	12027.575
2924.69136	12004.075
2927.16644	12004.575
2929.64	11972.275
2932.11205	11961.475
2934.58258	11912.675
2937.05161	11917.075
2939.51912	11942.475
2941.98513	11909.275
2944.44962	11908.275
2946.91261	11866.275
2949.37409	11891.575
2951.83407	11894.775
2954.29254	11898.275
2956.74951	11873.675
2959.20498	11869.675
2961.65895	11854.775
2964.11142	11862.875
2966.56239	11817.075
2969.01186	11847.775
2971.45984	11803.275
2973.90632	11794.675
2976.35131	11752.275
2978.7948	11718.775
2981.23681	11687.575
2983.67732	11692.875
2986.11635	11671.875
2988.55388	11627.575
2990.98993	11614.775
2993.4245	11573.775
2995.85758	11560.875
2998.28917	11536.675
3000.71928	11530.075
3003.14791	11524.475
3005.57506	11486.675
3008.00073	11447.575
3010.42493	11439.275
3012.84764	11424.675
3015.26888	11413.675
3017.68865	11374.075
3020.10694	11383.875
3022.52376	11308.775
3024.9391	11320.475
3027.35298	11305.675
3029.76539	11315.075
3032.17632	11318.575
3034.5858	11288.775
3036.9938	11285.775
3039.40034	11270.475
3041.80542	11238.675
3044.20903	11207.575
3046.61118	11222.675
3049.01187	11191.075
3051.4111	11178.675
3053.80888	11153.275
3056.20519	11127.975
3058.60005	11123.575
3060.99345	11106.475
3063.3854	11066.375
3065.7759	11024.875
3068.16494	11023.475
3070.55254	10971.475
3072.93868	10940.275
3075.32338	10901.475
3077.70662	10871.875
3080.08842	10830.575
3082.46878	10805.675
3084.84769	10800.075
3087.22515	10779.775
3089.60118	10769.375
3091.97576	10785.175
3094.3489	10785.575
3096.72061	10801.175
3099.09087	10816.875
3101.4597	10791.675
3103.82709	10794.675
3106.19305	10763.075
3108.55757	10757.175
3110.92066	10753.875
3113.28232	10716.375
3115.64255	10706.875
3118.00134	10690.375
3120.35871	10677.275
3122.71466	10612.475
3125.06917	10617.875
3127.42226	10599.775
