Data from AgNPs_FTO_APTES_UA_50uM_CRN_0uM_R6G_10uM_NaF_0.1M_Addition_RamanShift__30__10-45-14-661.txt Node

Date: Mon Feb 21 10:45:14 GMT 2022
User: TCL
Spectrometer: QEP01345
Trigger mode: 4
Integration Time (sec): 7.000000E0
Scans to average: 10
Electric dark correction enabled: true
Nonlinearity correction enabled: false
Boxcar width: 0
XAxis mode: Raman Shifts
Number of Pixels in Spectrum: 1044
>>>>>Begin Spectral Data<<<<<
46.04893	1.025
50.45542	0.125
54.85868	0.525
59.25871	-1.675
63.6555	42.925
68.04907	51.225
72.43941	51.625
76.82654	54.625
81.21044	58.325
85.59113	60.025
89.96862	58.725
94.34289	64.625
98.71396	63.625
103.08183	68.025
107.4465	69.325
111.80798	73.825
116.16626	69.325
120.52136	71.125
124.87327	80.225
129.222	76.625
133.56755	79.925
137.90993	89.025
142.24913	93.225
146.58517	101.825
150.91804	119.825
155.24774	137.725
159.57429	170.925
163.89768	215.625
168.21792	286.725
172.53501	386.525
176.84895	538.125
181.15975	756.825
185.46741	1051.325
189.77193	1457.225
194.07331	1939.725
198.37157	2496.825
202.6667	3108.425
206.9587	3696.325
211.24758	4264.125
215.53334	4845.725
219.81599	5445.725
224.09553	6100.825
228.37195	6842.225
232.64527	7673.225
236.91549	8507.725
241.18261	9383.125
245.44663	10188.625
249.70755	10939.025
253.96539	11559.325
258.22014	12071.425
262.4718	12452.325
266.72039	12714.425
270.96589	12823.625
275.20832	12762.125
279.44768	12650.525
283.68397	12474.225
287.91719	12323.725
292.14735	12211.925
296.37445	12178.025
300.59849	12164.325
304.81948	12221.225
309.03742	12249.425
313.25231	12269.425
317.46415	12154.325
321.67296	11953.625
325.87872	11785.125
330.08145	11674.725
334.28114	11635.825
338.47781	11665.825
342.67145	11801.125
346.86207	11981.225
351.04966	12181.625
355.23424	12406.325
359.4158	12605.625
363.59435	12770.725
367.76989	12829.025
371.94243	12865.425
376.11196	12842.225
380.27849	12885.525
384.44203	12866.325
388.60257	12951.025
392.76012	13082.525
396.91468	13299.725
401.06626	13464.825
405.21485	13625.325
409.36047	13561.825
413.50311	13389.625
417.64277	13356.225
421.77947	13384.025
425.9132	13435.325
430.04396	13510.925
434.17176	13550.525
438.2966	13620.925
442.41849	13755.425
446.53742	14029.925
450.6534	14400.825
454.76644	14621.125
458.87653	14687.825
462.98368	14649.425
467.08789	14536.725
471.18916	14351.825
475.2875	14145.825
479.38291	13996.025
483.4754	13941.825
487.56496	13883.225
491.6516	13773.225
495.73531	13634.625
499.81612	13527.625
503.89401	13614.825
507.96899	13651.025
512.04106	13666.025
516.11023	13611.125
520.1765	13473.825
524.23987	13364.425
528.30034	13253.925
532.35792	13169.325
536.41261	13013.825
540.46441	12870.725
544.51333	12843.925
548.55936	12928.025
552.60252	13135.425
556.64279	13424.925
560.6802	13654.025
564.71473	13815.325
568.7464	14065.225
572.7752	14510.825
576.80114	15065.025
580.82422	15634.325
584.84444	16323.725
588.86181	17288.425
592.87633	18259.325
596.888	18309.325
600.89682	17202.425
604.9028	16437.125
608.90594	16920.725
612.90624	17735.825
616.90371	16757.125
620.89834	14588.525
624.89015	13590.125
628.87913	13501.325
632.86528	13665.925
636.84862	13695.825
640.82913	13415.625
644.80683	13095.925
648.78172	12909.825
652.75379	12921.025
656.72306	13074.025
660.68952	13230.225
664.65319	13192.425
668.61405	12962.325
672.57211	12967.425
676.52738	13044.225
680.47986	13066.925
684.42955	12943.825
688.37646	12865.825
692.32058	12965.125
696.26192	13133.825
700.20048	13304.125
704.13626	13405.125
708.06928	13457.425
711.99952	13474.525
715.927	13531.125
719.85171	13486.825
723.77365	13380.025
727.69284	13149.925
731.60928	12938.625
735.52295	12836.525
739.43388	12863.925
743.34206	12923.425
747.24749	12996.625
751.15017	13159.025
755.05012	13370.125
758.94733	13688.425
762.8418	14254.325
766.73354	15126.025
770.62254	15891.525
774.50882	15988.325
778.39237	15372.725
782.27321	14539.925
786.15132	13873.925
790.02671	13391.025
793.89938	13115.925
797.76935	12982.525
801.6366	12933.925
805.50115	12894.725
809.36299	12862.825
813.22213	12781.225
817.07857	12755.725
820.93231	12687.425
824.78336	12658.325
828.63172	12600.025
832.47738	12556.525
836.32036	12545.025
840.16066	12561.825
843.99827	12557.925
847.8332	12580.225
851.66546	12587.325
855.49504	12619.925
859.32195	12628.725
863.1462	12596.625
866.96777	12596.025
870.78668	12582.525
874.60293	12560.825
878.41652	12609.525
882.22745	12659.025
886.03573	12703.825
889.84136	12726.625
893.64433	12664.025
897.44466	12668.125
901.24235	12647.625
905.0374	12632.325
908.8298	12597.725
912.61957	12579.525
916.40671	12679.225
920.19121	12828.025
923.97308	12995.125
927.75233	13078.425
931.52895	12906.625
935.30295	12700.125
939.07433	12444.925
942.84309	12246.225
946.60924	12206.625
950.37278	12141.825
954.13371	12114.625
957.89203	12106.025
961.64774	12108.125
965.40086	12126.525
969.15137	12112.425
972.89929	12072.325
976.64461	12035.525
980.38733	11990.725
984.12747	11988.925
987.86502	12041.825
991.59999	12088.025
995.33237	12180.525
999.06217	12314.025
1002.78939	12495.125
1006.51404	12753.225
1010.23611	13000.625
1013.95561	13151.725
1017.67255	13175.725
1021.38692	13089.325
1025.09872	12900.725
1028.80796	12686.825
1032.51465	12593.625
1036.21877	12625.825
1039.92035	12674.925
1043.61937	12727.025
1047.31584	12787.925
1051.00976	12814.525
1054.70114	12834.725
1058.38998	12885.725
1062.07627	13004.025
1065.76003	13152.025
1069.44126	13335.625
1073.11995	13609.125
1076.79611	13866.525
1080.46974	13990.625
1084.14085	14060.325
1087.80943	14175.725
1091.47549	14329.625
1095.13903	14387.025
1098.80005	14184.525
1102.45857	13803.225
1106.11456	13498.025
1109.76805	13328.825
1113.41903	13309.725
1117.06751	13351.725
1120.71348	13436.625
1124.35696	13570.925
1127.99793	13703.525
1131.63641	13806.125
1135.2724	13827.425
1138.90589	13767.625
1142.5369	13788.325
1146.16542	13897.225
1149.79145	14043.625
1153.415	14157.825
1157.03607	14296.925
1160.65467	14590.425
1164.27079	15102.225
1167.88443	15748.525
1171.49561	16432.225
1175.10432	17307.425
1178.71056	18442.325
1182.31434	19476.625
1185.91565	19979.925
1189.51451	19959.025
1193.11091	19545.925
1196.70485	18976.025
1200.29634	18431.225
1203.88538	17959.125
1207.47197	17685.525
1211.05612	17534.125
1214.63782	17339.525
1218.21708	16934.425
1221.79391	16467.825
1225.36829	16174.525
1228.94024	16000.025
1232.50976	15845.625
1236.07685	15631.525
1239.6415	15470.825
1243.20374	15377.325
1246.76355	15401.025
1250.32093	15544.725
1253.8759	15819.625
1257.42845	16218.625
1260.97859	16691.325
1264.52631	17194.925
1268.07163	17714.925
1271.61453	18182.625
1275.15503	18675.825
1278.69312	19200.825
1282.22882	19881.125
1285.76211	20629.825
1289.29301	21483.625
1292.82151	22388.525
1296.34761	23445.025
1299.87133	24608.625
1303.39266	25778.225
1306.9116	26724.225
1310.42815	27349.325
1313.94233	27585.325
1317.45412	27291.425
1320.96354	26707.525
1324.47058	26212.525
1327.97525	25983.425
1331.47754	25739.025
1334.97747	25501.525
1338.47502	25123.425
1341.97022	24781.425
1345.46305	24470.225
1348.95352	24329.225
1352.44163	24441.425
1355.92738	24985.125
1359.41078	26052.425
1362.89183	27137.725
1366.37053	27237.525
1369.84688	25606.125
1373.32088	23071.925
1376.79254	21087.625
1380.26186	20192.425
1383.72883	20065.625
1387.19347	19876.225
1390.65578	19595.125
1394.11575	19400.525
1397.57339	19547.125
1401.0287	19828.325
1404.48168	20012.625
1407.93234	19950.425
1411.38068	19542.225
1414.82669	18979.325
1418.27039	18283.325
1421.71177	17693.425
1425.15083	17222.325
1428.58758	17057.625
1432.02203	17222.225
1435.45416	17618.825
1438.88399	18069.725
1442.31151	18277.425
1445.73673	18386.925
1449.15965	18444.525
1452.58027	18445.525
1455.9986	18436.325
1459.41463	18580.725
1462.82837	18843.225
1466.23982	19132.625
1469.64898	19447.025
1473.05586	19641.325
1476.46045	19640.725
1479.86276	19698.725
1483.26279	19623.725
1486.66054	19708.625
1490.05602	19948.825
1493.44922	20253.125
1496.84016	20634.725
1500.22882	21114.125
1503.61521	21593.625
1506.99934	22082.325
1510.38121	22425.325
1513.76081	22432.225
1517.13816	22149.325
1520.51324	21685.425
1523.88607	21392.225
1527.25665	21254.825
1530.62498	21184.925
1533.99105	20957.725
1537.35488	20496.525
1540.71647	19910.125
1544.07581	19240.025
1547.4329	18669.325
1550.78776	18251.125
1554.14038	17962.125
1557.49077	17804.425
1560.83892	17777.525
1564.18484	17780.125
1567.52853	17838.625
1570.86999	18040.225
1574.20922	18334.425
1577.54624	18567.425
1580.88103	18678.025
1584.2136	18827.925
1587.54395	19360.925
1590.87208	20302.325
1594.19801	21441.125
1597.52172	22382.525
1600.84321	22393.525
1604.16251	21330.625
1607.47959	19696.625
1610.79447	18049.425
1614.10715	16660.725
1617.41763	15575.925
1620.7259	14895.325
1624.03199	14526.925
1627.33587	14505.625
1630.63757	14935.525
1633.93707	15810.425
1637.23439	17302.825
1640.52951	19663.625
1643.82246	22497.925
1647.11321	24901.325
1650.40179	25361.025
1653.68819	23410.025
1656.97241	20231.625
1660.25446	17208.625
1663.53433	15054.725
1666.81203	13726.325
1670.08756	12957.325
1673.36092	12513.925
1676.63211	12223.125
1679.90115	12033.025
1683.16801	11827.325
1686.43272	11728.425
1689.69527	11582.525
1692.95567	11454.625
1696.2139	11302.725
1699.46999	11155.025
1702.72392	11117.925
1705.97571	11163.325
1709.22535	11242.425
1712.47284	11293.725
1715.71819	11322.225
1718.96139	11327.325
1722.20246	11298.325
1725.44139	11268.625
1728.67818	11184.925
1731.91284	11147.025
1735.14537	11085.625
1738.37576	11024.425
1741.60403	10984.325
1744.83017	10950.925
1748.05418	10887.825
1751.27607	10827.225
1754.49584	10780.725
1757.71349	10675.525
1760.92903	10643.725
1764.14244	10639.025
1767.35375	10644.625
1770.56294	10610.325
1773.77002	10636.125
1776.97499	10671.725
1780.17785	10724.425
1783.37861	10732.625
1786.57727	10716.725
1789.77382	10710.925
1792.96828	10740.325
1796.16064	10702.325
1799.3509	10665.725
1802.53907	10631.025
1805.72514	10630.525
1808.90913	10586.825
1812.09102	10552.625
1815.27083	10569.525
1818.44856	10549.525
1821.6242	10551.725
1824.79776	10536.725
1827.96924	10513.325
1831.13864	10500.825
1834.30597	10524.625
1837.47122	10507.925
1840.6344	10499.925
1843.7955	10475.125
1846.95454	10517.525
1850.11151	10485.525
1853.26642	10450.925
1856.41926	10447.725
1859.57004	10446.625
1862.71876	10445.525
1865.86542	10449.025
1869.01003	10443.925
1872.15258	10398.425
1875.29308	10392.025
1878.43152	10387.325
1881.56792	10373.125
1884.70227	10365.425
1887.83457	10360.425
1890.96482	10321.125
1894.09304	10301.725
1897.21921	10304.625
1900.34335	10300.425
1903.46544	10275.925
1906.58551	10281.725
1909.70353	10229.425
1912.81953	10234.425
1915.93349	10215.325
1919.04543	10196.225
1922.15534	10166.025
1925.26322	10144.725
1928.36908	10146.925
1931.47292	10110.425
1934.57473	10099.125
1937.67453	10078.825
1940.77232	10054.325
1943.86808	10016.225
1946.96184	10009.325
1950.05358	9974.625
1953.14331	9966.325
1956.23103	9910.625
1959.31675	9862.525
1962.40046	9847.125
1965.48217	9836.025
1968.56188	9812.725
1971.63959	9799.125
1974.7153	9771.325
1977.78901	9751.925
1980.86073	9687.125
1983.93046	9656.425
1986.99819	9609.525
1990.06394	9618.625
1993.1277	9592.725
1996.18947	9555.425
1999.24925	9533.925
2002.30706	9519.325
2005.36288	9486.425
2008.41672	9443.425
2011.46859	9429.725
2014.51848	9386.825
2017.56639	9366.425
2020.61233	9350.625
2023.6563	9341.225
2026.6983	9309.925
2029.73833	9280.925
2032.7764	9258.025
2035.8125	9224.125
2038.84664	9217.925
2041.87881	9208.825
2044.90903	9188.625
2047.93729	9161.625
2050.96359	9158.625
2053.98794	9164.925
2057.01034	9136.625
2060.03078	9133.625
2063.04927	9126.725
2066.06582	9144.725
2069.08042	9106.325
2072.09307	9119.925
2075.10378	9103.525
2078.11255	9131.625
2081.11938	9131.725
2084.12426	9120.325
2087.12722	9109.825
2090.12824	9121.925
2093.12732	9112.425
2096.12447	9116.125
2099.11969	9117.725
2102.11299	9103.425
2105.10435	9130.125
2108.09379	9125.825
2111.08131	9106.025
2114.0669	9107.625
2117.05057	9151.925
2120.03233	9168.625
2123.01216	9171.225
2125.99008	9187.925
2128.96609	9198.625
2131.94018	9163.025
2134.91236	9165.125
2137.88263	9183.925
2140.851	9204.225
2143.81746	9214.825
2146.78201	9190.225
2149.74466	9182.525
2152.7054	9184.225
2155.66425	9157.925
2158.6212	9183.425
2161.57625	9174.125
2164.52941	9188.225
2167.48067	9166.625
2170.43004	9167.925
2173.37752	9166.725
2176.32311	9151.725
2179.26681	9145.525
2182.20863	9133.925
2185.14856	9154.325
2188.08661	9156.025
2191.02278	9161.825
2193.95707	9137.225
2196.88948	9120.125
2199.82001	9147.125
2202.74867	9124.025
2205.67545	9099.625
2208.60037	9097.525
2211.52341	9081.825
2214.44458	9050.125
2217.36388	9054.925
2220.28132	9032.625
2223.1969	9033.125
2226.11061	9017.425
2229.02246	8984.525
2231.93245	8987.225
2234.84058	8982.225
2237.74686	8975.525
2240.65128	8958.525
2243.55385	8936.925
2246.45456	8910.325
2249.35343	8931.125
2252.25044	8886.525
2255.14561	8895.925
2258.03893	8866.525
2260.93041	8824.225
2263.82004	8821.025
2266.70783	8805.425
2269.59378	8787.525
2272.4779	8773.925
2275.36017	8753.525
2278.24061	8726.025
2281.11922	8734.025
2283.996	8732.625
2286.87094	8680.925
2289.74405	8700.725
2292.61534	8691.025
2295.4848	8680.925
2298.35243	8657.425
2301.21824	8625.525
2304.08223	8653.925
2306.94439	8658.325
2309.80474	8628.925
2312.66327	8634.325
2315.51999	8627.525
2318.37489	8618.125
2321.22797	8602.025
2324.07925	8597.025
2326.92871	8577.625
2329.77637	8569.525
2332.62222	8554.925
2335.46626	8551.325
2338.3085	8522.225
2341.14893	8516.325
2343.98756	8520.225
2346.8244	8516.525
2349.65943	8523.025
2352.49267	8520.225
2355.32411	8525.725
2358.15376	8531.525
2360.98161	8531.425
2363.80768	8527.625
2366.63195	8499.625
2369.45444	8488.025
2372.27514	8492.525
2375.09405	8474.825
2377.91118	8441.225
2380.72652	8445.025
2383.54009	8404.725
2386.35187	8412.925
2389.16188	8393.925
2391.97011	8403.025
2394.77657	8395.725
2397.58125	8374.325
2400.38416	8374.525
2403.18529	8353.525
2405.98466	8334.425
2408.78226	8316.725
2411.57809	8309.625
2414.37216	8306.525
2417.16446	8303.325
2419.955	8304.425
2422.74378	8309.725
2425.5308	8281.325
2428.31606	8267.425
2431.09956	8291.925
2433.88131	8268.925
2436.6613	8274.825
2439.43954	8295.825
2442.21603	8260.825
2444.99077	8260.525
2447.76377	8262.425
2450.53501	8246.525
2453.30451	8258.025
2456.07226	8231.625
2458.83827	8222.425
2461.60254	8222.025
2464.36507	8200.325
2467.12586	8189.525
2469.88492	8193.525
2472.64224	8192.325
2475.39782	8173.725
2478.15167	8168.325
2480.90379	8200.125
2483.65417	8189.425
2486.40283	8201.325
2489.14976	8215.625
2491.89497	8198.225
2494.63845	8163.625
2497.3802	8165.325
2500.12024	8181.425
2502.85855	8195.425
2505.59514	8157.625
2508.33002	8163.425
2511.06318	8150.625
2513.79462	8167.225
2516.52435	8126.825
2519.25237	8123.125
2521.97867	8099.225
2524.70327	8095.825
2527.42616	8110.525
2530.14734	8110.225
2532.86681	8102.525
2535.58458	8074.525
2538.30065	8075.925
2541.01501	8077.425
2543.72768	8073.525
2546.43864	8063.925
2549.14791	8015.325
2551.85548	8042.225
2554.56136	8034.425
2557.26554	8004.025
2559.96803	7999.325
2562.66883	7980.625
2565.36794	7979.425
2568.06536	7975.125
2570.7611	7968.425
2573.45514	7994.325
2576.14751	7981.425
2578.83819	7939.025
2581.52719	7922.425
2584.21451	7912.625
2586.90015	7901.725
2589.58411	7884.225
2592.2664	7897.225
2594.94701	7903.725
2597.62594	7891.025
2600.30321	7872.325
2602.9788	7875.925
2605.65273	7844.125
2608.32498	7892.125
2610.99557	7886.425
2613.66449	7873.725
2616.33175	7850.625
2618.99734	7846.825
2621.66128	7821.025
2624.32355	7832.225
2626.98416	7828.125
2629.64311	7821.225
2632.30041	7806.725
2634.95605	7776.625
2637.61004	7754.425
2640.26238	7778.925
2642.91306	7772.325
2645.56209	7757.625
2648.20948	7749.725
2650.85521	7738.225
2653.4993	7751.225
2656.14175	7768.925
2658.78255	7771.625
2661.42171	7778.925
2664.05923	7790.625
2666.6951	7801.125
2669.32934	7785.725
2671.96194	7792.525
2674.59291	7804.125
2677.22224	7784.925
2679.84993	7787.625
2682.476	7786.825
2685.10043	7785.425
2687.72324	7813.925
2690.34441	7794.125
2692.96396	7793.925
2695.58188	7796.125
2698.19818	7796.325
2700.81285	7800.925
2703.4259	7758.125
2706.03733	7661.725
2708.64714	7698.725
2711.25533	7764.425
2713.86191	7788.525
2716.46687	7800.625
2719.07021	7796.525
2721.67194	7827.725
2724.27206	7808.625
2726.87057	7802.025
2729.46747	7832.425
2732.06276	7824.425
2734.65644	7811.725
2737.24852	7818.325
2739.83899	7801.725
2742.42786	7819.425
2745.01513	7796.025
2747.60079	7793.525
2750.18486	7769.925
2752.76733	7788.225
2755.3482	7777.225
2757.92747	7753.625
2760.50515	7740.225
2763.08123	7749.725
2765.65573	7716.725
2768.22863	7732.625
2770.79994	7704.325
2773.36967	7727.925
2775.9378	7712.425
2778.50435	7723.525
2781.06932	7719.525
2783.6327	7730.225
2786.1945	7706.225
2788.75471	7711.025
2791.31335	7677.125
2793.87041	7653.125
2796.42589	7650.125
2798.97979	7639.825
2801.53212	7618.725
2804.08288	7607.625
2806.63206	7612.825
2809.17967	7575.325
2811.72571	7549.725
2814.27018	7574.525
2816.81308	7554.525
2819.35442	7555.625
2821.89419	7517.725
2824.43239	7504.125
2826.96904	7500.325
2829.50412	7492.225
2832.03763	7493.725
2834.56959	7471.625
2837.1	7477.925
2839.62884	7471.125
2842.15613	7485.725
2844.68186	7481.325
2847.20604	7518.225
2849.72867	7497.525
2852.24974	7491.825
2854.76927	7466.325
2857.28724	7464.125
2859.80367	7453.725
2862.31855	7467.225
2864.83189	7420.325
2867.34368	7441.925
2869.85393	7436.725
2872.36264	7438.525
2874.8698	7436.525
2877.37543	7443.525
2879.87952	7445.425
2882.38207	7444.425
2884.88308	7431.025
2887.38256	7436.525
2889.88051	7434.925
2892.37692	7454.225
2894.8718	7441.425
2897.36515	7448.425
2899.85698	7461.725
2902.34727	7471.825
2904.83604	7444.225
2907.32328	7453.725
2909.809	7448.525
2912.29319	7476.425
2914.77587	7478.825
2917.25702	7459.925
2919.73665	7457.725
2922.21476	7470.925
2924.69136	7449.125
2927.16644	7467.625
2929.64	7440.125
2932.11205	7440.725
2934.58258	7397.825
2937.05161	7422.225
2939.51912	7420.125
2941.98513	7432.425
2944.44962	7402.325
2946.91261	7382.025
2949.37409	7402.825
2951.83407	7394.025
2954.29254	7368.125
2956.74951	7362.925
2959.20498	7354.725
2961.65895	7353.925
2964.11142	7338.125
2966.56239	7354.325
2969.01186	7326.725
2971.45984	7317.925
2973.90632	7309.625
2976.35131	7287.825
2978.7948	7283.725
2981.23681	7267.325
2983.67732	7244.325
2986.11635	7257.225
2988.55388	7221.225
2990.98993	7207.825
2993.4245	7198.725
2995.85758	7184.525
2998.28917	7159.625
3000.71928	7148.425
3003.14791	7132.125
3005.57506	7116.925
3008.00073	7107.625
3010.42493	7086.625
3012.84764	7087.925
3015.26888	7068.025
3017.68865	7066.225
3020.10694	7067.325
3022.52376	7032.825
3024.9391	7033.425
3027.35298	7034.525
3029.76539	7011.825
3032.17632	7023.525
3034.5858	7018.825
3036.9938	6999.825
3039.40034	6995.225
3041.80542	6969.225
3044.20903	6963.425
3046.61118	6968.725
3049.01187	6965.625
3051.4111	6959.225
3053.80888	6938.125
3056.20519	6911.925
3058.60005	6923.225
3060.99345	6917.225
3063.3854	6894.225
3065.7759	6870.925
3068.16494	6855.525
3070.55254	6843.725
3072.93868	6842.425
3075.32338	6804.925
3077.70662	6804.725
3080.08842	6782.025
3082.46878	6768.725
3084.84769	6768.925
3087.22515	6781.425
3089.60118	6777.925
3091.97576	6771.325
3094.3489	6768.525
3096.72061	6788.425
3099.09087	6782.925
3101.4597	6758.125
3103.82709	6749.025
3106.19305	6744.025
3108.55757	6739.325
3110.92066	6735.625
3113.28232	6722.625
3115.64255	6716.825
3118.00134	6695.425
3120.35871	6698.225
3122.71466	6682.625
3125.06917	6664.025
3127.42226	6652.125
3129.77393	6662.125
3132.12417	6647.025
3134.47299	6657.125
3136.82039	6630.825
3139.16636	6646.625
3141.51092	6651.425
3143.85406	6673.225
3146.19579	6624.225
3148.53609	6638.525
3150.87499	6661.025
3153.21246	6641.425
3155.54853	6659.625
3157.88318	6656.425
3160.21642	6684.325
3162.54826	6663.025
3164.87868	6684.825
3167.2077	6672.425
3169.5353	6661.825
3171.86151	6673.925
3174.18631	6674.225
3176.5097	6651.825
3178.83169	6631.725
3181.15228	6655.525
