Data from AgNPs_FTO_APTES_UA_50uM_CRN_0uM_R6G_10uM_NaF_0.1M_Addition_RamanShift__3__10-13-44-618.txt Node

Date: Mon Feb 21 10:13:44 GMT 2022
User: TCL
Spectrometer: QEP01345
Trigger mode: 4
Integration Time (sec): 7.000000E0
Scans to average: 10
Electric dark correction enabled: true
Nonlinearity correction enabled: false
Boxcar width: 0
XAxis mode: Raman Shifts
Number of Pixels in Spectrum: 1044
>>>>>Begin Spectral Data<<<<<
46.04893	-0.325
50.45542	0.975
54.85868	0.775
59.25871	-1.525
63.6555	23.075
68.04907	29.975
72.43941	28.875
76.82654	33.675
81.21044	33.075
85.59113	34.875
89.96862	37.075
94.34289	40.275
98.71396	38.675
103.08183	42.275
107.4465	41.275
111.80798	40.975
116.16626	42.775
120.52136	38.575
124.87327	46.575
129.222	43.875
133.56755	39.975
137.90993	49.875
142.24913	48.175
146.58517	50.175
150.91804	58.875
155.24774	65.975
159.57429	78.275
163.89768	95.875
168.21792	125.975
172.53501	164.875
176.84895	225.975
181.15975	302.775
185.46741	428.675
189.77193	588.775
194.07331	793.075
198.37157	1027.875
202.6667	1266.375
206.9587	1509.975
211.24758	1759.475
215.53334	2010.675
219.81599	2291.675
224.09553	2598.275
228.37195	2953.275
232.64527	3328.675
236.91549	3696.375
241.18261	4028.475
245.44663	4285.675
249.70755	4515.675
253.96539	4672.175
258.22014	4819.875
262.4718	4968.375
266.72039	5064.375
270.96589	5099.475
275.20832	5082.575
279.44768	4985.375
283.68397	4862.375
287.91719	4759.875
292.14735	4726.975
296.37445	4781.775
300.59849	4932.275
304.81948	5147.875
309.03742	5367.475
313.25231	5402.875
317.46415	5249.375
321.67296	4905.675
325.87872	4567.375
330.08145	4388.675
334.28114	4348.875
338.47781	4380.775
342.67145	4479.075
346.86207	4645.875
351.04966	4900.575
355.23424	5160.875
359.4158	5382.475
363.59435	5454.075
367.76989	5455.275
371.94243	5409.675
376.11196	5339.775
380.27849	5301.775
384.44203	5238.075
388.60257	5156.775
392.76012	5118.375
396.91468	5141.175
401.06626	5249.675
405.21485	5304.175
409.36047	5201.475
413.50311	4909.875
417.64277	4631.975
421.77947	4462.375
425.9132	4376.375
430.04396	4349.575
434.17176	4364.775
438.2966	4422.075
442.41849	4542.075
446.53742	4695.875
450.6534	4843.275
454.76644	4896.175
458.87653	4864.275
462.98368	4768.875
467.08789	4653.275
471.18916	4571.175
475.2875	4460.175
479.38291	4353.875
483.4754	4301.075
487.56496	4250.875
491.6516	4233.475
495.73531	4236.775
499.81612	4270.875
503.89401	4338.875
507.96899	4424.875
512.04106	4489.775
516.11023	4581.575
520.1765	4641.475
524.23987	4648.375
528.30034	4599.175
532.35792	4542.275
536.41261	4449.575
540.46441	4321.775
544.51333	4250.975
548.55936	4229.875
552.60252	4308.675
556.64279	4450.175
560.6802	4532.375
564.71473	4609.075
568.7464	4761.675
572.7752	4878.275
576.80114	4726.075
580.82422	4533.675
584.84444	4480.375
588.86181	4589.575
592.87633	4805.575
596.888	4954.375
600.89682	4908.975
604.9028	5142.375
608.90594	6478.375
612.90624	8644.875
616.90371	8735.675
620.89834	6121.175
624.89015	4646.575
628.87913	4317.675
632.86528	4345.475
636.84862	4428.975
640.82913	4406.475
644.80683	4230.575
648.78172	4103.375
652.75379	4105.375
656.72306	4268.475
660.68952	4494.075
664.65319	4471.975
668.61405	4231.175
672.57211	4108.575
676.52738	4088.275
680.47986	4141.575
684.42955	4109.175
688.37646	4082.975
692.32058	4058.175
696.26192	4057.375
700.20048	4081.675
704.13626	4106.875
708.06928	4099.975
711.99952	4084.475
715.927	4095.475
719.85171	4152.975
723.77365	4163.975
727.69284	4147.675
731.60928	4086.775
735.52295	4079.775
739.43388	4084.975
743.34206	4065.675
747.24749	4085.975
751.15017	4090.275
755.05012	4120.575
758.94733	4292.875
762.8418	4751.475
766.73354	5621.675
770.62254	6599.375
774.50882	7128.175
778.39237	6832.675
782.27321	5963.275
786.15132	5053.775
790.02671	4472.675
793.89938	4215.675
797.76935	4104.575
801.6366	4048.975
805.50115	4022.975
809.36299	4000.675
813.22213	3968.475
817.07857	3957.275
820.93231	3942.375
824.78336	3930.675
828.63172	3953.675
832.47738	3951.075
836.32036	3932.175
840.16066	3909.175
843.99827	3911.675
847.8332	3893.075
851.66546	3894.675
855.49504	3880.875
859.32195	3882.175
863.1462	3861.275
866.96777	3846.575
870.78668	3837.275
874.60293	3840.075
878.41652	3858.375
882.22745	3893.875
886.03573	3910.275
889.84136	3908.775
893.64433	3892.375
897.44466	3884.175
901.24235	3879.275
905.0374	3870.275
908.8298	3862.975
912.61957	3855.075
916.40671	3856.275
920.19121	3908.475
923.97308	3952.475
927.75233	4039.575
931.52895	4101.275
935.30295	4053.075
939.07433	3922.775
942.84309	3800.975
946.60924	3711.075
950.37278	3650.275
954.13371	3631.475
957.89203	3588.375
961.64774	3565.975
965.40086	3547.175
969.15137	3538.175
972.89929	3516.875
976.64461	3500.475
980.38733	3480.675
984.12747	3478.875
987.86502	3490.075
991.59999	3510.975
995.33237	3536.575
999.06217	3612.575
1002.78939	3654.575
1006.51404	3716.975
1010.23611	3777.375
1013.95561	3849.675
1017.67255	3821.475
1021.38692	3774.475
1025.09872	3691.575
1028.80796	3636.575
1032.51465	3591.375
1036.21877	3605.675
1039.92035	3618.075
1043.61937	3647.275
1047.31584	3684.175
1051.00976	3725.775
1054.70114	3736.375
1058.38998	3741.575
1062.07627	3747.675
1065.76003	3761.575
1069.44126	3732.875
1073.11995	3737.475
1076.79611	3789.975
1080.46974	3848.375
1084.14085	3972.475
1087.80943	4114.675
1091.47549	4151.275
1095.13903	4085.775
1098.80005	3918.275
1102.45857	3767.875
1106.11456	3719.475
1109.76805	3739.775
1113.41903	3818.275
1117.06751	3941.475
1120.71348	4127.775
1124.35696	4336.475
1127.99793	4562.775
1131.63641	4589.275
1135.2724	4359.875
1138.90589	4071.675
1142.5369	3887.775
1146.16542	3786.975
1149.79145	3735.075
1153.415	3697.675
1157.03607	3699.175
1160.65467	3758.075
1164.27079	3902.075
1167.88443	4146.375
1171.49561	4553.375
1175.10432	5232.175
1178.71056	6144.275
1182.31434	6901.675
1185.91565	6992.175
1189.51451	6637.675
1193.11091	6061.675
1196.70485	5495.775
1200.29634	5088.775
1203.88538	4756.675
1207.47197	4434.075
1211.05612	4118.075
1214.63782	3958.575
1218.21708	3890.675
1221.79391	3929.275
1225.36829	3994.575
1228.94024	4010.075
1232.50976	3938.575
1236.07685	3865.175
1239.6415	3789.875
1243.20374	3769.575
1246.76355	3763.575
1250.32093	3776.775
1253.8759	3826.475
1257.42845	3932.275
1260.97859	4066.975
1264.52631	4265.575
1268.07163	4450.175
1271.61453	4617.375
1275.15503	4720.575
1278.69312	4784.475
1282.22882	4808.875
1285.76211	4960.975
1289.29301	5189.975
1292.82151	5460.175
1296.34761	5736.275
1299.87133	6077.575
1303.39266	6623.275
1306.9116	7525.675
1310.42815	8643.475
1313.94233	9430.175
1317.45412	9273.575
1320.96354	8353.475
1324.47058	7283.775
1327.97525	6372.275
1331.47754	5791.875
1334.97747	5508.275
1338.47502	5409.275
1341.97022	5452.375
1345.46305	5701.475
1348.95352	6227.175
1352.44163	7038.575
1355.92738	8151.275
1359.41078	9805.975
1362.89183	11598.175
1366.37053	11774.075
1369.84688	9799.475
1373.32088	7500.275
1376.79254	6047.475
1380.26186	5349.675
1383.72883	5030.575
1387.19347	4775.575
1390.65578	4544.375
1394.11575	4395.675
1397.57339	4357.975
1401.0287	4378.275
1404.48168	4362.075
1407.93234	4324.875
1411.38068	4284.075
1414.82669	4215.975
1418.27039	4205.775
1421.71177	4176.975
1425.15083	4120.275
1428.58758	4052.775
1432.02203	4065.575
1435.45416	4153.075
1438.88399	4207.475
1442.31151	4211.875
1445.73673	4173.775
1449.15965	4181.575
1452.58027	4168.075
1455.9986	4118.275
1459.41463	4065.975
1462.82837	4085.275
1466.23982	4147.875
1469.64898	4262.075
1473.05586	4381.275
1476.46045	4392.975
1479.86276	4478.375
1483.26279	4554.975
1486.66054	4673.675
1490.05602	4827.075
1493.44922	5115.875
1496.84016	5544.375
1500.22882	6260.375
1503.61521	7308.375
1506.99934	8596.975
1510.38121	9888.175
1513.76081	10640.275
1517.13816	10121.175
1520.51324	8579.075
1523.88607	6969.675
1527.25665	5867.975
1530.62498	5251.375
1533.99105	4894.975
1537.35488	4622.375
1540.71647	4430.375
1544.07581	4303.375
1547.4329	4260.175
1550.78776	4242.875
1554.14038	4291.375
1557.49077	4381.975
1560.83892	4508.775
1564.18484	4706.975
1567.52853	4935.575
1570.86999	5195.775
1574.20922	5355.675
1577.54624	5355.075
1580.88103	5048.275
1584.2136	4515.075
1587.54395	4180.175
1590.87208	4122.675
1594.19801	4340.275
1597.52172	4712.975
1600.84321	4932.375
1604.16251	4750.375
1607.47959	4377.275
1610.79447	3996.375
1614.10715	3652.675
1617.41763	3383.075
1620.7259	3204.275
1624.03199	3145.075
1627.33587	3143.075
1630.63757	3216.075
1633.93707	3379.575
1637.23439	3690.275
1640.52951	4238.775
1643.82246	5098.275
1647.11321	6181.875
1650.40179	6927.275
1653.68819	6782.675
1656.97241	5673.675
1660.25446	4371.975
1663.53433	3462.775
1666.81203	2969.775
1670.08756	2715.475
1673.36092	2598.675
1676.63211	2521.775
1679.90115	2477.575
1683.16801	2424.975
1686.43272	2377.875
1689.69527	2327.475
1692.95567	2248.275
1696.2139	2146.475
1699.46999	2023.675
1702.72392	1993.075
1705.97571	2082.175
1709.22535	2173.375
1712.47284	2255.375
1715.71819	2292.875
1718.96139	2304.575
1722.20246	2310.675
1725.44139	2284.375
1728.67818	2268.175
1731.91284	2241.875
1735.14537	2231.475
1738.37576	2210.275
1741.60403	2195.175
1744.83017	2178.475
1748.05418	2143.375
1751.27607	2107.575
1754.49584	2053.775
1757.71349	1992.975
1760.92903	1945.475
1764.14244	1941.175
1767.35375	1946.175
1770.56294	1945.575
1773.77002	1963.275
1776.97499	2024.275
1780.17785	2073.875
1783.37861	2108.975
1786.57727	2122.875
1789.77382	2137.775
1792.96828	2133.375
1796.16064	2153.175
1799.3509	2154.375
1802.53907	2147.775
1805.72514	2133.775
1808.90913	2120.075
1812.09102	2107.275
1815.27083	2096.775
1818.44856	2099.175
1821.6242	2079.975
1824.79776	2076.375
1827.96924	2064.775
1831.13864	2053.175
1834.30597	2052.575
1837.47122	2050.875
1840.6344	2029.175
1843.7955	2017.075
1846.95454	2014.075
1850.11151	1995.175
1853.26642	1978.275
1856.41926	1981.475
1859.57004	1973.475
1862.71876	1959.175
1865.86542	1953.975
1869.01003	1948.475
1872.15258	1942.075
1875.29308	1929.675
1878.43152	1924.575
1881.56792	1925.275
1884.70227	1929.775
1887.83457	1915.375
1890.96482	1912.875
1894.09304	1911.275
1897.21921	1903.275
1900.34335	1900.075
1903.46544	1900.175
1906.58551	1887.075
1909.70353	1897.375
1912.81953	1879.675
1915.93349	1873.875
1919.04543	1865.175
1922.15534	1865.775
1925.26322	1858.675
1928.36908	1850.775
1931.47292	1835.975
1934.57473	1832.475
1937.67453	1817.175
1940.77232	1807.375
1943.86808	1795.575
1946.96184	1802.775
1950.05358	1796.375
1953.14331	1776.975
1956.23103	1785.875
1959.31675	1762.075
1962.40046	1767.075
1965.48217	1760.775
1968.56188	1762.375
1971.63959	1761.175
1974.7153	1762.875
1977.78901	1748.875
1980.86073	1739.075
1983.93046	1731.275
1986.99819	1725.975
1990.06394	1711.675
1993.1277	1705.675
1996.18947	1699.175
1999.24925	1690.475
2002.30706	1683.875
2005.36288	1683.275
2008.41672	1672.975
2011.46859	1661.575
2014.51848	1661.975
2017.56639	1642.775
2020.61233	1633.575
2023.6563	1638.175
2026.6983	1615.375
2029.73833	1611.675
2032.7764	1604.375
2035.8125	1600.775
2038.84664	1592.575
2041.87881	1589.575
2044.90903	1583.875
2047.93729	1572.675
2050.96359	1561.075
2053.98794	1568.775
2057.01034	1568.575
2060.03078	1563.375
2063.04927	1563.475
2066.06582	1558.275
2069.08042	1561.275
2072.09307	1555.575
2075.10378	1557.275
2078.11255	1549.375
2081.11938	1552.275
2084.12426	1546.575
2087.12722	1546.575
2090.12824	1546.875
2093.12732	1559.475
2096.12447	1554.875
2099.11969	1553.875
2102.11299	1547.875
2105.10435	1559.175
2108.09379	1555.275
2111.08131	1549.475
2114.0669	1544.575
2117.05057	1544.275
2120.03233	1540.075
2123.01216	1544.675
2125.99008	1536.275
2128.96609	1539.075
2131.94018	1544.975
2134.91236	1533.475
2137.88263	1522.375
2140.851	1521.875
2143.81746	1529.975
2146.78201	1519.175
2149.74466	1506.675
2152.7054	1508.175
2155.66425	1499.875
2158.6212	1504.275
2161.57625	1497.775
2164.52941	1496.475
2167.48067	1494.975
2170.43004	1495.675
2173.37752	1486.375
2176.32311	1491.475
2179.26681	1482.075
2182.20863	1493.175
2185.14856	1488.575
2188.08661	1483.775
2191.02278	1482.775
2193.95707	1477.875
2196.88948	1475.475
2199.82001	1465.875
2202.74867	1470.075
2205.67545	1466.675
2208.60037	1458.575
2211.52341	1456.475
2214.44458	1452.675
2217.36388	1445.975
2220.28132	1451.675
2223.1969	1434.675
2226.11061	1423.075
2229.02246	1418.875
2231.93245	1416.975
2234.84058	1423.075
2237.74686	1415.775
2240.65128	1413.075
2243.55385	1402.975
2246.45456	1405.375
2249.35343	1401.375
2252.25044	1405.975
2255.14561	1395.775
2258.03893	1391.275
2260.93041	1357.875
2263.82004	1373.275
2266.70783	1385.975
2269.59378	1386.575
2272.4779	1379.175
2275.36017	1380.375
2278.24061	1376.975
2281.11922	1374.875
2283.996	1372.775
2286.87094	1361.175
2289.74405	1353.275
2292.61534	1348.275
2295.4848	1344.675
2298.35243	1345.075
2301.21824	1332.575
2304.08223	1334.175
2306.94439	1334.375
2309.80474	1323.575
2312.66327	1329.475
2315.51999	1321.875
2318.37489	1320.075
2321.22797	1316.575
2324.07925	1322.275
2326.92871	1311.175
2329.77637	1315.875
2332.62222	1299.975
2335.46626	1297.575
2338.3085	1295.075
2341.14893	1300.175
2343.98756	1296.175
2346.8244	1295.675
2349.65943	1298.375
2352.49267	1299.975
2355.32411	1300.975
2358.15376	1313.175
2360.98161	1309.475
2363.80768	1308.475
2366.63195	1318.775
2369.45444	1321.775
2372.27514	1310.575
2375.09405	1304.375
2377.91118	1314.875
2380.72652	1295.275
2383.54009	1293.475
2386.35187	1283.175
2389.16188	1273.975
2391.97011	1264.775
2394.77657	1249.375
2397.58125	1248.175
2400.38416	1253.775
2403.18529	1248.175
2405.98466	1238.475
2408.78226	1234.975
2411.57809	1226.775
2414.37216	1227.375
2417.16446	1233.575
2419.955	1234.975
2422.74378	1223.675
2425.5308	1228.375
2428.31606	1224.075
2431.09956	1219.375
2433.88131	1216.775
2436.6613	1224.975
2439.43954	1222.575
2442.21603	1221.875
2444.99077	1219.575
2447.76377	1227.875
2450.53501	1220.975
2453.30451	1226.275
2456.07226	1220.175
2458.83827	1218.075
2461.60254	1217.975
2464.36507	1208.775
2467.12586	1211.675
2469.88492	1210.975
2472.64224	1208.075
2475.39782	1199.275
2478.15167	1189.575
2480.90379	1207.675
2483.65417	1208.875
2486.40283	1213.775
2489.14976	1210.175
2491.89497	1220.475
2494.63845	1202.775
2497.3802	1181.275
2500.12024	1210.375
2502.85855	1199.175
2505.59514	1203.975
2508.33002	1192.575
2511.06318	1191.375
2513.79462	1177.475
2516.52435	1177.475
2519.25237	1172.275
2521.97867	1158.275
2524.70327	1154.075
2527.42616	1141.575
2530.14734	1144.075
2532.86681	1141.675
2535.58458	1138.175
2538.30065	1136.275
2541.01501	1137.575
2543.72768	1127.375
2546.43864	1136.175
2549.14791	1135.675
2551.85548	1141.275
2554.56136	1132.075
2557.26554	1133.275
2559.96803	1125.975
2562.66883	1130.475
2565.36794	1119.575
2568.06536	1123.475
2570.7611	1121.275
2573.45514	1117.275
2576.14751	1119.975
2578.83819	1109.175
2581.52719	1108.075
2584.21451	1105.875
2586.90015	1103.375
2589.58411	1093.575
2592.2664	1087.675
2594.94701	1090.775
2597.62594	1089.175
2600.30321	1082.575
2602.9788	1085.675
2605.65273	1090.075
2608.32498	1084.675
2610.99557	1079.875
2613.66449	1077.775
2616.33175	1079.375
2618.99734	1079.775
2621.66128	1070.875
2624.32355	1066.075
2626.98416	1068.875
2629.64311	1067.775
2632.30041	1066.275
2634.95605	1059.475
2637.61004	1056.875
2640.26238	1050.875
2642.91306	1051.075
2645.56209	1034.675
2648.20948	1038.375
2650.85521	1036.875
2653.4993	1040.275
2656.14175	1046.275
2658.78255	1045.875
2661.42171	1046.675
2664.05923	1047.775
2666.6951	1048.175
2669.32934	1058.975
2671.96194	1058.875
2674.59291	1059.875
2677.22224	1062.675
2679.84993	1048.775
2682.476	1050.275
2685.10043	1054.475
2687.72324	1053.575
2690.34441	1045.075
2692.96396	1045.575
2695.58188	1049.075
2698.19818	1040.375
2700.81285	1039.275
2703.4259	1001.775
2706.03733	894.775
2708.64714	945.675
2711.25533	994.375
2713.86191	1017.675
2716.46687	1028.075
2719.07021	1039.575
2721.67194	1044.375
2724.27206	1049.175
2726.87057	1047.075
2729.46747	1039.575
2732.06276	1038.675
2734.65644	1040.275
2737.24852	1038.275
2739.83899	1041.475
2742.42786	1034.975
2745.01513	1028.075
2747.60079	1026.475
2750.18486	1028.775
2752.76733	1031.475
2755.3482	1026.975
2757.92747	1021.275
2760.50515	1021.575
2763.08123	1016.675
2765.65573	1018.875
2768.22863	1016.775
2770.79994	1014.475
2773.36967	1015.575
2775.9378	1017.375
2778.50435	1011.875
2781.06932	1011.775
2783.6327	1014.075
2786.1945	1013.175
2788.75471	1014.375
2791.31335	1005.375
2793.87041	1012.275
2796.42589	1006.275
2798.97979	1013.975
2801.53212	1001.375
2804.08288	1001.575
2806.63206	1003.975
2809.17967	1006.875
2811.72571	1010.175
2814.27018	1009.075
2816.81308	1014.675
2819.35442	1009.175
2821.89419	1012.075
2824.43239	1013.975
2826.96904	1014.375
2829.50412	1017.175
2832.03763	1008.375
2834.56959	1021.975
2837.1	1025.575
2839.62884	1033.975
2842.15613	1026.575
2844.68186	1047.175
2847.20604	1064.975
2849.72867	1081.275
2852.24974	1085.775
2854.76927	1077.475
2857.28724	1054.475
2859.80367	1060.975
2862.31855	1088.275
2864.83189	1092.975
2867.34368	1100.275
2869.85393	1101.675
2872.36264	1114.675
2874.8698	1128.175
2877.37543	1123.675
2879.87952	1135.575
2882.38207	1127.175
2884.88308	1137.575
2887.38256	1134.275
2889.88051	1138.075
2892.37692	1139.175
2894.8718	1132.275
2897.36515	1143.675
2899.85698	1138.775
2902.34727	1144.575
2904.83604	1154.275
2907.32328	1152.275
2909.809	1149.675
2912.29319	1156.275
2914.77587	1158.275
2917.25702	1151.575
2919.73665	1158.475
2922.21476	1158.875
2924.69136	1155.375
2927.16644	1160.875
2929.64	1137.475
2932.11205	1134.275
2934.58258	1126.275
2937.05161	1121.175
2939.51912	1113.675
2941.98513	1103.375
2944.44962	1085.475
2946.91261	1076.675
2949.37409	1072.475
2951.83407	1052.375
2954.29254	1046.875
2956.74951	1040.175
2959.20498	1028.575
2961.65895	1031.475
2964.11142	1028.475
2966.56239	1015.875
2969.01186	1011.175
2971.45984	1004.175
2973.90632	989.375
2976.35131	980.675
2978.7948	983.175
2981.23681	975.275
2983.67732	968.675
2986.11635	965.975
2988.55388	957.875
2990.98993	964.875
2993.4245	949.375
2995.85758	953.975
2998.28917	952.475
3000.71928	936.575
3003.14791	940.175
3005.57506	948.175
3008.00073	949.475
3010.42493	945.375
3012.84764	945.975
3015.26888	942.375
3017.68865	938.775
3020.10694	938.675
3022.52376	937.375
3024.9391	932.275
3027.35298	928.475
3029.76539	935.775
3032.17632	930.775
3034.5858	928.675
3036.9938	927.475
3039.40034	929.375
3041.80542	925.575
3044.20903	925.775
3046.61118	919.875
3049.01187	923.575
3051.4111	918.675
3053.80888	925.575
3056.20519	923.575
3058.60005	928.775
3060.99345	926.975
3063.3854	928.675
3065.7759	934.975
3068.16494	931.475
3070.55254	929.975
3072.93868	919.775
3075.32338	930.175
3077.70662	924.775
3080.08842	918.975
3082.46878	922.775
3084.84769	922.575
3087.22515	927.175
3089.60118	939.575
3091.97576	935.975
3094.3489	933.475
3096.72061	944.075
3099.09087	943.575
3101.4597	939.775
3103.82709	945.675
3106.19305	942.175
3108.55757	944.875
3110.92066	953.275
3113.28232	953.575
3115.64255	952.075
3118.00134	952.075
3120.35871	963.075
3122.71466	962.475
3125.06917	959.975
3127.42226	963.475
3129.77393	968.275
3132.12417	974.775
3134.47299	976.275
3136.82039	980.975
3139.16636	976.575
3141.51092	992.475
3143.85406	992.175
3146.19579	997.275
3148.53609	1009.975
3150.87499	1003.275
3153.21246	1014.875
3155.54853	1023.375
3157.88318	1016.475
3160.21642	1027.875
3162.54826	1039.075
3164.87868	1034.075
3167.2077	1031.975
3169.5353	1041.775
3171.86151	1056.975
3174.18631	1052.675
3176.5097	1052.275
3178.83169	1050.975
3181.15228	1056.975
3183.47147	1052.275
3185.78926	1059.275
3188.10565	1062.875
3190.42065	1074.075
3192.73424	1074.975
3195.04645	1069.375
3197.35725	1063.975
3199.66667	1078.075
3201.97469	1077.875
3204.28132	1088.975
3206.58656	1093.775
3208.8904	1093.475
3211.19287	1099.675
3213.49394	1110.675
3215.79363	1104.175
3218.09193	1109.675
3220.38884	1095.075
3222.68438	1068.375
3224.97853	1099.875
3227.2713	1101.975
3229.56269	1107.075
3231.8527	1112.975
3234.14133	1115.275
3236.42858	1116.775
3238.71446	1117.175
3240.99896	1118.275
3243.28209	1120.975
3245.56384	1112.875
