Data from AgNPs_FTO_APTES_UA_50uM_CRN_500uM_R6G_10uM_NaF_0.1M_Addition_RamanShift__24__17-09-53-550.txt Node

Date: Mon Feb 21 17:09:53 GMT 2022
User: TCL
Spectrometer: QEP01345
Trigger mode: 4
Integration Time (sec): 7.000000E0
Scans to average: 10
Electric dark correction enabled: true
Nonlinearity correction enabled: false
Boxcar width: 0
XAxis mode: Raman Shifts
Number of Pixels in Spectrum: 1044
>>>>>Begin Spectral Data<<<<<
46.04893	-1.275
50.45542	-0.475
54.85868	-1.075
59.25871	-1.375
63.6555	56.925
68.04907	61.225
72.43941	68.225
76.82654	67.425
81.21044	71.425
85.59113	72.425
89.96862	77.125
94.34289	77.625
98.71396	80.125
103.08183	84.125
107.4465	87.525
111.80798	88.525
116.16626	89.025
120.52136	90.225
124.87327	92.425
129.222	100.225
133.56755	103.825
137.90993	107.825
142.24913	115.125
146.58517	126.825
150.91804	142.125
155.24774	170.225
159.57429	200.725
163.89768	257.525
168.21792	338.425
172.53501	458.125
176.84895	635.125
181.15975	893.225
185.46741	1251.125
189.77193	1730.925
194.07331	2312.225
198.37157	2987.525
202.6667	3687.225
206.9587	4400.425
211.24758	5113.225
215.53334	5840.325
219.81599	6595.025
224.09553	7447.125
228.37195	8372.825
232.64527	9421.325
236.91549	10488.025
241.18261	11541.725
245.44663	12485.425
249.70755	13291.225
253.96539	13953.325
258.22014	14512.225
262.4718	15008.125
266.72039	15329.425
270.96589	15489.225
275.20832	15413.125
279.44768	15230.525
283.68397	15007.625
287.91719	14741.625
292.14735	14652.225
296.37445	14716.025
300.59849	14898.025
304.81948	15151.425
309.03742	15289.925
313.25231	15190.025
317.46415	14789.525
321.67296	14315.825
325.87872	13900.625
330.08145	13716.325
334.28114	13714.025
338.47781	13886.525
342.67145	14099.325
346.86207	14419.725
351.04966	14832.325
355.23424	15318.225
359.4158	15761.725
363.59435	16034.925
367.76989	16202.125
371.94243	16305.825
376.11196	16339.725
380.27849	16361.125
384.44203	16350.825
388.60257	16343.925
392.76012	16360.525
396.91468	16465.025
401.06626	16678.225
405.21485	16841.925
409.36047	16689.225
413.50311	16298.325
417.64277	15886.425
421.77947	15702.525
425.9132	15683.225
430.04396	15728.125
434.17176	15846.025
438.2966	16059.625
442.41849	16392.225
446.53742	16861.925
450.6534	17292.225
454.76644	17617.725
458.87653	17648.925
462.98368	17472.125
467.08789	17209.225
471.18916	16929.825
475.2875	16626.725
479.38291	16442.425
483.4754	16264.925
487.56496	16082.825
491.6516	15939.225
495.73531	15859.625
499.81612	15819.725
503.89401	15930.225
507.96899	16038.925
512.04106	16121.125
516.11023	16186.725
520.1765	16258.325
524.23987	16244.025
528.30034	16186.125
532.35792	16069.325
536.41261	15968.625
540.46441	15783.625
544.51333	15660.725
548.55936	15701.025
552.60252	15908.425
556.64279	16180.425
560.6802	16331.325
564.71473	16470.625
568.7464	16684.425
572.7752	16884.725
576.80114	16781.225
580.82422	16652.525
584.84444	16704.325
588.86181	17049.225
592.87633	17533.025
596.888	17819.925
600.89682	17756.325
604.9028	18375.125
608.90594	20748.525
612.90624	23738.825
616.90371	22711.625
620.89834	18404.025
624.89015	16396.525
628.87913	16050.925
632.86528	16144.325
636.84862	16296.525
640.82913	16155.025
644.80683	15741.325
648.78172	15424.225
652.75379	15362.925
656.72306	15565.625
660.68952	15975.525
664.65319	15901.825
668.61405	15575.325
672.57211	15549.725
676.52738	15639.525
680.47986	15662.925
684.42955	15535.125
688.37646	15429.125
692.32058	15371.325
696.26192	15425.825
700.20048	15488.325
704.13626	15551.825
708.06928	15495.625
711.99952	15357.625
715.927	15320.225
719.85171	15327.325
723.77365	15376.425
727.69284	15338.725
731.60928	15276.425
735.52295	15261.825
739.43388	15264.825
743.34206	15325.025
747.24749	15373.725
751.15017	15331.925
755.05012	15436.925
758.94733	15838.925
762.8418	16694.425
766.73354	18173.025
770.62254	19830.325
774.50882	20619.125
778.39237	19965.725
782.27321	18187.825
786.15132	16586.025
790.02671	15594.725
793.89938	15187.025
797.76935	15038.425
801.6366	14948.225
805.50115	14918.425
809.36299	14858.625
813.22213	14772.225
817.07857	14750.825
820.93231	14680.625
824.78336	14650.125
828.63172	14643.625
832.47738	14636.325
836.32036	14594.225
840.16066	14574.825
843.99827	14571.425
847.8332	14543.225
851.66546	14537.525
855.49504	14583.625
859.32195	14617.725
863.1462	14618.425
866.96777	14630.125
870.78668	14625.425
874.60293	14579.225
878.41652	14606.525
882.22745	14588.825
886.03573	14656.925
889.84136	14607.425
893.64433	14557.525
897.44466	14457.225
901.24235	14379.425
905.0374	14293.025
908.8298	14197.425
912.61957	14153.925
916.40671	14203.625
920.19121	14281.525
923.97308	14382.325
927.75233	14468.625
931.52895	14518.825
935.30295	14451.125
939.07433	14207.725
942.84309	14023.425
946.60924	13854.225
950.37278	13794.225
954.13371	13729.625
957.89203	13670.725
961.64774	13629.725
965.40086	13549.425
969.15137	13484.125
972.89929	13439.825
976.64461	13403.125
980.38733	13348.125
984.12747	13405.025
987.86502	13471.625
991.59999	13607.325
995.33237	13736.325
999.06217	13995.025
1002.78939	14260.225
1006.51404	14485.725
1010.23611	14653.525
1013.95561	14771.525
1017.67255	14779.025
1021.38692	14651.325
1025.09872	14448.325
1028.80796	14372.225
1032.51465	14473.325
1036.21877	14638.725
1039.92035	14698.025
1043.61937	14638.725
1047.31584	14529.025
1051.00976	14349.525
1054.70114	14222.825
1058.38998	14231.025
1062.07627	14213.325
1065.76003	14223.825
1069.44126	14223.825
1073.11995	14283.625
1076.79611	14361.925
1080.46974	14502.225
1084.14085	14639.425
1087.80943	14810.525
1091.47549	14944.825
1095.13903	14866.125
1098.80005	14667.525
1102.45857	14444.225
1106.11456	14359.325
1109.76805	14427.625
1113.41903	14637.425
1117.06751	14926.725
1120.71348	15271.525
1124.35696	15611.825
1127.99793	15961.425
1131.63641	16022.125
1135.2724	15693.825
1138.90589	15324.025
1142.5369	15057.325
1146.16542	14872.325
1149.79145	14719.225
1153.415	14699.425
1157.03607	14778.925
1160.65467	15010.225
1164.27079	15411.525
1167.88443	16049.225
1171.49561	16890.125
1175.10432	18133.525
1178.71056	19824.725
1182.31434	21382.325
1185.91565	21969.125
1189.51451	21526.025
1193.11091	20552.525
1196.70485	19482.525
1200.29634	18646.825
1203.88538	18010.525
1207.47197	17301.925
1211.05612	16724.025
1214.63782	16333.725
1218.21708	16257.025
1221.79391	16291.025
1225.36829	16283.325
1228.94024	16118.725
1232.50976	15916.925
1236.07685	15708.425
1239.6415	15626.925
1243.20374	15678.125
1246.76355	15723.425
1250.32093	15904.425
1253.8759	16156.025
1257.42845	16487.325
1260.97859	16823.425
1264.52631	17149.625
1268.07163	17512.025
1271.61453	17888.325
1275.15503	18256.525
1278.69312	18576.425
1282.22882	18780.125
1285.76211	19149.225
1289.29301	19610.525
1292.82151	20222.125
1296.34761	21004.325
1299.87133	22068.925
1303.39266	23486.625
1306.9116	25430.825
1310.42815	27467.425
1313.94233	28628.425
1317.45412	28148.825
1320.96354	26691.225
1324.47058	25112.525
1327.97525	23820.625
1331.47754	22926.825
1334.97747	22584.625
1338.47502	22684.025
1341.97022	23014.425
1345.46305	23492.825
1348.95352	24179.625
1352.44163	25281.925
1355.92738	26907.925
1359.41078	29306.725
1362.89183	31505.225
1366.37053	30811.225
1369.84688	26956.625
1373.32088	23073.225
1376.79254	20564.425
1380.26186	19415.625
1383.72883	18913.325
1387.19347	18602.625
1390.65578	18215.925
1394.11575	18054.425
1397.57339	18040.825
1401.0287	18291.825
1404.48168	18575.025
1407.93234	18739.925
1411.38068	18792.325
1414.82669	18621.225
1418.27039	18310.025
1421.71177	17841.725
1425.15083	17328.625
1428.58758	17071.425
1432.02203	17064.025
1435.45416	17356.625
1438.88399	17570.325
1442.31151	17733.525
1445.73673	17904.725
1449.15965	18057.825
1452.58027	18102.625
1455.9986	18029.225
1459.41463	18037.325
1462.82837	18234.025
1466.23982	18545.125
1469.64898	18901.425
1473.05586	19158.125
1476.46045	19285.325
1479.86276	19328.925
1483.26279	19329.125
1486.66054	19393.325
1490.05602	19540.225
1493.44922	19888.425
1496.84016	20343.425
1500.22882	21289.825
1503.61521	22844.325
1506.99934	24765.325
1510.38121	26447.625
1513.76081	26833.825
1517.13816	25440.325
1520.51324	23121.625
1523.88607	20987.225
1527.25665	19706.825
1530.62498	19033.525
1533.99105	18684.325
1537.35488	18486.425
1540.71647	18298.625
1544.07581	18153.425
1547.4329	18019.725
1550.78776	17959.125
1554.14038	17889.325
1557.49077	17905.225
1560.83892	18024.625
1564.18484	18213.625
1567.52853	18463.625
1570.86999	18705.725
1574.20922	18893.325
1577.54624	18880.125
1580.88103	18460.225
1584.2136	17865.625
1587.54395	17678.225
1590.87208	18073.225
1594.19801	19031.725
1597.52172	20317.425
1600.84321	21025.125
1604.16251	20620.425
1607.47959	19506.825
1610.79447	18028.725
1614.10715	16707.825
1617.41763	15637.025
1620.7259	14910.125
1624.03199	14536.325
1627.33587	14529.625
1630.63757	14809.025
1633.93707	15437.725
1637.23439	16544.025
1640.52951	18153.825
1643.82246	20246.625
1647.11321	22281.925
1650.40179	23178.325
1653.68819	22081.925
1656.97241	19471.425
1660.25446	16786.425
1663.53433	14929.925
1666.81203	13835.825
1670.08756	13134.825
1673.36092	12723.225
1676.63211	12422.525
1679.90115	12230.625
1683.16801	12064.025
1686.43272	11918.425
1689.69527	11798.025
1692.95567	11719.525
1696.2139	11629.825
1699.46999	11598.325
1702.72392	11540.225
1705.97571	11534.825
1709.22535	11508.425
1712.47284	11483.325
1715.71819	11447.325
1718.96139	11405.225
1722.20246	11369.625
1725.44139	11345.025
1728.67818	11278.225
1731.91284	11201.125
1735.14537	11137.925
1738.37576	11074.825
1741.60403	11076.625
1744.83017	11067.625
1748.05418	11038.125
1751.27607	11017.425
1754.49584	11015.325
1757.71349	10986.725
1760.92903	10990.325
1764.14244	10949.225
1767.35375	10910.325
1770.56294	10881.725
1773.77002	10838.225
1776.97499	10772.125
1780.17785	10761.325
1783.37861	10724.125
1786.57727	10713.325
1789.77382	10689.325
1792.96828	10674.125
1796.16064	10637.225
1799.3509	10591.725
1802.53907	10585.225
1805.72514	10531.625
1808.90913	10494.425
1812.09102	10508.125
1815.27083	10466.125
1818.44856	10439.725
1821.6242	10412.225
1824.79776	10389.225
1827.96924	10378.125
1831.13864	10386.725
1834.30597	10336.725
1837.47122	10356.225
1840.6344	10320.125
1843.7955	10323.725
1846.95454	10306.825
1850.11151	10309.425
1853.26642	10296.725
1856.41926	10280.625
1859.57004	10265.425
1862.71876	10246.125
1865.86542	10239.425
1869.01003	10260.425
1872.15258	10239.725
1875.29308	10247.525
1878.43152	10232.925
1881.56792	10239.225
1884.70227	10199.825
1887.83457	10219.425
1890.96482	10190.825
1894.09304	10190.825
1897.21921	10163.025
1900.34335	10172.225
1903.46544	10169.125
1906.58551	10158.425
1909.70353	10137.425
1912.81953	10146.025
1915.93349	10113.025
1919.04543	10060.825
1922.15534	10063.425
1925.26322	10010.925
1928.36908	9991.225
1931.47292	9966.925
1934.57473	9950.525
1937.67453	9929.425
1940.77232	9897.125
1943.86808	9881.225
1946.96184	9865.725
1950.05358	9842.625
1953.14331	9803.225
1956.23103	9763.825
1959.31675	9746.725
1962.40046	9709.225
1965.48217	9668.825
1968.56188	9653.025
1971.63959	9604.925
1974.7153	9615.125
1977.78901	9558.425
1980.86073	9548.225
1983.93046	9490.725
1986.99819	9475.725
1990.06394	9457.725
1993.1277	9424.925
1996.18947	9360.325
1999.24925	9340.025
2002.30706	9331.925
2005.36288	9273.525
2008.41672	9280.125
2011.46859	9228.325
2014.51848	9238.125
2017.56639	9209.225
2020.61233	9186.625
2023.6563	9153.725
2026.6983	9109.325
2029.73833	9081.925
2032.7764	9054.925
2035.8125	9042.925
2038.84664	9040.325
2041.87881	9033.625
2044.90903	8992.025
2047.93729	8961.725
2050.96359	8960.325
2053.98794	8954.625
2057.01034	8944.025
2060.03078	8935.225
2063.04927	8923.225
2066.06582	8929.825
2069.08042	8931.525
2072.09307	8899.425
2075.10378	8888.525
2078.11255	8897.725
2081.11938	8879.625
2084.12426	8876.025
2087.12722	8874.225
2090.12824	8844.225
2093.12732	8856.025
2096.12447	8860.325
2099.11969	8851.825
2102.11299	8863.125
2105.10435	8877.225
2108.09379	8867.025
2111.08131	8848.725
2114.0669	8856.425
2117.05057	8884.725
2120.03233	8868.325
2123.01216	8880.325
2125.99008	8880.025
2128.96609	8876.025
2131.94018	8902.725
2134.91236	8886.125
2137.88263	8894.325
2140.851	8879.925
2143.81746	8908.525
2146.78201	8872.125
2149.74466	8873.625
2152.7054	8887.425
2155.66425	8890.425
2158.6212	8871.725
2161.57625	8877.425
2164.52941	8844.125
2167.48067	8845.325
2170.43004	8817.725
2173.37752	8849.925
2176.32311	8830.125
2179.26681	8834.225
2182.20863	8846.025
2185.14856	8842.625
2188.08661	8833.025
2191.02278	8841.825
2193.95707	8854.325
2196.88948	8818.125
2199.82001	8815.125
2202.74867	8791.725
2205.67545	8800.425
2208.60037	8780.925
2211.52341	8781.125
2214.44458	8768.425
2217.36388	8742.125
2220.28132	8721.125
2223.1969	8702.725
2226.11061	8695.125
2229.02246	8675.025
2231.93245	8646.425
2234.84058	8625.525
2237.74686	8619.525
2240.65128	8629.425
2243.55385	8587.925
2246.45456	8562.325
2249.35343	8571.025
2252.25044	8575.725
2255.14561	8546.125
2258.03893	8550.225
2260.93041	8531.225
2263.82004	8512.825
2266.70783	8479.425
2269.59378	8472.225
2272.4779	8451.825
2275.36017	8432.225
2278.24061	8411.825
2281.11922	8384.225
2283.996	8354.325
2286.87094	8362.025
2289.74405	8336.625
2292.61534	8328.025
2295.4848	8312.925
2298.35243	8303.025
2301.21824	8326.625
2304.08223	8310.125
2306.94439	8293.425
2309.80474	8301.625
2312.66327	8305.025
2315.51999	8282.525
2318.37489	8273.425
2321.22797	8268.025
2324.07925	8244.225
2326.92871	8235.525
2329.77637	8232.325
2332.62222	8216.925
2335.46626	8201.625
2338.3085	8198.925
2341.14893	8187.825
2343.98756	8193.725
2346.8244	8184.425
2349.65943	8193.625
2352.49267	8190.325
2355.32411	8189.925
2358.15376	8188.725
2360.98161	8207.625
2363.80768	8171.725
2366.63195	8181.325
2369.45444	8170.225
2372.27514	8148.325
2375.09405	8139.325
2377.91118	8106.725
2380.72652	8098.625
2383.54009	8082.025
2386.35187	8066.625
2389.16188	8042.725
2391.97011	8002.325
2394.77657	7983.725
2397.58125	7977.325
2400.38416	7960.025
2403.18529	7945.325
2405.98466	7933.225
2408.78226	7911.225
2411.57809	7899.525
2414.37216	7875.325
2417.16446	7881.725
2419.955	7868.125
2422.74378	7871.625
2425.5308	7863.025
2428.31606	7843.025
2431.09956	7838.125
2433.88131	7824.025
2436.6613	7827.525
2439.43954	7814.025
2442.21603	7791.425
2444.99077	7821.225
2447.76377	7805.725
2450.53501	7810.525
2453.30451	7804.625
2456.07226	7786.725
2458.83827	7795.925
2461.60254	7779.025
2464.36507	7783.625
2467.12586	7757.625
2469.88492	7776.325
2472.64224	7763.725
2475.39782	7779.525
2478.15167	7783.925
2480.90379	7793.225
2483.65417	7779.825
2486.40283	7791.725
2489.14976	7787.125
2491.89497	7796.025
2494.63845	7796.025
2497.3802	7782.525
2500.12024	7784.625
2502.85855	7759.125
2505.59514	7747.525
2508.33002	7725.125
2511.06318	7699.625
2513.79462	7680.925
2516.52435	7679.425
2519.25237	7644.925
2521.97867	7635.325
2524.70327	7652.225
2527.42616	7636.625
2530.14734	7641.225
2532.86681	7624.925
2535.58458	7615.125
2538.30065	7609.025
2541.01501	7611.525
2543.72768	7587.425
2546.43864	7574.425
2549.14791	7562.325
2551.85548	7558.325
2554.56136	7526.825
2557.26554	7537.825
2559.96803	7523.425
2562.66883	7516.525
2565.36794	7506.325
2568.06536	7497.925
2570.7611	7467.225
2573.45514	7456.025
2576.14751	7447.425
2578.83819	7449.725
2581.52719	7435.225
2584.21451	7435.725
2586.90015	7422.725
2589.58411	7421.625
2592.2664	7390.225
2594.94701	7373.825
2597.62594	7373.525
2600.30321	7354.425
2602.9788	7361.225
2605.65273	7346.325
2608.32498	7356.125
2610.99557	7364.625
2613.66449	7344.825
2616.33175	7319.725
2618.99734	7330.025
2621.66128	7335.525
2624.32355	7309.725
2626.98416	7322.125
2629.64311	7307.925
2632.30041	7309.425
2634.95605	7291.025
2637.61004	7272.525
2640.26238	7291.825
2642.91306	7277.425
2645.56209	7266.825
2648.20948	7286.125
2650.85521	7243.925
2653.4993	7250.125
2656.14175	7235.025
2658.78255	7248.825
2661.42171	7262.725
2664.05923	7260.225
2666.6951	7278.125
2669.32934	7261.425
2671.96194	7252.625
2674.59291	7248.625
2677.22224	7262.625
2679.84993	7259.425
2682.476	7256.825
2685.10043	7262.525
2687.72324	7253.425
2690.34441	7250.825
2692.96396	7219.425
2695.58188	7245.625
2698.19818	7223.925
2700.81285	7215.625
2703.4259	7217.825
2706.03733	7234.925
2708.64714	7224.925
2711.25533	7231.925
2713.86191	7224.525
2716.46687	7235.725
2719.07021	7231.225
2721.67194	7239.725
2724.27206	7236.425
2726.87057	7250.325
2729.46747	7228.425
2732.06276	7242.425
2734.65644	7229.625
2737.24852	7238.125
2739.83899	7215.225
2742.42786	7217.725
2745.01513	7209.325
2747.60079	7196.225
2750.18486	7196.725
2752.76733	7195.725
2755.3482	7178.225
2757.92747	7162.525
2760.50515	7149.125
2763.08123	7158.325
2765.65573	7152.225
2768.22863	7170.925
2770.79994	7142.625
2773.36967	7138.825
2775.9378	7140.225
2778.50435	7132.525
2781.06932	7121.925
2783.6327	7119.325
2786.1945	7126.325
2788.75471	7127.425
2791.31335	7102.925
2793.87041	7093.425
2796.42589	7066.525
2798.97979	7057.325
2801.53212	7043.825
2804.08288	7035.025
2806.63206	7036.125
2809.17967	7000.725
2811.72571	7016.625
2814.27018	7019.225
2816.81308	7004.425
2819.35442	7010.825
2821.89419	6985.725
2824.43239	6989.725
2826.96904	6977.925
2829.50412	6970.025
2832.03763	6959.825
2834.56959	6967.525
2837.1	6956.725
2839.62884	6967.325
2842.15613	6971.125
2844.68186	6988.525
2847.20604	6994.725
2849.72867	7005.425
2852.24974	6986.625
2854.76927	6981.525
2857.28724	6980.125
2859.80367	6957.325
2862.31855	6967.825
2864.83189	6967.525
2867.34368	6949.825
2869.85393	6947.125
2872.36264	6931.825
2874.8698	6951.325
2877.37543	6956.525
2879.87952	6953.225
2882.38207	6952.225
2884.88308	6951.725
2887.38256	6945.325
2889.88051	6954.825
2892.37692	6951.825
2894.8718	6965.525
2897.36515	6953.525
2899.85698	6978.525
2902.34727	7003.525
2904.83604	7000.125
2907.32328	6999.325
2909.809	7000.725
2912.29319	7023.125
2914.77587	7031.025
2917.25702	7035.625
2919.73665	7029.525
2922.21476	7029.725
2924.69136	7045.725
2927.16644	7043.025
2929.64	7003.925
2932.11205	6979.925
2934.58258	6985.925
2937.05161	7011.425
2939.51912	6989.225
2941.98513	6977.825
2944.44962	6947.925
2946.91261	6932.225
2949.37409	6947.425
2951.83407	6923.625
2954.29254	6933.525
2956.74951	6925.325
2959.20498	6897.325
2961.65895	6869.425
2964.11142	6877.225
2966.56239	6848.925
2969.01186	6842.825
2971.45984	6807.125
2973.90632	6795.625
2976.35131	6782.825
2978.7948	6773.025
2981.23681	6734.425
2983.67732	6734.525
2986.11635	6699.725
2988.55388	6688.025
2990.98993	6681.925
2993.4245	6664.625
2995.85758	6651.625
2998.28917	6647.425
3000.71928	6644.925
3003.14791	6638.425
3005.57506	6629.325
3008.00073	6599.225
3010.42493	6573.525
3012.84764	6578.725
3015.26888	6587.225
3017.68865	6562.825
3020.10694	6570.625
3022.52376	6542.025
3024.9391	6524.025
3027.35298	6514.125
3029.76539	6509.425
3032.17632	6498.425
3034.5858	6473.625
3036.9938	6459.625
3039.40034	6457.525
3041.80542	6440.525
3044.20903	6445.625
3046.61118	6437.925
3049.01187	6419.925
3051.4111	6433.225
3053.80888	6417.125
3056.20519	6407.825
3058.60005	6402.025
3060.99345	6380.925
3063.3854	6370.225
3065.7759	6344.125
3068.16494	6354.925
3070.55254	6319.325
3072.93868	6299.225
3075.32338	6269.825
3077.70662	6271.925
3080.08842	6258.125
3082.46878	6268.325
3084.84769	6243.625
3087.22515	6254.225
3089.60118	6262.525
3091.97576	6232.825
3094.3489	6235.225
3096.72061	6254.225
3099.09087	6267.225
3101.4597	6236.225
3103.82709	6249.825
3106.19305	6237.625
3108.55757	6252.125
3110.92066	6213.525
3113.28232	6215.325
3115.64255	6225.225
3118.00134	6210.325
3120.35871	6175.825
3122.71466	6182.325
3125.06917	6166.325
3127.42226	6156.825
3129.77393	6164.025
3132.12417	6158.725
3134.47299	6165.525
3136.82039	6150.425
3139.16636	6134.025
3141.51092	6134.525
3143.85406	6147.925
3146.19579	6155.825
3148.53609	6171.225
3150.87499	6164.225
3153.21246	6183.725
3155.54853	6179.225
3157.88318	6182.725
3160.21642	6191.625
3162.54826	6182.225
3164.87868	6173.025
3167.2077	6181.025
3169.5353	6189.025
3171.86151	6202.025
3174.18631	6189.025
3176.5097	6183.325
3178.83169	6160.025
3181.15228	6172.725
