Data from AgNPs_FTO_APTES_UA_50uM_CRN_50uM_R6G_10uM_NaF_0.1M_Addition_RamanShift__15__14-50-14-979.txt Node

Date: Mon Feb 21 14:50:14 GMT 2022
User: TCL
Spectrometer: QEP01345
Trigger mode: 4
Integration Time (sec): 7.000000E0
Scans to average: 10
Electric dark correction enabled: true
Nonlinearity correction enabled: false
Boxcar width: 0
XAxis mode: Raman Shifts
Number of Pixels in Spectrum: 1044
>>>>>Begin Spectral Data<<<<<
46.04893	0.9125
50.45542	-0.3875
54.85868	0.3125
59.25871	-1.7875
63.6555	57.6125
68.04907	63.8125
72.43941	64.6125
76.82654	69.2125
81.21044	71.6125
85.59113	75.6125
89.96862	76.7125
94.34289	84.0125
98.71396	83.6125
103.08183	85.8125
107.4465	87.7125
111.80798	88.6125
116.16626	89.1125
120.52136	92.7125
124.87327	99.9125
129.222	96.1125
133.56755	104.9125
137.90993	109.3125
142.24913	115.5125
146.58517	129.2125
150.91804	140.5125
155.24774	172.7125
159.57429	205.6125
163.89768	264.8125
168.21792	346.1125
172.53501	466.1125
176.84895	645.7125
181.15975	908.7125
185.46741	1269.8125
189.77193	1759.5125
194.07331	2354.6125
198.37157	3049.7125
202.6667	3759.6125
206.9587	4484.2125
211.24758	5180.4125
215.53334	5909.0125
219.81599	6642.5125
224.09553	7466.5125
228.37195	8349.0125
232.64527	9397.0125
236.91549	10460.0125
241.18261	11490.1125
245.44663	12448.0125
249.70755	13335.8125
253.96539	14056.7125
258.22014	14658.2125
262.4718	15161.3125
266.72039	15484.6125
270.96589	15708.5125
275.20832	15718.8125
279.44768	15584.3125
283.68397	15370.7125
287.91719	15197.4125
292.14735	15068.7125
296.37445	15041.9125
300.59849	15185.8125
304.81948	15300.7125
309.03742	15353.6125
313.25231	15249.2125
317.46415	14922.0125
321.67296	14432.8125
325.87872	14132.8125
330.08145	13947.5125
334.28114	13921.4125
338.47781	14076.9125
342.67145	14293.7125
346.86207	14531.2125
351.04966	14897.7125
355.23424	15295.7125
359.4158	15623.4125
363.59435	15853.1125
367.76989	16043.4125
371.94243	16140.8125
376.11196	16198.6125
380.27849	16269.5125
384.44203	16296.4125
388.60257	16332.0125
392.76012	16396.5125
396.91468	16565.8125
401.06626	16757.2125
405.21485	16936.7125
409.36047	16834.3125
413.50311	16476.7125
417.64277	16138.2125
421.77947	15916.4125
425.9132	15853.0125
430.04396	15893.6125
434.17176	15966.6125
438.2966	16019.0125
442.41849	16287.2125
446.53742	16559.0125
450.6534	16836.3125
454.76644	17074.1125
458.87653	17221.0125
462.98368	17231.3125
467.08789	17139.6125
471.18916	16998.6125
475.2875	16791.4125
479.38291	16683.2125
483.4754	16515.4125
487.56496	16365.0125
491.6516	16281.8125
495.73531	16284.6125
499.81612	16288.3125
503.89401	16463.1125
507.96899	16515.9125
512.04106	16597.2125
516.11023	16626.2125
520.1765	16618.0125
524.23987	16540.1125
528.30034	16439.9125
532.35792	16332.1125
536.41261	16244.8125
540.46441	16122.2125
544.51333	16084.0125
548.55936	16113.8125
552.60252	16316.3125
556.64279	16495.3125
560.6802	16580.3125
564.71473	16633.7125
568.7464	16817.7125
572.7752	17014.5125
576.80114	17074.6125
580.82422	17134.8125
584.84444	17272.5125
588.86181	17345.6125
592.87633	17361.8125
596.888	17423.5125
600.89682	17609.3125
604.9028	18477.1125
608.90594	20646.0125
612.90624	23145.2125
616.90371	22076.6125
620.89834	18346.9125
624.89015	16647.0125
628.87913	16356.7125
632.86528	16475.6125
636.84862	16708.0125
640.82913	16567.5125
644.80683	16251.7125
648.78172	15976.9125
652.75379	15877.2125
656.72306	16115.0125
660.68952	16462.6125
664.65319	16389.0125
668.61405	16182.5125
672.57211	16125.2125
676.52738	16253.9125
680.47986	16243.7125
684.42955	16165.3125
688.37646	16029.5125
692.32058	16031.2125
696.26192	16101.5125
700.20048	16207.0125
704.13626	16273.7125
708.06928	16228.2125
711.99952	16132.1125
715.927	16055.4125
719.85171	16117.0125
723.77365	16131.9125
727.69284	16060.3125
731.60928	15926.1125
735.52295	15909.5125
739.43388	15910.5125
743.34206	15932.3125
747.24749	15961.7125
751.15017	16003.0125
755.05012	16109.0125
758.94733	16452.2125
762.8418	17221.4125
766.73354	18557.5125
770.62254	20034.2125
774.50882	20799.3125
778.39237	20084.3125
782.27321	18646.3125
786.15132	17350.0125
790.02671	16488.3125
793.89938	16051.0125
797.76935	15851.3125
801.6366	15759.9125
805.50115	15713.0125
809.36299	15634.1125
813.22213	15541.0125
817.07857	15476.2125
820.93231	15447.0125
824.78336	15404.8125
828.63172	15429.6125
832.47738	15397.8125
836.32036	15370.4125
840.16066	15375.7125
843.99827	15346.4125
847.8332	15340.0125
851.66546	15327.1125
855.49504	15361.5125
859.32195	15381.7125
863.1462	15363.1125
866.96777	15376.6125
870.78668	15390.1125
874.60293	15389.1125
878.41652	15433.2125
882.22745	15490.1125
886.03573	15542.1125
889.84136	15543.2125
893.64433	15482.3125
897.44466	15426.9125
901.24235	15402.5125
905.0374	15308.2125
908.8298	15234.1125
912.61957	15208.6125
916.40671	15244.2125
920.19121	15331.4125
923.97308	15414.6125
927.75233	15455.4125
931.52895	15459.1125
935.30295	15383.1125
939.07433	15191.4125
942.84309	14957.5125
946.60924	14882.6125
950.37278	14803.1125
954.13371	14805.4125
957.89203	14769.3125
961.64774	14743.0125
965.40086	14729.5125
969.15137	14660.2125
972.89929	14636.0125
976.64461	14610.0125
980.38733	14627.3125
984.12747	14624.7125
987.86502	14719.8125
991.59999	14786.9125
995.33237	14885.5125
999.06217	15034.5125
1002.78939	15226.9125
1006.51404	15391.1125
1010.23611	15597.3125
1013.95561	15751.4125
1017.67255	15803.3125
1021.38692	15676.9125
1025.09872	15554.6125
1028.80796	15426.2125
1032.51465	15471.5125
1036.21877	15529.3125
1039.92035	15566.2125
1043.61937	15619.2125
1047.31584	15630.0125
1051.00976	15593.1125
1054.70114	15594.3125
1058.38998	15616.0125
1062.07627	15712.9125
1065.76003	15803.5125
1069.44126	15944.2125
1073.11995	16053.9125
1076.79611	16215.1125
1080.46974	16372.1125
1084.14085	16508.3125
1087.80943	16684.1125
1091.47549	16753.3125
1095.13903	16755.4125
1098.80005	16541.4125
1102.45857	16345.8125
1106.11456	16146.3125
1109.76805	16113.3125
1113.41903	16122.4125
1117.06751	16270.6125
1120.71348	16487.5125
1124.35696	16702.6125
1127.99793	16985.5125
1131.63641	17060.5125
1135.2724	16906.6125
1138.90589	16686.6125
1142.5369	16445.0125
1146.16542	16326.5125
1149.79145	16214.9125
1153.415	16190.9125
1157.03607	16286.6125
1160.65467	16499.4125
1164.27079	16946.8125
1167.88443	17512.8125
1171.49561	18314.9125
1175.10432	19397.5125
1178.71056	20899.4125
1182.31434	22298.4125
1185.91565	22974.7125
1189.51451	22966.3125
1193.11091	22449.1125
1196.70485	21556.1125
1200.29634	20672.7125
1203.88538	19911.9125
1207.47197	19145.4125
1211.05612	18495.9125
1214.63782	17991.7125
1218.21708	17727.2125
1221.79391	17641.0125
1225.36829	17570.9125
1228.94024	17559.6125
1232.50976	17477.1125
1236.07685	17403.7125
1239.6415	17346.6125
1243.20374	17360.1125
1246.76355	17437.6125
1250.32093	17568.4125
1253.8759	17756.5125
1257.42845	18073.8125
1260.97859	18476.7125
1264.52631	18892.0125
1268.07163	19319.6125
1271.61453	19720.6125
1275.15503	20096.8125
1278.69312	20389.2125
1282.22882	20571.9125
1285.76211	20830.1125
1289.29301	21204.9125
1292.82151	21637.4125
1296.34761	22251.9125
1299.87133	23001.5125
1303.39266	24045.4125
1306.9116	25391.0125
1310.42815	26780.8125
1313.94233	27638.4125
1317.45412	27494.5125
1320.96354	26759.0125
1324.47058	25948.7125
1327.97525	25153.0125
1331.47754	24666.6125
1334.97747	24435.6125
1338.47502	24480.0125
1341.97022	24728.8125
1345.46305	25180.3125
1348.95352	25781.8125
1352.44163	26485.4125
1355.92738	27534.9125
1359.41078	29050.6125
1362.89183	30536.9125
1366.37053	29978.8125
1369.84688	27306.0125
1373.32088	24210.0125
1376.79254	22103.5125
1380.26186	20982.4125
1383.72883	20423.3125
1387.19347	20029.0125
1390.65578	19541.3125
1394.11575	19206.4125
1397.57339	19042.8125
1401.0287	18990.1125
1404.48168	19057.9125
1407.93234	19096.7125
1411.38068	19095.8125
1414.82669	18944.8125
1418.27039	18735.3125
1421.71177	18499.8125
1425.15083	18167.5125
1428.58758	18004.3125
1432.02203	18020.1125
1435.45416	18144.7125
1438.88399	18357.7125
1442.31151	18508.0125
1445.73673	18639.2125
1449.15965	18719.3125
1452.58027	18858.5125
1455.9986	18935.3125
1459.41463	18989.7125
1462.82837	19219.1125
1466.23982	19567.0125
1469.64898	19879.2125
1473.05586	20119.1125
1476.46045	20264.6125
1479.86276	20393.9125
1483.26279	20497.9125
1486.66054	20582.8125
1490.05602	20854.3125
1493.44922	21376.4125
1496.84016	22143.3125
1500.22882	23286.9125
1503.61521	24844.3125
1506.99934	26597.7125
1510.38121	27946.4125
1513.76081	28135.9125
1517.13816	26958.6125
1520.51324	25026.4125
1523.88607	23147.5125
1527.25665	21918.6125
1530.62498	21220.5125
1533.99105	20766.4125
1537.35488	20448.4125
1540.71647	20188.5125
1544.07581	19931.4125
1547.4329	19704.0125
1550.78776	19531.5125
1554.14038	19477.8125
1557.49077	19559.6125
1560.83892	19768.5125
1564.18484	19985.1125
1567.52853	20239.3125
1570.86999	20524.5125
1574.20922	20718.7125
1577.54624	20705.9125
1580.88103	20242.1125
1584.2136	19624.8125
1587.54395	19347.8125
1590.87208	19524.1125
1594.19801	20121.1125
1597.52172	20922.3125
1600.84321	21299.5125
1604.16251	20943.0125
1607.47959	20174.2125
1610.79447	19309.6125
1614.10715	18350.0125
1617.41763	17400.6125
1620.7259	16716.0125
1624.03199	16300.6125
1627.33587	16170.9125
1630.63757	16345.7125
1633.93707	16888.1125
1637.23439	17790.7125
1640.52951	19167.7125
1643.82246	20910.9125
1647.11321	22658.1125
1650.40179	23597.6125
1653.68819	22945.5125
1656.97241	20837.4125
1660.25446	18472.6125
1663.53433	16677.9125
1666.81203	15502.5125
1670.08756	14833.0125
1673.36092	14423.9125
1676.63211	14095.4125
1679.90115	13910.5125
1683.16801	13754.2125
1686.43272	13634.7125
1689.69527	13527.2125
1692.95567	13385.4125
1696.2139	13278.6125
1699.46999	13154.8125
1702.72392	13044.8125
1705.97571	13133.3125
1709.22535	13186.2125
1712.47284	13267.0125
1715.71819	13253.4125
1718.96139	13256.9125
1722.20246	13218.6125
1725.44139	13141.6125
1728.67818	13097.5125
1731.91284	13037.8125
1735.14537	12970.0125
1738.37576	12956.9125
1741.60403	12920.0125
1744.83017	12845.4125
1748.05418	12816.8125
1751.27607	12767.1125
1754.49584	12735.9125
1757.71349	12683.8125
1760.92903	12611.4125
1764.14244	12618.6125
1767.35375	12571.0125
1770.56294	12526.3125
1773.77002	12480.8125
1776.97499	12510.0125
1780.17785	12548.3125
1783.37861	12564.1125
1786.57727	12547.5125
1789.77382	12519.4125
1792.96828	12489.9125
1796.16064	12497.0125
1799.3509	12468.7125
1802.53907	12454.2125
1805.72514	12407.9125
1808.90913	12367.8125
1812.09102	12385.1125
1815.27083	12326.1125
1818.44856	12314.6125
1821.6242	12301.9125
1824.79776	12321.4125
1827.96924	12273.4125
1831.13864	12272.7125
1834.30597	12233.8125
1837.47122	12234.7125
1840.6344	12259.7125
1843.7955	12234.1125
1846.95454	12226.8125
1850.11151	12221.5125
1853.26642	12198.7125
1856.41926	12175.6125
1859.57004	12170.7125
1862.71876	12174.6125
1865.86542	12156.6125
1869.01003	12128.0125
1872.15258	12138.9125
1875.29308	12111.7125
1878.43152	12095.1125
1881.56792	12089.0125
1884.70227	12047.0125
1887.83457	12059.1125
1890.96482	12040.6125
1894.09304	12016.4125
1897.21921	11993.0125
1900.34335	11949.0125
1903.46544	11963.7125
1906.58551	11934.3125
1909.70353	11927.8125
1912.81953	11894.2125
1915.93349	11894.4125
1919.04543	11865.0125
1922.15534	11869.6125
1925.26322	11828.8125
1928.36908	11792.5125
1931.47292	11764.7125
1934.57473	11769.7125
1937.67453	11718.5125
1940.77232	11685.8125
1943.86808	11666.5125
1946.96184	11631.4125
1950.05358	11585.7125
1953.14331	11560.3125
1956.23103	11540.8125
1959.31675	11483.2125
1962.40046	11470.7125
1965.48217	11440.3125
1968.56188	11413.7125
1971.63959	11393.2125
1974.7153	11355.0125
1977.78901	11313.7125
1980.86073	11280.5125
1983.93046	11237.1125
1986.99819	11201.0125
1990.06394	11173.3125
1993.1277	11155.1125
1996.18947	11092.9125
1999.24925	11093.2125
2002.30706	11026.4125
2005.36288	11022.1125
2008.41672	10951.8125
2011.46859	10933.1125
2014.51848	10917.9125
2017.56639	10865.9125
2020.61233	10839.1125
2023.6563	10823.7125
2026.6983	10786.3125
2029.73833	10763.1125
2032.7764	10708.5125
2035.8125	10713.9125
2038.84664	10716.9125
2041.87881	10720.9125
2044.90903	10656.8125
2047.93729	10624.6125
2050.96359	10641.6125
2053.98794	10655.1125
2057.01034	10611.1125
2060.03078	10608.0125
2063.04927	10577.9125
2066.06582	10586.2125
2069.08042	10557.0125
2072.09307	10549.1125
2075.10378	10537.1125
2078.11255	10537.7125
2081.11938	10543.3125
2084.12426	10516.9125
2087.12722	10521.9125
2090.12824	10520.1125
2093.12732	10515.4125
2096.12447	10526.1125
2099.11969	10535.3125
2102.11299	10514.0125
2105.10435	10536.7125
2108.09379	10513.5125
2111.08131	10551.2125
2114.0669	10527.7125
2117.05057	10542.3125
2120.03233	10562.3125
2123.01216	10601.9125
2125.99008	10604.0125
2128.96609	10582.5125
2131.94018	10599.7125
2134.91236	10593.7125
2137.88263	10611.8125
2140.851	10598.5125
2143.81746	10627.4125
2146.78201	10629.6125
2149.74466	10603.3125
2152.7054	10620.0125
2155.66425	10622.7125
2158.6212	10600.0125
2161.57625	10606.2125
2164.52941	10600.4125
2167.48067	10585.3125
2170.43004	10558.1125
2173.37752	10593.3125
2176.32311	10560.6125
2179.26681	10554.9125
2182.20863	10589.4125
2185.14856	10566.6125
2188.08661	10588.2125
2191.02278	10582.2125
2193.95707	10567.2125
2196.88948	10536.6125
2199.82001	10536.6125
2202.74867	10542.0125
2205.67545	10528.1125
2208.60037	10516.4125
2211.52341	10501.2125
2214.44458	10477.5125
2217.36388	10451.0125
2220.28132	10451.7125
2223.1969	10424.4125
2226.11061	10395.0125
2229.02246	10363.1125
2231.93245	10373.1125
2234.84058	10321.0125
2237.74686	10306.4125
2240.65128	10284.6125
2243.55385	10312.8125
2246.45456	10317.7125
2249.35343	10286.8125
2252.25044	10251.7125
2255.14561	10246.0125
2258.03893	10244.5125
2260.93041	10213.9125
2263.82004	10188.4125
2266.70783	10188.6125
2269.59378	10157.1125
2272.4779	10133.6125
2275.36017	10116.9125
2278.24061	10107.6125
2281.11922	10069.4125
2283.996	10047.6125
2286.87094	10043.5125
2289.74405	10018.0125
2292.61534	10004.3125
2295.4848	9988.9125
2298.35243	9979.1125
2301.21824	9993.6125
2304.08223	9970.4125
2306.94439	9979.5125
2309.80474	9968.2125
2312.66327	9967.2125
2315.51999	9964.8125
2318.37489	9947.4125
2321.22797	9911.8125
2324.07925	9907.1125
2326.92871	9911.5125
2329.77637	9892.9125
2332.62222	9863.6125
2335.46626	9861.6125
2338.3085	9827.1125
2341.14893	9824.3125
2343.98756	9819.2125
2346.8244	9833.1125
2349.65943	9842.6125
2352.49267	9841.5125
2355.32411	9815.4125
2358.15376	9801.0125
2360.98161	9819.5125
2363.80768	9795.2125
2366.63195	9805.4125
2369.45444	9782.2125
2372.27514	9766.7125
2375.09405	9753.6125
2377.91118	9759.1125
2380.72652	9757.6125
2383.54009	9706.0125
2386.35187	9683.5125
2389.16188	9620.0125
2391.97011	9638.4125
2394.77657	9614.2125
2397.58125	9592.7125
2400.38416	9598.7125
2403.18529	9556.0125
2405.98466	9552.4125
2408.78226	9538.4125
2411.57809	9541.7125
2414.37216	9517.7125
2417.16446	9510.2125
2419.955	9508.2125
2422.74378	9493.7125
2425.5308	9482.0125
2428.31606	9473.0125
2431.09956	9471.4125
2433.88131	9440.1125
2436.6613	9473.3125
2439.43954	9464.3125
2442.21603	9437.7125
2444.99077	9452.3125
2447.76377	9474.1125
2450.53501	9426.3125
2453.30451	9430.0125
2456.07226	9420.9125
2458.83827	9401.0125
2461.60254	9392.5125
2464.36507	9404.3125
2467.12586	9372.6125
2469.88492	9385.7125
2472.64224	9383.9125
2475.39782	9371.3125
2478.15167	9362.9125
2480.90379	9382.4125
2483.65417	9378.0125
2486.40283	9359.6125
2489.14976	9375.1125
2491.89497	9357.8125
2494.63845	9361.4125
2497.3802	9342.2125
2500.12024	9355.9125
2502.85855	9352.9125
2505.59514	9337.3125
2508.33002	9314.7125
2511.06318	9291.2125
2513.79462	9280.3125
2516.52435	9262.6125
2519.25237	9263.0125
2521.97867	9235.1125
2524.70327	9240.2125
2527.42616	9218.5125
2530.14734	9200.8125
2532.86681	9217.8125
2535.58458	9196.6125
2538.30065	9189.1125
2541.01501	9165.3125
2543.72768	9159.0125
2546.43864	9156.0125
2549.14791	9148.7125
2551.85548	9141.0125
2554.56136	9131.1125
2557.26554	9109.2125
2559.96803	9071.0125
2562.66883	9091.4125
2565.36794	9068.6125
2568.06536	9074.1125
2570.7611	9036.4125
2573.45514	9037.8125
2576.14751	9038.8125
2578.83819	8998.8125
2581.52719	8978.1125
2584.21451	8956.6125
2586.90015	8960.5125
2589.58411	8936.6125
2592.2664	8911.1125
2594.94701	8895.4125
2597.62594	8914.6125
2600.30321	8893.5125
2602.9788	8882.6125
2605.65273	8899.6125
2608.32498	8877.8125
2610.99557	8880.5125
2613.66449	8884.1125
2616.33175	8863.5125
2618.99734	8862.1125
2621.66128	8859.2125
2624.32355	8829.1125
2626.98416	8821.1125
2629.64311	8780.8125
2632.30041	8793.8125
2634.95605	8785.1125
2637.61004	8752.6125
2640.26238	8743.5125
2642.91306	8737.9125
2645.56209	8741.1125
2648.20948	8748.2125
2650.85521	8724.5125
2653.4993	8743.3125
2656.14175	8724.3125
2658.78255	8703.2125
2661.42171	8722.2125
2664.05923	8718.5125
2666.6951	8757.3125
2669.32934	8769.5125
2671.96194	8753.4125
2674.59291	8759.9125
2677.22224	8732.3125
2679.84993	8762.1125
2682.476	8719.7125
2685.10043	8730.2125
2687.72324	8705.9125
2690.34441	8722.7125
2692.96396	8737.7125
2695.58188	8732.8125
2698.19818	8693.1125
2700.81285	8695.5125
2703.4259	8676.2125
2706.03733	8634.4125
2708.64714	8652.9125
2711.25533	8684.5125
2713.86191	8683.3125
2716.46687	8723.5125
2719.07021	8708.5125
2721.67194	8744.0125
2724.27206	8753.7125
2726.87057	8728.9125
2729.46747	8716.2125
2732.06276	8720.6125
2734.65644	8721.1125
2737.24852	8714.2125
2739.83899	8688.7125
2742.42786	8681.6125
2745.01513	8662.0125
2747.60079	8681.7125
2750.18486	8650.8125
2752.76733	8668.5125
2755.3482	8651.0125
2757.92747	8626.2125
2760.50515	8626.3125
2763.08123	8646.2125
2765.65573	8581.8125
2768.22863	8609.0125
2770.79994	8563.7125
2773.36967	8578.4125
2775.9378	8564.3125
2778.50435	8532.5125
2781.06932	8549.6125
2783.6327	8546.9125
2786.1945	8570.2125
2788.75471	8538.3125
2791.31335	8522.1125
2793.87041	8495.2125
2796.42589	8469.0125
2798.97979	8482.0125
2801.53212	8504.8125
2804.08288	8544.3125
2806.63206	8443.2125
2809.17967	8436.8125
2811.72571	8381.9125
2814.27018	8383.3125
2816.81308	8362.7125
2819.35442	8359.6125
2821.89419	8356.2125
2824.43239	8366.4125
2826.96904	8331.6125
2829.50412	8355.7125
2832.03763	8335.0125
2834.56959	8327.2125
2837.1	8317.4125
2839.62884	8319.7125
2842.15613	8298.1125
2844.68186	8304.5125
2847.20604	8292.7125
2849.72867	8297.4125
2852.24974	8276.4125
2854.76927	8268.8125
2857.28724	8245.9125
2859.80367	8257.0125
2862.31855	8246.5125
2864.83189	8240.0125
2867.34368	8238.2125
2869.85393	8247.5125
2872.36264	8236.7125
2874.8698	8233.8125
2877.37543	8241.4125
2879.87952	8227.8125
2882.38207	8216.8125
2884.88308	8211.1125
2887.38256	8222.8125
2889.88051	8197.2125
2892.37692	8209.8125
2894.8718	8201.0125
2897.36515	8218.4125
2899.85698	8233.9125
2902.34727	8229.6125
2904.83604	8249.8125
2907.32328	8268.2125
2909.809	8242.3125
2912.29319	8261.1125
2914.77587	8244.5125
2917.25702	8278.3125
2919.73665	8262.6125
2922.21476	8245.0125
2924.69136	8251.6125
2927.16644	8278.0125
2929.64	8259.5125
2932.11205	8234.4125
2934.58258	8214.5125
2937.05161	8210.1125
2939.51912	8225.3125
2941.98513	8211.3125
2944.44962	8199.6125
2946.91261	8154.7125
2949.37409	8202.8125
2951.83407	8170.0125
2954.29254	8165.7125
2956.74951	8148.0125
2959.20498	8149.4125
2961.65895	8136.8125
2964.11142	8109.6125
2966.56239	8103.4125
2969.01186	8094.2125
2971.45984	8102.2125
2973.90632	8088.6125
2976.35131	8055.6125
2978.7948	8068.2125
2981.23681	8031.9125
2983.67732	8021.9125
2986.11635	8016.6125
2988.55388	7987.1125
2990.98993	7977.6125
2993.4245	7949.1125
2995.85758	7958.9125
2998.28917	7916.1125
3000.71928	7921.1125
3003.14791	7927.8125
3005.57506	7905.8125
3008.00073	7855.8125
3010.42493	7864.9125
3012.84764	7869.0125
3015.26888	7869.4125
3017.68865	7848.8125
3020.10694	7830.2125
3022.52376	7834.4125
3024.9391	7804.6125
3027.35298	7793.8125
3029.76539	7778.9125
3032.17632	7781.2125
3034.5858	7757.7125
3036.9938	7776.7125
3039.40034	7744.7125
3041.80542	7737.1125
3044.20903	7727.8125
3046.61118	7730.7125
3049.01187	7716.7125
3051.4111	7710.2125
3053.80888	7684.4125
3056.20519	7673.2125
