Data from AgNPs_FTO_APTES_UA_50uM_CRN_50uM_R6G_10uM_NaF_0.1M_Addition_RamanShift__17__14-52-34-982.txt Node

Date: Mon Feb 21 14:52:34 GMT 2022
User: TCL
Spectrometer: QEP01345
Trigger mode: 4
Integration Time (sec): 7.000000E0
Scans to average: 10
Electric dark correction enabled: true
Nonlinearity correction enabled: false
Boxcar width: 0
XAxis mode: Raman Shifts
Number of Pixels in Spectrum: 1044
>>>>>Begin Spectral Data<<<<<
46.04893	0.125
50.45542	-0.075
54.85868	-0.575
59.25871	-1.275
63.6555	58.225
68.04907	62.925
72.43941	65.325
76.82654	68.025
81.21044	72.025
85.59113	76.125
89.96862	78.825
94.34289	82.425
98.71396	81.825
103.08183	90.525
107.4465	89.325
111.80798	93.925
116.16626	90.125
120.52136	94.725
124.87327	97.425
129.222	98.825
133.56755	103.825
137.90993	111.425
142.24913	117.125
146.58517	129.325
150.91804	144.725
155.24774	170.925
159.57429	205.525
163.89768	258.825
168.21792	346.625
172.53501	463.325
176.84895	649.025
181.15975	912.925
185.46741	1263.625
189.77193	1749.025
194.07331	2341.225
198.37157	3014.825
202.6667	3731.425
206.9587	4433.225
211.24758	5121.825
215.53334	5821.325
219.81599	6583.825
224.09553	7412.025
228.37195	8322.325
232.64527	9343.125
236.91549	10430.125
241.18261	11463.325
245.44663	12451.525
249.70755	13276.425
253.96539	14012.625
258.22014	14575.825
262.4718	15075.825
266.72039	15452.625
270.96589	15600.925
275.20832	15576.225
279.44768	15445.925
283.68397	15243.025
287.91719	15079.825
292.14735	14956.025
296.37445	15002.925
300.59849	15142.925
304.81948	15259.525
309.03742	15321.125
313.25231	15193.125
317.46415	14840.525
321.67296	14351.625
325.87872	13955.725
330.08145	13775.625
334.28114	13766.125
338.47781	13905.825
342.67145	14094.925
346.86207	14399.425
351.04966	14766.625
355.23424	15155.125
359.4158	15528.125
363.59435	15774.825
367.76989	15910.525
371.94243	16003.425
376.11196	16062.525
380.27849	16141.125
384.44203	16186.825
388.60257	16220.725
392.76012	16306.425
396.91468	16442.625
401.06626	16637.925
405.21485	16813.125
409.36047	16733.925
413.50311	16338.025
417.64277	15958.225
421.77947	15779.425
425.9132	15707.425
430.04396	15728.525
434.17176	15806.225
438.2966	15965.125
442.41849	16232.825
446.53742	16602.325
450.6534	16988.025
454.76644	17273.825
458.87653	17424.125
462.98368	17371.225
467.08789	17237.625
471.18916	17029.025
475.2875	16823.425
479.38291	16638.325
483.4754	16485.725
487.56496	16338.625
491.6516	16193.925
495.73531	16147.825
499.81612	16167.525
503.89401	16293.925
507.96899	16364.725
512.04106	16380.325
516.11023	16443.725
520.1765	16408.425
524.23987	16341.925
528.30034	16256.725
532.35792	16147.525
536.41261	16038.325
540.46441	15927.325
544.51333	15828.625
548.55936	15884.325
552.60252	16081.425
556.64279	16305.225
560.6802	16430.825
564.71473	16459.425
568.7464	16669.625
572.7752	16895.725
576.80114	17030.325
580.82422	17011.125
584.84444	17164.525
588.86181	17330.525
592.87633	17535.925
596.888	17688.225
600.89682	17874.925
604.9028	18723.025
608.90594	21050.825
612.90624	23636.525
616.90371	22346.625
620.89834	18340.025
624.89015	16576.725
628.87913	16381.325
632.86528	16444.025
636.84862	16480.825
640.82913	16333.625
644.80683	15889.525
648.78172	15553.425
652.75379	15516.025
656.72306	15708.325
660.68952	16089.725
664.65319	16004.825
668.61405	15737.225
672.57211	15710.325
676.52738	15821.125
680.47986	15868.025
684.42955	15748.725
688.37646	15558.125
692.32058	15542.725
696.26192	15670.925
700.20048	15720.425
704.13626	15802.825
708.06928	15730.025
711.99952	15627.825
715.927	15580.225
719.85171	15628.825
723.77365	15665.125
727.69284	15567.525
731.60928	15460.325
735.52295	15475.425
739.43388	15460.625
743.34206	15524.025
747.24749	15553.625
751.15017	15576.125
755.05012	15728.525
758.94733	16110.925
762.8418	16939.825
766.73354	18446.225
770.62254	20041.925
774.50882	20780.125
778.39237	20063.825
782.27321	18378.525
786.15132	16936.725
790.02671	16033.625
793.89938	15567.325
797.76935	15389.725
801.6366	15338.625
805.50115	15266.825
809.36299	15166.825
813.22213	15021.025
817.07857	14936.925
820.93231	14872.625
824.78336	14869.525
828.63172	14863.525
832.47738	14853.125
836.32036	14865.125
840.16066	14875.125
843.99827	14926.825
847.8332	14899.325
851.66546	14847.025
855.49504	14860.425
859.32195	14867.925
863.1462	14911.025
866.96777	14887.925
870.78668	14864.125
874.60293	14879.025
878.41652	14898.425
882.22745	14942.825
886.03573	15022.825
889.84136	14994.525
893.64433	14922.725
897.44466	14860.125
901.24235	14776.925
905.0374	14689.025
908.8298	14621.025
912.61957	14614.025
916.40671	14637.625
920.19121	14792.525
923.97308	14924.025
927.75233	15025.725
931.52895	15059.625
935.30295	14945.325
939.07433	14704.525
942.84309	14483.425
946.60924	14357.425
950.37278	14314.625
954.13371	14239.125
957.89203	14209.225
961.64774	14157.225
965.40086	14071.525
969.15137	14027.425
972.89929	13982.225
976.64461	13964.825
980.38733	13983.425
984.12747	14024.025
987.86502	14152.225
991.59999	14297.325
995.33237	14483.825
999.06217	14850.325
1002.78939	15200.125
1006.51404	15423.025
1010.23611	15593.225
1013.95561	15719.725
1017.67255	15760.625
1021.38692	15620.125
1025.09872	15487.425
1028.80796	15516.025
1032.51465	15750.125
1036.21877	16083.425
1039.92035	16169.925
1043.61937	16031.925
1047.31584	15815.225
1051.00976	15545.925
1054.70114	15390.425
1058.38998	15347.425
1062.07627	15436.325
1065.76003	15458.925
1069.44126	15529.325
1073.11995	15623.325
1076.79611	15793.325
1080.46974	15924.625
1084.14085	16112.925
1087.80943	16298.925
1091.47549	16443.225
1095.13903	16402.525
1098.80005	16149.325
1102.45857	15882.825
1106.11456	15720.025
1109.76805	15712.325
1113.41903	15805.525
1117.06751	16027.525
1120.71348	16231.225
1124.35696	16511.125
1127.99793	16788.025
1131.63641	16881.625
1135.2724	16739.625
1138.90589	16482.225
1142.5369	16260.325
1146.16542	16082.625
1149.79145	15975.225
1153.415	15985.725
1157.03607	16118.025
1160.65467	16400.125
1164.27079	16933.425
1167.88443	17699.125
1171.49561	18736.025
1175.10432	20064.325
1178.71056	21866.725
1182.31434	23510.125
1185.91565	24383.825
1189.51451	24259.225
1193.11091	23412.525
1196.70485	22218.025
1200.29634	21149.625
1203.88538	20281.625
1207.47197	19438.825
1211.05612	18717.825
1214.63782	18302.225
1218.21708	18085.425
1221.79391	18093.525
1225.36829	18180.325
1228.94024	18109.425
1232.50976	17880.225
1236.07685	17646.925
1239.6415	17506.225
1243.20374	17523.225
1246.76355	17592.925
1250.32093	17797.525
1253.8759	18119.025
1257.42845	18501.525
1260.97859	18999.925
1264.52631	19495.625
1268.07163	20016.025
1271.61453	20596.725
1275.15503	21172.225
1278.69312	21669.725
1282.22882	22028.425
1285.76211	22410.325
1289.29301	22818.625
1292.82151	23331.725
1296.34761	24093.825
1299.87133	25119.425
1303.39266	26615.525
1306.9116	28522.925
1310.42815	30505.325
1313.94233	31670.725
1317.45412	31491.625
1320.96354	30359.425
1324.47058	29170.325
1327.97525	28015.025
1331.47754	27242.725
1334.97747	26881.925
1338.47502	26780.825
1341.97022	26978.725
1345.46305	27290.025
1348.95352	27725.525
1352.44163	28485.325
1355.92738	29744.525
1359.41078	31682.225
1362.89183	33448.525
1366.37053	32733.025
1369.84688	29414.525
1373.32088	25829.625
1376.79254	23410.525
1380.26186	22173.825
1383.72883	21591.825
1387.19347	21229.725
1390.65578	20770.325
1394.11575	20458.825
1397.57339	20451.125
1401.0287	20623.525
1404.48168	20812.025
1407.93234	20899.425
1411.38068	20833.925
1414.82669	20604.925
1418.27039	20218.925
1421.71177	19784.625
1425.15083	19339.225
1428.58758	19132.025
1432.02203	19119.125
1435.45416	19338.925
1438.88399	19720.525
1442.31151	19937.325
1445.73673	20117.725
1449.15965	20322.125
1452.58027	20444.325
1455.9986	20510.225
1459.41463	20665.525
1462.82837	20975.525
1466.23982	21372.125
1469.64898	21731.625
1473.05586	22028.325
1476.46045	22134.825
1479.86276	22187.125
1483.26279	22148.125
1486.66054	22147.425
1490.05602	22346.825
1493.44922	22804.925
1496.84016	23360.825
1500.22882	24394.425
1503.61521	25873.725
1506.99934	27574.825
1510.38121	29002.825
1513.76081	29258.225
1517.13816	28064.325
1520.51324	26071.025
1523.88607	24205.725
1527.25665	22988.225
1530.62498	22331.325
1533.99105	21872.925
1537.35488	21628.025
1540.71647	21369.025
1544.07581	21123.625
1547.4329	20854.725
1550.78776	20683.325
1554.14038	20609.425
1557.49077	20657.025
1560.83892	20804.525
1564.18484	20978.225
1567.52853	21236.125
1570.86999	21407.525
1574.20922	21652.425
1577.54624	21656.325
1580.88103	21195.625
1584.2136	20663.425
1587.54395	20548.425
1590.87208	21065.525
1594.19801	22117.425
1597.52172	23420.925
1600.84321	24010.925
1604.16251	23369.225
1607.47959	22039.525
1610.79447	20611.125
1614.10715	19242.125
1617.41763	18027.425
1620.7259	17185.125
1624.03199	16731.225
1627.33587	16679.225
1630.63757	17022.225
1633.93707	17821.225
1637.23439	19111.125
1640.52951	20899.625
1643.82246	23034.925
1647.11321	24941.425
1650.40179	25710.825
1653.68819	24540.525
1656.97241	21841.825
1660.25446	18986.525
1663.53433	16922.225
1666.81203	15607.925
1670.08756	14798.225
1673.36092	14319.725
1676.63211	13979.725
1679.90115	13731.525
1683.16801	13561.525
1686.43272	13406.225
1689.69527	13287.225
1692.95567	13166.225
1696.2139	13028.425
1699.46999	12875.825
1702.72392	12835.425
1705.97571	12888.125
1709.22535	12945.125
1712.47284	12979.125
1715.71819	12984.225
1718.96139	12960.125
1722.20246	12914.925
1725.44139	12863.025
1728.67818	12816.125
1731.91284	12761.425
1735.14537	12684.725
1738.37576	12644.125
1741.60403	12621.225
1744.83017	12551.825
1748.05418	12523.725
1751.27607	12508.025
1754.49584	12445.625
1757.71349	12370.425
1760.92903	12355.825
1764.14244	12271.525
1767.35375	12278.725
1770.56294	12244.225
1773.77002	12211.825
1776.97499	12229.225
1780.17785	12244.625
1783.37861	12249.325
1786.57727	12267.325
1789.77382	12263.325
1792.96828	12218.025
1796.16064	12205.025
1799.3509	12197.825
1802.53907	12179.725
1805.72514	12144.025
1808.90913	12119.125
1812.09102	12092.825
1815.27083	12095.525
1818.44856	12058.525
1821.6242	12073.725
1824.79776	12035.625
1827.96924	12016.725
1831.13864	12024.425
1834.30597	11986.625
1837.47122	11991.525
1840.6344	12003.825
1843.7955	12012.425
1846.95454	11988.525
1850.11151	12015.925
1853.26642	11971.225
1856.41926	11967.925
1859.57004	11941.925
1862.71876	11951.825
1865.86542	11933.425
1869.01003	11929.925
1872.15258	11932.425
1875.29308	11927.325
1878.43152	11901.225
1881.56792	11905.425
1884.70227	11867.525
1887.83457	11863.625
1890.96482	11869.525
1894.09304	11835.725
1897.21921	11797.625
1900.34335	11824.325
1903.46544	11797.625
1906.58551	11772.525
1909.70353	11766.925
1912.81953	11762.725
1915.93349	11761.925
1919.04543	11713.825
1922.15534	11696.825
1925.26322	11674.325
1928.36908	11626.625
1931.47292	11608.325
1934.57473	11593.125
1937.67453	11577.525
1940.77232	11566.625
1943.86808	11511.225
1946.96184	11492.725
1950.05358	11430.725
1953.14331	11404.225
1956.23103	11357.725
1959.31675	11349.925
1962.40046	11334.525
1965.48217	11305.025
1968.56188	11271.825
1971.63959	11275.825
1974.7153	11211.525
1977.78901	11179.225
1980.86073	11162.925
1983.93046	11103.125
1986.99819	11048.325
1990.06394	11054.225
1993.1277	11004.925
1996.18947	10980.325
1999.24925	10958.725
2002.30706	10892.225
2005.36288	10884.025
2008.41672	10859.025
2011.46859	10831.025
2014.51848	10770.725
2017.56639	10770.825
2020.61233	10734.025
2023.6563	10713.825
2026.6983	10714.925
2029.73833	10675.325
2032.7764	10645.625
2035.8125	10623.525
2038.84664	10613.025
2041.87881	10643.625
2044.90903	10565.425
2047.93729	10586.725
2050.96359	10589.325
2053.98794	10556.225
2057.01034	10539.225
2060.03078	10538.825
2063.04927	10536.925
2066.06582	10534.425
2069.08042	10500.325
2072.09307	10481.225
2075.10378	10492.025
2078.11255	10501.225
2081.11938	10494.225
2084.12426	10472.025
2087.12722	10482.325
2090.12824	10458.825
2093.12732	10492.625
2096.12447	10470.625
2099.11969	10462.525
2102.11299	10479.325
2105.10435	10483.125
2108.09379	10457.625
2111.08131	10486.725
2114.0669	10491.925
2117.05057	10489.725
2120.03233	10487.325
2123.01216	10543.025
2125.99008	10532.925
2128.96609	10558.225
2131.94018	10565.125
2134.91236	10560.025
2137.88263	10536.325
2140.851	10588.925
2143.81746	10582.525
2146.78201	10592.325
2149.74466	10569.425
2152.7054	10558.125
2155.66425	10578.825
2158.6212	10565.325
2161.57625	10561.925
2164.52941	10539.525
2167.48067	10555.125
2170.43004	10549.425
2173.37752	10549.225
2176.32311	10548.325
2179.26681	10546.325
2182.20863	10561.825
2185.14856	10587.125
2188.08661	10586.325
2191.02278	10589.925
2193.95707	10553.925
2196.88948	10546.525
2199.82001	10531.325
2202.74867	10563.025
2205.67545	10542.625
2208.60037	10538.625
2211.52341	10504.625
2214.44458	10500.425
2217.36388	10500.125
2220.28132	10489.725
2223.1969	10456.125
2226.11061	10462.725
2229.02246	10412.225
2231.93245	10380.425
2234.84058	10381.125
2237.74686	10363.925
2240.65128	10364.225
2243.55385	10345.525
2246.45456	10343.125
2249.35343	10334.625
2252.25044	10303.025
2255.14561	10298.325
2258.03893	10292.925
2260.93041	10260.025
2263.82004	10260.625
2266.70783	10243.825
2269.59378	10210.425
2272.4779	10185.325
2275.36017	10170.425
2278.24061	10154.625
2281.11922	10108.825
2283.996	10101.625
2286.87094	10105.025
2289.74405	10099.325
2292.61534	10081.825
2295.4848	10055.925
2298.35243	10052.925
2301.21824	10065.025
2304.08223	10069.225
2306.94439	10099.425
2309.80474	10065.725
2312.66327	10099.925
2315.51999	10045.025
2318.37489	10068.825
2321.22797	10040.725
2324.07925	10069.125
2326.92871	10039.325
2329.77637	10044.225
2332.62222	10007.025
2335.46626	10018.425
2338.3085	10001.725
2341.14893	10001.625
2343.98756	10016.125
2346.8244	10006.125
2349.65943	9995.125
2352.49267	10011.925
2355.32411	10004.425
2358.15376	9974.525
2360.98161	9994.425
2363.80768	9978.825
2366.63195	9969.725
2369.45444	9957.025
2372.27514	9936.525
2375.09405	9925.825
2377.91118	9931.925
2380.72652	9899.725
2383.54009	9868.625
2386.35187	9831.825
2389.16188	9817.425
2391.97011	9803.825
2394.77657	9776.525
2397.58125	9784.225
2400.38416	9766.525
2403.18529	9750.425
2405.98466	9742.125
2408.78226	9699.725
2411.57809	9708.425
2414.37216	9677.125
2417.16446	9661.925
2419.955	9654.225
2422.74378	9635.125
2425.5308	9642.125
2428.31606	9635.125
2431.09956	9632.125
2433.88131	9637.325
2436.6613	9634.125
2439.43954	9629.625
2442.21603	9622.125
2444.99077	9638.725
2447.76377	9645.025
2450.53501	9642.125
2453.30451	9647.625
2456.07226	9606.925
2458.83827	9580.625
2461.60254	9608.025
2464.36507	9606.725
2467.12586	9608.825
2469.88492	9616.925
2472.64224	9620.425
2475.39782	9612.825
2478.15167	9597.525
2480.90379	9594.425
2483.65417	9621.925
2486.40283	9625.625
2489.14976	9609.425
2491.89497	9613.425
2494.63845	9635.125
2497.3802	9598.325
2500.12024	9625.625
2502.85855	9617.325
2505.59514	9623.025
2508.33002	9569.625
2511.06318	9561.025
2513.79462	9565.925
2516.52435	9523.925
2519.25237	9533.025
2521.97867	9538.825
2524.70327	9512.625
2527.42616	9504.925
2530.14734	9520.525
2532.86681	9505.425
2535.58458	9492.725
2538.30065	9488.625
2541.01501	9506.325
2543.72768	9460.225
2546.43864	9467.525
2549.14791	9458.125
2551.85548	9447.625
2554.56136	9418.325
2557.26554	9403.425
2559.96803	9406.425
2562.66883	9401.325
2565.36794	9400.625
2568.06536	9388.325
2570.7611	9369.625
2573.45514	9365.525
2576.14751	9378.925
2578.83819	9331.525
2581.52719	9343.725
2584.21451	9320.325
2586.90015	9341.125
2589.58411	9283.625
2592.2664	9288.225
2594.94701	9277.125
2597.62594	9284.925
2600.30321	9295.425
2602.9788	9294.825
2605.65273	9293.625
2608.32498	9283.325
2610.99557	9261.725
2613.66449	9277.025
2616.33175	9266.325
2618.99734	9276.425
2621.66128	9278.525
2624.32355	9267.525
2626.98416	9260.025
2629.64311	9260.025
2632.30041	9249.825
2634.95605	9235.025
2637.61004	9208.825
2640.26238	9190.625
2642.91306	9194.325
2645.56209	9186.225
2648.20948	9166.925
2650.85521	9176.225
2653.4993	9179.925
2656.14175	9172.625
2658.78255	9174.025
2661.42171	9176.425
2664.05923	9197.525
2666.6951	9190.225
2669.32934	9229.725
2671.96194	9203.525
2674.59291	9208.125
2677.22224	9196.625
2679.84993	9208.225
2682.476	9191.025
2685.10043	9192.025
2687.72324	9161.825
2690.34441	9156.525
2692.96396	9171.125
2695.58188	9148.425
2698.19818	9156.825
2700.81285	9136.125
2703.4259	9121.825
2706.03733	9054.925
2708.64714	9115.725
2711.25533	9112.225
2713.86191	9140.725
2716.46687	9148.125
2719.07021	9176.825
2721.67194	9194.725
2724.27206	9195.225
2726.87057	9210.225
2729.46747	9189.925
2732.06276	9204.425
2734.65644	9197.225
2737.24852	9186.625
2739.83899	9180.425
2742.42786	9163.625
2745.01513	9164.825
2747.60079	9171.025
2750.18486	9150.425
2752.76733	9148.025
2755.3482	9131.625
2757.92747	9157.425
2760.50515	9129.025
2763.08123	9130.025
2765.65573	9103.225
2768.22863	9111.325
2770.79994	9090.525
2773.36967	9084.525
2775.9378	9088.025
2778.50435	9068.425
2781.06932	9070.525
2783.6327	9095.925
2786.1945	9101.025
2788.75471	9093.725
2791.31335	9045.325
2793.87041	9030.225
2796.42589	9014.125
2798.97979	9030.725
2801.53212	8979.825
2804.08288	8998.525
2806.63206	8995.125
2809.17967	8956.725
2811.72571	8940.925
2814.27018	8931.125
2816.81308	8911.525
2819.35442	8937.425
2821.89419	8914.525
2824.43239	8918.725
2826.96904	8917.325
2829.50412	8902.325
2832.03763	8882.025
2834.56959	8897.125
2837.1	8887.725
2839.62884	8857.525
2842.15613	8858.625
2844.68186	8866.625
2847.20604	8850.625
2849.72867	8865.125
2852.24974	8849.025
2854.76927	8856.725
2857.28724	8820.625
2859.80367	8805.725
2862.31855	8814.525
2864.83189	8801.425
2867.34368	8801.125
2869.85393	8829.425
2872.36264	8836.825
2874.8698	8817.725
2877.37543	8820.225
2879.87952	8804.925
2882.38207	8830.325
2884.88308	8810.425
2887.38256	8824.425
2889.88051	8823.825
2892.37692	8836.925
2894.8718	8827.525
2897.36515	8857.825
2899.85698	8860.425
2902.34727	8878.425
2904.83604	8869.725
2907.32328	8883.925
2909.809	8889.025
2912.29319	8903.825
2914.77587	8915.225
2917.25702	8920.025
2919.73665	8901.525
2922.21476	8904.125
2924.69136	8902.325
2927.16644	8899.925
2929.64	8893.525
2932.11205	8890.225
2934.58258	8842.125
2937.05161	8858.025
2939.51912	8852.225
2941.98513	8839.025
2944.44962	8814.125
2946.91261	8797.225
2949.37409	8839.725
2951.83407	8819.225
2954.29254	8827.325
2956.74951	8796.725
2959.20498	8784.625
2961.65895	8801.525
2964.11142	8771.225
2966.56239	8750.525
2969.01186	8741.625
2971.45984	8727.825
2973.90632	8730.625
2976.35131	8692.625
2978.7948	8687.025
2981.23681	8681.825
2983.67732	8659.425
2986.11635	8642.825
2988.55388	8607.825
2990.98993	8595.425
2993.4245	8598.825
2995.85758	8584.125
2998.28917	8567.825
3000.71928	8560.125
3003.14791	8523.125
3005.57506	8533.525
3008.00073	8499.125
3010.42493	8505.725
3012.84764	8485.225
3015.26888	8468.925
3017.68865	8452.625
3020.10694	8458.925
3022.52376	8429.325
3024.9391	8428.225
3027.35298	8407.425
3029.76539	8408.725
3032.17632	8402.225
3034.5858	8397.925
3036.9938	8386.625
3039.40034	8364.425
3041.80542	8379.025
3044.20903	8363.625
3046.61118	8348.325
3049.01187	8328.725
3051.4111	8319.425
3053.80888	8337.425
3056.20519	8306.425
3058.60005	8288.825
3060.99345	8268.925
3063.3854	8265.925
3065.7759	8282.925
3068.16494	8249.225
3070.55254	8219.425
3072.93868	8195.025
3075.32338	8191.425
3077.70662	8161.825
3080.08842	8151.825
3082.46878	8144.325
3084.84769	8126.825
3087.22515	8133.125
3089.60118	8117.125
3091.97576	8122.625
3094.3489	8127.925
3096.72061	8112.225
3099.09087	8146.425
3101.4597	8127.125
3103.82709	8144.925
3106.19305	8130.625
3108.55757	8118.025
3110.92066	8139.225
3113.28232	8116.225
3115.64255	8085.625
3118.00134	8082.225
3120.35871	8074.725
3122.71466	8071.725
3125.06917	8055.225
3127.42226	8052.825
3129.77393	8030.225
3132.12417	8032.025
3134.47299	8032.425
3136.82039	8014.625
3139.16636	8022.125
3141.51092	8030.625
3143.85406	8032.725
3146.19579	8030.425
3148.53609	8027.025
3150.87499	8030.325
3153.21246	8058.125
3155.54853	8066.225
3157.88318	8075.725
3160.21642	8058.525
3162.54826	8073.125
3164.87868	8056.425
