Data from AgNPs_FTO_APTES_UA_50uM_CRN_2uM_R6G_10uM_NaF_0.1M_Addition_RamanShift__28__12-26-44-797.txt Node

Date: Mon Feb 21 12:26:44 GMT 2022
User: TCL
Spectrometer: QEP01345
Trigger mode: 4
Integration Time (sec): 7.000000E0
Scans to average: 10
Electric dark correction enabled: true
Nonlinearity correction enabled: false
Boxcar width: 0
XAxis mode: Raman Shifts
Number of Pixels in Spectrum: 1044
>>>>>Begin Spectral Data<<<<<
46.04893	0.2375
50.45542	-0.6625
54.85868	-0.8625
59.25871	-2.3625
63.6555	66.5375
68.04907	72.4375
72.43941	75.8375
76.82654	78.0375
81.21044	84.8375
85.59113	86.2375
89.96862	87.3375
94.34289	92.9375
98.71396	92.6375
103.08183	97.4375
107.4465	100.9375
111.80798	98.6375
116.16626	102.1375
120.52136	104.5375
124.87327	112.2375
129.222	109.0375
133.56755	112.4375
137.90993	125.0375
142.24913	132.5375
146.58517	145.7375
150.91804	165.7375
155.24774	199.7375
159.57429	240.5375
163.89768	304.4375
168.21792	395.7375
172.53501	535.7375
176.84895	745.5375
181.15975	1046.2375
185.46741	1473.1375
189.77193	2023.7375
194.07331	2706.6375
198.37157	3497.1375
202.6667	4303.8375
206.9587	5155.5375
211.24758	5955.6375
215.53334	6808.8375
219.81599	7704.8375
224.09553	8736.4375
228.37195	9886.1375
232.64527	11138.9375
236.91549	12449.4375
241.18261	13695.5375
245.44663	14770.8375
249.70755	15682.4375
253.96539	16521.1375
258.22014	17207.2375
262.4718	17758.4375
266.72039	18154.8375
270.96589	18314.4375
275.20832	18298.3375
279.44768	18139.0375
283.68397	17937.8375
287.91719	17785.6375
292.14735	17735.1375
296.37445	17927.4375
300.59849	18307.1375
304.81948	18753.0375
309.03742	19088.7375
313.25231	19032.4375
317.46415	18374.2375
321.67296	17399.7375
325.87872	16610.1375
330.08145	16210.7375
334.28114	16260.2375
338.47781	16496.7375
342.67145	16855.7375
346.86207	17430.0375
351.04966	18219.0375
355.23424	19070.7375
359.4158	19796.6375
363.59435	20157.2375
367.76989	20307.6375
371.94243	20303.0375
376.11196	20229.7375
380.27849	20152.9375
384.44203	20088.4375
388.60257	19976.5375
392.76012	19963.5375
396.91468	20169.1375
401.06626	20630.2375
405.21485	20988.8375
409.36047	20807.4375
413.50311	20154.9375
417.64277	19529.9375
421.77947	19163.8375
425.9132	19071.2375
430.04396	19086.1375
434.17176	19223.5375
438.2966	19437.2375
442.41849	19834.1375
446.53742	20405.9375
450.6534	20999.5375
454.76644	21441.8375
458.87653	21561.8375
462.98368	21442.1375
467.08789	21093.9375
471.18916	20685.0375
475.2875	20187.5375
479.38291	19873.4375
483.4754	19618.1375
487.56496	19410.8375
491.6516	19210.4375
495.73531	19105.5375
499.81612	19090.4375
503.89401	19225.7375
507.96899	19348.7375
512.04106	19438.9375
516.11023	19583.7375
520.1765	19657.8375
524.23987	19615.0375
528.30034	19439.5375
532.35792	19175.6375
536.41261	18949.1375
540.46441	18643.7375
544.51333	18551.0375
548.55936	18700.6375
552.60252	19072.1375
556.64279	19486.5375
560.6802	19673.2375
564.71473	19910.2375
568.7464	20492.1375
572.7752	20896.9375
576.80114	20706.0375
580.82422	20437.4375
584.84444	20408.1375
588.86181	20501.0375
592.87633	20704.8375
596.888	20968.9375
600.89682	21404.5375
604.9028	23150.0375
608.90594	27631.2375
612.90624	33158.2375
616.90371	31559.1375
620.89834	24167.6375
624.89015	20751.5375
628.87913	20237.4375
632.86528	20306.5375
636.84862	20370.7375
640.82913	20007.9375
644.80683	19246.4375
648.78172	18706.2375
652.75379	18711.0375
656.72306	19253.7375
660.68952	19974.7375
664.65319	19853.6375
668.61405	19178.8375
672.57211	18893.7375
676.52738	18871.7375
680.47986	18839.1375
684.42955	18732.6375
688.37646	18705.8375
692.32058	18802.5375
696.26192	18967.5375
700.20048	19222.2375
704.13626	19347.2375
708.06928	19317.7375
711.99952	19149.0375
715.927	19082.5375
719.85171	19118.3375
723.77365	19109.4375
727.69284	18921.4375
731.60928	18741.5375
735.52295	18738.9375
739.43388	18790.7375
743.34206	18917.4375
747.24749	19076.6375
751.15017	19227.2375
755.05012	19622.9375
758.94733	20325.1375
762.8418	21982.8375
766.73354	24682.8375
770.62254	27307.7375
774.50882	28362.2375
778.39237	27185.4375
782.27321	24317.0375
786.15132	21601.7375
790.02671	20037.0375
793.89938	19334.1375
797.76935	19069.0375
801.6366	18950.3375
805.50115	18919.1375
809.36299	18851.8375
813.22213	18784.4375
817.07857	18773.6375
820.93231	18735.1375
824.78336	18729.1375
828.63172	18768.1375
832.47738	18846.3375
836.32036	18851.0375
840.16066	18889.9375
843.99827	18876.5375
847.8332	18879.7375
851.66546	18808.6375
855.49504	18746.7375
859.32195	18742.8375
863.1462	18623.1375
866.96777	18549.6375
870.78668	18518.1375
874.60293	18563.2375
878.41652	18595.9375
882.22745	18704.7375
886.03573	18779.6375
889.84136	18811.1375
893.64433	18675.8375
897.44466	18625.7375
901.24235	18564.0375
905.0374	18545.3375
908.8298	18436.3375
912.61957	18399.5375
916.40671	18518.3375
920.19121	18698.1375
923.97308	18948.5375
927.75233	19107.3375
931.52895	19195.0375
935.30295	18961.5375
939.07433	18583.7375
942.84309	18273.2375
946.60924	18136.9375
950.37278	18019.4375
954.13371	17916.4375
957.89203	17800.2375
961.64774	17768.6375
965.40086	17727.4375
969.15137	17679.9375
972.89929	17651.3375
976.64461	17582.2375
980.38733	17583.2375
984.12747	17659.5375
987.86502	17804.0375
991.59999	17978.9375
995.33237	18345.0375
999.06217	18930.0375
1002.78939	19617.6375
1006.51404	20145.8375
1010.23611	20491.1375
1013.95561	20725.2375
1017.67255	20752.3375
1021.38692	20567.1375
1025.09872	20399.0375
1028.80796	20550.0375
1032.51465	21013.5375
1036.21877	21486.7375
1039.92035	21565.3375
1043.61937	21331.9375
1047.31584	20874.1375
1051.00976	20279.3375
1054.70114	19981.9375
1058.38998	19905.7375
1062.07627	20010.0375
1065.76003	20102.5375
1069.44126	20237.5375
1073.11995	20413.9375
1076.79611	20573.4375
1080.46974	20743.3375
1084.14085	21147.0375
1087.80943	21509.5375
1091.47549	21587.7375
1095.13903	21322.6375
1098.80005	20754.1375
1102.45857	20340.1375
1106.11456	20126.3375
1109.76805	20161.4375
1113.41903	20495.4375
1117.06751	20935.5375
1120.71348	21622.9375
1124.35696	22291.0375
1127.99793	22786.5375
1131.63641	22672.6375
1135.2724	22016.5375
1138.90589	21366.1375
1142.5369	20976.5375
1146.16542	20706.2375
1149.79145	20585.5375
1153.415	20554.1375
1157.03607	20757.9375
1160.65467	21156.9375
1164.27079	21770.4375
1167.88443	22734.3375
1171.49561	24219.7375
1175.10432	26543.6375
1178.71056	29501.4375
1182.31434	32016.9375
1185.91565	33046.6375
1189.51451	32728.3375
1193.11091	31219.7375
1196.70485	29354.6375
1200.29634	27793.6375
1203.88538	26601.2375
1207.47197	25363.1375
1211.05612	24367.0375
1214.63782	23782.3375
1218.21708	23682.4375
1221.79391	23757.6375
1225.36829	23879.9375
1228.94024	23863.3375
1232.50976	23749.1375
1236.07685	23647.0375
1239.6415	23632.5375
1243.20374	23643.1375
1246.76355	23828.2375
1250.32093	24109.8375
1253.8759	24642.8375
1257.42845	25344.9375
1260.97859	26064.2375
1264.52631	26638.2375
1268.07163	27213.3375
1271.61453	27911.7375
1275.15503	28523.0375
1278.69312	29190.5375
1282.22882	29779.4375
1285.76211	30483.2375
1289.29301	31319.6375
1292.82151	32092.5375
1296.34761	33102.4375
1299.87133	34629.5375
1303.39266	37078.8375
1306.9116	40513.1375
1310.42815	44100.6375
1313.94233	45801.6375
1317.45412	44819.5375
1320.96354	42441.5375
1324.47058	39959.5375
1327.97525	37976.7375
1331.47754	36870.4375
1334.97747	36704.7375
1338.47502	37322.9375
1341.97022	38256.2375
1345.46305	39083.7375
1348.95352	39812.1375
1352.44163	40893.9375
1355.92738	43147.6375
1359.41078	47325.2375
1362.89183	50897.9375
1366.37053	49046.8375
1369.84688	42875.4375
1373.32088	36977.8375
1376.79254	33231.2375
1380.26186	31257.9375
1383.72883	30266.5375
1387.19347	29473.1375
1390.65578	28801.0375
1394.11575	28372.1375
1397.57339	28412.2375
1401.0287	28818.7375
1404.48168	29369.3375
1407.93234	30028.7375
1411.38068	30581.4375
1414.82669	30634.6375
1418.27039	30091.7375
1421.71177	29216.5375
1425.15083	28421.8375
1428.58758	28043.2375
1432.02203	28083.1375
1435.45416	28270.6375
1438.88399	28325.2375
1442.31151	28383.9375
1445.73673	28591.2375
1449.15965	28821.2375
1452.58027	28838.8375
1455.9986	28658.5375
1459.41463	28628.0375
1462.82837	28875.6375
1466.23982	29423.0375
1469.64898	30022.3375
1473.05586	30467.8375
1476.46045	30751.4375
1479.86276	31135.0375
1483.26279	31577.9375
1486.66054	32271.8375
1490.05602	33133.0375
1493.44922	34341.0375
1496.84016	35838.8375
1500.22882	38079.7375
1503.61521	41130.4375
1506.99934	44523.0375
1510.38121	47074.0375
1513.76081	47201.3375
1517.13816	44313.3375
1520.51324	40024.5375
1523.88607	36266.4375
1527.25665	33934.7375
1530.62498	32598.9375
1533.99105	31797.3375
1537.35488	31311.3375
1540.71647	31034.7375
1544.07581	30893.8375
1547.4329	30637.3375
1550.78776	30421.6375
1554.14038	30292.9375
1557.49077	30334.8375
1560.83892	30514.5375
1564.18484	30917.2375
1567.52853	31362.7375
1570.86999	31683.7375
1574.20922	31819.3375
1577.54624	31578.6375
1580.88103	30664.9375
1584.2136	29641.9375
1587.54395	29494.1375
1590.87208	30545.9375
1594.19801	32624.4375
1597.52172	35007.1375
1600.84321	35998.5375
1604.16251	34930.9375
1607.47959	32662.0375
1610.79447	30007.3375
1614.10715	27599.0375
1617.41763	25782.3375
1620.7259	24609.0375
1624.03199	24144.0375
1627.33587	24209.7375
1630.63757	24887.7375
1633.93707	26184.3375
1637.23439	28090.8375
1640.52951	30588.5375
1643.82246	33555.8375
1647.11321	36365.5375
1650.40179	37586.4375
1653.68819	35635.8375
1656.97241	31275.4375
1660.25446	26871.5375
1663.53433	23781.2375
1666.81203	21920.6375
1670.08756	20800.1375
1673.36092	20142.7375
1676.63211	19688.7375
1679.90115	19364.8375
1683.16801	19130.2375
1686.43272	18927.9375
1689.69527	18773.5375
1692.95567	18621.6375
1696.2139	18506.1375
1699.46999	18342.2375
1702.72392	18275.6375
1705.97571	18369.7375
1709.22535	18408.3375
1712.47284	18487.3375
1715.71819	18497.9375
1718.96139	18493.0375
1722.20246	18430.8375
1725.44139	18386.3375
1728.67818	18277.1375
1731.91284	18187.3375
1735.14537	18093.3375
1738.37576	18039.5375
1741.60403	17956.2375
1744.83017	17904.0375
1748.05418	17857.8375
1751.27607	17761.2375
1754.49584	17691.7375
1757.71349	17657.1375
1760.92903	17613.9375
1764.14244	17600.3375
1767.35375	17630.5375
1770.56294	17579.5375
1773.77002	17561.3375
1776.97499	17618.8375
1780.17785	17606.8375
1783.37861	17657.1375
1786.57727	17639.0375
1789.77382	17666.1375
1792.96828	17653.7375
1796.16064	17593.3375
1799.3509	17595.8375
1802.53907	17621.8375
1805.72514	17547.4375
1808.90913	17531.1375
1812.09102	17450.7375
1815.27083	17438.6375
1818.44856	17444.4375
1821.6242	17451.1375
1824.79776	17428.1375
1827.96924	17400.2375
1831.13864	17372.6375
1834.30597	17401.1375
1837.47122	17389.3375
1840.6344	17352.8375
1843.7955	17340.2375
1846.95454	17315.6375
1850.11151	17351.9375
1853.26642	17311.7375
1856.41926	17353.8375
1859.57004	17364.2375
1862.71876	17362.8375
1865.86542	17351.4375
1869.01003	17375.0375
1872.15258	17372.6375
1875.29308	17380.9375
1878.43152	17395.9375
1881.56792	17411.2375
1884.70227	17434.1375
1887.83457	17416.3375
1890.96482	17418.5375
1894.09304	17397.3375
1897.21921	17416.4375
1900.34335	17393.2375
1903.46544	17384.0375
1906.58551	17446.9375
1909.70353	17425.4375
1912.81953	17426.9375
1915.93349	17427.8375
1919.04543	17382.4375
1922.15534	17369.9375
1925.26322	17304.4375
1928.36908	17282.4375
1931.47292	17240.9375
1934.57473	17197.5375
1937.67453	17148.5375
1940.77232	17106.2375
1943.86808	17037.5375
1946.96184	16987.9375
1950.05358	16925.3375
1953.14331	16874.3375
1956.23103	16860.6375
1959.31675	16762.7375
1962.40046	16720.7375
1965.48217	16700.6375
1968.56188	16669.7375
1971.63959	16614.2375
1974.7153	16553.2375
1977.78901	16513.9375
1980.86073	16440.1375
1983.93046	16404.6375
1986.99819	16342.4375
1990.06394	16290.5375
1993.1277	16259.7375
1996.18947	16254.2375
1999.24925	16185.3375
2002.30706	16149.2375
2005.36288	16118.5375
2008.41672	16054.1375
2011.46859	16003.1375
2014.51848	15942.5375
2017.56639	15916.9375
2020.61233	15903.8375
2023.6563	15840.8375
2026.6983	15832.0375
2029.73833	15810.0375
2032.7764	15792.8375
2035.8125	15765.7375
2038.84664	15747.3375
2041.87881	15738.1375
2044.90903	15711.2375
2047.93729	15658.3375
2050.96359	15661.8375
2053.98794	15636.4375
2057.01034	15617.8375
2060.03078	15627.0375
2063.04927	15597.5375
2066.06582	15582.3375
2069.08042	15575.4375
2072.09307	15538.1375
2075.10378	15561.0375
2078.11255	15519.1375
2081.11938	15537.0375
2084.12426	15516.7375
2087.12722	15520.8375
2090.12824	15501.6375
2093.12732	15531.1375
2096.12447	15520.5375
2099.11969	15523.3375
2102.11299	15518.2375
2105.10435	15508.1375
2108.09379	15531.8375
2111.08131	15547.6375
2114.0669	15542.6375
2117.05057	15548.6375
2120.03233	15562.1375
2123.01216	15574.8375
2125.99008	15576.5375
2128.96609	15600.5375
2131.94018	15631.6375
2134.91236	15675.6375
2137.88263	15662.7375
2140.851	15677.1375
2143.81746	15691.7375
2146.78201	15681.2375
2149.74466	15666.1375
2152.7054	15654.3375
2155.66425	15684.1375
2158.6212	15663.2375
2161.57625	15621.5375
2164.52941	15665.6375
2167.48067	15663.0375
2170.43004	15667.5375
2173.37752	15624.0375
2176.32311	15627.2375
2179.26681	15663.5375
2182.20863	15667.0375
2185.14856	15715.9375
2188.08661	15695.1375
2191.02278	15678.5375
2193.95707	15706.4375
2196.88948	15668.4375
2199.82001	15657.6375
2202.74867	15648.2375
2205.67545	15647.9375
2208.60037	15659.8375
2211.52341	15677.0375
2214.44458	15629.0375
2217.36388	15591.2375
2220.28132	15560.0375
2223.1969	15580.1375
2226.11061	15554.0375
2229.02246	15505.8375
2231.93245	15514.2375
2234.84058	15415.8375
2237.74686	15434.8375
2240.65128	15393.6375
2243.55385	15406.7375
2246.45456	15367.3375
2249.35343	15380.8375
2252.25044	15372.6375
2255.14561	15348.8375
2258.03893	15387.5375
2260.93041	15338.9375
2263.82004	15303.6375
2266.70783	15253.6375
2269.59378	15244.1375
2272.4779	15196.0375
2275.36017	15162.5375
2278.24061	15130.1375
2281.11922	15090.8375
2283.996	15085.2375
2286.87094	15072.8375
2289.74405	15042.1375
2292.61534	15054.9375
2295.4848	15012.7375
2298.35243	15004.3375
2301.21824	14994.0375
2304.08223	15027.5375
2306.94439	15037.6375
2309.80474	15020.8375
2312.66327	15027.1375
2315.51999	15014.2375
2318.37489	15023.6375
2321.22797	15042.0375
2324.07925	15011.3375
2326.92871	14981.5375
2329.77637	15000.5375
2332.62222	15018.6375
2335.46626	14985.9375
2338.3085	14991.0375
2341.14893	14970.1375
2343.98756	15032.0375
2346.8244	15026.3375
2349.65943	15059.8375
2352.49267	15034.4375
2355.32411	15016.7375
2358.15376	15035.5375
2360.98161	15031.2375
2363.80768	15010.2375
2366.63195	15019.9375
2369.45444	14962.6375
2372.27514	14957.9375
2375.09405	14927.8375
2377.91118	14925.4375
2380.72652	14856.2375
2383.54009	14847.9375
2386.35187	14827.3375
2389.16188	14759.4375
2391.97011	14717.2375
2394.77657	14707.1375
2397.58125	14678.8375
2400.38416	14671.0375
2403.18529	14632.4375
2405.98466	14618.0375
2408.78226	14607.7375
2411.57809	14533.1375
2414.37216	14536.3375
2417.16446	14515.6375
2419.955	14503.5375
2422.74378	14463.8375
2425.5308	14474.2375
2428.31606	14474.3375
2431.09956	14473.7375
2433.88131	14478.2375
2436.6613	14474.4375
2439.43954	14481.6375
2442.21603	14473.5375
2444.99077	14460.8375
2447.76377	14480.6375
2450.53501	14441.0375
2453.30451	14448.8375
2456.07226	14445.5375
2458.83827	14433.2375
2461.60254	14422.9375
2464.36507	14409.0375
2467.12586	14416.0375
2469.88492	14408.7375
2472.64224	14400.0375
2475.39782	14415.7375
2478.15167	14409.8375
2480.90379	14479.5375
2483.65417	14502.8375
2486.40283	14493.7375
2489.14976	14527.5375
2491.89497	14528.2375
2494.63845	14519.8375
2497.3802	14532.2375
2500.12024	14521.9375
2502.85855	14527.0375
2505.59514	14498.3375
2508.33002	14486.2375
2511.06318	14468.6375
2513.79462	14410.6375
2516.52435	14394.0375
2519.25237	14371.6375
2521.97867	14336.8375
2524.70327	14361.2375
2527.42616	14343.2375
2530.14734	14356.0375
2532.86681	14363.8375
2535.58458	14348.8375
2538.30065	14327.8375
2541.01501	14367.0375
2543.72768	14295.4375
2546.43864	14290.5375
2549.14791	14292.4375
2551.85548	14273.7375
2554.56136	14271.4375
2557.26554	14236.2375
2559.96803	14238.3375
2562.66883	14216.8375
2565.36794	14211.5375
2568.06536	14188.5375
2570.7611	14210.4375
2573.45514	14172.3375
2576.14751	14181.0375
2578.83819	14174.5375
2581.52719	14160.6375
2584.21451	14144.3375
2586.90015	14156.5375
2589.58411	14131.9375
2592.2664	14155.7375
2594.94701	14128.3375
2597.62594	14118.2375
2600.30321	14105.2375
2602.9788	14097.3375
2605.65273	14111.8375
2608.32498	14117.6375
2610.99557	14103.3375
2613.66449	14087.2375
2616.33175	14095.0375
2618.99734	14107.4375
2621.66128	14104.2375
2624.32355	14092.6375
2626.98416	14118.0375
2629.64311	14127.1375
2632.30041	14131.9375
2634.95605	14118.8375
2637.61004	14080.5375
2640.26238	14046.7375
2642.91306	14044.9375
2645.56209	14013.9375
2648.20948	14014.0375
2650.85521	13976.3375
2653.4993	13994.4375
2656.14175	13996.8375
2658.78255	14061.7375
2661.42171	14015.3375
2664.05923	14064.0375
2666.6951	14035.3375
2669.32934	14094.9375
2671.96194	14107.8375
2674.59291	14087.0375
2677.22224	14120.2375
2679.84993	14116.0375
2682.476	14089.7375
2685.10043	14108.2375
2687.72324	14082.9375
2690.34441	14095.6375
2692.96396	14081.6375
2695.58188	14062.7375
2698.19818	14051.5375
2700.81285	14054.9375
2703.4259	14028.2375
2706.03733	13962.0375
2708.64714	13995.7375
2711.25533	14022.2375
2713.86191	14051.5375
2716.46687	14086.2375
2719.07021	14100.8375
2721.67194	14085.5375
2724.27206	14110.9375
2726.87057	14120.8375
2729.46747	14140.9375
2732.06276	14141.9375
2734.65644	14141.9375
2737.24852	14160.5375
2739.83899	14135.3375
2742.42786	14158.0375
2745.01513	14116.1375
2747.60079	14104.5375
2750.18486	14082.0375
2752.76733	14043.6375
2755.3482	14059.6375
2757.92747	14053.9375
2760.50515	14070.7375
2763.08123	14013.8375
2765.65573	14037.2375
2768.22863	14014.6375
2770.79994	14018.2375
2773.36967	14007.9375
2775.9378	14008.9375
2778.50435	14042.9375
2781.06932	14002.9375
2783.6327	14011.1375
2786.1945	14031.0375
2788.75471	14017.6375
2791.31335	13960.1375
2793.87041	13954.6375
2796.42589	13926.2375
2798.97979	13925.0375
2801.53212	13901.7375
2804.08288	13855.7375
2806.63206	13897.8375
2809.17967	13873.0375
2811.72571	13855.7375
2814.27018	13831.6375
2816.81308	13827.0375
2819.35442	13825.7375
2821.89419	13788.9375
2824.43239	13804.4375
2826.96904	13791.4375
2829.50412	13780.0375
2832.03763	13778.4375
2834.56959	13792.8375
2837.1	13788.3375
2839.62884	13751.5375
2842.15613	13731.2375
2844.68186	13766.3375
2847.20604	13771.0375
2849.72867	13749.0375
2852.24974	13759.3375
2854.76927	13735.0375
2857.28724	13727.2375
2859.80367	13717.6375
2862.31855	13711.8375
2864.83189	13714.1375
2867.34368	13667.5375
2869.85393	13665.9375
2872.36264	13694.9375
2874.8698	13677.7375
2877.37543	13664.3375
2879.87952	13657.9375
2882.38207	13651.3375
2884.88308	13686.8375
2887.38256	13660.1375
2889.88051	13670.7375
2892.37692	13641.7375
2894.8718	13697.0375
2897.36515	13662.1375
2899.85698	13715.9375
2902.34727	13702.4375
2904.83604	13689.0375
2907.32328	13718.5375
2909.809	13724.4375
2912.29319	13723.8375
2914.77587	13702.1375
2917.25702	13711.9375
2919.73665	13676.3375
2922.21476	13675.3375
2924.69136	13667.8375
2927.16644	13644.5375
2929.64	13635.4375
2932.11205	13639.6375
2934.58258	13579.7375
2937.05161	13608.2375
2939.51912	13593.8375
2941.98513	13574.6375
2944.44962	13543.0375
2946.91261	13495.6375
2949.37409	13564.8375
2951.83407	13549.0375
2954.29254	13529.5375
2956.74951	13551.7375
2959.20498	13482.9375
2961.65895	13511.1375
2964.11142	13505.4375
2966.56239	13495.9375
2969.01186	13508.8375
2971.45984	13455.6375
2973.90632	13430.9375
2976.35131	13408.3375
2978.7948	13352.5375
2981.23681	13343.8375
2983.67732	13329.7375
2986.11635	13303.3375
2988.55388	13260.2375
2990.98993	13233.8375
2993.4245	13204.6375
2995.85758	13179.2375
2998.28917	13150.7375
3000.71928	13157.4375
3003.14791	13123.9375
3005.57506	13093.6375
3008.00073	13050.2375
3010.42493	13055.2375
3012.84764	13052.9375
3015.26888	13034.8375
3017.68865	12982.3375
3020.10694	12991.8375
3022.52376	12967.3375
3024.9391	12937.3375
