Data from AgNPs_FTO_APTES_UA_50uM_CRN_0uM_R6G_10uM_NaF_0.1M_Addition_RamanShift__0__10-10-14-629.txt Node

Date: Mon Feb 21 10:10:14 GMT 2022
User: TCL
Spectrometer: QEP01345
Trigger mode: 4
Integration Time (sec): 7.000000E0
Scans to average: 10
Electric dark correction enabled: true
Nonlinearity correction enabled: false
Boxcar width: 0
XAxis mode: Raman Shifts
Number of Pixels in Spectrum: 1044
>>>>>Begin Spectral Data<<<<<
46.04893	1.5125
50.45542	-1.0875
54.85868	0.0125
59.25871	-0.9875
63.6555	25.8125
68.04907	29.9125
72.43941	31.2125
76.82654	33.5125
81.21044	35.9125
85.59113	39.5125
89.96862	40.9125
94.34289	44.4125
98.71396	41.2125
103.08183	47.8125
107.4465	44.8125
111.80798	42.7125
116.16626	43.4125
120.52136	43.2125
124.87327	47.8125
129.222	45.6125
133.56755	43.8125
137.90993	49.9125
142.24913	45.8125
146.58517	50.8125
150.91804	51.8125
155.24774	57.9125
159.57429	64.7125
163.89768	76.7125
168.21792	92.0125
172.53501	117.2125
176.84895	160.1125
181.15975	207.6125
185.46741	285.1125
189.77193	396.9125
194.07331	531.3125
198.37157	685.9125
202.6667	850.2125
206.9587	1021.8125
211.24758	1196.5125
215.53334	1354.5125
219.81599	1538.7125
224.09553	1743.5125
228.37195	1953.2125
232.64527	2206.8125
236.91549	2478.2125
241.18261	2750.7125
245.44663	3029.0125
249.70755	3301.5125
253.96539	3547.2125
258.22014	3759.2125
262.4718	3918.3125
266.72039	4019.1125
270.96589	4047.8125
275.20832	4017.4125
279.44768	3968.9125
283.68397	3832.6125
287.91719	3712.1125
292.14735	3588.3125
296.37445	3484.6125
300.59849	3393.7125
304.81948	3322.6125
309.03742	3257.0125
313.25231	3204.7125
317.46415	3118.2125
321.67296	3036.3125
325.87872	2979.7125
330.08145	2937.9125
334.28114	2913.1125
338.47781	2918.4125
342.67145	2930.2125
346.86207	2953.5125
351.04966	2980.9125
355.23424	3031.8125
359.4158	3056.1125
363.59435	3061.3125
367.76989	3040.0125
371.94243	3033.3125
376.11196	2989.7125
380.27849	2934.6125
384.44203	2891.3125
388.60257	2850.4125
392.76012	2800.5125
396.91468	2777.3125
401.06626	2746.4125
405.21485	2708.5125
409.36047	2662.5125
413.50311	2582.9125
417.64277	2516.2125
421.77947	2471.9125
425.9132	2402.3125
430.04396	2388.0125
434.17176	2365.8125
438.2966	2393.6125
442.41849	2410.5125
446.53742	2430.4125
450.6534	2448.6125
454.76644	2454.5125
458.87653	2459.0125
462.98368	2446.1125
467.08789	2429.2125
471.18916	2419.1125
475.2875	2404.3125
479.38291	2371.0125
483.4754	2355.2125
487.56496	2330.9125
491.6516	2330.7125
495.73531	2308.7125
499.81612	2301.6125
503.89401	2303.7125
507.96899	2298.9125
512.04106	2321.4125
516.11023	2312.0125
520.1765	2338.8125
524.23987	2336.3125
528.30034	2348.3125
532.35792	2353.2125
536.41261	2352.0125
540.46441	2357.4125
544.51333	2371.1125
548.55936	2387.3125
552.60252	2421.7125
556.64279	2458.2125
560.6802	2496.9125
564.71473	2509.8125
568.7464	2531.9125
572.7752	2547.2125
576.80114	2512.7125
580.82422	2468.6125
584.84444	2433.8125
588.86181	2411.0125
592.87633	2398.2125
596.888	2404.2125
600.89682	2390.3125
604.9028	2427.2125
608.90594	2649.3125
612.90624	2967.7125
616.90371	2990.7125
620.89834	2627.9125
624.89015	2407.4125
628.87913	2353.2125
632.86528	2335.0125
636.84862	2316.5125
640.82913	2285.0125
644.80683	2252.2125
648.78172	2220.0125
652.75379	2228.8125
656.72306	2256.0125
660.68952	2314.7125
664.65319	2344.1125
668.61405	2350.5125
672.57211	2392.2125
676.52738	2453.7125
680.47986	2546.1125
684.42955	2610.7125
688.37646	2637.8125
692.32058	2648.9125
696.26192	2647.3125
700.20048	2598.8125
704.13626	2573.5125
708.06928	2535.3125
711.99952	2520.2125
715.927	2500.5125
719.85171	2487.9125
723.77365	2446.1125
727.69284	2409.9125
731.60928	2379.3125
735.52295	2343.0125
739.43388	2296.7125
743.34206	2297.5125
747.24749	2283.9125
751.15017	2275.0125
755.05012	2278.8125
758.94733	2298.6125
762.8418	2378.0125
766.73354	2505.1125
770.62254	2657.2125
774.50882	2731.5125
778.39237	2683.7125
782.27321	2562.8125
786.15132	2432.1125
790.02671	2355.7125
793.89938	2316.5125
797.76935	2308.1125
801.6366	2311.7125
805.50115	2307.3125
809.36299	2316.8125
813.22213	2324.7125
817.07857	2332.0125
820.93231	2336.6125
824.78336	2343.8125
828.63172	2354.9125
832.47738	2351.5125
836.32036	2338.9125
840.16066	2334.9125
843.99827	2341.5125
847.8332	2329.3125
851.66546	2342.4125
855.49504	2330.8125
859.32195	2333.0125
863.1462	2344.1125
866.96777	2358.1125
870.78668	2353.2125
874.60293	2358.6125
878.41652	2376.0125
882.22745	2393.4125
886.03573	2409.2125
889.84136	2433.6125
893.64433	2476.3125
897.44466	2506.7125
901.24235	2543.2125
905.0374	2569.3125
908.8298	2613.2125
912.61957	2637.2125
916.40671	2646.1125
920.19121	2661.6125
923.97308	2672.5125
927.75233	2663.8125
931.52895	2674.7125
935.30295	2642.0125
939.07433	2595.8125
942.84309	2552.1125
946.60924	2524.9125
950.37278	2495.7125
954.13371	2479.2125
957.89203	2464.9125
961.64774	2444.9125
965.40086	2415.7125
969.15137	2410.0125
972.89929	2402.6125
976.64461	2391.5125
980.38733	2381.0125
984.12747	2382.1125
987.86502	2366.8125
991.59999	2370.5125
995.33237	2385.1125
999.06217	2403.3125
1002.78939	2403.0125
1006.51404	2427.7125
1010.23611	2442.2125
1013.95561	2457.7125
1017.67255	2475.9125
1021.38692	2492.6125
1025.09872	2481.7125
1028.80796	2492.0125
1032.51465	2515.0125
1036.21877	2541.0125
1039.92035	2598.6125
1043.61937	2681.4125
1047.31584	2766.9125
1051.00976	2837.4125
1054.70114	2875.6125
1058.38998	2842.3125
1062.07627	2769.2125
1065.76003	2668.8125
1069.44126	2566.2125
1073.11995	2473.5125
1076.79611	2438.2125
1080.46974	2383.6125
1084.14085	2362.7125
1087.80943	2361.2125
1091.47549	2350.9125
1095.13903	2332.8125
1098.80005	2308.2125
1102.45857	2259.9125
1106.11456	2237.6125
1109.76805	2228.9125
1113.41903	2233.0125
1117.06751	2256.8125
1120.71348	2281.5125
1124.35696	2311.4125
1127.99793	2348.3125
1131.63641	2350.1125
1135.2724	2316.1125
1138.90589	2281.8125
1142.5369	2243.8125
1146.16542	2212.4125
1149.79145	2211.2125
1153.415	2198.6125
1157.03607	2206.2125
1160.65467	2218.8125
1164.27079	2246.5125
1167.88443	2294.3125
1171.49561	2361.5125
1175.10432	2475.7125
1178.71056	2614.7125
1182.31434	2746.8125
1185.91565	2780.6125
1189.51451	2760.6125
1193.11091	2683.9125
1196.70485	2596.7125
1200.29634	2517.8125
1203.88538	2444.7125
1207.47197	2380.1125
1211.05612	2326.7125
1214.63782	2296.8125
1218.21708	2270.9125
1221.79391	2270.6125
1225.36829	2291.8125
1228.94024	2287.4125
1232.50976	2305.3125
1236.07685	2298.1125
1239.6415	2292.3125
1243.20374	2275.7125
1246.76355	2285.8125
1250.32093	2259.3125
1253.8759	2273.2125
1257.42845	2309.3125
1260.97859	2330.2125
1264.52631	2370.2125
1268.07163	2412.8125
1271.61453	2464.8125
1275.15503	2512.1125
1278.69312	2558.3125
1282.22882	2585.7125
1285.76211	2627.8125
1289.29301	2685.6125
1292.82151	2756.5125
1296.34761	2812.0125
1299.87133	2882.7125
1303.39266	2983.8125
1306.9116	3121.7125
1310.42815	3276.0125
1313.94233	3395.3125
1317.45412	3362.4125
1320.96354	3232.4125
1324.47058	3097.3125
1327.97525	2965.4125
1331.47754	2945.8125
1334.97747	2901.7125
1338.47502	2917.1125
1341.97022	2918.8125
1345.46305	2958.0125
1348.95352	3043.1125
1352.44163	3133.7125
1355.92738	3294.8125
1359.41078	3518.9125
1362.89183	3775.6125
1366.37053	3822.6125
1369.84688	3535.1125
1373.32088	3186.0125
1376.79254	2951.1125
1380.26186	2812.4125
1383.72883	2745.2125
1387.19347	2690.6125
1390.65578	2663.6125
1394.11575	2654.5125
1397.57339	2680.3125
1401.0287	2717.4125
1404.48168	2711.3125
1407.93234	2732.0125
1411.38068	2721.5125
1414.82669	2724.9125
1418.27039	2735.0125
1421.71177	2742.8125
1425.15083	2737.0125
1428.58758	2721.2125
1432.02203	2728.8125
1435.45416	2735.2125
1438.88399	2750.2125
1442.31151	2739.5125
1445.73673	2698.9125
1449.15965	2683.4125
1452.58027	2695.7125
1455.9986	2683.0125
1459.41463	2675.7125
1462.82837	2670.0125
1466.23982	2662.5125
1469.64898	2657.1125
1473.05586	2674.6125
1476.46045	2648.0125
1479.86276	2647.7125
1483.26279	2649.3125
1486.66054	2649.4125
1490.05602	2665.1125
1493.44922	2719.7125
1496.84016	2785.4125
1500.22882	2901.5125
1503.61521	3061.7125
1506.99934	3242.9125
1510.38121	3435.3125
1513.76081	3499.6125
1517.13816	3377.3125
1520.51324	3137.2125
1523.88607	2902.6125
1527.25665	2721.8125
1530.62498	2614.4125
1533.99105	2538.2125
1537.35488	2485.7125
1540.71647	2441.7125
1544.07581	2421.3125
1547.4329	2400.4125
1550.78776	2389.3125
1554.14038	2403.0125
1557.49077	2397.1125
1560.83892	2420.7125
1564.18484	2441.2125
1567.52853	2460.1125
1570.86999	2498.6125
1574.20922	2490.5125
1577.54624	2483.2125
1580.88103	2447.0125
1584.2136	2360.1125
1587.54395	2303.1125
1590.87208	2278.3125
1594.19801	2308.9125
1597.52172	2336.2125
1600.84321	2371.5125
1604.16251	2331.8125
1607.47959	2266.7125
1610.79447	2205.1125
1614.10715	2157.0125
1617.41763	2104.5125
1620.7259	2059.1125
1624.03199	2025.9125
1627.33587	2024.1125
1630.63757	2027.4125
1633.93707	2052.2125
1637.23439	2075.2125
1640.52951	2142.9125
1643.82246	2247.0125
1647.11321	2382.2125
1650.40179	2468.6125
1653.68819	2400.7125
1656.97241	2208.3125
1660.25446	1987.0125
1663.53433	1844.7125
1666.81203	1772.9125
1670.08756	1739.2125
1673.36092	1745.3125
1676.63211	1755.1125
1679.90115	1744.9125
1683.16801	1732.3125
1686.43272	1731.6125
1689.69527	1694.5125
1692.95567	1624.1125
1696.2139	1532.9125
1699.46999	1433.2125
1702.72392	1416.8125
1705.97571	1520.8125
1709.22535	1631.9125
1712.47284	1731.0125
1715.71819	1783.0125
1718.96139	1822.4125
1722.20246	1863.3125
1725.44139	1903.9125
1728.67818	1936.1125
1731.91284	1982.2125
1735.14537	2021.6125
1738.37576	2065.5125
1741.60403	2133.3125
1744.83017	2153.1125
1748.05418	2201.2125
1751.27607	2234.0125
1754.49584	2237.0125
1757.71349	2222.2125
1760.92903	2228.1125
1764.14244	2276.4125
1767.35375	2294.3125
1770.56294	2318.6125
1773.77002	2340.9125
1776.97499	2388.9125
1780.17785	2421.1125
1783.37861	2415.7125
1786.57727	2385.7125
1789.77382	2334.9125
1792.96828	2281.3125
1796.16064	2224.0125
1799.3509	2161.0125
1802.53907	2098.6125
1805.72514	2026.9125
1808.90913	1965.5125
1812.09102	1900.5125
1815.27083	1856.2125
1818.44856	1800.5125
1821.6242	1778.2125
1824.79776	1741.5125
1827.96924	1723.0125
1831.13864	1692.3125
1834.30597	1671.3125
1837.47122	1666.1125
1840.6344	1642.9125
1843.7955	1631.7125
1846.95454	1621.1125
1850.11151	1616.2125
1853.26642	1607.2125
1856.41926	1612.4125
1859.57004	1611.4125
1862.71876	1600.7125
1865.86542	1590.3125
1869.01003	1598.3125
1872.15258	1582.9125
1875.29308	1583.2125
1878.43152	1585.7125
1881.56792	1574.2125
1884.70227	1572.2125
1887.83457	1567.2125
1890.96482	1569.8125
1894.09304	1564.8125
1897.21921	1564.1125
1900.34335	1561.4125
1903.46544	1556.1125
1906.58551	1556.6125
1909.70353	1556.0125
1912.81953	1555.6125
1915.93349	1545.4125
1919.04543	1556.0125
1922.15534	1550.8125
1925.26322	1552.3125
1928.36908	1550.4125
1931.47292	1538.7125
1934.57473	1546.0125
1937.67453	1529.1125
1940.77232	1527.4125
1943.86808	1532.2125
1946.96184	1524.5125
1950.05358	1517.8125
1953.14331	1503.3125
1956.23103	1509.8125
1959.31675	1498.5125
1962.40046	1497.7125
1965.48217	1494.8125
1968.56188	1487.5125
1971.63959	1483.1125
1974.7153	1485.7125
1977.78901	1475.1125
1980.86073	1477.5125
1983.93046	1467.2125
1986.99819	1455.7125
1990.06394	1451.1125
1993.1277	1448.6125
1996.18947	1448.5125
1999.24925	1446.0125
2002.30706	1432.6125
2005.36288	1438.0125
2008.41672	1431.8125
2011.46859	1441.7125
2014.51848	1429.9125
2017.56639	1425.9125
2020.61233	1423.9125
2023.6563	1431.1125
2026.6983	1437.5125
2029.73833	1439.1125
2032.7764	1434.0125
2035.8125	1439.7125
2038.84664	1458.4125
2041.87881	1464.3125
2044.90903	1474.0125
2047.93729	1485.6125
2050.96359	1503.6125
2053.98794	1515.8125
2057.01034	1532.0125
2060.03078	1554.2125
2063.04927	1567.9125
2066.06582	1590.2125
2069.08042	1605.0125
2072.09307	1622.7125
2075.10378	1628.1125
2078.11255	1638.0125
2081.11938	1651.5125
2084.12426	1648.0125
2087.12722	1647.1125
2090.12824	1640.5125
2093.12732	1630.5125
2096.12447	1637.7125
2099.11969	1616.1125
2102.11299	1607.7125
2105.10435	1607.9125
2108.09379	1580.1125
2111.08131	1556.0125
2114.0669	1536.7125
2117.05057	1529.9125
2120.03233	1503.6125
2123.01216	1488.9125
2125.99008	1477.5125
2128.96609	1461.4125
2131.94018	1439.9125
2134.91236	1419.9125
2137.88263	1409.3125
2140.851	1400.7125
2143.81746	1389.2125
2146.78201	1384.4125
2149.74466	1383.6125
2152.7054	1376.7125
2155.66425	1371.3125
2158.6212	1370.3125
2161.57625	1367.9125
2164.52941	1350.7125
2167.48067	1343.2125
2170.43004	1355.8125
2173.37752	1350.8125
2176.32311	1336.6125
2179.26681	1336.1125
2182.20863	1338.8125
2185.14856	1327.9125
2188.08661	1326.6125
2191.02278	1332.4125
2193.95707	1324.5125
2196.88948	1328.6125
2199.82001	1326.0125
2202.74867	1328.2125
2205.67545	1323.3125
2208.60037	1327.9125
2211.52341	1320.1125
2214.44458	1312.8125
2217.36388	1309.5125
2220.28132	1308.4125
2223.1969	1295.2125
2226.11061	1302.6125
2229.02246	1290.2125
2231.93245	1288.8125
2234.84058	1282.7125
2237.74686	1283.4125
2240.65128	1281.8125
2243.55385	1283.3125
2246.45456	1280.1125
2249.35343	1285.8125
2252.25044	1278.9125
2255.14561	1272.1125
2258.03893	1262.0125
2260.93041	1240.0125
2263.82004	1253.1125
2266.70783	1254.4125
2269.59378	1268.2125
2272.4779	1263.5125
2275.36017	1247.6125
2278.24061	1252.0125
2281.11922	1255.9125
2283.996	1237.6125
2286.87094	1247.3125
2289.74405	1239.7125
2292.61534	1229.3125
2295.4848	1238.6125
2298.35243	1244.7125
2301.21824	1225.0125
2304.08223	1230.4125
2306.94439	1223.8125
2309.80474	1225.5125
2312.66327	1230.0125
2315.51999	1210.7125
2318.37489	1217.8125
2321.22797	1213.8125
2324.07925	1215.9125
2326.92871	1208.3125
2329.77637	1218.8125
2332.62222	1205.2125
2335.46626	1196.4125
2338.3085	1197.6125
2341.14893	1196.7125
2343.98756	1202.9125
2346.8244	1196.1125
2349.65943	1194.1125
2352.49267	1189.4125
2355.32411	1182.8125
2358.15376	1185.9125
2360.98161	1185.5125
2363.80768	1192.9125
2366.63195	1191.5125
2369.45444	1185.4125
2372.27514	1191.7125
2375.09405	1183.6125
2377.91118	1191.6125
2380.72652	1182.5125
2383.54009	1175.9125
2386.35187	1175.1125
2389.16188	1173.4125
2391.97011	1177.8125
2394.77657	1173.7125
2397.58125	1165.6125
2400.38416	1163.3125
2403.18529	1161.8125
2405.98466	1152.4125
2408.78226	1153.2125
2411.57809	1150.6125
2414.37216	1145.6125
2417.16446	1148.8125
2419.955	1152.7125
2422.74378	1152.6125
2425.5308	1139.8125
2428.31606	1141.0125
2431.09956	1139.5125
2433.88131	1132.5125
2436.6613	1144.7125
2439.43954	1146.4125
2442.21603	1138.8125
2444.99077	1133.9125
2447.76377	1135.6125
2450.53501	1136.7125
2453.30451	1143.0125
2456.07226	1134.1125
2458.83827	1129.6125
2461.60254	1127.4125
2464.36507	1123.6125
2467.12586	1121.3125
2469.88492	1117.9125
2472.64224	1116.9125
2475.39782	1102.4125
2478.15167	1091.1125
2480.90379	1106.1125
2483.65417	1110.0125
2486.40283	1106.1125
2489.14976	1116.8125
2491.89497	1114.9125
2494.63845	1093.7125
2497.3802	1077.0125
2500.12024	1103.8125
2502.85855	1097.8125
2505.59514	1103.8125
2508.33002	1102.0125
2511.06318	1096.5125
2513.79462	1102.3125
2516.52435	1104.1125
2519.25237	1100.3125
2521.97867	1095.6125
2524.70327	1100.0125
2527.42616	1091.9125
2530.14734	1090.3125
2532.86681	1084.2125
2535.58458	1083.9125
2538.30065	1082.9125
2541.01501	1083.8125
2543.72768	1084.5125
2546.43864	1077.2125
2549.14791	1075.2125
2551.85548	1078.3125
2554.56136	1066.4125
2557.26554	1070.8125
2559.96803	1068.6125
2562.66883	1066.3125
2565.36794	1066.3125
2568.06536	1062.8125
2570.7611	1061.1125
2573.45514	1057.2125
2576.14751	1061.6125
2578.83819	1050.1125
2581.52719	1045.9125
2584.21451	1046.4125
2586.90015	1049.7125
2589.58411	1042.8125
2592.2664	1044.7125
2594.94701	1043.1125
2597.62594	1037.3125
2600.30321	1026.5125
2602.9788	1029.2125
2605.65273	1039.0125
2608.32498	1038.9125
2610.99557	1026.0125
2613.66449	1029.4125
2616.33175	1021.5125
2618.99734	1033.6125
2621.66128	1020.5125
2624.32355	1018.1125
2626.98416	1016.1125
2629.64311	1009.8125
2632.30041	1012.1125
2634.95605	1004.3125
2637.61004	1013.3125
2640.26238	1009.6125
2642.91306	1011.8125
2645.56209	1006.9125
2648.20948	995.6125
2650.85521	1002.5125
2653.4993	996.9125
2656.14175	1005.6125
2658.78255	1000.7125
2661.42171	999.0125
2664.05923	997.8125
2666.6951	1005.5125
2669.32934	1003.7125
2671.96194	1004.8125
2674.59291	997.7125
2677.22224	1002.0125
2679.84993	1003.5125
2682.476	998.2125
2685.10043	1003.0125
2687.72324	1000.1125
2690.34441	1005.8125
2692.96396	1003.4125
2695.58188	1002.4125
2698.19818	994.9125
2700.81285	991.8125
2703.4259	954.1125
2706.03733	855.7125
2708.64714	905.3125
2711.25533	959.0125
2713.86191	974.3125
2716.46687	979.4125
2719.07021	985.0125
2721.67194	987.4125
2724.27206	1001.0125
2726.87057	989.3125
2729.46747	993.9125
2732.06276	994.5125
2734.65644	999.2125
2737.24852	995.2125
2739.83899	994.1125
2742.42786	989.1125
2745.01513	998.3125
2747.60079	993.2125
2750.18486	982.9125
2752.76733	984.4125
2755.3482	986.2125
2757.92747	978.2125
2760.50515	983.6125
2763.08123	983.2125
2765.65573	978.9125
2768.22863	973.3125
2770.79994	976.9125
2773.36967	981.5125
2775.9378	973.5125
2778.50435	970.5125
2781.06932	967.9125
2783.6327	973.1125
2786.1945	964.6125
2788.75471	972.9125
2791.31335	959.6125
2793.87041	955.8125
2796.42589	962.8125
2798.97979	958.4125
2801.53212	954.4125
2804.08288	949.3125
2806.63206	953.7125
2809.17967	946.7125
2811.72571	951.6125
2814.27018	947.6125
2816.81308	951.0125
2819.35442	953.3125
2821.89419	948.0125
2824.43239	946.3125
2826.96904	945.6125
2829.50412	947.5125
2832.03763	943.5125
2834.56959	942.4125
2837.1	948.3125
2839.62884	947.0125
2842.15613	946.2125
2844.68186	961.6125
2847.20604	954.3125
2849.72867	962.1125
2852.24974	960.2125
2854.76927	946.4125
2857.28724	911.5125
2859.80367	927.8125
2862.31855	947.8125
2864.83189	951.6125
2867.34368	950.0125
2869.85393	958.3125
2872.36264	962.2125
2874.8698	960.0125
2877.37543	970.4125
2879.87952	966.4125
2882.38207	977.4125
2884.88308	979.9125
2887.38256	976.6125
2889.88051	966.6125
2892.37692	979.0125
2894.8718	977.2125
2897.36515	982.7125
2899.85698	987.5125
2902.34727	983.1125
2904.83604	983.0125
2907.32328	986.6125
2909.809	985.5125
2912.29319	998.0125
2914.77587	987.5125
2917.25702	987.4125
2919.73665	985.7125
2922.21476	995.6125
2924.69136	992.8125
2927.16644	995.6125
2929.64	985.3125
2932.11205	984.9125
2934.58258	983.9125
2937.05161	978.5125
2939.51912	985.6125
2941.98513	974.5125
2944.44962	970.7125
2946.91261	966.5125
2949.37409	966.0125
2951.83407	960.6125
2954.29254	959.1125
2956.74951	956.1125
2959.20498	945.8125
2961.65895	945.7125
2964.11142	951.0125
2966.56239	943.4125
2969.01186	949.8125
2971.45984	945.2125
2973.90632	943.1125
2976.35131	943.1125
2978.7948	932.7125
2981.23681	934.9125
2983.67732	934.3125
2986.11635	929.8125
2988.55388	926.1125
2990.98993	928.6125
2993.4245	925.6125
2995.85758	925.3125
2998.28917	917.8125
3000.71928	918.0125
3003.14791	915.3125
3005.57506	914.1125
3008.00073	918.9125
3010.42493	915.8125
3012.84764	913.3125
3015.26888	916.1125
3017.68865	919.5125
3020.10694	921.0125
3022.52376	923.7125
3024.9391	921.7125
3027.35298	910.8125
3029.76539	916.1125
3032.17632	918.6125
3034.5858	921.7125
3036.9938	920.9125
3039.40034	920.1125
3041.80542	918.6125
3044.20903	924.0125
3046.61118	918.9125
3049.01187	923.8125
3051.4111	921.8125
3053.80888	926.4125
3056.20519	922.1125
3058.60005	931.8125
3060.99345	925.9125
3063.3854	921.6125
3065.7759	926.0125
3068.16494	933.9125
3070.55254	930.3125
3072.93868	923.5125
3075.32338	924.3125
3077.70662	931.5125
3080.08842	926.2125
3082.46878	931.8125
3084.84769	930.5125
3087.22515	940.1125
3089.60118	930.9125
3091.97576	942.1125
3094.3489	943.8125
3096.72061	962.6125
3099.09087	949.9125
3101.4597	961.3125
3103.82709	964.7125
3106.19305	960.2125
3108.55757	964.6125
3110.92066	967.9125
3113.28232	971.8125
3115.64255	972.3125
3118.00134	982.8125
3120.35871	982.4125
3122.71466	981.3125
3125.06917	985.1125
3127.42226	986.3125
3129.77393	994.7125
3132.12417	996.3125
3134.47299	993.7125
3136.82039	1000.0125
3139.16636	1004.8125
3141.51092	1017.0125
3143.85406	1017.0125
3146.19579	1024.7125
