Data from AgNPs_FTO_APTES_UA_50uM_CRN_2uM_R6G_10uM_NaF_0.1M_Addition_RamanShift__26__12-24-24-794.txt Node

Date: Mon Feb 21 12:24:24 GMT 2022
User: TCL
Spectrometer: QEP01345
Trigger mode: 4
Integration Time (sec): 7.000000E0
Scans to average: 10
Electric dark correction enabled: true
Nonlinearity correction enabled: false
Boxcar width: 0
XAxis mode: Raman Shifts
Number of Pixels in Spectrum: 1044
>>>>>Begin Spectral Data<<<<<
46.04893	0.25
50.45542	-0.55
54.85868	0.45
59.25871	-1.25
63.6555	74.65
68.04907	82.75
72.43941	81.95
76.82654	88.25
81.21044	90.15
85.59113	93.95
89.96862	98.65
94.34289	102.25
98.71396	103.45
103.08183	108.75
107.4465	112.65
111.80798	114.65
116.16626	115.05
120.52136	114.25
124.87327	121.75
129.222	125.05
133.56755	132.45
137.90993	140.75
142.24913	154.15
146.58517	173.25
150.91804	193.95
155.24774	226.75
159.57429	282.85
163.89768	360.55
168.21792	481.65
172.53501	650.05
176.84895	912.55
181.15975	1271.75
185.46741	1785.75
189.77193	2470.65
194.07331	3292.75
198.37157	4256.15
202.6667	5251.85
206.9587	6253.75
211.24758	7278.75
215.53334	8294.35
219.81599	9412.95
224.09553	10680.95
228.37195	12084.05
232.64527	13558.75
236.91549	15123.55
241.18261	16654.95
245.44663	17970.45
249.70755	19102.55
253.96539	20082.85
258.22014	20927.75
262.4718	21664.25
266.72039	22128.75
270.96589	22339.35
275.20832	22324.65
279.44768	22118.85
283.68397	21844.55
287.91719	21640.75
292.14735	21602.25
296.37445	21786.85
300.59849	22243.95
304.81948	22759.25
309.03742	23098.35
313.25231	22979.75
317.46415	22251.35
321.67296	21089.95
325.87872	20165.55
330.08145	19754.25
334.28114	19776.55
338.47781	20058.75
342.67145	20472.55
346.86207	21119.75
351.04966	22012.45
355.23424	23040.75
359.4158	23864.75
363.59435	24329.15
367.76989	24528.55
371.94243	24541.15
376.11196	24508.25
380.27849	24465.75
384.44203	24427.75
388.60257	24265.95
392.76012	24313.85
396.91468	24543.15
401.06626	25046.15
405.21485	25444.75
409.36047	25240.75
413.50311	24512.35
417.64277	23767.25
421.77947	23408.15
425.9132	23279.65
430.04396	23331.45
434.17176	23498.95
438.2966	23769.65
442.41849	24209.85
446.53742	24923.15
450.6534	25682.85
454.76644	26231.25
458.87653	26427.15
462.98368	26321.45
467.08789	25906.55
471.18916	25346.95
475.2875	24839.95
479.38291	24417.65
483.4754	24161.55
487.56496	23855.15
491.6516	23585.95
495.73531	23366.35
499.81612	23300.45
503.89401	23474.65
507.96899	23590.65
512.04106	23728.85
516.11023	23820.25
520.1765	23907.45
524.23987	23866.45
528.30034	23669.15
532.35792	23371.65
536.41261	23053.65
540.46441	22737.05
544.51333	22599.35
548.55936	22794.25
552.60252	23241.95
556.64279	23769.95
560.6802	24049.85
564.71473	24313.75
568.7464	25003.25
572.7752	25518.85
576.80114	25260.55
580.82422	25006.65
584.84444	25025.05
588.86181	25172.55
592.87633	25524.75
596.888	25809.15
600.89682	26288.05
604.9028	28239.45
608.90594	33424.45
612.90624	39688.55
616.90371	37681.55
620.89834	29069.65
624.89015	25168.75
628.87913	24565.75
632.86528	24623.45
636.84862	24656.05
640.82913	24187.85
644.80683	23308.05
648.78172	22651.55
652.75379	22611.65
656.72306	23240.15
660.68952	23997.55
664.65319	23891.35
668.61405	23158.95
672.57211	22845.55
676.52738	22839.15
680.47986	22815.25
684.42955	22674.25
688.37646	22652.55
692.32058	22774.65
696.26192	22989.05
700.20048	23211.15
704.13626	23423.55
708.06928	23342.55
711.99952	23108.75
715.927	23075.65
719.85171	23122.85
723.77365	23160.45
727.69284	22907.55
731.60928	22683.75
735.52295	22589.05
739.43388	22673.45
743.34206	22815.25
747.24749	22999.55
751.15017	23212.15
755.05012	23587.05
758.94733	24507.65
762.8418	26438.75
766.73354	29546.45
770.62254	32628.35
774.50882	33825.15
778.39237	32351.65
782.27321	28952.55
786.15132	25862.15
790.02671	24086.25
793.89938	23294.35
797.76935	22996.55
801.6366	22840.95
805.50115	22792.35
809.36299	22687.05
813.22213	22638.35
817.07857	22575.15
820.93231	22572.55
824.78336	22555.35
828.63172	22607.15
832.47738	22640.75
836.32036	22699.45
840.16066	22734.65
843.99827	22756.55
847.8332	22731.35
851.66546	22596.35
855.49504	22544.45
859.32195	22514.45
863.1462	22414.95
866.96777	22351.55
870.78668	22215.45
874.60293	22269.85
878.41652	22354.95
882.22745	22472.45
886.03573	22587.65
889.84136	22545.75
893.64433	22459.85
897.44466	22336.75
901.24235	22294.35
905.0374	22204.45
908.8298	22134.65
912.61957	22107.25
916.40671	22219.95
920.19121	22499.65
923.97308	22757.95
927.75233	22994.55
931.52895	23128.85
935.30295	22847.55
939.07433	22395.45
942.84309	21973.95
946.60924	21833.75
950.37278	21684.25
954.13371	21541.15
957.89203	21402.85
961.64774	21338.95
965.40086	21348.65
969.15137	21259.25
972.89929	21199.05
976.64461	21135.85
980.38733	21152.15
984.12747	21236.35
987.86502	21444.05
991.59999	21682.35
995.33237	22151.75
999.06217	22942.55
1002.78939	23853.75
1006.51404	24512.05
1010.23611	24933.85
1013.95561	25225.85
1017.67255	25270.25
1021.38692	25011.65
1025.09872	24897.25
1028.80796	25158.85
1032.51465	25859.45
1036.21877	26435.45
1039.92035	26604.35
1043.61937	26222.15
1047.31584	25461.95
1051.00976	24666.55
1054.70114	24139.45
1058.38998	24008.45
1062.07627	24019.45
1065.76003	24056.95
1069.44126	24216.85
1073.11995	24430.85
1076.79611	24665.85
1080.46974	24938.45
1084.14085	25350.35
1087.80943	25750.75
1091.47549	25906.45
1095.13903	25592.95
1098.80005	25004.65
1102.45857	24501.15
1106.11456	24254.85
1109.76805	24351.05
1113.41903	24725.15
1117.06751	25280.65
1120.71348	26009.85
1124.35696	26768.95
1127.99793	27297.45
1131.63641	27149.45
1135.2724	26486.25
1138.90589	25747.45
1142.5369	25277.85
1146.16542	24957.65
1149.79145	24813.05
1153.415	24895.55
1157.03607	25107.15
1160.65467	25590.25
1164.27079	26419.55
1167.88443	27683.75
1171.49561	29477.65
1175.10432	32253.85
1178.71056	36000.15
1182.31434	39117.15
1185.91565	40599.55
1189.51451	40150.05
1193.11091	38322.15
1196.70485	36043.25
1200.29634	34109.75
1203.88538	32568.25
1207.47197	31108.65
1211.05612	29917.95
1214.63782	29318.55
1218.21708	29145.95
1221.79391	29252.45
1225.36829	29389.95
1228.94024	29308.35
1232.50976	28979.15
1236.07685	28754.75
1239.6415	28667.25
1243.20374	28743.75
1246.76355	28931.35
1250.32093	29329.35
1253.8759	29994.55
1257.42845	30910.65
1260.97859	31793.45
1264.52631	32579.55
1268.07163	33403.65
1271.61453	34231.85
1275.15503	35130.45
1278.69312	36049.65
1282.22882	36796.85
1285.76211	37625.35
1289.29301	38614.65
1292.82151	39672.45
1296.34761	40934.25
1299.87133	42881.55
1303.39266	46011.85
1306.9116	50267.75
1310.42815	54710.35
1313.94233	56873.75
1317.45412	55737.15
1320.96354	52949.05
1324.47058	49970.85
1327.97525	47480.55
1331.47754	46141.05
1334.97747	45855.25
1338.47502	46484.15
1341.97022	47523.65
1345.46305	48332.35
1348.95352	48971.45
1352.44163	50097.75
1355.92738	52663.15
1359.41078	57487.45
1362.89183	61851.85
1366.37053	59772.15
1369.84688	52231.55
1373.32088	45074.55
1376.79254	40579.45
1380.26186	38199.55
1383.72883	37087.55
1387.19347	36248.95
1390.65578	35413.35
1394.11575	35059.95
1397.57339	35242.55
1401.0287	35859.65
1404.48168	36683.55
1407.93234	37432.05
1411.38068	38009.85
1414.82669	38036.25
1418.27039	37219.15
1421.71177	36016.25
1425.15083	34922.05
1428.58758	34332.15
1432.02203	34363.15
1435.45416	34634.75
1438.88399	34860.45
1442.31151	35071.55
1445.73673	35379.85
1449.15965	35689.35
1452.58027	35832.35
1455.9986	35652.85
1459.41463	35650.75
1462.82837	36028.95
1466.23982	36725.85
1469.64898	37518.75
1473.05586	38013.55
1476.46045	38333.45
1479.86276	38673.95
1483.26279	39131.95
1486.66054	39802.85
1490.05602	40721.55
1493.44922	41918.35
1496.84016	43457.25
1500.22882	45755.75
1503.61521	49081.95
1506.99934	52999.65
1510.38121	56013.25
1513.76081	56213.45
1517.13816	52977.45
1520.51324	48030.05
1523.88607	43716.55
1527.25665	41016.35
1530.62498	39493.85
1533.99105	38603.45
1537.35488	38024.55
1540.71647	37745.65
1544.07581	37534.05
1547.4329	37215.85
1550.78776	36956.75
1554.14038	36766.85
1557.49077	36746.85
1560.83892	37017.25
1564.18484	37401.65
1567.52853	37781.65
1570.86999	38111.95
1574.20922	38214.05
1577.54624	38100.45
1580.88103	37162.15
1584.2136	36098.05
1587.54395	36223.05
1590.87208	37702.05
1594.19801	40348.45
1597.52172	43353.45
1600.84321	44623.85
1604.16251	43156.05
1607.47959	40161.35
1610.79447	36719.25
1614.10715	33619.55
1617.41763	31273.45
1620.7259	29792.45
1624.03199	29159.25
1627.33587	29271.65
1630.63757	30160.15
1633.93707	31803.55
1637.23439	34239.95
1640.52951	37427.05
1643.82246	41205.15
1647.11321	44650.75
1650.40179	45977.95
1653.68819	43416.35
1656.97241	37943.85
1660.25446	32484.65
1663.53433	28626.05
1666.81203	26306.45
1670.08756	24979.95
1673.36092	24112.05
1676.63211	23553.55
1679.90115	23111.95
1683.16801	22822.45
1686.43272	22594.55
1689.69527	22394.35
1692.95567	22244.15
1696.2139	22085.05
1699.46999	21871.85
1702.72392	21808.95
1705.97571	21913.95
1709.22535	21933.65
1712.47284	21992.55
1715.71819	22022.65
1718.96139	21990.45
1722.20246	21944.95
1725.44139	21842.15
1728.67818	21741.55
1731.91284	21610.85
1735.14537	21487.85
1738.37576	21426.65
1741.60403	21349.65
1744.83017	21289.95
1748.05418	21220.35
1751.27607	21116.05
1754.49584	21031.95
1757.71349	20969.85
1760.92903	20973.25
1764.14244	20958.95
1767.35375	20970.65
1770.56294	20928.15
1773.77002	20905.35
1776.97499	20952.75
1780.17785	20950.45
1783.37861	20941.15
1786.57727	20944.25
1789.77382	20944.65
1792.96828	20933.35
1796.16064	20915.85
1799.3509	20883.95
1802.53907	20917.25
1805.72514	20849.65
1808.90913	20797.25
1812.09102	20751.45
1815.27083	20699.35
1818.44856	20715.35
1821.6242	20701.35
1824.79776	20704.85
1827.96924	20668.15
1831.13864	20616.45
1834.30597	20660.05
1837.47122	20661.85
1840.6344	20614.15
1843.7955	20569.65
1846.95454	20569.75
1850.11151	20605.35
1853.26642	20574.95
1856.41926	20599.65
1859.57004	20618.15
1862.71876	20603.55
1865.86542	20605.65
1869.01003	20628.45
1872.15258	20620.35
1875.29308	20638.75
1878.43152	20637.75
1881.56792	20722.75
1884.70227	20685.35
1887.83457	20675.75
1890.96482	20664.25
1894.09304	20635.25
1897.21921	20658.25
1900.34335	20640.25
1903.46544	20618.95
1906.58551	20650.25
1909.70353	20662.55
1912.81953	20671.75
1915.93349	20631.95
1919.04543	20627.15
1922.15534	20617.05
1925.26322	20538.95
1928.36908	20460.55
1931.47292	20430.85
1934.57473	20375.95
1937.67453	20324.35
1940.77232	20284.15
1943.86808	20198.05
1946.96184	20168.65
1950.05358	20041.75
1953.14331	19989.85
1956.23103	19956.95
1959.31675	19903.65
1962.40046	19852.35
1965.48217	19773.95
1968.56188	19779.25
1971.63959	19711.45
1974.7153	19604.35
1977.78901	19576.55
1980.86073	19541.35
1983.93046	19439.15
1986.99819	19378.75
1990.06394	19338.35
1993.1277	19298.85
1996.18947	19238.35
1999.24925	19189.35
2002.30706	19131.75
2005.36288	19079.65
2008.41672	19038.85
2011.46859	18967.45
2014.51848	18893.25
2017.56639	18859.75
2020.61233	18880.05
2023.6563	18792.45
2026.6983	18751.15
2029.73833	18715.75
2032.7764	18691.65
2035.8125	18707.85
2038.84664	18661.45
2041.87881	18661.55
2044.90903	18598.85
2047.93729	18563.35
2050.96359	18597.65
2053.98794	18559.15
2057.01034	18566.15
2060.03078	18499.25
2063.04927	18505.15
2066.06582	18475.35
2069.08042	18445.45
2072.09307	18422.85
2075.10378	18417.05
2078.11255	18404.35
2081.11938	18420.75
2084.12426	18381.95
2087.12722	18404.75
2090.12824	18379.45
2093.12732	18384.15
2096.12447	18410.85
2099.11969	18387.65
2102.11299	18391.25
2105.10435	18360.55
2108.09379	18403.55
2111.08131	18418.85
2114.0669	18392.15
2117.05057	18450.85
2120.03233	18456.75
2123.01216	18425.95
2125.99008	18466.45
2128.96609	18502.25
2131.94018	18559.75
2134.91236	18541.85
2137.88263	18575.15
2140.851	18558.25
2143.81746	18620.75
2146.78201	18599.25
2149.74466	18561.95
2152.7054	18566.55
2155.66425	18567.55
2158.6212	18589.15
2161.57625	18557.45
2164.52941	18573.25
2167.48067	18565.15
2170.43004	18577.65
2173.37752	18534.95
2176.32311	18539.85
2179.26681	18547.75
2182.20863	18558.55
2185.14856	18613.05
2188.08661	18597.75
2191.02278	18593.75
2193.95707	18618.35
2196.88948	18587.55
2199.82001	18571.05
2202.74867	18571.25
2205.67545	18581.85
2208.60037	18586.75
2211.52341	18573.95
2214.44458	18539.35
2217.36388	18514.75
2220.28132	18540.85
2223.1969	18476.55
2226.11061	18483.65
2229.02246	18393.75
2231.93245	18389.55
2234.84058	18332.45
2237.74686	18282.85
2240.65128	18304.75
2243.55385	18283.95
2246.45456	18268.95
2249.35343	18287.85
2252.25044	18249.85
2255.14561	18216.35
2258.03893	18260.85
2260.93041	18188.25
2263.82004	18188.95
2266.70783	18098.85
2269.59378	18065.25
2272.4779	18041.45
2275.36017	17997.75
2278.24061	17965.95
2281.11922	17923.65
2283.996	17890.35
2286.87094	17917.85
2289.74405	17892.95
2292.61534	17874.35
2295.4848	17828.35
2298.35243	17835.55
2301.21824	17791.25
2304.08223	17841.55
2306.94439	17885.95
2309.80474	17853.85
2312.66327	17870.75
2315.51999	17886.75
2318.37489	17875.85
2321.22797	17899.15
2324.07925	17890.45
2326.92871	17861.65
2329.77637	17876.15
2332.62222	17864.55
2335.46626	17852.65
2338.3085	17867.55
2341.14893	17855.05
2343.98756	17889.65
2346.8244	17936.25
2349.65943	17947.75
2352.49267	17951.65
2355.32411	17922.85
2358.15376	17928.95
2360.98161	17903.75
2363.80768	17880.65
2366.63195	17871.85
2369.45444	17862.25
2372.27514	17822.25
2375.09405	17758.65
2377.91118	17732.95
2380.72652	17675.05
2383.54009	17647.85
2386.35187	17628.85
2389.16188	17588.45
2391.97011	17535.75
2394.77657	17544.95
2397.58125	17523.55
2400.38416	17473.15
2403.18529	17447.05
2405.98466	17429.65
2408.78226	17394.05
2411.57809	17339.95
2414.37216	17317.95
2417.16446	17295.25
2419.955	17262.85
2422.74378	17247.45
2425.5308	17222.85
2428.31606	17223.05
2431.09956	17245.05
2433.88131	17208.75
2436.6613	17246.75
2439.43954	17231.55
2442.21603	17231.85
2444.99077	17214.75
2447.76377	17226.85
2450.53501	17222.15
2453.30451	17211.55
2456.07226	17196.15
2458.83827	17167.25
2461.60254	17206.25
2464.36507	17193.85
2467.12586	17157.45
2469.88492	17186.15
2472.64224	17169.65
2475.39782	17156.35
2478.15167	17218.85
2480.90379	17251.65
2483.65417	17279.65
2486.40283	17246.25
2489.14976	17316.15
2491.89497	17336.65
2494.63845	17366.25
2497.3802	17337.65
2500.12024	17341.45
2502.85855	17322.35
2505.59514	17289.85
2508.33002	17274.15
2511.06318	17239.25
2513.79462	17195.65
2516.52435	17167.05
2519.25237	17157.75
2521.97867	17132.65
2524.70327	17140.95
2527.42616	17125.55
2530.14734	17162.75
2532.86681	17135.15
2535.58458	17136.65
2538.30065	17123.75
2541.01501	17089.45
2543.72768	17119.05
2546.43864	17098.15
2549.14791	17089.25
2551.85548	17082.65
2554.56136	17078.55
2557.26554	17043.25
2559.96803	17031.65
2562.66883	16994.15
2565.36794	16978.55
2568.06536	17006.65
2570.7611	17004.25
2573.45514	16993.75
2576.14751	16943.85
2578.83819	16929.25
2581.52719	16958.25
2584.21451	16940.65
2586.90015	16955.15
2589.58411	16905.65
2592.2664	16960.85
2594.94701	16935.95
2597.62594	16942.75
2600.30321	16889.75
2602.9788	16903.75
2605.65273	16902.65
2608.32498	16936.65
2610.99557	16938.45
2613.66449	16915.15
2616.33175	16937.35
2618.99734	16952.15
2621.66128	16933.55
2624.32355	16928.25
2626.98416	16943.75
2629.64311	16944.15
2632.30041	16967.75
2634.95605	16913.75
2637.61004	16871.85
2640.26238	16879.45
2642.91306	16859.05
2645.56209	16833.55
2648.20948	16799.65
2650.85521	16787.25
2653.4993	16781.95
2656.14175	16829.45
2658.78255	16833.65
2661.42171	16844.45
2664.05923	16862.05
2666.6951	16891.15
2669.32934	16939.95
2671.96194	16937.05
2674.59291	16933.75
2677.22224	16920.25
2679.84993	16949.45
2682.476	16938.15
2685.10043	16961.75
2687.72324	16928.75
2690.34441	16937.85
2692.96396	16923.15
2695.58188	16898.05
2698.19818	16849.45
2700.81285	16845.85
2703.4259	16814.75
2706.03733	16768.35
2708.64714	16830.95
2711.25533	16832.45
2713.86191	16880.95
2716.46687	16896.55
2719.07021	16899.75
2721.67194	16902.35
2724.27206	16917.35
2726.87057	16973.75
2729.46747	16977.95
2732.06276	16974.85
2734.65644	16978.65
2737.24852	16965.65
2739.83899	16973.65
2742.42786	16993.25
2745.01513	16946.35
2747.60079	16916.45
2750.18486	16913.95
2752.76733	16897.85
2755.3482	16899.55
2757.92747	16892.45
2760.50515	16884.95
2763.08123	16891.65
2765.65573	16854.25
2768.22863	16851.05
2770.79994	16827.35
2773.36967	16852.65
2775.9378	16865.45
2778.50435	16844.25
2781.06932	16832.65
2783.6327	16844.85
2786.1945	16823.25
2788.75471	16822.25
2791.31335	16808.85
2793.87041	16780.35
2796.42589	16777.25
2798.97979	16736.45
2801.53212	16692.75
2804.08288	16699.75
2806.63206	16667.05
2809.17967	16672.55
2811.72571	16637.05
2814.27018	16641.75
2816.81308	16605.45
2819.35442	16618.15
2821.89419	16579.75
2824.43239	16608.05
2826.96904	16571.55
2829.50412	16586.95
2832.03763	16553.15
2834.56959	16569.85
2837.1	16553.65
2839.62884	16536.35
2842.15613	16525.55
2844.68186	16539.75
2847.20604	16519.45
2849.72867	16497.35
2852.24974	16492.55
2854.76927	16469.85
2857.28724	16451.45
2859.80367	16478.85
2862.31855	16449.05
2864.83189	16400.05
2867.34368	16436.75
2869.85393	16445.05
2872.36264	16422.15
2874.8698	16458.05
2877.37543	16459.05
2879.87952	16414.15
2882.38207	16429.35
2884.88308	16420.55
2887.38256	16444.65
2889.88051	16438.35
2892.37692	16399.85
2894.8718	16396.15
2897.36515	16462.65
2899.85698	16463.95
2902.34727	16479.95
2904.83604	16474.85
2907.32328	16483.15
2909.809	16499.05
2912.29319	16504.15
2914.77587	16495.25
2917.25702	16462.75
2919.73665	16453.65
2922.21476	16471.65
2924.69136	16444.65
2927.16644	16460.45
2929.64	16411.85
2932.11205	16393.25
2934.58258	16365.05
2937.05161	16371.25
2939.51912	16353.95
2941.98513	16334.15
2944.44962	16285.85
2946.91261	16262.75
2949.37409	16316.95
2951.83407	16331.05
2954.29254	16290.35
2956.74951	16281.05
2959.20498	16279.85
2961.65895	16256.85
2964.11142	16289.95
2966.56239	16263.55
2969.01186	16280.15
2971.45984	16235.95
2973.90632	16220.25
2976.35131	16182.55
2978.7948	16110.95
2981.23681	16081.55
2983.67732	16083.55
2986.11635	16019.35
2988.55388	15988.65
2990.98993	15959.45
2993.4245	15919.05
2995.85758	15901.15
2998.28917	15857.95
3000.71928	15822.45
3003.14791	15803.55
3005.57506	15769.55
3008.00073	15738.65
3010.42493	15744.65
3012.84764	15714.25
3015.26888	15732.85
3017.68865	15716.45
3020.10694	15673.35
3022.52376	15644.45
3024.9391	15601.25
3027.35298	15558.55
3029.76539	15545.65
3032.17632	15566.95
3034.5858	15515.25
3036.9938	15502.15
3039.40034	15464.25
3041.80542	15455.25
3044.20903	15459.95
3046.61118	15435.35
3049.01187	15401.35
3051.4111	15413.15
3053.80888	15352.65
3056.20519	15340.35
3058.60005	15283.95
3060.99345	15248.65
3063.3854	15217.55
3065.7759	15163.05
3068.16494	15120.35
3070.55254	15050.65
3072.93868	15035.85
3075.32338	14958.35
3077.70662	14942.85
3080.08842	14903.85
3082.46878	14896.65
3084.84769	14849.15
3087.22515	14840.65
3089.60118	14830.75
3091.97576	14817.85
3094.3489	14826.45
3096.72061	14846.65
3099.09087	14833.95
3101.4597	14834.15
3103.82709	14821.05
3106.19305	14799.25
3108.55757	14793.15
3110.92066	14713.95
3113.28232	14691.15
3115.64255	14681.75
3118.00134	14686.35
3120.35871	14641.95
3122.71466	14611.85
3125.06917	14574.95
3127.42226	14573.75
3129.77393	14526.15
3132.12417	14523.15
3134.47299	14519.15
3136.82039	14512.55
3139.16636	14489.75
3141.51092	14474.85
3143.85406	14505.95
3146.19579	14520.65
3148.53609	14507.45
3150.87499	14501.95
3153.21246	14484.65
3155.54853	14509.35
3157.88318	14509.25
3160.21642	14524.35
3162.54826	14484.15
3164.87868	14470.85
3167.2077	14465.85
3169.5353	14470.65
3171.86151	14466.55
3174.18631	14421.55
3176.5097	14407.55
3178.83169	14422.05
3181.15228	14402.15
3183.47147	14404.85
3185.78926	14374.75
3188.10565	14375.95
3190.42065	14370.45
3192.73424	14377.95
3195.04645	14379.35
3197.35725	14358.65
3199.66667	14353.25
3201.97469	14358.25
3204.28132	14361.85
3206.58656	14364.45
3208.8904	14375.25
3211.19287	14374.35
3213.49394	14392.45
3215.79363	14372.25
3218.09193	14402.85
3220.38884	14379.95
3222.68438	14369.95
3224.97853	14342.75
3227.2713	14363.15
3229.56269	14359.45
3231.8527	14364.45
3234.14133	14341.95
3236.42858	14299.55
3238.71446	14304.45
