Data from AgNPs_FTO_APTES_UA_50uM_CRN_500uM_R6G_10uM_NaF_0.1M_Addition_RamanShift__16__17-00-33-538.txt Node

Date: Mon Feb 21 17:00:33 GMT 2022
User: TCL
Spectrometer: QEP01345
Trigger mode: 4
Integration Time (sec): 7.000000E0
Scans to average: 10
Electric dark correction enabled: true
Nonlinearity correction enabled: false
Boxcar width: 0
XAxis mode: Raman Shifts
Number of Pixels in Spectrum: 1044
>>>>>Begin Spectral Data<<<<<
46.04893	-0.4625
50.45542	0.3375
54.85868	-0.7625
59.25871	-3.2625
63.6555	51.1375
68.04907	53.6375
72.43941	57.3375
76.82654	60.1375
81.21044	61.8375
85.59113	69.1375
89.96862	71.6375
94.34289	74.2375
98.71396	73.7375
103.08183	79.4375
107.4465	78.7375
111.80798	82.0375
116.16626	78.1375
120.52136	79.3375
124.87327	82.7375
129.222	88.0375
133.56755	90.2375
137.90993	95.7375
142.24913	98.1375
146.58517	108.3375
150.91804	120.0375
155.24774	139.5375
159.57429	165.4375
163.89768	209.2375
168.21792	276.8375
172.53501	372.9375
176.84895	515.8375
181.15975	721.5375
185.46741	1014.0375
189.77193	1391.9375
194.07331	1878.8375
198.37157	2422.5375
202.6667	3001.2375
206.9587	3596.0375
211.24758	4154.0375
215.53334	4740.1375
219.81599	5323.5375
224.09553	5975.4375
228.37195	6706.0375
232.64527	7498.4375
236.91549	8321.8375
241.18261	9149.5375
245.44663	9898.4375
249.70755	10574.2375
253.96539	11114.8375
258.22014	11585.2375
262.4718	11957.8375
266.72039	12205.8375
270.96589	12370.8375
275.20832	12366.0375
279.44768	12233.0375
283.68397	12044.2375
287.91719	11854.2375
292.14735	11746.9375
296.37445	11761.8375
300.59849	11812.0375
304.81948	11955.4375
309.03742	11987.3375
313.25231	11924.5375
317.46415	11671.2375
321.67296	11389.4375
325.87872	11119.8375
330.08145	10989.8375
334.28114	10981.9375
338.47781	11077.1375
342.67145	11254.0375
346.86207	11476.6375
351.04966	11733.8375
355.23424	12032.0375
359.4158	12291.6375
363.59435	12474.4375
367.76989	12644.8375
371.94243	12668.6375
376.11196	12770.9375
380.27849	12812.6375
384.44203	12861.1375
388.60257	12852.0375
392.76012	12902.7375
396.91468	12985.0375
401.06626	13139.6375
405.21485	13247.0375
409.36047	13168.3375
413.50311	12935.2375
417.64277	12651.3375
421.77947	12518.7375
425.9132	12454.3375
430.04396	12474.8375
434.17176	12555.7375
438.2966	12628.2375
442.41849	12800.3375
446.53742	12984.1375
450.6534	13174.1375
454.76644	13323.4375
458.87653	13367.8375
462.98368	13353.6375
467.08789	13324.2375
471.18916	13255.7375
475.2875	13086.9375
479.38291	12966.4375
483.4754	12889.4375
487.56496	12813.4375
491.6516	12749.1375
495.73531	12737.9375
499.81612	12747.5375
503.89401	12834.4375
507.96899	12903.1375
512.04106	12944.0375
516.11023	13029.1375
520.1765	13074.8375
524.23987	13034.9375
528.30034	12990.7375
532.35792	12923.3375
536.41261	12848.7375
540.46441	12737.8375
544.51333	12697.9375
548.55936	12716.5375
552.60252	12840.7375
556.64279	12996.2375
560.6802	13035.7375
564.71473	13054.6375
568.7464	13153.5375
572.7752	13301.2375
576.80114	13249.5375
580.82422	13201.1375
584.84444	13211.7375
588.86181	13245.6375
592.87633	13319.8375
596.888	13407.1375
600.89682	13560.8375
604.9028	14181.8375
608.90594	15841.2375
612.90624	17828.3375
616.90371	17209.1375
620.89834	14443.6375
624.89015	13122.3375
628.87913	12913.4375
632.86528	12998.1375
636.84862	13161.1375
640.82913	13111.3375
644.80683	12880.7375
648.78172	12657.3375
652.75379	12652.9375
656.72306	12809.9375
660.68952	13053.7375
664.65319	13054.3375
668.61405	12864.4375
672.57211	12888.7375
676.52738	12990.3375
680.47986	13049.7375
684.42955	13001.1375
688.37646	12882.8375
692.32058	12799.6375
696.26192	12794.6375
700.20048	12837.9375
704.13626	12824.1375
708.06928	12778.3375
711.99952	12712.6375
715.927	12683.3375
719.85171	12705.8375
723.77365	12696.0375
727.69284	12648.7375
731.60928	12602.7375
735.52295	12609.0375
739.43388	12585.2375
743.34206	12578.1375
747.24749	12587.8375
751.15017	12603.5375
755.05012	12624.5375
758.94733	12869.1375
762.8418	13405.5375
766.73354	14341.3375
770.62254	15425.7375
774.50882	16043.6375
778.39237	15594.3375
782.27321	14508.5375
786.15132	13503.0375
790.02671	12866.1375
793.89938	12537.6375
797.76935	12406.6375
801.6366	12342.4375
805.50115	12286.0375
809.36299	12257.7375
813.22213	12197.2375
817.07857	12161.5375
820.93231	12110.4375
824.78336	12120.7375
828.63172	12143.4375
832.47738	12102.6375
836.32036	12069.5375
840.16066	12025.1375
843.99827	12031.1375
847.8332	12018.3375
851.66546	12043.5375
855.49504	12060.9375
859.32195	12078.5375
863.1462	12073.2375
866.96777	12086.0375
870.78668	12059.9375
874.60293	12074.3375
878.41652	12068.4375
882.22745	12100.4375
886.03573	12140.2375
889.84136	12134.4375
893.64433	12115.0375
897.44466	12016.0375
901.24235	11991.6375
905.0374	11908.9375
908.8298	11897.3375
912.61957	11817.7375
916.40671	11888.2375
920.19121	11891.0375
923.97308	11909.3375
927.75233	11963.6375
931.52895	11974.4375
935.30295	11892.9375
939.07433	11785.8375
942.84309	11641.4375
946.60924	11541.7375
950.37278	11491.5375
954.13371	11448.0375
957.89203	11435.6375
961.64774	11403.5375
965.40086	11351.1375
969.15137	11310.0375
972.89929	11281.8375
976.64461	11257.3375
980.38733	11257.1375
984.12747	11245.5375
987.86502	11268.9375
991.59999	11304.5375
995.33237	11382.9375
999.06217	11467.3375
1002.78939	11527.2375
1006.51404	11650.3375
1010.23611	11765.8375
1013.95561	11864.5375
1017.67255	11858.5375
1021.38692	11814.1375
1025.09872	11723.5375
1028.80796	11646.0375
1032.51465	11624.5375
1036.21877	11633.7375
1039.92035	11661.2375
1043.61937	11717.0375
1047.31584	11748.6375
1051.00976	11732.8375
1054.70114	11754.8375
1058.38998	11762.4375
1062.07627	11777.3375
1065.76003	11793.1375
1069.44126	11808.8375
1073.11995	11877.9375
1076.79611	11924.9375
1080.46974	12004.1375
1084.14085	12066.1375
1087.80943	12189.2375
1091.47549	12260.1375
1095.13903	12231.2375
1098.80005	12117.4375
1102.45857	11987.9375
1106.11456	11914.7375
1109.76805	11904.2375
1113.41903	11986.6375
1117.06751	12097.3375
1120.71348	12263.4375
1124.35696	12466.4375
1127.99793	12702.2375
1131.63641	12771.2375
1135.2724	12611.8375
1138.90589	12336.2375
1142.5369	12215.2375
1146.16542	12069.3375
1149.79145	11961.4375
1153.415	11909.4375
1157.03607	11936.8375
1160.65467	12055.8375
1164.27079	12291.2375
1167.88443	12650.2375
1171.49561	13112.3375
1175.10432	13828.9375
1178.71056	14728.9375
1182.31434	15615.4375
1185.91565	16011.1375
1189.51451	15960.7375
1193.11091	15533.4375
1196.70485	14948.1375
1200.29634	14405.8375
1203.88538	13959.9375
1207.47197	13475.3375
1211.05612	13022.4375
1214.63782	12710.1375
1218.21708	12543.1375
1221.79391	12473.8375
1225.36829	12435.8375
1228.94024	12414.3375
1232.50976	12405.5375
1236.07685	12351.0375
1239.6415	12339.6375
1243.20374	12335.5375
1246.76355	12395.8375
1250.32093	12479.5375
1253.8759	12577.9375
1257.42845	12759.1375
1260.97859	12914.1375
1264.52631	13133.8375
1268.07163	13350.8375
1271.61453	13559.3375
1275.15503	13734.7375
1278.69312	13848.6375
1282.22882	13904.3375
1285.76211	14043.7375
1289.29301	14277.0375
1292.82151	14595.5375
1296.34761	14923.2375
1299.87133	15397.1375
1303.39266	16078.7375
1306.9116	16998.0375
1310.42815	17979.8375
1313.94233	18537.5375
1317.45412	18342.1375
1320.96354	17657.2375
1324.47058	16942.6375
1327.97525	16231.1375
1331.47754	15718.6375
1334.97747	15513.4375
1338.47502	15524.0375
1341.97022	15755.1375
1345.46305	16233.7375
1348.95352	16871.9375
1352.44163	17630.4375
1355.92738	18617.7375
1359.41078	19925.3375
1362.89183	21162.2375
1366.37053	20877.0375
1369.84688	18786.5375
1373.32088	16505.5375
1376.79254	14948.0375
1380.26186	14180.6375
1383.72883	13795.7375
1387.19347	13539.6375
1390.65578	13253.4375
1394.11575	12981.5375
1397.57339	12830.9375
1401.0287	12742.4375
1404.48168	12718.2375
1407.93234	12697.7375
1411.38068	12669.6375
1414.82669	12608.3375
1418.27039	12501.8375
1421.71177	12392.6375
1425.15083	12237.4375
1428.58758	12106.2375
1432.02203	12081.8375
1435.45416	12131.8375
1438.88399	12202.8375
1442.31151	12263.8375
1445.73673	12309.0375
1449.15965	12379.7375
1452.58027	12380.8375
1455.9986	12396.0375
1459.41463	12471.2375
1462.82837	12573.6375
1466.23982	12722.1375
1469.64898	12896.0375
1473.05586	13037.3375
1476.46045	13147.2375
1479.86276	13167.2375
1483.26279	13243.0375
1486.66054	13367.0375
1490.05602	13550.1375
1493.44922	13853.0375
1496.84016	14345.7375
1500.22882	15253.5375
1503.61521	16446.3375
1506.99934	17782.4375
1510.38121	18892.1375
1513.76081	19143.4375
1517.13816	18333.4375
1520.51324	16843.2375
1523.88607	15445.0375
1527.25665	14547.9375
1530.62498	14020.1375
1533.99105	13744.0375
1537.35488	13560.4375
1540.71647	13366.0375
1544.07581	13213.4375
1547.4329	13123.0375
1550.78776	13063.1375
1554.14038	13019.1375
1557.49077	13079.8375
1560.83892	13192.4375
1564.18484	13346.3375
1567.52853	13564.5375
1570.86999	13757.0375
1574.20922	13950.0375
1577.54624	13949.5375
1580.88103	13596.8375
1584.2136	13089.0375
1587.54395	12761.1375
1590.87208	12736.7375
1594.19801	13016.8375
1597.52172	13493.1375
1600.84321	13749.1375
1604.16251	13537.9375
1607.47959	13193.6375
1610.79447	12761.8375
1614.10715	12265.6375
1617.41763	11744.3375
1620.7259	11362.0375
1624.03199	11132.8375
1627.33587	11066.1375
1630.63757	11122.1375
1633.93707	11372.3375
1637.23439	11791.9375
1640.52951	12506.9375
1643.82246	13475.7375
1647.11321	14563.7375
1650.40179	15285.3375
1653.68819	15060.4375
1656.97241	13895.5375
1660.25446	12508.3375
1663.53433	11462.6375
1666.81203	10810.1375
1670.08756	10415.4375
1673.36092	10147.1375
1676.63211	9990.5375
1679.90115	9864.1375
1683.16801	9774.2375
1686.43272	9668.7375
1689.69527	9584.8375
1692.95567	9533.4375
1696.2139	9500.0375
1699.46999	9451.0375
1702.72392	9437.2375
1705.97571	9435.7375
1709.22535	9383.9375
1712.47284	9381.7375
1715.71819	9375.1375
1718.96139	9350.1375
1722.20246	9306.4375
1725.44139	9307.9375
1728.67818	9241.2375
1731.91284	9180.4375
1735.14537	9164.3375
1738.37576	9133.4375
1741.60403	9095.3375
1744.83017	9076.3375
1748.05418	9052.4375
1751.27607	9066.3375
1754.49584	9089.4375
1757.71349	9088.7375
1760.92903	9065.7375
1764.14244	9012.6375
1767.35375	8996.6375
1770.56294	8932.4375
1773.77002	8915.9375
1776.97499	8850.7375
1780.17785	8833.1375
1783.37861	8799.1375
1786.57727	8773.0375
1789.77382	8730.7375
1792.96828	8701.4375
1796.16064	8678.2375
1799.3509	8665.4375
1802.53907	8632.3375
1805.72514	8600.3375
1808.90913	8534.9375
1812.09102	8511.4375
1815.27083	8511.2375
1818.44856	8487.2375
1821.6242	8507.7375
1824.79776	8477.3375
1827.96924	8449.8375
1831.13864	8442.4375
1834.30597	8427.4375
1837.47122	8424.1375
1840.6344	8393.4375
1843.7955	8377.7375
1846.95454	8394.9375
1850.11151	8364.2375
1853.26642	8325.5375
1856.41926	8325.7375
1859.57004	8322.9375
1862.71876	8322.4375
1865.86542	8306.5375
1869.01003	8293.6375
1872.15258	8288.2375
1875.29308	8262.2375
1878.43152	8266.6375
1881.56792	8247.0375
1884.70227	8248.7375
1887.83457	8241.7375
1890.96482	8249.0375
1894.09304	8225.8375
1897.21921	8217.6375
1900.34335	8191.9375
1903.46544	8175.8375
1906.58551	8189.0375
1909.70353	8160.4375
1912.81953	8142.5375
1915.93349	8108.6375
1919.04543	8075.0375
1922.15534	8072.2375
1925.26322	8044.7375
1928.36908	8055.0375
1931.47292	8033.2375
1934.57473	7992.3375
1937.67453	7953.8375
1940.77232	7958.4375
1943.86808	7944.5375
1946.96184	7911.7375
1950.05358	7904.7375
1953.14331	7878.2375
1956.23103	7852.7375
1959.31675	7821.5375
1962.40046	7797.8375
1965.48217	7781.3375
1968.56188	7759.6375
1971.63959	7727.3375
1974.7153	7700.7375
1977.78901	7672.9375
1980.86073	7662.9375
1983.93046	7648.2375
1986.99819	7631.5375
1990.06394	7587.1375
1993.1277	7545.4375
1996.18947	7529.3375
1999.24925	7495.4375
2002.30706	7480.8375
2005.36288	7452.1375
2008.41672	7447.3375
2011.46859	7411.1375
2014.51848	7387.5375
2017.56639	7373.3375
2020.61233	7349.5375
2023.6563	7326.8375
2026.6983	7291.0375
2029.73833	7267.0375
2032.7764	7264.3375
2035.8125	7248.7375
2038.84664	7201.1375
2041.87881	7197.1375
2044.90903	7178.7375
2047.93729	7157.1375
2050.96359	7154.4375
2053.98794	7136.7375
2057.01034	7166.6375
2060.03078	7142.6375
2063.04927	7135.6375
2066.06582	7139.1375
2069.08042	7107.5375
2072.09307	7096.7375
2075.10378	7092.7375
2078.11255	7064.4375
2081.11938	7089.3375
2084.12426	7066.4375
2087.12722	7076.0375
2090.12824	7044.1375
2093.12732	7063.4375
2096.12447	7072.6375
2099.11969	7056.0375
2102.11299	7059.6375
2105.10435	7054.9375
2108.09379	7079.9375
2111.08131	7067.5375
2114.0669	7097.1375
2117.05057	7062.3375
2120.03233	7067.8375
2123.01216	7056.9375
2125.99008	7079.6375
2128.96609	7086.3375
2131.94018	7092.7375
2134.91236	7080.2375
2137.88263	7076.7375
2140.851	7089.6375
2143.81746	7079.1375
2146.78201	7080.1375
2149.74466	7102.4375
2152.7054	7097.2375
2155.66425	7064.0375
2158.6212	7075.5375
2161.57625	7051.9375
2164.52941	7056.4375
2167.48067	7050.3375
2170.43004	7037.9375
2173.37752	7035.2375
2176.32311	7034.1375
2179.26681	7047.4375
2182.20863	7036.3375
2185.14856	7029.4375
2188.08661	7007.6375
2191.02278	7047.5375
2193.95707	6999.6375
2196.88948	6991.5375
2199.82001	6995.9375
2202.74867	6994.7375
2205.67545	6982.8375
2208.60037	6945.6375
2211.52341	6949.4375
2214.44458	6952.2375
2217.36388	6907.2375
2220.28132	6910.0375
2223.1969	6880.8375
2226.11061	6886.2375
2229.02246	6850.6375
2231.93245	6835.1375
2234.84058	6817.6375
2237.74686	6821.0375
2240.65128	6821.5375
2243.55385	6804.1375
2246.45456	6777.7375
2249.35343	6778.5375
2252.25044	6764.7375
2255.14561	6726.1375
2258.03893	6769.4375
2260.93041	6746.3375
2263.82004	6723.1375
2266.70783	6709.7375
2269.59378	6688.3375
2272.4779	6682.2375
2275.36017	6663.2375
2278.24061	6631.0375
2281.11922	6611.6375
2283.996	6608.6375
2286.87094	6589.3375
2289.74405	6589.0375
2292.61534	6569.4375
2295.4848	6557.2375
2298.35243	6576.0375
2301.21824	6554.6375
2304.08223	6542.1375
2306.94439	6540.6375
2309.80474	6528.9375
2312.66327	6530.0375
2315.51999	6505.5375
2318.37489	6507.4375
2321.22797	6489.7375
2324.07925	6472.2375
2326.92871	6468.0375
2329.77637	6450.8375
2332.62222	6447.4375
2335.46626	6424.2375
2338.3085	6405.8375
2341.14893	6390.5375
2343.98756	6397.1375
2346.8244	6407.8375
2349.65943	6383.9375
2352.49267	6371.5375
2355.32411	6391.9375
2358.15376	6377.7375
2360.98161	6380.6375
2363.80768	6360.8375
2366.63195	6358.5375
2369.45444	6360.4375
2372.27514	6354.4375
2375.09405	6355.9375
2377.91118	6324.3375
2380.72652	6331.6375
2383.54009	6294.2375
2386.35187	6291.7375
2389.16188	6255.4375
2391.97011	6228.3375
2394.77657	6238.2375
2397.58125	6223.1375
2400.38416	6195.4375
2403.18529	6186.6375
2405.98466	6184.4375
2408.78226	6164.3375
2411.57809	6155.5375
2414.37216	6149.3375
2417.16446	6166.3375
2419.955	6148.2375
2422.74378	6127.9375
2425.5308	6110.1375
2428.31606	6105.9375
2431.09956	6111.3375
2433.88131	6092.1375
2436.6613	6078.3375
2439.43954	6081.3375
2442.21603	6060.8375
2444.99077	6062.5375
2447.76377	6056.2375
2450.53501	6053.6375
2453.30451	6061.4375
2456.07226	6042.8375
2458.83827	6049.5375
2461.60254	6043.8375
2464.36507	6029.2375
2467.12586	6006.5375
2469.88492	5991.2375
2472.64224	6006.9375
2475.39782	6005.7375
2478.15167	6005.4375
2480.90379	6004.6375
2483.65417	6018.2375
2486.40283	5975.7375
2489.14976	5988.2375
2491.89497	5981.9375
2494.63845	5986.6375
2497.3802	5993.2375
2500.12024	5984.7375
2502.85855	5992.8375
2505.59514	5962.3375
2508.33002	5937.9375
2511.06318	5930.0375
2513.79462	5908.9375
2516.52435	5907.5375
2519.25237	5864.8375
2521.97867	5859.1375
2524.70327	5858.9375
2527.42616	5858.9375
2530.14734	5858.2375
2532.86681	5841.0375
2535.58458	5836.0375
2538.30065	5832.0375
2541.01501	5828.0375
2543.72768	5823.4375
2546.43864	5798.1375
2549.14791	5783.5375
2551.85548	5763.3375
2554.56136	5752.7375
2557.26554	5765.4375
2559.96803	5740.7375
2562.66883	5724.9375
2565.36794	5730.1375
2568.06536	5719.2375
2570.7611	5687.6375
2573.45514	5679.2375
2576.14751	5673.5375
2578.83819	5660.7375
2581.52719	5645.9375
2584.21451	5648.3375
2586.90015	5636.8375
2589.58411	5644.5375
2592.2664	5602.8375
2594.94701	5590.8375
2597.62594	5561.0375
2600.30321	5571.6375
2602.9788	5561.2375
2605.65273	5535.5375
2608.32498	5550.7375
2610.99557	5546.3375
2613.66449	5535.2375
2616.33175	5515.8375
2618.99734	5527.0375
2621.66128	5507.9375
2624.32355	5487.9375
2626.98416	5492.0375
2629.64311	5478.9375
2632.30041	5481.1375
2634.95605	5465.6375
2637.61004	5452.3375
2640.26238	5455.7375
2642.91306	5431.0375
2645.56209	5441.4375
2648.20948	5446.4375
2650.85521	5431.4375
2653.4993	5431.4375
2656.14175	5415.0375
2658.78255	5416.5375
2661.42171	5404.0375
2664.05923	5415.7375
2666.6951	5409.9375
2669.32934	5413.2375
2671.96194	5409.9375
2674.59291	5418.0375
2677.22224	5414.2375
2679.84993	5415.0375
2682.476	5405.6375
2685.10043	5417.3375
2687.72324	5405.4375
2690.34441	5410.0375
2692.96396	5389.6375
2695.58188	5404.2375
2698.19818	5385.5375
2700.81285	5397.4375
2703.4259	5371.3375
2706.03733	5387.6375
2708.64714	5381.0375
2711.25533	5379.6375
2713.86191	5382.9375
2716.46687	5382.8375
2719.07021	5380.0375
2721.67194	5398.8375
2724.27206	5373.3375
2726.87057	5372.6375
2729.46747	5385.6375
2732.06276	5394.0375
2734.65644	5377.4375
2737.24852	5359.3375
2739.83899	5362.3375
2742.42786	5369.6375
2745.01513	5325.6375
2747.60079	5335.0375
2750.18486	5314.3375
2752.76733	5315.0375
2755.3482	5296.0375
2757.92747	5303.0375
2760.50515	5292.7375
2763.08123	5278.6375
2765.65573	5296.3375
2768.22863	5262.6375
2770.79994	5261.7375
2773.36967	5246.8375
2775.9378	5247.6375
2778.50435	5256.3375
2781.06932	5240.9375
2783.6327	5233.0375
2786.1945	5221.9375
2788.75471	5234.8375
2791.31335	5207.5375
2793.87041	5199.7375
2796.42589	5186.8375
2798.97979	5191.4375
2801.53212	5152.6375
2804.08288	5148.4375
2806.63206	5142.6375
2809.17967	5137.6375
2811.72571	5120.4375
2814.27018	5115.5375
2816.81308	5114.3375
2819.35442	5101.6375
2821.89419	5106.8375
2824.43239	5106.8375
2826.96904	5078.8375
2829.50412	5086.4375
2832.03763	5055.9375
2834.56959	5067.2375
2837.1	5080.4375
2839.62884	5072.1375
2842.15613	5076.0375
2844.68186	5095.4375
2847.20604	5097.9375
2849.72867	5104.5375
2852.24974	5125.3375
2854.76927	5094.4375
2857.28724	5106.5375
2859.80367	5083.7375
2862.31855	5083.7375
2864.83189	5073.8375
2867.34368	5067.3375
2869.85393	5067.2375
2872.36264	5056.0375
2874.8698	5059.6375
2877.37543	5062.1375
2879.87952	5045.4375
2882.38207	5049.3375
2884.88308	5056.8375
2887.38256	5044.6375
2889.88051	5040.4375
2892.37692	5049.0375
2894.8718	5033.8375
2897.36515	5055.3375
2899.85698	5053.0375
2902.34727	5046.8375
2904.83604	5059.4375
2907.32328	5070.8375
2909.809	5084.8375
2912.29319	5074.7375
2914.77587	5077.5375
2917.25702	5080.2375
2919.73665	5098.6375
2922.21476	5097.3375
2924.69136	5097.6375
2927.16644	5112.0375
2929.64	5093.4375
2932.11205	5078.8375
2934.58258	5064.7375
2937.05161	5080.8375
2939.51912	5076.2375
2941.98513	5072.5375
2944.44962	5054.5375
2946.91261	5037.5375
2949.37409	5020.6375
2951.83407	5030.4375
2954.29254	5026.1375
2956.74951	5031.2375
2959.20498	5006.3375
2961.65895	4995.7375
2964.11142	4999.6375
2966.56239	4984.1375
2969.01186	4964.7375
2971.45984	4949.3375
2973.90632	4934.3375
2976.35131	4929.1375
2978.7948	4911.2375
2981.23681	4889.9375
2983.67732	4883.4375
2986.11635	4851.3375
2988.55388	4859.6375
2990.98993	4866.9375
2993.4245	4821.9375
2995.85758	4832.3375
2998.28917	4808.0375
3000.71928	4821.7375
3003.14791	4795.6375
3005.57506	4804.9375
3008.00073	4799.7375
3010.42493	4778.1375
3012.84764	4773.5375
3015.26888	4759.4375
3017.68865	4756.4375
3020.10694	4755.3375
3022.52376	4739.7375
3024.9391	4753.7375
3027.35298	4718.6375
3029.76539	4714.4375
3032.17632	4713.9375
3034.5858	4699.0375
3036.9938	4690.8375
3039.40034	4678.2375
3041.80542	4680.3375
3044.20903	4680.5375
3046.61118	4669.9375
3049.01187	4666.1375
3051.4111	4653.8375
3053.80888	4649.6375
3056.20519	4649.9375
3058.60005	4637.7375
3060.99345	4628.0375
3063.3854	4623.3375
3065.7759	4617.5375
3068.16494	4603.7375
3070.55254	4599.8375
3072.93868	4583.4375
3075.32338	4585.4375
3077.70662	4559.7375
3080.08842	4556.6375
