Data from AgNPs_FTO_APTES_UA_50uM_CRN_5uM_R6G_10uM_NaF_0.1M_Addition_RamanShift__12__12-46-34-822.txt Node

Date: Mon Feb 21 12:46:34 GMT 2022
User: TCL
Spectrometer: QEP01345
Trigger mode: 4
Integration Time (sec): 7.000000E0
Scans to average: 10
Electric dark correction enabled: true
Nonlinearity correction enabled: false
Boxcar width: 0
XAxis mode: Raman Shifts
Number of Pixels in Spectrum: 1044
>>>>>Begin Spectral Data<<<<<
46.04893	0.6125
50.45542	-0.0875
54.85868	-1.4875
59.25871	-1.5875
63.6555	47.8125
68.04907	47.7125
72.43941	48.2125
76.82654	55.1125
81.21044	60.0125
85.59113	62.0125
89.96862	61.1125
94.34289	66.7125
98.71396	66.7125
103.08183	71.0125
107.4465	67.2125
111.80798	72.3125
116.16626	70.7125
120.52136	71.6125
124.87327	79.5125
129.222	77.9125
133.56755	79.2125
137.90993	87.3125
142.24913	90.3125
146.58517	100.5125
150.91804	110.7125
155.24774	131.2125
159.57429	158.6125
163.89768	191.7125
168.21792	255.7125
172.53501	341.4125
176.84895	473.5125
181.15975	662.7125
185.46741	932.3125
189.77193	1278.4125
194.07331	1727.4125
198.37157	2221.9125
202.6667	2735.5125
206.9587	3266.9125
211.24758	3784.8125
215.53334	4288.3125
219.81599	4825.9125
224.09553	5435.8125
228.37195	6104.1125
232.64527	6829.4125
236.91549	7610.7125
241.18261	8405.3125
245.44663	9146.7125
249.70755	9804.7125
253.96539	10338.4125
258.22014	10773.5125
262.4718	11096.1125
266.72039	11278.5125
270.96589	11331.6125
275.20832	11231.1125
279.44768	11089.5125
283.68397	10901.1125
287.91719	10705.1125
292.14735	10526.7125
296.37445	10432.4125
300.59849	10368.5125
304.81948	10356.1125
309.03742	10328.8125
313.25231	10254.5125
317.46415	10088.1125
321.67296	9867.2125
325.87872	9686.4125
330.08145	9615.2125
334.28114	9561.3125
338.47781	9623.1125
342.67145	9742.7125
346.86207	9875.0125
351.04966	10066.2125
355.23424	10276.2125
359.4158	10421.2125
363.59435	10502.8125
367.76989	10589.0125
371.94243	10639.0125
376.11196	10650.8125
380.27849	10632.6125
384.44203	10683.9125
388.60257	10733.0125
392.76012	10820.8125
396.91468	10968.5125
401.06626	11112.0125
405.21485	11209.0125
409.36047	11169.3125
413.50311	10981.3125
417.64277	10828.3125
421.77947	10825.0125
425.9132	10814.8125
430.04396	10869.4125
434.17176	10948.1125
438.2966	11030.2125
442.41849	11211.4125
446.53742	11420.9125
450.6534	11678.2125
454.76644	11789.3125
458.87653	11858.3125
462.98368	11858.5125
467.08789	11807.0125
471.18916	11719.6125
475.2875	11593.8125
479.38291	11506.5125
483.4754	11449.2125
487.56496	11357.5125
491.6516	11287.9125
495.73531	11197.2125
499.81612	11160.7125
503.89401	11173.8125
507.96899	11244.8125
512.04106	11239.2125
516.11023	11212.4125
520.1765	11172.4125
524.23987	11092.3125
528.30034	11033.9125
532.35792	10970.5125
536.41261	10885.8125
540.46441	10770.2125
544.51333	10737.2125
548.55936	10829.0125
552.60252	10949.4125
556.64279	11179.6125
560.6802	11281.1125
564.71473	11361.0125
568.7464	11555.6125
572.7752	11884.4125
576.80114	12212.5125
580.82422	12514.1125
584.84444	12793.9125
588.86181	13128.9125
592.87633	13588.5125
596.888	13730.4125
600.89682	13468.6125
604.9028	13362.2125
608.90594	14088.0125
612.90624	15011.2125
616.90371	14112.9125
620.89834	12179.9125
624.89015	11297.0125
628.87913	11222.9125
632.86528	11320.1125
636.84862	11412.4125
640.82913	11247.8125
644.80683	10972.3125
648.78172	10792.8125
652.75379	10755.9125
656.72306	10890.1125
660.68952	11066.3125
664.65319	11067.8125
668.61405	10911.9125
672.57211	10901.0125
676.52738	10954.6125
680.47986	11000.4125
684.42955	11007.2125
688.37646	11027.9125
692.32058	11042.9125
696.26192	11088.5125
700.20048	11140.1125
704.13626	11149.9125
708.06928	11169.9125
711.99952	11112.1125
715.927	11059.7125
719.85171	11040.6125
723.77365	11004.8125
727.69284	10843.9125
731.60928	10715.9125
735.52295	10669.5125
739.43388	10676.6125
743.34206	10726.4125
747.24749	10789.5125
751.15017	10899.9125
755.05012	11050.6125
758.94733	11329.6125
762.8418	11809.3125
766.73354	12634.8125
770.62254	13454.7125
774.50882	13639.7125
778.39237	13150.0125
782.27321	12341.7125
786.15132	11687.4125
790.02671	11209.4125
793.89938	10951.3125
797.76935	10797.8125
801.6366	10712.2125
805.50115	10668.7125
809.36299	10618.1125
813.22213	10548.3125
817.07857	10539.8125
820.93231	10523.3125
824.78336	10482.1125
828.63172	10468.5125
832.47738	10450.3125
836.32036	10429.8125
840.16066	10418.8125
843.99827	10412.5125
847.8332	10421.2125
851.66546	10431.9125
855.49504	10424.6125
859.32195	10469.8125
863.1462	10445.0125
866.96777	10414.0125
870.78668	10410.1125
874.60293	10432.2125
878.41652	10456.6125
882.22745	10501.5125
886.03573	10542.5125
889.84136	10528.2125
893.64433	10545.0125
897.44466	10555.6125
901.24235	10554.1125
905.0374	10534.5125
908.8298	10499.9125
912.61957	10499.6125
916.40671	10546.9125
920.19121	10660.7125
923.97308	10735.7125
927.75233	10793.7125
931.52895	10708.5125
935.30295	10575.5125
939.07433	10374.6125
942.84309	10248.3125
946.60924	10157.5125
950.37278	10114.6125
954.13371	10102.1125
957.89203	10088.7125
961.64774	10095.7125
965.40086	10061.4125
969.15137	10047.8125
972.89929	10035.3125
976.64461	10002.4125
980.38733	9983.7125
984.12747	9993.7125
987.86502	10008.2125
991.59999	10057.6125
995.33237	10113.4125
999.06217	10240.5125
1002.78939	10383.9125
1006.51404	10564.3125
1010.23611	10742.4125
1013.95561	10865.5125
1017.67255	10876.6125
1021.38692	10787.4125
1025.09872	10667.9125
1028.80796	10510.6125
1032.51465	10457.8125
1036.21877	10444.3125
1039.92035	10477.5125
1043.61937	10550.3125
1047.31584	10604.6125
1051.00976	10626.4125
1054.70114	10668.2125
1058.38998	10688.5125
1062.07627	10777.3125
1065.76003	10869.8125
1069.44126	10985.1125
1073.11995	11210.5125
1076.79611	11355.1125
1080.46974	11442.7125
1084.14085	11492.9125
1087.80943	11605.2125
1091.47549	11710.1125
1095.13903	11753.3125
1098.80005	11598.1125
1102.45857	11368.5125
1106.11456	11164.4125
1109.76805	11039.0125
1113.41903	11044.8125
1117.06751	11103.4125
1120.71348	11222.8125
1124.35696	11354.1125
1127.99793	11507.4125
1131.63641	11605.4125
1135.2724	11575.2125
1138.90589	11507.8125
1142.5369	11479.9125
1146.16542	11516.9125
1149.79145	11598.7125
1153.415	11696.6125
1157.03607	11803.2125
1160.65467	11970.2125
1164.27079	12270.8125
1167.88443	12732.6125
1171.49561	13340.4125
1175.10432	14147.6125
1178.71056	15171.1125
1182.31434	16089.9125
1185.91565	16600.5125
1189.51451	16653.4125
1193.11091	16432.5125
1196.70485	15935.0125
1200.29634	15335.5125
1203.88538	14764.4125
1207.47197	14310.7125
1211.05612	13980.5125
1214.63782	13728.4125
1218.21708	13517.5125
1221.79391	13314.9125
1225.36829	13235.5125
1228.94024	13164.4125
1232.50976	13070.0125
1236.07685	12935.7125
1239.6415	12788.1125
1243.20374	12754.2125
1246.76355	12727.3125
1250.32093	12844.2125
1253.8759	13034.8125
1257.42845	13326.4125
1260.97859	13685.7125
1264.52631	14118.7125
1268.07163	14520.3125
1271.61453	14838.3125
1275.15503	15205.8125
1278.69312	15552.3125
1282.22882	15960.7125
1285.76211	16417.8125
1289.29301	16922.5125
1292.82151	17544.0125
1296.34761	18163.8125
1299.87133	18895.1125
1303.39266	19704.9125
1306.9116	20453.5125
1310.42815	21150.9125
1313.94233	21437.6125
1317.45412	21284.2125
1320.96354	20896.2125
1324.47058	20513.1125
1327.97525	20202.3125
1331.47754	19939.0125
1334.97747	19809.8125
1338.47502	19747.3125
1341.97022	19748.6125
1345.46305	19848.4125
1348.95352	19951.7125
1352.44163	20127.0125
1355.92738	20495.1125
1359.41078	21195.2125
1362.89183	21928.5125
1366.37053	21847.1125
1369.84688	20494.2125
1373.32088	18582.9125
1376.79254	17182.4125
1380.26186	16425.0125
1383.72883	16104.6125
1387.19347	15797.0125
1390.65578	15604.8125
1394.11575	15420.4125
1397.57339	15377.7125
1401.0287	15385.0125
1404.48168	15409.0125
1407.93234	15286.5125
1411.38068	15071.2125
1414.82669	14763.6125
1418.27039	14390.3125
1421.71177	14012.1125
1425.15083	13753.6125
1428.58758	13537.8125
1432.02203	13574.3125
1435.45416	13739.7125
1438.88399	13945.6125
1442.31151	14107.9125
1445.73673	14217.6125
1449.15965	14337.0125
1452.58027	14464.1125
1455.9986	14579.3125
1459.41463	14720.9125
1462.82837	14946.5125
1466.23982	15241.0125
1469.64898	15450.9125
1473.05586	15586.7125
1476.46045	15659.5125
1479.86276	15727.1125
1483.26279	15756.5125
1486.66054	15879.5125
1490.05602	16109.8125
1493.44922	16507.3125
1496.84016	16983.4125
1500.22882	17614.5125
1503.61521	18269.4125
1506.99934	18917.7125
1510.38121	19388.2125
1513.76081	19318.5125
1517.13816	18829.5125
1520.51324	18166.0125
1523.88607	17598.4125
1527.25665	17167.3125
1530.62498	16911.6125
1533.99105	16630.7125
1537.35488	16326.9125
1540.71647	15951.8125
1544.07581	15503.2125
1547.4329	15142.4125
1550.78776	14890.7125
1554.14038	14771.3125
1557.49077	14731.4125
1560.83892	14799.3125
1564.18484	14911.1125
1567.52853	15051.2125
1570.86999	15229.6125
1574.20922	15401.4125
1577.54624	15483.1125
1580.88103	15407.9125
1584.2136	15282.7125
1587.54395	15366.6125
1590.87208	15737.3125
1594.19801	16345.6125
1597.52172	16940.3125
1600.84321	16983.2125
1604.16251	16433.6125
1607.47959	15483.8125
1610.79447	14508.4125
1614.10715	13581.3125
1617.41763	12823.9125
1620.7259	12275.3125
1624.03199	11984.1125
1627.33587	11957.5125
1630.63757	12226.9125
1633.93707	12813.9125
1637.23439	13842.6125
1640.52951	15346.6125
1643.82246	17169.7125
1647.11321	18666.3125
1650.40179	19101.8125
1653.68819	18002.0125
1656.97241	15981.6125
1660.25446	13942.4125
1663.53433	12364.8125
1666.81203	11369.6125
1670.08756	10778.5125
1673.36092	10402.4125
1676.63211	10185.7125
1679.90115	9998.4125
1683.16801	9876.5125
1686.43272	9742.5125
1689.69527	9630.0125
1692.95567	9499.9125
1696.2139	9374.4125
1699.46999	9271.2125
1702.72392	9215.4125
1705.97571	9274.1125
1709.22535	9307.4125
1712.47284	9374.7125
1715.71819	9378.5125
1718.96139	9383.7125
1722.20246	9344.0125
1725.44139	9293.9125
1728.67818	9235.7125
1731.91284	9199.1125
1735.14537	9144.2125
1738.37576	9078.8125
1741.60403	9035.8125
1744.83017	9016.6125
1748.05418	8975.1125
1751.27607	8921.2125
1754.49584	8854.7125
1757.71349	8795.8125
1760.92903	8769.3125
1764.14244	8730.6125
1767.35375	8733.3125
1770.56294	8693.8125
1773.77002	8687.1125
1776.97499	8710.6125
1780.17785	8767.8125
1783.37861	8775.3125
1786.57727	8784.6125
1789.77382	8777.0125
1792.96828	8761.4125
1796.16064	8740.3125
1799.3509	8713.1125
1802.53907	8708.5125
1805.72514	8696.5125
1808.90913	8671.6125
1812.09102	8656.9125
1815.27083	8642.4125
1818.44856	8633.0125
1821.6242	8625.4125
1824.79776	8619.6125
1827.96924	8632.4125
1831.13864	8614.1125
1834.30597	8596.2125
1837.47122	8614.9125
1840.6344	8639.3125
1843.7955	8617.7125
1846.95454	8625.6125
1850.11151	8619.9125
1853.26642	8608.4125
1856.41926	8616.7125
1859.57004	8604.2125
1862.71876	8590.7125
1865.86542	8577.8125
1869.01003	8540.3125
1872.15258	8539.1125
1875.29308	8519.5125
1878.43152	8524.9125
1881.56792	8510.2125
1884.70227	8507.4125
1887.83457	8476.7125
1890.96482	8480.2125
1894.09304	8452.6125
1897.21921	8437.5125
1900.34335	8427.0125
1903.46544	8401.3125
1906.58551	8417.3125
1909.70353	8404.0125
1912.81953	8392.2125
1915.93349	8387.1125
1919.04543	8347.6125
1922.15534	8337.4125
1925.26322	8328.5125
1928.36908	8286.0125
1931.47292	8258.3125
1934.57473	8235.6125
1937.67453	8223.4125
1940.77232	8192.8125
1943.86808	8177.3125
1946.96184	8191.5125
1950.05358	8127.0125
1953.14331	8106.9125
1956.23103	8089.9125
1959.31675	8048.3125
1962.40046	8032.3125
1965.48217	8035.6125
1968.56188	8022.5125
1971.63959	7957.2125
1974.7153	7928.0125
1977.78901	7898.9125
1980.86073	7877.2125
1983.93046	7850.7125
1986.99819	7835.6125
1990.06394	7782.1125
1993.1277	7799.4125
1996.18947	7755.8125
1999.24925	7747.2125
2002.30706	7725.4125
2005.36288	7697.0125
2008.41672	7679.9125
2011.46859	7635.3125
2014.51848	7651.1125
2017.56639	7610.4125
2020.61233	7605.5125
2023.6563	7575.4125
2026.6983	7549.4125
2029.73833	7530.2125
2032.7764	7515.8125
2035.8125	7503.7125
2038.84664	7472.7125
2041.87881	7474.8125
2044.90903	7470.8125
2047.93729	7451.5125
2050.96359	7439.0125
2053.98794	7414.7125
2057.01034	7428.8125
2060.03078	7419.0125
2063.04927	7421.6125
2066.06582	7418.9125
2069.08042	7411.3125
2072.09307	7420.8125
2075.10378	7428.8125
2078.11255	7422.4125
2081.11938	7421.4125
2084.12426	7418.1125
2087.12722	7431.4125
2090.12824	7435.1125
2093.12732	7434.0125
2096.12447	7440.7125
2099.11969	7421.4125
2102.11299	7459.0125
2105.10435	7468.6125
2108.09379	7457.5125
2111.08131	7477.8125
2114.0669	7492.4125
2117.05057	7505.1125
2120.03233	7496.5125
2123.01216	7497.2125
2125.99008	7486.1125
2128.96609	7510.2125
2131.94018	7512.0125
2134.91236	7498.9125
2137.88263	7493.7125
2140.851	7489.9125
2143.81746	7493.5125
2146.78201	7494.4125
2149.74466	7484.5125
2152.7054	7481.2125
2155.66425	7460.8125
2158.6212	7483.3125
2161.57625	7469.0125
2164.52941	7475.9125
2167.48067	7442.4125
2170.43004	7428.8125
2173.37752	7407.4125
2176.32311	7439.7125
2179.26681	7421.2125
2182.20863	7402.9125
2185.14856	7416.4125
2188.08661	7431.4125
2191.02278	7418.1125
2193.95707	7393.6125
2196.88948	7392.7125
2199.82001	7382.7125
2202.74867	7375.5125
2205.67545	7370.2125
2208.60037	7353.1125
2211.52341	7338.7125
2214.44458	7331.8125
2217.36388	7312.9125
2220.28132	7301.4125
2223.1969	7293.2125
2226.11061	7275.5125
2229.02246	7273.4125
2231.93245	7255.0125
2234.84058	7231.1125
2237.74686	7242.5125
2240.65128	7240.1125
2243.55385	7223.7125
2246.45456	7227.1125
2249.35343	7206.2125
2252.25044	7209.9125
2255.14561	7181.7125
2258.03893	7156.3125
2260.93041	7145.7125
2263.82004	7162.3125
2266.70783	7122.7125
2269.59378	7100.1125
2272.4779	7090.9125
2275.36017	7086.3125
2278.24061	7066.1125
2281.11922	7047.5125
2283.996	7049.2125
2286.87094	7028.9125
2289.74405	7009.5125
2292.61534	7004.5125
2295.4848	7006.3125
2298.35243	6990.8125
2301.21824	6986.1125
2304.08223	6971.5125
2306.94439	6987.5125
2309.80474	6956.0125
2312.66327	6960.5125
2315.51999	6949.2125
2318.37489	6946.5125
2321.22797	6938.9125
2324.07925	6919.6125
2326.92871	6906.6125
2329.77637	6913.4125
2332.62222	6876.3125
2335.46626	6860.2125
2338.3085	6855.7125
2341.14893	6856.0125
2343.98756	6862.4125
2346.8244	6864.1125
2349.65943	6862.7125
2352.49267	6867.1125
2355.32411	6861.6125
2358.15376	6866.5125
2360.98161	6851.6125
2363.80768	6848.8125
2366.63195	6841.7125
2369.45444	6842.5125
2372.27514	6829.5125
2375.09405	6839.5125
2377.91118	6819.9125
2380.72652	6827.9125
2383.54009	6791.3125
2386.35187	6773.8125
2389.16188	6739.8125
2391.97011	6764.7125
2394.77657	6740.5125
2397.58125	6740.3125
2400.38416	6743.4125
2403.18529	6715.1125
2405.98466	6708.6125
2408.78226	6690.3125
2411.57809	6696.4125
2414.37216	6679.9125
2417.16446	6684.5125
2419.955	6672.2125
2422.74378	6677.4125
2425.5308	6658.4125
2428.31606	6653.0125
2431.09956	6667.1125
2433.88131	6635.9125
2436.6613	6622.5125
2439.43954	6646.9125
2442.21603	6628.2125
2444.99077	6620.7125
2447.76377	6625.9125
2450.53501	6616.2125
2453.30451	6603.2125
2456.07226	6605.6125
2458.83827	6613.5125
2461.60254	6611.7125
2464.36507	6596.6125
2467.12586	6580.3125
2469.88492	6593.8125
2472.64224	6598.5125
2475.39782	6573.4125
2478.15167	6562.1125
2480.90379	6556.0125
2483.65417	6574.7125
2486.40283	6571.3125
2489.14976	6583.2125
2491.89497	6571.4125
2494.63845	6566.5125
2497.3802	6555.9125
2500.12024	6533.1125
2502.85855	6548.1125
2505.59514	6539.5125
2508.33002	6548.6125
2511.06318	6532.7125
2513.79462	6540.3125
2516.52435	6527.2125
2519.25237	6522.0125
2521.97867	6495.6125
2524.70327	6500.0125
2527.42616	6490.6125
2530.14734	6484.7125
2532.86681	6479.2125
2535.58458	6482.7125
2538.30065	6448.1125
2541.01501	6463.0125
2543.72768	6430.2125
2546.43864	6432.8125
2549.14791	6429.0125
2551.85548	6438.1125
2554.56136	6415.1125
2557.26554	6421.9125
2559.96803	6395.9125
2562.66883	6399.0125
2565.36794	6390.5125
2568.06536	6403.4125
2570.7611	6377.1125
2573.45514	6369.0125
2576.14751	6363.4125
2578.83819	6353.1125
2581.52719	6349.4125
2584.21451	6326.7125
2586.90015	6315.8125
2589.58411	6314.7125
2592.2664	6308.8125
2594.94701	6296.0125
2597.62594	6305.0125
2600.30321	6313.3125
2602.9788	6282.3125
2605.65273	6287.8125
2608.32498	6287.2125
2610.99557	6272.3125
2613.66449	6267.5125
2616.33175	6261.6125
2618.99734	6254.9125
2621.66128	6244.6125
2624.32355	6232.3125
2626.98416	6232.0125
2629.64311	6209.7125
2632.30041	6205.4125
2634.95605	6211.1125
2637.61004	6198.2125
2640.26238	6177.9125
2642.91306	6199.3125
2645.56209	6170.1125
2648.20948	6184.4125
2650.85521	6167.0125
2653.4993	6192.9125
2656.14175	6192.9125
2658.78255	6187.9125
2661.42171	6210.4125
2664.05923	6205.6125
2666.6951	6211.3125
2669.32934	6215.3125
2671.96194	6211.6125
2674.59291	6210.6125
2677.22224	6212.7125
2679.84993	6189.1125
2682.476	6196.8125
2685.10043	6188.9125
2687.72324	6206.7125
2690.34441	6191.8125
2692.96396	6196.7125
2695.58188	6211.1125
2698.19818	6186.0125
2700.81285	6179.8125
2703.4259	6156.2125
2706.03733	6092.4125
2708.64714	6119.1125
2711.25533	6173.3125
2713.86191	6178.7125
2716.46687	6189.2125
2719.07021	6182.3125
2721.67194	6209.2125
2724.27206	6195.5125
2726.87057	6225.0125
2729.46747	6214.7125
2732.06276	6222.5125
2734.65644	6205.6125
2737.24852	6217.2125
2739.83899	6198.7125
2742.42786	6214.3125
2745.01513	6179.3125
2747.60079	6198.4125
2750.18486	6183.7125
2752.76733	6166.4125
2755.3482	6167.6125
2757.92747	6150.7125
2760.50515	6143.8125
2763.08123	6145.3125
2765.65573	6148.5125
2768.22863	6129.2125
2770.79994	6130.2125
2773.36967	6143.6125
2775.9378	6119.8125
2778.50435	6112.0125
2781.06932	6111.0125
2783.6327	6100.7125
2786.1945	6091.5125
2788.75471	6103.1125
2791.31335	6098.4125
2793.87041	6087.8125
2796.42589	6070.3125
2798.97979	6049.7125
2801.53212	6061.7125
2804.08288	6040.8125
2806.63206	6028.8125
2809.17967	6000.9125
2811.72571	5991.8125
2814.27018	6000.9125
2816.81308	5972.4125
2819.35442	5973.0125
2821.89419	5974.1125
2824.43239	5967.4125
2826.96904	5959.3125
2829.50412	5969.8125
2832.03763	5933.0125
2834.56959	5943.1125
2837.1	5919.9125
2839.62884	5935.2125
2842.15613	5922.0125
2844.68186	5923.2125
2847.20604	5938.1125
2849.72867	5933.4125
2852.24974	5937.9125
2854.76927	5928.1125
2857.28724	5903.7125
2859.80367	5922.3125
2862.31855	5923.5125
2864.83189	5913.2125
2867.34368	5921.8125
2869.85393	5919.3125
2872.36264	5930.6125
2874.8698	5920.8125
2877.37543	5921.4125
2879.87952	5910.3125
2882.38207	5917.6125
2884.88308	5907.9125
2887.38256	5931.0125
2889.88051	5920.0125
2892.37692	5943.5125
2894.8718	5924.6125
2897.36515	5949.6125
2899.85698	5957.8125
2902.34727	5960.3125
2904.83604	5955.8125
2907.32328	5961.5125
2909.809	5979.1125
2912.29319	5957.2125
2914.77587	5961.9125
2917.25702	5961.2125
2919.73665	5956.2125
2922.21476	5962.2125
2924.69136	5957.7125
2927.16644	5957.5125
2929.64	5943.8125
2932.11205	5935.1125
2934.58258	5898.0125
2937.05161	5908.8125
2939.51912	5907.9125
2941.98513	5934.6125
2944.44962	5917.4125
2946.91261	5879.7125
2949.37409	5905.2125
2951.83407	5888.2125
2954.29254	5860.6125
2956.74951	5886.2125
2959.20498	5858.5125
2961.65895	5864.1125
2964.11142	5845.3125
2966.56239	5841.6125
2969.01186	5827.4125
2971.45984	5808.9125
2973.90632	5812.8125
2976.35131	5800.2125
2978.7948	5787.7125
2981.23681	5775.6125
2983.67732	5758.4125
2986.11635	5757.4125
2988.55388	5723.8125
2990.98993	5738.7125
2993.4245	5715.7125
2995.85758	5706.5125
2998.28917	5678.8125
3000.71928	5687.7125
3003.14791	5667.1125
3005.57506	5660.6125
3008.00073	5655.5125
3010.42493	5649.0125
3012.84764	5633.8125
3015.26888	5628.6125
3017.68865	5625.0125
3020.10694	5617.2125
3022.52376	5596.7125
3024.9391	5576.1125
3027.35298	5592.5125
3029.76539	5601.4125
3032.17632	5604.6125
3034.5858	5583.7125
3036.9938	5574.8125
3039.40034	5570.7125
3041.80542	5554.0125
3044.20903	5561.8125
3046.61118	5546.9125
3049.01187	5543.1125
3051.4111	5550.1125
3053.80888	5534.8125
3056.20519	5526.1125
3058.60005	5523.9125
3060.99345	5508.7125
3063.3854	5516.3125
3065.7759	5494.5125
3068.16494	5475.5125
3070.55254	5471.6125
3072.93868	5440.3125
3075.32338	5416.7125
3077.70662	5426.7125
3080.08842	5424.3125
3082.46878	5410.6125
