Data from AgNPs_FTO_APTES_UA_50uM_CRN_5uM_R6G_10uM_NaF_0.1M_Addition_RamanShift__23__12-59-24-839.txt Node

Date: Mon Feb 21 12:59:24 GMT 2022
User: TCL
Spectrometer: QEP01345
Trigger mode: 4
Integration Time (sec): 7.000000E0
Scans to average: 10
Electric dark correction enabled: true
Nonlinearity correction enabled: false
Boxcar width: 0
XAxis mode: Raman Shifts
Number of Pixels in Spectrum: 1044
>>>>>Begin Spectral Data<<<<<
46.04893	0.2375
50.45542	-1.2625
54.85868	-0.6625
59.25871	-1.7625
63.6555	58.4375
68.04907	65.3375
72.43941	66.2375
76.82654	70.6375
81.21044	73.8375
85.59113	77.8375
89.96862	77.9375
94.34289	81.6375
98.71396	82.3375
103.08183	90.2375
107.4465	90.7375
111.80798	93.4375
116.16626	92.8375
120.52136	93.5375
124.87327	100.5375
129.222	101.1375
133.56755	106.2375
137.90993	118.6375
142.24913	129.3375
146.58517	142.5375
150.91804	165.3375
155.24774	198.2375
159.57429	246.9375
163.89768	317.0375
168.21792	425.7375
172.53501	575.2375
176.84895	808.2375
181.15975	1136.6375
185.46741	1579.5375
189.77193	2191.2375
194.07331	2929.5375
198.37157	3773.1375
202.6667	4688.6375
206.9587	5627.3375
211.24758	6584.2375
215.53334	7607.4375
219.81599	8810.5375
224.09553	10187.2375
228.37195	11702.0375
232.64527	13359.3375
236.91549	14832.8375
241.18261	16130.0375
245.44663	17021.2375
249.70755	17612.6375
253.96539	18124.3375
258.22014	18610.8375
262.4718	19086.2375
266.72039	19388.2375
270.96589	19378.0375
275.20832	19027.1375
279.44768	18511.5375
283.68397	17978.9375
287.91719	17675.8375
292.14735	17759.5375
296.37445	18398.1375
300.59849	19597.2375
304.81948	20953.0375
309.03742	21986.2375
313.25231	22131.5375
317.46415	20890.0375
321.67296	18777.9375
325.87872	17002.2375
330.08145	16134.9375
334.28114	16102.6375
338.47781	16473.0375
342.67145	17072.7375
346.86207	17967.4375
351.04966	19399.6375
355.23424	21047.9375
359.4158	22382.1375
363.59435	22919.7375
367.76989	22910.8375
371.94243	22636.7375
376.11196	22313.5375
380.27849	21906.8375
384.44203	21560.2375
388.60257	21098.9375
392.76012	20824.1375
396.91468	20955.3375
401.06626	21515.1375
405.21485	21843.0375
409.36047	21123.3375
413.50311	19531.1375
417.64277	17963.3375
421.77947	17029.5375
425.9132	16625.6375
430.04396	16468.2375
434.17176	16500.3375
438.2966	16731.1375
442.41849	17307.8375
446.53742	17985.3375
450.6534	18587.2375
454.76644	18939.5375
458.87653	18916.8375
462.98368	18611.6375
467.08789	18201.0375
471.18916	17703.7375
475.2875	17175.5375
479.38291	16708.8375
483.4754	16400.2375
487.56496	16060.7375
491.6516	15822.0375
495.73531	15666.4375
499.81612	15748.0375
503.89401	16043.9375
507.96899	16316.4375
512.04106	16723.1375
516.11023	17132.4375
520.1765	17459.9375
524.23987	17423.1375
528.30034	17117.2375
532.35792	16772.0375
536.41261	16369.7375
540.46441	15886.9375
544.51333	15575.2375
548.55936	15702.0375
552.60252	16146.0375
556.64279	16801.5375
560.6802	17171.9375
564.71473	17760.0375
568.7464	18995.6375
572.7752	19531.9375
576.80114	18507.4375
580.82422	17351.9375
584.84444	16973.0375
588.86181	17085.7375
592.87633	17514.6375
596.888	18022.7375
600.89682	18737.3375
604.9028	21690.6375
608.90594	30364.9375
612.90624	41683.3375
616.90371	39190.5375
620.89834	24819.1375
624.89015	17935.5375
628.87913	16811.5375
632.86528	17263.4375
636.84862	17741.6375
640.82913	17289.9375
644.80683	15884.3375
648.78172	14888.0375
652.75379	14824.4375
656.72306	15800.0375
660.68952	16983.8375
664.65319	16633.5375
668.61405	15276.2375
672.57211	14749.3375
676.52738	14783.8375
680.47986	14861.1375
684.42955	14669.2375
688.37646	14546.9375
692.32058	14573.3375
696.26192	14678.1375
700.20048	14864.3375
704.13626	14946.3375
708.06928	14775.5375
711.99952	14523.0375
715.927	14497.6375
719.85171	14658.1375
723.77365	14740.0375
727.69284	14582.2375
731.60928	14362.2375
735.52295	14321.7375
739.43388	14393.1375
743.34206	14537.2375
747.24749	14601.8375
751.15017	14650.0375
755.05012	15018.4375
758.94733	16206.7375
762.8418	19331.5375
766.73354	24657.3375
770.62254	29832.3375
774.50882	32117.8375
778.39237	30268.5375
782.27321	24952.3375
786.15132	19725.9375
790.02671	16633.4375
793.89938	15215.3375
797.76935	14632.8375
801.6366	14361.8375
805.50115	14222.3375
809.36299	14093.7375
813.22213	13976.1375
817.07857	13928.5375
820.93231	13865.6375
824.78336	13886.3375
828.63172	13985.5375
832.47738	14048.8375
836.32036	13963.5375
840.16066	13866.2375
843.99827	13782.8375
847.8332	13706.3375
851.66546	13657.1375
855.49504	13643.6375
859.32195	13628.7375
863.1462	13565.7375
866.96777	13512.2375
870.78668	13437.3375
874.60293	13478.1375
878.41652	13558.3375
882.22745	13715.0375
886.03573	13863.1375
889.84136	13849.6375
893.64433	13780.0375
897.44466	13708.5375
901.24235	13649.8375
905.0374	13559.7375
908.8298	13331.3375
912.61957	13172.2375
916.40671	13172.5375
920.19121	13354.4375
923.97308	13579.6375
927.75233	13973.0375
931.52895	14346.8375
935.30295	14164.9375
939.07433	13494.9375
942.84309	12912.6375
946.60924	12605.3375
950.37278	12435.1375
954.13371	12364.3375
957.89203	12299.7375
961.64774	12226.1375
965.40086	12159.5375
969.15137	12125.4375
972.89929	12074.0375
976.64461	12044.3375
980.38733	12042.8375
984.12747	12079.9375
987.86502	12215.5375
991.59999	12389.4375
995.33237	12685.4375
999.06217	13211.0375
1002.78939	13888.1375
1006.51404	14494.6375
1010.23611	14889.2375
1013.95561	15050.9375
1017.67255	14956.7375
1021.38692	14697.9375
1025.09872	14369.4375
1028.80796	14272.3375
1032.51465	14559.2375
1036.21877	14948.2375
1039.92035	15140.5375
1043.61937	14997.3375
1047.31584	14756.0375
1051.00976	14385.6375
1054.70114	14118.2375
1058.38998	13965.4375
1062.07627	13954.3375
1065.76003	13975.4375
1069.44126	14021.4375
1073.11995	14315.6375
1076.79611	14681.4375
1080.46974	15231.7375
1084.14085	16062.3375
1087.80943	16874.7375
1091.47549	17125.7375
1095.13903	16643.7375
1098.80005	15776.0375
1102.45857	15109.4375
1106.11456	14942.2375
1109.76805	15216.1375
1113.41903	15956.8375
1117.06751	17041.8375
1120.71348	18401.4375
1124.35696	19922.4375
1127.99793	21074.7375
1131.63641	20604.8375
1135.2724	18925.3375
1138.90589	17443.2375
1142.5369	16545.0375
1146.16542	15907.1375
1149.79145	15567.0375
1153.415	15458.6375
1157.03607	15610.5375
1160.65467	16104.3375
1164.27079	17008.6375
1167.88443	18504.5375
1171.49561	20767.2375
1175.10432	24405.9375
1178.71056	29397.6375
1182.31434	33702.9375
1185.91565	34830.9375
1189.51451	33067.8375
1193.11091	29994.4375
1196.70485	26956.2375
1200.29634	24862.4375
1203.88538	23156.2375
1207.47197	21123.7375
1211.05612	19368.6375
1214.63782	18281.3375
1218.21708	17966.8375
1221.79391	18057.1375
1225.36829	18180.8375
1228.94024	18065.1375
1232.50976	17669.1375
1236.07685	17350.0375
1239.6415	17222.8375
1243.20374	17241.1375
1246.76355	17380.5375
1250.32093	17697.7375
1253.8759	18287.1375
1257.42845	19117.1375
1260.97859	20194.7375
1264.52631	21361.5375
1268.07163	22503.5375
1271.61453	23521.7375
1275.15503	24331.6375
1278.69312	24828.2375
1282.22882	25319.4375
1285.76211	26218.9375
1289.29301	27512.9375
1292.82151	28989.0375
1296.34761	30651.2375
1299.87133	33299.4375
1303.39266	37629.9375
1306.9116	44065.5375
1310.42815	50573.7375
1313.94233	52797.9375
1317.45412	49500.2375
1320.96354	43777.0375
1324.47058	38438.0375
1327.97525	34287.5375
1331.47754	31842.5375
1334.97747	30826.1375
1338.47502	31040.8375
1341.97022	32181.9375
1345.46305	34378.7375
1348.95352	37483.9375
1352.44163	41566.4375
1355.92738	47651.7375
1359.41078	57200.3375
1362.89183	65842.8375
1366.37053	62473.3375
1369.84688	49314.9375
1373.32088	37960.9375
1376.79254	31617.4375
1380.26186	28323.1375
1383.72883	26314.0375
1387.19347	24822.3375
1390.65578	23680.7375
1394.11575	22996.2375
1397.57339	22874.2375
1401.0287	23030.8375
1404.48168	23164.6375
1407.93234	23166.5375
1411.38068	23107.9375
1414.82669	22932.7375
1418.27039	22599.3375
1421.71177	21994.1375
1425.15083	21306.2375
1428.58758	21061.1375
1432.02203	21477.5375
1435.45416	21994.3375
1438.88399	22185.6375
1442.31151	22185.5375
1445.73673	22315.9375
1449.15965	22566.1375
1452.58027	22643.6375
1455.9986	22552.0375
1459.41463	22602.0375
1462.82837	23037.0375
1466.23982	23738.0375
1469.64898	24344.7375
1473.05586	24678.0375
1476.46045	24720.1375
1479.86276	24869.0375
1483.26279	25330.2375
1486.66054	26143.6375
1490.05602	27431.1375
1493.44922	29366.5375
1496.84016	32392.8375
1500.22882	37422.4375
1503.61521	44852.0375
1506.99934	53670.6375
1510.38121	60326.9375
1513.76081	60713.0375
1517.13816	54048.7375
1520.51324	44336.3375
1523.88607	36067.8375
1527.25665	30991.2375
1530.62498	28242.9375
1533.99105	26653.2375
1537.35488	25527.6375
1540.71647	24786.9375
1544.07581	24354.5375
1547.4329	24229.3375
1550.78776	24280.7375
1554.14038	24523.5375
1557.49077	24962.2375
1560.83892	25709.7375
1564.18484	26880.7375
1567.52853	28371.7375
1570.86999	29608.1375
1574.20922	30222.0375
1577.54624	29764.3375
1580.88103	27538.2375
1584.2136	24825.9375
1587.54395	23511.5375
1590.87208	24036.0375
1594.19801	26029.3375
1597.52172	28462.0375
1600.84321	29277.1375
1604.16251	27663.1375
1607.47959	25061.5375
1610.79447	22446.2375
1614.10715	20128.2375
1617.41763	18352.6375
1620.7259	17198.0375
1624.03199	16783.3375
1627.33587	16969.4375
1630.63757	17816.7375
1633.93707	19482.6375
1637.23439	22071.9375
1640.52951	26021.6375
1643.82246	31684.1375
1647.11321	38053.6375
1650.40179	41871.9375
1653.68819	39458.9375
1656.97241	31898.3375
1660.25446	24375.7375
1663.53433	19288.9375
1666.81203	16426.7375
1670.08756	14825.6375
1673.36092	13871.9375
1676.63211	13269.5375
1679.90115	12819.1375
1683.16801	12491.1375
1686.43272	12263.8375
1689.69527	12059.8375
1692.95567	11861.5375
1696.2139	11702.8375
1699.46999	11545.5375
1702.72392	11465.5375
1705.97571	11501.1375
1709.22535	11565.7375
1712.47284	11570.6375
1715.71819	11571.1375
1718.96139	11526.2375
1722.20246	11424.5375
1725.44139	11314.0375
1728.67818	11156.5375
1731.91284	11036.6375
1735.14537	10924.9375
1738.37576	10865.8375
1741.60403	10779.7375
1744.83017	10735.2375
1748.05418	10682.1375
1751.27607	10608.9375
1754.49584	10529.1375
1757.71349	10426.2375
1760.92903	10373.7375
1764.14244	10326.8375
1767.35375	10272.1375
1770.56294	10198.9375
1773.77002	10160.9375
1776.97499	10162.8375
1780.17785	10181.7375
1783.37861	10190.2375
1786.57727	10155.1375
1789.77382	10127.8375
1792.96828	10111.8375
1796.16064	10093.4375
1799.3509	10087.9375
1802.53907	10037.7375
1805.72514	10007.3375
1808.90913	9970.0375
1812.09102	9922.0375
1815.27083	9907.4375
1818.44856	9851.4375
1821.6242	9843.8375
1824.79776	9822.5375
1827.96924	9845.9375
1831.13864	9802.6375
1834.30597	9774.0375
1837.47122	9767.3375
1840.6344	9758.0375
1843.7955	9759.3375
1846.95454	9729.1375
1850.11151	9715.5375
1853.26642	9709.2375
1856.41926	9714.9375
1859.57004	9731.1375
1862.71876	9718.3375
1865.86542	9728.0375
1869.01003	9703.2375
1872.15258	9715.8375
1875.29308	9727.7375
1878.43152	9742.5375
1881.56792	9747.9375
1884.70227	9746.8375
1887.83457	9744.8375
1890.96482	9756.8375
1894.09304	9714.7375
1897.21921	9732.4375
1900.34335	9734.1375
1903.46544	9753.0375
1906.58551	9741.8375
1909.70353	9732.6375
1912.81953	9725.4375
1915.93349	9704.3375
1919.04543	9657.9375
1922.15534	9652.1375
1925.26322	9561.5375
1928.36908	9513.2375
1931.47292	9454.6375
1934.57473	9408.5375
1937.67453	9379.9375
1940.77232	9320.0375
1943.86808	9285.0375
1946.96184	9279.3375
1950.05358	9234.6375
1953.14331	9198.7375
1956.23103	9183.7375
1959.31675	9128.3375
1962.40046	9131.9375
1965.48217	9096.9375
1968.56188	9132.4375
1971.63959	9093.4375
1974.7153	9052.9375
1977.78901	9018.2375
1980.86073	8963.8375
1983.93046	8951.4375
1986.99819	8884.3375
1990.06394	8830.3375
1993.1277	8809.7375
1996.18947	8770.5375
1999.24925	8713.2375
2002.30706	8683.8375
2005.36288	8667.7375
2008.41672	8647.5375
2011.46859	8612.6375
2014.51848	8602.4375
2017.56639	8576.3375
2020.61233	8549.0375
2023.6563	8518.2375
2026.6983	8497.5375
2029.73833	8486.3375
2032.7764	8470.8375
2035.8125	8454.8375
2038.84664	8442.7375
2041.87881	8437.9375
2044.90903	8445.4375
2047.93729	8430.2375
2050.96359	8416.5375
2053.98794	8359.4375
2057.01034	8358.1375
2060.03078	8352.3375
2063.04927	8321.4375
2066.06582	8326.5375
2069.08042	8319.7375
2072.09307	8298.8375
2075.10378	8315.0375
2078.11255	8282.8375
2081.11938	8287.8375
2084.12426	8283.0375
2087.12722	8289.3375
2090.12824	8276.1375
2093.12732	8286.6375
2096.12447	8273.4375
2099.11969	8245.3375
2102.11299	8278.3375
2105.10435	8268.3375
2108.09379	8276.7375
2111.08131	8274.4375
2114.0669	8304.5375
2117.05057	8304.8375
2120.03233	8316.5375
2123.01216	8315.0375
2125.99008	8336.3375
2128.96609	8341.8375
2131.94018	8341.5375
2134.91236	8331.4375
2137.88263	8325.8375
2140.851	8313.7375
2143.81746	8294.1375
2146.78201	8291.7375
2149.74466	8263.3375
2152.7054	8247.8375
2155.66425	8256.0375
2158.6212	8259.9375
2161.57625	8248.6375
2164.52941	8249.5375
2167.48067	8220.7375
2170.43004	8192.6375
2173.37752	8225.4375
2176.32311	8238.1375
2179.26681	8268.8375
2182.20863	8232.4375
2185.14856	8254.1375
2188.08661	8234.2375
2191.02278	8241.0375
2193.95707	8221.7375
2196.88948	8198.2375
2199.82001	8218.1375
2202.74867	8192.3375
2205.67545	8203.3375
2208.60037	8188.9375
2211.52341	8182.3375
2214.44458	8192.8375
2217.36388	8170.7375
2220.28132	8140.3375
2223.1969	8113.2375
2226.11061	8123.4375
2229.02246	8099.8375
2231.93245	8072.0375
2234.84058	8051.0375
2237.74686	8050.4375
2240.65128	8037.2375
2243.55385	8045.6375
2246.45456	8067.9375
2249.35343	8059.1375
2252.25044	8022.4375
2255.14561	8045.9375
2258.03893	8051.6375
2260.93041	8050.6375
2263.82004	8057.1375
2266.70783	8036.1375
2269.59378	7990.9375
2272.4779	8008.9375
2275.36017	7979.0375
2278.24061	7973.9375
2281.11922	7931.9375
2283.996	7933.0375
2286.87094	7887.2375
2289.74405	7848.6375
2292.61534	7851.5375
2295.4848	7871.2375
2298.35243	7847.1375
2301.21824	7826.6375
2304.08223	7840.7375
2306.94439	7831.7375
2309.80474	7840.6375
2312.66327	7850.4375
2315.51999	7845.0375
2318.37489	7861.2375
2321.22797	7852.0375
2324.07925	7846.0375
2326.92871	7838.0375
2329.77637	7815.9375
2332.62222	7804.7375
2335.46626	7815.7375
2338.3085	7827.7375
2341.14893	7837.7375
2343.98756	7874.7375
2346.8244	7903.2375
2349.65943	7907.2375
2352.49267	7950.4375
2355.32411	7953.1375
2358.15376	7940.1375
2360.98161	7969.5375
2363.80768	7967.3375
2366.63195	7985.5375
2369.45444	7972.9375
2372.27514	7998.2375
2375.09405	7981.5375
2377.91118	7936.3375
2380.72652	7894.1375
2383.54009	7846.0375
2386.35187	7807.2375
2389.16188	7768.9375
2391.97011	7749.5375
2394.77657	7729.7375
2397.58125	7688.3375
2400.38416	7669.0375
2403.18529	7643.2375
2405.98466	7640.0375
2408.78226	7616.1375
2411.57809	7590.1375
2414.37216	7578.0375
2417.16446	7589.8375
2419.955	7571.0375
2422.74378	7555.3375
2425.5308	7562.1375
2428.31606	7555.5375
2431.09956	7568.1375
2433.88131	7571.0375
2436.6613	7599.1375
2439.43954	7594.0375
2442.21603	7611.2375
2444.99077	7599.9375
2447.76377	7606.3375
2450.53501	7615.6375
2453.30451	7632.9375
2456.07226	7635.4375
2458.83827	7639.3375
2461.60254	7625.3375
2464.36507	7626.1375
2467.12586	7624.2375
2469.88492	7650.3375
2472.64224	7648.2375
2475.39782	7650.8375
2478.15167	7680.8375
2480.90379	7708.7375
2483.65417	7747.9375
2486.40283	7774.7375
2489.14976	7813.4375
2491.89497	7819.6375
2494.63845	7814.4375
2497.3802	7807.0375
2500.12024	7782.0375
2502.85855	7774.4375
2505.59514	7727.0375
2508.33002	7682.4375
2511.06318	7661.5375
2513.79462	7604.1375
2516.52435	7570.0375
2519.25237	7549.1375
2521.97867	7505.0375
2524.70327	7499.8375
2527.42616	7484.0375
2530.14734	7456.3375
2532.86681	7468.5375
2535.58458	7476.0375
2538.30065	7478.5375
2541.01501	7468.7375
2543.72768	7474.2375
2546.43864	7494.4375
2549.14791	7490.1375
2551.85548	7502.3375
2554.56136	7497.5375
2557.26554	7495.9375
2559.96803	7495.4375
2562.66883	7495.6375
2565.36794	7491.7375
2568.06536	7503.9375
2570.7611	7486.5375
2573.45514	7470.9375
2576.14751	7457.8375
2578.83819	7459.4375
2581.52719	7455.3375
2584.21451	7405.2375
2586.90015	7427.8375
2589.58411	7418.6375
2592.2664	7427.7375
2594.94701	7424.1375
2597.62594	7446.2375
2600.30321	7430.3375
2602.9788	7422.3375
2605.65273	7428.9375
2608.32498	7436.3375
2610.99557	7432.6375
2613.66449	7449.7375
2616.33175	7464.7375
2618.99734	7497.7375
2621.66128	7460.7375
2624.32355	7454.8375
2626.98416	7442.0375
2629.64311	7442.0375
2632.30041	7451.6375
2634.95605	7446.5375
2637.61004	7410.5375
2640.26238	7399.3375
2642.91306	7392.5375
2645.56209	7358.9375
2648.20948	7352.8375
2650.85521	7352.6375
2653.4993	7364.9375
2656.14175	7364.3375
2658.78255	7383.8375
2661.42171	7416.8375
2664.05923	7430.4375
2666.6951	7445.7375
2669.32934	7452.0375
2671.96194	7459.5375
2674.59291	7472.3375
2677.22224	7474.2375
2679.84993	7478.0375
2682.476	7442.6375
2685.10043	7441.1375
2687.72324	7438.0375
2690.34441	7415.6375
2692.96396	7417.4375
2695.58188	7410.9375
2698.19818	7381.7375
2700.81285	7374.0375
2703.4259	7379.7375
2706.03733	7296.4375
2708.64714	7327.8375
2711.25533	7378.8375
2713.86191	7399.3375
2716.46687	7402.8375
2719.07021	7418.8375
2721.67194	7457.6375
2724.27206	7442.9375
2726.87057	7436.7375
2729.46747	7433.7375
2732.06276	7446.5375
2734.65644	7428.1375
2737.24852	7418.5375
2739.83899	7398.1375
2742.42786	7403.9375
2745.01513	7383.6375
2747.60079	7404.3375
2750.18486	7362.7375
2752.76733	7355.5375
2755.3482	7366.4375
2757.92747	7340.5375
2760.50515	7341.4375
2763.08123	7328.3375
2765.65573	7316.5375
2768.22863	7309.1375
2770.79994	7329.2375
2773.36967	7342.0375
2775.9378	7322.0375
2778.50435	7313.6375
2781.06932	7334.0375
2783.6327	7339.1375
2786.1945	7323.3375
2788.75471	7341.2375
2791.31335	7363.7375
2793.87041	7346.6375
2796.42589	7309.7375
2798.97979	7304.6375
2801.53212	7309.5375
2804.08288	7314.2375
2806.63206	7328.2375
2809.17967	7335.7375
2811.72571	7336.4375
2814.27018	7331.6375
2816.81308	7346.5375
2819.35442	7356.1375
2821.89419	7360.0375
2824.43239	7398.0375
2826.96904	7389.0375
2829.50412	7406.9375
2832.03763	7380.4375
2834.56959	7370.7375
2837.1	7363.8375
2839.62884	7338.8375
2842.15613	7344.5375
2844.68186	7352.0375
2847.20604	7358.4375
2849.72867	7394.5375
2852.24974	7390.8375
2854.76927	7375.1375
2857.28724	7391.2375
2859.80367	7425.8375
2862.31855	7444.8375
2864.83189	7465.3375
2867.34368	7489.4375
2869.85393	7524.4375
2872.36264	7537.1375
2874.8698	7533.2375
2877.37543	7535.1375
2879.87952	7535.7375
2882.38207	7538.7375
2884.88308	7522.8375
2887.38256	7502.4375
2889.88051	7518.5375
2892.37692	7523.1375
2894.8718	7516.6375
2897.36515	7531.1375
2899.85698	7519.5375
2902.34727	7524.8375
2904.83604	7529.3375
2907.32328	7522.5375
2909.809	7539.8375
2912.29319	7543.3375
2914.77587	7512.9375
2917.25702	7516.2375
2919.73665	7491.0375
2922.21476	7519.4375
2924.69136	7487.3375
2927.16644	7457.3375
2929.64	7437.1375
2932.11205	7430.7375
2934.58258	7376.2375
2937.05161	7361.9375
2939.51912	7365.6375
2941.98513	7362.4375
2944.44962	7335.1375
2946.91261	7325.5375
2949.37409	7325.8375
2951.83407	7310.5375
2954.29254	7305.3375
2956.74951	7309.2375
2959.20498	7296.4375
2961.65895	7278.5375
2964.11142	7244.9375
2966.56239	7230.5375
2969.01186	7206.9375
2971.45984	7184.0375
2973.90632	7145.1375
2976.35131	7133.4375
2978.7948	7125.5375
2981.23681	7112.1375
2983.67732	7092.7375
2986.11635	7044.8375
2988.55388	7032.5375
2990.98993	7029.9375
2993.4245	7037.3375
2995.85758	7017.5375
2998.28917	7009.8375
3000.71928	6997.7375
3003.14791	6998.7375
3005.57506	6998.4375
3008.00073	6955.9375
3010.42493	6972.9375
3012.84764	6970.3375
3015.26888	6941.6375
3017.68865	6938.5375
3020.10694	6940.6375
3022.52376	6908.8375
3024.9391	6901.7375
3027.35298	6887.9375
3029.76539	6866.4375
3032.17632	6860.3375
3034.5858	6833.9375
3036.9938	6811.3375
3039.40034	6795.4375
3041.80542	6778.5375
3044.20903	6765.4375
3046.61118	6775.2375
3049.01187	6733.1375
3051.4111	6757.7375
3053.80888	6741.4375
3056.20519	6712.8375
3058.60005	6696.9375
3060.99345	6679.2375
3063.3854	6658.9375
3065.7759	6652.2375
3068.16494	6614.6375
3070.55254	6594.3375
3072.93868	6578.9375
3075.32338	6543.0375
