Data from AgNPs_FTO_APTES_UA_50uM_CRN_100uM_R6G_10uM_NaF_0.1M_Addition_RamanShift__26__15-46-15-050.txt Node

Date: Mon Feb 21 15:46:15 GMT 2022
User: TCL
Spectrometer: QEP01345
Trigger mode: 4
Integration Time (sec): 7.000000E0
Scans to average: 10
Electric dark correction enabled: true
Nonlinearity correction enabled: false
Boxcar width: 0
XAxis mode: Raman Shifts
Number of Pixels in Spectrum: 1044
>>>>>Begin Spectral Data<<<<<
46.04893	0.4875
50.45542	-0.5125
54.85868	-0.7125
59.25871	-1.6125
63.6555	55.3875
68.04907	58.8875
72.43941	58.7875
76.82654	66.0875
81.21044	69.0875
85.59113	70.8875
89.96862	74.3875
94.34289	76.2875
98.71396	76.3875
103.08183	85.2875
107.4465	83.1875
111.80798	85.1875
116.16626	84.3875
120.52136	85.3875
124.87327	95.1875
129.222	96.3875
133.56755	96.8875
137.90993	108.1875
142.24913	116.3875
146.58517	128.0875
150.91804	150.6875
155.24774	177.3875
159.57429	223.2875
163.89768	278.2875
168.21792	375.8875
172.53501	511.7875
176.84895	709.4875
181.15975	999.7875
185.46741	1402.6875
189.77193	1933.3875
194.07331	2597.1875
198.37157	3355.5875
202.6667	4148.1875
206.9587	4952.6875
211.24758	5770.9875
215.53334	6618.1875
219.81599	7559.7875
224.09553	8656.9875
228.37195	9874.0875
232.64527	11187.6875
236.91549	12499.3875
241.18261	13693.1875
245.44663	14630.4875
249.70755	15459.9875
253.96539	16155.5875
258.22014	16755.0875
262.4718	17243.2875
266.72039	17516.3875
270.96589	17549.1875
275.20832	17355.3875
279.44768	16953.3875
283.68397	16510.8875
287.91719	16219.6875
292.14735	16257.9875
296.37445	16667.1875
300.59849	17525.3875
304.81948	18484.1875
309.03742	19179.2875
313.25231	19195.3875
317.46415	18132.0875
321.67296	16556.8875
325.87872	15275.7875
330.08145	14707.8875
334.28114	14694.7875
338.47781	15001.8875
342.67145	15526.6875
346.86207	16321.9875
351.04966	17492.9875
355.23424	18756.6875
359.4158	19730.3875
363.59435	20164.2875
367.76989	20284.0875
371.94243	20268.4875
376.11196	20124.3875
380.27849	19928.6875
384.44203	19666.5875
388.60257	19293.5875
392.76012	19031.0875
396.91468	19139.6875
401.06626	19598.1875
405.21485	19927.0875
409.36047	19426.1875
413.50311	18238.9875
417.64277	16996.6875
421.77947	16279.4875
425.9132	15944.5875
430.04396	15846.3875
434.17176	15930.3875
438.2966	16184.9875
442.41849	16642.8875
446.53742	17160.1875
450.6534	17678.8875
454.76644	18016.8875
458.87653	18054.3875
462.98368	17844.2875
467.08789	17514.0875
471.18916	17124.4875
475.2875	16685.0875
479.38291	16313.9875
483.4754	15974.5875
487.56496	15732.0875
491.6516	15554.8875
495.73531	15454.1875
499.81612	15510.8875
503.89401	15737.9875
507.96899	16071.6875
512.04106	16412.7875
516.11023	16796.8875
520.1765	17102.5875
524.23987	17022.8875
528.30034	16767.7875
532.35792	16428.1875
536.41261	16073.8875
540.46441	15699.5875
544.51333	15465.7875
548.55936	15512.2875
552.60252	15836.4875
556.64279	16270.6875
560.6802	16502.5875
564.71473	16846.3875
568.7464	17601.7875
572.7752	17986.9875
576.80114	17204.1875
580.82422	16380.3875
584.84444	16032.9875
588.86181	16037.7875
592.87633	16296.1875
596.888	16625.9875
600.89682	17272.2875
604.9028	19651.8875
608.90594	26332.6875
612.90624	35076.1875
616.90371	33312.3875
620.89834	22347.4875
624.89015	17325.5875
628.87913	16446.1875
632.86528	16623.1875
636.84862	16901.5875
640.82913	16558.8875
644.80683	15636.8875
648.78172	14995.9875
652.75379	14996.5875
656.72306	15715.5875
660.68952	16611.3875
664.65319	16340.3875
668.61405	15395.2875
672.57211	14971.4875
676.52738	14982.6875
680.47986	14977.0875
684.42955	14824.3875
688.37646	14683.1875
692.32058	14657.3875
696.26192	14771.5875
700.20048	14962.8875
704.13626	15076.4875
708.06928	14968.8875
711.99952	14833.6875
715.927	14788.1875
719.85171	14927.4875
723.77365	15015.8875
727.69284	14940.9875
731.60928	14817.9875
735.52295	14811.6875
739.43388	14873.1875
743.34206	14965.6875
747.24749	14980.1875
751.15017	14998.6875
755.05012	15297.4875
758.94733	16117.2875
762.8418	18204.5875
766.73354	21839.4875
770.62254	25666.8875
774.50882	27756.3875
778.39237	26476.1875
782.27321	22383.4875
786.15132	18490.8875
790.02671	16262.1875
793.89938	15311.6875
797.76935	14914.0875
801.6366	14769.2875
805.50115	14689.1875
809.36299	14626.9875
813.22213	14544.7875
817.07857	14535.4875
820.93231	14479.2875
824.78336	14530.8875
828.63172	14613.9875
832.47738	14621.4875
836.32036	14588.1875
840.16066	14538.3875
843.99827	14458.8875
847.8332	14445.7875
851.66546	14397.3875
855.49504	14366.4875
859.32195	14373.0875
863.1462	14326.2875
866.96777	14289.5875
870.78668	14276.2875
874.60293	14291.7875
878.41652	14347.4875
882.22745	14477.3875
886.03573	14522.0875
889.84136	14495.5875
893.64433	14404.7875
897.44466	14348.4875
901.24235	14335.6875
905.0374	14259.5875
908.8298	14125.5875
912.61957	14077.9875
916.40671	14065.2875
920.19121	14208.3875
923.97308	14381.6875
927.75233	14659.1875
931.52895	14979.4875
935.30295	14824.9875
939.07433	14351.3875
942.84309	13909.3875
946.60924	13645.9875
950.37278	13486.2875
954.13371	13427.6875
957.89203	13356.5875
961.64774	13291.2875
965.40086	13244.8875
969.15137	13181.1875
972.89929	13138.1875
976.64461	13122.8875
980.38733	13128.9875
984.12747	13171.1875
987.86502	13272.3875
991.59999	13434.0875
995.33237	13671.7875
999.06217	14092.4875
1002.78939	14566.6875
1006.51404	14926.0875
1010.23611	15190.9875
1013.95561	15382.6875
1017.67255	15370.9875
1021.38692	15169.6875
1025.09872	14974.1875
1028.80796	14994.7875
1032.51465	15354.2875
1036.21877	15746.8875
1039.92035	15831.2875
1043.61937	15693.1875
1047.31584	15385.6875
1051.00976	15026.3875
1054.70114	14742.2875
1058.38998	14601.4875
1062.07627	14604.1875
1065.76003	14591.3875
1069.44126	14578.0875
1073.11995	14698.0875
1076.79611	14923.7875
1080.46974	15316.3875
1084.14085	15913.3875
1087.80943	16440.1875
1091.47549	16622.6875
1095.13903	16326.7875
1098.80005	15629.3875
1102.45857	15158.2875
1106.11456	15083.5875
1109.76805	15382.6875
1113.41903	15962.9875
1117.06751	16793.8875
1120.71348	17782.2875
1124.35696	18798.2875
1127.99793	19497.8875
1131.63641	19122.8875
1135.2724	17932.2875
1138.90589	16839.3875
1142.5369	16159.8875
1146.16542	15690.8875
1149.79145	15391.7875
1153.415	15312.8875
1157.03607	15406.7875
1160.65467	15786.6875
1164.27079	16382.1875
1167.88443	17348.8875
1171.49561	18933.0875
1175.10432	21478.9875
1178.71056	25018.0875
1182.31434	27974.8875
1185.91565	28763.9875
1189.51451	27583.4875
1193.11091	25276.4875
1196.70485	22875.0875
1200.29634	21336.4875
1203.88538	20274.3875
1207.47197	18941.8875
1211.05612	17782.7875
1214.63782	17081.4875
1218.21708	16840.2875
1221.79391	16834.6875
1225.36829	16908.5875
1228.94024	16809.0875
1232.50976	16617.6875
1236.07685	16474.3875
1239.6415	16517.2875
1243.20374	16648.9875
1246.76355	16852.2875
1250.32093	17141.9875
1253.8759	17585.5875
1257.42845	18174.5875
1260.97859	18843.8875
1264.52631	19528.3875
1268.07163	20233.3875
1271.61453	20872.3875
1275.15503	21385.9875
1278.69312	21648.6875
1282.22882	21919.1875
1285.76211	22433.1875
1289.29301	23193.3875
1292.82151	24014.0875
1296.34761	25068.5875
1299.87133	26774.8875
1303.39266	29804.4875
1306.9116	34254.8875
1310.42815	38756.3875
1313.94233	40275.0875
1317.45412	37944.9875
1320.96354	33940.6875
1324.47058	30137.5875
1327.97525	27132.5875
1331.47754	25432.9875
1334.97747	24908.8875
1338.47502	25326.2875
1341.97022	26496.2875
1345.46305	28297.0875
1348.95352	30576.8875
1352.44163	33536.7875
1355.92738	38057.5875
1359.41078	44995.6875
1362.89183	50886.3875
1366.37053	47888.4875
1369.84688	38566.6875
1373.32088	30640.0875
1376.79254	25918.4875
1380.26186	23417.5875
1383.72883	22082.6875
1387.19347	21160.0875
1390.65578	20205.9875
1394.11575	19551.7875
1397.57339	19277.9875
1401.0287	19417.6875
1404.48168	19600.3875
1407.93234	19881.0875
1411.38068	20120.5875
1414.82669	20280.7875
1418.27039	20159.7875
1421.71177	19855.9875
1425.15083	19362.4875
1428.58758	19171.3875
1432.02203	19386.1875
1435.45416	19658.9875
1438.88399	19708.1875
1442.31151	19729.6875
1445.73673	19849.2875
1449.15965	20067.0875
1452.58027	20062.8875
1455.9986	19834.1875
1459.41463	19773.7875
1462.82837	20052.6875
1466.23982	20512.3875
1469.64898	21071.4875
1473.05586	21423.5875
1476.46045	21629.7875
1479.86276	21904.6875
1483.26279	22366.1875
1486.66054	22969.3875
1490.05602	23908.5875
1493.44922	25307.9875
1496.84016	27419.2875
1500.22882	30871.2875
1503.61521	35999.4875
1506.99934	42073.0875
1510.38121	46901.1875
1513.76081	47642.4875
1517.13816	43138.2875
1520.51324	36150.8875
1523.88607	30016.6875
1527.25665	26158.6875
1530.62498	23993.5875
1533.99105	22770.4875
1537.35488	22024.7875
1540.71647	21650.7875
1544.07581	21596.2875
1547.4329	21687.4875
1550.78776	21874.7875
1554.14038	22120.2875
1557.49077	22403.1875
1560.83892	22924.0875
1564.18484	23693.7875
1567.52853	24608.0875
1570.86999	25288.9875
1574.20922	25615.8875
1577.54624	25281.1875
1580.88103	23716.7875
1584.2136	21757.8875
1587.54395	20782.7875
1590.87208	21078.8875
1594.19801	22491.6875
1597.52172	24416.6875
1600.84321	25290.3875
1604.16251	24415.1875
1607.47959	22695.6875
1610.79447	20819.1875
1614.10715	19035.2875
1617.41763	17662.8875
1620.7259	16792.8875
1624.03199	16469.7875
1627.33587	16602.1875
1630.63757	17133.8875
1633.93707	18153.0875
1637.23439	19702.1875
1640.52951	22144.6875
1643.82246	25601.9875
1647.11321	29793.4875
1650.40179	32464.3875
1653.68819	30888.8875
1656.97241	25915.0875
1660.25446	20919.6875
1663.53433	17629.9875
1666.81203	15753.8875
1670.08756	14730.5875
1673.36092	14107.1875
1676.63211	13714.4875
1679.90115	13445.3875
1683.16801	13186.8875
1686.43272	13036.2875
1689.69527	12941.7875
1692.95567	12784.7875
1696.2139	12610.6875
1699.46999	12484.2875
1702.72392	12422.8875
1705.97571	12481.5875
1709.22535	12572.2875
1712.47284	12634.6875
1715.71819	12663.1875
1718.96139	12658.4875
1722.20246	12641.2875
1725.44139	12564.6875
1728.67818	12471.2875
1731.91284	12395.5875
1735.14537	12284.4875
1738.37576	12240.3875
1741.60403	12190.9875
1744.83017	12149.5875
1748.05418	12111.1875
1751.27607	12036.7875
1754.49584	11952.7875
1757.71349	11877.5875
1760.92903	11826.9875
1764.14244	11812.2875
1767.35375	11805.5875
1770.56294	11738.5875
1773.77002	11701.1875
1776.97499	11720.8875
1780.17785	11755.8875
1783.37861	11759.3875
1786.57727	11764.6875
1789.77382	11750.3875
1792.96828	11728.4875
1796.16064	11730.1875
1799.3509	11701.6875
1802.53907	11686.1875
1805.72514	11667.2875
1808.90913	11605.2875
1812.09102	11590.1875
1815.27083	11561.5875
1818.44856	11562.4875
1821.6242	11505.1875
1824.79776	11506.6875
1827.96924	11464.7875
1831.13864	11451.3875
1834.30597	11429.9875
1837.47122	11418.6875
1840.6344	11434.5875
1843.7955	11401.5875
1846.95454	11379.3875
1850.11151	11361.4875
1853.26642	11391.2875
1856.41926	11379.8875
1859.57004	11353.5875
1862.71876	11345.8875
1865.86542	11344.0875
1869.01003	11368.5875
1872.15258	11371.5875
1875.29308	11365.8875
1878.43152	11386.1875
1881.56792	11377.8875
1884.70227	11400.5875
1887.83457	11353.8875
1890.96482	11341.8875
1894.09304	11346.2875
1897.21921	11336.9875
1900.34335	11339.6875
1903.46544	11330.1875
1906.58551	11317.6875
1909.70353	11299.5875
1912.81953	11295.7875
1915.93349	11315.2875
1919.04543	11271.9875
1922.15534	11284.8875
1925.26322	11249.1875
1928.36908	11192.7875
1931.47292	11164.5875
1934.57473	11167.4875
1937.67453	11124.6875
1940.77232	11124.8875
1943.86808	11081.9875
1946.96184	11041.2875
1950.05358	10997.7875
1953.14331	10941.5875
1956.23103	10917.2875
1959.31675	10899.4875
1962.40046	10849.1875
1965.48217	10831.6875
1968.56188	10848.5875
1971.63959	10824.0875
1974.7153	10796.7875
1977.78901	10755.2875
1980.86073	10728.9875
1983.93046	10668.2875
1986.99819	10625.3875
1990.06394	10587.5875
1993.1277	10546.1875
1996.18947	10482.3875
1999.24925	10461.4875
2002.30706	10434.0875
2005.36288	10372.5875
2008.41672	10394.1875
2011.46859	10321.3875
2014.51848	10324.9875
2017.56639	10285.5875
2020.61233	10277.8875
2023.6563	10255.6875
2026.6983	10231.3875
2029.73833	10205.8875
2032.7764	10160.9875
2035.8125	10184.8875
2038.84664	10170.4875
2041.87881	10126.5875
2044.90903	10142.5875
2047.93729	10105.1875
2050.96359	10121.1875
2053.98794	10106.5875
2057.01034	10083.6875
2060.03078	10082.8875
2063.04927	10049.0875
2066.06582	10045.4875
2069.08042	10037.6875
2072.09307	9995.0875
2075.10378	9986.6875
2078.11255	9997.6875
2081.11938	9977.5875
2084.12426	9978.8875
2087.12722	9977.1875
2090.12824	9963.0875
2093.12732	9977.4875
2096.12447	9972.0875
2099.11969	9958.4875
2102.11299	9960.0875
2105.10435	9966.0875
2108.09379	9978.8875
2111.08131	9987.9875
2114.0669	9991.0875
2117.05057	9993.8875
2120.03233	10008.2875
2123.01216	10042.0875
2125.99008	10061.4875
2128.96609	10046.8875
2131.94018	10059.7875
2134.91236	10067.4875
2137.88263	10056.7875
2140.851	10067.1875
2143.81746	10064.9875
2146.78201	10067.1875
2149.74466	10050.1875
2152.7054	10069.6875
2155.66425	10025.0875
2158.6212	10045.6875
2161.57625	10012.1875
2164.52941	10020.5875
2167.48067	10012.1875
2170.43004	10027.1875
2173.37752	10003.0875
2176.32311	10018.0875
2179.26681	10022.3875
2182.20863	10006.8875
2185.14856	10018.6875
2188.08661	10027.9875
2191.02278	10043.2875
2193.95707	9982.5875
2196.88948	9983.9875
2199.82001	10017.5875
2202.74867	9994.9875
2205.67545	10021.2875
2208.60037	10007.4875
2211.52341	9998.6875
2214.44458	9986.4875
2217.36388	9937.6875
2220.28132	9947.3875
2223.1969	9928.8875
2226.11061	9920.2875
2229.02246	9876.9875
2231.93245	9871.7875
2234.84058	9840.6875
2237.74686	9822.4875
2240.65128	9807.1875
2243.55385	9810.4875
2246.45456	9815.3875
2249.35343	9806.8875
2252.25044	9811.5875
2255.14561	9810.0875
2258.03893	9811.4875
2260.93041	9800.2875
2263.82004	9791.5875
2266.70783	9745.6875
2269.59378	9726.6875
2272.4779	9730.1875
2275.36017	9689.9875
2278.24061	9652.6875
2281.11922	9635.4875
2283.996	9614.6875
2286.87094	9618.7875
2289.74405	9584.2875
2292.61534	9574.7875
2295.4848	9559.4875
2298.35243	9583.5875
2301.21824	9571.9875
2304.08223	9583.3875
2306.94439	9574.5875
2309.80474	9581.7875
2312.66327	9568.9875
2315.51999	9568.5875
2318.37489	9557.5875
2321.22797	9560.2875
2324.07925	9570.3875
2326.92871	9557.7875
2329.77637	9547.6875
2332.62222	9555.8875
2335.46626	9539.8875
2338.3085	9521.7875
2341.14893	9540.6875
2343.98756	9572.5875
2346.8244	9567.9875
2349.65943	9581.7875
2352.49267	9589.0875
2355.32411	9593.7875
2358.15376	9584.2875
2360.98161	9617.3875
2363.80768	9633.4875
2366.63195	9600.6875
2369.45444	9620.0875
2372.27514	9595.5875
2375.09405	9571.8875
2377.91118	9539.3875
2380.72652	9518.4875
2383.54009	9479.1875
2386.35187	9433.4875
2389.16188	9369.2875
2391.97011	9365.5875
2394.77657	9340.1875
2397.58125	9309.1875
2400.38416	9329.6875
2403.18529	9294.4875
2405.98466	9270.4875
2408.78226	9223.3875
2411.57809	9191.6875
2414.37216	9188.9875
2417.16446	9188.6875
2419.955	9179.0875
2422.74378	9167.0875
2425.5308	9196.5875
2428.31606	9184.8875
2431.09956	9188.3875
2433.88131	9169.6875
2436.6613	9178.3875
2439.43954	9192.5875
2442.21603	9183.9875
2444.99077	9175.6875
2447.76377	9207.2875
2450.53501	9203.2875
2453.30451	9207.0875
2456.07226	9200.9875
2458.83827	9178.1875
2461.60254	9165.0875
2464.36507	9188.1875
2467.12586	9182.6875
2469.88492	9174.1875
2472.64224	9191.8875
2475.39782	9194.9875
2478.15167	9203.3875
2480.90379	9232.0875
2483.65417	9266.6875
2486.40283	9284.1875
2489.14976	9293.5875
2491.89497	9308.9875
2494.63845	9310.2875
2497.3802	9287.9875
2500.12024	9261.5875
2502.85855	9243.9875
2505.59514	9233.0875
2508.33002	9194.7875
2511.06318	9150.0875
2513.79462	9125.2875
2516.52435	9085.5875
2519.25237	9048.2875
2521.97867	9042.2875
2524.70327	9034.6875
2527.42616	9031.5875
2530.14734	9023.0875
2532.86681	8993.3875
2535.58458	9024.7875
2538.30065	9020.4875
2541.01501	9026.4875
2543.72768	8987.1875
2546.43864	8999.7875
2549.14791	8993.0875
2551.85548	9008.3875
2554.56136	8970.9875
2557.26554	8992.2875
2559.96803	8992.9875
2562.66883	8972.8875
2565.36794	8958.3875
2568.06536	8942.8875
2570.7611	8946.8875
2573.45514	8915.5875
2576.14751	8924.2875
2578.83819	8897.7875
2581.52719	8909.9875
2584.21451	8878.1875
2586.90015	8875.0875
2589.58411	8864.4875
2592.2664	8856.0875
2594.94701	8850.6875
2597.62594	8845.1875
2600.30321	8858.2875
2602.9788	8866.3875
2605.65273	8853.1875
2608.32498	8838.5875
2610.99557	8849.3875
2613.66449	8880.2875
2616.33175	8851.9875
2618.99734	8870.1875
2621.66128	8877.6875
2624.32355	8858.4875
2626.98416	8869.1875
2629.64311	8844.6875
2632.30041	8844.2875
2634.95605	8796.3875
2637.61004	8780.9875
2640.26238	8787.2875
2642.91306	8771.2875
2645.56209	8757.3875
2648.20948	8715.2875
2650.85521	8718.5875
2653.4993	8721.7875
2656.14175	8715.1875
2658.78255	8740.0875
2661.42171	8735.9875
2664.05923	8766.7875
2666.6951	8783.3875
2669.32934	8809.5875
2671.96194	8796.8875
2674.59291	8813.4875
2677.22224	8805.6875
2679.84993	8805.9875
2682.476	8786.3875
2685.10043	8786.7875
2687.72324	8761.3875
2690.34441	8784.8875
2692.96396	8787.1875
2695.58188	8754.8875
2698.19818	8744.4875
2700.81285	8727.9875
2703.4259	8692.8875
2706.03733	8656.7875
2708.64714	8685.1875
2711.25533	8726.2875
2713.86191	8735.7875
2716.46687	8756.0875
2719.07021	8750.0875
2721.67194	8775.7875
2724.27206	8764.6875
2726.87057	8754.0875
2729.46747	8790.3875
2732.06276	8793.1875
2734.65644	8760.4875
2737.24852	8764.2875
2739.83899	8721.3875
2742.42786	8748.6875
2745.01513	8697.5875
2747.60079	8718.3875
2750.18486	8714.2875
2752.76733	8681.3875
2755.3482	8713.2875
2757.92747	8693.3875
2760.50515	8673.0875
2763.08123	8678.6875
2765.65573	8687.6875
2768.22863	8664.8875
2770.79994	8646.0875
2773.36967	8631.9875
2775.9378	8643.5875
2778.50435	8639.5875
2781.06932	8628.2875
2783.6327	8657.7875
2786.1945	8648.5875
2788.75471	8665.5875
2791.31335	8600.5875
2793.87041	8623.7875
2796.42589	8598.2875
2798.97979	8603.5875
2801.53212	8581.0875
2804.08288	8579.5875
2806.63206	8589.5875
2809.17967	8571.2875
2811.72571	8579.4875
2814.27018	8587.1875
2816.81308	8591.9875
2819.35442	8578.2875
2821.89419	8595.9875
2824.43239	8609.3875
2826.96904	8593.8875
2829.50412	8618.9875
2832.03763	8601.7875
2834.56959	8580.2875
2837.1	8589.6875
2839.62884	8589.4875
2842.15613	8573.7875
2844.68186	8614.8875
2847.20604	8615.5875
2849.72867	8624.6875
2852.24974	8633.0875
2854.76927	8608.8875
2857.28724	8598.2875
2859.80367	8609.7875
2862.31855	8611.0875
2864.83189	8624.2875
2867.34368	8627.8875
2869.85393	8617.4875
2872.36264	8635.8875
2874.8698	8652.6875
2877.37543	8639.3875
2879.87952	8636.2875
2882.38207	8637.4875
2884.88308	8611.3875
2887.38256	8619.6875
2889.88051	8619.7875
2892.37692	8605.3875
2894.8718	8594.0875
2897.36515	8613.0875
2899.85698	8615.1875
2902.34727	8649.1875
2904.83604	8631.7875
2907.32328	8641.8875
2909.809	8631.8875
2912.29319	8655.2875
2914.77587	8655.1875
2917.25702	8654.0875
2919.73665	8638.6875
2922.21476	8612.1875
2924.69136	8612.8875
2927.16644	8609.1875
2929.64	8577.6875
2932.11205	8558.0875
2934.58258	8532.1875
2937.05161	8541.9875
2939.51912	8545.7875
2941.98513	8507.6875
2944.44962	8495.6875
2946.91261	8464.3875
2949.37409	8464.3875
2951.83407	8484.3875
2954.29254	8454.6875
2956.74951	8445.8875
2959.20498	8452.2875
2961.65895	8424.4875
2964.11142	8414.3875
2966.56239	8390.7875
2969.01186	8368.9875
2971.45984	8350.5875
2973.90632	8329.7875
2976.35131	8309.6875
2978.7948	8287.3875
2981.23681	8277.4875
2983.67732	8265.5875
2986.11635	8248.7875
2988.55388	8231.7875
2990.98993	8220.0875
2993.4245	8217.2875
2995.85758	8194.1875
2998.28917	8192.8875
3000.71928	8187.0875
3003.14791	8161.1875
3005.57506	8161.8875
3008.00073	8122.3875
3010.42493	8143.7875
3012.84764	8127.0875
3015.26888	8123.0875
3017.68865	8089.6875
3020.10694	8097.0875
3022.52376	8082.1875
3024.9391	8066.0875
3027.35298	8052.8875
3029.76539	8042.8875
3032.17632	8010.7875
3034.5858	8000.2875
3036.9938	7982.5875
3039.40034	7969.5875
3041.80542	7954.8875
3044.20903	7949.2875
3046.61118	7955.7875
3049.01187	7910.7875
3051.4111	7919.2875
3053.80888	7899.6875
3056.20519	7880.1875
3058.60005	7849.8875
3060.99345	7850.9875
3063.3854	7837.5875
