Data from AgNPs_FTO_APTES_UA_50uM_CRN_500uM_R6G_10uM_NaF_0.1M_Addition_RamanShift__19__17-04-03-542.txt Node

Date: Mon Feb 21 17:04:03 GMT 2022
User: TCL
Spectrometer: QEP01345
Trigger mode: 4
Integration Time (sec): 7.000000E0
Scans to average: 10
Electric dark correction enabled: true
Nonlinearity correction enabled: false
Boxcar width: 0
XAxis mode: Raman Shifts
Number of Pixels in Spectrum: 1044
>>>>>Begin Spectral Data<<<<<
46.04893	-0.4875
50.45542	-1.0875
54.85868	-1.6875
59.25871	-1.6875
63.6555	52.1125
68.04907	57.4125
72.43941	62.2125
76.82654	61.6125
81.21044	66.9125
85.59113	68.3125
89.96862	70.7125
94.34289	73.6125
98.71396	76.6125
103.08183	79.5125
107.4465	78.3125
111.80798	82.6125
116.16626	85.5125
120.52136	86.9125
124.87327	85.0125
129.222	90.8125
133.56755	94.7125
137.90993	96.8125
142.24913	101.1125
146.58517	115.5125
150.91804	126.9125
155.24774	151.3125
159.57429	175.0125
163.89768	221.5125
168.21792	288.7125
172.53501	393.1125
176.84895	544.8125
181.15975	758.2125
185.46741	1069.3125
189.77193	1465.6125
194.07331	1970.3125
198.37157	2540.5125
202.6667	3143.5125
206.9587	3758.8125
211.24758	4346.4125
215.53334	4937.1125
219.81599	5557.6125
224.09553	6245.6125
228.37195	7020.5125
232.64527	7850.0125
236.91549	8745.1125
241.18261	9596.7125
245.44663	10413.4125
249.70755	11105.4125
253.96539	11726.2125
258.22014	12213.9125
262.4718	12576.9125
266.72039	12864.1125
270.96589	12992.6125
275.20832	13001.8125
279.44768	12830.9125
283.68397	12645.2125
287.91719	12461.5125
292.14735	12335.9125
296.37445	12332.6125
300.59849	12403.0125
304.81948	12506.0125
309.03742	12536.8125
313.25231	12460.4125
317.46415	12271.8125
321.67296	11972.2125
325.87872	11703.2125
330.08145	11591.5125
334.28114	11596.0125
338.47781	11720.6125
342.67145	11853.0125
346.86207	12079.2125
351.04966	12335.8125
355.23424	12644.9125
359.4158	12880.4125
363.59435	13077.8125
367.76989	13191.8125
371.94243	13304.2125
376.11196	13373.1125
380.27849	13430.3125
384.44203	13484.8125
388.60257	13492.9125
392.76012	13578.3125
396.91468	13675.1125
401.06626	13834.3125
405.21485	13910.3125
409.36047	13843.8125
413.50311	13579.9125
417.64277	13376.8125
421.77947	13277.9125
425.9132	13251.4125
430.04396	13318.1125
434.17176	13420.9125
438.2966	13551.1125
442.41849	13776.5125
446.53742	14043.0125
450.6534	14393.8125
454.76644	14596.4125
458.87653	14645.2125
462.98368	14578.8125
467.08789	14430.0125
471.18916	14280.3125
475.2875	14079.9125
479.38291	13944.4125
483.4754	13816.3125
487.56496	13716.8125
491.6516	13594.5125
495.73531	13565.5125
499.81612	13524.5125
503.89401	13614.1125
507.96899	13676.2125
512.04106	13726.4125
516.11023	13755.7125
520.1765	13777.6125
524.23987	13751.8125
528.30034	13703.8125
532.35792	13656.6125
536.41261	13564.8125
540.46441	13466.2125
544.51333	13381.9125
548.55936	13425.2125
552.60252	13561.7125
556.64279	13740.4125
560.6802	13858.7125
564.71473	13891.1125
568.7464	14014.3125
572.7752	14165.7125
576.80114	14201.0125
580.82422	14193.9125
584.84444	14320.2125
588.86181	14550.7125
592.87633	14835.8125
596.888	15023.7125
600.89682	14949.2125
604.9028	15326.9125
608.90594	16799.8125
612.90624	18556.7125
616.90371	17841.6125
620.89834	15114.4125
624.89015	13876.1125
628.87913	13686.6125
632.86528	13752.9125
636.84862	13840.3125
640.82913	13766.9125
644.80683	13486.3125
648.78172	13276.0125
652.75379	13247.5125
656.72306	13386.2125
660.68952	13627.5125
664.65319	13603.4125
668.61405	13408.1125
672.57211	13449.8125
676.52738	13555.1125
680.47986	13653.3125
684.42955	13608.2125
688.37646	13445.5125
692.32058	13387.3125
696.26192	13339.3125
700.20048	13406.2125
704.13626	13397.8125
708.06928	13375.6125
711.99952	13281.0125
715.927	13258.0125
719.85171	13277.9125
723.77365	13283.3125
727.69284	13223.4125
731.60928	13198.1125
735.52295	13180.0125
739.43388	13165.2125
743.34206	13190.0125
747.24749	13205.7125
751.15017	13200.7125
755.05012	13244.2125
758.94733	13509.9125
762.8418	14048.0125
766.73354	15025.7125
770.62254	16080.4125
774.50882	16643.2125
778.39237	16160.9125
782.27321	15037.7125
786.15132	14007.8125
790.02671	13391.7125
793.89938	13078.2125
797.76935	12937.3125
801.6366	12882.6125
805.50115	12837.6125
809.36299	12777.0125
813.22213	12679.6125
817.07857	12670.1125
820.93231	12631.9125
824.78336	12584.0125
828.63172	12581.8125
832.47738	12540.8125
836.32036	12512.6125
840.16066	12513.6125
843.99827	12507.6125
847.8332	12513.9125
851.66546	12479.2125
855.49504	12523.9125
859.32195	12525.8125
863.1462	12581.8125
866.96777	12583.3125
870.78668	12560.0125
874.60293	12537.5125
878.41652	12556.5125
882.22745	12575.0125
886.03573	12611.3125
889.84136	12591.0125
893.64433	12511.7125
897.44466	12457.5125
901.24235	12413.8125
905.0374	12311.4125
908.8298	12265.6125
912.61957	12162.0125
916.40671	12250.9125
920.19121	12321.4125
923.97308	12373.3125
927.75233	12409.1125
931.52895	12420.1125
935.30295	12351.3125
939.07433	12191.3125
942.84309	12043.4125
946.60924	11963.9125
950.37278	11873.6125
954.13371	11830.0125
957.89203	11810.9125
961.64774	11798.8125
965.40086	11711.3125
969.15137	11656.6125
972.89929	11629.0125
976.64461	11627.8125
980.38733	11571.4125
984.12747	11625.8125
987.86502	11664.4125
991.59999	11718.6125
995.33237	11796.6125
999.06217	11969.7125
1002.78939	12165.7125
1006.51404	12276.1125
1010.23611	12387.0125
1013.95561	12498.1125
1017.67255	12506.9125
1021.38692	12441.5125
1025.09872	12308.9125
1028.80796	12223.3125
1032.51465	12312.7125
1036.21877	12415.5125
1039.92035	12426.6125
1043.61937	12398.1125
1047.31584	12338.1125
1051.00976	12253.4125
1054.70114	12216.9125
1058.38998	12214.0125
1062.07627	12243.7125
1065.76003	12242.7125
1069.44126	12231.6125
1073.11995	12281.4125
1076.79611	12362.1125
1080.46974	12426.0125
1084.14085	12486.2125
1087.80943	12587.8125
1091.47549	12670.6125
1095.13903	12645.7125
1098.80005	12513.0125
1102.45857	12370.6125
1106.11456	12288.3125
1109.76805	12320.6125
1113.41903	12387.5125
1117.06751	12569.8125
1120.71348	12732.5125
1124.35696	12957.4125
1127.99793	13150.1125
1131.63641	13239.5125
1135.2724	13109.1125
1138.90589	12905.6125
1142.5369	12737.3125
1146.16542	12630.9125
1149.79145	12551.4125
1153.415	12529.1125
1157.03607	12570.1125
1160.65467	12731.0125
1164.27079	13077.8125
1167.88443	13483.0125
1171.49561	14122.8125
1175.10432	15002.0125
1178.71056	16117.3125
1182.31434	17152.2125
1185.91565	17612.2125
1189.51451	17432.5125
1193.11091	16828.6125
1196.70485	16106.3125
1200.29634	15487.0125
1203.88538	14985.0125
1207.47197	14466.4125
1211.05612	14043.6125
1214.63782	13717.9125
1218.21708	13618.9125
1221.79391	13621.6125
1225.36829	13650.7125
1228.94024	13583.4125
1232.50976	13429.9125
1236.07685	13274.9125
1239.6415	13217.6125
1243.20374	13194.8125
1246.76355	13233.6125
1250.32093	13365.5125
1253.8759	13519.0125
1257.42845	13740.2125
1260.97859	14010.9125
1264.52631	14243.8125
1268.07163	14483.8125
1271.61453	14794.5125
1275.15503	15047.5125
1278.69312	15316.3125
1282.22882	15511.6125
1285.76211	15743.5125
1289.29301	16030.2125
1292.82151	16466.2125
1296.34761	17033.6125
1299.87133	17758.6125
1303.39266	18680.1125
1306.9116	19809.9125
1310.42815	21064.5125
1313.94233	21849.0125
1317.45412	21744.1125
1320.96354	20909.5125
1324.47058	19998.2125
1327.97525	19164.2125
1331.47754	18522.9125
1334.97747	18236.1125
1338.47502	18184.0125
1341.97022	18324.4125
1345.46305	18575.3125
1348.95352	19087.6125
1352.44163	19789.7125
1355.92738	20834.0125
1359.41078	22205.6125
1362.89183	23433.3125
1366.37053	23048.5125
1369.84688	20773.7125
1373.32088	18192.8125
1376.79254	16543.2125
1380.26186	15764.2125
1383.72883	15455.8125
1387.19347	15223.7125
1390.65578	14951.2125
1394.11575	14783.1125
1397.57339	14743.1125
1401.0287	14815.7125
1404.48168	14913.9125
1407.93234	14956.8125
1411.38068	14847.2125
1414.82669	14695.7125
1418.27039	14433.7125
1421.71177	14166.6125
1425.15083	13825.1125
1428.58758	13651.6125
1432.02203	13652.3125
1435.45416	13813.7125
1438.88399	14003.6125
1442.31151	14142.5125
1445.73673	14258.0125
1449.15965	14338.9125
1452.58027	14391.2125
1455.9986	14355.5125
1459.41463	14421.5125
1462.82837	14574.5125
1466.23982	14803.1125
1469.64898	14994.8125
1473.05586	15133.0125
1476.46045	15257.4125
1479.86276	15280.4125
1483.26279	15256.3125
1486.66054	15276.2125
1490.05602	15329.0125
1493.44922	15538.2125
1496.84016	15869.5125
1500.22882	16503.7125
1503.61521	17436.4125
1506.99934	18565.6125
1510.38121	19574.3125
1513.76081	19864.0125
1517.13816	19186.4125
1520.51324	17840.4125
1523.88607	16582.7125
1527.25665	15834.6125
1530.62498	15420.0125
1533.99105	15214.9125
1537.35488	15047.9125
1540.71647	14870.8125
1544.07581	14711.0125
1547.4329	14543.7125
1550.78776	14434.5125
1554.14038	14335.4125
1557.49077	14356.2125
1560.83892	14406.2125
1564.18484	14498.9125
1567.52853	14654.6125
1570.86999	14855.9125
1574.20922	15031.6125
1577.54624	15061.2125
1580.88103	14793.7125
1584.2136	14431.0125
1587.54395	14270.6125
1590.87208	14551.7125
1594.19801	15119.8125
1597.52172	15910.6125
1600.84321	16338.9125
1604.16251	16043.4125
1607.47959	15341.2125
1610.79447	14460.0125
1614.10715	13568.6125
1617.41763	12813.0125
1620.7259	12290.8125
1624.03199	11986.9125
1627.33587	11971.8125
1630.63757	12126.6125
1633.93707	12552.4125
1637.23439	13326.1125
1640.52951	14407.8125
1643.82246	15835.9125
1647.11321	17206.9125
1650.40179	17768.6125
1653.68819	17025.9125
1656.97241	15354.1125
1660.25446	13536.7125
1663.53433	12267.9125
1666.81203	11467.0125
1670.08756	10975.0125
1673.36092	10669.2125
1676.63211	10478.3125
1679.90115	10300.4125
1683.16801	10200.4125
1686.43272	10077.7125
1689.69527	9975.7125
1692.95567	9907.2125
1696.2139	9870.9125
1699.46999	9802.4125
1702.72392	9788.8125
1705.97571	9757.5125
1709.22535	9737.8125
1712.47284	9697.2125
1715.71819	9684.4125
1718.96139	9652.3125
1722.20246	9621.3125
1725.44139	9588.5125
1728.67818	9535.7125
1731.91284	9485.5125
1735.14537	9444.6125
1738.37576	9397.3125
1741.60403	9400.0125
1744.83017	9370.2125
1748.05418	9373.9125
1751.27607	9382.1125
1754.49584	9372.3125
1757.71349	9359.1125
1760.92903	9335.5125
1764.14244	9304.8125
1767.35375	9266.9125
1770.56294	9215.3125
1773.77002	9194.8125
1776.97499	9128.9125
1780.17785	9099.6125
1783.37861	9078.4125
1786.57727	9054.0125
1789.77382	9007.4125
1792.96828	8990.5125
1796.16064	8980.4125
1799.3509	8952.9125
1802.53907	8912.6125
1805.72514	8892.9125
1808.90913	8847.4125
1812.09102	8839.7125
1815.27083	8800.9125
1818.44856	8787.6125
1821.6242	8753.3125
1824.79776	8751.5125
1827.96924	8744.0125
1831.13864	8747.8125
1834.30597	8728.2125
1837.47122	8744.0125
1840.6344	8702.9125
1843.7955	8727.2125
1846.95454	8703.3125
1850.11151	8680.2125
1853.26642	8648.4125
1856.41926	8638.1125
1859.57004	8641.9125
1862.71876	8640.2125
1865.86542	8616.0125
1869.01003	8612.6125
1872.15258	8615.4125
1875.29308	8607.5125
1878.43152	8594.7125
1881.56792	8580.6125
1884.70227	8566.9125
1887.83457	8545.2125
1890.96482	8549.7125
1894.09304	8539.1125
1897.21921	8532.3125
1900.34335	8530.6125
1903.46544	8508.6125
1906.58551	8508.1125
1909.70353	8488.2125
1912.81953	8462.1125
1915.93349	8449.4125
1919.04543	8434.7125
1922.15534	8399.2125
1925.26322	8381.2125
1928.36908	8361.2125
1931.47292	8355.4125
1934.57473	8329.1125
1937.67453	8310.5125
1940.77232	8297.5125
1943.86808	8292.9125
1946.96184	8250.6125
1950.05358	8205.3125
1953.14331	8193.1125
1956.23103	8187.5125
1959.31675	8161.6125
1962.40046	8122.3125
1965.48217	8075.8125
1968.56188	8069.2125
1971.63959	8031.3125
1974.7153	8029.1125
1977.78901	7981.5125
1980.86073	7978.5125
1983.93046	7959.4125
1986.99819	7920.1125
1990.06394	7907.4125
1993.1277	7856.9125
1996.18947	7850.2125
1999.24925	7831.9125
2002.30706	7814.7125
2005.36288	7792.0125
2008.41672	7759.6125
2011.46859	7733.0125
2014.51848	7703.2125
2017.56639	7684.2125
2020.61233	7661.5125
2023.6563	7646.9125
2026.6983	7623.8125
2029.73833	7582.9125
2032.7764	7580.1125
2035.8125	7560.0125
2038.84664	7550.2125
2041.87881	7523.1125
2044.90903	7514.2125
2047.93729	7456.7125
2050.96359	7464.3125
2053.98794	7473.8125
2057.01034	7482.1125
2060.03078	7452.8125
2063.04927	7456.5125
2066.06582	7464.3125
2069.08042	7435.0125
2072.09307	7431.7125
2075.10378	7425.2125
2078.11255	7419.9125
2081.11938	7404.5125
2084.12426	7402.2125
2087.12722	7390.6125
2090.12824	7394.4125
2093.12732	7395.0125
2096.12447	7393.9125
2099.11969	7412.8125
2102.11299	7395.8125
2105.10435	7397.9125
2108.09379	7386.8125
2111.08131	7411.4125
2114.0669	7400.2125
2117.05057	7398.8125
2120.03233	7407.3125
2123.01216	7419.6125
2125.99008	7399.4125
2128.96609	7407.0125
2131.94018	7418.8125
2134.91236	7409.0125
2137.88263	7407.4125
2140.851	7421.2125
2143.81746	7423.2125
2146.78201	7415.0125
2149.74466	7417.9125
2152.7054	7429.5125
2155.66425	7414.9125
2158.6212	7401.8125
2161.57625	7388.4125
2164.52941	7394.5125
2167.48067	7389.7125
2170.43004	7372.2125
2173.37752	7382.7125
2176.32311	7375.6125
2179.26681	7367.6125
2182.20863	7394.1125
2185.14856	7371.4125
2188.08661	7361.4125
2191.02278	7365.0125
2193.95707	7370.1125
2196.88948	7349.2125
2199.82001	7359.0125
2202.74867	7344.9125
2205.67545	7343.8125
2208.60037	7320.7125
2211.52341	7317.7125
2214.44458	7305.8125
2217.36388	7283.7125
2220.28132	7266.4125
2223.1969	7265.6125
2226.11061	7241.9125
2229.02246	7212.1125
2231.93245	7194.6125
2234.84058	7186.6125
2237.74686	7187.7125
2240.65128	7143.2125
2243.55385	7155.3125
2246.45456	7134.0125
2249.35343	7148.2125
2252.25044	7124.2125
2255.14561	7114.9125
2258.03893	7116.4125
2260.93041	7080.5125
2263.82004	7069.8125
2266.70783	7048.9125
2269.59378	7021.7125
2272.4779	7037.3125
2275.36017	7014.0125
2278.24061	6979.0125
2281.11922	6964.4125
2283.996	6957.7125
2286.87094	6940.2125
2289.74405	6918.7125
2292.61534	6922.7125
2295.4848	6913.5125
2298.35243	6930.0125
2301.21824	6908.5125
2304.08223	6887.7125
2306.94439	6894.6125
2309.80474	6890.2125
2312.66327	6888.9125
2315.51999	6871.7125
2318.37489	6869.9125
2321.22797	6858.8125
2324.07925	6830.3125
2326.92871	6843.2125
2329.77637	6822.8125
2332.62222	6792.0125
2335.46626	6811.5125
2338.3085	6779.3125
2341.14893	6780.7125
2343.98756	6776.9125
2346.8244	6753.4125
2349.65943	6763.7125
2352.49267	6752.7125
2355.32411	6769.6125
2358.15376	6769.6125
2360.98161	6761.8125
2363.80768	6757.9125
2366.63195	6736.0125
2369.45444	6736.1125
2372.27514	6755.6125
2375.09405	6739.0125
2377.91118	6701.1125
2380.72652	6694.9125
2383.54009	6676.6125
2386.35187	6669.2125
2389.16188	6632.6125
2391.97011	6612.5125
2394.77657	6597.1125
2397.58125	6595.9125
2400.38416	6570.9125
2403.18529	6582.4125
2405.98466	6547.6125
2408.78226	6558.4125
2411.57809	6536.6125
2414.37216	6525.5125
2417.16446	6541.2125
2419.955	6515.6125
2422.74378	6515.0125
2425.5308	6501.9125
2428.31606	6505.1125
2431.09956	6475.4125
2433.88131	6464.0125
2436.6613	6472.6125
2439.43954	6453.7125
2442.21603	6451.4125
2444.99077	6444.7125
2447.76377	6439.3125
2450.53501	6433.5125
2453.30451	6430.2125
2456.07226	6428.7125
2458.83827	6417.7125
2461.60254	6425.4125
2464.36507	6405.1125
2467.12586	6436.3125
2469.88492	6402.5125
2472.64224	6395.0125
2475.39782	6399.3125
2478.15167	6401.8125
2480.90379	6399.0125
2483.65417	6405.8125
2486.40283	6398.1125
2489.14976	6392.2125
2491.89497	6402.2125
2494.63845	6415.2125
2497.3802	6397.1125
2500.12024	6397.0125
2502.85855	6382.0125
2505.59514	6369.6125
2508.33002	6369.7125
2511.06318	6338.3125
2513.79462	6318.6125
2516.52435	6321.9125
2519.25237	6311.1125
2521.97867	6283.4125
2524.70327	6298.7125
2527.42616	6272.1125
2530.14734	6253.1125
2532.86681	6253.1125
2535.58458	6265.2125
2538.30065	6244.3125
2541.01501	6272.6125
2543.72768	6231.2125
2546.43864	6245.6125
2549.14791	6214.5125
2551.85548	6201.6125
2554.56136	6184.5125
2557.26554	6189.0125
2559.96803	6174.8125
2562.66883	6184.7125
2565.36794	6142.9125
2568.06536	6133.6125
2570.7611	6123.7125
2573.45514	6122.9125
2576.14751	6107.5125
2578.83819	6106.4125
2581.52719	6096.5125
2584.21451	6091.6125
2586.90015	6085.8125
2589.58411	6083.9125
2592.2664	6071.6125
2594.94701	6036.2125
2597.62594	6038.1125
2600.30321	6018.3125
2602.9788	6001.9125
2605.65273	5996.0125
2608.32498	5989.0125
2610.99557	5983.1125
2613.66449	5998.7125
2616.33175	5990.0125
2618.99734	5999.4125
2621.66128	5990.1125
2624.32355	5985.8125
2626.98416	5964.2125
2629.64311	5958.6125
2632.30041	5956.4125
2634.95605	5949.5125
2637.61004	5940.7125
2640.26238	5927.7125
2642.91306	5918.2125
2645.56209	5927.3125
2648.20948	5927.6125
2650.85521	5913.7125
2653.4993	5920.3125
2656.14175	5899.7125
2658.78255	5910.4125
2661.42171	5920.6125
2664.05923	5910.1125
2666.6951	5925.1125
2669.32934	5906.8125
2671.96194	5904.6125
2674.59291	5904.7125
2677.22224	5907.5125
2679.84993	5924.6125
2682.476	5905.2125
2685.10043	5909.3125
2687.72324	5896.3125
2690.34441	5896.5125
2692.96396	5879.2125
2695.58188	5901.9125
2698.19818	5888.0125
2700.81285	5879.0125
2703.4259	5885.5125
2706.03733	5881.7125
2708.64714	5880.8125
2711.25533	5878.0125
2713.86191	5871.1125
2716.46687	5901.8125
2719.07021	5872.4125
2721.67194	5894.1125
2724.27206	5881.3125
2726.87057	5887.5125
2729.46747	5885.8125
2732.06276	5900.4125
2734.65644	5881.5125
2737.24852	5876.8125
2739.83899	5869.7125
2742.42786	5875.8125
2745.01513	5853.7125
2747.60079	5839.6125
2750.18486	5836.0125
2752.76733	5831.7125
2755.3482	5832.7125
2757.92747	5825.3125
2760.50515	5805.5125
2763.08123	5805.3125
2765.65573	5805.9125
2768.22863	5812.6125
2770.79994	5776.9125
2773.36967	5797.9125
2775.9378	5784.4125
2778.50435	5786.6125
2781.06932	5784.2125
2783.6327	5762.9125
2786.1945	5776.3125
2788.75471	5766.5125
2791.31335	5746.7125
2793.87041	5735.5125
2796.42589	5712.3125
2798.97979	5699.3125
2801.53212	5685.4125
2804.08288	5695.5125
2806.63206	5685.8125
2809.17967	5666.8125
2811.72571	5655.6125
2814.27018	5653.2125
2816.81308	5641.3125
2819.35442	5647.5125
2821.89419	5630.3125
2824.43239	5647.1125
2826.96904	5631.1125
2829.50412	5630.5125
2832.03763	5616.7125
2834.56959	5610.9125
2837.1	5619.0125
2839.62884	5623.2125
2842.15613	5614.1125
2844.68186	5646.1125
2847.20604	5652.8125
2849.72867	5650.0125
2852.24974	5652.1125
2854.76927	5630.8125
2857.28724	5632.3125
2859.80367	5636.8125
2862.31855	5636.2125
2864.83189	5611.6125
2867.34368	5607.5125
2869.85393	5590.8125
2872.36264	5598.1125
2874.8698	5587.9125
2877.37543	5576.3125
2879.87952	5595.6125
2882.38207	5587.1125
2884.88308	5586.0125
2887.38256	5597.0125
2889.88051	5607.0125
2892.37692	5588.9125
2894.8718	5598.6125
2897.36515	5609.6125
2899.85698	5605.3125
2902.34727	5636.0125
2904.83604	5632.7125
2907.32328	5641.8125
2909.809	5644.8125
2912.29319	5646.2125
2914.77587	5670.1125
2917.25702	5686.6125
2919.73665	5650.4125
2922.21476	5677.3125
2924.69136	5680.7125
2927.16644	5668.3125
2929.64	5647.7125
2932.11205	5663.7125
2934.58258	5646.3125
2937.05161	5662.8125
2939.51912	5649.5125
2941.98513	5661.7125
2944.44962	5621.8125
2946.91261	5614.5125
2949.37409	5613.8125
2951.83407	5596.6125
2954.29254	5606.7125
2956.74951	5582.1125
2959.20498	5584.2125
2961.65895	5568.3125
2964.11142	5559.0125
2966.56239	5546.4125
2969.01186	5538.1125
2971.45984	5514.3125
2973.90632	5497.6125
2976.35131	5492.0125
2978.7948	5472.1125
2981.23681	5457.1125
2983.67732	5437.6125
2986.11635	5410.7125
2988.55388	5422.4125
2990.98993	5415.5125
2993.4245	5376.4125
2995.85758	5375.6125
2998.28917	5370.2125
3000.71928	5363.7125
3003.14791	5348.9125
3005.57506	5342.8125
3008.00073	5339.0125
3010.42493	5320.6125
3012.84764	5306.8125
3015.26888	5322.7125
3017.68865	5297.2125
3020.10694	5299.9125
3022.52376	5274.2125
3024.9391	5262.8125
3027.35298	5265.5125
3029.76539	5247.0125
3032.17632	5247.0125
3034.5858	5226.1125
3036.9938	5219.2125
3039.40034	5215.3125
3041.80542	5224.5125
3044.20903	5223.4125
3046.61118	5223.3125
3049.01187	5201.7125
3051.4111	5201.5125
3053.80888	5205.2125
3056.20519	5183.6125
3058.60005	5164.3125
3060.99345	5164.4125
3063.3854	5164.4125
3065.7759	5144.4125
3068.16494	5144.0125
3070.55254	5134.4125
3072.93868	5096.0125
3075.32338	5093.0125
3077.70662	5082.7125
3080.08842	5096.9125
