Data from AgNPs_FTO_APTES_UA_50uM_CRN_20uM_R6G_10uM_NaF_0.1M_Addition_RamanShift__16__14-12-54-932.txt Node

Date: Mon Feb 21 14:12:54 GMT 2022
User: TCL
Spectrometer: QEP01345
Trigger mode: 4
Integration Time (sec): 7.000000E0
Scans to average: 10
Electric dark correction enabled: true
Nonlinearity correction enabled: false
Boxcar width: 0
XAxis mode: Raman Shifts
Number of Pixels in Spectrum: 1044
>>>>>Begin Spectral Data<<<<<
46.04893	0.9875
50.45542	-0.1125
54.85868	-0.5125
59.25871	-1.5125
63.6555	52.2875
68.04907	59.3875
72.43941	60.5875
76.82654	67.2875
81.21044	70.0875
85.59113	71.5875
89.96862	72.6875
94.34289	75.6875
98.71396	78.4875
103.08183	86.0875
107.4465	84.7875
111.80798	83.8875
116.16626	83.2875
120.52136	86.3875
124.87327	96.5875
129.222	90.9875
133.56755	96.4875
137.90993	101.7875
142.24913	110.6875
146.58517	120.7875
150.91804	141.0875
155.24774	167.1875
159.57429	197.4875
163.89768	253.1875
168.21792	342.4875
172.53501	464.4875
176.84895	642.8875
181.15975	888.7875
185.46741	1249.5875
189.77193	1731.9875
194.07331	2306.8875
198.37157	2950.3875
202.6667	3666.4875
206.9587	4361.4875
211.24758	5077.9875
215.53334	5787.1875
219.81599	6544.4875
224.09553	7435.6875
228.37195	8378.8875
232.64527	9453.3875
236.91549	10545.5875
241.18261	11562.4875
245.44663	12431.3875
249.70755	13142.7875
253.96539	13727.8875
258.22014	14233.1875
262.4718	14665.5875
266.72039	14979.0875
270.96589	15121.7875
275.20832	15034.3875
279.44768	14826.5875
283.68397	14561.8875
287.91719	14399.8875
292.14735	14334.5875
296.37445	14469.1875
300.59849	14765.6875
304.81948	15100.3875
309.03742	15310.5875
313.25231	15194.6875
317.46415	14727.3875
321.67296	14007.8875
325.87872	13366.7875
330.08145	13065.9875
334.28114	13050.6875
338.47781	13152.2875
342.67145	13413.3875
346.86207	13730.9875
351.04966	14239.7875
355.23424	14819.3875
359.4158	15278.8875
363.59435	15514.3875
367.76989	15668.4875
371.94243	15681.6875
376.11196	15685.4875
380.27849	15689.6875
384.44203	15692.1875
388.60257	15673.5875
392.76012	15668.4875
396.91468	15781.2875
401.06626	16071.2875
405.21485	16238.5875
409.36047	16012.9875
413.50311	15489.1875
417.64277	14934.8875
421.77947	14686.5875
425.9132	14588.8875
430.04396	14591.7875
434.17176	14596.8875
438.2966	14757.9875
442.41849	15068.8875
446.53742	15464.1875
450.6534	15938.2875
454.76644	16249.5875
458.87653	16305.0875
462.98368	16257.5875
467.08789	15997.3875
471.18916	15707.0875
475.2875	15436.4875
479.38291	15269.0875
483.4754	15055.5875
487.56496	14847.7875
491.6516	14714.9875
495.73531	14589.3875
499.81612	14572.4875
503.89401	14763.0875
507.96899	14862.0875
512.04106	14898.9875
516.11023	14936.7875
520.1765	14951.3875
524.23987	14900.3875
528.30034	14827.5875
532.35792	14709.1875
536.41261	14521.9875
540.46441	14309.9875
544.51333	14177.0875
548.55936	14204.3875
552.60252	14474.0875
556.64279	14794.0875
560.6802	14974.4875
564.71473	15112.9875
568.7464	15505.9875
572.7752	15907.6875
576.80114	15943.5875
580.82422	15932.4875
584.84444	16031.8875
588.86181	16314.9875
592.87633	16587.2875
596.888	16737.0875
600.89682	16743.5875
604.9028	17714.8875
608.90594	20949.0875
612.90624	24761.7875
616.90371	23112.1875
620.89834	17483.5875
624.89015	14917.3875
628.87913	14569.9875
632.86528	14725.7875
636.84862	14888.6875
640.82913	14664.9875
644.80683	14119.5875
648.78172	13646.8875
652.75379	13566.2875
656.72306	13904.1875
660.68952	14363.4875
664.65319	14254.4875
668.61405	13798.6875
672.57211	13686.2875
676.52738	13790.3875
680.47986	13817.6875
684.42955	13667.7875
688.37646	13516.4875
692.32058	13513.5875
696.26192	13549.5875
700.20048	13717.5875
704.13626	13769.8875
708.06928	13714.1875
711.99952	13620.5875
715.927	13527.6875
719.85171	13587.1875
723.77365	13580.6875
727.69284	13471.0875
731.60928	13347.9875
735.52295	13363.7875
739.43388	13398.9875
743.34206	13461.2875
747.24749	13487.7875
751.15017	13526.2875
755.05012	13728.2875
758.94733	14222.7875
762.8418	15419.2875
766.73354	17549.2875
770.62254	19793.1875
774.50882	20680.7875
778.39237	19696.8875
782.27321	17556.3875
786.15132	15541.5875
790.02671	14262.5875
793.89938	13642.2875
797.76935	13338.0875
801.6366	13246.5875
805.50115	13159.5875
809.36299	13081.1875
813.22213	12882.6875
817.07857	12805.7875
820.93231	12751.3875
824.78336	12732.9875
828.63172	12733.7875
832.47738	12702.6875
836.32036	12701.9875
840.16066	12688.7875
843.99827	12698.8875
847.8332	12639.2875
851.66546	12613.8875
855.49504	12617.7875
859.32195	12640.3875
863.1462	12645.9875
866.96777	12595.0875
870.78668	12623.3875
874.60293	12606.9875
878.41652	12633.7875
882.22745	12722.6875
886.03573	12810.8875
889.84136	12767.1875
893.64433	12710.9875
897.44466	12674.2875
901.24235	12617.2875
905.0374	12489.3875
908.8298	12340.9875
912.61957	12314.8875
916.40671	12338.7875
920.19121	12496.8875
923.97308	12680.4875
927.75233	12801.2875
931.52895	12868.4875
935.30295	12734.2875
939.07433	12423.9875
942.84309	12102.9875
946.60924	11954.7875
950.37278	11889.9875
954.13371	11833.7875
957.89203	11782.9875
961.64774	11756.5875
965.40086	11719.6875
969.15137	11658.0875
972.89929	11611.6875
976.64461	11601.1875
980.38733	11558.4875
984.12747	11582.9875
987.86502	11655.1875
991.59999	11811.8875
995.33237	12027.3875
999.06217	12404.8875
1002.78939	12787.5875
1006.51404	13106.3875
1010.23611	13347.9875
1013.95561	13500.2875
1017.67255	13537.2875
1021.38692	13384.7875
1025.09872	13104.9875
1028.80796	13050.4875
1032.51465	13228.3875
1036.21877	13470.7875
1039.92035	13525.4875
1043.61937	13440.9875
1047.31584	13285.0875
1051.00976	13067.7875
1054.70114	12955.3875
1058.38998	12936.5875
1062.07627	12949.3875
1065.76003	13020.6875
1069.44126	13108.2875
1073.11995	13311.9875
1076.79611	13567.9875
1080.46974	13777.7875
1084.14085	13993.6875
1087.80943	14289.6875
1091.47549	14440.6875
1095.13903	14363.0875
1098.80005	14039.9875
1102.45857	13659.3875
1106.11456	13442.4875
1109.76805	13400.2875
1113.41903	13598.2875
1117.06751	13906.8875
1120.71348	14311.6875
1124.35696	14722.4875
1127.99793	15164.0875
1131.63641	15279.8875
1135.2724	14962.7875
1138.90589	14589.9875
1142.5369	14264.8875
1146.16542	14037.8875
1149.79145	13916.4875
1153.415	13911.9875
1157.03607	14067.4875
1160.65467	14408.6875
1164.27079	15062.5875
1167.88443	15999.0875
1171.49561	17344.2875
1175.10432	19219.5875
1178.71056	21666.4875
1182.31434	23877.3875
1185.91565	24801.7875
1189.51451	24449.3875
1193.11091	23242.5875
1196.70485	21700.6875
1200.29634	20294.5875
1203.88538	19096.3875
1207.47197	18011.0875
1211.05612	17145.3875
1214.63782	16592.2875
1218.21708	16381.3875
1221.79391	16443.8875
1225.36829	16553.7875
1228.94024	16487.6875
1232.50976	16197.3875
1236.07685	15856.8875
1239.6415	15697.4875
1243.20374	15636.7875
1246.76355	15701.6875
1250.32093	15892.4875
1253.8759	16234.5875
1257.42845	16790.2875
1260.97859	17426.6875
1264.52631	18113.9875
1268.07163	18843.0875
1271.61453	19554.4875
1275.15503	20218.4875
1278.69312	20735.6875
1282.22882	21235.3875
1285.76211	21774.9875
1289.29301	22454.7875
1292.82151	23285.5875
1296.34761	24377.9875
1299.87133	25811.0875
1303.39266	27810.3875
1306.9116	30442.9875
1310.42815	33098.7875
1313.94233	34596.7875
1317.45412	34040.3875
1320.96354	32351.3875
1324.47058	30488.9875
1327.97525	28812.5875
1331.47754	27705.2875
1334.97747	27058.0875
1338.47502	26829.1875
1341.97022	26965.6875
1345.46305	27369.4875
1348.95352	28120.2875
1352.44163	29263.5875
1355.92738	31229.9875
1359.41078	34205.3875
1362.89183	36956.8875
1366.37053	36097.8875
1369.84688	31482.4875
1373.32088	26558.8875
1376.79254	23368.4875
1380.26186	21783.2875
1383.72883	21006.3875
1387.19347	20473.0875
1390.65578	19944.7875
1394.11575	19705.2875
1397.57339	19735.4875
1401.0287	19939.5875
1404.48168	20114.4875
1407.93234	20103.7875
1411.38068	19906.0875
1414.82669	19520.7875
1418.27039	19002.3875
1421.71177	18480.9875
1425.15083	17979.2875
1428.58758	17703.6875
1432.02203	17861.5875
1435.45416	18261.8875
1438.88399	18606.4875
1442.31151	18866.5875
1445.73673	19085.2875
1449.15965	19340.0875
1452.58027	19534.9875
1455.9986	19594.0875
1459.41463	19815.3875
1462.82837	20147.0875
1466.23982	20636.2875
1469.64898	20940.2875
1473.05586	21167.0875
1476.46045	21173.5875
1479.86276	21139.5875
1483.26279	21154.2875
1486.66054	21325.9875
1490.05602	21723.5875
1493.44922	22354.9875
1496.84016	23366.2875
1500.22882	24984.4875
1503.61521	27428.2875
1506.99934	30182.1875
1510.38121	32325.3875
1513.76081	32639.0875
1517.13816	30687.5875
1520.51324	27567.8875
1523.88607	24692.1875
1527.25665	22822.9875
1530.62498	21853.6875
1533.99105	21267.1875
1537.35488	20767.8875
1540.71647	20351.8875
1544.07581	19985.1875
1547.4329	19644.1875
1550.78776	19403.4875
1554.14038	19349.5875
1557.49077	19411.1875
1560.83892	19602.7875
1564.18484	19951.3875
1567.52853	20417.5875
1570.86999	20882.3875
1574.20922	21192.5875
1577.54624	21207.4875
1580.88103	20523.3875
1584.2136	19693.7875
1587.54395	19471.1875
1590.87208	20096.1875
1594.19801	21345.0875
1597.52172	22852.0875
1600.84321	23448.6875
1604.16251	22482.5875
1607.47959	20782.2875
1610.79447	19061.0875
1614.10715	17371.5875
1617.41763	15977.5875
1620.7259	15057.5875
1624.03199	14572.3875
1627.33587	14574.8875
1630.63757	15017.5875
1633.93707	16078.3875
1637.23439	17782.8875
1640.52951	20290.6875
1643.82246	23360.6875
1647.11321	26282.0875
1650.40179	27457.4875
1653.68819	25843.1875
1656.97241	22052.9875
1660.25446	18111.8875
1663.53433	15277.6875
1666.81203	13585.7875
1670.08756	12612.0875
1673.36092	12017.6875
1676.63211	11637.4875
1679.90115	11374.2875
1683.16801	11144.5875
1686.43272	11000.8875
1689.69527	10866.5875
1692.95567	10704.3875
1696.2139	10567.6875
1699.46999	10441.0875
1702.72392	10351.0875
1705.97571	10394.5875
1709.22535	10446.9875
1712.47284	10483.7875
1715.71819	10509.7875
1718.96139	10448.8875
1722.20246	10412.9875
1725.44139	10360.3875
1728.67818	10301.9875
1731.91284	10222.9875
1735.14537	10129.3875
1738.37576	10076.4875
1741.60403	10026.4875
1744.83017	9983.1875
1748.05418	9958.7875
1751.27607	9931.4875
1754.49584	9846.8875
1757.71349	9776.1875
1760.92903	9725.7875
1764.14244	9720.2875
1767.35375	9689.8875
1770.56294	9627.6875
1773.77002	9612.8875
1776.97499	9631.9875
1780.17785	9650.6875
1783.37861	9633.1875
1786.57727	9632.5875
1789.77382	9631.3875
1792.96828	9618.4875
1796.16064	9591.4875
1799.3509	9582.9875
1802.53907	9595.8875
1805.72514	9528.0875
1808.90913	9484.7875
1812.09102	9469.5875
1815.27083	9467.7875
1818.44856	9447.0875
1821.6242	9426.4875
1824.79776	9410.2875
1827.96924	9429.1875
1831.13864	9391.2875
1834.30597	9395.0875
1837.47122	9402.2875
1840.6344	9392.7875
1843.7955	9376.0875
1846.95454	9375.5875
1850.11151	9386.8875
1853.26642	9368.5875
1856.41926	9364.8875
1859.57004	9335.3875
1862.71876	9313.6875
1865.86542	9312.7875
1869.01003	9330.3875
1872.15258	9306.9875
1875.29308	9294.2875
1878.43152	9319.2875
1881.56792	9309.1875
1884.70227	9277.9875
1887.83457	9281.0875
1890.96482	9265.2875
1894.09304	9252.8875
1897.21921	9239.1875
1900.34335	9225.7875
1903.46544	9202.7875
1906.58551	9189.4875
1909.70353	9198.8875
1912.81953	9186.2875
1915.93349	9148.8875
1919.04543	9130.9875
1922.15534	9107.8875
1925.26322	9079.3875
1928.36908	9047.6875
1931.47292	9005.8875
1934.57473	8969.8875
1937.67453	8963.7875
1940.77232	8943.4875
1943.86808	8902.2875
1946.96184	8881.1875
1950.05358	8839.6875
1953.14331	8823.2875
1956.23103	8808.5875
1959.31675	8762.5875
1962.40046	8744.3875
1965.48217	8711.1875
1968.56188	8712.0875
1971.63959	8708.7875
1974.7153	8661.3875
1977.78901	8622.5875
1980.86073	8595.3875
1983.93046	8550.5875
1986.99819	8522.9875
1990.06394	8506.1875
1993.1277	8493.4875
1996.18947	8464.2875
1999.24925	8438.9875
2002.30706	8381.4875
2005.36288	8367.3875
2008.41672	8338.0875
2011.46859	8306.4875
2014.51848	8283.3875
2017.56639	8266.5875
2020.61233	8266.1875
2023.6563	8240.6875
2026.6983	8207.3875
2029.73833	8180.7875
2032.7764	8173.0875
2035.8125	8146.8875
2038.84664	8166.2875
2041.87881	8163.4875
2044.90903	8125.4875
2047.93729	8112.2875
2050.96359	8104.7875
2053.98794	8124.9875
2057.01034	8097.6875
2060.03078	8083.7875
2063.04927	8071.5875
2066.06582	8072.9875
2069.08042	8029.5875
2072.09307	8037.5875
2075.10378	8020.8875
2078.11255	8014.0875
2081.11938	8005.3875
2084.12426	7994.2875
2087.12722	8014.1875
2090.12824	7985.1875
2093.12732	8006.6875
2096.12447	8002.0875
2099.11969	8006.9875
2102.11299	8022.9875
2105.10435	8005.4875
2108.09379	8014.0875
2111.08131	8022.1875
2114.0669	8003.9875
2117.05057	8027.8875
2120.03233	8023.9875
2123.01216	8044.2875
2125.99008	8047.6875
2128.96609	8037.5875
2131.94018	8065.4875
2134.91236	8068.5875
2137.88263	8052.7875
2140.851	8048.3875
2143.81746	8056.3875
2146.78201	8043.0875
2149.74466	8059.1875
2152.7054	8036.9875
2155.66425	8018.9875
2158.6212	7999.1875
2161.57625	8018.4875
2164.52941	8015.7875
2167.48067	8012.9875
2170.43004	8003.0875
2173.37752	8035.3875
2176.32311	8026.6875
2179.26681	8016.1875
2182.20863	8017.9875
2185.14856	8025.4875
2188.08661	8021.1875
2191.02278	8014.4875
2193.95707	8004.0875
2196.88948	7990.2875
2199.82001	7971.7875
2202.74867	7989.6875
2205.67545	7985.5875
2208.60037	7986.6875
2211.52341	7967.6875
2214.44458	7961.9875
2217.36388	7950.8875
2220.28132	7936.1875
2223.1969	7931.4875
2226.11061	7915.7875
2229.02246	7879.5875
2231.93245	7874.0875
2234.84058	7863.1875
2237.74686	7853.0875
2240.65128	7818.4875
2243.55385	7838.1875
2246.45456	7815.0875
2249.35343	7802.9875
2252.25044	7806.9875
2255.14561	7787.1875
2258.03893	7791.8875
2260.93041	7772.1875
2263.82004	7766.2875
2266.70783	7732.1875
2269.59378	7725.2875
2272.4779	7688.8875
2275.36017	7664.9875
2278.24061	7659.6875
2281.11922	7660.7875
2283.996	7601.8875
2286.87094	7612.9875
2289.74405	7588.7875
2292.61534	7603.0875
2295.4848	7568.7875
2298.35243	7609.2875
2301.21824	7570.5875
2304.08223	7599.6875
2306.94439	7575.3875
2309.80474	7588.0875
2312.66327	7603.1875
2315.51999	7587.5875
2318.37489	7562.5875
2321.22797	7578.9875
2324.07925	7574.7875
2326.92871	7548.6875
2329.77637	7535.7875
2332.62222	7532.7875
2335.46626	7534.3875
2338.3085	7487.1875
2341.14893	7521.9875
2343.98756	7552.4875
2346.8244	7537.9875
2349.65943	7573.3875
2352.49267	7554.0875
2355.32411	7556.6875
2358.15376	7563.4875
2360.98161	7559.6875
2363.80768	7565.6875
2366.63195	7551.6875
2369.45444	7542.1875
2372.27514	7552.1875
2375.09405	7511.3875
2377.91118	7528.9875
2380.72652	7502.2875
2383.54009	7478.1875
2386.35187	7443.8875
2389.16188	7405.4875
2391.97011	7393.9875
2394.77657	7374.3875
2397.58125	7369.1875
2400.38416	7357.1875
2403.18529	7327.8875
2405.98466	7309.1875
2408.78226	7317.4875
2411.57809	7296.9875
2414.37216	7289.7875
2417.16446	7256.9875
2419.955	7279.5875
2422.74378	7284.5875
2425.5308	7256.5875
2428.31606	7253.8875
2431.09956	7258.8875
2433.88131	7258.5875
2436.6613	7250.3875
2439.43954	7265.0875
2442.21603	7242.0875
2444.99077	7275.9875
2447.76377	7272.1875
2450.53501	7256.3875
2453.30451	7280.4875
2456.07226	7252.4875
2458.83827	7268.2875
2461.60254	7275.0875
2464.36507	7276.0875
2467.12586	7288.6875
2469.88492	7273.6875
2472.64224	7273.1875
2475.39782	7260.1875
2478.15167	7258.3875
2480.90379	7279.7875
2483.65417	7286.9875
2486.40283	7295.6875
2489.14976	7331.5875
2491.89497	7300.2875
2494.63845	7300.0875
2497.3802	7290.4875
2500.12024	7290.7875
2502.85855	7307.4875
2505.59514	7270.9875
2508.33002	7265.1875
2511.06318	7234.2875
2513.79462	7226.5875
2516.52435	7229.5875
2519.25237	7209.1875
2521.97867	7172.7875
2524.70327	7180.6875
2527.42616	7173.1875
2530.14734	7183.1875
2532.86681	7164.2875
2535.58458	7178.8875
2538.30065	7167.9875
2541.01501	7173.3875
2543.72768	7160.4875
2546.43864	7154.4875
2549.14791	7150.0875
2551.85548	7162.4875
2554.56136	7113.9875
2557.26554	7149.9875
2559.96803	7139.6875
2562.66883	7124.5875
2565.36794	7133.3875
2568.06536	7099.2875
2570.7611	7094.6875
2573.45514	7090.5875
2576.14751	7097.3875
2578.83819	7093.8875
2581.52719	7082.5875
2584.21451	7074.7875
2586.90015	7070.4875
2589.58411	7029.6875
2592.2664	7019.5875
2594.94701	7047.5875
2597.62594	7032.7875
2600.30321	7044.9875
2602.9788	7031.1875
2605.65273	7046.4875
2608.32498	7048.8875
2610.99557	7034.0875
2613.66449	7041.6875
2616.33175	7046.9875
2618.99734	7040.8875
2621.66128	7033.2875
2624.32355	7022.8875
2626.98416	7032.3875
2629.64311	7020.4875
2632.30041	7017.3875
2634.95605	6995.8875
2637.61004	6982.1875
2640.26238	6996.1875
2642.91306	6997.9875
2645.56209	6972.6875
2648.20948	6963.8875
2650.85521	6950.5875
2653.4993	6969.0875
2656.14175	6963.9875
2658.78255	6982.8875
2661.42171	6956.3875
2664.05923	6993.1875
2666.6951	7021.2875
2669.32934	7014.0875
2671.96194	7032.5875
2674.59291	7006.9875
2677.22224	7010.0875
2679.84993	6998.8875
2682.476	6974.3875
2685.10043	6974.7875
2687.72324	6975.1875
2690.34441	6992.0875
2692.96396	6984.0875
2695.58188	6970.6875
2698.19818	6956.7875
2700.81285	6961.3875
2703.4259	6927.1875
2706.03733	6878.4875
2708.64714	6887.0875
2711.25533	6937.1875
2713.86191	6941.2875
2716.46687	6965.5875
2719.07021	6989.5875
2721.67194	6988.6875
2724.27206	6987.3875
2726.87057	6982.2875
2729.46747	7005.8875
2732.06276	7011.8875
2734.65644	6973.8875
2737.24852	6986.2875
2739.83899	6991.2875
2742.42786	6969.9875
2745.01513	6966.9875
2747.60079	6974.5875
2750.18486	6948.4875
2752.76733	6967.4875
2755.3482	6968.7875
2757.92747	6943.2875
2760.50515	6940.2875
2763.08123	6944.6875
2765.65573	6913.7875
2768.22863	6912.8875
2770.79994	6896.9875
2773.36967	6906.6875
2775.9378	6897.5875
2778.50435	6902.8875
2781.06932	6892.3875
2783.6327	6917.0875
2786.1945	6897.2875
2788.75471	6906.5875
2791.31335	6902.0875
2793.87041	6880.7875
2796.42589	6868.9875
2798.97979	6864.9875
2801.53212	6847.0875
2804.08288	6857.7875
2806.63206	6839.7875
2809.17967	6824.6875
2811.72571	6824.1875
2814.27018	6831.1875
2816.81308	6828.6875
2819.35442	6830.6875
2821.89419	6814.7875
2824.43239	6824.6875
2826.96904	6810.8875
2829.50412	6821.1875
2832.03763	6798.3875
2834.56959	6804.0875
2837.1	6798.7875
2839.62884	6805.0875
2842.15613	6783.2875
2844.68186	6783.6875
2847.20604	6800.1875
2849.72867	6791.8875
2852.24974	6803.6875
2854.76927	6785.1875
2857.28724	6764.8875
2859.80367	6762.9875
2862.31855	6789.1875
2864.83189	6793.7875
2867.34368	6782.3875
2869.85393	6816.7875
2872.36264	6801.5875
2874.8698	6792.4875
2877.37543	6795.1875
2879.87952	6799.9875
2882.38207	6803.1875
2884.88308	6782.5875
2887.38256	6800.7875
2889.88051	6807.4875
2892.37692	6792.1875
2894.8718	6804.1875
2897.36515	6832.6875
2899.85698	6832.4875
2902.34727	6836.5875
2904.83604	6843.0875
2907.32328	6865.2875
2909.809	6874.6875
2912.29319	6897.4875
2914.77587	6867.3875
2917.25702	6885.2875
2919.73665	6892.4875
2922.21476	6881.8875
2924.69136	6859.3875
2927.16644	6868.0875
2929.64	6851.5875
2932.11205	6854.1875
2934.58258	6819.6875
2937.05161	6799.8875
2939.51912	6831.8875
2941.98513	6820.0875
2944.44962	6775.9875
2946.91261	6750.8875
2949.37409	6783.4875
2951.83407	6758.4875
2954.29254	6776.2875
2956.74951	6748.4875
2959.20498	6753.6875
2961.65895	6705.1875
2964.11142	6708.6875
2966.56239	6675.1875
2969.01186	6684.4875
2971.45984	6656.7875
2973.90632	6654.3875
2976.35131	6619.4875
2978.7948	6629.9875
2981.23681	6597.6875
2983.67732	6594.5875
2986.11635	6567.0875
2988.55388	6553.9875
2990.98993	6547.1875
2993.4245	6535.8875
2995.85758	6515.5875
2998.28917	6512.3875
3000.71928	6501.2875
3003.14791	6477.1875
3005.57506	6474.1875
3008.00073	6452.9875
3010.42493	6432.0875
3012.84764	6455.8875
3015.26888	6435.3875
3017.68865	6431.0875
3020.10694	6433.6875
3022.52376	6411.0875
3024.9391	6399.4875
3027.35298	6398.1875
3029.76539	6383.6875
3032.17632	6371.5875
3034.5858	6359.4875
3036.9938	6345.3875
3039.40034	6354.3875
3041.80542	6333.3875
3044.20903	6330.2875
3046.61118	6335.8875
3049.01187	6329.0875
3051.4111	6319.5875
3053.80888	6320.4875
3056.20519	6299.9875
3058.60005	6289.4875
3060.99345	6282.2875
3063.3854	6281.6875
3065.7759	6267.1875
3068.16494	6243.4875
3070.55254	6219.2875
3072.93868	6209.2875
3075.32338	6203.5875
3077.70662	6161.3875
