Data from AgNPs_FTO_APTES_UA_50uM_CRN_500uM_R6G_10uM_NaF_0.1M_Addition_RamanShift__5__16-47-43-521.txt Node

Date: Mon Feb 21 16:47:43 GMT 2022
User: TCL
Spectrometer: QEP01345
Trigger mode: 4
Integration Time (sec): 7.000000E0
Scans to average: 10
Electric dark correction enabled: true
Nonlinearity correction enabled: false
Boxcar width: 0
XAxis mode: Raman Shifts
Number of Pixels in Spectrum: 1044
>>>>>Begin Spectral Data<<<<<
46.04893	-0.475
50.45542	-0.575
54.85868	0.325
59.25871	-1.075
63.6555	42.125
68.04907	48.825
72.43941	54.625
76.82654	53.125
81.21044	59.125
85.59113	60.225
89.96862	63.725
94.34289	60.825
98.71396	64.525
103.08183	69.525
107.4465	69.925
111.80798	72.725
116.16626	70.625
120.52136	72.925
124.87327	74.325
129.222	76.725
133.56755	83.325
137.90993	85.025
142.24913	90.725
146.58517	99.725
150.91804	111.425
155.24774	133.125
159.57429	158.825
163.89768	204.925
168.21792	266.025
172.53501	358.725
176.84895	503.225
181.15975	708.425
185.46741	995.525
189.77193	1369.425
194.07331	1837.825
198.37157	2372.725
202.6667	2933.325
206.9587	3484.425
211.24758	4043.525
215.53334	4598.525
219.81599	5189.325
224.09553	5839.925
228.37195	6566.225
232.64527	7377.225
236.91549	8190.025
241.18261	9012.725
245.44663	9760.025
249.70755	10367.925
253.96539	10871.325
258.22014	11320.525
262.4718	11677.425
266.72039	11950.825
270.96589	12089.825
275.20832	12038.525
279.44768	11927.125
283.68397	11743.025
287.91719	11595.625
292.14735	11508.625
296.37445	11538.125
300.59849	11705.525
304.81948	11878.525
309.03742	12018.125
313.25231	11987.725
317.46415	11740.925
321.67296	11393.525
325.87872	11043.325
330.08145	10872.825
334.28114	10860.025
338.47781	10959.025
342.67145	11123.525
346.86207	11348.925
351.04966	11667.925
355.23424	11984.025
359.4158	12267.125
363.59435	12436.725
367.76989	12538.325
371.94243	12586.725
376.11196	12615.025
380.27849	12639.925
384.44203	12659.225
388.60257	12656.525
392.76012	12718.425
396.91468	12830.125
401.06626	12999.525
405.21485	13112.125
409.36047	12988.225
413.50311	12660.825
417.64277	12345.425
421.77947	12204.725
425.9132	12146.825
430.04396	12187.525
434.17176	12279.925
438.2966	12360.325
442.41849	12544.225
446.53742	12801.825
450.6534	13090.325
454.76644	13248.725
458.87653	13305.825
462.98368	13214.625
467.08789	13106.225
471.18916	12951.125
475.2875	12785.725
479.38291	12614.925
483.4754	12471.225
487.56496	12415.025
491.6516	12295.325
495.73531	12249.525
499.81612	12225.425
503.89401	12291.525
507.96899	12351.825
512.04106	12391.125
516.11023	12491.125
520.1765	12521.025
524.23987	12507.325
528.30034	12426.625
532.35792	12368.125
536.41261	12258.125
540.46441	12112.325
544.51333	12047.625
548.55936	12099.525
552.60252	12299.425
556.64279	12498.725
560.6802	12633.625
564.71473	12655.125
568.7464	12831.325
572.7752	12981.425
576.80114	12939.725
580.82422	12951.425
584.84444	13045.125
588.86181	13281.125
592.87633	13581.025
596.888	13674.825
600.89682	13707.325
604.9028	14229.125
608.90594	16027.325
612.90624	18305.125
616.90371	17582.725
620.89834	14247.525
624.89015	12690.425
628.87913	12413.525
632.86528	12539.825
636.84862	12690.325
640.82913	12545.225
644.80683	12268.025
648.78172	12025.825
652.75379	11993.425
656.72306	12157.225
660.68952	12449.225
664.65319	12352.525
668.61405	12021.925
672.57211	11956.225
676.52738	12026.825
680.47986	12038.025
684.42955	11979.625
688.37646	11862.525
692.32058	11876.025
696.26192	11961.025
700.20048	12030.725
704.13626	12065.925
708.06928	12066.725
711.99952	11989.025
715.927	11983.125
719.85171	12036.425
723.77365	12036.625
727.69284	11933.925
731.60928	11873.225
735.52295	11824.725
739.43388	11821.725
743.34206	11855.425
747.24749	11911.125
751.15017	11942.225
755.05012	12021.825
758.94733	12349.825
762.8418	13013.825
766.73354	14193.325
770.62254	15466.725
774.50882	16034.025
778.39237	15475.425
782.27321	14176.425
786.15132	12970.925
790.02671	12256.425
793.89938	11927.425
797.76935	11814.825
801.6366	11736.225
805.50115	11678.925
809.36299	11626.525
813.22213	11575.325
817.07857	11565.125
820.93231	11553.825
824.78336	11521.525
828.63172	11488.525
832.47738	11480.225
836.32036	11453.625
840.16066	11460.725
843.99827	11463.325
847.8332	11432.025
851.66546	11426.625
855.49504	11437.225
859.32195	11440.225
863.1462	11420.725
866.96777	11409.225
870.78668	11438.325
874.60293	11421.225
878.41652	11457.125
882.22745	11490.225
886.03573	11558.225
889.84136	11542.625
893.64433	11491.225
897.44466	11444.425
901.24235	11416.325
905.0374	11342.325
908.8298	11316.625
912.61957	11255.625
916.40671	11280.825
920.19121	11376.925
923.97308	11445.325
927.75233	11481.225
931.52895	11527.225
935.30295	11442.425
939.07433	11254.225
942.84309	11099.925
946.60924	10983.325
950.37278	10898.425
954.13371	10874.125
957.89203	10848.025
961.64774	10804.125
965.40086	10789.925
969.15137	10758.825
972.89929	10758.925
976.64461	10755.125
980.38733	10719.025
984.12747	10741.325
987.86502	10788.525
991.59999	10876.125
995.33237	10996.625
999.06217	11116.225
1002.78939	11300.425
1006.51404	11434.025
1010.23611	11577.425
1013.95561	11652.325
1017.67255	11687.725
1021.38692	11598.925
1025.09872	11498.125
1028.80796	11447.425
1032.51465	11515.725
1036.21877	11656.525
1039.92035	11728.125
1043.61937	11701.325
1047.31584	11594.425
1051.00976	11514.925
1054.70114	11452.525
1058.38998	11419.025
1062.07627	11438.425
1065.76003	11471.725
1069.44126	11505.225
1073.11995	11601.825
1076.79611	11704.425
1080.46974	11824.825
1084.14085	11943.225
1087.80943	12104.325
1091.47549	12175.925
1095.13903	12122.625
1098.80005	11970.725
1102.45857	11769.925
1106.11456	11657.325
1109.76805	11635.125
1113.41903	11761.225
1117.06751	11922.025
1120.71348	12174.225
1124.35696	12432.325
1127.99793	12703.225
1131.63641	12756.825
1135.2724	12528.625
1138.90589	12275.125
1142.5369	12094.525
1146.16542	11950.125
1149.79145	11874.425
1153.415	11865.625
1157.03607	11920.225
1160.65467	12095.325
1164.27079	12414.125
1167.88443	12883.725
1171.49561	13563.825
1175.10432	14522.525
1178.71056	15835.125
1182.31434	16977.625
1185.91565	17478.025
1189.51451	17319.925
1193.11091	16694.225
1196.70485	15896.825
1200.29634	15232.125
1203.88538	14691.825
1207.47197	14097.025
1211.05612	13542.725
1214.63782	13188.525
1218.21708	13022.625
1221.79391	12936.625
1225.36829	12919.225
1228.94024	12903.325
1232.50976	12793.825
1236.07685	12704.825
1239.6415	12677.225
1243.20374	12678.425
1246.76355	12692.725
1250.32093	12826.725
1253.8759	12978.525
1257.42845	13237.325
1260.97859	13510.525
1264.52631	13796.325
1268.07163	14147.225
1271.61453	14469.025
1275.15503	14696.525
1278.69312	14922.225
1282.22882	15082.425
1285.76211	15307.825
1289.29301	15661.925
1292.82151	16176.125
1296.34761	16771.825
1299.87133	17532.425
1303.39266	18591.625
1306.9116	19943.225
1310.42815	21298.825
1313.94233	22072.925
1317.45412	21722.125
1320.96354	20666.025
1324.47058	19588.625
1327.97525	18604.025
1331.47754	17869.025
1334.97747	17505.225
1338.47502	17436.125
1341.97022	17656.325
1345.46305	18066.525
1348.95352	18754.125
1352.44163	19687.625
1355.92738	20916.825
1359.41078	22717.125
1362.89183	24413.625
1366.37053	24039.625
1369.84688	21337.825
1373.32088	18308.825
1376.79254	16442.725
1380.26186	15543.125
1383.72883	15150.225
1387.19347	14829.725
1390.65578	14483.125
1394.11575	14223.325
1397.57339	14089.125
1401.0287	14040.925
1404.48168	14065.425
1407.93234	14020.125
1411.38068	13894.525
1414.82669	13775.625
1418.27039	13613.525
1421.71177	13390.025
1425.15083	13181.925
1428.58758	13023.725
1432.02203	13045.325
1435.45416	13229.225
1438.88399	13384.825
1442.31151	13467.325
1445.73673	13551.625
1449.15965	13591.025
1452.58027	13617.825
1455.9986	13545.125
1459.41463	13573.925
1462.82837	13731.925
1466.23982	13910.825
1469.64898	14137.825
1473.05586	14322.325
1476.46045	14489.325
1479.86276	14595.925
1483.26279	14661.225
1486.66054	14803.625
1490.05602	15035.925
1493.44922	15485.125
1496.84016	16132.525
1500.22882	17191.125
1503.61521	18657.625
1506.99934	20304.525
1510.38121	21597.725
1513.76081	21862.325
1517.13816	20817.325
1520.51324	18942.825
1523.88607	17245.425
1527.25665	16162.425
1530.62498	15629.125
1533.99105	15287.125
1537.35488	15003.325
1540.71647	14778.325
1544.07581	14515.325
1547.4329	14339.425
1550.78776	14181.825
1554.14038	14107.425
1557.49077	14151.025
1560.83892	14226.425
1564.18484	14423.725
1567.52853	14694.025
1570.86999	14979.325
1574.20922	15187.325
1577.54624	15234.325
1580.88103	14853.825
1584.2136	14308.425
1587.54395	14035.325
1590.87208	14205.425
1594.19801	14751.725
1597.52172	15493.225
1600.84321	15862.125
1604.16251	15554.325
1607.47959	14862.925
1610.79447	14030.825
1614.10715	13190.925
1617.41763	12481.225
1620.7259	11934.525
1624.03199	11675.425
1627.33587	11649.625
1630.63757	11837.125
1633.93707	12270.625
1637.23439	13032.525
1640.52951	14210.125
1643.82246	15799.625
1647.11321	17419.725
1650.40179	18304.425
1653.68819	17635.425
1656.97241	15744.825
1660.25446	13686.525
1663.53433	12179.625
1666.81203	11311.025
1670.08756	10762.425
1673.36092	10429.925
1676.63211	10239.825
1679.90115	10070.025
1683.16801	9931.425
1686.43272	9849.425
1689.69527	9741.025
1692.95567	9686.925
1696.2139	9598.225
1699.46999	9543.625
1702.72392	9498.725
1705.97571	9490.525
1709.22535	9485.125
1712.47284	9451.025
1715.71819	9436.325
1718.96139	9425.425
1722.20246	9379.425
1725.44139	9372.025
1728.67818	9340.025
1731.91284	9280.425
1735.14537	9226.525
1738.37576	9182.825
1741.60403	9156.325
1744.83017	9125.825
1748.05418	9106.025
1751.27607	9107.625
1754.49584	9099.125
1757.71349	9082.425
1760.92903	9073.625
1764.14244	9060.025
1767.35375	8991.225
1770.56294	8998.525
1773.77002	8969.325
1776.97499	8947.225
1780.17785	8930.825
1783.37861	8928.925
1786.57727	8918.025
1789.77382	8848.625
1792.96828	8872.925
1796.16064	8819.825
1799.3509	8788.025
1802.53907	8803.425
1805.72514	8755.325
1808.90913	8720.725
1812.09102	8718.525
1815.27083	8704.825
1818.44856	8692.925
1821.6242	8668.425
1824.79776	8652.425
1827.96924	8639.125
1831.13864	8644.025
1834.30597	8616.125
1837.47122	8602.225
1840.6344	8580.625
1843.7955	8572.025
1846.95454	8574.725
1850.11151	8552.725
1853.26642	8552.925
1856.41926	8546.225
1859.57004	8531.925
1862.71876	8531.225
1865.86542	8513.225
1869.01003	8519.525
1872.15258	8507.625
1875.29308	8513.125
1878.43152	8489.825
1881.56792	8468.525
1884.70227	8458.225
1887.83457	8467.825
1890.96482	8456.025
1894.09304	8447.825
1897.21921	8440.325
1900.34335	8438.325
1903.46544	8413.025
1906.58551	8422.525
1909.70353	8408.225
1912.81953	8400.825
1915.93349	8366.125
1919.04543	8350.725
1922.15534	8320.425
1925.26322	8320.825
1928.36908	8281.925
1931.47292	8245.525
1934.57473	8252.125
1937.67453	8241.725
1940.77232	8213.825
1943.86808	8199.525
1946.96184	8160.625
1950.05358	8141.825
1953.14331	8120.425
1956.23103	8101.425
1959.31675	8073.825
1962.40046	8056.325
1965.48217	8045.225
1968.56188	8034.325
1971.63959	8006.925
1974.7153	7964.525
1977.78901	7950.225
1980.86073	7926.725
1983.93046	7920.525
1986.99819	7881.425
1990.06394	7849.125
1993.1277	7818.225
1996.18947	7795.125
1999.24925	7761.725
2002.30706	7746.625
2005.36288	7716.525
2008.41672	7691.425
2011.46859	7663.725
2014.51848	7689.925
2017.56639	7639.525
2020.61233	7632.925
2023.6563	7587.625
2026.6983	7560.325
2029.73833	7569.425
2032.7764	7544.425
2035.8125	7532.425
2038.84664	7517.925
2041.87881	7487.725
2044.90903	7474.625
2047.93729	7457.125
2050.96359	7449.425
2053.98794	7442.225
2057.01034	7449.625
2060.03078	7435.025
2063.04927	7431.425
2066.06582	7423.325
2069.08042	7414.425
2072.09307	7399.825
2075.10378	7405.025
2078.11255	7404.525
2081.11938	7405.725
2084.12426	7382.225
2087.12722	7382.725
2090.12824	7373.725
2093.12732	7372.225
2096.12447	7380.725
2099.11969	7366.425
2102.11299	7374.825
2105.10435	7372.425
2108.09379	7394.425
2111.08131	7388.625
2114.0669	7368.925
2117.05057	7383.925
2120.03233	7390.425
2123.01216	7403.925
2125.99008	7412.525
2128.96609	7402.125
2131.94018	7423.125
2134.91236	7427.225
2137.88263	7427.225
2140.851	7405.225
2143.81746	7423.025
2146.78201	7408.025
2149.74466	7427.925
2152.7054	7434.325
2155.66425	7414.925
2158.6212	7411.425
2161.57625	7406.225
2164.52941	7383.225
2167.48067	7402.625
2170.43004	7409.225
2173.37752	7411.525
2176.32311	7375.225
2179.26681	7410.025
2182.20863	7397.525
2185.14856	7412.925
2188.08661	7384.325
2191.02278	7388.925
2193.95707	7372.825
2196.88948	7377.025
2199.82001	7360.025
2202.74867	7360.625
2205.67545	7364.425
2208.60037	7344.825
2211.52341	7321.125
2214.44458	7321.725
2217.36388	7314.925
2220.28132	7306.425
2223.1969	7284.825
2226.11061	7260.125
2229.02246	7257.825
2231.93245	7242.025
2234.84058	7222.825
2237.74686	7225.625
2240.65128	7189.125
2243.55385	7179.525
2246.45456	7179.925
2249.35343	7177.025
2252.25044	7158.725
2255.14561	7163.125
2258.03893	7155.125
2260.93041	7150.725
2263.82004	7124.525
2266.70783	7106.525
2269.59378	7100.125
2272.4779	7072.125
2275.36017	7062.525
2278.24061	7051.925
2281.11922	7021.325
2283.996	7025.925
2286.87094	7031.225
2289.74405	6987.125
2292.61534	6970.425
2295.4848	6988.325
2298.35243	6991.025
2301.21824	6983.925
2304.08223	6959.425
2306.94439	6953.025
2309.80474	6960.525
2312.66327	6954.125
2315.51999	6939.725
2318.37489	6948.425
2321.22797	6947.425
2324.07925	6918.925
2326.92871	6930.525
2329.77637	6921.325
2332.62222	6894.625
2335.46626	6897.425
2338.3085	6873.825
2341.14893	6852.025
2343.98756	6870.225
2346.8244	6865.225
2349.65943	6867.125
2352.49267	6858.225
2355.32411	6856.325
2358.15376	6864.225
2360.98161	6867.525
2363.80768	6852.225
2366.63195	6861.125
2369.45444	6844.625
2372.27514	6839.525
2375.09405	6849.325
2377.91118	6829.725
2380.72652	6803.225
2383.54009	6769.325
2386.35187	6783.325
2389.16188	6754.325
2391.97011	6752.225
2394.77657	6717.825
2397.58125	6722.525
2400.38416	6687.525
2403.18529	6686.125
2405.98466	6668.125
2408.78226	6649.925
2411.57809	6642.625
2414.37216	6624.325
2417.16446	6654.625
2419.955	6625.325
2422.74378	6625.825
2425.5308	6618.025
2428.31606	6605.925
2431.09956	6622.625
2433.88131	6586.525
2436.6613	6604.125
2439.43954	6593.025
2442.21603	6582.625
2444.99077	6595.625
2447.76377	6575.625
2450.53501	6592.425
2453.30451	6607.425
2456.07226	6582.225
2458.83827	6557.625
2461.60254	6567.125
2464.36507	6560.325
2467.12586	6557.225
2469.88492	6550.625
2472.64224	6562.125
2475.39782	6548.825
2478.15167	6561.325
2480.90379	6558.825
2483.65417	6565.325
2486.40283	6565.725
2489.14976	6566.125
2491.89497	6574.525
2494.63845	6577.625
2497.3802	6554.425
2500.12024	6560.525
2502.85855	6548.925
2505.59514	6522.325
2508.33002	6515.525
2511.06318	6517.525
2513.79462	6504.225
2516.52435	6488.325
2519.25237	6446.725
2521.97867	6451.225
2524.70327	6467.125
2527.42616	6437.725
2530.14734	6442.725
2532.86681	6417.325
2535.58458	6408.525
2538.30065	6408.925
2541.01501	6415.725
2543.72768	6409.325
2546.43864	6400.025
2549.14791	6381.625
2551.85548	6390.225
2554.56136	6373.325
2557.26554	6381.425
2559.96803	6368.725
2562.66883	6332.925
2565.36794	6337.725
2568.06536	6334.525
2570.7611	6304.125
2573.45514	6328.725
2576.14751	6306.225
2578.83819	6285.125
2581.52719	6271.825
2584.21451	6271.825
2586.90015	6254.425
2589.58411	6253.725
2592.2664	6267.025
2594.94701	6235.625
2597.62594	6238.325
2600.30321	6192.325
2602.9788	6193.525
2605.65273	6201.425
2608.32498	6193.525
2610.99557	6195.125
2613.66449	6195.725
2616.33175	6179.825
2618.99734	6183.225
2621.66128	6179.825
2624.32355	6163.725
2626.98416	6159.925
2629.64311	6145.625
2632.30041	6131.325
2634.95605	6133.525
2637.61004	6142.025
2640.26238	6134.825
2642.91306	6098.925
2645.56209	6100.725
2648.20948	6102.625
2650.85521	6092.125
2653.4993	6090.225
2656.14175	6094.125
2658.78255	6100.525
2661.42171	6112.725
2664.05923	6100.925
2666.6951	6106.625
2669.32934	6120.525
2671.96194	6118.925
2674.59291	6099.625
2677.22224	6107.325
2679.84993	6118.925
2682.476	6098.825
2685.10043	6096.325
2687.72324	6100.625
2690.34441	6083.725
2692.96396	6083.825
2695.58188	6081.025
2698.19818	6089.025
2700.81285	6079.325
2703.4259	6079.325
2706.03733	6082.425
2708.64714	6080.125
2711.25533	6076.525
2713.86191	6087.725
2716.46687	6079.925
2719.07021	6102.825
2721.67194	6128.725
2724.27206	6082.225
2726.87057	6097.125
2729.46747	6114.725
2732.06276	6126.125
2734.65644	6102.125
2737.24852	6087.125
2739.83899	6079.025
2742.42786	6069.025
2745.01513	6057.225
2747.60079	6069.425
2750.18486	6058.125
2752.76733	6057.625
2755.3482	6041.425
2757.92747	6035.625
2760.50515	6028.925
2763.08123	6032.325
2765.65573	6038.725
2768.22863	6027.425
2770.79994	5999.525
2773.36967	6005.525
2775.9378	6002.025
2778.50435	5997.225
2781.06932	5986.325
2783.6327	5985.725
2786.1945	5981.025
2788.75471	5965.725
2791.31335	5962.725
2793.87041	5970.025
2796.42589	5945.225
2798.97979	5940.125
2801.53212	5922.125
2804.08288	5918.725
2806.63206	5913.625
2809.17967	5895.125
2811.72571	5881.525
2814.27018	5891.525
2816.81308	5885.125
2819.35442	5875.025
2821.89419	5871.725
2824.43239	5876.525
2826.96904	5862.025
2829.50412	5863.425
2832.03763	5845.925
2834.56959	5863.825
2837.1	5835.325
2839.62884	5852.225
2842.15613	5841.425
2844.68186	5890.225
2847.20604	5895.625
2849.72867	5892.025
2852.24974	5895.425
2854.76927	5882.325
2857.28724	5882.425
2859.80367	5855.125
2862.31855	5879.325
2864.83189	5857.725
2867.34368	5850.525
2869.85393	5846.025
2872.36264	5850.525
2874.8698	5848.125
2877.37543	5834.325
2879.87952	5844.425
2882.38207	5845.025
2884.88308	5837.125
2887.38256	5842.725
2889.88051	5839.925
2892.37692	5859.825
2894.8718	5862.025
2897.36515	5857.425
2899.85698	5851.125
2902.34727	5861.825
2904.83604	5870.525
2907.32328	5905.625
2909.809	5908.625
2912.29319	5897.325
2914.77587	5893.925
2917.25702	5914.125
2919.73665	5900.125
2922.21476	5898.425
2924.69136	5906.625
2927.16644	5916.725
2929.64	5897.825
2932.11205	5887.825
2934.58258	5875.025
2937.05161	5872.625
2939.51912	5853.225
2941.98513	5835.425
2944.44962	5836.425
2946.91261	5813.425
2949.37409	5825.525
2951.83407	5786.825
2954.29254	5809.725
2956.74951	5800.925
2959.20498	5769.625
2961.65895	5787.625
2964.11142	5763.225
2966.56239	5755.125
2969.01186	5767.125
2971.45984	5734.225
2973.90632	5737.625
2976.35131	5713.825
2978.7948	5701.125
2981.23681	5687.425
2983.67732	5669.425
2986.11635	5657.625
2988.55388	5647.525
2990.98993	5653.725
2993.4245	5626.025
2995.85758	5627.825
2998.28917	5606.725
3000.71928	5595.825
3003.14791	5596.125
3005.57506	5581.625
3008.00073	5575.725
3010.42493	5556.225
3012.84764	5565.625
3015.26888	5562.425
3017.68865	5565.525
3020.10694	5554.425
3022.52376	5545.025
3024.9391	5541.525
3027.35298	5518.025
3029.76539	5516.825
3032.17632	5517.525
3034.5858	5488.625
3036.9938	5482.025
3039.40034	5476.425
3041.80542	5483.125
3044.20903	5464.925
3046.61118	5465.625
3049.01187	5458.225
3051.4111	5470.025
3053.80888	5452.425
3056.20519	5437.825
3058.60005	5438.825
3060.99345	5437.925
3063.3854	5425.025
3065.7759	5411.825
3068.16494	5405.425
3070.55254	5400.725
3072.93868	5385.025
3075.32338	5367.725
3077.70662	5378.525
3080.08842	5323.925
3082.46878	5366.225
3084.84769	5329.325
3087.22515	5337.325
3089.60118	5340.925
3091.97576	5334.325
3094.3489	5341.225
3096.72061	5355.225
3099.09087	5349.825
3101.4597	5344.925
3103.82709	5361.225
3106.19305	5360.825
3108.55757	5354.925
3110.92066	5321.825
3113.28232	5328.725
3115.64255	5336.725
3118.00134	5316.225
3120.35871	5317.625
3122.71466	5305.325
3125.06917	5296.525
3127.42226	5290.325
3129.77393	5285.925
3132.12417	5287.725
3134.47299	5283.825
3136.82039	5298.725
3139.16636	5305.925
3141.51092	5300.125
3143.85406	5284.525
3146.19579	5291.125
3148.53609	5308.725
3150.87499	5314.425
3153.21246	5324.225
3155.54853	5335.225
3157.88318	5326.825
3160.21642	5341.625
3162.54826	5338.725
3164.87868	5351.425
3167.2077	5325.425
3169.5353	5341.925
3171.86151	5343.425
3174.18631	5349.125
3176.5097	5332.625
3178.83169	5325.525
3181.15228	5323.525
3183.47147	5315.325
3185.78926	5322.925
3188.10565	5309.025
3190.42065	5315.625
