Data from AgNPs_FTO_APTES_UA_50uM_CRN_10uM_R6G_10uM_NaF_0.1M_Addition_RamanShift__9__13-23-54-870.txt Node

Date: Mon Feb 21 13:23:54 GMT 2022
User: TCL
Spectrometer: QEP01345
Trigger mode: 4
Integration Time (sec): 7.000000E0
Scans to average: 10
Electric dark correction enabled: true
Nonlinearity correction enabled: false
Boxcar width: 0
XAxis mode: Raman Shifts
Number of Pixels in Spectrum: 1044
>>>>>Begin Spectral Data<<<<<
46.04893	-0.675
50.45542	-0.475
54.85868	-0.475
59.25871	-1.375
63.6555	63.325
68.04907	74.325
72.43941	75.525
76.82654	76.825
81.21044	81.825
85.59113	85.925
89.96862	91.525
94.34289	92.325
98.71396	94.225
103.08183	95.225
107.4465	104.025
111.80798	99.825
116.16626	102.325
120.52136	103.525
124.87327	111.325
129.222	114.925
133.56755	118.325
137.90993	131.925
142.24913	143.725
146.58517	156.425
150.91804	180.825
155.24774	215.825
159.57429	263.625
163.89768	335.525
168.21792	448.225
172.53501	611.725
176.84895	853.825
181.15975	1194.125
185.46741	1676.925
189.77193	2312.325
194.07331	3078.925
198.37157	3984.525
202.6667	4928.925
206.9587	5821.025
211.24758	6718.025
215.53334	7628.325
219.81599	8632.125
224.09553	9683.325
228.37195	10879.625
232.64527	12198.925
236.91549	13602.625
241.18261	14986.425
245.44663	16281.625
249.70755	17350.225
253.96539	18281.625
258.22014	19050.625
262.4718	19665.625
266.72039	20054.125
270.96589	20250.025
275.20832	20227.225
279.44768	20061.625
283.68397	19822.025
287.91719	19621.725
292.14735	19451.825
296.37445	19397.225
300.59849	19416.225
304.81948	19466.225
309.03742	19530.625
313.25231	19429.525
317.46415	19199.925
321.67296	18852.425
325.87872	18592.325
330.08145	18490.325
334.28114	18540.325
338.47781	18636.725
342.67145	18874.625
346.86207	19208.725
351.04966	19590.925
355.23424	19996.525
359.4158	20351.425
363.59435	20528.425
367.76989	20665.225
371.94243	20735.425
376.11196	20831.725
380.27849	20914.525
384.44203	20981.825
388.60257	21188.425
392.76012	21334.725
396.91468	21547.725
401.06626	21899.325
405.21485	22047.425
409.36047	21936.725
413.50311	21593.125
417.64277	21399.325
421.77947	21413.825
425.9132	21476.625
430.04396	21578.325
434.17176	21717.325
438.2966	21963.625
442.41849	22433.925
446.53742	23115.525
450.6534	23758.525
454.76644	24175.125
458.87653	24240.925
462.98368	24167.425
467.08789	23875.325
471.18916	23407.325
475.2875	23002.825
479.38291	22586.625
483.4754	22356.225
487.56496	22156.625
491.6516	21910.925
495.73531	21745.325
499.81612	21689.225
503.89401	21850.425
507.96899	21953.925
512.04106	21924.925
516.11023	21839.625
520.1765	21699.825
524.23987	21584.925
528.30034	21480.925
532.35792	21364.625
536.41261	21160.625
540.46441	20916.025
544.51333	20826.125
548.55936	20976.125
552.60252	21379.825
556.64279	21968.725
560.6802	22352.325
564.71473	22488.525
568.7464	22743.225
572.7752	23340.725
576.80114	24064.725
580.82422	24772.825
584.84444	25646.925
588.86181	27155.025
592.87633	28849.825
596.888	29472.625
600.89682	28299.825
604.9028	27475.225
608.90594	28641.125
612.90624	30294.725
616.90371	28229.825
620.89834	23951.425
624.89015	22034.425
628.87913	21857.025
632.86528	22046.325
636.84862	22030.825
640.82913	21672.825
644.80683	21102.725
648.78172	20781.625
652.75379	20702.225
656.72306	21044.025
660.68952	21415.625
664.65319	21243.925
668.61405	20873.725
672.57211	20840.525
676.52738	21047.725
680.47986	21040.825
684.42955	20869.925
688.37646	20710.725
692.32058	20853.425
696.26192	21092.825
700.20048	21427.225
704.13626	21592.825
708.06928	21512.825
711.99952	21383.625
715.927	21424.825
719.85171	21478.025
723.77365	21430.425
727.69284	21142.725
731.60928	20862.525
735.52295	20818.825
739.43388	20869.425
743.34206	20972.725
747.24749	21115.325
751.15017	21299.625
755.05012	21680.025
758.94733	22231.125
762.8418	23282.125
766.73354	25033.725
770.62254	26706.325
774.50882	27048.325
778.39237	25897.725
782.27321	24181.225
786.15132	22728.625
790.02671	21762.725
793.89938	21251.825
797.76935	20963.825
801.6366	20826.225
805.50115	20700.425
809.36299	20583.125
813.22213	20484.125
817.07857	20375.225
820.93231	20256.625
824.78336	20166.425
828.63172	20157.325
832.47738	20142.125
836.32036	20085.125
840.16066	20099.525
843.99827	20146.125
847.8332	20118.225
851.66546	20153.225
855.49504	20169.325
859.32195	20186.925
863.1462	20129.625
866.96777	20120.025
870.78668	20128.025
874.60293	20136.025
878.41652	20192.225
882.22745	20246.625
886.03573	20366.325
889.84136	20373.225
893.64433	20286.925
897.44466	20232.725
901.24235	20201.025
905.0374	20151.525
908.8298	20041.025
912.61957	20021.025
916.40671	20185.425
920.19121	20434.125
923.97308	20714.025
927.75233	20799.925
931.52895	20622.425
935.30295	20276.825
939.07433	19917.825
942.84309	19630.725
946.60924	19490.525
950.37278	19458.725
954.13371	19447.025
957.89203	19445.325
961.64774	19456.625
965.40086	19453.225
969.15137	19452.725
972.89929	19363.525
976.64461	19322.325
980.38733	19363.125
984.12747	19386.225
987.86502	19456.425
991.59999	19599.225
995.33237	19792.725
999.06217	20185.325
1002.78939	20685.225
1006.51404	21265.525
1010.23611	21745.625
1013.95561	22031.025
1017.67255	22056.525
1021.38692	21837.925
1025.09872	21349.925
1028.80796	21003.825
1032.51465	20919.125
1036.21877	20968.525
1039.92035	21033.725
1043.61937	21043.125
1047.31584	21051.425
1051.00976	20939.225
1054.70114	20946.225
1058.38998	21055.325
1062.07627	21213.525
1065.76003	21471.925
1069.44126	21735.125
1073.11995	22160.425
1076.79611	22489.125
1080.46974	22779.525
1084.14085	23043.425
1087.80943	23323.525
1091.47549	23570.725
1095.13903	23548.525
1098.80005	23230.825
1102.45857	22699.125
1106.11456	22308.525
1109.76805	22181.625
1113.41903	22211.325
1117.06751	22411.925
1120.71348	22686.025
1124.35696	22926.925
1127.99793	23236.125
1131.63641	23378.025
1135.2724	23321.525
1138.90589	23250.325
1142.5369	23290.225
1146.16542	23380.725
1149.79145	23621.025
1153.415	23853.625
1157.03607	24121.325
1160.65467	24684.725
1164.27079	25657.525
1167.88443	26924.025
1171.49561	28532.825
1175.10432	30632.025
1178.71056	33157.925
1182.31434	35461.525
1185.91565	36559.425
1189.51451	36304.725
1193.11091	35337.825
1196.70485	34016.725
1200.29634	32587.925
1203.88538	31346.125
1207.47197	30493.125
1211.05612	29835.725
1214.63782	29219.525
1218.21708	28740.925
1221.79391	28403.125
1225.36829	28268.025
1228.94024	28142.725
1232.50976	27719.725
1236.07685	27139.025
1239.6415	26687.425
1243.20374	26571.125
1246.76355	26645.025
1250.32093	26902.825
1253.8759	27412.025
1257.42845	28163.825
1260.97859	29120.925
1264.52631	30163.325
1268.07163	31178.125
1271.61453	32103.825
1275.15503	32964.225
1278.69312	33866.025
1282.22882	34925.625
1285.76211	36183.025
1289.29301	37625.925
1292.82151	39309.625
1296.34761	41289.225
1299.87133	43599.025
1303.39266	45985.425
1306.9116	48247.625
1310.42815	50077.025
1313.94233	50993.725
1317.45412	50504.225
1320.96354	49185.825
1324.47058	47897.125
1327.97525	46748.025
1331.47754	46016.225
1334.97747	45520.925
1338.47502	45248.925
1341.97022	45019.625
1345.46305	44793.625
1348.95352	44698.725
1352.44163	45127.225
1355.92738	46448.125
1359.41078	48608.125
1362.89183	50567.825
1366.37053	50220.725
1369.84688	46383.625
1373.32088	41281.825
1376.79254	37593.725
1380.26186	36091.625
1383.72883	35810.225
1387.19347	35662.425
1390.65578	35121.025
1394.11575	34800.825
1397.57339	34924.625
1401.0287	35275.725
1404.48168	35560.825
1407.93234	35533.225
1411.38068	35029.425
1414.82669	34283.725
1418.27039	33320.725
1421.71177	32273.725
1425.15083	31379.125
1428.58758	30883.325
1432.02203	31171.025
1435.45416	31822.425
1438.88399	32544.425
1442.31151	33015.125
1445.73673	33298.125
1449.15965	33457.125
1452.58027	33423.125
1455.9986	33383.925
1459.41463	33567.825
1462.82837	34109.225
1466.23982	34914.125
1469.64898	35685.425
1473.05586	36254.025
1476.46045	36562.125
1479.86276	36642.225
1483.26279	36573.525
1486.66054	36633.725
1490.05602	36983.125
1493.44922	37640.625
1496.84016	38215.225
1500.22882	38862.725
1503.61521	39646.825
1506.99934	40627.425
1510.38121	41216.725
1513.76081	41117.725
1517.13816	40125.325
1520.51324	38888.625
1523.88607	37875.325
1527.25665	37442.125
1530.62498	37282.925
1533.99105	36935.525
1537.35488	36224.925
1540.71647	35201.125
1544.07581	34132.225
1547.4329	33204.725
1550.78776	32531.125
1554.14038	32074.025
1557.49077	31904.825
1560.83892	31965.625
1564.18484	32065.325
1567.52853	32230.425
1570.86999	32572.225
1574.20922	33143.425
1577.54624	33532.425
1580.88103	33477.425
1584.2136	33518.025
1587.54395	34312.525
1590.87208	36002.225
1594.19801	38324.725
1597.52172	40480.025
1600.84321	41015.025
1604.16251	39257.425
1607.47959	36146.025
1610.79447	32966.625
1614.10715	30041.525
1617.41763	27790.225
1620.7259	26308.425
1624.03199	25572.125
1627.33587	25614.725
1630.63757	26515.925
1633.93707	28412.625
1637.23439	31568.625
1640.52951	36276.625
1643.82246	41896.825
1647.11321	46134.825
1650.40179	46445.925
1653.68819	42515.225
1656.97241	36308.625
1660.25446	30574.025
1663.53433	26552.825
1666.81203	24013.725
1670.08756	22457.625
1673.36092	21545.925
1676.63211	20958.725
1679.90115	20539.625
1683.16801	20177.425
1686.43272	19931.025
1689.69527	19723.625
1692.95567	19536.825
1696.2139	19340.525
1699.46999	19124.025
1702.72392	19054.025
1705.97571	19041.425
1709.22535	19140.825
1712.47284	19183.825
1715.71819	19162.825
1718.96139	19089.825
1722.20246	19018.325
1725.44139	18916.625
1728.67818	18817.925
1731.91284	18735.525
1735.14537	18632.925
1738.37576	18503.825
1741.60403	18438.925
1744.83017	18367.725
1748.05418	18289.225
1751.27607	18234.725
1754.49584	18168.725
1757.71349	18110.025
1760.92903	18058.125
1764.14244	18047.225
1767.35375	18041.825
1770.56294	17965.425
1773.77002	17951.125
1776.97499	17959.725
1780.17785	17973.525
1783.37861	17960.925
1786.57727	17940.225
1789.77382	17918.325
1792.96828	17895.325
1796.16064	17858.325
1799.3509	17809.425
1802.53907	17792.625
1805.72514	17783.125
1808.90913	17747.025
1812.09102	17712.125
1815.27083	17694.325
1818.44856	17657.825
1821.6242	17618.025
1824.79776	17634.225
1827.96924	17626.425
1831.13864	17690.125
1834.30597	17675.325
1837.47122	17674.325
1840.6344	17679.425
1843.7955	17670.925
1846.95454	17659.925
1850.11151	17665.425
1853.26642	17646.225
1856.41926	17626.125
1859.57004	17572.425
1862.71876	17584.025
1865.86542	17596.625
1869.01003	17507.025
1872.15258	17532.125
1875.29308	17508.125
1878.43152	17461.325
1881.56792	17482.625
1884.70227	17469.625
1887.83457	17443.425
1890.96482	17412.925
1894.09304	17369.825
1897.21921	17360.125
1900.34335	17360.425
1903.46544	17354.625
1906.58551	17281.125
1909.70353	17290.925
1912.81953	17239.825
1915.93349	17205.325
1919.04543	17163.625
1922.15534	17124.625
1925.26322	17089.225
1928.36908	17034.425
1931.47292	17019.825
1934.57473	16911.825
1937.67453	16890.625
1940.77232	16838.525
1943.86808	16803.125
1946.96184	16773.325
1950.05358	16740.425
1953.14331	16680.225
1956.23103	16640.625
1959.31675	16614.125
1962.40046	16555.925
1965.48217	16508.925
1968.56188	16478.925
1971.63959	16407.325
1974.7153	16383.125
1977.78901	16291.025
1980.86073	16273.725
1983.93046	16190.725
1986.99819	16144.025
1990.06394	16123.625
1993.1277	16093.925
1996.18947	16045.125
1999.24925	15969.125
2002.30706	15890.325
2005.36288	15864.225
2008.41672	15837.525
2011.46859	15795.025
2014.51848	15756.325
2017.56639	15725.225
2020.61233	15702.425
2023.6563	15646.625
2026.6983	15603.125
2029.73833	15584.025
2032.7764	15565.125
2035.8125	15518.825
2038.84664	15494.425
2041.87881	15470.425
2044.90903	15449.125
2047.93729	15423.225
2050.96359	15422.225
2053.98794	15396.725
2057.01034	15388.625
2060.03078	15388.525
2063.04927	15390.025
2066.06582	15397.625
2069.08042	15387.525
2072.09307	15343.125
2075.10378	15331.225
2078.11255	15341.225
2081.11938	15359.825
2084.12426	15323.325
2087.12722	15315.225
2090.12824	15352.925
2093.12732	15327.625
2096.12447	15371.625
2099.11969	15358.625
2102.11299	15361.625
2105.10435	15374.925
2108.09379	15318.025
2111.08131	15347.125
2114.0669	15358.825
2117.05057	15387.825
2120.03233	15393.825
2123.01216	15417.925
2125.99008	15412.125
2128.96609	15409.125
2131.94018	15458.025
2134.91236	15465.725
2137.88263	15482.325
2140.851	15486.725
2143.81746	15491.725
2146.78201	15456.825
2149.74466	15462.425
2152.7054	15461.525
2155.66425	15479.725
2158.6212	15445.125
2161.57625	15429.825
2164.52941	15433.525
2167.48067	15404.525
2170.43004	15417.125
2173.37752	15369.025
2176.32311	15394.825
2179.26681	15411.325
2182.20863	15412.525
2185.14856	15440.925
2188.08661	15395.525
2191.02278	15432.825
2193.95707	15402.425
2196.88948	15389.925
2199.82001	15393.325
2202.74867	15360.925
2205.67545	15349.025
2208.60037	15343.425
2211.52341	15308.825
2214.44458	15283.325
2217.36388	15249.325
2220.28132	15219.425
2223.1969	15185.025
2226.11061	15179.025
2229.02246	15136.725
2231.93245	15134.325
2234.84058	15108.025
2237.74686	15089.725
2240.65128	15102.125
2243.55385	15126.925
2246.45456	15092.425
2249.35343	15080.525
2252.25044	15002.025
2255.14561	14989.325
2258.03893	14985.725
2260.93041	14926.925
2263.82004	14894.325
2266.70783	14868.025
2269.59378	14836.625
2272.4779	14808.325
2275.36017	14798.725
2278.24061	14763.925
2281.11922	14722.625
2283.996	14717.725
2286.87094	14706.525
2289.74405	14638.725
2292.61534	14617.125
2295.4848	14617.025
2298.35243	14655.025
2301.21824	14615.725
2304.08223	14589.425
2306.94439	14613.225
2309.80474	14611.625
2312.66327	14604.425
2315.51999	14603.825
2318.37489	14569.125
2321.22797	14539.125
2324.07925	14565.025
2326.92871	14538.725
2329.77637	14521.025
2332.62222	14442.825
2335.46626	14435.625
2338.3085	14425.325
2341.14893	14442.225
2343.98756	14432.825
2346.8244	14438.025
2349.65943	14453.225
2352.49267	14436.025
2355.32411	14452.325
2358.15376	14462.525
2360.98161	14438.325
2363.80768	14409.225
2366.63195	14430.825
2369.45444	14400.325
2372.27514	14410.225
2375.09405	14402.825
2377.91118	14369.825
2380.72652	14369.225
2383.54009	14304.625
2386.35187	14281.425
2389.16188	14261.625
2391.97011	14268.325
2394.77657	14242.425
2397.58125	14210.625
2400.38416	14186.125
2403.18529	14132.125
2405.98466	14141.225
2408.78226	14107.925
2411.57809	14106.425
2414.37216	14091.025
2417.16446	14102.725
2419.955	14052.225
2422.74378	14087.025
2425.5308	14057.825
2428.31606	14052.525
2431.09956	14065.225
2433.88131	14033.825
2436.6613	14021.625
2439.43954	14048.825
2442.21603	14029.625
2444.99077	14016.125
2447.76377	14020.525
2450.53501	14011.825
2453.30451	14016.425
2456.07226	14005.425
2458.83827	14020.125
2461.60254	14011.825
2464.36507	14027.825
2467.12586	14002.925
2469.88492	14011.625
2472.64224	14000.525
2475.39782	13977.025
2478.15167	13993.625
2480.90379	13999.225
2483.65417	14005.025
2486.40283	14001.025
2489.14976	14010.625
2491.89497	14010.925
2494.63845	14003.625
2497.3802	13979.725
2500.12024	13991.325
2502.85855	13984.625
2505.59514	13971.225
2508.33002	13940.225
2511.06318	13945.925
2513.79462	13949.925
2516.52435	13922.525
2519.25237	13926.025
2521.97867	13910.325
2524.70327	13909.325
2527.42616	13889.225
2530.14734	13896.325
2532.86681	13884.125
2535.58458	13882.925
2538.30065	13862.225
2541.01501	13839.725
2543.72768	13849.225
2546.43864	13844.425
2549.14791	13806.725
2551.85548	13754.125
2554.56136	13766.825
2557.26554	13763.825
2559.96803	13755.025
2562.66883	13749.825
2565.36794	13759.725
2568.06536	13769.425
2570.7611	13758.325
2573.45514	13734.825
2576.14751	13724.725
2578.83819	13666.825
2581.52719	13684.925
2584.21451	13660.725
2586.90015	13658.625
2589.58411	13637.125
2592.2664	13639.625
2594.94701	13631.325
2597.62594	13669.425
2600.30321	13609.925
2602.9788	13610.825
2605.65273	13608.425
2608.32498	13603.625
2610.99557	13563.825
2613.66449	13573.525
2616.33175	13595.725
2618.99734	13587.425
2621.66128	13574.125
2624.32355	13575.125
2626.98416	13540.325
2629.64311	13528.925
2632.30041	13511.925
2634.95605	13517.725
2637.61004	13480.225
2640.26238	13482.125
2642.91306	13453.025
2645.56209	13436.625
2648.20948	13463.125
2650.85521	13488.725
2653.4993	13499.825
2656.14175	13504.625
2658.78255	13548.825
2661.42171	13545.325
2664.05923	13579.525
2666.6951	13574.825
2669.32934	13578.825
2671.96194	13569.625
2674.59291	13581.625
2677.22224	13578.925
2679.84993	13604.925
2682.476	13565.125
2685.10043	13560.725
2687.72324	13530.125
2690.34441	13531.125
2692.96396	13533.725
2695.58188	13561.925
2698.19818	13557.925
2700.81285	13563.525
2703.4259	13532.025
2706.03733	13464.925
2708.64714	13486.225
2711.25533	13539.825
2713.86191	13556.325
2716.46687	13560.425
2719.07021	13551.025
2721.67194	13600.925
2724.27206	13595.325
2726.87057	13633.325
2729.46747	13648.325
2732.06276	13649.125
2734.65644	13634.825
2737.24852	13611.825
2739.83899	13611.025
2742.42786	13629.825
2745.01513	13620.325
2747.60079	13602.325
2750.18486	13568.325
2752.76733	13575.425
2755.3482	13549.525
2757.92747	13560.225
2760.50515	13530.125
2763.08123	13562.425
2765.65573	13511.125
2768.22863	13520.225
2770.79994	13501.725
2773.36967	13522.725
2775.9378	13522.325
2778.50435	13528.625
2781.06932	13515.625
2783.6327	13532.925
2786.1945	13515.325
2788.75471	13492.725
2791.31335	13496.625
2793.87041	13475.125
2796.42589	13433.925
2798.97979	13412.825
2801.53212	13369.225
2804.08288	13397.625
2806.63206	13357.225
2809.17967	13339.525
2811.72571	13324.725
2814.27018	13250.425
2816.81308	13256.025
2819.35442	13240.425
2821.89419	13221.625
2824.43239	13215.125
2826.96904	13192.725
2829.50412	13186.325
2832.03763	13190.225
2834.56959	13180.225
2837.1	13151.625
2839.62884	13124.725
2842.15613	13091.025
2844.68186	13108.925
2847.20604	13092.025
2849.72867	13138.925
2852.24974	13123.825
2854.76927	13095.725
2857.28724	13092.025
2859.80367	13078.025
2862.31855	13074.325
2864.83189	13044.025
2867.34368	13030.725
2869.85393	13038.925
2872.36264	13035.225
2874.8698	13036.925
2877.37543	13009.425
2879.87952	12995.325
2882.38207	13018.625
2884.88308	12998.725
2887.38256	13023.925
2889.88051	13010.825
2892.37692	13040.225
2894.8718	13027.025
2897.36515	13057.825
2899.85698	13059.625
2902.34727	13095.825
2904.83604	13091.225
2907.32328	13102.025
2909.809	13112.725
2912.29319	13134.925
2914.77587	13118.925
2917.25702	13117.625
2919.73665	13105.125
2922.21476	13147.325
2924.69136	13122.925
2927.16644	13128.025
2929.64	13082.225
2932.11205	13079.125
2934.58258	13017.225
2937.05161	13064.425
2939.51912	13063.125
2941.98513	13058.325
2944.44962	13032.825
2946.91261	12989.425
2949.37409	12981.625
2951.83407	12959.625
2954.29254	12955.825
2956.74951	12958.525
2959.20498	12945.625
2961.65895	12904.625
2964.11142	12942.625
2966.56239	12915.225
2969.01186	12902.725
2971.45984	12840.725
2973.90632	12877.925
2976.35131	12812.625
2978.7948	12799.425
2981.23681	12786.325
2983.67732	12766.225
2986.11635	12740.425
2988.55388	12706.525
2990.98993	12682.425
2993.4245	12652.425
2995.85758	12638.425
2998.28917	12639.125
3000.71928	12593.525
3003.14791	12548.425
3005.57506	12495.325
3008.00073	12485.825
3010.42493	12488.525
3012.84764	12455.525
3015.26888	12449.925
3017.68865	12405.425
3020.10694	12384.025
3022.52376	12347.125
3024.9391	12373.425
3027.35298	12328.125
3029.76539	12338.125
3032.17632	12316.325
3034.5858	12283.525
3036.9938	12285.425
3039.40034	12280.225
3041.80542	12263.525
3044.20903	12247.925
3046.61118	12252.225
3049.01187	12224.125
3051.4111	12223.225
3053.80888	12200.425
3056.20519	12220.125
3058.60005	12179.525
3060.99345	12143.325
3063.3854	12106.025
3065.7759	12065.625
3068.16494	12030.925
3070.55254	12010.425
3072.93868	11963.525
3075.32338	11955.625
3077.70662	11884.625
3080.08842	11874.325
3082.46878	11896.525
3084.84769	11866.125
3087.22515	11860.725
3089.60118	11868.925
3091.97576	11850.425
3094.3489	11814.025
3096.72061	11848.825
3099.09087	11830.825
3101.4597	11822.925
3103.82709	11812.625
3106.19305	11821.525
3108.55757	11805.425
3110.92066	11779.225
3113.28232	11764.825
3115.64255	11704.825
3118.00134	11675.025
3120.35871	11668.825
3122.71466	11656.925
3125.06917	11624.925
3127.42226	11593.225
