Data from AgNPs_FTO_APTES_UA_50uM_CRN_5uM_R6G_10uM_NaF_0.1M_Addition_RamanShift__29__13-06-24-848.txt Node

Date: Mon Feb 21 13:06:24 GMT 2022
User: TCL
Spectrometer: QEP01345
Trigger mode: 4
Integration Time (sec): 7.000000E0
Scans to average: 10
Electric dark correction enabled: true
Nonlinearity correction enabled: false
Boxcar width: 0
XAxis mode: Raman Shifts
Number of Pixels in Spectrum: 1044
>>>>>Begin Spectral Data<<<<<
46.04893	1.325
50.45542	-0.075
54.85868	0.425
59.25871	-0.975
63.6555	45.825
68.04907	53.525
72.43941	52.025
76.82654	57.125
81.21044	58.625
85.59113	66.325
89.96862	67.625
94.34289	75.525
98.71396	71.325
103.08183	75.125
107.4465	75.725
111.80798	76.525
116.16626	77.725
120.52136	76.025
124.87327	83.625
129.222	83.525
133.56755	85.425
137.90993	92.825
142.24913	99.725
146.58517	106.625
150.91804	123.325
155.24774	144.125
159.57429	174.125
163.89768	223.625
168.21792	297.325
172.53501	392.225
176.84895	551.725
181.15975	766.925
185.46741	1077.825
189.77193	1497.525
194.07331	2007.625
198.37157	2605.025
202.6667	3232.325
206.9587	3867.225
211.24758	4521.025
215.53334	5224.725
219.81599	6030.225
224.09553	6983.125
228.37195	8048.625
232.64527	9192.525
236.91549	10242.725
241.18261	11134.425
245.44663	11839.425
249.70755	12355.825
253.96539	12709.025
258.22014	12992.825
262.4718	13123.225
266.72039	13120.525
270.96589	12940.225
275.20832	12603.425
279.44768	12199.325
283.68397	11859.325
287.91719	11692.925
292.14735	11815.825
296.37445	12392.725
300.59849	13368.925
304.81948	14535.325
309.03742	15510.725
313.25231	15679.425
317.46415	14663.925
321.67296	12914.225
325.87872	11464.925
330.08145	10855.225
334.28114	10879.025
338.47781	11231.425
342.67145	11776.025
346.86207	12607.425
351.04966	13898.225
355.23424	15374.825
359.4158	16426.425
363.59435	16784.025
367.76989	16668.825
371.94243	16292.325
376.11196	15897.025
380.27849	15472.025
384.44203	15001.825
388.60257	14581.725
392.76012	14291.825
396.91468	14364.925
401.06626	14839.625
405.21485	15091.825
409.36047	14532.425
413.50311	13222.825
417.64277	11973.125
421.77947	11211.725
425.9132	10837.625
430.04396	10702.225
434.17176	10729.425
438.2966	10950.125
442.41849	11362.425
446.53742	11821.525
450.6534	12178.025
454.76644	12326.025
458.87653	12225.725
462.98368	11969.025
467.08789	11675.725
471.18916	11271.025
475.2875	10837.725
479.38291	10466.925
483.4754	10231.425
487.56496	10097.525
491.6516	10007.125
495.73531	9985.825
499.81612	10068.225
503.89401	10279.425
507.96899	10567.025
512.04106	10925.825
516.11023	11339.625
520.1765	11613.025
524.23987	11587.925
528.30034	11334.725
532.35792	10992.325
536.41261	10641.225
540.46441	10230.425
544.51333	9971.025
548.55936	10025.625
552.60252	10356.425
556.64279	10742.125
560.6802	10973.625
564.71473	11492.025
568.7464	12535.725
572.7752	12818.625
576.80114	11782.225
580.82422	10787.025
584.84444	10383.425
588.86181	10259.425
592.87633	10312.525
596.888	10551.325
600.89682	11317.225
604.9028	13959.225
608.90594	21121.325
612.90624	30395.125
616.90371	28609.225
620.89834	17278.125
624.89015	11961.125
628.87913	11100.125
632.86528	11432.325
636.84862	11839.025
640.82913	11411.125
644.80683	10321.925
648.78172	9640.925
652.75379	9680.325
656.72306	10540.825
660.68952	11484.425
664.65319	11126.625
668.61405	10004.125
672.57211	9515.125
676.52738	9459.325
680.47986	9457.425
684.42955	9280.425
688.37646	9182.925
692.32058	9282.725
696.26192	9394.525
700.20048	9607.925
704.13626	9727.225
708.06928	9635.525
711.99952	9449.425
715.927	9451.325
719.85171	9584.925
723.77365	9685.925
727.69284	9533.925
731.60928	9373.025
735.52295	9336.225
739.43388	9372.125
743.34206	9470.725
747.24749	9515.025
751.15017	9578.125
755.05012	9947.225
758.94733	10936.925
762.8418	13558.325
766.73354	17537.025
770.62254	21035.125
774.50882	22831.125
778.39237	22092.525
782.27321	18029.225
786.15132	13680.225
790.02671	11204.525
793.89938	10102.325
797.76935	9710.425
801.6366	9526.625
805.50115	9412.725
809.36299	9403.325
813.22213	9328.625
817.07857	9294.725
820.93231	9250.625
824.78336	9314.625
828.63172	9409.725
832.47738	9454.425
836.32036	9372.625
840.16066	9237.825
843.99827	9110.225
847.8332	9085.825
851.66546	9056.225
855.49504	9046.525
859.32195	9028.625
863.1462	8992.925
866.96777	8944.825
870.78668	8929.025
874.60293	8983.425
878.41652	9060.425
882.22745	9267.825
886.03573	9340.225
889.84136	9321.025
893.64433	9271.525
897.44466	9288.625
901.24235	9260.925
905.0374	9157.025
908.8298	8979.125
912.61957	8871.725
916.40671	8872.325
920.19121	8925.725
923.97308	9089.925
927.75233	9434.025
931.52895	9734.625
935.30295	9559.425
939.07433	9016.125
942.84309	8563.025
946.60924	8341.225
950.37278	8224.125
954.13371	8192.825
957.89203	8157.725
961.64774	8147.725
965.40086	8118.925
969.15137	8074.725
972.89929	8078.225
976.64461	8053.625
980.38733	8068.325
984.12747	8091.525
987.86502	8122.625
991.59999	8226.625
995.33237	8354.525
999.06217	8628.225
1002.78939	8947.025
1006.51404	9262.025
1010.23611	9532.325
1013.95561	9673.325
1017.67255	9642.325
1021.38692	9473.325
1025.09872	9259.525
1028.80796	9126.625
1032.51465	9268.925
1036.21877	9423.025
1039.92035	9576.225
1043.61937	9629.225
1047.31584	9561.325
1051.00976	9444.325
1054.70114	9306.125
1058.38998	9266.525
1062.07627	9282.525
1065.76003	9332.125
1069.44126	9397.325
1073.11995	9620.425
1076.79611	9917.925
1080.46974	10396.525
1084.14085	11078.525
1087.80943	11564.825
1091.47549	11622.925
1095.13903	11192.925
1098.80005	10485.925
1102.45857	10013.225
1106.11456	9907.625
1109.76805	10173.625
1113.41903	10746.025
1117.06751	11683.125
1120.71348	13013.825
1124.35696	14558.025
1127.99793	15411.425
1131.63641	14569.025
1135.2724	12941.825
1138.90589	11715.525
1142.5369	10978.225
1146.16542	10459.325
1149.79145	10194.125
1153.415	10110.825
1157.03607	10234.425
1160.65467	10544.525
1164.27079	11138.825
1167.88443	12049.025
1171.49561	13583.725
1175.10432	16167.225
1178.71056	19598.525
1182.31434	22207.525
1185.91565	22608.525
1189.51451	21329.225
1193.11091	19326.625
1196.70485	17384.225
1200.29634	16069.925
1203.88538	14948.625
1207.47197	13483.825
1211.05612	12158.325
1214.63782	11339.725
1218.21708	11021.025
1221.79391	10905.825
1225.36829	10966.725
1228.94024	10997.425
1232.50976	11002.425
1236.07685	10991.725
1239.6415	11061.325
1243.20374	11109.525
1246.76355	11217.725
1250.32093	11411.125
1253.8759	11737.125
1257.42845	12301.125
1260.97859	12951.225
1264.52631	13641.125
1268.07163	14296.625
1271.61453	14780.225
1275.15503	15065.025
1278.69312	15206.125
1282.22882	15552.825
1285.76211	16270.025
1289.29301	17165.825
1292.82151	17919.125
1296.34761	18823.025
1299.87133	20469.325
1303.39266	23490.125
1306.9116	28186.625
1310.42815	32598.025
1313.94233	33464.525
1317.45412	30308.925
1320.96354	25823.825
1324.47058	21966.125
1327.97525	19264.225
1331.47754	17933.125
1334.97747	17594.325
1338.47502	18150.825
1341.97022	19543.425
1345.46305	21780.025
1348.95352	24473.325
1352.44163	27792.825
1355.92738	32816.225
1359.41078	40248.125
1362.89183	45081.025
1366.37053	40715.525
1369.84688	31650.925
1373.32088	24658.925
1376.79254	20539.925
1380.26186	18085.025
1383.72883	16471.125
1387.19347	15132.125
1390.65578	14007.225
1394.11575	13321.325
1397.57339	13007.125
1401.0287	12923.525
1404.48168	12980.625
1407.93234	13131.925
1411.38068	13328.825
1414.82669	13536.825
1418.27039	13528.425
1421.71177	13284.725
1425.15083	13083.925
1428.58758	13135.225
1432.02203	13386.025
1435.45416	13493.325
1438.88399	13341.925
1442.31151	13213.225
1445.73673	13293.925
1449.15965	13350.225
1452.58027	13270.925
1455.9986	13085.325
1459.41463	13092.025
1462.82837	13374.725
1466.23982	13844.125
1469.64898	14223.825
1473.05586	14347.425
1476.46045	14478.525
1479.86276	14790.825
1483.26279	15334.225
1486.66054	16153.225
1490.05602	17404.625
1493.44922	19319.025
1496.84016	22282.625
1500.22882	26906.325
1503.61521	33090.225
1506.99934	39767.225
1510.38121	44258.925
1513.76081	43799.525
1517.13816	38055.725
1520.51324	30367.625
1523.88607	24077.525
1527.25665	20347.425
1530.62498	18327.925
1533.99105	17136.225
1537.35488	16394.025
1540.71647	16055.425
1544.07581	15994.625
1547.4329	16125.625
1550.78776	16327.525
1554.14038	16523.525
1557.49077	16698.825
1560.83892	17172.625
1564.18484	18159.725
1567.52853	19456.825
1570.86999	20377.225
1574.20922	20683.425
1577.54624	20125.525
1580.88103	18167.025
1584.2136	15875.925
1587.54395	14681.725
1590.87208	14722.925
1594.19801	15804.125
1597.52172	17218.525
1600.84321	17728.425
1604.16251	16949.225
1607.47959	15593.025
1610.79447	14151.725
1614.10715	12830.525
1617.41763	11886.925
1620.7259	11313.125
1624.03199	11150.725
1627.33587	11273.025
1630.63757	11806.325
1633.93707	12731.925
1637.23439	14246.925
1640.52951	16674.525
1643.82246	20368.625
1647.11321	24587.625
1650.40179	26917.225
1653.68819	25076.825
1656.97241	20216.825
1660.25446	15571.125
1663.53433	12544.125
1666.81203	10884.925
1670.08756	9958.925
1673.36092	9392.425
1676.63211	9078.525
1679.90115	8837.625
1683.16801	8648.525
1686.43272	8495.725
1689.69527	8395.325
1692.95567	8269.025
1696.2139	8153.025
1699.46999	8005.325
1702.72392	7989.325
1705.97571	8054.325
1709.22535	8138.125
1712.47284	8181.725
1715.71819	8219.125
1718.96139	8192.925
1722.20246	8148.625
1725.44139	8073.225
1728.67818	7973.425
1731.91284	7863.725
1735.14537	7791.325
1738.37576	7730.925
1741.60403	7677.525
1744.83017	7638.725
1748.05418	7607.625
1751.27607	7534.925
1754.49584	7471.325
1757.71349	7396.725
1760.92903	7348.825
1764.14244	7303.325
1767.35375	7291.525
1770.56294	7225.425
1773.77002	7205.825
1776.97499	7211.425
1780.17785	7232.925
1783.37861	7218.025
1786.57727	7227.825
1789.77382	7228.425
1792.96828	7215.725
1796.16064	7213.625
1799.3509	7215.425
1802.53907	7190.425
1805.72514	7184.625
1808.90913	7140.625
1812.09102	7096.525
1815.27083	7079.125
1818.44856	7085.625
1821.6242	7037.625
1824.79776	7039.825
1827.96924	7032.325
1831.13864	7027.225
1834.30597	6998.225
1837.47122	6984.825
1840.6344	6987.725
1843.7955	6973.825
1846.95454	6975.525
1850.11151	6935.225
1853.26642	6956.725
1856.41926	6959.525
1859.57004	6972.125
1862.71876	6958.625
1865.86542	6954.525
1869.01003	6953.025
1872.15258	6970.025
1875.29308	6957.625
1878.43152	6964.825
1881.56792	6962.225
1884.70227	6998.625
1887.83457	6991.325
1890.96482	6981.925
1894.09304	6968.725
1897.21921	6970.425
1900.34335	6965.525
1903.46544	6994.725
1906.58551	6983.225
1909.70353	6990.025
1912.81953	6988.925
1915.93349	6997.925
1919.04543	6980.325
1922.15534	6949.525
1925.26322	6936.825
1928.36908	6879.025
1931.47292	6840.025
1934.57473	6799.725
1937.67453	6768.425
1940.77232	6752.925
1943.86808	6724.425
1946.96184	6707.625
1950.05358	6674.225
1953.14331	6650.825
1956.23103	6620.125
1959.31675	6598.525
1962.40046	6602.725
1965.48217	6597.125
1968.56188	6589.925
1971.63959	6578.125
1974.7153	6575.725
1977.78901	6538.825
1980.86073	6527.825
1983.93046	6462.725
1986.99819	6434.825
1990.06394	6398.525
1993.1277	6387.525
1996.18947	6331.825
1999.24925	6324.825
2002.30706	6311.725
2005.36288	6275.925
2008.41672	6235.325
2011.46859	6247.325
2014.51848	6240.425
2017.56639	6208.825
2020.61233	6185.725
2023.6563	6175.625
2026.6983	6148.725
2029.73833	6155.725
2032.7764	6129.125
2035.8125	6129.325
2038.84664	6102.025
2041.87881	6110.325
2044.90903	6082.425
2047.93729	6079.425
2050.96359	6078.425
2053.98794	6050.025
2057.01034	6043.525
2060.03078	6031.025
2063.04927	6028.025
2066.06582	6015.025
2069.08042	6015.925
2072.09307	6016.325
2075.10378	6007.625
2078.11255	6000.725
2081.11938	5995.825
2084.12426	6006.525
2087.12722	6000.225
2090.12824	5969.925
2093.12732	5990.325
2096.12447	5981.525
2099.11969	5973.525
2102.11299	5970.825
2105.10435	5992.425
2108.09379	5989.525
2111.08131	6001.525
2114.0669	6005.925
2117.05057	6016.525
2120.03233	6033.525
2123.01216	6031.325
2125.99008	6043.225
2128.96609	6069.725
2131.94018	6064.125
2134.91236	6053.125
2137.88263	6058.925
2140.851	6040.725
2143.81746	6040.225
2146.78201	6021.425
2149.74466	6000.825
2152.7054	6004.925
2155.66425	5999.725
2158.6212	5989.425
2161.57625	5979.125
2164.52941	5984.125
2167.48067	5975.225
2170.43004	5968.825
2173.37752	5956.425
2176.32311	5984.225
2179.26681	5998.425
2182.20863	6007.225
2185.14856	6010.825
2188.08661	5990.125
2191.02278	5988.325
2193.95707	5959.725
2196.88948	5961.025
2199.82001	5942.525
2202.74867	5956.125
2205.67545	5940.525
2208.60037	5930.025
2211.52341	5938.125
2214.44458	5930.025
2217.36388	5922.425
2220.28132	5908.125
2223.1969	5876.325
2226.11061	5870.725
2229.02246	5858.425
2231.93245	5857.225
2234.84058	5843.925
2237.74686	5816.225
2240.65128	5842.925
2243.55385	5823.625
2246.45456	5833.725
2249.35343	5810.225
2252.25044	5818.725
2255.14561	5854.725
2258.03893	5863.025
2260.93041	5844.625
2263.82004	5861.825
2266.70783	5830.725
2269.59378	5809.425
2272.4779	5799.925
2275.36017	5805.425
2278.24061	5787.725
2281.11922	5762.225
2283.996	5771.425
2286.87094	5748.925
2289.74405	5711.725
2292.61534	5689.525
2295.4848	5687.225
2298.35243	5693.425
2301.21824	5682.225
2304.08223	5673.925
2306.94439	5654.625
2309.80474	5673.925
2312.66327	5676.325
2315.51999	5659.825
2318.37489	5655.825
2321.22797	5671.025
2324.07925	5651.525
2326.92871	5654.725
2329.77637	5643.525
2332.62222	5629.025
2335.46626	5627.925
2338.3085	5620.725
2341.14893	5635.625
2343.98756	5646.925
2346.8244	5631.025
2349.65943	5669.225
2352.49267	5682.225
2355.32411	5703.125
2358.15376	5703.825
2360.98161	5726.725
2363.80768	5725.525
2366.63195	5750.525
2369.45444	5754.825
2372.27514	5749.525
2375.09405	5761.425
2377.91118	5735.725
2380.72652	5703.225
2383.54009	5670.425
2386.35187	5639.925
2389.16188	5594.425
2391.97011	5598.225
2394.77657	5571.425
2397.58125	5548.325
2400.38416	5530.725
2403.18529	5516.225
2405.98466	5493.025
2408.78226	5487.125
2411.57809	5489.725
2414.37216	5476.125
2417.16446	5459.625
2419.955	5458.925
2422.74378	5472.025
2425.5308	5442.325
2428.31606	5464.225
2431.09956	5460.125
2433.88131	5461.525
2436.6613	5467.725
2439.43954	5470.625
2442.21603	5472.325
2444.99077	5478.425
2447.76377	5477.925
2450.53501	5490.325
2453.30451	5498.925
2456.07226	5480.825
2458.83827	5484.225
2461.60254	5484.225
2464.36507	5467.125
2467.12586	5471.425
2469.88492	5469.525
2472.64224	5488.125
2475.39782	5487.125
2478.15167	5496.925
2480.90379	5531.325
2483.65417	5552.725
2486.40283	5570.425
2489.14976	5603.725
2491.89497	5606.925
2494.63845	5618.425
2497.3802	5586.025
2500.12024	5569.725
2502.85855	5559.325
2505.59514	5534.925
2508.33002	5508.025
2511.06318	5486.425
2513.79462	5443.325
2516.52435	5404.325
2519.25237	5385.425
2521.97867	5364.825
2524.70327	5336.825
2527.42616	5324.325
2530.14734	5325.925
2532.86681	5330.725
2535.58458	5324.425
2538.30065	5333.225
2541.01501	5317.225
2543.72768	5326.925
2546.43864	5352.325
2549.14791	5316.225
2551.85548	5331.225
2554.56136	5317.125
2557.26554	5330.925
2559.96803	5333.325
2562.66883	5323.525
2565.36794	5320.025
2568.06536	5309.425
2570.7611	5302.825
2573.45514	5299.225
2576.14751	5296.525
2578.83819	5278.825
2581.52719	5261.125
2584.21451	5245.825
2586.90015	5252.225
2589.58411	5223.925
2592.2664	5241.425
2594.94701	5252.425
2597.62594	5247.625
2600.30321	5222.725
2602.9788	5234.625
2605.65273	5227.925
2608.32498	5238.025
2610.99557	5234.525
2613.66449	5246.225
2616.33175	5258.825
2618.99734	5251.025
2621.66128	5241.125
2624.32355	5226.525
2626.98416	5221.225
2629.64311	5221.025
2632.30041	5202.725
2634.95605	5193.225
2637.61004	5168.125
2640.26238	5176.225
2642.91306	5150.425
2645.56209	5132.225
2648.20948	5136.125
2650.85521	5146.325
2653.4993	5139.825
2656.14175	5160.325
2658.78255	5166.725
2661.42171	5170.025
2664.05923	5201.325
2666.6951	5200.625
2669.32934	5205.025
2671.96194	5208.725
2674.59291	5223.425
2677.22224	5218.225
2679.84993	5221.025
2682.476	5211.225
2685.10043	5229.625
2687.72324	5209.425
2690.34441	5213.525
2692.96396	5203.525
2695.58188	5203.625
2698.19818	5198.325
2700.81285	5194.125
2703.4259	5189.425
2706.03733	5106.625
2708.64714	5140.425
2711.25533	5182.025
2713.86191	5199.325
2716.46687	5211.625
2719.07021	5224.925
2721.67194	5230.525
2724.27206	5234.325
2726.87057	5224.725
2729.46747	5229.125
2732.06276	5244.325
2734.65644	5233.825
2737.24852	5218.325
2739.83899	5187.625
2742.42786	5180.525
2745.01513	5185.725
2747.60079	5178.325
2750.18486	5164.825
2752.76733	5165.625
2755.3482	5142.925
2757.92747	5137.725
2760.50515	5124.125
2763.08123	5120.225
2765.65573	5126.825
2768.22863	5109.125
2770.79994	5120.325
2773.36967	5137.125
2775.9378	5140.725
2778.50435	5119.325
2781.06932	5121.225
2783.6327	5132.225
2786.1945	5141.025
2788.75471	5144.025
2791.31335	5136.025
2793.87041	5143.125
2796.42589	5140.425
2798.97979	5150.525
2801.53212	5148.325
2804.08288	5166.125
2806.63206	5170.625
2809.17967	5156.425
2811.72571	5171.925
2814.27018	5197.525
2816.81308	5197.425
2819.35442	5217.925
2821.89419	5238.225
2824.43239	5242.925
2826.96904	5255.225
2829.50412	5242.225
2832.03763	5238.325
2834.56959	5246.525
2837.1	5247.225
2839.62884	5225.125
2842.15613	5253.825
2844.68186	5265.325
2847.20604	5280.725
2849.72867	5312.725
2852.24974	5288.225
2854.76927	5324.625
2857.28724	5304.325
2859.80367	5329.725
2862.31855	5359.625
2864.83189	5378.025
2867.34368	5368.925
2869.85393	5398.525
2872.36264	5388.525
2874.8698	5393.825
2877.37543	5367.825
2879.87952	5359.025
2882.38207	5350.725
2884.88308	5343.125
2887.38256	5332.325
2889.88051	5327.725
2892.37692	5341.225
2894.8718	5325.525
2897.36515	5332.025
2899.85698	5329.225
2902.34727	5329.225
2904.83604	5338.925
2907.32328	5328.025
2909.809	5302.425
2912.29319	5310.725
2914.77587	5297.025
2917.25702	5291.425
2919.73665	5287.325
2922.21476	5262.825
2924.69136	5255.825
2927.16644	5241.025
2929.64	5232.725
2932.11205	5208.425
2934.58258	5178.725
2937.05161	5184.325
2939.51912	5160.125
2941.98513	5161.925
2944.44962	5135.625
2946.91261	5106.325
2949.37409	5124.125
2951.83407	5114.725
2954.29254	5089.925
2956.74951	5071.625
2959.20498	5073.025
2961.65895	5062.425
2964.11142	5041.625
2966.56239	5034.725
2969.01186	5019.825
2971.45984	4994.425
2973.90632	4993.925
2976.35131	4962.725
2978.7948	4966.825
2981.23681	4962.925
2983.67732	4938.925
2986.11635	4922.825
2988.55388	4907.125
2990.98993	4912.525
2993.4245	4898.825
2995.85758	4907.425
2998.28917	4877.025
3000.71928	4888.725
3003.14791	4894.225
3005.57506	4883.125
3008.00073	4861.625
3010.42493	4861.925
3012.84764	4850.225
3015.26888	4842.425
3017.68865	4830.125
3020.10694	4843.725
3022.52376	4827.325
3024.9391	4816.725
3027.35298	4802.725
3029.76539	4792.925
3032.17632	4776.125
3034.5858	4765.825
3036.9938	4763.325
3039.40034	4739.025
3041.80542	4731.625
3044.20903	4722.525
3046.61118	4723.825
3049.01187	4720.225
3051.4111	4706.525
3053.80888	4706.925
3056.20519	4689.425
3058.60005	4674.025
3060.99345	4678.025
3063.3854	4644.525
3065.7759	4649.225
3068.16494	4619.525
3070.55254	4592.725
3072.93868	4589.225
3075.32338	4579.725
3077.70662	4568.725
3080.08842	4543.925
3082.46878	4543.625
3084.84769	4536.025
3087.22515	4534.125
3089.60118	4539.225
3091.97576	4532.625
3094.3489	4540.325
3096.72061	4539.025
3099.09087	4543.625
3101.4597	4527.025
3103.82709	4530.425
3106.19305	4537.525
3108.55757	4524.425
3110.92066	4536.425
3113.28232	4523.425
3115.64255	4513.325
3118.00134	4502.125
3120.35871	4501.925
3122.71466	4493.325
3125.06917	4494.325
3127.42226	4501.725
3129.77393	4514.025
3132.12417	4506.725
3134.47299	4506.225
3136.82039	4519.825
3139.16636	4506.725
3141.51092	4516.525
3143.85406	4521.025
3146.19579	4542.725
3148.53609	4554.725
3150.87499	4554.025
3153.21246	4570.025
3155.54853	4593.125
3157.88318	4572.025
3160.21642	4583.425
3162.54826	4588.625
3164.87868	4599.325
3167.2077	4578.025
3169.5353	4603.325
3171.86151	4611.325
3174.18631	4607.925
3176.5097	4607.325
3178.83169	4599.925
3181.15228	4603.825
3183.47147	4583.625
3185.78926	4606.625
3188.10565	4604.325
3190.42065	4613.225
3192.73424	4626.225
3195.04645	4628.325
3197.35725	4648.125
3199.66667	4644.725
3201.97469	4651.925
