Data from AgNPs_FTO_APTES_UA_50uM_CRN_1000uM_R6G_10uM_NaF_0.1M_Addition_RamanShift__24__17-54-13-606.txt Node

Date: Mon Feb 21 17:54:13 GMT 2022
User: TCL
Spectrometer: QEP01345
Trigger mode: 4
Integration Time (sec): 7.000000E0
Scans to average: 10
Electric dark correction enabled: true
Nonlinearity correction enabled: false
Boxcar width: 0
XAxis mode: Raman Shifts
Number of Pixels in Spectrum: 1044
>>>>>Begin Spectral Data<<<<<
46.04893	-1.375
50.45542	-1.175
54.85868	-0.175
59.25871	-1.775
63.6555	60.225
68.04907	64.925
72.43941	70.425
76.82654	71.125
81.21044	75.925
85.59113	77.725
89.96862	81.125
94.34289	82.025
98.71396	86.025
103.08183	88.625
107.4465	91.925
111.80798	92.725
116.16626	95.925
120.52136	97.525
124.87327	103.825
129.222	109.625
133.56755	115.825
137.90993	122.425
142.24913	134.825
146.58517	146.325
150.91804	173.725
155.24774	206.725
159.57429	262.925
163.89768	340.225
168.21792	456.725
172.53501	624.325
176.84895	879.325
181.15975	1238.425
185.46741	1743.725
189.77193	2407.025
194.07331	3219.625
198.37157	4178.125
202.6667	5183.925
206.9587	6216.925
211.24758	7228.925
215.53334	8305.125
219.81599	9513.625
224.09553	10866.425
228.37195	12379.025
232.64527	14002.325
236.91549	15615.825
241.18261	17047.325
245.44663	18292.125
249.70755	19297.225
253.96539	20219.625
258.22014	21023.625
262.4718	21668.525
266.72039	22044.325
270.96589	21985.025
275.20832	21687.025
279.44768	21128.325
283.68397	20506.525
287.91719	20120.325
292.14735	20094.125
296.37445	20630.025
300.59849	21591.225
304.81948	22781.425
309.03742	23629.325
313.25231	23633.825
317.46415	22504.025
321.67296	20661.625
325.87872	19068.225
330.08145	18345.725
334.28114	18322.025
338.47781	18716.825
342.67145	19274.825
346.86207	20198.225
351.04966	21523.025
355.23424	23080.225
359.4158	24248.725
363.59435	24753.225
367.76989	24866.325
371.94243	24772.325
376.11196	24600.225
380.27849	24381.425
384.44203	24015.125
388.60257	23623.025
392.76012	23311.425
396.91468	23421.125
401.06626	23887.525
405.21485	24212.125
409.36047	23678.825
413.50311	22269.925
417.64277	20859.025
421.77947	20006.625
425.9132	19677.225
430.04396	19571.825
434.17176	19706.125
438.2966	20060.625
442.41849	20624.125
446.53742	21323.825
450.6534	21982.525
454.76644	22410.525
458.87653	22363.125
462.98368	21987.425
467.08789	21543.225
471.18916	20999.925
475.2875	20499.725
479.38291	20006.625
483.4754	19683.525
487.56496	19328.525
491.6516	19079.925
495.73531	18927.925
499.81612	18897.025
503.89401	19169.225
507.96899	19486.625
512.04106	19884.025
516.11023	20363.025
520.1765	20663.925
524.23987	20609.725
528.30034	20340.925
532.35792	19961.425
536.41261	19570.525
540.46441	19096.325
544.51333	18864.325
548.55936	18924.825
552.60252	19339.025
556.64279	19910.725
560.6802	20305.125
564.71473	20718.125
568.7464	21667.725
572.7752	22146.525
576.80114	21200.525
580.82422	20102.025
584.84444	19624.425
588.86181	19770.625
592.87633	20316.325
596.888	20699.125
600.89682	21144.125
604.9028	23637.325
608.90594	31197.825
612.90624	41254.125
616.90371	39459.625
620.89834	26799.425
624.89015	20688.425
628.87913	19507.425
632.86528	19786.625
636.84862	20171.025
640.82913	19781.225
644.80683	18727.325
648.78172	17918.025
652.75379	17903.625
656.72306	18718.125
660.68952	19708.925
664.65319	19439.325
668.61405	18339.625
672.57211	17800.025
676.52738	17800.425
680.47986	17845.225
684.42955	17641.525
688.37646	17474.025
692.32058	17438.825
696.26192	17599.225
700.20048	17835.325
704.13626	17945.225
708.06928	17854.525
711.99952	17669.325
715.927	17577.325
719.85171	17761.725
723.77365	17838.625
727.69284	17760.525
731.60928	17605.225
735.52295	17590.525
739.43388	17607.525
743.34206	17677.525
747.24749	17697.125
751.15017	17712.325
755.05012	17970.525
758.94733	18972.125
762.8418	21415.925
766.73354	25703.325
770.62254	30036.425
774.50882	32375.825
778.39237	30926.425
782.27321	26243.325
786.15132	21644.925
790.02671	19079.225
793.89938	17907.525
797.76935	17455.925
801.6366	17309.225
805.50115	17192.025
809.36299	17159.425
813.22213	17059.925
817.07857	17005.725
820.93231	16970.825
824.78336	16999.825
828.63172	17031.225
832.47738	17039.125
836.32036	16935.225
840.16066	16792.725
843.99827	16695.025
847.8332	16677.525
851.66546	16635.425
855.49504	16669.225
859.32195	16653.725
863.1462	16637.425
866.96777	16588.425
870.78668	16540.725
874.60293	16546.425
878.41652	16617.125
882.22745	16727.425
886.03573	16772.525
889.84136	16774.625
893.64433	16645.425
897.44466	16566.025
901.24235	16537.825
905.0374	16410.325
908.8298	16269.125
912.61957	16107.825
916.40671	16160.325
920.19121	16213.225
923.97308	16400.125
927.75233	16648.825
931.52895	16954.025
935.30295	16844.925
939.07433	16288.725
942.84309	15799.925
946.60924	15458.225
950.37278	15318.225
954.13371	15233.925
957.89203	15147.825
961.64774	15087.825
965.40086	15039.725
969.15137	14944.425
972.89929	14902.625
976.64461	14864.625
980.38733	14850.125
984.12747	14869.325
987.86502	14937.825
991.59999	15058.525
995.33237	15263.525
999.06217	15624.525
1002.78939	16033.425
1006.51404	16456.725
1010.23611	16779.525
1013.95561	16957.525
1017.67255	16901.425
1021.38692	16611.525
1025.09872	16298.325
1028.80796	16110.425
1032.51465	16194.125
1036.21877	16375.925
1039.92035	16480.525
1043.61937	16467.125
1047.31584	16372.525
1051.00976	16243.325
1054.70114	16084.425
1058.38998	15971.225
1062.07627	15977.925
1065.76003	15977.625
1069.44126	16005.325
1073.11995	16108.325
1076.79611	16400.025
1080.46974	16836.725
1084.14085	17502.325
1087.80943	18106.225
1091.47549	18337.125
1095.13903	17953.025
1098.80005	17268.325
1102.45857	16741.625
1106.11456	16671.325
1109.76805	16905.625
1113.41903	17599.425
1117.06751	18531.625
1120.71348	19681.625
1124.35696	20922.025
1127.99793	21758.625
1131.63641	21327.825
1135.2724	19922.925
1138.90589	18723.225
1142.5369	17917.725
1146.16542	17412.525
1149.79145	17127.325
1153.415	17053.025
1157.03607	17177.425
1160.65467	17510.825
1164.27079	18266.425
1167.88443	19385.625
1171.49561	21166.825
1175.10432	24037.625
1178.71056	28002.125
1182.31434	31393.125
1185.91565	32228.925
1189.51451	30808.825
1193.11091	28200.025
1196.70485	25683.025
1200.29634	23984.325
1203.88538	22768.025
1207.47197	21311.425
1211.05612	19927.625
1214.63782	19133.425
1218.21708	18876.725
1221.79391	18852.925
1225.36829	18730.725
1228.94024	18484.125
1232.50976	18192.025
1236.07685	18078.125
1239.6415	18130.225
1243.20374	18255.725
1246.76355	18470.325
1250.32093	18722.925
1253.8759	19165.625
1257.42845	19797.525
1260.97859	20500.525
1264.52631	21239.825
1268.07163	22045.425
1271.61453	22696.525
1275.15503	23075.325
1278.69312	23250.825
1282.22882	23412.025
1285.76211	24014.125
1289.29301	25038.325
1292.82151	26156.325
1296.34761	27428.525
1299.87133	29402.625
1303.39266	32794.525
1306.9116	37818.825
1310.42815	42948.825
1313.94233	44963.125
1317.45412	42447.325
1320.96354	37965.025
1324.47058	33724.025
1327.97525	30362.625
1331.47754	28379.225
1334.97747	27696.625
1338.47502	28163.625
1341.97022	29351.725
1345.46305	31170.825
1348.95352	33733.425
1352.44163	37107.025
1355.92738	42204.725
1359.41078	50035.625
1362.89183	56749.325
1366.37053	53800.225
1369.84688	43294.425
1373.32088	34011.625
1376.79254	28626.825
1380.26186	25879.825
1383.72883	24471.325
1387.19347	23451.025
1390.65578	22419.325
1394.11575	21737.825
1397.57339	21500.925
1401.0287	21650.425
1404.48168	21939.925
1407.93234	22228.625
1411.38068	22434.725
1414.82669	22481.125
1418.27039	22217.425
1421.71177	21689.125
1425.15083	21052.625
1428.58758	20768.125
1432.02203	20999.125
1435.45416	21309.125
1438.88399	21462.925
1442.31151	21511.625
1445.73673	21735.925
1449.15965	22018.525
1452.58027	22006.125
1455.9986	21782.725
1459.41463	21642.525
1462.82837	21978.325
1466.23982	22537.825
1469.64898	23202.225
1473.05586	23578.525
1476.46045	23709.625
1479.86276	23936.125
1483.26279	24333.225
1486.66054	24923.025
1490.05602	25803.125
1493.44922	27085.725
1496.84016	29098.225
1500.22882	32745.825
1503.61521	38469.125
1506.99934	45488.625
1510.38121	51269.325
1513.76081	52328.325
1517.13816	47359.625
1520.51324	39356.325
1523.88607	32313.325
1527.25665	27955.725
1530.62498	25593.425
1533.99105	24312.725
1537.35488	23581.525
1540.71647	23160.625
1544.07581	23079.125
1547.4329	23136.925
1550.78776	23256.625
1554.14038	23471.925
1557.49077	23783.625
1560.83892	24310.425
1564.18484	25196.325
1567.52853	26265.325
1570.86999	27058.125
1574.20922	27502.825
1577.54624	27219.725
1580.88103	25485.425
1584.2136	23281.525
1587.54395	22097.625
1590.87208	22325.525
1594.19801	23817.325
1597.52172	25927.825
1600.84321	27079.925
1604.16251	26346.825
1607.47959	24510.725
1610.79447	22269.025
1614.10715	20147.325
1617.41763	18521.025
1620.7259	17487.425
1624.03199	17033.625
1627.33587	17080.625
1630.63757	17604.325
1633.93707	18717.925
1637.23439	20623.925
1640.52951	23636.525
1643.82246	28125.925
1647.11321	33435.925
1650.40179	36656.225
1653.68819	34857.225
1656.97241	28926.525
1660.25446	22922.225
1663.53433	18976.125
1666.81203	16736.725
1670.08756	15447.925
1673.36092	14668.125
1676.63211	14127.625
1679.90115	13784.225
1683.16801	13506.425
1686.43272	13302.825
1689.69527	13164.325
1692.95567	13040.825
1696.2139	12941.125
1699.46999	12859.125
1702.72392	12821.225
1705.97571	12776.325
1709.22535	12783.525
1712.47284	12752.325
1715.71819	12747.225
1718.96139	12702.025
1722.20246	12642.925
1725.44139	12549.625
1728.67818	12466.625
1731.91284	12333.225
1735.14537	12242.225
1738.37576	12171.325
1741.60403	12110.225
1744.83017	12054.525
1748.05418	12007.925
1751.27607	11989.625
1754.49584	11974.325
1757.71349	11935.625
1760.92903	11866.925
1764.14244	11815.125
1767.35375	11788.125
1770.56294	11721.225
1773.77002	11681.925
1776.97499	11607.225
1780.17785	11576.225
1783.37861	11537.125
1786.57727	11510.825
1789.77382	11467.925
1792.96828	11439.325
1796.16064	11422.325
1799.3509	11411.425
1802.53907	11362.225
1805.72514	11345.825
1808.90913	11289.325
1812.09102	11262.325
1815.27083	11208.425
1818.44856	11186.425
1821.6242	11155.025
1824.79776	11128.925
1827.96924	11106.125
1831.13864	11094.225
1834.30597	11062.825
1837.47122	11041.625
1840.6344	10984.925
1843.7955	10995.725
1846.95454	10937.525
1850.11151	10942.725
1853.26642	10943.025
1856.41926	10905.925
1859.57004	10937.225
1862.71876	10922.225
1865.86542	10944.325
1869.01003	10937.125
1872.15258	10905.925
1875.29308	10941.825
1878.43152	10934.925
1881.56792	10916.425
1884.70227	10886.025
1887.83457	10873.925
1890.96482	10893.925
1894.09304	10851.225
1897.21921	10852.225
1900.34335	10842.825
1903.46544	10851.325
1906.58551	10840.625
1909.70353	10827.325
1912.81953	10814.225
1915.93349	10777.725
1919.04543	10726.725
1922.15534	10705.125
1925.26322	10686.525
1928.36908	10615.325
1931.47292	10593.225
1934.57473	10541.225
1937.67453	10525.425
1940.77232	10489.925
1943.86808	10478.425
1946.96184	10430.925
1950.05358	10398.325
1953.14331	10348.125
1956.23103	10336.825
1959.31675	10292.725
1962.40046	10266.525
1965.48217	10235.825
1968.56188	10208.425
1971.63959	10198.325
1974.7153	10169.825
1977.78901	10151.625
1980.86073	10104.525
1983.93046	10065.525
1986.99819	10010.325
1990.06394	9972.725
1993.1277	9932.925
1996.18947	9887.025
1999.24925	9881.425
2002.30706	9850.325
2005.36288	9782.025
2008.41672	9749.325
2011.46859	9723.725
2014.51848	9696.925
2017.56639	9635.025
2020.61233	9637.325
2023.6563	9606.825
2026.6983	9560.925
2029.73833	9528.025
2032.7764	9502.625
2035.8125	9512.925
2038.84664	9493.225
2041.87881	9462.325
2044.90903	9462.925
2047.93729	9410.025
2050.96359	9420.425
2053.98794	9385.825
2057.01034	9399.125
2060.03078	9371.925
2063.04927	9341.725
2066.06582	9325.025
2069.08042	9307.725
2072.09307	9296.325
2075.10378	9268.025
2078.11255	9276.925
2081.11938	9284.925
2084.12426	9291.125
2087.12722	9275.425
2090.12824	9252.825
2093.12732	9239.225
2096.12447	9246.825
2099.11969	9255.625
2102.11299	9233.725
2105.10435	9241.325
2108.09379	9252.325
2111.08131	9244.425
2114.0669	9248.025
2117.05057	9254.325
2120.03233	9259.325
2123.01216	9266.425
2125.99008	9290.725
2128.96609	9298.325
2131.94018	9307.125
2134.91236	9304.825
2137.88263	9278.325
2140.851	9287.725
2143.81746	9253.525
2146.78201	9232.225
2149.74466	9241.725
2152.7054	9238.625
2155.66425	9225.025
2158.6212	9218.625
2161.57625	9183.625
2164.52941	9192.725
2167.48067	9181.825
2170.43004	9169.625
2173.37752	9182.325
2176.32311	9175.825
2179.26681	9201.425
2182.20863	9171.025
2185.14856	9193.725
2188.08661	9162.825
2191.02278	9173.525
2193.95707	9188.625
2196.88948	9146.425
2199.82001	9155.425
2202.74867	9129.225
2205.67545	9113.225
2208.60037	9104.225
2211.52341	9088.025
2214.44458	9080.825
2217.36388	9046.625
2220.28132	9016.825
2223.1969	9001.425
2226.11061	8991.625
2229.02246	8962.625
2231.93245	8963.625
2234.84058	8944.025
2237.74686	8932.225
2240.65128	8892.825
2243.55385	8898.125
2246.45456	8900.225
2249.35343	8848.725
2252.25044	8853.125
2255.14561	8852.725
2258.03893	8899.225
2260.93041	8879.525
2263.82004	8853.025
2266.70783	8878.125
2269.59378	8799.225
2272.4779	8799.625
2275.36017	8773.925
2278.24061	8725.625
2281.11922	8702.925
2283.996	8706.125
2286.87094	8671.225
2289.74405	8652.225
2292.61534	8632.625
2295.4848	8633.525
2298.35243	8614.725
2301.21824	8582.825
2304.08223	8579.925
2306.94439	8588.825
2309.80474	8572.225
2312.66327	8588.525
2315.51999	8557.825
2318.37489	8565.725
2321.22797	8539.125
2324.07925	8551.325
2326.92871	8525.625
2329.77637	8522.425
2332.62222	8509.725
2335.46626	8484.825
2338.3085	8479.725
2341.14893	8485.925
2343.98756	8484.525
2346.8244	8501.425
2349.65943	8496.325
2352.49267	8504.425
2355.32411	8522.625
2358.15376	8540.225
2360.98161	8561.825
2363.80768	8578.225
2366.63195	8555.225
2369.45444	8568.425
2372.27514	8572.025
2375.09405	8533.325
2377.91118	8515.625
2380.72652	8479.525
2383.54009	8451.425
2386.35187	8391.525
2389.16188	8335.025
2391.97011	8304.325
2394.77657	8286.925
2397.58125	8252.725
2400.38416	8224.825
2403.18529	8227.125
2405.98466	8205.525
2408.78226	8179.625
2411.57809	8157.125
2414.37216	8134.825
2417.16446	8122.325
2419.955	8129.325
2422.74378	8125.525
2425.5308	8123.825
2428.31606	8122.525
2431.09956	8102.025
2433.88131	8108.225
2436.6613	8108.925
2439.43954	8111.625
2442.21603	8098.725
2444.99077	8107.325
2447.76377	8127.825
2450.53501	8112.925
2453.30451	8121.025
2456.07226	8143.325
2458.83827	8123.625
2461.60254	8123.825
2464.36507	8085.925
2467.12586	8102.925
2469.88492	8071.125
2472.64224	8095.225
2475.39782	8115.325
2478.15167	8127.725
2480.90379	8127.025
2483.65417	8174.725
2486.40283	8162.225
2489.14976	8191.225
2491.89497	8218.625
2494.63845	8215.125
2497.3802	8184.125
2500.12024	8182.325
2502.85855	8135.625
2505.59514	8114.225
2508.33002	8071.225
2511.06318	8037.725
2513.79462	7990.225
2516.52435	7965.525
2519.25237	7917.725
2521.97867	7895.125
2524.70327	7885.925
2527.42616	7869.025
2530.14734	7862.125
2532.86681	7860.225
2535.58458	7861.425
2538.30065	7855.325
2541.01501	7840.925
2543.72768	7843.625
2546.43864	7838.325
2549.14791	7837.425
2551.85548	7829.925
2554.56136	7818.325
2557.26554	7816.225
2559.96803	7819.525
2562.66883	7797.425
2565.36794	7782.425
2568.06536	7766.825
2570.7611	7754.625
2573.45514	7765.925
2576.14751	7744.925
2578.83819	7718.525
2581.52719	7709.825
2584.21451	7714.725
2586.90015	7667.525
2589.58411	7668.825
2592.2664	7654.525
2594.94701	7648.825
2597.62594	7637.225
2600.30321	7639.125
2602.9788	7613.325
2605.65273	7604.425
2608.32498	7623.525
2610.99557	7619.225
2613.66449	7645.825
2616.33175	7635.825
2618.99734	7626.625
2621.66128	7619.725
2624.32355	7609.925
2626.98416	7601.325
2629.64311	7585.925
2632.30041	7576.025
2634.95605	7542.625
2637.61004	7525.525
2640.26238	7507.625
2642.91306	7526.425
2645.56209	7524.825
2648.20948	7519.125
2650.85521	7495.125
2653.4993	7485.225
2656.14175	7484.225
2658.78255	7512.425
2661.42171	7513.125
2664.05923	7542.925
2666.6951	7531.225
2669.32934	7547.625
2671.96194	7550.725
2674.59291	7531.925
2677.22224	7554.625
2679.84993	7530.525
2682.476	7535.325
2685.10043	7544.825
2687.72324	7509.325
2690.34441	7497.725
2692.96396	7491.825
2695.58188	7491.525
2698.19818	7492.625
2700.81285	7509.825
2703.4259	7472.425
2706.03733	7484.825
2708.64714	7480.725
2711.25533	7490.525
2713.86191	7494.325
2716.46687	7524.825
2719.07021	7522.825
2721.67194	7544.125
2724.27206	7522.225
2726.87057	7518.925
2729.46747	7511.325
2732.06276	7497.525
2734.65644	7501.025
2737.24852	7489.925
2739.83899	7463.025
2742.42786	7469.925
2745.01513	7457.425
2747.60079	7437.425
2750.18486	7413.725
2752.76733	7426.825
2755.3482	7398.325
2757.92747	7380.125
2760.50515	7385.225
2763.08123	7375.225
2765.65573	7350.125
2768.22863	7357.025
2770.79994	7360.425
2773.36967	7324.125
2775.9378	7349.525
2778.50435	7353.525
2781.06932	7356.125
2783.6327	7357.725
2786.1945	7344.925
2788.75471	7339.725
2791.31335	7333.225
2793.87041	7344.225
2796.42589	7315.025
2798.97979	7307.325
2801.53212	7310.925
2804.08288	7319.425
2806.63206	7287.325
2809.17967	7304.925
2811.72571	7290.525
2814.27018	7304.625
2816.81308	7322.725
2819.35442	7324.825
2821.89419	7341.725
2824.43239	7350.925
2826.96904	7347.225
2829.50412	7340.225
2832.03763	7318.225
2834.56959	7336.425
2837.1	7298.325
2839.62884	7306.425
2842.15613	7303.025
2844.68186	7319.925
2847.20604	7349.725
2849.72867	7350.625
2852.24974	7362.925
2854.76927	7353.625
2857.28724	7359.125
2859.80367	7370.125
2862.31855	7367.725
2864.83189	7371.625
2867.34368	7397.125
2869.85393	7402.925
2872.36264	7387.325
2874.8698	7379.125
2877.37543	7390.625
2879.87952	7369.325
2882.38207	7372.525
2884.88308	7358.025
2887.38256	7356.725
2889.88051	7358.425
2892.37692	7361.625
2894.8718	7346.725
2897.36515	7339.325
2899.85698	7346.125
2902.34727	7357.525
2904.83604	7382.025
2907.32328	7376.125
2909.809	7375.225
2912.29319	7376.525
2914.77587	7382.225
2917.25702	7389.125
2919.73665	7374.125
2922.21476	7370.525
2924.69136	7341.325
2927.16644	7351.125
2929.64	7317.625
2932.11205	7319.025
2934.58258	7289.525
2937.05161	7279.825
2939.51912	7272.125
2941.98513	7256.625
2944.44962	7236.425
2946.91261	7203.425
2949.37409	7206.825
2951.83407	7184.825
2954.29254	7196.925
2956.74951	7172.925
2959.20498	7178.425
2961.65895	7154.125
2964.11142	7136.025
2966.56239	7105.225
2969.01186	7088.625
2971.45984	7064.525
2973.90632	7032.925
2976.35131	7014.825
2978.7948	6999.825
2981.23681	6993.825
2983.67732	6962.025
2986.11635	6944.325
2988.55388	6925.325
2990.98993	6915.325
2993.4245	6904.225
2995.85758	6893.225
2998.28917	6874.925
3000.71928	6881.725
3003.14791	6850.825
3005.57506	6871.125
3008.00073	6844.625
3010.42493	6832.125
3012.84764	6831.025
3015.26888	6813.725
3017.68865	6797.425
3020.10694	6793.125
3022.52376	6789.225
3024.9391	6748.025
3027.35298	6737.425
3029.76539	6703.925
3032.17632	6698.225
3034.5858	6678.225
3036.9938	6675.625
3039.40034	6639.725
3041.80542	6644.425
3044.20903	6608.825
3046.61118	6623.625
3049.01187	6606.625
3051.4111	6584.125
3053.80888	6587.725
3056.20519	6587.425
3058.60005	6561.025
3060.99345	6540.125
3063.3854	6508.525
3065.7759	6472.125
3068.16494	6490.125
3070.55254	6460.925
3072.93868	6455.825
3075.32338	6412.525
3077.70662	6400.125
3080.08842	6371.725
3082.46878	6370.425
3084.84769	6378.125
3087.22515	6350.725
3089.60118	6361.725
3091.97576	6336.725
3094.3489	6353.425
3096.72061	6353.925
3099.09087	6346.225
3101.4597	6327.725
3103.82709	6317.525
3106.19305	6336.525
3108.55757	6321.225
3110.92066	6288.025
3113.28232	6296.425
3115.64255	6273.425
3118.00134	6273.025
3120.35871	6237.025
3122.71466	6226.225
3125.06917	6230.625
3127.42226	6217.525
3129.77393	6218.525
3132.12417	6213.925
3134.47299	6225.825
3136.82039	6237.725
3139.16636	6226.025
3141.51092	6248.125
3143.85406	6230.025
3146.19579	6229.125
3148.53609	6229.025
3150.87499	6230.725
3153.21246	6236.625
3155.54853	6254.525
3157.88318	6225.225
3160.21642	6255.825
3162.54826	6260.125
3164.87868	6261.125
3167.2077	6243.425
3169.5353	6268.525
3171.86151	6237.825
3174.18631	6251.425
3176.5097	6219.925
3178.83169	6214.425
