Data from AgNPs_FTO_APTES_UA_50uM_CRN_20uM_R6G_10uM_NaF_0.1M_Addition_RamanShift__1__13-55-24-910.txt Node

Date: Mon Feb 21 13:55:24 GMT 2022
User: TCL
Spectrometer: QEP01345
Trigger mode: 4
Integration Time (sec): 7.000000E0
Scans to average: 10
Electric dark correction enabled: true
Nonlinearity correction enabled: false
Boxcar width: 0
XAxis mode: Raman Shifts
Number of Pixels in Spectrum: 1044
>>>>>Begin Spectral Data<<<<<
46.04893	-0.225
50.45542	-1.225
54.85868	-0.325
59.25871	-1.825
63.6555	60.175
68.04907	70.075
72.43941	71.675
76.82654	77.975
81.21044	79.575
85.59113	82.675
89.96862	82.075
94.34289	90.075
98.71396	89.575
103.08183	97.075
107.4465	96.675
111.80798	96.475
116.16626	95.275
120.52136	102.075
124.87327	103.975
129.222	109.075
133.56755	115.175
137.90993	121.875
142.24913	126.075
146.58517	142.675
150.91804	164.575
155.24774	191.675
159.57429	235.275
163.89768	294.175
168.21792	388.975
172.53501	526.575
176.84895	731.775
181.15975	1015.075
185.46741	1417.675
189.77193	1960.675
194.07331	2607.175
198.37157	3361.875
202.6667	4132.775
206.9587	4926.875
211.24758	5690.475
215.53334	6473.875
219.81599	7330.575
224.09553	8304.375
228.37195	9327.775
232.64527	10464.475
236.91549	11651.575
241.18261	12789.675
245.44663	13842.275
249.70755	14707.075
253.96539	15467.875
258.22014	16072.375
262.4718	16583.575
266.72039	16960.475
270.96589	17129.775
275.20832	17086.875
279.44768	16859.175
283.68397	16601.275
287.91719	16369.275
292.14735	16257.375
296.37445	16277.775
300.59849	16416.675
304.81948	16637.275
309.03742	16851.175
313.25231	16800.775
317.46415	16547.075
321.67296	16115.675
325.87872	15763.975
330.08145	15676.175
334.28114	15668.075
338.47781	15803.875
342.67145	16004.475
346.86207	16291.975
351.04966	16691.975
355.23424	17121.375
359.4158	17531.375
363.59435	17801.575
367.76989	17995.075
371.94243	18102.075
376.11196	18172.075
380.27849	18209.275
384.44203	18309.175
388.60257	18369.675
392.76012	18463.475
396.91468	18613.175
401.06626	18862.875
405.21485	19062.175
409.36047	18981.075
413.50311	18629.075
417.64277	18350.675
421.77947	18229.275
425.9132	18214.775
430.04396	18249.375
434.17176	18340.675
438.2966	18592.875
442.41849	19060.575
446.53742	19731.075
450.6534	20465.475
454.76644	20871.875
458.87653	20822.375
462.98368	20613.475
467.08789	20201.775
471.18916	19736.475
475.2875	19237.275
479.38291	18840.575
483.4754	18571.175
487.56496	18298.475
491.6516	18175.875
495.73531	18088.075
499.81612	18132.175
503.89401	18263.175
507.96899	18281.775
512.04106	18229.475
516.11023	18241.375
520.1765	18189.175
524.23987	18229.375
528.30034	18221.675
532.35792	18152.875
536.41261	17882.675
540.46441	17529.075
544.51333	17417.675
548.55936	17485.675
552.60252	17837.975
556.64279	18319.475
560.6802	18632.475
564.71473	18685.175
568.7464	18862.775
572.7752	19259.075
576.80114	19495.575
580.82422	19850.775
584.84444	20642.775
588.86181	21853.175
592.87633	23289.075
596.888	23778.375
600.89682	22902.075
604.9028	22728.175
608.90594	24901.775
612.90624	27661.175
616.90371	25975.675
620.89834	21126.375
624.89015	18965.575
628.87913	18673.975
632.86528	18695.375
636.84862	18673.775
640.82913	18307.875
644.80683	17727.175
648.78172	17382.675
652.75379	17361.575
656.72306	17726.775
660.68952	18158.875
664.65319	18014.475
668.61405	17606.475
672.57211	17540.275
676.52738	17650.475
680.47986	17582.675
684.42955	17416.375
688.37646	17338.675
692.32058	17467.175
696.26192	17737.075
700.20048	18005.375
704.13626	18148.975
708.06928	17977.675
711.99952	17837.375
715.927	17889.375
719.85171	18058.575
723.77365	18033.175
727.69284	17763.575
731.60928	17529.775
735.52295	17500.875
739.43388	17549.275
743.34206	17667.775
747.24749	17726.075
751.15017	17811.875
755.05012	18046.475
758.94733	18489.975
762.8418	19493.875
766.73354	21210.775
770.62254	22928.375
774.50882	23511.775
778.39237	22656.375
782.27321	20918.475
786.15132	19375.875
790.02671	18399.075
793.89938	17903.775
797.76935	17724.875
801.6366	17628.275
805.50115	17569.775
809.36299	17455.875
813.22213	17328.675
817.07857	17243.475
820.93231	17169.975
824.78336	17124.775
828.63172	17111.975
832.47738	17163.175
836.32036	17269.575
840.16066	17323.575
843.99827	17360.675
847.8332	17308.975
851.66546	17231.175
855.49504	17215.475
859.32195	17210.475
863.1462	17165.175
866.96777	17096.075
870.78668	17051.375
874.60293	17106.175
878.41652	17168.275
882.22745	17242.875
886.03573	17315.975
889.84136	17335.375
893.64433	17269.675
897.44466	17163.375
901.24235	17071.075
905.0374	17041.575
908.8298	16953.075
912.61957	16952.475
916.40671	17042.775
920.19121	17201.775
923.97308	17446.875
927.75233	17669.375
931.52895	17695.175
935.30295	17493.375
939.07433	17166.875
942.84309	16942.975
946.60924	16788.975
950.37278	16741.275
954.13371	16723.375
957.89203	16611.375
961.64774	16608.275
965.40086	16585.375
969.15137	16579.575
972.89929	16555.175
976.64461	16565.075
980.38733	16652.875
984.12747	16763.975
987.86502	16918.375
991.59999	17133.575
995.33237	17496.375
999.06217	18037.975
1002.78939	18672.075
1006.51404	19154.775
1010.23611	19414.775
1013.95561	19581.675
1017.67255	19569.775
1021.38692	19304.175
1025.09872	19024.475
1028.80796	19086.675
1032.51465	19619.175
1036.21877	20185.175
1039.92035	20330.075
1043.61937	20109.575
1047.31584	19606.775
1051.00976	19062.175
1054.70114	18674.875
1058.38998	18573.475
1062.07627	18521.675
1065.76003	18562.675
1069.44126	18726.175
1073.11995	19071.775
1076.79611	19418.775
1080.46974	19665.775
1084.14085	19929.775
1087.80943	20154.675
1091.47549	20309.475
1095.13903	20161.475
1098.80005	19785.475
1102.45857	19385.175
1106.11456	19179.275
1109.76805	19126.975
1113.41903	19242.375
1117.06751	19405.675
1120.71348	19672.675
1124.35696	19958.375
1127.99793	20324.675
1131.63641	20421.675
1135.2724	20210.375
1138.90589	19970.075
1142.5369	19832.375
1146.16542	19818.875
1149.79145	19843.175
1153.415	19898.175
1157.03607	20104.275
1160.65467	20558.575
1164.27079	21397.875
1167.88443	22494.875
1171.49561	23943.275
1175.10432	25892.575
1178.71056	28486.575
1182.31434	30839.675
1185.91565	31794.675
1189.51451	31257.375
1193.11091	29826.875
1196.70485	28249.075
1200.29634	26954.175
1203.88538	25960.775
1207.47197	25172.275
1211.05612	24521.275
1214.63782	24022.675
1218.21708	23770.775
1221.79391	23803.075
1225.36829	23872.475
1228.94024	23691.475
1232.50976	23171.375
1236.07685	22661.475
1239.6415	22345.475
1243.20374	22352.475
1246.76355	22517.975
1250.32093	22852.375
1253.8759	23341.875
1257.42845	24044.875
1260.97859	24818.575
1264.52631	25688.075
1268.07163	26592.775
1271.61453	27461.075
1275.15503	28240.775
1278.69312	29008.675
1282.22882	29783.475
1285.76211	30675.975
1289.29301	31820.375
1292.82151	32999.475
1296.34761	34588.775
1299.87133	36599.175
1303.39266	39140.475
1306.9116	41988.175
1310.42815	44578.475
1313.94233	45869.175
1317.45412	45057.275
1320.96354	42877.375
1324.47058	40560.575
1327.97525	38589.275
1331.47754	37272.675
1334.97747	36583.475
1338.47502	36041.275
1341.97022	35557.675
1345.46305	35174.975
1348.95352	35437.575
1352.44163	36751.075
1355.92738	39349.175
1359.41078	42911.575
1362.89183	45940.075
1366.37053	45728.475
1369.84688	41240.675
1373.32088	35559.975
1376.79254	31860.175
1380.26186	30328.975
1383.72883	29854.875
1387.19347	29414.575
1390.65578	28652.775
1394.11575	28190.775
1397.57339	28287.875
1401.0287	28634.875
1404.48168	28901.275
1407.93234	29021.375
1411.38068	28833.475
1414.82669	28412.975
1418.27039	27766.375
1421.71177	27013.375
1425.15083	26414.075
1428.58758	26119.475
1432.02203	26490.375
1435.45416	27214.575
1438.88399	27790.775
1442.31151	28049.475
1445.73673	28202.475
1449.15965	28163.275
1452.58027	27973.175
1455.9986	27617.275
1459.41463	27541.275
1462.82837	27929.675
1466.23982	28635.375
1469.64898	29374.775
1473.05586	29943.375
1476.46045	30282.175
1479.86276	30454.875
1483.26279	30524.975
1486.66054	30661.775
1490.05602	31044.575
1493.44922	31547.075
1496.84016	31988.075
1500.22882	32640.975
1503.61521	33816.475
1506.99934	35258.675
1510.38121	36528.275
1513.76081	36756.875
1517.13816	35489.975
1520.51324	33381.175
1523.88607	31692.375
1527.25665	30637.775
1530.62498	30189.175
1533.99105	29791.275
1537.35488	29317.975
1540.71647	28678.275
1544.07581	27987.375
1547.4329	27425.975
1550.78776	26984.875
1554.14038	26636.475
1557.49077	26510.275
1560.83892	26399.275
1564.18484	26483.575
1567.52853	26718.375
1570.86999	27088.575
1574.20922	27576.875
1577.54624	27833.875
1580.88103	27607.375
1584.2136	27456.975
1587.54395	28149.075
1590.87208	29900.775
1594.19801	32281.475
1597.52172	34618.175
1600.84321	35439.575
1604.16251	33772.075
1607.47959	30737.975
1610.79447	27594.275
1614.10715	24897.575
1617.41763	23036.575
1620.7259	21921.275
1624.03199	21569.575
1627.33587	21758.575
1630.63757	22505.875
1633.93707	23997.475
1637.23439	26409.275
1640.52951	29965.875
1643.82246	34409.075
1647.11321	37942.275
1650.40179	38449.475
1653.68819	35187.275
1656.97241	29914.575
1660.25446	25164.175
1663.53433	21976.875
1666.81203	20101.675
1670.08756	19030.775
1673.36092	18377.275
1676.63211	17939.575
1679.90115	17654.775
1683.16801	17405.875
1686.43272	17197.275
1689.69527	17048.975
1692.95567	16911.975
1696.2139	16761.175
1699.46999	16591.075
1702.72392	16533.775
1705.97571	16581.375
1709.22535	16642.075
1712.47284	16682.675
1715.71819	16706.475
1718.96139	16666.175
1722.20246	16662.475
1725.44139	16563.175
1728.67818	16461.875
1731.91284	16410.075
1735.14537	16340.575
1738.37576	16255.075
1741.60403	16208.175
1744.83017	16148.475
1748.05418	16096.475
1751.27607	16046.375
1754.49584	15959.875
1757.71349	15933.475
1760.92903	15888.675
1764.14244	15847.775
1767.35375	15842.375
1770.56294	15829.375
1773.77002	15800.675
1776.97499	15831.075
1780.17785	15885.275
1783.37861	15862.775
1786.57727	15860.375
1789.77382	15849.075
1792.96828	15849.875
1796.16064	15811.075
1799.3509	15787.375
1802.53907	15778.275
1805.72514	15769.075
1808.90913	15737.075
1812.09102	15697.175
1815.27083	15664.775
1818.44856	15656.375
1821.6242	15612.875
1824.79776	15604.375
1827.96924	15596.675
1831.13864	15601.975
1834.30597	15626.075
1837.47122	15610.275
1840.6344	15621.475
1843.7955	15598.475
1846.95454	15591.075
1850.11151	15592.175
1853.26642	15577.775
1856.41926	15579.175
1859.57004	15557.675
1862.71876	15541.775
1865.86542	15544.075
1869.01003	15546.775
1872.15258	15516.775
1875.29308	15538.075
1878.43152	15529.675
1881.56792	15538.075
1884.70227	15532.875
1887.83457	15503.375
1890.96482	15517.875
1894.09304	15460.175
1897.21921	15468.775
1900.34335	15464.475
1903.46544	15460.975
1906.58551	15474.775
1909.70353	15446.275
1912.81953	15441.975
1915.93349	15421.075
1919.04543	15397.775
1922.15534	15354.275
1925.26322	15297.275
1928.36908	15256.475
1931.47292	15263.975
1934.57473	15217.475
1937.67453	15170.075
1940.77232	15144.275
1943.86808	15107.175
1946.96184	15078.475
1950.05358	15035.575
1953.14331	14988.975
1956.23103	14969.075
1959.31675	14916.275
1962.40046	14855.675
1965.48217	14854.275
1968.56188	14824.075
1971.63959	14812.675
1974.7153	14755.075
1977.78901	14722.575
1980.86073	14663.675
1983.93046	14642.575
1986.99819	14596.175
1990.06394	14545.775
1993.1277	14487.375
1996.18947	14460.675
1999.24925	14398.675
2002.30706	14377.675
2005.36288	14315.075
2008.41672	14317.175
2011.46859	14291.875
2014.51848	14285.075
2017.56639	14236.275
2020.61233	14208.075
2023.6563	14172.975
2026.6983	14156.175
2029.73833	14136.975
2032.7764	14129.875
2035.8125	14106.175
2038.84664	14060.675
2041.87881	14044.175
2044.90903	14044.075
2047.93729	14013.875
2050.96359	14089.475
2053.98794	14046.175
2057.01034	14008.075
2060.03078	14031.375
2063.04927	14012.075
2066.06582	14012.375
2069.08042	13992.675
2072.09307	13985.875
2075.10378	13960.375
2078.11255	13943.775
2081.11938	13959.975
2084.12426	13934.275
2087.12722	13954.475
2090.12824	13927.675
2093.12732	13954.675
2096.12447	13988.775
2099.11969	13978.775
2102.11299	13977.775
2105.10435	14002.375
2108.09379	13986.875
2111.08131	14017.475
2114.0669	14005.175
2117.05057	13999.075
2120.03233	14000.275
2123.01216	14031.375
2125.99008	14060.075
2128.96609	14076.075
2131.94018	14133.375
2134.91236	14137.675
2137.88263	14125.475
2140.851	14121.175
2143.81746	14121.975
2146.78201	14115.175
2149.74466	14145.175
2152.7054	14136.875
2155.66425	14132.675
2158.6212	14134.775
2161.57625	14148.675
2164.52941	14138.975
2167.48067	14145.775
2170.43004	14138.675
2173.37752	14106.675
2176.32311	14128.075
2179.26681	14107.475
2182.20863	14131.175
2185.14856	14180.475
2188.08661	14150.575
2191.02278	14177.975
2193.95707	14185.875
2196.88948	14138.075
2199.82001	14160.975
2202.74867	14179.175
2205.67545	14180.875
2208.60037	14192.275
2211.52341	14161.675
2214.44458	14114.375
2217.36388	14099.175
2220.28132	14098.175
2223.1969	14072.475
2226.11061	14046.975
2229.02246	14021.775
2231.93245	14027.875
2234.84058	14034.075
2237.74686	14027.875
2240.65128	14042.075
2243.55385	13998.875
2246.45456	13971.275
2249.35343	13978.375
2252.25044	13944.375
2255.14561	13916.975
2258.03893	13862.775
2260.93041	13852.075
2263.82004	13805.475
2266.70783	13799.575
2269.59378	13769.375
2272.4779	13745.375
2275.36017	13716.875
2278.24061	13731.075
2281.11922	13691.375
2283.996	13653.375
2286.87094	13666.275
2289.74405	13645.275
2292.61534	13643.175
2295.4848	13674.075
2298.35243	13653.975
2301.21824	13668.375
2304.08223	13694.775
2306.94439	13663.775
2309.80474	13674.675
2312.66327	13679.675
2315.51999	13687.675
2318.37489	13687.575
2321.22797	13669.175
2324.07925	13654.475
2326.92871	13666.975
2329.77637	13666.775
2332.62222	13644.775
2335.46626	13633.575
2338.3085	13609.675
2341.14893	13645.875
2343.98756	13647.875
2346.8244	13653.775
2349.65943	13633.475
2352.49267	13624.275
2355.32411	13641.475
2358.15376	13582.275
2360.98161	13629.975
2363.80768	13591.675
2366.63195	13597.475
2369.45444	13596.775
2372.27514	13542.475
2375.09405	13567.975
2377.91118	13530.975
2380.72652	13490.675
2383.54009	13484.775
2386.35187	13473.275
2389.16188	13435.475
2391.97011	13426.075
2394.77657	13398.775
2397.58125	13377.275
2400.38416	13384.675
2403.18529	13351.175
2405.98466	13324.175
2408.78226	13315.175
2411.57809	13313.275
2414.37216	13290.975
2417.16446	13272.475
2419.955	13279.375
2422.74378	13247.675
2425.5308	13236.275
2428.31606	13267.675
2431.09956	13259.675
2433.88131	13235.075
2436.6613	13219.875
2439.43954	13243.975
2442.21603	13260.675
2444.99077	13240.675
2447.76377	13239.875
2450.53501	13217.575
2453.30451	13255.975
2456.07226	13303.675
2458.83827	13272.975
2461.60254	13309.375
2464.36507	13290.075
2467.12586	13264.075
2469.88492	13280.875
2472.64224	13269.275
2475.39782	13256.375
2478.15167	13256.075
2480.90379	13284.675
2483.65417	13334.175
2486.40283	13330.175
2489.14976	13359.075
2491.89497	13358.775
2494.63845	13344.275
2497.3802	13328.675
2500.12024	13335.475
2502.85855	13340.675
2505.59514	13333.975
2508.33002	13325.575
2511.06318	13340.975
2513.79462	13274.275
2516.52435	13302.875
2519.25237	13276.375
2521.97867	13267.475
2524.70327	13237.375
2527.42616	13213.275
2530.14734	13282.775
2532.86681	13256.375
2535.58458	13247.675
2538.30065	13255.775
2541.01501	13265.175
2543.72768	13232.975
2546.43864	13198.875
2549.14791	13219.475
2551.85548	13197.975
2554.56136	13196.675
2557.26554	13186.575
2559.96803	13187.875
2562.66883	13202.375
2565.36794	13179.375
2568.06536	13150.875
2570.7611	13165.675
2573.45514	13164.875
2576.14751	13154.475
2578.83819	13151.475
2581.52719	13165.975
2584.21451	13130.975
2586.90015	13127.975
2589.58411	13134.975
2592.2664	13107.375
2594.94701	13103.775
2597.62594	13119.875
2600.30321	13085.675
2602.9788	13119.075
2605.65273	13114.775
2608.32498	13110.175
2610.99557	13102.875
2613.66449	13143.075
2616.33175	13085.375
2618.99734	13087.875
2621.66128	13077.975
2624.32355	13054.175
2626.98416	13067.075
2629.64311	13066.175
2632.30041	13089.575
2634.95605	13026.175
2637.61004	13000.875
2640.26238	13006.675
2642.91306	13025.775
2645.56209	12969.975
2648.20948	12982.275
2650.85521	12996.875
2653.4993	13008.775
2656.14175	13003.875
2658.78255	13030.775
2661.42171	13028.375
2664.05923	13067.175
2666.6951	13082.475
2669.32934	13092.375
2671.96194	13069.275
2674.59291	13059.375
2677.22224	13102.575
2679.84993	13075.975
2682.476	13077.475
2685.10043	13104.075
2687.72324	13039.675
2690.34441	13017.675
2692.96396	13038.075
2695.58188	13033.675
2698.19818	13031.175
2700.81285	13045.875
2703.4259	13033.875
2706.03733	13000.075
2708.64714	13027.875
2711.25533	13071.075
2713.86191	13071.375
2716.46687	13125.575
2719.07021	13120.275
2721.67194	13142.075
2724.27206	13142.875
2726.87057	13176.875
2729.46747	13141.075
2732.06276	13186.875
2734.65644	13206.075
2737.24852	13202.775
2739.83899	13190.575
2742.42786	13195.175
2745.01513	13136.375
2747.60079	13126.475
2750.18486	13130.875
2752.76733	13115.975
2755.3482	13116.475
2757.92747	13123.175
2760.50515	13135.175
2763.08123	13143.375
2765.65573	13135.075
2768.22863	13136.975
2770.79994	13115.275
2773.36967	13160.675
2775.9378	13136.775
2778.50435	13142.175
2781.06932	13107.875
2783.6327	13106.075
2786.1945	13130.875
2788.75471	13103.975
2791.31335	13108.875
2793.87041	13098.175
2796.42589	13038.975
2798.97979	13031.875
2801.53212	13031.775
2804.08288	13016.975
2806.63206	12972.075
2809.17967	12983.975
2811.72571	12916.975
2814.27018	12948.375
2816.81308	12929.075
2819.35442	12906.175
2821.89419	12882.075
2824.43239	12905.675
2826.96904	12879.875
2829.50412	12907.675
2832.03763	12880.975
2834.56959	12863.775
2837.1	12836.675
2839.62884	12854.375
2842.15613	12855.575
2844.68186	12877.175
2847.20604	12876.275
2849.72867	12887.575
2852.24974	12854.975
2854.76927	12881.775
2857.28724	12835.475
2859.80367	12846.375
2862.31855	12827.175
2864.83189	12851.975
2867.34368	12837.075
2869.85393	12841.175
2872.36264	12811.075
2874.8698	12844.975
2877.37543	12822.675
2879.87952	12842.575
2882.38207	12811.975
2884.88308	12800.975
2887.38256	12851.475
2889.88051	12834.575
2892.37692	12861.275
2894.8718	12856.575
2897.36515	12906.075
2899.85698	12902.875
2902.34727	12910.275
2904.83604	12921.375
2907.32328	12949.175
2909.809	12941.475
2912.29319	12961.675
2914.77587	12967.875
2917.25702	12998.175
2919.73665	12983.975
2922.21476	12949.675
2924.69136	12921.075
2927.16644	12960.275
2929.64	12955.575
2932.11205	12936.875
2934.58258	12876.375
2937.05161	12904.275
2939.51912	12884.475
2941.98513	12877.375
2944.44962	12861.275
2946.91261	12858.375
2949.37409	12899.475
2951.83407	12867.875
2954.29254	12844.075
2956.74951	12844.575
2959.20498	12809.275
2961.65895	12773.175
2964.11142	12813.675
2966.56239	12805.175
2969.01186	12781.375
2971.45984	12745.275
2973.90632	12753.675
2976.35131	12703.975
2978.7948	12685.375
2981.23681	12664.675
2983.67732	12670.675
2986.11635	12645.375
2988.55388	12592.275
2990.98993	12600.175
2993.4245	12584.775
2995.85758	12578.275
2998.28917	12531.775
3000.71928	12529.675
3003.14791	12475.675
3005.57506	12483.375
3008.00073	12435.675
3010.42493	12459.675
3012.84764	12472.275
3015.26888	12444.475
3017.68865	12384.975
3020.10694	12366.375
3022.52376	12349.875
3024.9391	12354.875
3027.35298	12345.975
3029.76539	12344.975
3032.17632	12339.075
3034.5858	12310.375
3036.9938	12320.175
3039.40034	12305.775
3041.80542	12305.775
3044.20903	12262.875
3046.61118	12250.975
3049.01187	12253.975
3051.4111	12238.275
3053.80888	12251.075
3056.20519	12222.875
3058.60005	12168.275
3060.99345	12172.675
3063.3854	12183.875
3065.7759	12139.575
3068.16494	12105.175
3070.55254	12090.475
3072.93868	12068.575
3075.32338	12010.275
3077.70662	12015.675
3080.08842	11956.475
3082.46878	11973.075
3084.84769	11939.775
3087.22515	11944.175
3089.60118	11927.275
3091.97576	11964.275
3094.3489	11941.275
3096.72061	11934.075
3099.09087	11955.575
3101.4597	11952.475
3103.82709	11942.675
3106.19305	11943.375
3108.55757	11956.975
3110.92066	11928.575
3113.28232	11907.675
3115.64255	11876.775
3118.00134	11849.775
3120.35871	11846.675
3122.71466	11805.875
3125.06917	11795.375
3127.42226	11797.975
