Data from AgNPs_FTO_APTES_UA_50uM_CRN_200uM_R6G_10uM_NaF_0.1M_Addition_RamanShift__6__16-01-25-068.txt Node

Date: Mon Feb 21 16:01:25 GMT 2022
User: TCL
Spectrometer: QEP01345
Trigger mode: 4
Integration Time (sec): 7.000000E0
Scans to average: 10
Electric dark correction enabled: true
Nonlinearity correction enabled: false
Boxcar width: 0
XAxis mode: Raman Shifts
Number of Pixels in Spectrum: 1044
>>>>>Begin Spectral Data<<<<<
46.04893	0.725
50.45542	-1.375
54.85868	-0.375
59.25871	-0.775
63.6555	50.525
68.04907	55.925
72.43941	57.825
76.82654	60.825
81.21044	61.925
85.59113	63.425
89.96862	66.225
94.34289	69.925
98.71396	73.425
103.08183	78.825
107.4465	75.125
111.80798	74.525
116.16626	75.425
120.52136	78.825
124.87327	84.425
129.222	81.425
133.56755	83.525
137.90993	94.525
142.24913	99.825
146.58517	110.625
150.91804	123.825
155.24774	144.825
159.57429	178.825
163.89768	224.325
168.21792	298.325
172.53501	407.925
176.84895	565.725
181.15975	786.425
185.46741	1103.425
189.77193	1520.125
194.07331	2022.925
198.37157	2618.325
202.6667	3227.225
206.9587	3850.325
211.24758	4441.125
215.53334	5043.925
219.81599	5685.725
224.09553	6382.225
228.37195	7154.525
232.64527	8034.825
236.91549	8924.925
241.18261	9808.925
245.44663	10645.225
249.70755	11369.325
253.96539	11978.025
258.22014	12516.125
262.4718	12906.525
266.72039	13166.525
270.96589	13367.525
275.20832	13370.825
279.44768	13222.925
283.68397	13035.925
287.91719	12895.425
292.14735	12750.625
296.37445	12771.825
300.59849	12808.225
304.81948	12907.925
309.03742	12962.725
313.25231	12912.725
317.46415	12734.625
321.67296	12480.025
325.87872	12258.125
330.08145	12183.325
334.28114	12171.925
338.47781	12227.925
342.67145	12395.925
346.86207	12606.225
351.04966	12886.125
355.23424	13139.225
359.4158	13412.725
363.59435	13585.825
367.76989	13690.825
371.94243	13769.425
376.11196	13791.025
380.27849	13883.225
384.44203	13950.825
388.60257	14051.225
392.76012	14125.125
396.91468	14293.225
401.06626	14456.325
405.21485	14558.425
409.36047	14475.125
413.50311	14266.725
417.64277	14072.725
421.77947	14001.025
425.9132	13999.325
430.04396	14041.925
434.17176	14120.325
438.2966	14292.925
442.41849	14507.725
446.53742	14869.425
450.6534	15241.225
454.76644	15484.925
458.87653	15530.825
462.98368	15433.125
467.08789	15297.025
471.18916	15044.825
475.2875	14835.825
479.38291	14633.425
483.4754	14478.925
487.56496	14326.925
491.6516	14216.125
495.73531	14147.025
499.81612	14130.725
503.89401	14264.325
507.96899	14314.225
512.04106	14368.025
516.11023	14363.125
520.1765	14324.125
524.23987	14290.825
528.30034	14262.425
532.35792	14213.225
536.41261	14059.725
540.46441	13960.425
544.51333	13895.925
548.55936	13949.325
552.60252	14170.525
556.64279	14433.025
560.6802	14621.025
564.71473	14646.225
568.7464	14731.925
572.7752	14945.025
576.80114	15124.025
580.82422	15335.225
584.84444	15725.625
588.86181	16298.525
592.87633	16924.925
596.888	17123.825
600.89682	16783.725
604.9028	16778.925
608.90594	17999.625
612.90624	19529.325
616.90371	18589.625
620.89834	15821.725
624.89015	14563.925
628.87913	14342.425
632.86528	14472.525
636.84862	14580.825
640.82913	14425.125
644.80683	14151.225
648.78172	13994.925
652.75379	13915.225
656.72306	14067.425
660.68952	14294.125
664.65319	14229.625
668.61405	13967.525
672.57211	13970.225
676.52738	14015.125
680.47986	14081.425
684.42955	14003.625
688.37646	13915.325
692.32058	13887.025
696.26192	13991.625
700.20048	14140.925
704.13626	14178.325
708.06928	14157.025
711.99952	14119.125
715.927	14083.525
719.85171	14163.725
723.77365	14141.525
727.69284	14067.125
731.60928	13959.925
735.52295	13927.725
739.43388	13939.025
743.34206	13972.625
747.24749	14016.625
751.15017	14119.425
755.05012	14220.625
758.94733	14525.225
762.8418	15106.725
766.73354	16164.025
770.62254	17201.725
774.50882	17593.025
778.39237	17061.225
782.27321	15971.925
786.15132	15005.425
790.02671	14377.725
793.89938	14113.325
797.76935	13942.425
801.6366	13902.025
805.50115	13831.225
809.36299	13787.925
813.22213	13691.025
817.07857	13650.725
820.93231	13599.025
824.78336	13548.625
828.63172	13566.025
832.47738	13578.925
836.32036	13567.225
840.16066	13573.425
843.99827	13555.725
847.8332	13560.425
851.66546	13553.725
855.49504	13579.025
859.32195	13579.825
863.1462	13585.725
866.96777	13567.125
870.78668	13577.025
874.60293	13598.525
878.41652	13614.525
882.22745	13662.925
886.03573	13679.625
889.84136	13712.325
893.64433	13661.125
897.44466	13613.325
901.24235	13536.025
905.0374	13484.625
908.8298	13440.025
912.61957	13447.025
916.40671	13483.825
920.19121	13573.725
923.97308	13675.625
927.75233	13748.125
931.52895	13728.225
935.30295	13601.125
939.07433	13394.725
942.84309	13274.325
946.60924	13175.725
950.37278	13131.425
954.13371	13091.325
957.89203	13074.025
961.64774	13088.125
965.40086	13053.925
969.15137	12998.325
972.89929	13012.025
976.64461	12981.325
980.38733	12987.425
984.12747	13048.025
987.86502	13111.825
991.59999	13204.925
995.33237	13322.025
999.06217	13495.425
1002.78939	13744.425
1006.51404	13966.925
1010.23611	14140.525
1013.95561	14258.625
1017.67255	14289.925
1021.38692	14247.325
1025.09872	14052.825
1028.80796	13925.625
1032.51465	13908.225
1036.21877	13989.325
1039.92035	14057.325
1043.61937	14058.925
1047.31584	14008.125
1051.00976	13927.025
1054.70114	13865.825
1058.38998	13872.725
1062.07627	13946.925
1065.76003	14030.825
1069.44126	14122.325
1073.11995	14313.725
1076.79611	14470.625
1080.46974	14573.325
1084.14085	14701.025
1087.80943	14840.325
1091.47549	14898.125
1095.13903	14859.925
1098.80005	14695.425
1102.45857	14453.425
1106.11456	14316.625
1109.76805	14253.625
1113.41903	14302.325
1117.06751	14439.825
1120.71348	14608.925
1124.35696	14834.525
1127.99793	15050.325
1131.63641	15147.925
1135.2724	15028.925
1138.90589	14865.325
1142.5369	14777.725
1146.16542	14752.725
1149.79145	14747.925
1153.415	14756.425
1157.03607	14810.325
1160.65467	15073.125
1164.27079	15557.425
1167.88443	16144.125
1171.49561	16919.425
1175.10432	17938.325
1178.71056	19258.625
1182.31434	20497.825
1185.91565	21058.025
1189.51451	20936.525
1193.11091	20379.525
1196.70485	19674.025
1200.29634	18938.025
1203.88538	18294.025
1207.47197	17776.325
1211.05612	17282.625
1214.63782	16937.925
1218.21708	16657.225
1221.79391	16502.525
1225.36829	16472.525
1228.94024	16488.525
1232.50976	16324.125
1236.07685	16151.025
1239.6415	16009.125
1243.20374	16017.925
1246.76355	16039.525
1250.32093	16194.025
1253.8759	16404.225
1257.42845	16726.025
1260.97859	17113.125
1264.52631	17513.625
1268.07163	17898.425
1271.61453	18267.725
1275.15503	18628.525
1278.69312	18952.825
1282.22882	19264.425
1285.76211	19704.025
1289.29301	20259.425
1292.82151	20931.025
1296.34761	21819.625
1299.87133	22826.425
1303.39266	24027.625
1306.9116	25296.225
1310.42815	26464.425
1313.94233	27231.125
1317.45412	27041.125
1320.96354	26205.525
1324.47058	25331.825
1327.97525	24438.025
1331.47754	23900.425
1334.97747	23526.525
1338.47502	23356.925
1341.97022	23378.925
1345.46305	23510.925
1348.95352	23885.225
1352.44163	24512.625
1355.92738	25635.725
1359.41078	27031.425
1362.89183	28227.525
1366.37053	27790.425
1369.84688	25472.625
1373.32088	22574.525
1376.79254	20625.425
1380.26186	19762.425
1383.72883	19447.725
1387.19347	19223.125
1390.65578	18881.225
1394.11575	18689.925
1397.57339	18720.625
1401.0287	18886.625
1404.48168	18994.625
1407.93234	18987.525
1411.38068	18834.825
1414.82669	18594.925
1418.27039	18219.425
1421.71177	17850.225
1425.15083	17467.125
1428.58758	17277.625
1432.02203	17328.925
1435.45416	17612.025
1438.88399	17984.225
1442.31151	18115.625
1445.73673	18193.525
1449.15965	18276.625
1452.58027	18296.725
1455.9986	18177.325
1459.41463	18209.425
1462.82837	18403.725
1466.23982	18725.125
1469.64898	19082.625
1473.05586	19421.325
1476.46045	19590.825
1479.86276	19646.225
1483.26279	19618.725
1486.66054	19687.925
1490.05602	19879.925
1493.44922	20218.725
1496.84016	20683.525
1500.22882	21338.725
1503.61521	22241.925
1506.99934	23295.425
1510.38121	23971.025
1513.76081	24015.325
1517.13816	23203.425
1520.51324	21934.925
1523.88607	20892.725
1527.25665	20287.425
1530.62498	20022.425
1533.99105	19805.325
1537.35488	19556.825
1540.71647	19213.725
1544.07581	18887.025
1547.4329	18543.625
1550.78776	18293.125
1554.14038	18051.025
1557.49077	17992.325
1560.83892	18041.825
1564.18484	18118.325
1567.52853	18244.725
1570.86999	18480.825
1574.20922	18695.325
1577.54624	18810.425
1580.88103	18611.525
1584.2136	18406.125
1587.54395	18460.225
1590.87208	18987.625
1594.19801	19951.025
1597.52172	20991.525
1600.84321	21446.625
1604.16251	21000.925
1607.47959	19848.925
1610.79447	18517.725
1614.10715	17252.725
1617.41763	16207.225
1620.7259	15517.025
1624.03199	15110.625
1627.33587	15082.525
1630.63757	15358.825
1633.93707	16050.325
1637.23439	17231.425
1640.52951	19027.425
1643.82246	21220.225
1647.11321	23093.325
1650.40179	23531.925
1653.68819	22129.225
1656.97241	19580.425
1660.25446	17053.025
1663.53433	15298.225
1666.81203	14263.225
1670.08756	13629.125
1673.36092	13214.225
1676.63211	13007.125
1679.90115	12827.925
1683.16801	12652.025
1686.43272	12539.625
1689.69527	12418.825
1692.95567	12301.425
1696.2139	12141.725
1699.46999	12029.625
1702.72392	11970.725
1705.97571	12038.525
1709.22535	12088.525
1712.47284	12104.625
1715.71819	12126.225
1718.96139	12139.825
1722.20246	12125.225
1725.44139	12083.625
1728.67818	12020.925
1731.91284	11968.225
1735.14537	11917.425
1738.37576	11874.225
1741.60403	11827.625
1744.83017	11783.025
1748.05418	11715.425
1751.27607	11715.625
1754.49584	11666.625
1757.71349	11602.325
1760.92903	11557.225
1764.14244	11568.225
1767.35375	11565.025
1770.56294	11499.325
1773.77002	11471.525
1776.97499	11535.725
1780.17785	11524.325
1783.37861	11567.325
1786.57727	11559.125
1789.77382	11543.825
1792.96828	11537.725
1796.16064	11499.325
1799.3509	11514.225
1802.53907	11470.625
1805.72514	11458.925
1808.90913	11445.025
1812.09102	11429.825
1815.27083	11392.725
1818.44856	11369.025
1821.6242	11348.825
1824.79776	11371.525
1827.96924	11358.425
1831.13864	11350.225
1834.30597	11346.125
1837.47122	11337.425
1840.6344	11322.525
1843.7955	11314.225
1846.95454	11327.025
1850.11151	11329.825
1853.26642	11305.225
1856.41926	11281.725
1859.57004	11278.225
1862.71876	11270.225
1865.86542	11251.225
1869.01003	11227.425
1872.15258	11231.525
1875.29308	11222.225
1878.43152	11206.925
1881.56792	11183.225
1884.70227	11148.725
1887.83457	11147.325
1890.96482	11135.125
1894.09304	11141.825
1897.21921	11161.425
1900.34335	11112.925
1903.46544	11086.025
1906.58551	11095.125
1909.70353	11065.025
1912.81953	11075.125
1915.93349	11027.925
1919.04543	11052.725
1922.15534	11006.025
1925.26322	10991.525
1928.36908	10963.425
1931.47292	10967.725
1934.57473	10938.125
1937.67453	10908.525
1940.77232	10902.125
1943.86808	10878.225
1946.96184	10842.025
1950.05358	10808.725
1953.14331	10772.225
1956.23103	10737.225
1959.31675	10702.225
1962.40046	10697.725
1965.48217	10623.125
1968.56188	10613.625
1971.63959	10596.525
1974.7153	10569.625
1977.78901	10559.125
1980.86073	10510.725
1983.93046	10498.025
1986.99819	10443.825
1990.06394	10425.525
1993.1277	10383.225
1996.18947	10342.025
1999.24925	10331.125
2002.30706	10311.925
2005.36288	10268.425
2008.41672	10253.625
2011.46859	10206.925
2014.51848	10218.325
2017.56639	10188.725
2020.61233	10172.225
2023.6563	10150.825
2026.6983	10104.225
2029.73833	10072.125
2032.7764	10052.425
2035.8125	10031.325
2038.84664	10040.725
2041.87881	10016.025
2044.90903	9986.625
2047.93729	9973.125
2050.96359	9960.725
2053.98794	9929.425
2057.01034	9954.525
2060.03078	9932.125
2063.04927	9934.725
2066.06582	9904.325
2069.08042	9899.425
2072.09307	9901.825
2075.10378	9871.725
2078.11255	9883.625
2081.11938	9882.025
2084.12426	9891.725
2087.12722	9904.725
2090.12824	9891.725
2093.12732	9878.325
2096.12447	9883.925
2099.11969	9891.625
2102.11299	9900.525
2105.10435	9874.325
2108.09379	9878.425
2111.08131	9908.925
2114.0669	9905.525
2117.05057	9876.125
2120.03233	9926.825
2123.01216	9930.525
2125.99008	9931.425
2128.96609	9945.625
2131.94018	9944.225
2134.91236	9970.725
2137.88263	9977.325
2140.851	9994.625
2143.81746	10002.325
2146.78201	9982.725
2149.74466	9955.825
2152.7054	9944.725
2155.66425	9968.025
2158.6212	9979.225
2161.57625	9982.725
2164.52941	9973.025
2167.48067	9962.125
2170.43004	9967.525
2173.37752	9962.025
2176.32311	9977.325
2179.26681	9924.125
2182.20863	9961.525
2185.14856	9980.625
2188.08661	9981.125
2191.02278	9989.725
2193.95707	9970.425
2196.88948	9983.425
2199.82001	9946.325
2202.74867	9953.225
2205.67545	9969.925
2208.60037	9920.925
2211.52341	9897.025
2214.44458	9873.725
2217.36388	9891.925
2220.28132	9868.425
2223.1969	9840.425
2226.11061	9828.125
2229.02246	9819.025
2231.93245	9808.925
2234.84058	9796.625
2237.74686	9784.025
2240.65128	9784.025
2243.55385	9786.025
2246.45456	9771.825
2249.35343	9751.625
2252.25044	9750.125
2255.14561	9738.125
2258.03893	9720.925
2260.93041	9724.925
2263.82004	9683.425
2266.70783	9665.625
2269.59378	9622.225
2272.4779	9591.725
2275.36017	9590.225
2278.24061	9598.725
2281.11922	9564.525
2283.996	9544.225
2286.87094	9537.825
2289.74405	9508.125
2292.61534	9519.325
2295.4848	9507.225
2298.35243	9515.725
2301.21824	9485.425
2304.08223	9502.925
2306.94439	9485.225
2309.80474	9477.425
2312.66327	9481.025
2315.51999	9472.625
2318.37489	9463.225
2321.22797	9438.425
2324.07925	9442.125
2326.92871	9417.525
2329.77637	9434.725
2332.62222	9413.725
2335.46626	9425.225
2338.3085	9395.225
2341.14893	9373.525
2343.98756	9367.825
2346.8244	9371.925
2349.65943	9363.225
2352.49267	9348.125
2355.32411	9346.925
2358.15376	9370.625
2360.98161	9356.825
2363.80768	9376.425
2366.63195	9363.125
2369.45444	9348.525
2372.27514	9332.025
2375.09405	9340.825
2377.91118	9314.725
2380.72652	9313.025
2383.54009	9263.425
2386.35187	9258.925
2389.16188	9237.825
2391.97011	9218.725
2394.77657	9217.025
2397.58125	9200.325
2400.38416	9202.125
2403.18529	9174.525
2405.98466	9153.125
2408.78226	9152.725
2411.57809	9128.525
2414.37216	9107.925
2417.16446	9104.625
2419.955	9096.025
2422.74378	9107.025
2425.5308	9085.825
2428.31606	9094.725
2431.09956	9091.625
2433.88131	9068.225
2436.6613	9079.325
2439.43954	9069.825
2442.21603	9078.325
2444.99077	9052.325
2447.76377	9063.325
2450.53501	9051.125
2453.30451	9034.825
2456.07226	9063.425
2458.83827	9034.825
2461.60254	9043.525
2464.36507	9025.225
2467.12586	9030.525
2469.88492	9042.025
2472.64224	9040.725
2475.39782	9024.225
2478.15167	9016.325
2480.90379	9013.725
2483.65417	9022.725
2486.40283	9012.425
2489.14976	9025.825
2491.89497	9016.325
2494.63845	9040.225
2497.3802	9016.625
2500.12024	9023.925
2502.85855	9034.525
2505.59514	9026.325
2508.33002	9000.925
2511.06318	8977.525
2513.79462	8992.625
2516.52435	8962.625
2519.25237	8952.925
2521.97867	8947.925
2524.70327	8933.225
2527.42616	8936.825
2530.14734	8935.625
2532.86681	8910.225
2535.58458	8904.425
2538.30065	8907.625
2541.01501	8923.725
2543.72768	8886.825
2546.43864	8869.825
2549.14791	8851.325
2551.85548	8862.225
2554.56136	8840.225
2557.26554	8831.625
2559.96803	8842.825
2562.66883	8828.025
2565.36794	8806.025
2568.06536	8797.825
2570.7611	8781.125
2573.45514	8774.125
2576.14751	8755.825
2578.83819	8772.525
2581.52719	8725.825
2584.21451	8731.025
2586.90015	8718.725
2589.58411	8703.225
2592.2664	8684.625
2594.94701	8693.425
2597.62594	8685.725
2600.30321	8679.125
2602.9788	8687.725
2605.65273	8668.925
2608.32498	8667.725
2610.99557	8666.625
2613.66449	8661.525
2616.33175	8634.325
2618.99734	8648.025
2621.66128	8633.025
2624.32355	8631.625
2626.98416	8645.325
2629.64311	8638.725
2632.30041	8615.725
2634.95605	8585.625
2637.61004	8579.925
2640.26238	8581.825
2642.91306	8582.625
2645.56209	8564.025
2648.20948	8557.125
2650.85521	8537.225
2653.4993	8551.625
2656.14175	8530.525
2658.78255	8542.525
2661.42171	8563.325
2664.05923	8576.925
2666.6951	8589.025
2669.32934	8611.325
2671.96194	8575.625
2674.59291	8584.025
2677.22224	8586.425
2679.84993	8590.325
2682.476	8590.625
2685.10043	8577.125
2687.72324	8570.025
2690.34441	8565.625
2692.96396	8563.025
2695.58188	8573.925
2698.19818	8553.325
2700.81285	8561.125
2703.4259	8529.125
2706.03733	8517.025
2708.64714	8548.625
2711.25533	8544.125
2713.86191	8545.225
2716.46687	8583.025
2719.07021	8597.125
2721.67194	8602.025
2724.27206	8583.925
2726.87057	8600.925
2729.46747	8625.525
2732.06276	8603.625
2734.65644	8618.025
2737.24852	8608.325
2739.83899	8598.825
2742.42786	8613.225
2745.01513	8588.825
2747.60079	8572.825
2750.18486	8562.025
2752.76733	8554.325
2755.3482	8551.225
2757.92747	8530.125
2760.50515	8524.225
2763.08123	8536.225
2765.65573	8515.225
2768.22863	8533.725
2770.79994	8487.825
2773.36967	8489.125
2775.9378	8453.125
2778.50435	8483.325
2781.06932	8475.425
2783.6327	8494.425
2786.1945	8488.225
2788.75471	8478.825
2791.31335	8445.825
2793.87041	8432.525
2796.42589	8421.025
2798.97979	8406.925
2801.53212	8401.525
2804.08288	8395.625
2806.63206	8358.125
2809.17967	8349.825
2811.72571	8349.925
2814.27018	8351.225
2816.81308	8319.125
2819.35442	8317.525
2821.89419	8295.925
2824.43239	8299.825
2826.96904	8290.325
2829.50412	8299.525
2832.03763	8302.525
2834.56959	8286.325
2837.1	8314.525
2839.62884	8302.625
2842.15613	8291.425
2844.68186	8309.225
2847.20604	8299.325
2849.72867	8309.525
2852.24974	8294.925
2854.76927	8264.225
2857.28724	8242.025
2859.80367	8281.825
2862.31855	8277.225
2864.83189	8269.925
2867.34368	8261.025
2869.85393	8265.925
2872.36264	8251.325
2874.8698	8268.225
2877.37543	8244.425
2879.87952	8250.125
2882.38207	8252.625
2884.88308	8233.725
2887.38256	8254.525
2889.88051	8260.025
2892.37692	8265.525
2894.8718	8245.725
2897.36515	8262.325
2899.85698	8263.525
2902.34727	8282.025
2904.83604	8281.925
2907.32328	8294.825
2909.809	8288.325
2912.29319	8304.525
2914.77587	8315.625
2917.25702	8311.825
2919.73665	8292.125
2922.21476	8319.325
2924.69136	8297.225
2927.16644	8300.625
2929.64	8298.725
2932.11205	8262.725
2934.58258	8247.825
2937.05161	8263.825
2939.51912	8269.025
2941.98513	8280.725
2944.44962	8257.125
2946.91261	8206.625
2949.37409	8230.425
2951.83407	8219.325
2954.29254	8222.725
2956.74951	8187.525
2959.20498	8200.125
2961.65895	8162.425
2964.11142	8157.225
2966.56239	8157.625
2969.01186	8164.025
2971.45984	8123.325
2973.90632	8105.725
2976.35131	8101.825
2978.7948	8086.225
2981.23681	8059.125
2983.67732	8049.825
2986.11635	8041.525
2988.55388	8033.325
2990.98993	8031.225
2993.4245	8000.925
2995.85758	7990.125
2998.28917	7958.725
3000.71928	7955.325
3003.14791	7941.925
3005.57506	7938.725
3008.00073	7913.525
3010.42493	7903.025
3012.84764	7887.325
3015.26888	7885.025
3017.68865	7900.925
3020.10694	7873.425
3022.52376	7870.325
3024.9391	7860.025
3027.35298	7849.425
3029.76539	7828.825
3032.17632	7824.925
3034.5858	7803.525
3036.9938	7796.925
3039.40034	7801.125
3041.80542	7786.225
3044.20903	7780.625
3046.61118	7760.825
3049.01187	7793.825
3051.4111	7765.425
3053.80888	7777.825
3056.20519	7740.325
3058.60005	7730.925
3060.99345	7750.025
3063.3854	7716.025
3065.7759	7706.725
3068.16494	7701.825
3070.55254	7671.425
3072.93868	7617.225
3075.32338	7621.125
3077.70662	7605.425
3080.08842	7600.625
3082.46878	7597.825
3084.84769	7579.525
3087.22515	7563.825
3089.60118	7571.025
3091.97576	7569.825
3094.3489	7590.325
3096.72061	7594.725
3099.09087	7579.125
3101.4597	7578.925
3103.82709	7597.525
3106.19305	7585.825
3108.55757	7577.125
3110.92066	7553.025
3113.28232	7545.825
3115.64255	7533.625
3118.00134	7522.625
3120.35871	7518.425
3122.71466	7500.525
3125.06917	7525.325
3127.42226	7491.425
3129.77393	7484.925
3132.12417	7456.225
3134.47299	7468.025
3136.82039	7479.725
3139.16636	7464.425
3141.51092	7454.825
3143.85406	7470.525
3146.19579	7475.325
3148.53609	7478.225
3150.87499	7491.525
3153.21246	7508.925
3155.54853	7517.225
3157.88318	7531.825
3160.21642	7523.925
3162.54826	7534.625
3164.87868	7510.325
3167.2077	7509.625
3169.5353	7524.725
3171.86151	7523.725
3174.18631	7524.025
3176.5097	7505.425
