Data from AgNPs_FTO_APTES_UA_50uM_CRN_1000uM_R6G_10uM_NaF_0.1M_Addition_RamanShift__17__17-46-03-596.txt Node

Date: Mon Feb 21 17:46:03 GMT 2022
User: TCL
Spectrometer: QEP01345
Trigger mode: 4
Integration Time (sec): 7.000000E0
Scans to average: 10
Electric dark correction enabled: true
Nonlinearity correction enabled: false
Boxcar width: 0
XAxis mode: Raman Shifts
Number of Pixels in Spectrum: 1044
>>>>>Begin Spectral Data<<<<<
46.04893	-0.8
50.45542	-0.6
54.85868	-0.1
59.25871	-2.8
63.6555	52.6
68.04907	55.9
72.43941	61.3
76.82654	61.2
81.21044	63.2
85.59113	65.6
89.96862	68.9
94.34289	69.9
98.71396	72.8
103.08183	78.6
107.4465	81.6
111.80798	82.2
116.16626	80.3
120.52136	85.9
124.87327	85.3
129.222	94.2
133.56755	97.9
137.90993	102.4
142.24913	112.1
146.58517	123.5
150.91804	139.1
155.24774	169.2
159.57429	204.5
163.89768	267.3
168.21792	353.2
172.53501	482.1
176.84895	675.1
181.15975	942.2
185.46741	1327.5
189.77193	1840.1
194.07331	2470.6
198.37157	3186.3
202.6667	3939.9
206.9587	4718.9
211.24758	5481.4
215.53334	6218.1
219.81599	6997.5
224.09553	7847.8
228.37195	8815
232.64527	9881
236.91549	10964.5
241.18261	12108.6
245.44663	13099.4
249.70755	14015.2
253.96539	14764.5
258.22014	15409.6
262.4718	15952.3
266.72039	16296.8
270.96589	16459.9
275.20832	16436.6
279.44768	16299.9
283.68397	16057.6
287.91719	15810.6
292.14735	15681.9
296.37445	15698.9
300.59849	15827.7
304.81948	15950.9
309.03742	15998.2
313.25231	15929.2
317.46415	15607.8
321.67296	15169.5
325.87872	14831.5
330.08145	14702.7
334.28114	14720.8
338.47781	14846.8
342.67145	15062.4
346.86207	15328.9
351.04966	15678.2
355.23424	16093.4
359.4158	16429.9
363.59435	16709.7
367.76989	16853.3
371.94243	16955.8
376.11196	17064.6
380.27849	17095.2
384.44203	17180.1
388.60257	17227.3
392.76012	17263.5
396.91468	17347
401.06626	17571.4
405.21485	17669.5
409.36047	17618.1
413.50311	17266
417.64277	16961.1
421.77947	16823.9
425.9132	16802.4
430.04396	16868.9
434.17176	17002.1
438.2966	17185.7
442.41849	17460.5
446.53742	17878.5
450.6534	18234.1
454.76644	18576.9
458.87653	18611.2
462.98368	18485.6
467.08789	18279.5
471.18916	18068.7
475.2875	17812.9
479.38291	17633.1
483.4754	17499.2
487.56496	17335.5
491.6516	17214.3
495.73531	17103.3
499.81612	17065.7
503.89401	17151.8
507.96899	17250
512.04106	17363.1
516.11023	17364
520.1765	17430.7
524.23987	17363.8
528.30034	17280.9
532.35792	17217
536.41261	17098.7
540.46441	16914.7
544.51333	16847.7
548.55936	16904
552.60252	17051.4
556.64279	17346.2
560.6802	17507
564.71473	17547.3
568.7464	17779.6
572.7752	17984.7
576.80114	18039.4
580.82422	17955.2
584.84444	18043.6
588.86181	18336.9
592.87633	18750.9
596.888	18905.6
600.89682	18816.1
604.9028	19292.6
608.90594	21233.8
612.90624	23631.7
616.90371	22776.6
620.89834	19146.2
624.89015	17439.3
628.87913	17107
632.86528	17203.1
636.84862	17324.7
640.82913	17239.7
644.80683	16908.7
648.78172	16618.5
652.75379	16577.7
656.72306	16781.6
660.68952	17090.7
664.65319	17058.3
668.61405	16798.8
672.57211	16790.9
676.52738	16942.1
680.47986	17020
684.42955	16936.5
688.37646	16760.6
692.32058	16646.6
696.26192	16667.3
700.20048	16734.9
704.13626	16768.8
708.06928	16714.3
711.99952	16640.7
715.927	16559.5
719.85171	16571.5
723.77365	16606.8
727.69284	16547.8
731.60928	16496
735.52295	16442.1
739.43388	16472.9
743.34206	16466.4
747.24749	16519
751.15017	16503.5
755.05012	16619.7
758.94733	16934.2
762.8418	17673.3
766.73354	18936.4
770.62254	20359.7
774.50882	21058.5
778.39237	20453.2
782.27321	18932.6
786.15132	17563.7
790.02671	16727.5
793.89938	16338.7
797.76935	16171.4
801.6366	16080.3
805.50115	15996.5
809.36299	15935.2
813.22213	15868.8
817.07857	15813.7
820.93231	15778.6
824.78336	15716.2
828.63172	15705.7
832.47738	15674.7
836.32036	15649
840.16066	15644.4
843.99827	15631.4
847.8332	15594.1
851.66546	15608.9
855.49504	15610.6
859.32195	15625.2
863.1462	15670.2
866.96777	15660.5
870.78668	15613.9
874.60293	15641.1
878.41652	15633.8
882.22745	15635.6
886.03573	15692.6
889.84136	15648.3
893.64433	15603.9
897.44466	15494.2
901.24235	15410.3
905.0374	15316.1
908.8298	15279.7
912.61957	15187.1
916.40671	15256.2
920.19121	15309.4
923.97308	15393.3
927.75233	15421.5
931.52895	15421.4
935.30295	15338
939.07433	15104.5
942.84309	14906
946.60924	14801.5
950.37278	14735.1
954.13371	14709.5
957.89203	14604.5
961.64774	14587.5
965.40086	14516.5
969.15137	14432.7
972.89929	14421.7
976.64461	14375.7
980.38733	14322.3
984.12747	14347.1
987.86502	14421.1
991.59999	14493.4
995.33237	14598.9
999.06217	14785.5
1002.78939	15023.1
1006.51404	15183.6
1010.23611	15317
1013.95561	15451.5
1017.67255	15473.4
1021.38692	15388.2
1025.09872	15212.6
1028.80796	15076.7
1032.51465	15117.4
1036.21877	15238.3
1039.92035	15258.4
1043.61937	15253.6
1047.31584	15170.2
1051.00976	15090.9
1054.70114	15027.5
1058.38998	15031.8
1062.07627	15027.9
1065.76003	15058.8
1069.44126	15076.9
1073.11995	15139
1076.79611	15216.7
1080.46974	15276.6
1084.14085	15400
1087.80943	15560.5
1091.47549	15651.6
1095.13903	15604.5
1098.80005	15438
1102.45857	15237
1106.11456	15120.2
1109.76805	15158.4
1113.41903	15284.5
1117.06751	15487.2
1120.71348	15776.8
1124.35696	16053.1
1127.99793	16279.2
1131.63641	16438.5
1135.2724	16199.8
1138.90589	15902.5
1142.5369	15668.8
1146.16542	15522.2
1149.79145	15430.9
1153.415	15410.1
1157.03607	15486.3
1160.65467	15738.5
1164.27079	16153.6
1167.88443	16735.7
1171.49561	17539.2
1175.10432	18655
1178.71056	20106.2
1182.31434	21454.3
1185.91565	22013.8
1189.51451	21796.7
1193.11091	21062
1196.70485	20168.7
1200.29634	19348.8
1203.88538	18669.5
1207.47197	18010.3
1211.05612	17433.7
1214.63782	17084.4
1218.21708	16929.8
1221.79391	16887.9
1225.36829	16909.2
1228.94024	16806.4
1232.50976	16605.2
1236.07685	16424.1
1239.6415	16330.1
1243.20374	16284.8
1246.76355	16394.2
1250.32093	16480.1
1253.8759	16676.3
1257.42845	16987.8
1260.97859	17253.4
1264.52631	17614.2
1268.07163	17944.8
1271.61453	18295.8
1275.15503	18624.8
1278.69312	18941
1282.22882	19192.7
1285.76211	19479.6
1289.29301	19922.5
1292.82151	20465.1
1296.34761	21203.7
1299.87133	22128.5
1303.39266	23384.6
1306.9116	24816.2
1310.42815	26487
1313.94233	27550.7
1317.45412	27342.5
1320.96354	26326.5
1324.47058	25140.5
1327.97525	24041.5
1331.47754	23290.8
1334.97747	22947.4
1338.47502	22907.9
1341.97022	23149.7
1345.46305	23496.5
1348.95352	24063.4
1352.44163	24885.5
1355.92738	26165.2
1359.41078	27967.1
1362.89183	29648.1
1366.37053	29212.1
1369.84688	26223.2
1373.32088	22823.1
1376.79254	20647.4
1380.26186	19616.6
1383.72883	19223.1
1387.19347	18966.9
1390.65578	18611
1394.11575	18460.2
1397.57339	18435.5
1401.0287	18604.4
1404.48168	18792.2
1407.93234	18816
1411.38068	18745.8
1414.82669	18528.3
1418.27039	18197.3
1421.71177	17740.8
1425.15083	17303.6
1428.58758	17017.5
1432.02203	17062.1
1435.45416	17241.8
1438.88399	17487.7
1442.31151	17693
1445.73673	17847.4
1449.15965	17947.9
1452.58027	18023.5
1455.9986	17987.9
1459.41463	18033.1
1462.82837	18218.6
1466.23982	18513
1469.64898	18768.1
1473.05586	18943.1
1476.46045	19056.3
1479.86276	19081.5
1483.26279	19043.8
1486.66054	19086.3
1490.05602	19211.5
1493.44922	19485.7
1496.84016	19883.4
1500.22882	20657.1
1503.61521	21853.9
1506.99934	23374.2
1510.38121	24736.1
1513.76081	25174.5
1517.13816	24242.9
1520.51324	22443.1
1523.88607	20793.1
1527.25665	19701
1530.62498	19220
1533.99105	18953.2
1537.35488	18753.7
1540.71647	18557.2
1544.07581	18356.4
1547.4329	18160.8
1550.78776	17968.6
1554.14038	17882
1557.49077	17889.3
1560.83892	17915.7
1564.18484	18040.7
1567.52853	18248.2
1570.86999	18453
1574.20922	18695.1
1577.54624	18740.2
1580.88103	18372.1
1584.2136	17932.9
1587.54395	17741.7
1590.87208	18063.5
1594.19801	18842.7
1597.52172	19891.3
1600.84321	20535.5
1604.16251	20190.5
1607.47959	19221.5
1610.79447	17997.1
1614.10715	16799.1
1617.41763	15815.8
1620.7259	15110.6
1624.03199	14732.9
1627.33587	14631.7
1630.63757	14831.5
1633.93707	15421.6
1637.23439	16372.3
1640.52951	17852.7
1643.82246	19683.2
1647.11321	21470.4
1650.40179	22271.6
1653.68819	21386.5
1656.97241	19148
1660.25446	16758.1
1663.53433	15070.8
1666.81203	13993.5
1670.08756	13362.5
1673.36092	12951.3
1676.63211	12721.3
1679.90115	12502.4
1683.16801	12338.4
1686.43272	12210.1
1689.69527	12137.1
1692.95567	12004.9
1696.2139	11920.2
1699.46999	11889.6
1702.72392	11810.1
1705.97571	11778.8
1709.22535	11765.2
1712.47284	11754
1715.71819	11720.5
1718.96139	11694
1722.20246	11633.1
1725.44139	11599.8
1728.67818	11561.6
1731.91284	11500.6
1735.14537	11433.4
1738.37576	11370.1
1741.60403	11360.6
1744.83017	11317.8
1748.05418	11324.4
1751.27607	11347.2
1754.49584	11307.9
1757.71349	11294.7
1760.92903	11265.6
1764.14244	11242.4
1767.35375	11180.9
1770.56294	11119.9
1773.77002	11073.9
1776.97499	11019.9
1780.17785	10993.2
1783.37861	10958.4
1786.57727	10944.4
1789.77382	10906.7
1792.96828	10855.4
1796.16064	10835.9
1799.3509	10806.5
1802.53907	10779
1805.72514	10754.3
1808.90913	10674.1
1812.09102	10653
1815.27083	10637.9
1818.44856	10615.4
1821.6242	10618.8
1824.79776	10567.7
1827.96924	10565.6
1831.13864	10546.9
1834.30597	10550.4
1837.47122	10537.3
1840.6344	10503.2
1843.7955	10500.9
1846.95454	10450
1850.11151	10473.6
1853.26642	10438.9
1856.41926	10432.3
1859.57004	10432.1
1862.71876	10412.1
1865.86542	10423.6
1869.01003	10369.8
1872.15258	10411.8
1875.29308	10399.2
1878.43152	10347
1881.56792	10357.5
1884.70227	10351.7
1887.83457	10349.9
1890.96482	10318.9
1894.09304	10328.1
1897.21921	10295
1900.34335	10289.3
1903.46544	10267
1906.58551	10262.3
1909.70353	10253.9
1912.81953	10231.1
1915.93349	10192.8
1919.04543	10156
1922.15534	10127.6
1925.26322	10103.1
1928.36908	10077.7
1931.47292	10074.4
1934.57473	10040.7
1937.67453	10018.8
1940.77232	10022
1943.86808	9984.6
1946.96184	9934.1
1950.05358	9899.9
1953.14331	9869.4
1956.23103	9849.1
1959.31675	9832.4
1962.40046	9798.8
1965.48217	9752.2
1968.56188	9735.6
1971.63959	9705.4
1974.7153	9657.4
1977.78901	9625.3
1980.86073	9608.9
1983.93046	9577.4
1986.99819	9550.3
1990.06394	9510.8
1993.1277	9477.8
1996.18947	9462.3
1999.24925	9431.2
2002.30706	9395.5
2005.36288	9368.9
2008.41672	9337.4
2011.46859	9286.2
2014.51848	9301.3
2017.56639	9229.4
2020.61233	9208.7
2023.6563	9196.5
2026.6983	9153.8
2029.73833	9129.4
2032.7764	9121.8
2035.8125	9096.8
2038.84664	9060.9
2041.87881	9077.7
2044.90903	9031.2
2047.93729	9012
2050.96359	9008.4
2053.98794	9009.2
2057.01034	8994.3
2060.03078	8978.7
2063.04927	8958.2
2066.06582	8970.7
2069.08042	8948.5
2072.09307	8940.5
2075.10378	8919.6
2078.11255	8923.7
2081.11938	8910.3
2084.12426	8897.8
2087.12722	8885.8
2090.12824	8876.2
2093.12732	8878
2096.12447	8882.3
2099.11969	8907
2102.11299	8884.9
2105.10435	8881.4
2108.09379	8881.1
2111.08131	8890.5
2114.0669	8868
2117.05057	8872.9
2120.03233	8876.1
2123.01216	8890.4
2125.99008	8900.5
2128.96609	8906.9
2131.94018	8929.3
2134.91236	8911.7
2137.88263	8913.6
2140.851	8907.8
2143.81746	8919.5
2146.78201	8904.4
2149.74466	8906
2152.7054	8895.7
2155.66425	8888.5
2158.6212	8876.6
2161.57625	8877.3
2164.52941	8869.8
2167.48067	8854.5
2170.43004	8866.6
2173.37752	8849.3
2176.32311	8838.7
2179.26681	8840.7
2182.20863	8867.6
2185.14856	8834.8
2188.08661	8824.2
2191.02278	8863
2193.95707	8844.5
2196.88948	8854.2
2199.82001	8847.9
2202.74867	8816.6
2205.67545	8810.4
2208.60037	8785.3
2211.52341	8766.3
2214.44458	8746.9
2217.36388	8701
2220.28132	8711.5
2223.1969	8687.1
2226.11061	8671.6
2229.02246	8652.2
2231.93245	8648.1
2234.84058	8622.5
2237.74686	8619.3
2240.65128	8606
2243.55385	8588.6
2246.45456	8557.6
2249.35343	8553.6
2252.25044	8516.8
2255.14561	8511
2258.03893	8533.6
2260.93041	8489.9
2263.82004	8493.7
2266.70783	8455.8
2269.59378	8419.3
2272.4779	8419.2
2275.36017	8407.2
2278.24061	8356.2
2281.11922	8343.8
2283.996	8319.2
2286.87094	8318.4
2289.74405	8293.1
2292.61534	8301.3
2295.4848	8294.1
2298.35243	8284.5
2301.21824	8271.7
2304.08223	8257.5
2306.94439	8247.7
2309.80474	8241.3
2312.66327	8245.1
2315.51999	8235.4
2318.37489	8230.9
2321.22797	8217.4
2324.07925	8212.7
2326.92871	8181.7
2329.77637	8176.8
2332.62222	8157.6
2335.46626	8170.8
2338.3085	8132.5
2341.14893	8107.7
2343.98756	8139.5
2346.8244	8133.6
2349.65943	8113.7
2352.49267	8106.6
2355.32411	8103.6
2358.15376	8092.6
2360.98161	8099
2363.80768	8098.4
2366.63195	8084
2369.45444	8070.8
2372.27514	8051
2375.09405	8044.9
2377.91118	8036.8
2380.72652	8027.2
2383.54009	8003
2386.35187	7979
2389.16188	7947
2391.97011	7922.3
2394.77657	7911
2397.58125	7903.2
2400.38416	7868.5
2403.18529	7861.6
2405.98466	7844.9
2408.78226	7818
2411.57809	7817.6
2414.37216	7805.7
2417.16446	7782
2419.955	7775.3
2422.74378	7783.1
2425.5308	7783.2
2428.31606	7773.3
2431.09956	7745.7
2433.88131	7740.9
2436.6613	7730.9
2439.43954	7732.8
2442.21603	7725.2
2444.99077	7706.1
2447.76377	7712.4
2450.53501	7700.5
2453.30451	7705.7
2456.07226	7686.2
2458.83827	7687.5
2461.60254	7688
2464.36507	7677.4
2467.12586	7647.2
2469.88492	7648
2472.64224	7648
2475.39782	7649.1
2478.15167	7659.9
2480.90379	7648.7
2483.65417	7656.2
2486.40283	7647.9
2489.14976	7652
2491.89497	7654.7
2494.63845	7655.2
2497.3802	7644.5
2500.12024	7640.1
2502.85855	7641.9
2505.59514	7624.5
2508.33002	7589.6
2511.06318	7558.8
2513.79462	7537.9
2516.52435	7549.5
2519.25237	7531.5
2521.97867	7515.2
2524.70327	7515
2527.42616	7481.7
2530.14734	7496.1
2532.86681	7496.5
2535.58458	7479.7
2538.30065	7490.9
2541.01501	7474.1
2543.72768	7435
2546.43864	7427.8
2549.14791	7423
2551.85548	7398.9
2554.56136	7381.4
2557.26554	7393.7
2559.96803	7356.1
2562.66883	7361.4
2565.36794	7342.9
2568.06536	7350.8
2570.7611	7321.4
2573.45514	7324.4
2576.14751	7315.3
2578.83819	7275.1
2581.52719	7275.5
2584.21451	7277.7
2586.90015	7273.3
2589.58411	7263.5
2592.2664	7257.4
2594.94701	7227.1
2597.62594	7214.6
2600.30321	7208.4
2602.9788	7201
2605.65273	7183
2608.32498	7195.8
2610.99557	7179.1
2613.66449	7185.2
2616.33175	7175.3
2618.99734	7175
2621.66128	7169.3
2624.32355	7139.3
2626.98416	7126.2
2629.64311	7118.3
2632.30041	7114.8
2634.95605	7094.4
2637.61004	7133.1
2640.26238	7097.7
2642.91306	7088.4
2645.56209	7094.8
2648.20948	7105.1
2650.85521	7081.6
2653.4993	7069.8
2656.14175	7031.9
2658.78255	7062
2661.42171	7044.4
2664.05923	7065.6
2666.6951	7079.1
2669.32934	7086.4
2671.96194	7071.8
2674.59291	7059.8
2677.22224	7061.4
2679.84993	7056.2
2682.476	7047
2685.10043	7053.2
2687.72324	7041.8
2690.34441	7036.3
2692.96396	7025.6
2695.58188	7031.9
2698.19818	7029.5
2700.81285	7050
2703.4259	7021.4
2706.03733	7027.1
2708.64714	7005.8
2711.25533	7046.8
2713.86191	7044.4
2716.46687	7038.4
2719.07021	7043.2
2721.67194	7050.5
2724.27206	7039.9
2726.87057	7047
2729.46747	7027.2
2732.06276	7029.1
2734.65644	7004
2737.24852	7030.3
2739.83899	6996.2
2742.42786	7012.1
2745.01513	6987.9
2747.60079	6988.7
2750.18486	6975.8
2752.76733	6981.8
2755.3482	6963.4
2757.92747	6954.1
2760.50515	6933.9
2763.08123	6934.5
2765.65573	6929.8
2768.22863	6934.7
2770.79994	6915.9
2773.36967	6912.9
2775.9378	6898.2
2778.50435	6903.5
2781.06932	6903.9
2783.6327	6879.6
2786.1945	6874.5
2788.75471	6878.4
2791.31335	6869.3
2793.87041	6855.4
2796.42589	6831.3
2798.97979	6828.1
2801.53212	6815.1
2804.08288	6778.3
2806.63206	6794.6
2809.17967	6784.7
2811.72571	6744.9
2814.27018	6750.8
2816.81308	6751.1
2819.35442	6728.7
2821.89419	6708.9
2824.43239	6736.4
2826.96904	6734.9
2829.50412	6719.4
2832.03763	6737.8
2834.56959	6734.4
2837.1	6714.9
2839.62884	6698.5
2842.15613	6715.2
2844.68186	6726.3
2847.20604	6742.4
2849.72867	6729
2852.24974	6757.6
2854.76927	6725.5
2857.28724	6725.7
2859.80367	6720.7
2862.31855	6712.5
2864.83189	6709
2867.34368	6701.6
2869.85393	6685.9
2872.36264	6684.5
2874.8698	6688.3
2877.37543	6689.3
2879.87952	6691
2882.38207	6672.5
2884.88308	6664.1
2887.38256	6692.8
2889.88051	6675.2
2892.37692	6688.5
2894.8718	6679.3
2897.36515	6687
2899.85698	6699.5
2902.34727	6687.7
2904.83604	6705.8
2907.32328	6744.3
2909.809	6738.4
2912.29319	6749.7
2914.77587	6738
2917.25702	6759.4
2919.73665	6742.3
2922.21476	6768.8
2924.69136	6758.4
2927.16644	6751.6
2929.64	6733.9
2932.11205	6751.2
2934.58258	6717.3
2937.05161	6733
2939.51912	6740.2
2941.98513	6711.8
2944.44962	6698.4
2946.91261	6668.5
2949.37409	6674.3
2951.83407	6702.8
2954.29254	6675.8
2956.74951	6648.4
2959.20498	6659.3
2961.65895	6628.4
2964.11142	6604.2
2966.56239	6577.5
2969.01186	6570.5
2971.45984	6565.2
2973.90632	6543.4
2976.35131	6513.7
2978.7948	6520.4
2981.23681	6490.6
2983.67732	6474.8
2986.11635	6461.9
2988.55388	6462.4
2990.98993	6434.3
2993.4245	6414.5
2995.85758	6409.1
2998.28917	6371.8
3000.71928	6376.4
3003.14791	6371.9
3005.57506	6369.2
3008.00073	6352.7
3010.42493	6342.6
3012.84764	6341.9
3015.26888	6317.2
3017.68865	6295.1
3020.10694	6297.2
3022.52376	6300.1
3024.9391	6259.8
3027.35298	6262.4
3029.76539	6247.5
3032.17632	6223.7
3034.5858	6224.8
3036.9938	6210.3
3039.40034	6196.1
3041.80542	6198.7
3044.20903	6189.9
3046.61118	6185.9
3049.01187	6195.2
3051.4111	6177.3
3053.80888	6170.1
3056.20519	6166
3058.60005	6129.7
3060.99345	6133.2
3063.3854	6114.9
3065.7759	6096.1
3068.16494	6095.4
3070.55254	6072.8
3072.93868	6054.8
3075.32338	6047.3
3077.70662	6009.9
3080.08842	6013.1
3082.46878	6018.6
3084.84769	6025.3
3087.22515	6013.8
3089.60118	5991.5
3091.97576	6000.6
3094.3489	6000.2
3096.72061	6010.3
3099.09087	6006.8
3101.4597	5986.8
3103.82709	6003.1
3106.19305	5985.8
3108.55757	5995.3
3110.92066	5959.1
3113.28232	5952
3115.64255	5944.4
3118.00134	5966.4
3120.35871	5932
3122.71466	5942.1
3125.06917	5909.6
3127.42226	5897.4
3129.77393	5900.3
3132.12417	5898.1
3134.47299	5937.9
3136.82039	5934.5
3139.16636	5920.5
3141.51092	5926.9
3143.85406	5923.4
3146.19579	5912.9
3148.53609	5926.1
3150.87499	5934.9
3153.21246	5935.6
3155.54853	5921.8
3157.88318	5941.6
3160.21642	5942.9
3162.54826	5947.2
3164.87868	5958.3
3167.2077	5960.4
3169.5353	5958.5
3171.86151	5940.1
3174.18631	5956.8
3176.5097	5959.9
3178.83169	5932
3181.15228	5921.3
3183.47147	5912.7
3185.78926	5903.9
3188.10565	5930.2
3190.42065	5906.7
3192.73424	5906.2
3195.04645	5907.4
3197.35725	5929.1
3199.66667	5915.5
3201.97469	5926.7
3204.28132	5945.8
3206.58656	5941.3
3208.8904	5945
3211.19287	5936
3213.49394	5927.3
3215.79363	5932.8
3218.09193	5947.5
3220.38884	5952.6
3222.68438	5947
3224.97853	5947.6
3227.2713	5935.6
3229.56269	5961
3231.8527	5941
3234.14133	5930.1
3236.42858	5914.5
3238.71446	5907
3240.99896	5904.8
3243.28209	5879.6
3245.56384	5890.3
3247.84423	5879.2
3250.12324	5877.4
3252.40088	5874.8
3254.67715	5874.7
3256.95205	5858
3259.22558	5867.8
3261.49775	5846.5
3263.76855	5853.3
3266.03799	5840.2
3268.30606	5841.8
3270.57277	5827.4
3272.83812	5827.3
3275.10211	5812.5
3277.36474	5796.7
3279.62601	5788.4
3281.88593	5784.5
3284.14448	5786.5
3286.40168	5806.5
3288.65753	5797.9
3290.91202	5803.9
3293.16516	5771.3
3295.41695	5762.5
3297.66738	5731
3299.91647	5712.1
3302.16421	5681.4
3304.4106	5648.8
3306.65564	5635
3308.89933	5589.3
3311.14169	5530.1
3313.38269	5498.5
3315.62236	5455.3
3317.86068	5430.1
3320.09766	5385.9
3322.3333	5360.7
3324.5676	5344
3326.80056	5259.1
3329.03219	5227.5
3331.26248	3.8
3333.49143	0.4
3335.71905	-0.2
