Data from AgNPs_FTO_APTES_UA_50uM_CRN_10uM_R6G_10uM_NaF_0.1M_Addition_RamanShift__31__13-49-34-903.txt Node

Date: Mon Feb 21 13:49:34 GMT 2022
User: TCL
Spectrometer: QEP01345
Trigger mode: 4
Integration Time (sec): 7.000000E0
Scans to average: 10
Electric dark correction enabled: true
Nonlinearity correction enabled: false
Boxcar width: 0
XAxis mode: Raman Shifts
Number of Pixels in Spectrum: 1044
>>>>>Begin Spectral Data<<<<<
46.04893	-0.225
50.45542	-0.025
54.85868	-0.025
59.25871	-2.125
63.6555	49.875
68.04907	57.175
72.43941	56.375
76.82654	59.975
81.21044	60.975
85.59113	68.175
89.96862	70.575
94.34289	72.275
98.71396	74.275
103.08183	79.275
107.4465	75.375
111.80798	78.575
116.16626	79.275
120.52136	83.175
124.87327	87.275
129.222	82.575
133.56755	91.375
137.90993	98.275
142.24913	103.775
146.58517	116.175
150.91804	129.175
155.24774	154.375
159.57429	197.375
163.89768	252.675
168.21792	333.975
172.53501	440.975
176.84895	620.175
181.15975	858.375
185.46741	1201.775
189.77193	1668.475
194.07331	2238.075
198.37157	2910.175
202.6667	3582.675
206.9587	4308.475
211.24758	5035.375
215.53334	5827.975
219.81599	6746.975
224.09553	7831.275
228.37195	9045.375
232.64527	10357.175
236.91549	11589.775
241.18261	12615.375
245.44663	13382.275
249.70755	13903.675
253.96539	14222.375
258.22014	14485.675
262.4718	14614.875
266.72039	14678.175
270.96589	14586.775
275.20832	14238.075
279.44768	13812.075
283.68397	13401.475
287.91719	13232.975
292.14735	13423.375
296.37445	14183.775
300.59849	15435.575
304.81948	16926.875
309.03742	18173.575
313.25231	18320.975
317.46415	17004.175
321.67296	14791.775
325.87872	12931.475
330.08145	12111.575
334.28114	12106.375
338.47781	12481.775
342.67145	13150.675
346.86207	14194.475
351.04966	15824.975
355.23424	17664.375
359.4158	18912.275
363.59435	19386.275
367.76989	19332.975
371.94243	18978.375
376.11196	18565.675
380.27849	18116.275
384.44203	17620.475
388.60257	16998.175
392.76012	16532.575
396.91468	16603.475
401.06626	17192.175
405.21485	17624.375
409.36047	16848.375
413.50311	15092.575
417.64277	13440.775
421.77947	12475.775
425.9132	11980.275
430.04396	11824.975
434.17176	11841.975
438.2966	12148.375
442.41849	12654.475
446.53742	13245.975
450.6534	13746.175
454.76644	13935.075
458.87653	13830.575
462.98368	13504.375
467.08789	13101.375
471.18916	12538.475
475.2875	11932.275
479.38291	11461.175
483.4754	11118.175
487.56496	10892.775
491.6516	10762.275
495.73531	10750.375
499.81612	10883.175
503.89401	11198.075
507.96899	11615.475
512.04106	12120.875
516.11023	12679.775
520.1765	13056.875
524.23987	13036.075
528.30034	12607.975
532.35792	12129.275
536.41261	11625.975
540.46441	11046.475
544.51333	10696.675
548.55936	10748.275
552.60252	11193.775
556.64279	11735.375
560.6802	12010.275
564.71473	12564.275
568.7464	13860.075
572.7752	14326.675
576.80114	13098.675
580.82422	11817.775
584.84444	11229.175
588.86181	11065.675
592.87633	11151.775
596.888	11433.375
600.89682	12354.075
604.9028	15757.075
608.90594	25079.475
612.90624	37447.775
616.90371	35184.675
620.89834	19981.275
624.89015	12965.775
628.87913	11717.575
632.86528	12067.575
636.84862	12607.475
640.82913	12172.675
644.80683	10903.775
648.78172	10118.175
652.75379	10223.575
656.72306	11337.075
660.68952	12590.275
664.65319	12116.075
668.61405	10665.775
672.57211	9961.875
676.52738	9931.875
680.47986	9911.175
684.42955	9685.675
688.37646	9562.275
692.32058	9594.575
696.26192	9778.975
700.20048	10063.275
704.13626	10239.775
708.06928	10155.775
711.99952	9999.675
715.927	9946.175
719.85171	10129.875
723.77365	10194.575
727.69284	10045.975
731.60928	9873.975
735.52295	9877.075
739.43388	9953.675
743.34206	10027.975
747.24749	10074.475
751.15017	10160.975
755.05012	10542.575
758.94733	11814.675
762.8418	14973.775
766.73354	20072.875
770.62254	24943.275
774.50882	27677.375
778.39237	26594.575
782.27321	21198.975
786.15132	15507.975
790.02671	12290.975
793.89938	10936.275
797.76935	10362.175
801.6366	10125.375
805.50115	9976.175
809.36299	9894.375
813.22213	9815.975
817.07857	9745.175
820.93231	9724.275
824.78336	9816.475
828.63172	9959.775
832.47738	9997.275
836.32036	9900.875
840.16066	9729.375
843.99827	9587.275
847.8332	9513.775
851.66546	9507.175
855.49504	9543.475
859.32195	9503.075
863.1462	9416.575
866.96777	9362.775
870.78668	9360.375
874.60293	9412.175
878.41652	9509.675
882.22745	9693.475
886.03573	9827.175
889.84136	9759.475
893.64433	9699.675
897.44466	9704.575
901.24235	9743.775
905.0374	9635.275
908.8298	9467.875
912.61957	9359.575
916.40671	9327.675
920.19121	9434.775
923.97308	9635.575
927.75233	10037.875
931.52895	10393.375
935.30295	10174.175
939.07433	9516.975
942.84309	8943.975
946.60924	8649.475
950.37278	8515.975
954.13371	8431.675
957.89203	8406.575
961.64774	8378.875
965.40086	8377.275
969.15137	8338.475
972.89929	8323.775
976.64461	8276.875
980.38733	8278.075
984.12747	8330.075
987.86502	8375.875
991.59999	8493.975
995.33237	8670.775
999.06217	8970.375
1002.78939	9332.675
1006.51404	9727.175
1010.23611	10097.675
1013.95561	10293.675
1017.67255	10215.875
1021.38692	9970.775
1025.09872	9660.975
1028.80796	9510.675
1032.51465	9591.575
1036.21877	9806.875
1039.92035	9990.175
1043.61937	10080.175
1047.31584	10038.875
1051.00976	9957.675
1054.70114	9821.575
1058.38998	9750.275
1062.07627	9772.175
1065.76003	9808.875
1069.44126	9892.375
1073.11995	10102.475
1076.79611	10487.175
1080.46974	11098.375
1084.14085	11935.175
1087.80943	12680.075
1091.47549	12822.775
1095.13903	12238.175
1098.80005	11371.775
1102.45857	10720.875
1106.11456	10602.875
1109.76805	10952.475
1113.41903	11716.375
1117.06751	12883.975
1120.71348	14451.375
1124.35696	16232.175
1127.99793	17246.175
1131.63641	16329.375
1135.2724	14376.075
1138.90589	12813.075
1142.5369	11896.975
1146.16542	11277.575
1149.79145	10937.475
1153.415	10890.575
1157.03607	11053.275
1160.65467	11495.575
1164.27079	12235.175
1167.88443	13462.275
1171.49561	15533.475
1175.10432	19063.875
1178.71056	23699.175
1182.31434	27081.275
1185.91565	27527.675
1189.51451	25777.575
1193.11091	22992.475
1196.70485	20162.875
1200.29634	18323.675
1203.88538	16873.175
1207.47197	14967.175
1211.05612	13284.875
1214.63782	12327.675
1218.21708	11945.575
1221.79391	11848.775
1225.36829	11882.075
1228.94024	11878.675
1232.50976	11892.475
1236.07685	11991.475
1239.6415	12101.975
1243.20374	12221.175
1246.76355	12334.875
1250.32093	12544.375
1253.8759	12983.675
1257.42845	13707.475
1260.97859	14564.775
1264.52631	15480.275
1268.07163	16337.375
1271.61453	17007.275
1275.15503	17361.575
1278.69312	17430.675
1282.22882	17703.075
1285.76211	18505.175
1289.29301	19625.575
1292.82151	20663.375
1296.34761	21847.175
1299.87133	23912.175
1303.39266	27706.375
1306.9116	33575.975
1310.42815	39398.175
1313.94233	41079.975
1317.45412	37458.075
1320.96354	31844.675
1324.47058	26767.375
1327.97525	23029.275
1331.47754	21012.975
1334.97747	20517.275
1338.47502	21064.375
1341.97022	22692.775
1345.46305	25392.675
1348.95352	29009.475
1352.44163	33516.775
1355.92738	40222.375
1359.41078	50021.575
1362.89183	56923.675
1366.37053	51867.775
1369.84688	40007.575
1373.32088	30319.975
1376.79254	24476.275
1380.26186	21229.475
1383.72883	19236.275
1387.19347	17634.475
1390.65578	16112.975
1394.11575	15059.575
1397.57339	14584.875
1401.0287	14491.975
1404.48168	14599.075
1407.93234	14816.675
1411.38068	15129.975
1414.82669	15397.075
1418.27039	15395.775
1421.71177	15144.475
1425.15083	14868.575
1428.58758	14849.975
1432.02203	15154.175
1435.45416	15344.075
1438.88399	15246.975
1442.31151	15202.175
1445.73673	15271.475
1449.15965	15372.375
1452.58027	15223.375
1455.9986	14919.075
1459.41463	14869.175
1462.82837	15185.275
1466.23982	15804.775
1469.64898	16347.775
1473.05586	16639.875
1476.46045	16881.975
1479.86276	17396.575
1483.26279	18115.075
1486.66054	19242.575
1490.05602	20802.975
1493.44922	23114.875
1496.84016	26747.775
1500.22882	32585.075
1503.61521	40456.275
1506.99934	49011.975
1510.38121	55312.975
1513.76081	55535.275
1517.13816	48693.575
1520.51324	38549.775
1523.88607	30017.775
1527.25665	24733.875
1530.62498	21956.475
1533.99105	20259.175
1537.35488	19247.775
1540.71647	18708.375
1544.07581	18612.175
1547.4329	18729.275
1550.78776	18919.475
1554.14038	19122.675
1557.49077	19422.075
1560.83892	20098.375
1564.18484	21351.775
1567.52853	22961.175
1570.86999	24248.875
1574.20922	24824.075
1577.54624	24184.375
1580.88103	21682.475
1584.2136	18629.475
1587.54395	16942.675
1590.87208	16903.575
1594.19801	18290.375
1597.52172	20343.775
1600.84321	21094.075
1604.16251	20013.075
1607.47959	18200.875
1610.79447	16353.375
1614.10715	14524.975
1617.41763	13185.675
1620.7259	12463.175
1624.03199	12200.275
1627.33587	12351.475
1630.63757	12957.775
1633.93707	14096.075
1637.23439	15986.575
1640.52951	19028.175
1643.82246	23676.075
1647.11321	29218.275
1650.40179	32791.075
1653.68819	30831.875
1656.97241	24658.075
1660.25446	18465.575
1663.53433	14371.875
1666.81203	12097.875
1670.08756	10874.775
1673.36092	10161.875
1676.63211	9683.275
1679.90115	9363.075
1683.16801	9103.275
1686.43272	8956.775
1689.69527	8815.475
1692.95567	8668.875
1696.2139	8534.475
1699.46999	8449.975
1702.72392	8402.575
1705.97571	8475.875
1709.22535	8562.775
1712.47284	8636.975
1715.71819	8659.675
1718.96139	8680.675
1722.20246	8608.775
1725.44139	8521.975
1728.67818	8374.675
1731.91284	8251.875
1735.14537	8160.475
1738.37576	8084.075
1741.60403	8009.175
1744.83017	7977.275
1748.05418	7915.575
1751.27607	7859.375
1754.49584	7784.075
1757.71349	7697.075
1760.92903	7659.175
1764.14244	7609.575
1767.35375	7603.475
1770.56294	7525.075
1773.77002	7494.475
1776.97499	7492.575
1780.17785	7477.575
1783.37861	7488.475
1786.57727	7463.775
1789.77382	7466.975
1792.96828	7463.075
1796.16064	7451.475
1799.3509	7438.075
1802.53907	7422.275
1805.72514	7393.775
1808.90913	7372.675
1812.09102	7330.975
1815.27083	7284.175
1818.44856	7255.875
1821.6242	7232.075
1824.79776	7227.275
1827.96924	7235.075
1831.13864	7199.475
1834.30597	7190.775
1837.47122	7181.875
1840.6344	7159.475
1843.7955	7136.975
1846.95454	7136.675
1850.11151	7121.975
1853.26642	7118.175
1856.41926	7129.675
1859.57004	7130.475
1862.71876	7147.875
1865.86542	7163.475
1869.01003	7173.575
1872.15258	7183.575
1875.29308	7175.075
1878.43152	7180.075
1881.56792	7180.575
1884.70227	7208.675
1887.83457	7175.575
1890.96482	7181.175
1894.09304	7204.575
1897.21921	7202.875
1900.34335	7202.475
1903.46544	7229.675
1906.58551	7215.675
1909.70353	7211.575
1912.81953	7217.075
1915.93349	7209.875
1919.04543	7211.475
1922.15534	7167.275
1925.26322	7158.675
1928.36908	7111.675
1931.47292	7085.975
1934.57473	7006.975
1937.67453	6976.775
1940.77232	6928.875
1943.86808	6882.375
1946.96184	6884.375
1950.05358	6846.475
1953.14331	6805.275
1956.23103	6781.975
1959.31675	6771.175
1962.40046	6769.375
1965.48217	6759.175
1968.56188	6739.175
1971.63959	6738.075
1974.7153	6734.575
1977.78901	6701.175
1980.86073	6669.475
1983.93046	6645.675
1986.99819	6588.475
1990.06394	6556.075
1993.1277	6514.175
1996.18947	6485.875
1999.24925	6460.975
2002.30706	6420.975
2005.36288	6411.875
2008.41672	6392.875
2011.46859	6372.875
2014.51848	6351.275
2017.56639	6320.875
2020.61233	6315.975
2023.6563	6292.675
2026.6983	6290.075
2029.73833	6262.875
2032.7764	6255.575
2035.8125	6250.275
2038.84664	6216.075
2041.87881	6229.975
2044.90903	6204.775
2047.93729	6202.975
2050.96359	6175.275
2053.98794	6176.275
2057.01034	6143.775
2060.03078	6147.675
2063.04927	6123.875
2066.06582	6126.875
2069.08042	6117.275
2072.09307	6096.275
2075.10378	6099.075
2078.11255	6096.475
2081.11938	6103.275
2084.12426	6081.475
2087.12722	6095.575
2090.12824	6078.075
2093.12732	6070.675
2096.12447	6075.675
2099.11969	6063.975
2102.11299	6089.575
2105.10435	6110.775
2108.09379	6089.575
2111.08131	6113.075
2114.0669	6101.475
2117.05057	6113.075
2120.03233	6154.575
2123.01216	6139.975
2125.99008	6138.775
2128.96609	6172.275
2131.94018	6160.675
2134.91236	6146.875
2137.88263	6139.775
2140.851	6127.175
2143.81746	6107.975
2146.78201	6116.975
2149.74466	6105.075
2152.7054	6093.975
2155.66425	6076.575
2158.6212	6077.475
2161.57625	6060.775
2164.52941	6041.575
2167.48067	6040.475
2170.43004	6043.375
2173.37752	6055.475
2176.32311	6047.875
2179.26681	6069.975
2182.20863	6057.775
2185.14856	6070.875
2188.08661	6068.875
2191.02278	6047.075
2193.95707	6055.775
2196.88948	6030.775
2199.82001	6009.675
2202.74867	6030.375
2205.67545	6025.775
2208.60037	6015.875
2211.52341	6008.075
2214.44458	5995.675
2217.36388	5977.175
2220.28132	5967.175
2223.1969	5940.675
2226.11061	5924.775
2229.02246	5929.875
2231.93245	5907.175
2234.84058	5886.675
2237.74686	5890.375
2240.65128	5874.875
2243.55385	5874.875
2246.45456	5896.575
2249.35343	5888.375
2252.25044	5875.475
2255.14561	5899.975
2258.03893	5939.175
2260.93041	5922.875
2263.82004	5924.175
2266.70783	5906.875
2269.59378	5890.375
2272.4779	5886.075
2275.36017	5863.375
2278.24061	5867.075
2281.11922	5838.375
2283.996	5824.075
2286.87094	5788.775
2289.74405	5772.875
2292.61534	5753.775
2295.4848	5733.875
2298.35243	5732.275
2301.21824	5736.075
2304.08223	5722.975
2306.94439	5724.775
2309.80474	5725.175
2312.66327	5733.975
2315.51999	5730.675
2318.37489	5714.075
2321.22797	5700.675
2324.07925	5705.975
2326.92871	5703.775
2329.77637	5692.475
2332.62222	5677.975
2335.46626	5690.675
2338.3085	5682.175
2341.14893	5686.575
2343.98756	5712.075
2346.8244	5713.275
2349.65943	5722.175
2352.49267	5766.775
2355.32411	5780.275
2358.15376	5805.475
2360.98161	5841.775
2363.80768	5843.175
2366.63195	5880.275
2369.45444	5880.375
2372.27514	5888.675
2375.09405	5885.775
2377.91118	5859.775
2380.72652	5813.575
2383.54009	5787.575
2386.35187	5731.875
2389.16188	5697.375
2391.97011	5653.175
2394.77657	5628.775
2397.58125	5592.475
2400.38416	5578.675
2403.18529	5573.075
2405.98466	5540.275
2408.78226	5535.275
2411.57809	5503.475
2414.37216	5501.675
2417.16446	5489.475
2419.955	5489.675
2422.74378	5518.275
2425.5308	5500.475
2428.31606	5508.575
2431.09956	5510.375
2433.88131	5513.275
2436.6613	5538.575
2439.43954	5537.475
2442.21603	5553.275
2444.99077	5541.275
2447.76377	5574.775
2450.53501	5570.875
2453.30451	5594.275
2456.07226	5595.875
2458.83827	5581.175
2461.60254	5596.075
2464.36507	5586.075
2467.12586	5593.275
2469.88492	5578.875
2472.64224	5591.575
2475.39782	5594.775
2478.15167	5607.575
2480.90379	5651.175
2483.65417	5707.675
2486.40283	5729.075
2489.14976	5770.475
2491.89497	5792.975
2494.63845	5783.175
2497.3802	5760.075
2500.12024	5757.775
2502.85855	5730.675
2505.59514	5690.375
2508.33002	5646.075
2511.06318	5598.875
2513.79462	5549.675
2516.52435	5504.775
2519.25237	5469.475
2521.97867	5457.275
2524.70327	5426.975
2527.42616	5405.875
2530.14734	5416.275
2532.86681	5402.675
2535.58458	5419.975
2538.30065	5414.175
2541.01501	5426.575
2543.72768	5420.575
2546.43864	5423.075
2549.14791	5423.175
2551.85548	5431.975
2554.56136	5449.775
2557.26554	5444.175
2559.96803	5426.175
2562.66883	5444.675
2565.36794	5422.175
2568.06536	5425.475
2570.7611	5405.375
2573.45514	5400.175
2576.14751	5398.975
2578.83819	5386.175
2581.52719	5365.875
2584.21451	5347.575
2586.90015	5345.275
2589.58411	5325.375
2592.2664	5321.275
2594.94701	5335.475
2597.62594	5327.875
2600.30321	5324.475
2602.9788	5321.175
2605.65273	5331.075
2608.32498	5342.075
2610.99557	5329.375
2613.66449	5354.875
2616.33175	5357.175
2618.99734	5379.675
2621.66128	5347.275
2624.32355	5345.875
2626.98416	5338.975
2629.64311	5310.175
2632.30041	5299.875
2634.95605	5286.375
2637.61004	5280.275
2640.26238	5259.075
2642.91306	5247.375
2645.56209	5243.875
2648.20948	5235.075
2650.85521	5214.275
2653.4993	5232.475
2656.14175	5241.975
2658.78255	5287.675
2661.42171	5262.575
2664.05923	5280.975
2666.6951	5293.275
2669.32934	5319.775
2671.96194	5335.475
2674.59291	5338.475
2677.22224	5346.475
2679.84993	5351.175
2682.476	5327.075
2685.10043	5354.575
2687.72324	5322.075
2690.34441	5335.775
2692.96396	5310.075
2695.58188	5328.175
2698.19818	5306.875
2700.81285	5289.575
2703.4259	5288.875
2706.03733	5251.775
2708.64714	5256.175
2711.25533	5308.475
2713.86191	5319.275
2716.46687	5337.275
2719.07021	5349.275
2721.67194	5364.075
2724.27206	5355.375
2726.87057	5373.775
2729.46747	5366.175
2732.06276	5371.175
2734.65644	5335.975
2737.24852	5341.775
2739.83899	5320.075
2742.42786	5289.275
2745.01513	5303.375
2747.60079	5289.875
2750.18486	5261.075
2752.76733	5266.475
2755.3482	5253.075
2757.92747	5241.175
2760.50515	5221.275
2763.08123	5221.775
2765.65573	5226.375
2768.22863	5220.575
2770.79994	5220.075
2773.36967	5215.675
2775.9378	5220.375
2778.50435	5222.175
2781.06932	5235.175
2783.6327	5255.075
2786.1945	5257.175
2788.75471	5250.175
2791.31335	5261.975
2793.87041	5262.275
2796.42589	5250.875
2798.97979	5264.675
2801.53212	5272.975
2804.08288	5261.275
2806.63206	5274.475
2809.17967	5282.075
2811.72571	5297.275
2814.27018	5315.275
2816.81308	5321.075
2819.35442	5356.275
2821.89419	5359.975
2824.43239	5379.175
2826.96904	5400.775
2829.50412	5395.275
2832.03763	5391.175
2834.56959	5402.075
2837.1	5416.375
2839.62884	5396.875
2842.15613	5420.375
2844.68186	5450.575
2847.20604	5477.875
2849.72867	5503.675
2852.24974	5498.475
2854.76927	5518.875
2857.28724	5516.975
2859.80367	5543.775
2862.31855	5553.575
2864.83189	5546.575
2867.34368	5565.375
2869.85393	5609.475
2872.36264	5582.075
2874.8698	5592.575
2877.37543	5564.775
2879.87952	5555.075
2882.38207	5535.275
2884.88308	5516.275
2887.38256	5499.875
2889.88051	5507.875
2892.37692	5484.075
2894.8718	5498.875
2897.36515	5506.675
2899.85698	5511.275
2902.34727	5516.775
2904.83604	5512.275
2907.32328	5503.975
2909.809	5494.675
2912.29319	5481.275
2914.77587	5490.475
2917.25702	5465.075
2919.73665	5452.675
2922.21476	5445.975
2924.69136	5439.875
2927.16644	5429.775
2929.64	5402.075
2932.11205	5384.675
2934.58258	5363.175
2937.05161	5358.175
2939.51912	5341.175
2941.98513	5325.275
2944.44962	5300.175
2946.91261	5277.875
2949.37409	5261.275
2951.83407	5263.575
2954.29254	5256.675
2956.74951	5247.475
2959.20498	5227.875
2961.65895	5200.375
2964.11142	5177.075
2966.56239	5175.475
2969.01186	5173.775
2971.45984	5143.375
2973.90632	5133.475
2976.35131	5120.175
2978.7948	5106.475
2981.23681	5089.875
2983.67732	5069.075
2986.11635	5056.875
2988.55388	5057.475
2990.98993	5031.775
2993.4245	5031.075
2995.85758	5032.675
2998.28917	5019.975
3000.71928	5007.575
3003.14791	5018.075
3005.57506	5011.975
3008.00073	4998.975
3010.42493	4982.775
3012.84764	4989.675
3015.26888	4979.575
3017.68865	4968.375
3020.10694	4956.075
3022.52376	4948.675
3024.9391	4929.875
3027.35298	4903.775
3029.76539	4893.675
3032.17632	4898.875
3034.5858	4876.875
3036.9938	4861.675
3039.40034	4859.575
3041.80542	4841.975
3044.20903	4826.075
3046.61118	4816.375
3049.01187	4796.975
3051.4111	4789.775
3053.80888	4778.175
3056.20519	4782.875
3058.60005	4760.475
3060.99345	4751.675
3063.3854	4743.175
3065.7759	4714.475
3068.16494	4707.375
3070.55254	4688.075
3072.93868	4680.275
3075.32338	4644.375
3077.70662	4638.475
3080.08842	4619.675
3082.46878	4589.875
3084.84769	4581.575
3087.22515	4579.775
3089.60118	4561.375
3091.97576	4585.675
3094.3489	4578.275
3096.72061	4566.775
3099.09087	4563.075
3101.4597	4549.675
3103.82709	4566.875
3106.19305	4563.775
3108.55757	4550.375
3110.92066	4535.075
3113.28232	4567.775
3115.64255	4527.275
3118.00134	4508.375
3120.35871	4500.975
3122.71466	4488.275
3125.06917	4494.275
3127.42226	4494.275
3129.77393	4500.975
3132.12417	4504.375
3134.47299	4515.475
3136.82039	4502.575
3139.16636	4502.975
3141.51092	4509.675
3143.85406	4521.575
3146.19579	4521.875
3148.53609	4526.875
3150.87499	4531.575
3153.21246	4561.775
3155.54853	4552.375
3157.88318	4563.875
3160.21642	4562.175
3162.54826	4566.575
3164.87868	4574.175
3167.2077	4566.675
3169.5353	4573.575
3171.86151	4571.875
3174.18631	4559.375
3176.5097	4549.675
3178.83169	4546.675
3181.15228	4559.275
3183.47147	4537.675
3185.78926	4563.375
3188.10565	4568.675
3190.42065	4564.075
3192.73424	4576.675
3195.04645	4574.975
3197.35725	4589.175
3199.66667	4581.275
