Data from AgNPs_FTO_APTES_UA_50uM_CRN_1000uM_R6G_10uM_NaF_0.1M_Addition_RamanShift__26__17-56-33-609.txt Node

Date: Mon Feb 21 17:56:33 GMT 2022
User: TCL
Spectrometer: QEP01345
Trigger mode: 4
Integration Time (sec): 7.000000E0
Scans to average: 10
Electric dark correction enabled: true
Nonlinearity correction enabled: false
Boxcar width: 0
XAxis mode: Raman Shifts
Number of Pixels in Spectrum: 1044
>>>>>Begin Spectral Data<<<<<
46.04893	-1.025
50.45542	-0.525
54.85868	-0.725
59.25871	-2.725
63.6555	37.275
68.04907	41.775
72.43941	45.875
76.82654	46.475
81.21044	46.975
85.59113	49.175
89.96862	53.175
94.34289	49.875
98.71396	56.775
103.08183	59.975
107.4465	59.675
111.80798	57.775
116.16626	59.675
120.52136	63.075
124.87327	64.775
129.222	67.575
133.56755	68.875
137.90993	69.875
142.24913	76.975
146.58517	82.375
150.91804	96.575
155.24774	110.675
159.57429	133.975
163.89768	167.175
168.21792	223.275
172.53501	299.975
176.84895	418.275
181.15975	585.775
185.46741	830.575
189.77193	1134.975
194.07331	1521.675
198.37157	1976.575
202.6667	2437.175
206.9587	2900.275
211.24758	3391.775
215.53334	3885.975
219.81599	4436.575
224.09553	5050.875
228.37195	5750.475
232.64527	6515.475
236.91549	7276.575
241.18261	7968.375
245.44663	8542.675
249.70755	9041.275
253.96539	9438.475
258.22014	9769.575
262.4718	9967.075
266.72039	10055.075
270.96589	10007.375
275.20832	9896.475
279.44768	9654.575
283.68397	9411.575
287.91719	9244.475
292.14735	9274.575
296.37445	9558.375
300.59849	10059.975
304.81948	10661.275
309.03742	11155.475
313.25231	11210.975
317.46415	10628.575
321.67296	9702.275
325.87872	8914.175
330.08145	8587.775
334.28114	8572.975
338.47781	8783.275
342.67145	9098.675
346.86207	9553.775
351.04966	10248.475
355.23424	11056.875
359.4158	11666.475
363.59435	11902.775
367.76989	11939.075
371.94243	11856.275
376.11196	11724.775
380.27849	11591.675
384.44203	11415.875
388.60257	11193.675
392.76012	11026.375
396.91468	11102.575
401.06626	11379.975
405.21485	11584.375
409.36047	11334.175
413.50311	10603.375
417.64277	9925.575
421.77947	9512.675
425.9132	9371.675
430.04396	9336.075
434.17176	9375.275
438.2966	9538.075
442.41849	9773.675
446.53742	10073.075
450.6534	10336.575
454.76644	10483.275
458.87653	10448.875
462.98368	10327.775
467.08789	10142.575
471.18916	9933.775
475.2875	9656.475
479.38291	9461.075
483.4754	9311.675
487.56496	9232.575
491.6516	9154.375
495.73531	9147.575
499.81612	9164.375
503.89401	9294.675
507.96899	9459.975
512.04106	9681.475
516.11023	9921.675
520.1765	10087.175
524.23987	10106.475
528.30034	9945.175
532.35792	9715.275
536.41261	9496.975
540.46441	9267.075
544.51333	9173.275
548.55936	9207.075
552.60252	9403.575
556.64279	9661.375
560.6802	9838.775
564.71473	10049.375
568.7464	10560.675
572.7752	10810.075
576.80114	10284.875
580.82422	9714.675
584.84444	9476.275
588.86181	9479.975
592.87633	9610.875
596.888	9772.075
600.89682	10103.975
604.9028	11443.675
608.90594	15235.075
612.90624	20362.375
616.90371	19686.875
620.89834	13397.575
624.89015	10338.375
628.87913	9816.875
632.86528	9927.375
636.84862	10144.075
640.82913	9974.175
644.80683	9451.475
648.78172	9092.675
652.75379	9107.075
656.72306	9521.675
660.68952	10055.175
664.65319	9916.475
668.61405	9311.075
672.57211	9054.375
676.52738	9068.675
680.47986	9082.375
684.42955	9007.575
688.37646	8927.175
692.32058	8942.575
696.26192	9031.175
700.20048	9160.575
704.13626	9257.475
708.06928	9210.875
711.99952	9122.275
715.927	9097.475
719.85171	9178.375
723.77365	9235.175
727.69284	9147.975
731.60928	9090.975
735.52295	9069.975
739.43388	9109.975
743.34206	9143.475
747.24749	9149.775
751.15017	9186.175
755.05012	9341.475
758.94733	9856.075
762.8418	11080.875
766.73354	13127.475
770.62254	15219.675
774.50882	16415.775
778.39237	15936.875
782.27321	13684.275
786.15132	11345.375
790.02671	10044.675
793.89938	9476.575
797.76935	9260.675
801.6366	9191.375
805.50115	9138.975
809.36299	9142.075
813.22213	9142.475
817.07857	9126.775
820.93231	9094.375
824.78336	9088.475
828.63172	9138.675
832.47738	9158.875
836.32036	9124.675
840.16066	9070.275
843.99827	9016.775
847.8332	9014.875
851.66546	9000.475
855.49504	9013.675
859.32195	9022.275
863.1462	8996.575
866.96777	8991.075
870.78668	8990.075
874.60293	8989.675
878.41652	9058.075
882.22745	9147.775
886.03573	9218.675
889.84136	9202.475
893.64433	9124.575
897.44466	9100.875
901.24235	9104.175
905.0374	9042.275
908.8298	8993.875
912.61957	8895.475
916.40671	8968.475
920.19121	8994.375
923.97308	9080.475
927.75233	9231.575
931.52895	9373.975
935.30295	9294.175
939.07433	9023.775
942.84309	8764.275
946.60924	8609.575
950.37278	8567.775
954.13371	8544.975
957.89203	8537.375
961.64774	8517.975
965.40086	8490.375
969.15137	8460.875
972.89929	8462.075
976.64461	8450.075
980.38733	8447.475
984.12747	8459.475
987.86502	8504.475
991.59999	8561.575
995.33237	8626.375
999.06217	8788.175
1002.78939	8981.975
1006.51404	9133.675
1010.23611	9337.175
1013.95561	9441.775
1017.67255	9433.675
1021.38692	9339.475
1025.09872	9225.175
1028.80796	9152.275
1032.51465	9191.175
1036.21877	9286.675
1039.92035	9336.175
1043.61937	9356.075
1047.31584	9374.975
1051.00976	9354.475
1054.70114	9277.475
1058.38998	9291.075
1062.07627	9300.775
1065.76003	9361.175
1069.44126	9369.375
1073.11995	9440.475
1076.79611	9610.575
1080.46974	9832.575
1084.14085	10174.775
1087.80943	10474.975
1091.47549	10564.375
1095.13903	10363.875
1098.80005	10000.475
1102.45857	9741.475
1106.11456	9700.375
1109.76805	9849.975
1113.41903	10166.675
1117.06751	10648.875
1120.71348	11280.675
1124.35696	11954.175
1127.99793	12401.175
1131.63641	12123.075
1135.2724	11376.575
1138.90589	10755.175
1142.5369	10399.375
1146.16542	10135.475
1149.79145	9958.275
1153.415	9928.675
1157.03607	9987.475
1160.65467	10160.275
1164.27079	10470.075
1167.88443	10966.675
1171.49561	11826.575
1175.10432	13252.875
1178.71056	15157.975
1182.31434	16623.075
1185.91565	16870.275
1189.51451	16218.375
1193.11091	15057.475
1196.70485	13950.375
1200.29634	13220.175
1203.88538	12643.975
1207.47197	11915.775
1211.05612	11251.075
1214.63782	10853.675
1218.21708	10698.075
1221.79391	10670.875
1225.36829	10662.375
1228.94024	10609.275
1232.50976	10586.975
1236.07685	10587.675
1239.6415	10651.675
1243.20374	10735.975
1246.76355	10831.875
1250.32093	10961.575
1253.8759	11158.375
1257.42845	11438.975
1260.97859	11777.675
1264.52631	12100.875
1268.07163	12413.775
1271.61453	12691.975
1275.15503	12844.275
1278.69312	12909.075
1282.22882	12994.975
1285.76211	13281.875
1289.29301	13736.575
1292.82151	14142.775
1296.34761	14651.375
1299.87133	15547.575
1303.39266	17075.275
1306.9116	19471.175
1310.42815	21861.175
1313.94233	22687.275
1317.45412	21365.575
1320.96354	19136.975
1324.47058	17065.375
1327.97525	15500.975
1331.47754	14653.275
1334.97747	14411.575
1338.47502	14662.175
1341.97022	15366.775
1345.46305	16456.075
1348.95352	17806.875
1352.44163	19517.875
1355.92738	22132.175
1359.41078	25975.575
1362.89183	28757.975
1366.37053	26932.075
1369.84688	22165.875
1373.32088	18190.475
1376.79254	15730.975
1380.26186	14353.975
1383.72883	13545.875
1387.19347	13010.475
1390.65578	12505.575
1394.11575	12084.975
1397.57339	11856.875
1401.0287	11855.975
1404.48168	11902.375
1407.93234	11999.875
1411.38068	12121.575
1414.82669	12237.775
1418.27039	12219.175
1421.71177	12065.575
1425.15083	11880.375
1428.58758	11814.175
1432.02203	11937.875
1435.45416	11992.475
1438.88399	11971.475
1442.31151	11910.575
1445.73673	12001.875
1449.15965	12103.175
1452.58027	12010.675
1455.9986	11912.375
1459.41463	11918.975
1462.82837	12047.975
1466.23982	12302.875
1469.64898	12549.275
1473.05586	12647.075
1476.46045	12751.775
1479.86276	12949.375
1483.26279	13230.575
1486.66054	13623.175
1490.05602	14192.975
1493.44922	15003.175
1496.84016	16249.575
1500.22882	18372.675
1503.61521	21370.975
1506.99934	24735.575
1510.38121	27439.475
1513.76081	27845.575
1517.13816	25343.675
1520.51324	21389.075
1523.88607	17972.675
1527.25665	15847.275
1530.62498	14743.075
1533.99105	14072.975
1537.35488	13740.775
1540.71647	13581.675
1544.07581	13561.075
1547.4329	13654.375
1550.78776	13737.875
1554.14038	13872.475
1557.49077	14039.775
1560.83892	14292.975
1564.18484	14773.675
1567.52853	15374.675
1570.86999	15779.575
1574.20922	16014.375
1577.54624	15853.875
1580.88103	14925.675
1584.2136	13765.775
1587.54395	13096.175
1590.87208	13103.275
1594.19801	13657.975
1597.52172	14563.775
1600.84321	15055.975
1604.16251	14702.375
1607.47959	13986.575
1610.79447	13149.675
1614.10715	12324.775
1617.41763	11687.575
1620.7259	11323.275
1624.03199	11156.075
1627.33587	11169.075
1630.63757	11355.775
1633.93707	11835.575
1637.23439	12569.675
1640.52951	13826.575
1643.82246	15702.575
1647.11321	17984.075
1650.40179	19510.375
1653.68819	18808.175
1656.97241	16340.675
1660.25446	13762.475
1663.53433	12100.675
1666.81203	11154.475
1670.08756	10587.175
1673.36092	10246.775
1676.63211	10032.975
1679.90115	9886.275
1683.16801	9783.575
1686.43272	9707.375
1689.69527	9643.075
1692.95567	9590.375
1696.2139	9550.975
1699.46999	9548.475
1702.72392	9523.675
1705.97571	9513.075
1709.22535	9524.475
1712.47284	9496.975
1715.71819	9493.175
1718.96139	9493.375
1722.20246	9469.175
1725.44139	9451.675
1728.67818	9365.475
1731.91284	9322.475
1735.14537	9269.675
1738.37576	9238.275
1741.60403	9216.175
1744.83017	9213.775
1748.05418	9209.475
1751.27607	9192.375
1754.49584	9191.075
1757.71349	9210.575
1760.92903	9182.075
1764.14244	9184.575
1767.35375	9154.175
1770.56294	9153.375
1773.77002	9124.375
1776.97499	9060.175
1780.17785	9056.475
1783.37861	9059.275
1786.57727	9019.675
1789.77382	9020.475
1792.96828	9005.575
1796.16064	9006.075
1799.3509	9001.275
1802.53907	8997.775
1805.72514	8993.275
1808.90913	8963.675
1812.09102	8960.375
1815.27083	8905.875
1818.44856	8918.775
1821.6242	8926.875
1824.79776	8897.875
1827.96924	8893.975
1831.13864	8907.075
1834.30597	8902.875
1837.47122	8895.975
1840.6344	8863.675
1843.7955	8872.675
1846.95454	8888.975
1850.11151	8899.875
1853.26642	8883.975
1856.41926	8891.275
1859.57004	8900.075
1862.71876	8905.775
1865.86542	8920.375
1869.01003	8921.375
1872.15258	8906.375
1875.29308	8939.075
1878.43152	8939.175
1881.56792	8923.075
1884.70227	8919.475
1887.83457	8928.375
1890.96482	8937.775
1894.09304	8932.175
1897.21921	8923.375
1900.34335	8937.875
1903.46544	8951.375
1906.58551	8965.075
1909.70353	8938.275
1912.81953	8937.875
1915.93349	8921.275
1919.04543	8909.975
1922.15534	8897.775
1925.26322	8914.375
1928.36908	8865.875
1931.47292	8850.975
1934.57473	8864.475
1937.67453	8846.575
1940.77232	8836.375
1943.86808	8830.375
1946.96184	8804.975
1950.05358	8795.275
1953.14331	8766.775
1956.23103	8751.675
1959.31675	8744.775
1962.40046	8727.075
1965.48217	8716.575
1968.56188	8712.475
1971.63959	8692.675
1974.7153	8681.475
1977.78901	8670.275
1980.86073	8642.975
1983.93046	8632.075
1986.99819	8596.275
1990.06394	8607.275
1993.1277	8559.875
1996.18947	8549.975
1999.24925	8515.575
2002.30706	8518.775
2005.36288	8492.775
2008.41672	8497.575
2011.46859	8452.775
2014.51848	8454.875
2017.56639	8437.075
2020.61233	8429.875
2023.6563	8417.975
2026.6983	8399.075
2029.73833	8377.575
2032.7764	8385.575
2035.8125	8354.375
2038.84664	8357.175
2041.87881	8326.775
2044.90903	8332.975
2047.93729	8302.975
2050.96359	8332.775
2053.98794	8327.875
2057.01034	8321.875
2060.03078	8334.575
2063.04927	8323.375
2066.06582	8336.475
2069.08042	8321.975
2072.09307	8301.775
2075.10378	8312.975
2078.11255	8326.775
2081.11938	8335.275
2084.12426	8326.175
2087.12722	8347.975
2090.12824	8342.375
2093.12732	8348.675
2096.12447	8370.875
2099.11969	8362.375
2102.11299	8392.975
2105.10435	8401.975
2108.09379	8380.975
2111.08131	8419.375
2114.0669	8424.675
2117.05057	8450.175
2120.03233	8454.275
2123.01216	8495.075
2125.99008	8498.275
2128.96609	8526.775
2131.94018	8538.575
2134.91236	8536.575
2137.88263	8554.375
2140.851	8550.475
2143.81746	8581.075
2146.78201	8577.575
2149.74466	8566.275
2152.7054	8584.875
2155.66425	8602.775
2158.6212	8636.875
2161.57625	8603.975
2164.52941	8601.775
2167.48067	8613.175
2170.43004	8610.275
2173.37752	8616.875
2176.32311	8621.175
2179.26681	8643.875
2182.20863	8677.375
2185.14856	8665.775
2188.08661	8645.275
2191.02278	8673.675
2193.95707	8677.775
2196.88948	8677.075
2199.82001	8681.375
2202.74867	8687.775
2205.67545	8690.075
2208.60037	8691.075
2211.52341	8662.275
2214.44458	8646.175
2217.36388	8642.475
2220.28132	8649.975
2223.1969	8620.475
2226.11061	8659.975
2229.02246	8655.675
2231.93245	8630.875
2234.84058	8599.875
2237.74686	8605.275
2240.65128	8596.375
2243.55385	8606.375
2246.45456	8606.175
2249.35343	8603.375
2252.25044	8594.675
2255.14561	8609.675
2258.03893	8641.375
2260.93041	8648.775
2263.82004	8638.875
2266.70783	8619.475
2269.59378	8602.075
2272.4779	8605.575
2275.36017	8609.575
2278.24061	8595.875
2281.11922	8560.075
2283.996	8538.775
2286.87094	8536.975
2289.74405	8546.975
2292.61534	8515.775
2295.4848	8529.475
2298.35243	8532.075
2301.21824	8524.675
2304.08223	8519.175
2306.94439	8529.375
2309.80474	8535.675
2312.66327	8531.675
2315.51999	8541.575
2318.37489	8545.375
2321.22797	8523.375
2324.07925	8534.775
2326.92871	8524.975
2329.77637	8515.975
2332.62222	8530.675
2335.46626	8510.375
2338.3085	8538.275
2341.14893	8522.875
2343.98756	8539.675
2346.8244	8529.675
2349.65943	8540.175
2352.49267	8541.375
2355.32411	8551.075
2358.15376	8592.075
2360.98161	8608.175
2363.80768	8607.675
2366.63195	8617.875
2369.45444	8618.175
2372.27514	8626.275
2375.09405	8647.175
2377.91118	8613.175
2380.72652	8581.875
2383.54009	8564.475
2386.35187	8547.175
2389.16188	8541.775
2391.97011	8521.375
2394.77657	8501.575
2397.58125	8507.175
2400.38416	8477.675
2403.18529	8459.375
2405.98466	8449.675
2408.78226	8451.075
2411.57809	8443.375
2414.37216	8439.975
2417.16446	8470.675
2419.955	8451.875
2422.74378	8479.775
2425.5308	8459.175
2428.31606	8452.275
2431.09956	8465.475
2433.88131	8454.975
2436.6613	8474.875
2439.43954	8485.175
2442.21603	8458.975
2444.99077	8494.075
2447.76377	8482.675
2450.53501	8497.075
2453.30451	8484.175
2456.07226	8519.575
2458.83827	8486.375
2461.60254	8504.075
2464.36507	8491.275
2467.12586	8494.175
2469.88492	8508.375
2472.64224	8534.075
2475.39782	8511.175
2478.15167	8526.275
2480.90379	8534.675
2483.65417	8574.275
2486.40283	8587.575
2489.14976	8609.575
2491.89497	8594.375
2494.63845	8620.475
2497.3802	8615.875
2500.12024	8595.975
2502.85855	8592.775
2505.59514	8597.475
2508.33002	8547.875
2511.06318	8535.975
2513.79462	8521.475
2516.52435	8480.575
2519.25237	8496.375
2521.97867	8474.475
2524.70327	8490.575
2527.42616	8476.175
2530.14734	8469.675
2532.86681	8479.175
2535.58458	8479.675
2538.30065	8475.175
2541.01501	8478.475
2543.72768	8505.275
2546.43864	8473.075
2549.14791	8476.375
2551.85548	8454.775
2554.56136	8461.375
2557.26554	8456.575
2559.96803	8465.975
2562.66883	8434.375
2565.36794	8418.275
2568.06536	8449.475
2570.7611	8436.775
2573.45514	8422.475
2576.14751	8419.175
2578.83819	8403.275
2581.52719	8406.175
2584.21451	8384.775
2586.90015	8371.675
2589.58411	8384.975
2592.2664	8389.475
2594.94701	8360.275
2597.62594	8349.875
2600.30321	8340.475
2602.9788	8363.775
2605.65273	8356.675
2608.32498	8330.975
2610.99557	8357.675
2613.66449	8357.875
2616.33175	8356.175
2618.99734	8359.575
2621.66128	8347.575
2624.32355	8322.975
2626.98416	8336.975
2629.64311	8332.175
2632.30041	8316.875
2634.95605	8304.975
2637.61004	8286.775
2640.26238	8312.875
2642.91306	8285.275
2645.56209	8304.475
2648.20948	8308.075
2650.85521	8282.975
2653.4993	8308.375
2656.14175	8301.775
2658.78255	8326.475
2661.42171	8332.675
2664.05923	8355.475
2666.6951	8366.175
2669.32934	8363.775
2671.96194	8365.875
2674.59291	8380.375
2677.22224	8364.175
2679.84993	8380.675
2682.476	8370.675
2685.10043	8397.475
2687.72324	8396.875
2690.34441	8405.075
2692.96396	8389.475
2695.58188	8428.975
2698.19818	8403.775
2700.81285	8430.075
2703.4259	8430.975
2706.03733	8459.075
2708.64714	8484.575
2711.25533	8471.275
2713.86191	8479.075
2716.46687	8468.075
2719.07021	8508.675
2721.67194	8511.275
2724.27206	8494.775
2726.87057	8498.575
2729.46747	8503.375
2732.06276	8520.675
2734.65644	8529.275
2737.24852	8519.875
2739.83899	8515.575
2742.42786	8504.375
2745.01513	8495.575
2747.60079	8494.575
2750.18486	8503.275
2752.76733	8484.375
2755.3482	8474.275
2757.92747	8475.775
2760.50515	8416.375
2763.08123	8450.275
2765.65573	8439.675
2768.22863	8430.675
2770.79994	8451.475
2773.36967	8454.575
2775.9378	8435.575
2778.50435	8463.975
2781.06932	8440.075
2783.6327	8453.475
2786.1945	8446.375
2788.75471	8458.875
2791.31335	8444.975
2793.87041	8425.275
2796.42589	8418.875
2798.97979	8413.075
2801.53212	8385.375
2804.08288	8391.575
2806.63206	8403.075
2809.17967	8394.375
2811.72571	8387.775
2814.27018	8388.875
2816.81308	8383.075
2819.35442	8388.675
2821.89419	8392.975
2824.43239	8381.175
2826.96904	8399.775
2829.50412	8412.475
2832.03763	8369.375
2834.56959	8400.475
2837.1	8403.175
2839.62884	8405.375
2842.15613	8379.575
2844.68186	8443.575
2847.20604	8467.575
2849.72867	8476.875
2852.24974	8488.475
2854.76927	8487.575
2857.28724	8492.575
2859.80367	8486.775
2862.31855	8484.675
2864.83189	8483.775
2867.34368	8484.975
2869.85393	8485.475
2872.36264	8461.275
2874.8698	8483.575
2877.37543	8485.375
2879.87952	8475.375
2882.38207	8475.075
2884.88308	8489.675
2887.38256	8466.975
2889.88051	8496.175
2892.37692	8480.075
2894.8718	8515.975
2897.36515	8502.875
2899.85698	8471.175
2902.34727	8538.975
2904.83604	8535.475
2907.32328	8555.875
2909.809	8554.075
2912.29319	8555.075
2914.77587	8539.575
2917.25702	8556.175
2919.73665	8544.575
2922.21476	8571.875
2924.69136	8568.475
2927.16644	8566.075
2929.64	8547.375
2932.11205	8545.275
2934.58258	8531.875
2937.05161	8560.075
2939.51912	8552.475
2941.98513	8543.275
2944.44962	8519.575
2946.91261	8509.575
2949.37409	8534.175
2951.83407	8529.475
2954.29254	8529.975
2956.74951	8537.875
2959.20498	8521.075
2961.65895	8519.975
2964.11142	8526.575
2966.56239	8524.275
2969.01186	8512.875
2971.45984	8494.375
2973.90632	8506.075
2976.35131	8487.075
2978.7948	8492.075
2981.23681	8467.275
2983.67732	8480.875
2986.11635	8454.075
2988.55388	8460.475
2990.98993	8468.975
2993.4245	8473.675
2995.85758	8450.075
2998.28917	8416.375
3000.71928	8430.275
3003.14791	8449.275
3005.57506	8448.675
3008.00073	8424.675
3010.42493	8406.075
3012.84764	8393.975
3015.26888	8429.375
3017.68865	8405.675
3020.10694	8418.875
3022.52376	8427.075
3024.9391	8403.575
3027.35298	8410.475
3029.76539	8399.675
3032.17632	8390.575
3034.5858	8373.675
3036.9938	8397.975
3039.40034	8389.475
3041.80542	8385.175
3044.20903	8373.675
3046.61118	8379.275
3049.01187	8373.075
3051.4111	8361.475
3053.80888	8385.775
3056.20519	8386.375
3058.60005	8377.475
3060.99345	8368.575
3063.3854	8363.475
3065.7759	8325.475
3068.16494	8327.475
3070.55254	8320.375
3072.93868	8306.175
3075.32338	8299.075
3077.70662	8305.475
3080.08842	8277.475
3082.46878	8272.775
3084.84769	8315.075
3087.22515	8319.175
3089.60118	8338.775
3091.97576	8349.775
3094.3489	8351.575
3096.72061	8379.975
3099.09087	8380.775
3101.4597	8380.375
3103.82709	8395.975
3106.19305	8400.675
3108.55757	8430.475
3110.92066	8420.075
3113.28232	8431.775
3115.64255	8424.675
3118.00134	8430.875
3120.35871	8430.875
3122.71466	8423.575
3125.06917	8412.875
3127.42226	8431.775
3129.77393	8452.175
3132.12417	8461.475
3134.47299	8458.675
3136.82039	8489.875
3139.16636	8491.775
3141.51092	8522.975
3143.85406	8534.375
3146.19579	8545.075
3148.53609	8567.575
3150.87499	8628.675
3153.21246	8638.775
3155.54853	8667.075
3157.88318	8663.975
3160.21642	8696.375
3162.54826	8717.375
3164.87868	8720.875
3167.2077	8754.375
3169.5353	8754.875
3171.86151	8776.475
3174.18631	8778.875
3176.5097	8783.875
3178.83169	8789.375
3181.15228	8787.075
3183.47147	8767.075
3185.78926	8810.175
3188.10565	8819.175
3190.42065	8809.975
3192.73424	8826.375
3195.04645	8845.675
3197.35725	8880.475
3199.66667	8887.275
3201.97469	8913.375
3204.28132	8927.375
3206.58656	8960.575
3208.8904	8962.575
3211.19287	8968.975
