Data from AgNPs_FTO_APTES_UA_50uM_CRN_0uM_R6G_10uM_NaF_0.1M_Addition_RamanShift__35__10-51-04-669.txt Node

Date: Mon Feb 21 10:51:04 GMT 2022
User: TCL
Spectrometer: QEP01345
Trigger mode: 4
Integration Time (sec): 7.000000E0
Scans to average: 10
Electric dark correction enabled: true
Nonlinearity correction enabled: false
Boxcar width: 0
XAxis mode: Raman Shifts
Number of Pixels in Spectrum: 1044
>>>>>Begin Spectral Data<<<<<
46.04893	1.625
50.45542	-0.675
54.85868	-0.275
59.25871	-2.175
63.6555	47.425
68.04907	51.625
72.43941	54.025
76.82654	58.125
81.21044	61.725
85.59113	59.525
89.96862	64.225
94.34289	68.625
98.71396	67.825
103.08183	70.825
107.4465	72.125
111.80798	74.425
116.16626	71.925
120.52136	72.025
124.87327	80.825
129.222	82.025
133.56755	84.525
137.90993	94.825
142.24913	100.725
146.58517	113.425
150.91804	123.625
155.24774	150.425
159.57429	181.225
163.89768	234.925
168.21792	310.925
172.53501	425.325
176.84895	592.225
181.15975	828.825
185.46741	1167.325
189.77193	1611.925
194.07331	2148.725
198.37157	2775.525
202.6667	3424.825
206.9587	4085.225
211.24758	4727.325
215.53334	5358.025
219.81599	6057.225
224.09553	6813.025
228.37195	7665.825
232.64527	8593.925
236.91549	9557.525
241.18261	10495.025
245.44663	11354.825
249.70755	12093.825
253.96539	12770.325
258.22014	13311.625
262.4718	13745.925
266.72039	14044.725
270.96589	14191.925
275.20832	14211.725
279.44768	14061.125
283.68397	13904.325
287.91719	13789.925
292.14735	13715.725
296.37445	13726.125
300.59849	13829.525
304.81948	13983.825
309.03742	14037.925
313.25231	13954.225
317.46415	13684.925
321.67296	13231.325
325.87872	12866.125
330.08145	12663.425
334.28114	12596.025
338.47781	12689.625
342.67145	12850.225
346.86207	13101.125
351.04966	13446.225
355.23424	13818.025
359.4158	14121.825
363.59435	14358.325
367.76989	14442.025
371.94243	14495.225
376.11196	14494.525
380.27849	14543.825
384.44203	14557.225
388.60257	14606.225
392.76012	14704.925
396.91468	14870.225
401.06626	15129.325
405.21485	15305.725
409.36047	15246.025
413.50311	14940.125
417.64277	14679.325
421.77947	14586.525
425.9132	14596.925
430.04396	14626.125
434.17176	14664.025
438.2966	14750.425
442.41849	14973.525
446.53742	15343.325
450.6534	15700.925
454.76644	16024.425
458.87653	16139.925
462.98368	16103.525
467.08789	15978.425
471.18916	15783.325
475.2875	15560.425
479.38291	15451.825
483.4754	15363.825
487.56496	15261.825
491.6516	15054.725
495.73531	14890.625
499.81612	14825.525
503.89401	14861.525
507.96899	14925.925
512.04106	14960.025
516.11023	14884.725
520.1765	14776.525
524.23987	14628.025
528.30034	14521.625
532.35792	14385.425
536.41261	14195.725
540.46441	14039.325
544.51333	13979.225
548.55936	14088.025
552.60252	14353.925
556.64279	14721.925
560.6802	15033.625
564.71473	15214.325
568.7464	15633.725
572.7752	16096.325
576.80114	16375.125
580.82422	16582.525
584.84444	16848.525
588.86181	17176.425
592.87633	17378.125
596.888	17266.925
600.89682	16897.125
604.9028	17222.925
608.90594	19001.125
612.90624	21174.425
616.90371	20173.925
620.89834	16534.125
624.89015	14731.025
628.87913	14435.325
632.86528	14551.525
636.84862	14628.325
640.82913	14472.025
644.80683	14099.725
648.78172	13836.325
652.75379	13760.225
656.72306	13981.125
660.68952	14293.125
664.65319	14227.325
668.61405	13931.025
672.57211	13842.025
676.52738	13912.725
680.47986	13954.325
684.42955	13847.925
688.37646	13808.425
692.32058	13862.125
696.26192	14023.225
700.20048	14162.325
704.13626	14273.725
708.06928	14254.525
711.99952	14217.325
715.927	14188.025
719.85171	14260.325
723.77365	14190.925
727.69284	13991.925
731.60928	13790.725
735.52295	13674.325
739.43388	13742.125
743.34206	13751.225
747.24749	13816.525
751.15017	13924.825
755.05012	14135.625
758.94733	14539.325
762.8418	15365.725
766.73354	16656.725
770.62254	17982.725
774.50882	18394.525
778.39237	17686.725
782.27321	16387.725
786.15132	15278.025
790.02671	14456.725
793.89938	14059.425
797.76935	13857.225
801.6366	13782.425
805.50115	13734.625
809.36299	13691.725
813.22213	13562.325
817.07857	13523.325
820.93231	13463.425
824.78336	13420.925
828.63172	13359.225
832.47738	13339.025
836.32036	13321.525
840.16066	13312.925
843.99827	13316.825
847.8332	13319.425
851.66546	13295.525
855.49504	13321.325
859.32195	13334.025
863.1462	13281.625
866.96777	13257.225
870.78668	13225.225
874.60293	13262.425
878.41652	13304.525
882.22745	13338.425
886.03573	13388.825
889.84136	13407.325
893.64433	13388.625
897.44466	13359.025
901.24235	13307.425
905.0374	13227.225
908.8298	13152.625
912.61957	13112.525
916.40671	13185.825
920.19121	13301.225
923.97308	13439.525
927.75233	13498.125
931.52895	13467.025
935.30295	13289.425
939.07433	13029.825
942.84309	12819.725
946.60924	12745.825
950.37278	12656.325
954.13371	12655.225
957.89203	12622.125
961.64774	12588.125
965.40086	12633.825
969.15137	12582.125
972.89929	12504.225
976.64461	12491.425
980.38733	12481.425
984.12747	12494.525
987.86502	12554.925
991.59999	12672.925
995.33237	12791.925
999.06217	13044.325
1002.78939	13279.625
1006.51404	13532.425
1010.23611	13757.725
1013.95561	13915.525
1017.67255	13951.925
1021.38692	13812.225
1025.09872	13595.025
1028.80796	13422.925
1032.51465	13428.725
1036.21877	13493.625
1039.92035	13505.425
1043.61937	13544.825
1047.31584	13525.325
1051.00976	13449.725
1054.70114	13420.325
1058.38998	13458.725
1062.07627	13567.125
1065.76003	13674.925
1069.44126	13850.925
1073.11995	14120.425
1076.79611	14373.325
1080.46974	14524.425
1084.14085	14664.325
1087.80943	14874.925
1091.47549	15030.525
1095.13903	15053.425
1098.80005	14807.925
1102.45857	14456.025
1106.11456	14173.625
1109.76805	14057.125
1113.41903	14022.825
1117.06751	14146.725
1120.71348	14332.625
1124.35696	14499.525
1127.99793	14789.425
1131.63641	14864.225
1135.2724	14773.825
1138.90589	14590.325
1142.5369	14505.625
1146.16542	14484.625
1149.79145	14544.125
1153.415	14614.425
1157.03607	14755.325
1160.65467	15092.425
1164.27079	15653.125
1167.88443	16466.825
1171.49561	17463.525
1175.10432	18794.425
1178.71056	20553.225
1182.31434	22128.525
1185.91565	22897.125
1189.51451	22838.725
1193.11091	22277.025
1196.70485	21355.225
1200.29634	20429.225
1203.88538	19633.425
1207.47197	18960.525
1211.05612	18447.225
1214.63782	18059.225
1218.21708	17736.625
1221.79391	17508.625
1225.36829	17360.525
1228.94024	17160.425
1232.50976	16924.925
1236.07685	16676.525
1239.6415	16468.625
1243.20374	16386.825
1246.76355	16421.725
1250.32093	16559.225
1253.8759	16888.125
1257.42845	17328.025
1260.97859	17895.625
1264.52631	18537.825
1268.07163	19180.425
1271.61453	19697.025
1275.15503	20194.225
1278.69312	20725.725
1282.22882	21222.025
1285.76211	21793.325
1289.29301	22523.325
1292.82151	23373.225
1296.34761	24462.825
1299.87133	25808.725
1303.39266	27261.725
1306.9116	28895.425
1310.42815	30478.325
1313.94233	31481.825
1317.45412	31397.025
1320.96354	30710.825
1324.47058	29932.125
1327.97525	29242.225
1331.47754	28805.425
1334.97747	28407.325
1338.47502	28170.125
1341.97022	27925.125
1345.46305	27693.825
1348.95352	27480.325
1352.44163	27596.525
1355.92738	28204.825
1359.41078	29580.225
1362.89183	31200.225
1366.37053	31016.925
1369.84688	28497.925
1373.32088	25198.525
1376.79254	22914.625
1380.26186	21854.125
1383.72883	21589.625
1387.19347	21315.025
1390.65578	21037.525
1394.11575	20896.825
1397.57339	21051.425
1401.0287	21358.925
1404.48168	21589.425
1407.93234	21618.425
1411.38068	21326.425
1414.82669	20767.125
1418.27039	20017.925
1421.71177	19310.025
1425.15083	18688.425
1428.58758	18410.125
1432.02203	18551.925
1435.45416	18912.425
1438.88399	19376.825
1442.31151	19716.225
1445.73673	19950.225
1449.15965	20167.225
1452.58027	20331.425
1455.9986	20338.125
1459.41463	20454.825
1462.82837	20715.325
1466.23982	20997.725
1469.64898	21252.625
1473.05586	21418.425
1476.46045	21365.025
1479.86276	21248.025
1483.26279	21186.925
1486.66054	21241.925
1490.05602	21484.225
1493.44922	21877.725
1496.84016	22416.025
1500.22882	23310.325
1503.61521	24466.725
1506.99934	25780.325
1510.38121	26914.425
1513.76081	27166.625
1517.13816	26349.225
1520.51324	24796.625
1523.88607	23299.825
1527.25665	22395.325
1530.62498	21921.725
1533.99105	21693.625
1537.35488	21361.825
1540.71647	20949.225
1544.07581	20430.825
1547.4329	19979.825
1550.78776	19584.425
1554.14038	19311.425
1557.49077	19207.125
1560.83892	19257.625
1564.18484	19448.925
1567.52853	19681.425
1570.86999	19970.525
1574.20922	20342.025
1577.54624	20549.925
1580.88103	20417.725
1584.2136	20287.625
1587.54395	20631.725
1590.87208	21457.725
1594.19801	22651.725
1597.52172	23880.225
1600.84321	24150.425
1604.16251	23088.825
1607.47959	21382.825
1610.79447	19568.425
1614.10715	17883.625
1617.41763	16539.625
1620.7259	15593.925
1624.03199	15122.025
1627.33587	15101.925
1630.63757	15504.325
1633.93707	16449.025
1637.23439	18039.825
1640.52951	20430.725
1643.82246	23244.125
1647.11321	25620.125
1650.40179	26400.625
1653.68819	24800.125
1656.97241	21510.925
1660.25446	18159.425
1663.53433	15673.725
1666.81203	14124.225
1670.08756	13204.525
1673.36092	12681.825
1676.63211	12327.625
1679.90115	12074.625
1683.16801	11887.725
1686.43272	11753.325
1689.69527	11617.025
1692.95567	11462.425
1696.2139	11327.025
1699.46999	11187.925
1702.72392	11127.525
1705.97571	11185.225
1709.22535	11260.325
1712.47284	11284.025
1715.71819	11331.825
1718.96139	11281.425
1722.20246	11275.325
1725.44139	11221.525
1728.67818	11153.225
1731.91284	11061.825
1735.14537	11015.725
1738.37576	10968.325
1741.60403	10917.825
1744.83017	10849.025
1748.05418	10802.425
1751.27607	10735.825
1754.49584	10676.025
1757.71349	10596.025
1760.92903	10552.425
1764.14244	10528.125
1767.35375	10545.225
1770.56294	10512.825
1773.77002	10518.025
1776.97499	10559.625
1780.17785	10590.825
1783.37861	10615.525
1786.57727	10590.825
1789.77382	10601.125
1792.96828	10576.725
1796.16064	10572.125
1799.3509	10544.125
1802.53907	10525.725
1805.72514	10485.725
1808.90913	10449.925
1812.09102	10430.325
1815.27083	10424.325
1818.44856	10420.325
1821.6242	10399.225
1824.79776	10403.325
1827.96924	10363.525
1831.13864	10380.925
1834.30597	10379.225
1837.47122	10383.025
1840.6344	10373.625
1843.7955	10352.925
1846.95454	10341.325
1850.11151	10341.525
1853.26642	10323.625
1856.41926	10291.925
1859.57004	10308.225
1862.71876	10316.125
1865.86542	10290.425
1869.01003	10276.025
1872.15258	10248.325
1875.29308	10255.725
1878.43152	10238.025
1881.56792	10259.925
1884.70227	10254.125
1887.83457	10215.325
1890.96482	10187.625
1894.09304	10168.925
1897.21921	10164.125
1900.34335	10123.625
1903.46544	10138.225
1906.58551	10121.025
1909.70353	10074.025
1912.81953	10080.625
1915.93349	10074.125
1919.04543	10049.025
1922.15534	10013.025
1925.26322	9994.025
1928.36908	9960.625
1931.47292	9913.025
1934.57473	9910.125
1937.67453	9888.325
1940.77232	9863.125
1943.86808	9842.325
1946.96184	9831.025
1950.05358	9793.925
1953.14331	9734.025
1956.23103	9699.625
1959.31675	9671.825
1962.40046	9649.625
1965.48217	9616.125
1968.56188	9622.625
1971.63959	9605.125
1974.7153	9579.925
1977.78901	9527.125
1980.86073	9494.725
1983.93046	9437.625
1986.99819	9416.325
1990.06394	9384.825
1993.1277	9364.425
1996.18947	9336.225
1999.24925	9307.625
2002.30706	9280.425
2005.36288	9257.825
2008.41672	9247.025
2011.46859	9217.625
2014.51848	9171.725
2017.56639	9151.725
2020.61233	9132.525
2023.6563	9109.525
2026.6983	9093.925
2029.73833	9056.425
2032.7764	9030.225
2035.8125	9027.725
2038.84664	9009.025
2041.87881	9006.825
2044.90903	8972.825
2047.93729	8945.625
2050.96359	8943.725
2053.98794	8935.225
2057.01034	8924.125
2060.03078	8901.525
2063.04927	8900.825
2066.06582	8900.625
2069.08042	8876.625
2072.09307	8884.025
2075.10378	8879.225
2078.11255	8887.225
2081.11938	8884.425
2084.12426	8866.525
2087.12722	8869.625
2090.12824	8884.525
2093.12732	8866.725
2096.12447	8867.425
2099.11969	8859.225
2102.11299	8876.125
2105.10435	8863.425
2108.09379	8874.625
2111.08131	8881.825
2114.0669	8895.925
2117.05057	8895.125
2120.03233	8910.925
2123.01216	8903.025
2125.99008	8929.225
2128.96609	8918.525
2131.94018	8928.725
2134.91236	8923.225
2137.88263	8935.525
2140.851	8923.225
2143.81746	8923.925
2146.78201	8930.725
2149.74466	8928.525
2152.7054	8936.025
2155.66425	8912.525
2158.6212	8903.925
2161.57625	8909.925
2164.52941	8903.525
2167.48067	8891.425
2170.43004	8880.225
2173.37752	8880.725
2176.32311	8877.925
2179.26681	8881.925
2182.20863	8875.625
2185.14856	8884.725
2188.08661	8874.325
2191.02278	8855.725
2193.95707	8879.025
2196.88948	8881.225
2199.82001	8856.625
2202.74867	8825.425
2205.67545	8833.925
2208.60037	8828.925
2211.52341	8814.625
2214.44458	8782.925
2217.36388	8803.425
2220.28132	8759.825
2223.1969	8751.925
2226.11061	8726.225
2229.02246	8705.925
2231.93245	8706.825
2234.84058	8702.625
2237.74686	8650.025
2240.65128	8671.725
2243.55385	8652.725
2246.45456	8625.825
2249.35343	8619.625
2252.25044	8628.325
2255.14561	8605.425
2258.03893	8585.825
2260.93041	8563.125
2263.82004	8535.125
2266.70783	8512.825
2269.59378	8510.525
2272.4779	8499.325
2275.36017	8468.925
2278.24061	8472.325
2281.11922	8436.325
2283.996	8445.225
2286.87094	8431.125
2289.74405	8386.025
2292.61534	8364.825
2295.4848	8394.825
2298.35243	8379.125
2301.21824	8361.225
2304.08223	8382.425
2306.94439	8370.025
2309.80474	8362.525
2312.66327	8366.125
2315.51999	8342.825
2318.37489	8346.725
2321.22797	8336.925
2324.07925	8330.625
2326.92871	8307.825
2329.77637	8297.025
2332.62222	8302.925
2335.46626	8283.725
2338.3085	8263.525
2341.14893	8261.125
2343.98756	8254.725
2346.8244	8257.925
2349.65943	8261.225
2352.49267	8260.025
2355.32411	8289.125
2358.15376	8249.925
2360.98161	8268.425
2363.80768	8249.925
2366.63195	8238.125
2369.45444	8224.525
2372.27514	8222.825
2375.09405	8202.925
2377.91118	8218.825
2380.72652	8185.125
2383.54009	8155.325
2386.35187	8155.025
2389.16188	8113.825
2391.97011	8116.125
2394.77657	8108.425
2397.58125	8081.525
2400.38416	8071.125
2403.18529	8082.225
2405.98466	8054.125
2408.78226	8045.525
2411.57809	8026.025
2414.37216	8015.525
2417.16446	8007.425
2419.955	8017.725
2422.74378	8014.725
2425.5308	7983.625
2428.31606	7980.825
2431.09956	8000.725
2433.88131	7982.225
2436.6613	7965.325
2439.43954	7988.825
2442.21603	7972.125
2444.99077	7974.925
2447.76377	7962.825
2450.53501	7968.925
2453.30451	7945.325
2456.07226	7953.225
2458.83827	7935.125
2461.60254	7940.525
2464.36507	7909.425
2467.12586	7926.925
2469.88492	7928.725
2472.64224	7907.125
2475.39782	7901.625
2478.15167	7920.025
2480.90379	7931.625
2483.65417	7925.625
2486.40283	7937.125
2489.14976	7946.025
2491.89497	7938.125
2494.63845	7911.025
2497.3802	7883.825
2500.12024	7922.925
2502.85855	7926.825
2505.59514	7893.225
2508.33002	7892.225
2511.06318	7869.325
2513.79462	7857.125
2516.52435	7854.925
2519.25237	7842.525
2521.97867	7832.425
2524.70327	7819.825
2527.42616	7810.525
2530.14734	7810.925
2532.86681	7818.625
2535.58458	7803.925
2538.30065	7795.425
2541.01501	7788.625
2543.72768	7782.025
2546.43864	7767.725
2549.14791	7767.825
2551.85548	7791.025
2554.56136	7758.825
2557.26554	7730.325
2559.96803	7726.025
2562.66883	7722.625
2565.36794	7727.725
2568.06536	7708.325
2570.7611	7678.525
2573.45514	7686.925
2576.14751	7689.625
2578.83819	7665.325
2581.52719	7655.725
2584.21451	7648.825
2586.90015	7631.425
2589.58411	7623.425
2592.2664	7594.725
2594.94701	7618.725
2597.62594	7618.825
2600.30321	7601.425
2602.9788	7606.925
2605.65273	7586.325
2608.32498	7599.225
2610.99557	7606.325
2613.66449	7604.825
2616.33175	7599.125
2618.99734	7573.825
2621.66128	7554.925
2624.32355	7578.925
2626.98416	7547.325
2629.64311	7569.825
2632.30041	7547.625
2634.95605	7538.325
2637.61004	7504.025
2640.26238	7507.425
2642.91306	7511.925
2645.56209	7503.225
2648.20948	7491.425
2650.85521	7492.125
2653.4993	7493.525
2656.14175	7487.825
2658.78255	7520.325
2661.42171	7525.125
2664.05923	7534.025
2666.6951	7514.925
2669.32934	7553.225
2671.96194	7542.725
2674.59291	7548.025
2677.22224	7536.125
2679.84993	7536.225
2682.476	7539.825
2685.10043	7516.125
2687.72324	7523.125
2690.34441	7500.925
2692.96396	7543.825
2695.58188	7530.225
2698.19818	7510.925
2700.81285	7486.725
2703.4259	7466.825
2706.03733	7381.925
2708.64714	7420.625
2711.25533	7474.825
2713.86191	7479.925
2716.46687	7516.025
2719.07021	7546.425
2721.67194	7561.525
2724.27206	7552.025
2726.87057	7539.425
2729.46747	7531.725
2732.06276	7550.925
2734.65644	7543.425
2737.24852	7536.025
2739.83899	7543.025
2742.42786	7532.825
2745.01513	7529.225
2747.60079	7506.925
2750.18486	7512.825
2752.76733	7491.125
2755.3482	7485.725
2757.92747	7468.825
2760.50515	7468.425
2763.08123	7490.125
2765.65573	7472.125
2768.22863	7473.925
2770.79994	7465.425
2773.36967	7447.325
2775.9378	7443.825
2778.50435	7461.025
2781.06932	7437.925
2783.6327	7434.825
2786.1945	7432.525
2788.75471	7435.725
2791.31335	7398.125
2793.87041	7380.725
2796.42589	7377.425
2798.97979	7378.225
2801.53212	7335.225
2804.08288	7341.025
2806.63206	7352.425
2809.17967	7324.525
2811.72571	7297.525
2814.27018	7306.625
2816.81308	7275.525
2819.35442	7269.225
2821.89419	7278.025
2824.43239	7266.325
2826.96904	7258.425
2829.50412	7249.925
2832.03763	7243.125
2834.56959	7218.825
2837.1	7216.825
2839.62884	7213.825
2842.15613	7212.525
2844.68186	7230.725
2847.20604	7256.425
2849.72867	7239.325
2852.24974	7242.725
2854.76927	7196.325
2857.28724	7174.825
2859.80367	7197.525
2862.31855	7179.525
2864.83189	7166.225
2867.34368	7184.925
2869.85393	7194.925
2872.36264	7195.425
2874.8698	7206.125
2877.37543	7195.325
2879.87952	7178.925
2882.38207	7200.725
2884.88308	7197.525
2887.38256	7192.825
2889.88051	7187.425
2892.37692	7208.625
2894.8718	7197.125
2897.36515	7223.125
2899.85698	7203.825
2902.34727	7221.825
2904.83604	7215.025
2907.32328	7224.325
2909.809	7214.525
2912.29319	7243.825
2914.77587	7268.125
2917.25702	7250.725
2919.73665	7229.625
2922.21476	7234.025
2924.69136	7229.725
2927.16644	7199.925
2929.64	7193.225
2932.11205	7199.525
2934.58258	7164.125
2937.05161	7195.425
2939.51912	7183.925
2941.98513	7145.425
2944.44962	7136.625
2946.91261	7116.425
2949.37409	7142.125
2951.83407	7122.525
2954.29254	7103.625
2956.74951	7089.625
2959.20498	7099.325
2961.65895	7079.525
2964.11142	7086.425
2966.56239	7058.425
2969.01186	7065.725
2971.45984	7056.225
2973.90632	7042.625
2976.35131	7036.225
2978.7948	7009.325
2981.23681	6990.925
2983.67732	6974.425
2986.11635	6976.725
2988.55388	6949.025
2990.98993	6932.925
2993.4245	6944.925
2995.85758	6920.125
2998.28917	6886.925
3000.71928	6877.025
3003.14791	6847.225
3005.57506	6863.925
3008.00073	6820.725
3010.42493	6823.825
3012.84764	6800.125
3015.26888	6801.425
3017.68865	6779.625
3020.10694	6784.625
3022.52376	6769.125
3024.9391	6770.325
3027.35298	6743.525
3029.76539	6745.725
3032.17632	6758.725
3034.5858	6750.325
3036.9938	6756.725
3039.40034	6725.425
3041.80542	6689.325
3044.20903	6699.925
3046.61118	6691.325
3049.01187	6699.025
3051.4111	6690.725
3053.80888	6671.225
3056.20519	6672.925
3058.60005	6662.125
3060.99345	6635.525
3063.3854	6636.125
3065.7759	6600.025
3068.16494	6587.425
3070.55254	6571.925
3072.93868	6541.325
3075.32338	6532.625
3077.70662	6513.625
3080.08842	6507.025
3082.46878	6512.625
3084.84769	6501.125
3087.22515	6489.625
3089.60118	6489.825
3091.97576	6491.925
3094.3489	6480.225
3096.72061	6508.825
3099.09087	6490.725
3101.4597	6504.325
3103.82709	6481.225
3106.19305	6459.625
3108.55757	6468.825
3110.92066	6446.325
3113.28232	6457.525
3115.64255	6450.125
3118.00134	6420.525
3120.35871	6419.825
3122.71466	6393.725
3125.06917	6394.525
3127.42226	6387.025
3129.77393	6370.125
3132.12417	6366.125
3134.47299	6376.625
3136.82039	6369.925
3139.16636	6367.025
3141.51092	6373.125
3143.85406	6373.425
3146.19579	6375.425
3148.53609	6382.825
3150.87499	6391.925
3153.21246	6370.625
3155.54853	6400.525
3157.88318	6373.925
3160.21642	6394.625
3162.54826	6413.325
3164.87868	6387.125
3167.2077	6393.425
3169.5353	6378.325
3171.86151	6390.625
3174.18631	6387.625
3176.5097	6376.825
3178.83169	6366.125
3181.15228	6400.025
