Data from AgNPs_FTO_APTES_UA_50uM_CRN_0uM_R6G_10uM_NaF_0.1M_Addition_RamanShift__1__10-11-24-614.txt Node

Date: Mon Feb 21 10:11:24 GMT 2022
User: TCL
Spectrometer: QEP01345
Trigger mode: 4
Integration Time (sec): 7.000000E0
Scans to average: 10
Electric dark correction enabled: true
Nonlinearity correction enabled: false
Boxcar width: 0
XAxis mode: Raman Shifts
Number of Pixels in Spectrum: 1044
>>>>>Begin Spectral Data<<<<<
46.04893	1.225
50.45542	0.225
54.85868	1.025
59.25871	-1.775
63.6555	26.225
68.04907	28.425
72.43941	31.025
76.82654	33.025
81.21044	38.125
85.59113	40.025
89.96862	35.725
94.34289	44.925
98.71396	42.825
103.08183	46.025
107.4465	42.325
111.80798	43.425
116.16626	43.425
120.52136	41.625
124.87327	46.425
129.222	43.025
133.56755	45.025
137.90993	47.425
142.24913	45.425
146.58517	48.625
150.91804	54.025
155.24774	58.525
159.57429	65.325
163.89768	75.825
168.21792	98.825
172.53501	123.325
176.84895	166.625
181.15975	221.925
185.46741	304.625
189.77193	417.725
194.07331	562.025
198.37157	723.925
202.6667	898.525
206.9587	1085.825
211.24758	1267.225
215.53334	1452.325
219.81599	1639.225
224.09553	1840.525
228.37195	2077.225
232.64527	2335.425
236.91549	2610.425
241.18261	2883.925
245.44663	3154.925
249.70755	3421.125
253.96539	3649.725
258.22014	3827.625
262.4718	3965.725
266.72039	4065.925
270.96589	4072.925
275.20832	4056.825
279.44768	3969.825
283.68397	3866.125
287.91719	3735.625
292.14735	3637.225
296.37445	3535.425
300.59849	3482.125
304.81948	3443.225
309.03742	3409.825
313.25231	3353.125
317.46415	3271.225
321.67296	3161.025
325.87872	3066.425
330.08145	2994.125
334.28114	2982.925
338.47781	2953.625
342.67145	2972.725
346.86207	3012.625
351.04966	3049.525
355.23424	3090.625
359.4158	3147.825
363.59435	3142.925
367.76989	3151.725
371.94243	3104.225
376.11196	3087.425
380.27849	3060.825
384.44203	3029.625
388.60257	2985.125
392.76012	2949.125
396.91468	2937.225
401.06626	2945.125
405.21485	2935.225
409.36047	2892.425
413.50311	2800.625
417.64277	2728.525
421.77947	2669.325
425.9132	2631.425
430.04396	2602.525
434.17176	2605.525
438.2966	2619.525
442.41849	2653.425
446.53742	2695.225
450.6534	2723.425
454.76644	2732.325
458.87653	2738.225
462.98368	2741.025
467.08789	2717.725
471.18916	2702.225
475.2875	2665.425
479.38291	2644.325
483.4754	2621.025
487.56496	2597.525
491.6516	2594.825
495.73531	2583.425
499.81612	2578.225
503.89401	2601.925
507.96899	2604.025
512.04106	2625.025
516.11023	2658.225
520.1765	2657.625
524.23987	2664.425
528.30034	2661.025
532.35792	2645.925
536.41261	2646.325
540.46441	2623.825
544.51333	2631.825
548.55936	2648.125
552.60252	2677.225
556.64279	2716.725
560.6802	2754.225
564.71473	2765.925
568.7464	2789.325
572.7752	2798.925
576.80114	2780.025
580.82422	2735.125
584.84444	2729.325
588.86181	2709.725
592.87633	2732.025
596.888	2745.525
600.89682	2737.325
604.9028	2820.125
608.90594	3153.425
612.90624	3675.425
616.90371	3704.125
620.89834	3083.725
624.89015	2744.525
628.87913	2650.925
632.86528	2622.125
636.84862	2630.825
640.82913	2606.025
644.80683	2555.525
648.78172	2524.525
652.75379	2523.725
656.72306	2576.025
660.68952	2653.725
664.65319	2655.525
668.61405	2635.625
672.57211	2648.825
676.52738	2704.825
680.47986	2755.425
684.42955	2804.825
688.37646	2836.225
692.32058	2824.225
696.26192	2809.425
700.20048	2805.925
704.13626	2775.925
708.06928	2745.025
711.99952	2731.025
715.927	2716.925
719.85171	2719.125
723.77365	2702.725
727.69284	2665.725
731.60928	2642.625
735.52295	2599.125
739.43388	2592.125
743.34206	2581.125
747.24749	2572.825
751.15017	2575.325
755.05012	2578.025
758.94733	2620.025
762.8418	2718.525
766.73354	2935.225
770.62254	3188.625
774.50882	3298.525
778.39237	3222.125
782.27321	3025.125
786.15132	2814.525
790.02671	2668.825
793.89938	2618.225
797.76935	2586.525
801.6366	2595.025
805.50115	2594.725
809.36299	2595.825
813.22213	2592.225
817.07857	2603.425
820.93231	2603.525
824.78336	2594.825
828.63172	2601.725
832.47738	2606.125
836.32036	2592.125
840.16066	2591.325
843.99827	2595.325
847.8332	2586.725
851.66546	2589.225
855.49504	2587.625
859.32195	2581.325
863.1462	2575.825
866.96777	2587.625
870.78668	2583.425
874.60293	2610.425
878.41652	2615.725
882.22745	2626.525
886.03573	2648.725
889.84136	2680.425
893.64433	2696.525
897.44466	2709.925
901.24235	2756.925
905.0374	2769.425
908.8298	2797.625
912.61957	2806.225
916.40671	2828.825
920.19121	2862.725
923.97308	2872.325
927.75233	2893.325
931.52895	2891.525
935.30295	2859.825
939.07433	2804.025
942.84309	2762.425
946.60924	2709.125
950.37278	2676.925
954.13371	2672.525
957.89203	2634.925
961.64774	2616.125
965.40086	2600.125
969.15137	2590.025
972.89929	2580.025
976.64461	2568.125
980.38733	2557.025
984.12747	2550.325
987.86502	2550.525
991.59999	2544.325
995.33237	2569.525
999.06217	2585.325
1002.78939	2595.125
1006.51404	2599.925
1010.23611	2639.025
1013.95561	2655.525
1017.67255	2665.325
1021.38692	2659.625
1025.09872	2634.725
1028.80796	2644.825
1032.51465	2653.225
1036.21877	2684.625
1039.92035	2730.525
1043.61937	2780.025
1047.31584	2825.825
1051.00976	2885.225
1054.70114	2920.025
1058.38998	2896.125
1062.07627	2859.425
1065.76003	2813.925
1069.44126	2729.825
1073.11995	2681.625
1076.79611	2645.825
1080.46974	2641.125
1084.14085	2657.425
1087.80943	2658.725
1091.47549	2653.325
1095.13903	2630.825
1098.80005	2578.625
1102.45857	2518.625
1106.11456	2494.225
1109.76805	2486.425
1113.41903	2506.925
1117.06751	2521.625
1120.71348	2563.725
1124.35696	2617.525
1127.99793	2677.225
1131.63641	2687.525
1135.2724	2623.625
1138.90589	2565.725
1142.5369	2514.625
1146.16542	2472.525
1149.79145	2460.225
1153.415	2447.425
1157.03607	2461.625
1160.65467	2472.625
1164.27079	2516.525
1167.88443	2594.825
1171.49561	2711.625
1175.10432	2870.425
1178.71056	3101.925
1182.31434	3284.925
1185.91565	3354.625
1189.51451	3303.325
1193.11091	3158.125
1196.70485	3015.225
1200.29634	2897.825
1203.88538	2798.325
1207.47197	2709.725
1211.05612	2631.825
1214.63782	2566.325
1218.21708	2554.525
1221.79391	2543.525
1225.36829	2548.325
1228.94024	2568.025
1232.50976	2576.825
1236.07685	2559.625
1239.6415	2542.325
1243.20374	2540.325
1246.76355	2528.025
1250.32093	2524.625
1253.8759	2544.425
1257.42845	2558.925
1260.97859	2607.825
1264.52631	2676.925
1268.07163	2731.125
1271.61453	2783.825
1275.15503	2843.925
1278.69312	2887.625
1282.22882	2928.325
1285.76211	2986.325
1289.29301	3061.225
1292.82151	3142.925
1296.34761	3211.125
1299.87133	3333.625
1303.39266	3490.925
1306.9116	3706.125
1310.42815	3958.325
1313.94233	4122.125
1317.45412	4073.625
1320.96354	3872.225
1324.47058	3634.425
1327.97525	3441.225
1331.47754	3355.825
1334.97747	3305.825
1338.47502	3264.225
1341.97022	3290.325
1345.46305	3347.925
1348.95352	3465.425
1352.44163	3636.425
1355.92738	3896.825
1359.41078	4246.225
1362.89183	4695.725
1366.37053	4777.525
1369.84688	4309.725
1373.32088	3749.625
1376.79254	3352.225
1380.26186	3155.625
1383.72883	3048.225
1387.19347	2975.025
1390.65578	2904.825
1394.11575	2894.125
1397.57339	2916.725
1401.0287	2943.225
1404.48168	2938.825
1407.93234	2924.625
1411.38068	2917.025
1414.82669	2904.225
1418.27039	2926.225
1421.71177	2892.925
1425.15083	2883.825
1428.58758	2870.625
1432.02203	2861.825
1435.45416	2890.425
1438.88399	2896.325
1442.31151	2875.025
1445.73673	2848.025
1449.15965	2844.325
1452.58027	2847.025
1455.9986	2833.325
1459.41463	2847.425
1462.82837	2816.325
1466.23982	2849.225
1469.64898	2843.325
1473.05586	2863.125
1476.46045	2868.025
1479.86276	2888.325
1483.26279	2891.925
1486.66054	2920.925
1490.05602	2966.825
1493.44922	3033.725
1496.84016	3135.625
1500.22882	3328.825
1503.61521	3602.825
1506.99934	3916.225
1510.38121	4237.425
1513.76081	4362.525
1517.13816	4210.625
1520.51324	3824.525
1523.88607	3437.525
1527.25665	3157.725
1530.62498	2995.225
1533.99105	2895.825
1537.35488	2826.725
1540.71647	2768.525
1544.07581	2722.525
1547.4329	2695.525
1550.78776	2685.125
1554.14038	2697.825
1557.49077	2709.625
1560.83892	2730.125
1564.18484	2786.725
1567.52853	2821.925
1570.86999	2879.925
1574.20922	2911.525
1577.54624	2891.325
1580.88103	2823.225
1584.2136	2702.425
1587.54395	2608.925
1590.87208	2579.525
1594.19801	2623.225
1597.52172	2703.025
1600.84321	2727.525
1604.16251	2682.225
1607.47959	2593.625
1610.79447	2503.525
1614.10715	2401.425
1617.41763	2332.525
1620.7259	2270.125
1624.03199	2231.025
1627.33587	2224.825
1630.63757	2229.525
1633.93707	2260.925
1637.23439	2334.925
1640.52951	2456.625
1643.82246	2659.025
1647.11321	2893.125
1650.40179	3040.125
1653.68819	2986.025
1656.97241	2686.125
1660.25446	2346.825
1663.53433	2085.225
1666.81203	1963.225
1670.08756	1908.225
1673.36092	1910.625
1676.63211	1901.025
1679.90115	1894.725
1683.16801	1869.125
1686.43272	1860.825
1689.69527	1821.625
1692.95567	1755.025
1696.2139	1655.525
1699.46999	1539.325
1702.72392	1522.125
1705.97571	1612.925
1709.22535	1742.925
1712.47284	1820.725
1715.71819	1883.425
1718.96139	1913.925
1722.20246	1952.825
1725.44139	1966.525
1728.67818	1983.025
1731.91284	2011.125
1735.14537	2043.225
1738.37576	2081.225
1741.60403	2120.125
1744.83017	2135.525
1748.05418	2181.025
1751.27607	2201.625
1754.49584	2203.525
1757.71349	2192.425
1760.92903	2194.725
1764.14244	2234.725
1767.35375	2291.825
1770.56294	2309.825
1773.77002	2349.525
1776.97499	2426.625
1780.17785	2486.225
1783.37861	2502.225
1786.57727	2502.725
1789.77382	2497.025
1792.96828	2453.325
1796.16064	2414.325
1799.3509	2369.825
1802.53907	2322.925
1805.72514	2261.625
1808.90913	2199.525
1812.09102	2147.425
1815.27083	2100.825
1818.44856	2056.025
1821.6242	1991.425
1824.79776	1952.125
1827.96924	1912.225
1831.13864	1868.825
1834.30597	1843.625
1837.47122	1808.925
1840.6344	1799.725
1843.7955	1767.825
1846.95454	1752.725
1850.11151	1734.925
1853.26642	1728.425
1856.41926	1706.425
1859.57004	1698.025
1862.71876	1698.725
1865.86542	1690.725
1869.01003	1682.425
1872.15258	1666.225
1875.29308	1660.325
1878.43152	1669.925
1881.56792	1665.825
1884.70227	1658.825
1887.83457	1656.725
1890.96482	1644.625
1894.09304	1649.225
1897.21921	1641.425
1900.34335	1637.725
1903.46544	1637.925
1906.58551	1638.025
1909.70353	1630.825
1912.81953	1631.725
1915.93349	1633.325
1919.04543	1621.425
1922.15534	1613.125
1925.26322	1621.825
1928.36908	1614.025
1931.47292	1613.325
1934.57473	1613.525
1937.67453	1604.725
1940.77232	1600.525
1943.86808	1593.425
1946.96184	1596.325
1950.05358	1582.025
1953.14331	1587.925
1956.23103	1577.125
1959.31675	1565.625
1962.40046	1565.025
1965.48217	1566.825
1968.56188	1557.325
1971.63959	1556.725
1974.7153	1560.725
1977.78901	1555.625
1980.86073	1538.925
1983.93046	1541.425
1986.99819	1522.625
1990.06394	1526.725
1993.1277	1527.525
1996.18947	1511.525
1999.24925	1502.825
2002.30706	1497.825
2005.36288	1493.925
2008.41672	1490.625
2011.46859	1486.525
2014.51848	1483.225
2017.56639	1483.425
2020.61233	1483.425
2023.6563	1470.125
2026.6983	1467.125
2029.73833	1467.125
2032.7764	1474.225
2035.8125	1473.225
2038.84664	1472.225
2041.87881	1486.325
2044.90903	1481.225
2047.93729	1482.225
2050.96359	1488.425
2053.98794	1494.925
2057.01034	1505.525
2060.03078	1511.525
2063.04927	1519.125
2066.06582	1546.125
2069.08042	1549.425
2072.09307	1555.425
2075.10378	1563.025
2078.11255	1564.925
2081.11938	1569.425
2084.12426	1575.925
2087.12722	1575.825
2090.12824	1573.225
2093.12732	1565.125
2096.12447	1566.025
2099.11969	1557.925
2102.11299	1562.325
2105.10435	1562.125
2108.09379	1536.925
2111.08131	1535.025
2114.0669	1525.725
2117.05057	1519.325
2120.03233	1639.125
2123.01216	1511.425
2125.99008	1483.625
2128.96609	1467.825
2131.94018	1463.525
2134.91236	1448.125
2137.88263	1446.925
2140.851	1432.825
2143.81746	1440.125
2146.78201	1436.925
2149.74466	1408.525
2152.7054	1411.425
2155.66425	1404.925
2158.6212	1398.625
2161.57625	1407.225
2164.52941	1389.625
2167.48067	1388.625
2170.43004	1383.625
2173.37752	1378.925
2176.32311	1379.325
2179.26681	1383.625
2182.20863	1376.625
2185.14856	1379.125
2188.08661	1374.425
2191.02278	1369.725
2193.95707	1377.925
2196.88948	1368.825
2199.82001	1371.925
2202.74867	1364.525
2205.67545	1364.525
2208.60037	1359.125
2211.52341	1357.525
2214.44458	1351.925
2217.36388	1361.625
2220.28132	1345.125
2223.1969	1330.925
2226.11061	1342.125
2229.02246	1331.925
2231.93245	1341.925
2234.84058	1327.525
2237.74686	1323.825
2240.65128	1321.525
2243.55385	1315.225
2246.45456	1316.125
2249.35343	1322.625
2252.25044	1307.625
2255.14561	1304.725
2258.03893	1295.625
2260.93041	1271.325
2263.82004	1296.225
2266.70783	1300.925
2269.59378	1293.525
2272.4779	1289.925
2275.36017	1288.725
2278.24061	1284.725
2281.11922	1280.725
2283.996	1294.625
2286.87094	1278.325
2289.74405	1270.925
2292.61534	1275.325
2295.4848	1270.025
2298.35243	1265.225
2301.21824	1259.425
2304.08223	1254.725
2306.94439	1263.825
2309.80474	1256.825
2312.66327	1257.825
2315.51999	1252.225
2318.37489	1245.825
2321.22797	1247.025
2324.07925	1241.825
2326.92871	1247.025
2329.77637	1242.825
2332.62222	1240.725
2335.46626	1234.425
2338.3085	1227.625
2341.14893	1224.325
2343.98756	1228.725
2346.8244	1231.125
2349.65943	1216.825
2352.49267	1223.925
2355.32411	1224.425
2358.15376	1223.825
2360.98161	1229.925
2363.80768	1217.425
2366.63195	1230.425
2369.45444	1218.525
2372.27514	1221.525
2375.09405	1217.825
2377.91118	1217.525
2380.72652	1219.825
2383.54009	1211.525
2386.35187	1208.225
2389.16188	1203.725
2391.97011	1201.825
2394.77657	1194.625
2397.58125	1185.625
2400.38416	1191.225
2403.18529	1184.325
2405.98466	1178.925
2408.78226	1180.225
2411.57809	1169.525
2414.37216	1174.525
2417.16446	1174.325
2419.955	1174.225
2422.74378	1172.725
2425.5308	1169.625
2428.31606	1168.725
2431.09956	1171.225
2433.88131	1168.925
2436.6613	1171.825
2439.43954	1162.125
2442.21603	1159.625
2444.99077	1159.625
2447.76377	1160.325
2450.53501	1153.525
2453.30451	1157.025
2456.07226	1158.225
2458.83827	1149.025
2461.60254	1151.725
2464.36507	1145.325
2467.12586	1150.025
2469.88492	1146.125
2472.64224	1140.625
2475.39782	1125.125
2478.15167	1117.725
2480.90379	1131.625
2483.65417	1138.125
2486.40283	1141.025
2489.14976	1142.725
2491.89497	1135.025
2494.63845	1123.325
2497.3802	1113.025
2500.12024	1122.525
2502.85855	1130.025
2505.59514	1129.825
2508.33002	1124.125
2511.06318	1131.825
2513.79462	1120.825
2516.52435	1118.125
2519.25237	1125.125
2521.97867	1110.625
2524.70327	1107.925
2527.42616	1105.625
2530.14734	1106.925
2532.86681	1097.425
2535.58458	1095.025
2538.30065	1101.025
2541.01501	1106.325
2543.72768	1098.725
2546.43864	1090.625
2549.14791	1088.225
2551.85548	1097.925
2554.56136	1088.825
2557.26554	1088.125
2559.96803	1082.025
2562.66883	1084.825
2565.36794	1078.025
2568.06536	1083.825
2570.7611	1075.625
2573.45514	1064.725
2576.14751	1081.925
2578.83819	1071.025
2581.52719	1070.425
2584.21451	1061.525
2586.90015	1067.025
2589.58411	1059.725
2592.2664	1051.925
2594.94701	1053.125
2597.62594	1056.525
2600.30321	1051.725
2602.9788	1049.325
2605.65273	1046.925
2608.32498	1051.425
2610.99557	1047.125
2613.66449	1040.625
2616.33175	1039.025
2618.99734	1047.525
2621.66128	1038.225
2624.32355	1035.925
2626.98416	1037.825
2629.64311	1026.425
2632.30041	1026.425
2634.95605	1026.125
2637.61004	1025.725
2640.26238	1026.525
2642.91306	1023.425
2645.56209	1019.825
2648.20948	1014.125
2650.85521	1013.525
2653.4993	1008.925
2656.14175	1012.425
2658.78255	1012.125
2661.42171	1010.025
2664.05923	1016.325
2666.6951	1009.325
2669.32934	1027.525
2671.96194	1014.125
2674.59291	1015.625
2677.22224	1018.425
2679.84993	1017.025
2682.476	1015.025
2685.10043	1012.925
2687.72324	1020.725
2690.34441	1016.425
2692.96396	1019.425
2695.58188	1011.425
2698.19818	1009.825
2700.81285	1009.125
2703.4259	967.025
2706.03733	857.425
2708.64714	918.625
2711.25533	963.625
2713.86191	985.325
2716.46687	995.225
2719.07021	1006.025
2721.67194	1009.625
2724.27206	1010.825
2726.87057	1006.925
2729.46747	1019.925
2732.06276	1015.225
2734.65644	1004.525
2737.24852	1007.025
2739.83899	1003.625
2742.42786	1005.525
2745.01513	1001.725
2747.60079	998.625
2750.18486	996.325
2752.76733	1002.425
2755.3482	995.225
2757.92747	994.825
2760.50515	994.725
2763.08123	994.725
2765.65573	990.625
2768.22863	989.325
2770.79994	986.325
2773.36967	991.425
2775.9378	985.825
2778.50435	990.425
2781.06932	977.925
2783.6327	983.025
2786.1945	979.525
2788.75471	981.525
2791.31335	976.025
2793.87041	974.925
2796.42589	973.825
2798.97979	972.725
2801.53212	976.225
2804.08288	970.625
2806.63206	965.325
2809.17967	962.125
2811.72571	960.625
2814.27018	957.725
2816.81308	959.525
2819.35442	961.925
2821.89419	965.325
2824.43239	965.325
2826.96904	964.425
2829.50412	960.025
2832.03763	958.325
2834.56959	955.325
2837.1	958.425
2839.62884	957.025
2842.15613	956.425
2844.68186	969.925
2847.20604	983.125
2849.72867	988.725
2852.24974	979.225
2854.76927	962.625
2857.28724	936.625
2859.80367	957.425
2862.31855	967.525
2864.83189	979.425
2867.34368	970.925
2869.85393	984.625
2872.36264	988.525
2874.8698	994.225
2877.37543	999.225
2879.87952	1002.625
2882.38207	992.325
2884.88308	989.125
2887.38256	1003.325
2889.88051	1003.125
2892.37692	1003.625
2894.8718	1008.725
2897.36515	1001.025
2899.85698	1006.925
2902.34727	1009.225
2904.83604	1012.825
2907.32328	1019.225
2909.809	1018.025
2912.29319	1023.325
2914.77587	1024.925
2917.25702	1012.125
2919.73665	1026.125
2922.21476	1022.225
2924.69136	1029.125
2927.16644	1024.425
2929.64	1010.025
2932.11205	1018.025
2934.58258	1010.325
2937.05161	1003.225
2939.51912	1007.825
2941.98513	1009.925
2944.44962	996.025
2946.91261	984.525
2949.37409	986.825
2951.83407	980.925
2954.29254	983.525
2956.74951	975.625
2959.20498	973.325
2961.65895	971.025
2964.11142	962.825
2966.56239	960.525
2969.01186	962.725
2971.45984	952.725
2973.90632	953.825
2976.35131	937.525
2978.7948	945.025
2981.23681	944.125
2983.67732	935.425
2986.11635	939.825
2988.55388	928.825
2990.98993	934.725
2993.4245	929.525
2995.85758	931.125
2998.28917	926.225
3000.71928	925.825
3003.14791	918.925
3005.57506	930.725
3008.00073	926.925
3010.42493	926.025
3012.84764	925.725
3015.26888	935.525
3017.68865	927.825
3020.10694	931.025
3022.52376	926.825
3024.9391	920.925
3027.35298	917.425
3029.76539	921.925
3032.17632	928.925
3034.5858	921.525
3036.9938	927.425
3039.40034	919.525
3041.80542	925.025
3044.20903	927.825
3046.61118	927.425
3049.01187	924.025
3051.4111	928.725
3053.80888	932.925
3056.20519	923.625
3058.60005	923.725
3060.99345	928.325
3063.3854	928.825
3065.7759	926.725
3068.16494	923.625
3070.55254	930.925
3072.93868	936.425
3075.32338	931.425
3077.70662	927.925
3080.08842	925.325
3082.46878	938.925
3084.84769	939.125
3087.22515	939.425
3089.60118	937.825
3091.97576	940.725
3094.3489	948.425
3096.72061	952.125
3099.09087	958.025
3101.4597	958.225
3103.82709	960.225
3106.19305	966.625
3108.55757	970.925
3110.92066	969.125
3113.28232	981.125
3115.64255	975.125
3118.00134	970.525
3120.35871	987.525
3122.71466	988.625
3125.06917	983.525
3127.42226	999.525
3129.77393	991.625
3132.12417	997.325
3134.47299	992.825
3136.82039	1006.425
3139.16636	1000.125
3141.51092	1004.725
3143.85406	1009.125
3146.19579	1024.025
3148.53609	1027.525
3150.87499	1033.525
3153.21246	1037.825
3155.54853	1052.825
3157.88318	1050.025
3160.21642	1055.425
3162.54826	1058.625
3164.87868	1067.125
3167.2077	1061.925
3169.5353	1069.725
3171.86151	1080.725
3174.18631	1078.525
3176.5097	1081.025
3178.83169	1082.725
3181.15228	1092.325
3183.47147	1089.225
3185.78926	1094.925
3188.10565	1104.225
3190.42065	1108.425
3192.73424	1105.525
3195.04645	1106.325
3197.35725	1105.925
3199.66667	1116.725
3201.97469	1122.325
3204.28132	1115.425
3206.58656	1124.725
3208.8904	1138.625
3211.19287	1133.125
3213.49394	1141.425
3215.79363	1134.425
3218.09193	1142.325
3220.38884	1118.225
3222.68438	1106.525
3224.97853	1120.225
3227.2713	1135.325
3229.56269	1147.725
3231.8527	1146.525
3234.14133	1143.225
3236.42858	1143.425
3238.71446	1145.925
3240.99896	1149.125
3243.28209	1149.225
3245.56384	1144.625
3247.84423	1149.425
3250.12324	1154.225
3252.40088	1152.925
