Data from AgNPs_FTO_APTES_UA_50uM_CRN_200uM_R6G_10uM_NaF_0.1M_Addition_RamanShift__8__16-03-45-071.txt Node

Date: Mon Feb 21 16:03:45 GMT 2022
User: TCL
Spectrometer: QEP01345
Trigger mode: 4
Integration Time (sec): 7.000000E0
Scans to average: 10
Electric dark correction enabled: true
Nonlinearity correction enabled: false
Boxcar width: 0
XAxis mode: Raman Shifts
Number of Pixels in Spectrum: 1044
>>>>>Begin Spectral Data<<<<<
46.04893	0.225
50.45542	-1.175
54.85868	-0.075
59.25871	-1.675
63.6555	48.925
68.04907	52.225
72.43941	53.025
76.82654	55.125
81.21044	60.825
85.59113	61.825
89.96862	64.025
94.34289	69.225
98.71396	68.525
103.08183	73.625
107.4465	74.925
111.80798	73.325
116.16626	72.025
120.52136	76.025
124.87327	81.725
129.222	78.625
133.56755	83.825
137.90993	89.725
142.24913	97.725
146.58517	104.025
150.91804	119.225
155.24774	142.325
159.57429	170.525
163.89768	216.025
168.21792	282.925
172.53501	382.825
176.84895	532.225
181.15975	741.025
185.46741	1035.025
189.77193	1432.425
194.07331	1919.125
198.37157	2486.225
202.6667	3063.525
206.9587	3648.225
211.24758	4217.025
215.53334	4771.925
219.81599	5378.225
224.09553	6029.625
228.37195	6777.225
232.64527	7600.325
236.91549	8427.825
241.18261	9268.525
245.44663	10092.825
249.70755	10750.925
253.96539	11348.525
258.22014	11847.025
262.4718	12242.225
266.72039	12517.925
270.96589	12651.625
275.20832	12654.525
279.44768	12541.225
283.68397	12411.025
287.91719	12279.225
292.14735	12154.325
296.37445	12127.025
300.59849	12188.625
304.81948	12263.725
309.03742	12311.125
313.25231	12222.825
317.46415	12069.925
321.67296	11812.425
325.87872	11616.725
330.08145	11515.225
334.28114	11493.525
338.47781	11594.625
342.67145	11723.625
346.86207	11939.225
351.04966	12210.425
355.23424	12435.925
359.4158	12683.025
363.59435	12824.625
367.76989	12947.925
371.94243	13010.625
376.11196	13056.625
380.27849	13120.325
384.44203	13207.525
388.60257	13251.725
392.76012	13373.425
396.91468	13491.225
401.06626	13650.125
405.21485	13798.725
409.36047	13723.925
413.50311	13497.725
417.64277	13315.425
421.77947	13212.925
425.9132	13244.425
430.04396	13276.925
434.17176	13357.725
438.2966	13461.425
442.41849	13649.025
446.53742	13956.425
450.6534	14273.025
454.76644	14513.825
458.87653	14542.025
462.98368	14507.125
467.08789	14381.925
471.18916	14230.625
475.2875	14021.725
479.38291	13842.725
483.4754	13729.025
487.56496	13587.625
491.6516	13483.125
495.73531	13417.625
499.81612	13423.425
503.89401	13531.825
507.96899	13594.325
512.04106	13643.425
516.11023	13648.425
520.1765	13645.525
524.23987	13618.325
528.30034	13526.025
532.35792	13463.525
536.41261	13387.225
540.46441	13271.025
544.51333	13225.625
548.55936	13284.925
552.60252	13472.925
556.64279	13710.525
560.6802	13860.025
564.71473	13895.925
568.7464	13978.925
572.7752	14165.525
576.80114	14325.325
580.82422	14525.425
584.84444	14828.425
588.86181	15282.025
592.87633	15751.725
596.888	15872.625
600.89682	15616.125
604.9028	15717.325
608.90594	16873.525
612.90624	18287.225
616.90371	17442.625
620.89834	14952.225
624.89015	13794.825
628.87913	13607.825
632.86528	13729.525
636.84862	13859.525
640.82913	13747.225
644.80683	13505.825
648.78172	13334.925
652.75379	13285.925
656.72306	13400.525
660.68952	13631.825
664.65319	13581.725
668.61405	13331.825
672.57211	13314.825
676.52738	13411.625
680.47986	13442.125
684.42955	13367.725
688.37646	13284.725
692.32058	13270.525
696.26192	13344.025
700.20048	13438.025
704.13626	13506.425
708.06928	13477.025
711.99952	13434.025
715.927	13434.225
719.85171	13464.325
723.77365	13470.125
727.69284	13402.725
731.60928	13274.725
735.52295	13287.825
739.43388	13285.925
743.34206	13310.425
747.24749	13353.925
751.15017	13443.725
755.05012	13548.325
758.94733	13804.025
762.8418	14348.525
766.73354	15292.825
770.62254	16286.425
774.50882	16653.125
778.39237	16150.925
782.27321	15167.325
786.15132	14261.625
790.02671	13719.025
793.89938	13423.525
797.76935	13282.025
801.6366	13217.725
805.50115	13189.025
809.36299	13140.925
813.22213	13033.825
817.07857	13015.125
820.93231	12966.925
824.78336	12942.725
828.63172	12940.125
832.47738	12927.325
836.32036	12912.125
840.16066	12907.525
843.99827	12893.125
847.8332	12902.525
851.66546	12907.625
855.49504	12889.325
859.32195	12918.125
863.1462	12922.125
866.96777	12928.725
870.78668	12896.725
874.60293	12950.925
878.41652	12954.425
882.22745	13016.225
886.03573	13051.125
889.84136	13055.025
893.64433	13011.125
897.44466	12968.225
901.24235	12926.925
905.0374	12904.325
908.8298	12863.125
912.61957	12810.325
916.40671	12848.125
920.19121	12926.625
923.97308	13027.425
927.75233	13054.825
931.52895	13019.925
935.30295	12912.025
939.07433	12746.225
942.84309	12604.825
946.60924	12566.325
950.37278	12485.225
954.13371	12466.925
957.89203	12471.925
961.64774	12452.825
965.40086	12421.225
969.15137	12367.925
972.89929	12377.425
976.64461	12343.625
980.38733	12360.025
984.12747	12349.025
987.86502	12424.225
991.59999	12456.425
995.33237	12553.325
999.06217	12700.725
1002.78939	12895.625
1006.51404	13049.225
1010.23611	13220.425
1013.95561	13339.525
1017.67255	13398.525
1021.38692	13320.025
1025.09872	13179.225
1028.80796	13042.925
1032.51465	12969.625
1036.21877	12999.725
1039.92035	13066.025
1043.61937	13088.325
1047.31584	13102.925
1051.00976	13080.925
1054.70114	13101.925
1058.38998	13110.725
1062.07627	13172.225
1065.76003	13262.725
1069.44126	13381.225
1073.11995	13521.125
1076.79611	13670.025
1080.46974	13759.625
1084.14085	13849.425
1087.80943	13953.725
1091.47549	14045.925
1095.13903	14023.625
1098.80005	13856.125
1102.45857	13673.525
1106.11456	13521.425
1109.76805	13447.325
1113.41903	13489.725
1117.06751	13590.525
1120.71348	13808.425
1124.35696	13982.825
1127.99793	14191.525
1131.63641	14295.325
1135.2724	14157.625
1138.90589	14008.025
1142.5369	13912.825
1146.16542	13838.025
1149.79145	13876.725
1153.415	13875.725
1157.03607	13952.825
1160.65467	14142.525
1164.27079	14558.525
1167.88443	15075.525
1171.49561	15732.125
1175.10432	16644.025
1178.71056	17815.225
1182.31434	18884.325
1185.91565	19435.525
1189.51451	19387.725
1193.11091	18952.525
1196.70485	18281.625
1200.29634	17661.125
1203.88538	17091.525
1207.47197	16518.225
1211.05612	16071.825
1214.63782	15748.425
1218.21708	15484.125
1221.79391	15330.925
1225.36829	15293.925
1228.94024	15271.125
1232.50976	15205.425
1236.07685	15078.025
1239.6415	14971.725
1243.20374	14977.425
1246.76355	15006.125
1250.32093	15136.125
1253.8759	15318.725
1257.42845	15580.325
1260.97859	15905.925
1264.52631	16235.825
1268.07163	16540.925
1271.61453	16867.225
1275.15503	17133.925
1278.69312	17392.925
1282.22882	17670.225
1285.76211	18073.525
1289.29301	18517.025
1292.82151	19115.125
1296.34761	19826.825
1299.87133	20681.425
1303.39266	21640.425
1306.9116	22677.225
1310.42815	23678.125
1313.94233	24305.125
1317.45412	24091.825
1320.96354	23486.325
1324.47058	22784.825
1327.97525	22102.925
1331.47754	21659.525
1334.97747	21402.225
1338.47502	21329.125
1341.97022	21477.225
1345.46305	21685.225
1348.95352	22039.125
1352.44163	22570.225
1355.92738	23549.625
1359.41078	24629.725
1362.89183	25615.825
1366.37053	25221.025
1369.84688	23204.425
1373.32088	20690.825
1376.79254	18957.825
1380.26186	18162.225
1383.72883	17844.125
1387.19347	17613.925
1390.65578	17305.425
1394.11575	17113.725
1397.57339	17092.225
1401.0287	17167.525
1404.48168	17226.325
1407.93234	17220.325
1411.38068	17103.025
1414.82669	16860.025
1418.27039	16581.525
1421.71177	16263.225
1425.15083	15933.325
1428.58758	15752.625
1432.02203	15817.925
1435.45416	16058.725
1438.88399	16275.425
1442.31151	16397.925
1445.73673	16490.525
1449.15965	16528.825
1452.58027	16556.225
1455.9986	16557.525
1459.41463	16573.425
1462.82837	16779.925
1466.23982	17045.025
1469.64898	17286.825
1473.05586	17574.625
1476.46045	17681.325
1479.86276	17774.625
1483.26279	17801.425
1486.66054	17845.025
1490.05602	18034.125
1493.44922	18392.425
1496.84016	18888.125
1500.22882	19621.125
1503.61521	20564.525
1506.99934	21556.925
1510.38121	22283.825
1513.76081	22259.925
1517.13816	21510.125
1520.51324	20349.125
1523.88607	19364.225
1527.25665	18796.525
1530.62498	18493.625
1533.99105	18250.325
1537.35488	18011.925
1540.71647	17735.625
1544.07581	17422.725
1547.4329	17136.225
1550.78776	16863.425
1554.14038	16688.025
1557.49077	16610.725
1560.83892	16652.725
1564.18484	16723.125
1567.52853	16904.925
1570.86999	17127.125
1574.20922	17333.325
1577.54624	17418.325
1580.88103	17199.525
1584.2136	16934.425
1587.54395	16910.225
1590.87208	17255.425
1594.19801	17943.425
1597.52172	18790.925
1600.84321	19199.725
1604.16251	18772.725
1607.47959	17923.825
1610.79447	16916.125
1614.10715	15864.625
1617.41763	15005.325
1620.7259	14361.925
1624.03199	13973.825
1627.33587	13922.125
1630.63757	14126.425
1633.93707	14664.325
1637.23439	15657.025
1640.52951	17131.225
1643.82246	18960.625
1647.11321	20530.125
1650.40179	21020.925
1653.68819	19936.525
1656.97241	17770.725
1660.25446	15661.425
1663.53433	14120.325
1666.81203	13190.025
1670.08756	12641.325
1673.36092	12304.225
1676.63211	12083.325
1679.90115	11914.325
1683.16801	11777.125
1686.43272	11697.925
1689.69527	11561.625
1692.95567	11454.825
1696.2139	11302.525
1699.46999	11186.025
1702.72392	11106.325
1705.97571	11170.725
1709.22535	11224.125
1712.47284	11299.025
1715.71819	11309.425
1718.96139	11284.025
1722.20246	11266.825
1725.44139	11236.325
1728.67818	11195.325
1731.91284	11145.725
1735.14537	11070.625
1738.37576	11037.725
1741.60403	10995.425
1744.83017	10937.625
1748.05418	10912.325
1751.27607	10882.525
1754.49584	10842.125
1757.71349	10770.325
1760.92903	10756.725
1764.14244	10754.225
1767.35375	10746.025
1770.56294	10706.025
1773.77002	10688.925
1776.97499	10700.225
1780.17785	10717.825
1783.37861	10726.325
1786.57727	10737.825
1789.77382	10730.025
1792.96828	10704.925
1796.16064	10697.325
1799.3509	10674.725
1802.53907	10660.325
1805.72514	10628.125
1808.90913	10610.725
1812.09102	10599.225
1815.27083	10586.025
1818.44856	10555.725
1821.6242	10532.925
1824.79776	10541.925
1827.96924	10524.425
1831.13864	10508.325
1834.30597	10509.525
1837.47122	10487.825
1840.6344	10482.125
1843.7955	10487.525
1846.95454	10485.725
1850.11151	10484.325
1853.26642	10484.325
1856.41926	10469.325
1859.57004	10438.525
1862.71876	10429.725
1865.86542	10412.925
1869.01003	10390.025
1872.15258	10378.625
1875.29308	10367.225
1878.43152	10355.225
1881.56792	10349.425
1884.70227	10333.925
1887.83457	10320.125
1890.96482	10322.325
1894.09304	10287.825
1897.21921	10284.725
1900.34335	10288.725
1903.46544	10237.025
1906.58551	10232.425
1909.70353	10251.525
1912.81953	10240.225
1915.93349	10230.525
1919.04543	10162.525
1922.15534	10171.325
1925.26322	10165.925
1928.36908	10098.425
1931.47292	10107.125
1934.57473	10095.525
1937.67453	10062.125
1940.77232	10049.425
1943.86808	10019.325
1946.96184	10020.425
1950.05358	9970.325
1953.14331	9928.325
1956.23103	9913.525
1959.31675	9864.025
1962.40046	9833.425
1965.48217	9826.825
1968.56188	9789.625
1971.63959	9770.825
1974.7153	9747.825
1977.78901	9722.425
1980.86073	9680.625
1983.93046	9639.725
1986.99819	9631.025
1990.06394	9594.325
1993.1277	9562.125
1996.18947	9520.025
1999.24925	9516.425
2002.30706	9473.825
2005.36288	9458.925
2008.41672	9452.125
2011.46859	9401.525
2014.51848	9396.525
2017.56639	9374.625
2020.61233	9331.325
2023.6563	9312.725
2026.6983	9270.025
2029.73833	9260.825
2032.7764	9224.625
2035.8125	9221.525
2038.84664	9199.025
2041.87881	9188.125
2044.90903	9165.925
2047.93729	9134.825
2050.96359	9132.325
2053.98794	9124.825
2057.01034	9137.425
2060.03078	9123.225
2063.04927	9110.625
2066.06582	9084.525
2069.08042	9068.925
2072.09307	9087.725
2075.10378	9093.925
2078.11255	9071.625
2081.11938	9069.225
2084.12426	9075.125
2087.12722	9066.625
2090.12824	9068.925
2093.12732	9077.925
2096.12447	9048.825
2099.11969	9062.425
2102.11299	9037.225
2105.10435	9076.025
2108.09379	9065.525
2111.08131	9077.725
2114.0669	9064.925
2117.05057	9062.725
2120.03233	9083.425
2123.01216	9106.525
2125.99008	9106.825
2128.96609	9112.425
2131.94018	9122.925
2134.91236	9123.325
2137.88263	9131.325
2140.851	9125.625
2143.81746	9134.825
2146.78201	9145.425
2149.74466	9130.525
2152.7054	9125.625
2155.66425	9107.925
2158.6212	9123.125
2161.57625	9122.125
2164.52941	9108.125
2167.48067	9091.325
2170.43004	9093.225
2173.37752	9109.625
2176.32311	9104.325
2179.26681	9087.825
2182.20863	9085.525
2185.14856	9116.425
2188.08661	9110.325
2191.02278	9108.825
2193.95707	9109.225
2196.88948	9078.325
2199.82001	9073.025
2202.74867	9074.125
2205.67545	9064.425
2208.60037	9032.825
2211.52341	9037.825
2214.44458	9008.225
2217.36388	9002.325
2220.28132	9004.525
2223.1969	8957.025
2226.11061	8953.025
2229.02246	8934.425
2231.93245	8941.025
2234.84058	8914.625
2237.74686	8890.525
2240.65128	8905.425
2243.55385	8886.325
2246.45456	8892.725
2249.35343	8883.125
2252.25044	8847.825
2255.14561	8849.425
2258.03893	8830.825
2260.93041	8825.125
2263.82004	8790.025
2266.70783	8762.625
2269.59378	8754.925
2272.4779	8723.925
2275.36017	8709.425
2278.24061	8705.925
2281.11922	8679.125
2283.996	8670.425
2286.87094	8671.025
2289.74405	8636.525
2292.61534	8615.225
2295.4848	8623.625
2298.35243	8617.425
2301.21824	8602.925
2304.08223	8607.325
2306.94439	8615.825
2309.80474	8604.125
2312.66327	8608.925
2315.51999	8583.225
2318.37489	8553.225
2321.22797	8552.925
2324.07925	8539.525
2326.92871	8520.625
2329.77637	8526.425
2332.62222	8513.025
2335.46626	8505.125
2338.3085	8483.125
2341.14893	8481.925
2343.98756	8465.225
2346.8244	8459.025
2349.65943	8462.725
2352.49267	8457.725
2355.32411	8458.225
2358.15376	8440.125
2360.98161	8453.425
2363.80768	8435.925
2366.63195	8430.425
2369.45444	8449.025
2372.27514	8420.125
2375.09405	8431.325
2377.91118	8421.325
2380.72652	8398.125
2383.54009	8369.425
2386.35187	8353.525
2389.16188	8341.325
2391.97011	8339.725
2394.77657	8294.525
2397.58125	8288.925
2400.38416	8275.925
2403.18529	8270.325
2405.98466	8268.225
2408.78226	8234.825
2411.57809	8212.325
2414.37216	8223.025
2417.16446	8192.725
2419.955	8178.925
2422.74378	8196.025
2425.5308	8174.525
2428.31606	8192.125
2431.09956	8176.125
2433.88131	8170.825
2436.6613	8183.325
2439.43954	8170.125
2442.21603	8173.725
2444.99077	8166.425
2447.76377	8168.925
2450.53501	8156.025
2453.30451	8171.425
2456.07226	8108.425
2458.83827	8124.525
2461.60254	8115.425
2464.36507	8142.225
2467.12586	8124.325
2469.88492	8111.825
2472.64224	8101.825
2475.39782	8102.625
2478.15167	8081.125
2480.90379	8087.725
2483.65417	8102.225
2486.40283	8107.725
2489.14976	8095.325
2491.89497	8104.725
2494.63845	8091.025
2497.3802	8087.225
2500.12024	8079.225
2502.85855	8082.525
2505.59514	8080.325
2508.33002	8054.825
2511.06318	8042.825
2513.79462	8035.425
2516.52435	8039.225
2519.25237	8016.225
2521.97867	8003.025
2524.70327	7993.125
2527.42616	7975.425
2530.14734	7968.325
2532.86681	7967.325
2535.58458	7970.225
2538.30065	7987.025
2541.01501	7966.025
2543.72768	7939.325
2546.43864	7921.925
2549.14791	7906.425
2551.85548	7916.825
2554.56136	7899.425
2557.26554	7880.625
2559.96803	7869.725
2562.66883	7855.725
2565.36794	7844.925
2568.06536	7855.025
2570.7611	7834.525
2573.45514	7818.725
2576.14751	7795.925
2578.83819	7790.825
2581.52719	7785.825
2584.21451	7793.025
2586.90015	7758.725
2589.58411	7752.825
2592.2664	7750.425
2594.94701	7735.425
2597.62594	7725.825
2600.30321	7738.325
2602.9788	7732.125
2605.65273	7716.825
2608.32498	7701.625
2610.99557	7690.525
2613.66449	7722.725
2616.33175	7687.525
2618.99734	7670.325
2621.66128	7678.325
2624.32355	7658.725
2626.98416	7680.825
2629.64311	7642.925
2632.30041	7642.725
2634.95605	7624.325
2637.61004	7598.425
2640.26238	7593.125
2642.91306	7600.025
2645.56209	7613.325
2648.20948	7596.525
2650.85521	7574.425
2653.4993	7564.525
2656.14175	7559.925
2658.78255	7581.725
2661.42171	7580.225
2664.05923	7608.025
2666.6951	7595.025
2669.32934	7609.625
2671.96194	7597.625
2674.59291	7611.925
2677.22224	7598.025
2679.84993	7601.125
2682.476	7591.225
2685.10043	7585.325
2687.72324	7588.325
2690.34441	7594.825
2692.96396	7591.125
2695.58188	7587.025
2698.19818	7575.925
2700.81285	7588.025
2703.4259	7563.525
2706.03733	7501.225
2708.64714	7554.525
2711.25533	7549.125
2713.86191	7569.825
2716.46687	7589.325
2719.07021	7602.625
2721.67194	7597.825
2724.27206	7598.325
2726.87057	7607.525
2729.46747	7601.225
2732.06276	7634.725
2734.65644	7603.925
2737.24852	7606.625
2739.83899	7582.725
2742.42786	7605.125
2745.01513	7579.825
2747.60079	7571.725
2750.18486	7550.025
2752.76733	7562.825
2755.3482	7552.325
2757.92747	7543.625
2760.50515	7508.725
2763.08123	7517.125
2765.65573	7498.425
2768.22863	7500.425
2770.79994	7482.025
2773.36967	7475.625
2775.9378	7456.025
2778.50435	7480.325
2781.06932	7467.225
2783.6327	7457.225
2786.1945	7456.025
2788.75471	7468.625
2791.31335	7442.425
2793.87041	7428.725
2796.42589	7397.125
2798.97979	7413.625
2801.53212	7389.225
2804.08288	7349.925
2806.63206	7363.325
2809.17967	7337.425
2811.72571	7325.825
2814.27018	7301.925
2816.81308	7309.425
2819.35442	7300.025
2821.89419	7294.825
2824.43239	7278.425
2826.96904	7275.325
2829.50412	7295.525
2832.03763	7292.825
2834.56959	7316.825
2837.1	7283.825
2839.62884	7283.725
2842.15613	7296.125
2844.68186	7296.725
2847.20604	7289.125
2849.72867	7314.725
2852.24974	7296.025
2854.76927	7259.025
2857.28724	7247.725
2859.80367	7244.125
2862.31855	7281.525
2864.83189	7239.125
2867.34368	7257.225
2869.85393	7233.525
2872.36264	7234.325
2874.8698	7240.625
2877.37543	7237.225
2879.87952	7244.025
2882.38207	7215.425
2884.88308	7227.625
2887.38256	7252.325
2889.88051	7240.925
2892.37692	7237.325
2894.8718	7232.625
2897.36515	7238.325
2899.85698	7241.425
2902.34727	7255.425
2904.83604	7237.325
2907.32328	7276.425
2909.809	7257.625
2912.29319	7294.625
2914.77587	7263.025
2917.25702	7256.325
2919.73665	7263.525
2922.21476	7290.425
2924.69136	7294.125
2927.16644	7275.825
2929.64	7249.425
2932.11205	7242.325
2934.58258	7231.325
2937.05161	7217.525
2939.51912	7220.525
2941.98513	7229.825
2944.44962	7215.825
2946.91261	7203.025
2949.37409	7198.425
2951.83407	7182.325
2954.29254	7184.225
2956.74951	7157.925
2959.20498	7159.325
2961.65895	7134.425
2964.11142	7134.725
2966.56239	7109.125
2969.01186	7109.225
2971.45984	7078.825
2973.90632	7079.225
2976.35131	7063.125
2978.7948	7047.125
2981.23681	7047.025
2983.67732	7054.625
2986.11635	7016.425
2988.55388	6988.925
2990.98993	7015.925
2993.4245	6983.825
2995.85758	6963.925
2998.28917	6942.425
3000.71928	6934.625
3003.14791	6912.525
3005.57506	6930.425
3008.00073	6895.125
3010.42493	6891.625
3012.84764	6897.425
3015.26888	6869.325
3017.68865	6857.625
3020.10694	6874.825
3022.52376	6842.225
3024.9391	6842.225
3027.35298	6840.425
3029.76539	6825.425
3032.17632	6812.525
3034.5858	6792.325
3036.9938	6801.525
3039.40034	6792.025
3041.80542	6768.325
3044.20903	6784.525
3046.61118	6755.525
3049.01187	6776.425
3051.4111	6781.825
3053.80888	6752.425
3056.20519	6743.825
3058.60005	6741.125
3060.99345	6717.825
3063.3854	6708.325
3065.7759	6688.125
3068.16494	6678.925
3070.55254	6632.825
3072.93868	6635.825
3075.32338	6618.925
3077.70662	6605.725
3080.08842	6623.925
3082.46878	6611.225
3084.84769	6575.425
3087.22515	6577.325
3089.60118	6599.325
3091.97576	6582.925
3094.3489	6578.725
3096.72061	6578.225
3099.09087	6605.525
3101.4597	6584.725
3103.82709	6588.625
3106.19305	6597.525
3108.55757	6596.525
3110.92066	6578.925
3113.28232	6555.525
3115.64255	6545.025
3118.00134	6530.625
3120.35871	6549.825
3122.71466	6508.725
3125.06917	6504.925
3127.42226	6497.025
3129.77393	6495.825
3132.12417	6490.125
3134.47299	6496.725
3136.82039	6493.625
3139.16636	6491.725
3141.51092	6487.325
3143.85406	6491.525
3146.19579	6497.725
3148.53609	6498.725
3150.87499	6512.325
3153.21246	6525.925
3155.54853	6539.325
3157.88318	6523.325
3160.21642	6535.725
3162.54826	6531.725
3164.87868	6525.525
3167.2077	6520.025
3169.5353	6521.425
3171.86151	6522.625
3174.18631	6529.225
3176.5097	6503.925
3178.83169	6496.925
3181.15228	6527.625
