Data from AgNPs_FTO_APTES_UA_50uM_CRN_0uM_R6G_10uM_NaF_0.1M_Addition_RamanShift__38__10-54-34-674.txt Node

Date: Mon Feb 21 10:54:34 GMT 2022
User: TCL
Spectrometer: QEP01345
Trigger mode: 4
Integration Time (sec): 7.000000E0
Scans to average: 10
Electric dark correction enabled: true
Nonlinearity correction enabled: false
Boxcar width: 0
XAxis mode: Raman Shifts
Number of Pixels in Spectrum: 1044
>>>>>Begin Spectral Data<<<<<
46.04893	1.8625
50.45542	-1.3375
54.85868	0.2625
59.25871	-1.3375
63.6555	47.8625
68.04907	55.9625
72.43941	55.9625
76.82654	56.6625
81.21044	60.8625
85.59113	64.8625
89.96862	65.9625
94.34289	70.8625
98.71396	70.5625
103.08183	75.5625
107.4465	75.8625
111.80798	74.1625
116.16626	71.9625
120.52136	73.7625
124.87327	85.6625
129.222	80.8625
133.56755	86.1625
137.90993	91.3625
142.24913	99.1625
146.58517	110.6625
150.91804	126.5625
155.24774	149.1625
159.57429	179.0625
163.89768	232.0625
168.21792	305.1625
172.53501	419.3625
176.84895	578.7625
181.15975	807.9625
185.46741	1122.8625
189.77193	1555.9625
194.07331	2084.6625
198.37157	2677.7625
202.6667	3300.8625
206.9587	3920.5625
211.24758	4545.7625
215.53334	5172.3625
219.81599	5853.8625
224.09553	6634.6625
228.37195	7464.2625
232.64527	8402.6625
236.91549	9316.2625
241.18261	10245.1625
245.44663	11050.2625
249.70755	11750.9625
253.96539	12297.9625
258.22014	12806.2625
262.4718	13233.4625
266.72039	13530.7625
270.96589	13649.2625
275.20832	13638.6625
279.44768	13542.2625
283.68397	13356.1625
287.91719	13231.5625
292.14735	13197.1625
296.37445	13241.7625
300.59849	13447.7625
304.81948	13662.9625
309.03742	13832.8625
313.25231	13743.9625
317.46415	13449.8625
321.67296	12892.6625
325.87872	12410.8625
330.08145	12154.9625
334.28114	12118.5625
338.47781	12182.5625
342.67145	12365.7625
346.86207	12670.2625
351.04966	13030.9625
355.23424	13464.3625
359.4158	13810.7625
363.59435	14036.1625
367.76989	14109.3625
371.94243	14170.2625
376.11196	14166.4625
380.27849	14161.8625
384.44203	14217.7625
388.60257	14245.8625
392.76012	14290.3625
396.91468	14434.6625
401.06626	14702.1625
405.21485	14882.1625
409.36047	14783.2625
413.50311	14403.4625
417.64277	14130.3625
421.77947	13964.7625
425.9132	13981.5625
430.04396	13980.1625
434.17176	14010.0625
438.2966	14170.4625
442.41849	14456.4625
446.53742	14925.3625
450.6534	15412.9625
454.76644	15798.6625
458.87653	15891.3625
462.98368	15760.9625
467.08789	15475.2625
471.18916	15170.5625
475.2875	14910.3625
479.38291	14733.0625
483.4754	14623.8625
487.56496	14480.4625
491.6516	14261.2625
495.73531	14065.1625
499.81612	14016.9625
503.89401	14069.2625
507.96899	14120.4625
512.04106	14134.1625
516.11023	14077.1625
520.1765	13989.6625
524.23987	13892.2625
528.30034	13808.1625
532.35792	13647.1625
536.41261	13428.1625
540.46441	13171.4625
544.51333	13086.1625
548.55936	13203.2625
552.60252	13541.9625
556.64279	13963.3625
560.6802	14278.2625
564.71473	14535.8625
568.7464	14927.6625
572.7752	15437.2625
576.80114	15686.5625
580.82422	15768.5625
584.84444	15969.6625
588.86181	16312.3625
592.87633	16686.9625
596.888	16749.3625
600.89682	16408.1625
604.9028	16829.2625
608.90594	19064.6625
612.90624	21876.9625
616.90371	20702.5625
620.89834	16251.1625
624.89015	14070.1625
628.87913	13734.0625
632.86528	13788.8625
636.84862	13788.5625
640.82913	13560.1625
644.80683	13134.5625
648.78172	12788.7625
652.75379	12713.6625
656.72306	12986.5625
660.68952	13358.5625
664.65319	13285.2625
668.61405	12900.0625
672.57211	12820.2625
676.52738	12816.9625
680.47986	12879.9625
684.42955	12782.0625
688.37646	12743.3625
692.32058	12844.6625
696.26192	12964.4625
700.20048	13091.6625
704.13626	13208.5625
708.06928	13150.5625
711.99952	13055.4625
715.927	13062.8625
719.85171	13117.1625
723.77365	13088.3625
727.69284	12867.1625
731.60928	12675.8625
735.52295	12649.7625
739.43388	12640.7625
743.34206	12696.8625
747.24749	12777.2625
751.15017	12850.8625
755.05012	13120.5625
758.94733	13577.0625
762.8418	14542.1625
766.73354	16198.8625
770.62254	17835.9625
774.50882	18383.4625
778.39237	17542.3625
782.27321	15901.1625
786.15132	14402.5625
790.02671	13474.1625
793.89938	13027.8625
797.76935	12790.9625
801.6366	12758.9625
805.50115	12693.1625
809.36299	12613.8625
813.22213	12477.0625
817.07857	12405.3625
820.93231	12366.7625
824.78336	12303.3625
828.63172	12278.2625
832.47738	12254.5625
836.32036	12236.2625
840.16066	12269.1625
843.99827	12293.2625
847.8332	12267.5625
851.66546	12207.9625
855.49504	12208.0625
859.32195	12208.5625
863.1462	12172.5625
866.96777	12120.8625
870.78668	12095.3625
874.60293	12123.5625
878.41652	12138.1625
882.22745	12189.0625
886.03573	12284.9625
889.84136	12269.1625
893.64433	12229.5625
897.44466	12174.5625
901.24235	12106.1625
905.0374	12017.9625
908.8298	11958.3625
912.61957	11928.9625
916.40671	11986.0625
920.19121	12129.2625
923.97308	12316.0625
927.75233	12432.2625
931.52895	12434.3625
935.30295	12272.3625
939.07433	11930.9625
942.84309	11685.9625
946.60924	11561.0625
950.37278	11532.6625
954.13371	11495.3625
957.89203	11442.7625
961.64774	11381.6625
965.40086	11402.0625
969.15137	11350.8625
972.89929	11331.6625
976.64461	11305.8625
980.38733	11272.9625
984.12747	11321.8625
987.86502	11398.5625
991.59999	11553.6625
995.33237	11776.1625
999.06217	12156.3625
1002.78939	12602.2625
1006.51404	12929.3625
1010.23611	13151.9625
1013.95561	13319.2625
1017.67255	13317.7625
1021.38692	13089.7625
1025.09872	12868.7625
1028.80796	12814.2625
1032.51465	12979.0625
1036.21877	13241.2625
1039.92035	13323.8625
1043.61937	13194.6625
1047.31584	12969.5625
1051.00976	12683.5625
1054.70114	12562.7625
1058.38998	12549.9625
1062.07627	12597.7625
1065.76003	12727.7625
1069.44126	12818.1625
1073.11995	13052.8625
1076.79611	13323.9625
1080.46974	13525.7625
1084.14085	13710.7625
1087.80943	13968.4625
1091.47549	14142.6625
1095.13903	14074.4625
1098.80005	13764.3625
1102.45857	13385.7625
1106.11456	13109.1625
1109.76805	13041.8625
1113.41903	13103.9625
1117.06751	13259.5625
1120.71348	13523.6625
1124.35696	13821.8625
1127.99793	14133.9625
1131.63641	14242.7625
1135.2724	14049.4625
1138.90589	13811.3625
1142.5369	13675.5625
1146.16542	13601.6625
1149.79145	13626.3625
1153.415	13676.3625
1157.03607	13875.7625
1160.65467	14221.4625
1164.27079	14844.3625
1167.88443	15782.9625
1171.49561	16984.9625
1175.10432	18746.6625
1178.71056	20987.1625
1182.31434	23011.1625
1185.91565	23921.9625
1189.51451	23740.0625
1193.11091	22770.2625
1196.70485	21461.6625
1200.29634	20296.3625
1203.88538	19285.7625
1207.47197	18458.1625
1211.05612	17808.7625
1214.63782	17393.2625
1218.21708	17198.9625
1221.79391	17093.0625
1225.36829	17164.4625
1228.94024	16919.6625
1232.50976	16502.5625
1236.07685	16088.8625
1239.6415	15828.4625
1243.20374	15750.1625
1246.76355	15769.1625
1250.32093	15955.8625
1253.8759	16397.2625
1257.42845	16919.5625
1260.97859	17593.7625
1264.52631	18305.3625
1268.07163	19026.7625
1271.61453	19680.6625
1275.15503	20299.4625
1278.69312	20974.4625
1282.22882	21515.6625
1285.76211	22131.6625
1289.29301	22923.6625
1292.82151	23774.8625
1296.34761	24974.4625
1299.87133	26521.1625
1303.39266	28445.2625
1306.9116	30774.4625
1310.42815	33188.4625
1313.94233	34793.6625
1317.45412	34826.6625
1320.96354	33635.4625
1324.47058	32239.6625
1327.97525	30983.0625
1331.47754	30124.6625
1334.97747	29572.2625
1338.47502	29272.1625
1341.97022	29011.0625
1345.46305	28660.0625
1348.95352	28489.5625
1352.44163	28724.3625
1355.92738	29811.6625
1359.41078	32008.5625
1362.89183	34394.5625
1366.37053	34205.0625
1369.84688	30786.5625
1373.32088	26568.3625
1376.79254	23698.7625
1380.26186	22349.0625
1383.72883	21931.4625
1387.19347	21663.3625
1390.65578	21315.5625
1394.11575	21159.4625
1397.57339	21348.7625
1401.0287	21850.3625
1404.48168	22235.6625
1407.93234	22318.7625
1411.38068	22071.3625
1414.82669	21468.1625
1418.27039	20599.3625
1421.71177	19709.3625
1425.15083	19013.1625
1428.58758	18646.7625
1432.02203	18759.5625
1435.45416	19209.1625
1438.88399	19771.4625
1442.31151	20142.0625
1445.73673	20423.2625
1449.15965	20691.2625
1452.58027	20890.0625
1455.9986	20952.3625
1459.41463	21071.0625
1462.82837	21374.0625
1466.23982	21802.2625
1469.64898	22182.9625
1473.05586	22363.4625
1476.46045	22376.4625
1479.86276	22223.1625
1483.26279	22123.3625
1486.66054	22102.1625
1490.05602	22319.5625
1493.44922	22639.5625
1496.84016	23142.5625
1500.22882	24040.7625
1503.61521	25411.2625
1506.99934	27114.0625
1510.38121	28591.3625
1513.76081	28977.7625
1517.13816	27954.5625
1520.51324	25861.8625
1523.88607	23938.6625
1527.25665	22698.9625
1530.62498	22143.3625
1533.99105	21845.4625
1537.35488	21596.2625
1540.71647	21193.4625
1544.07581	20763.7625
1547.4329	20269.5625
1550.78776	19830.2625
1554.14038	19539.0625
1557.49077	19448.0625
1560.83892	19446.5625
1564.18484	19636.6625
1567.52853	19901.3625
1570.86999	20215.0625
1574.20922	20582.5625
1577.54624	20787.7625
1580.88103	20556.3625
1584.2136	20315.2625
1587.54395	20614.5625
1590.87208	21739.8625
1594.19801	23378.8625
1597.52172	25218.6625
1600.84321	25801.9625
1604.16251	24589.7625
1607.47959	22412.7625
1610.79447	20046.9625
1614.10715	17955.3625
1617.41763	16329.0625
1620.7259	15250.5625
1624.03199	14726.0625
1627.33587	14745.3625
1630.63757	15239.8625
1633.93707	16299.6625
1637.23439	18217.0625
1640.52951	20943.5625
1643.82246	24197.2625
1647.11321	26990.5625
1650.40179	27855.5625
1653.68819	25939.6625
1656.97241	22050.7625
1660.25446	18178.5625
1663.53433	15320.7625
1666.81203	13566.0625
1670.08756	12501.7625
1673.36092	11899.7625
1676.63211	11526.8625
1679.90115	11252.3625
1683.16801	11030.4625
1686.43272	10888.1625
1689.69527	10731.5625
1692.95567	10591.5625
1696.2139	10424.6625
1699.46999	10290.7625
1702.72392	10224.9625
1705.97571	10285.3625
1709.22535	10357.1625
1712.47284	10403.8625
1715.71819	10393.5625
1718.96139	10373.0625
1722.20246	10332.7625
1725.44139	10305.4625
1728.67818	10216.1625
1731.91284	10140.8625
1735.14537	10082.4625
1738.37576	10023.0625
1741.60403	9977.5625
1744.83017	9922.8625
1748.05418	9858.8625
1751.27607	9789.3625
1754.49584	9734.1625
1757.71349	9657.1625
1760.92903	9594.5625
1764.14244	9581.0625
1767.35375	9566.3625
1770.56294	9588.6625
1773.77002	9581.6625
1776.97499	9617.2625
1780.17785	9642.2625
1783.37861	9652.0625
1786.57727	9630.0625
1789.77382	9663.5625
1792.96828	9649.3625
1796.16064	9640.9625
1799.3509	9612.5625
1802.53907	9590.3625
1805.72514	9569.4625
1808.90913	9530.9625
1812.09102	9484.4625
1815.27083	9464.2625
1818.44856	9480.5625
1821.6242	9471.8625
1824.79776	9445.8625
1827.96924	9438.2625
1831.13864	9429.6625
1834.30597	9437.1625
1837.47122	9442.0625
1840.6344	9446.4625
1843.7955	9421.4625
1846.95454	9445.7625
1850.11151	9413.2625
1853.26642	9386.5625
1856.41926	9397.4625
1859.57004	9402.9625
1862.71876	9398.4625
1865.86542	9406.6625
1869.01003	9399.9625
1872.15258	9388.1625
1875.29308	9384.7625
1878.43152	9364.2625
1881.56792	9383.9625
1884.70227	9393.1625
1887.83457	9358.3625
1890.96482	9358.7625
1894.09304	9334.3625
1897.21921	9340.4625
1900.34335	9314.9625
1903.46544	9297.0625
1906.58551	9296.1625
1909.70353	9269.3625
1912.81953	9286.9625
1915.93349	9263.9625
1919.04543	9240.9625
1922.15534	9193.7625
1925.26322	9186.0625
1928.36908	9145.3625
1931.47292	9124.0625
1934.57473	9089.0625
1937.67453	9085.5625
1940.77232	9046.4625
1943.86808	9019.0625
1946.96184	8980.8625
1950.05358	8973.1625
1953.14331	8920.2625
1956.23103	8898.2625
1959.31675	8860.8625
1962.40046	8850.4625
1965.48217	8828.4625
1968.56188	8819.2625
1971.63959	8782.9625
1974.7153	8773.5625
1977.78901	8746.9625
1980.86073	8715.0625
1983.93046	8672.7625
1986.99819	8622.9625
1990.06394	8603.6625
1993.1277	8604.9625
1996.18947	8576.9625
1999.24925	8541.0625
2002.30706	8510.3625
2005.36288	8474.3625
2008.41672	8465.9625
2011.46859	8436.9625
2014.51848	8420.5625
2017.56639	8373.1625
2020.61233	8365.3625
2023.6563	8370.4625
2026.6983	8353.6625
2029.73833	8319.7625
2032.7764	8293.4625
2035.8125	8294.5625
2038.84664	8267.2625
2041.87881	8261.8625
2044.90903	8240.5625
2047.93729	8236.9625
2050.96359	8239.4625
2053.98794	8230.7625
2057.01034	8215.7625
2060.03078	8210.2625
2063.04927	8185.9625
2066.06582	8183.4625
2069.08042	8167.8625
2072.09307	8179.9625
2075.10378	8150.1625
2078.11255	8170.7625
2081.11938	8159.0625
2084.12426	8159.9625
2087.12722	8165.3625
2090.12824	8154.9625
2093.12732	8164.6625
2096.12447	8177.9625
2099.11969	8175.3625
2102.11299	8157.2625
2105.10435	8177.5625
2108.09379	8164.6625
2111.08131	8151.5625
2114.0669	8173.3625
2117.05057	8178.8625
2120.03233	8182.4625
2123.01216	8192.2625
2125.99008	8189.3625
2128.96609	8203.3625
2131.94018	8213.8625
2134.91236	8194.6625
2137.88263	8225.5625
2140.851	8216.8625
2143.81746	8222.2625
2146.78201	8207.5625
2149.74466	8183.3625
2152.7054	8202.6625
2155.66425	8206.5625
2158.6212	8208.4625
2161.57625	8204.5625
2164.52941	8199.3625
2167.48067	8194.5625
2170.43004	8180.8625
2173.37752	8189.3625
2176.32311	8176.7625
2179.26681	8179.3625
2182.20863	8194.8625
2185.14856	8214.9625
2188.08661	8182.9625
2191.02278	8180.3625
2193.95707	8199.6625
2196.88948	8183.8625
2199.82001	8195.6625
2202.74867	8174.5625
2205.67545	8175.5625
2208.60037	8174.5625
2211.52341	8157.7625
2214.44458	8136.5625
2217.36388	8126.3625
2220.28132	8138.4625
2223.1969	8104.5625
2226.11061	8098.8625
2229.02246	8088.6625
2231.93245	8062.0625
2234.84058	8057.6625
2237.74686	8007.9625
2240.65128	8029.6625
2243.55385	8010.4625
2246.45456	7993.7625
2249.35343	7992.3625
2252.25044	7987.4625
2255.14561	7953.2625
2258.03893	7944.0625
2260.93041	7922.6625
2263.82004	7901.3625
2266.70783	7907.1625
2269.59378	7901.5625
2272.4779	7868.7625
2275.36017	7851.3625
2278.24061	7833.6625
2281.11922	7808.1625
2283.996	7827.7625
2286.87094	7817.6625
2289.74405	7815.8625
2292.61534	7775.3625
2295.4848	7797.0625
2298.35243	7784.2625
2301.21824	7756.4625
2304.08223	7790.2625
2306.94439	7788.4625
2309.80474	7785.3625
2312.66327	7805.3625
2315.51999	7759.4625
2318.37489	7804.2625
2321.22797	7785.7625
2324.07925	7792.6625
2326.92871	7769.6625
2329.77637	7780.5625
2332.62222	7748.2625
2335.46626	7758.3625
2338.3085	7752.3625
2341.14893	7745.5625
2343.98756	7758.8625
2346.8244	7773.1625
2349.65943	7763.4625
2352.49267	7780.3625
2355.32411	7800.7625
2358.15376	7794.7625
2360.98161	7762.1625
2363.80768	7793.5625
2366.63195	7763.7625
2369.45444	7753.1625
2372.27514	7730.5625
2375.09405	7721.8625
2377.91118	7699.2625
2380.72652	7699.2625
2383.54009	7652.3625
2386.35187	7645.8625
2389.16188	7617.3625
2391.97011	7619.3625
2394.77657	7616.7625
2397.58125	7601.5625
2400.38416	7609.6625
2403.18529	7583.6625
2405.98466	7561.7625
2408.78226	7554.4625
2411.57809	7536.7625
2414.37216	7509.1625
2417.16446	7528.9625
2419.955	7518.3625
2422.74378	7511.6625
2425.5308	7505.5625
2428.31606	7497.5625
2431.09956	7482.7625
2433.88131	7508.5625
2436.6613	7492.8625
2439.43954	7528.9625
2442.21603	7488.2625
2444.99077	7497.0625
2447.76377	7513.1625
2450.53501	7492.7625
2453.30451	7499.0625
2456.07226	7502.6625
2458.83827	7485.7625
2461.60254	7486.2625
2464.36507	7471.1625
2467.12586	7473.0625
2469.88492	7495.0625
2472.64224	7488.4625
2475.39782	7484.6625
2478.15167	7487.3625
2480.90379	7495.2625
2483.65417	7519.4625
2486.40283	7518.8625
2489.14976	7533.0625
2491.89497	7536.4625
2494.63845	7528.0625
2497.3802	7511.1625
2500.12024	7534.6625
2502.85855	7528.0625
2505.59514	7517.3625
2508.33002	7504.3625
2511.06318	7496.4625
2513.79462	7461.0625
2516.52435	7456.9625
2519.25237	7442.8625
2521.97867	7442.9625
2524.70327	7434.1625
2527.42616	7445.8625
2530.14734	7437.2625
2532.86681	7444.6625
2535.58458	7446.9625
2538.30065	7431.7625
2541.01501	7437.4625
2543.72768	7406.2625
2546.43864	7423.0625
2549.14791	7411.7625
2551.85548	7423.8625
2554.56136	7415.5625
2557.26554	7389.4625
2559.96803	7384.7625
2562.66883	7380.0625
2565.36794	7375.2625
2568.06536	7386.1625
2570.7611	7354.7625
2573.45514	7371.7625
2576.14751	7369.3625
2578.83819	7367.0625
2581.52719	7345.2625
2584.21451	7331.1625
2586.90015	7336.2625
2589.58411	7319.1625
2592.2664	7333.7625
2594.94701	7325.8625
2597.62594	7325.8625
2600.30321	7332.3625
2602.9788	7329.7625
2605.65273	7330.2625
2608.32498	7341.2625
2610.99557	7349.5625
2613.66449	7345.6625
2616.33175	7326.7625
2618.99734	7341.3625
2621.66128	7320.6625
2624.32355	7329.9625
2626.98416	7325.5625
2629.64311	7327.8625
2632.30041	7339.1625
2634.95605	7330.0625
2637.61004	7297.7625
2640.26238	7282.3625
2642.91306	7299.6625
2645.56209	7284.5625
2648.20948	7259.0625
2650.85521	7247.6625
2653.4993	7260.3625
2656.14175	7292.3625
2658.78255	7294.3625
2661.42171	7302.6625
2664.05923	7325.9625
2666.6951	7300.8625
2669.32934	7334.5625
2671.96194	7320.0625
2674.59291	7320.4625
2677.22224	7333.5625
2679.84993	7318.0625
2682.476	7306.2625
2685.10043	7319.3625
2687.72324	7289.5625
2690.34441	7297.7625
2692.96396	7301.5625
2695.58188	7285.7625
2698.19818	7287.2625
2700.81285	7270.2625
2703.4259	7236.1625
2706.03733	7167.7625
2708.64714	7192.0625
2711.25533	7247.3625
2713.86191	7288.9625
2716.46687	7314.1625
2719.07021	7316.2625
2721.67194	7339.3625
2724.27206	7327.6625
2726.87057	7333.5625
2729.46747	7332.3625
2732.06276	7327.5625
2734.65644	7336.3625
2737.24852	7334.6625
2739.83899	7334.7625
2742.42786	7338.5625
2745.01513	7304.0625
2747.60079	7317.4625
2750.18486	7315.7625
2752.76733	7298.6625
2755.3482	7284.5625
2757.92747	7257.7625
2760.50515	7282.6625
2763.08123	7286.5625
2765.65573	7260.7625
2768.22863	7281.1625
2770.79994	7269.3625
2773.36967	7277.5625
2775.9378	7275.4625
2778.50435	7292.3625
2781.06932	7293.5625
2783.6327	7289.8625
2786.1945	7269.4625
2788.75471	7282.3625
2791.31335	7232.3625
2793.87041	7250.4625
2796.42589	7226.8625
2798.97979	7248.4625
2801.53212	7208.2625
2804.08288	7198.4625
2806.63206	7213.2625
2809.17967	7194.4625
2811.72571	7166.7625
2814.27018	7163.5625
2816.81308	7167.2625
2819.35442	7169.1625
2821.89419	7159.4625
2824.43239	7132.8625
2826.96904	7143.7625
2829.50412	7135.2625
2832.03763	7124.6625
2834.56959	7122.6625
2837.1	7119.2625
2839.62884	7125.6625
2842.15613	7112.3625
2844.68186	7130.1625
2847.20604	7150.8625
2849.72867	7159.6625
2852.24974	7126.5625
2854.76927	7123.2625
2857.28724	7090.6625
2859.80367	7114.0625
2862.31855	7099.8625
2864.83189	7095.4625
2867.34368	7124.1625
2869.85393	7118.2625
2872.36264	7125.3625
2874.8698	7134.6625
2877.37543	7145.9625
2879.87952	7125.6625
2882.38207	7126.1625
2884.88308	7122.1625
2887.38256	7149.7625
2889.88051	7144.6625
2892.37692	7136.2625
2894.8718	7136.9625
2897.36515	7145.2625
2899.85698	7161.3625
2902.34727	7168.3625
2904.83604	7165.3625
2907.32328	7187.7625
2909.809	7188.4625
2912.29319	7211.1625
2914.77587	7228.7625
2917.25702	7200.5625
2919.73665	7209.2625
2922.21476	7213.9625
2924.69136	7194.0625
2927.16644	7216.7625
2929.64	7160.4625
2932.11205	7163.5625
2934.58258	7123.5625
2937.05161	7154.2625
2939.51912	7127.4625
2941.98513	7100.3625
2944.44962	7072.0625
2946.91261	7067.8625
2949.37409	7094.6625
2951.83407	7078.8625
2954.29254	7076.0625
2956.74951	7085.6625
2959.20498	7073.6625
2961.65895	7049.9625
2964.11142	7043.6625
2966.56239	7013.6625
2969.01186	7024.3625
2971.45984	6997.0625
2973.90632	6999.4625
2976.35131	6977.9625
2978.7948	6966.6625
2981.23681	6951.9625
2983.67732	6950.6625
2986.11635	6929.5625
2988.55388	6894.5625
2990.98993	6861.1625
2993.4245	6879.3625
2995.85758	6852.6625
2998.28917	6843.6625
3000.71928	6819.2625
3003.14791	6797.5625
3005.57506	6787.9625
3008.00073	6775.5625
3010.42493	6779.5625
3012.84764	6764.8625
3015.26888	6762.0625
3017.68865	6740.3625
3020.10694	6739.7625
3022.52376	6724.2625
3024.9391	6713.5625
3027.35298	6694.3625
3029.76539	6703.0625
3032.17632	6716.4625
3034.5858	6666.8625
3036.9938	6695.0625
3039.40034	6681.8625
3041.80542	6644.1625
3044.20903	6650.7625
3046.61118	6661.2625
3049.01187	6650.6625
3051.4111	6659.3625
3053.80888	6638.1625
3056.20519	6608.3625
3058.60005	6611.0625
3060.99345	6619.6625
3063.3854	6597.7625
3065.7759	6585.2625
3068.16494	6570.5625
3070.55254	6537.7625
3072.93868	6522.3625
3075.32338	6499.1625
3077.70662	6508.9625
