Data from AgNPs_FTO_APTES_UA_50uM_CRN_2uM_R6G_10uM_NaF_0.1M_Addition_RamanShift__0__11-54-04-754.txt Node

Date: Mon Feb 21 11:54:04 GMT 2022
User: TCL
Spectrometer: QEP01345
Trigger mode: 4
Integration Time (sec): 7.000000E0
Scans to average: 10
Electric dark correction enabled: true
Nonlinearity correction enabled: false
Boxcar width: 0
XAxis mode: Raman Shifts
Number of Pixels in Spectrum: 1044
>>>>>Begin Spectral Data<<<<<
46.04893	0.525
50.45542	-0.675
54.85868	-0.275
59.25871	-1.975
63.6555	64.125
68.04907	69.925
72.43941	70.225
76.82654	73.225
81.21044	76.325
85.59113	80.625
89.96862	81.025
94.34289	90.525
98.71396	82.725
103.08183	92.925
107.4465	94.825
111.80798	94.225
116.16626	93.625
120.52136	97.925
124.87327	107.225
129.222	99.625
133.56755	106.425
137.90993	118.425
142.24913	125.525
146.58517	139.025
150.91804	157.125
155.24774	187.025
159.57429	229.025
163.89768	290.125
168.21792	385.825
172.53501	520.425
176.84895	732.625
181.15975	1026.225
185.46741	1435.725
189.77193	1976.625
194.07331	2642.725
198.37157	3403.725
202.6667	4213.425
206.9587	5014.225
211.24758	5807.025
215.53334	6605.225
219.81599	7475.525
224.09553	8440.725
228.37195	9484.925
232.64527	10644.325
236.91549	11854.625
241.18261	13012.725
245.44663	14130.525
249.70755	14992.625
253.96539	15800.725
258.22014	16554.925
262.4718	17145.225
266.72039	17595.825
270.96589	17792.325
275.20832	17767.125
279.44768	17570.025
283.68397	17304.025
287.91719	17096.925
292.14735	16965.825
296.37445	17029.025
300.59849	17257.125
304.81948	17522.525
309.03742	17760.025
313.25231	17729.325
317.46415	17398.525
321.67296	16886.525
325.87872	16433.625
330.08145	16243.925
334.28114	16247.925
338.47781	16354.625
342.67145	16610.725
346.86207	16981.225
351.04966	17462.625
355.23424	17954.825
359.4158	18457.225
363.59435	18773.725
367.76989	18920.625
371.94243	19030.825
376.11196	19116.125
380.27849	19179.425
384.44203	19243.325
388.60257	19234.425
392.76012	19311.325
396.91468	19465.125
401.06626	19735.325
405.21485	19981.625
409.36047	19858.825
413.50311	19415.325
417.64277	19045.625
421.77947	18878.525
425.9132	18773.425
430.04396	18867.225
434.17176	18940.025
438.2966	19232.025
442.41849	19656.725
446.53742	20336.425
450.6534	20958.525
454.76644	21441.225
458.87653	21489.025
462.98368	21211.425
467.08789	20891.225
471.18916	20474.125
475.2875	20103.225
479.38291	19771.625
483.4754	19558.525
487.56496	19309.325
491.6516	19149.025
495.73531	19027.525
499.81612	18936.025
503.89401	19083.025
507.96899	19128.025
512.04106	19160.225
516.11023	19183.825
520.1765	19194.925
524.23987	19228.025
528.30034	19185.525
532.35792	19121.525
536.41261	18878.825
540.46441	18613.125
544.51333	18440.625
548.55936	18507.625
552.60252	18805.525
556.64279	19243.725
560.6802	19584.525
564.71473	19779.625
568.7464	20146.625
572.7752	20526.725
576.80114	20580.225
580.82422	20568.225
584.84444	20930.225
588.86181	21662.125
592.87633	22612.025
596.888	23144.925
600.89682	22910.225
604.9028	23265.125
608.90594	25885.525
612.90624	29335.225
616.90371	28040.525
620.89834	22612.425
624.89015	20040.425
628.87913	19636.925
632.86528	19706.225
636.84862	19729.125
640.82913	19471.525
644.80683	18904.725
648.78172	18555.925
652.75379	18545.825
656.72306	18918.325
660.68952	19465.425
664.65319	19369.725
668.61405	18921.025
672.57211	18697.025
676.52738	18788.525
680.47986	18796.225
684.42955	18566.025
688.37646	18505.925
692.32058	18637.325
696.26192	18869.225
700.20048	19121.625
704.13626	19254.925
708.06928	19154.825
711.99952	19019.225
715.927	19051.025
719.85171	19217.425
723.77365	19192.625
727.69284	19022.225
731.60928	18808.725
735.52295	18735.325
739.43388	18826.325
743.34206	18888.225
747.24749	18956.525
751.15017	19053.925
755.05012	19252.225
758.94733	19751.925
762.8418	20789.125
766.73354	22545.825
770.62254	24403.225
774.50882	25310.425
778.39237	24559.525
782.27321	22671.825
786.15132	20890.825
790.02671	19795.025
793.89938	19244.625
797.76935	19010.425
801.6366	18923.225
805.50115	18832.325
809.36299	18786.525
813.22213	18724.325
817.07857	18679.125
820.93231	18632.625
824.78336	18615.625
828.63172	18634.425
832.47738	18677.325
836.32036	18712.925
840.16066	18738.025
843.99827	18778.225
847.8332	18741.025
851.66546	18670.125
855.49504	18670.325
859.32195	18649.725
863.1462	18635.525
866.96777	18593.025
870.78668	18554.925
874.60293	18589.625
878.41652	18692.025
882.22745	18757.625
886.03573	18836.425
889.84136	18837.125
893.64433	18750.925
897.44466	18686.025
901.24235	18588.925
905.0374	18534.325
908.8298	18472.625
912.61957	18445.825
916.40671	18521.225
920.19121	18664.925
923.97308	18843.225
927.75233	18979.325
931.52895	19032.325
935.30295	18885.525
939.07433	18590.425
942.84309	18316.825
946.60924	18201.725
950.37278	18160.525
954.13371	18152.225
957.89203	18047.725
961.64774	18000.025
965.40086	18001.225
969.15137	17981.725
972.89929	17932.925
976.64461	17955.325
980.38733	17997.225
984.12747	18087.525
987.86502	18270.225
991.59999	18457.725
995.33237	18733.125
999.06217	19101.425
1002.78939	19575.825
1006.51404	19921.125
1010.23611	20209.025
1013.95561	20371.525
1017.67255	20363.625
1021.38692	20123.025
1025.09872	19859.025
1028.80796	19791.125
1032.51465	19990.025
1036.21877	20240.625
1039.92035	20375.825
1043.61937	20266.225
1047.31584	20058.325
1051.00976	19755.425
1054.70114	19570.125
1058.38998	19543.125
1062.07627	19562.225
1065.76003	19645.825
1069.44126	19766.925
1073.11995	20019.525
1076.79611	20360.325
1080.46974	20611.325
1084.14085	20911.625
1087.80943	21111.325
1091.47549	21336.725
1095.13903	21254.525
1098.80005	20874.925
1102.45857	20530.025
1106.11456	20312.725
1109.76805	20308.025
1113.41903	20457.325
1117.06751	20715.525
1120.71348	20988.525
1124.35696	21336.825
1127.99793	21696.525
1131.63641	21773.425
1135.2724	21447.025
1138.90589	21056.425
1142.5369	20829.825
1146.16542	20759.125
1149.79145	20729.825
1153.415	20822.925
1157.03607	20910.625
1160.65467	21270.025
1164.27079	21923.625
1167.88443	22871.625
1171.49561	24161.125
1175.10432	26021.825
1178.71056	28579.425
1182.31434	30906.025
1185.91565	31735.725
1189.51451	31244.825
1193.11091	29848.825
1196.70485	28305.225
1200.29634	27046.225
1203.88538	26074.325
1207.47197	25232.625
1211.05612	24562.125
1214.63782	24083.925
1218.21708	23934.325
1221.79391	23915.925
1225.36829	23985.325
1228.94024	23869.025
1232.50976	23492.425
1236.07685	23104.425
1239.6415	22820.925
1243.20374	22865.925
1246.76355	22973.125
1250.32093	23275.725
1253.8759	23712.325
1257.42845	24239.125
1260.97859	24880.425
1264.52631	25631.225
1268.07163	26384.825
1271.61453	27057.825
1275.15503	27550.525
1278.69312	28070.525
1282.22882	28607.925
1285.76211	29347.125
1289.29301	30284.525
1292.82151	31360.725
1296.34761	32650.125
1299.87133	34242.625
1303.39266	36303.425
1306.9116	38931.925
1310.42815	41581.425
1313.94233	43241.925
1317.45412	42946.025
1320.96354	41336.525
1324.47058	39224.925
1327.97525	37345.925
1331.47754	36040.525
1334.97747	35364.225
1338.47502	35063.825
1341.97022	34665.625
1345.46305	34450.925
1348.95352	34806.425
1352.44163	36143.525
1355.92738	38465.625
1359.41078	41965.525
1362.89183	45265.525
1366.37053	45035.225
1369.84688	40602.025
1373.32088	35113.925
1376.79254	31502.125
1380.26186	29980.025
1383.72883	29496.925
1387.19347	29105.625
1390.65578	28361.725
1394.11575	27843.125
1397.57339	27855.225
1401.0287	28249.425
1404.48168	28644.825
1407.93234	28767.225
1411.38068	28647.825
1414.82669	28233.825
1418.27039	27652.325
1421.71177	26876.025
1425.15083	26198.025
1428.58758	25896.125
1432.02203	26093.725
1435.45416	26598.625
1438.88399	27152.225
1442.31151	27429.925
1445.73673	27575.825
1449.15965	27718.225
1452.58027	27662.925
1455.9986	27313.525
1459.41463	27210.025
1462.82837	27419.225
1466.23982	27944.125
1469.64898	28581.925
1473.05586	29091.025
1476.46045	29421.925
1479.86276	29668.325
1483.26279	29795.825
1486.66054	29964.125
1490.05602	30282.125
1493.44922	30775.125
1496.84016	31471.025
1500.22882	32389.425
1503.61521	33979.325
1506.99934	35931.625
1510.38121	37655.425
1513.76081	38268.425
1517.13816	36966.725
1520.51324	34460.125
1523.88607	32027.225
1527.25665	30439.725
1530.62498	29624.225
1533.99105	29163.125
1537.35488	28734.125
1540.71647	28301.225
1544.07581	27808.125
1547.4329	27373.425
1550.78776	26977.825
1554.14038	26694.125
1557.49077	26521.725
1560.83892	26557.025
1564.18484	26783.625
1567.52853	27164.025
1570.86999	27636.625
1574.20922	28133.425
1577.54624	28306.025
1580.88103	27925.025
1584.2136	27389.325
1587.54395	27629.425
1590.87208	28811.625
1594.19801	30791.225
1597.52172	32842.325
1600.84321	33793.725
1604.16251	32765.925
1607.47959	30436.125
1610.79447	27727.025
1614.10715	25317.225
1617.41763	23625.725
1620.7259	22565.825
1624.03199	22125.625
1627.33587	22218.425
1630.63757	22796.425
1633.93707	24000.625
1637.23439	25930.325
1640.52951	28963.325
1643.82246	32768.925
1647.11321	36242.825
1650.40179	37480.925
1653.68819	35146.725
1656.97241	30503.625
1660.25446	25995.725
1663.53433	22895.425
1666.81203	21099.425
1670.08756	20013.125
1673.36092	19414.225
1676.63211	19040.525
1679.90115	18760.425
1683.16801	18536.325
1686.43272	18363.725
1689.69527	18223.825
1692.95567	18072.025
1696.2139	17924.825
1699.46999	17768.725
1702.72392	17713.125
1705.97571	17806.725
1709.22535	17836.525
1712.47284	17924.825
1715.71819	17947.925
1718.96139	17946.225
1722.20246	17903.725
1725.44139	17823.525
1728.67818	17737.225
1731.91284	17665.125
1735.14537	17579.825
1738.37576	17526.725
1741.60403	17445.925
1744.83017	17390.325
1748.05418	17358.025
1751.27607	17300.825
1754.49584	17214.325
1757.71349	17142.625
1760.92903	17110.525
1764.14244	17091.725
1767.35375	17094.025
1770.56294	17075.525
1773.77002	17082.025
1776.97499	17125.225
1780.17785	17128.825
1783.37861	17172.025
1786.57727	17133.925
1789.77382	17095.125
1792.96828	17138.425
1796.16064	17108.225
1799.3509	17054.125
1802.53907	17021.625
1805.72514	16986.725
1808.90913	16977.425
1812.09102	16978.425
1815.27083	16954.525
1818.44856	16964.425
1821.6242	16901.825
1824.79776	16888.125
1827.96924	16872.325
1831.13864	16895.525
1834.30597	16866.825
1837.47122	16856.325
1840.6344	16830.425
1843.7955	16791.025
1846.95454	16819.825
1850.11151	16800.825
1853.26642	16760.225
1856.41926	16720.325
1859.57004	16746.325
1862.71876	16766.125
1865.86542	16767.725
1869.01003	16765.225
1872.15258	16740.125
1875.29308	16715.025
1878.43152	16711.325
1881.56792	16752.325
1884.70227	16751.625
1887.83457	16730.325
1890.96482	16731.325
1894.09304	16663.825
1897.21921	16629.425
1900.34335	16655.325
1903.46544	16658.325
1906.58551	16641.825
1909.70353	16650.325
1912.81953	16617.525
1915.93349	16608.625
1919.04543	16555.125
1922.15534	16576.825
1925.26322	16543.425
1928.36908	16486.825
1931.47292	16486.325
1934.57473	16458.925
1937.67453	16402.925
1940.77232	16386.225
1943.86808	16346.525
1946.96184	16331.125
1950.05358	16256.625
1953.14331	16189.225
1956.23103	16134.125
1959.31675	16116.825
1962.40046	16097.925
1965.48217	16065.125
1968.56188	16028.125
1971.63959	15982.025
1974.7153	15967.425
1977.78901	15907.625
1980.86073	15858.425
1983.93046	15798.325
1986.99819	15761.625
1990.06394	15710.125
1993.1277	15695.425
1996.18947	15662.525
1999.24925	15595.825
2002.30706	15528.625
2005.36288	15533.225
2008.41672	15516.725
2011.46859	15465.225
2014.51848	15404.625
2017.56639	15368.125
2020.61233	15336.125
2023.6563	15310.825
2026.6983	15268.025
2029.73833	15252.325
2032.7764	15224.325
2035.8125	15196.825
2038.84664	15199.525
2041.87881	15158.425
2044.90903	15193.425
2047.93729	15123.625
2050.96359	15089.225
2053.98794	15060.025
2057.01034	15061.725
2060.03078	15075.625
2063.04927	15045.825
2066.06582	15003.825
2069.08042	14998.625
2072.09307	15033.725
2075.10378	15011.425
2078.11255	15004.025
2081.11938	15012.125
2084.12426	15004.425
2087.12722	14992.525
2090.12824	14989.625
2093.12732	14985.425
2096.12447	14994.525
2099.11969	14988.525
2102.11299	15022.025
2105.10435	15018.925
2108.09379	15002.525
2111.08131	15032.725
2114.0669	15078.725
2117.05057	15092.325
2120.03233	15100.825
2123.01216	15102.025
2125.99008	15141.825
2128.96609	15178.125
2131.94018	15168.525
2134.91236	15160.225
2137.88263	15162.625
2140.851	15184.325
2143.81746	15244.225
2146.78201	15185.325
2149.74466	15221.825
2152.7054	15192.025
2155.66425	15218.525
2158.6212	15234.225
2161.57625	15192.225
2164.52941	15197.525
2167.48067	15210.225
2170.43004	15193.825
2173.37752	15189.825
2176.32311	15209.825
2179.26681	15207.225
2182.20863	15202.725
2185.14856	15228.225
2188.08661	15220.825
2191.02278	15207.325
2193.95707	15206.325
2196.88948	15196.825
2199.82001	15226.825
2202.74867	15174.625
2205.67545	15172.925
2208.60037	15162.025
2211.52341	15142.125
2214.44458	15125.925
2217.36388	15097.525
2220.28132	15081.525
2223.1969	15043.525
2226.11061	14995.425
2229.02246	14976.125
2231.93245	14982.925
2234.84058	14958.225
2237.74686	14945.625
2240.65128	14926.125
2243.55385	14900.525
2246.45456	14884.825
2249.35343	14881.925
2252.25044	14888.125
2255.14561	14856.825
2258.03893	14850.425
2260.93041	14832.325
2263.82004	14811.725
2266.70783	14791.825
2269.59378	14730.325
2272.4779	14736.125
2275.36017	14710.225
2278.24061	14675.425
2281.11922	14643.625
2283.996	14632.425
2286.87094	14599.025
2289.74405	14583.925
2292.61534	14589.925
2295.4848	14577.125
2298.35243	14581.425
2301.21824	14533.325
2304.08223	14543.025
2306.94439	14538.325
2309.80474	14550.525
2312.66327	14541.425
2315.51999	14542.425
2318.37489	14520.625
2321.22797	14550.125
2324.07925	14536.225
2326.92871	14502.225
2329.77637	14473.825
2332.62222	14435.425
2335.46626	14450.325
2338.3085	14456.225
2341.14893	14459.525
2343.98756	14486.225
2346.8244	14467.225
2349.65943	14464.825
2352.49267	14422.525
2355.32411	14470.625
2358.15376	14453.325
2360.98161	14415.325
2363.80768	14415.525
2366.63195	14407.825
2369.45444	14382.125
2372.27514	14414.025
2375.09405	14395.725
2377.91118	14353.525
2380.72652	14286.125
2383.54009	14258.425
2386.35187	14248.225
2389.16188	14219.125
2391.97011	14227.725
2394.77657	14180.325
2397.58125	14182.825
2400.38416	14169.025
2403.18529	14150.425
2405.98466	14115.025
2408.78226	14107.325
2411.57809	14054.025
2414.37216	14052.525
2417.16446	14037.325
2419.955	14037.525
2422.74378	14036.525
2425.5308	13979.425
2428.31606	13972.525
2431.09956	13987.625
2433.88131	14000.325
2436.6613	14004.225
2439.43954	13995.425
2442.21603	14032.725
2444.99077	13996.525
2447.76377	13976.325
2450.53501	13969.125
2453.30451	13996.425
2456.07226	13960.425
2458.83827	13977.525
2461.60254	13964.425
2464.36507	13943.225
2467.12586	13907.225
2469.88492	13961.225
2472.64224	13923.925
2475.39782	13907.825
2478.15167	13940.325
2480.90379	13981.325
2483.65417	13988.625
2486.40283	13976.025
2489.14976	13996.325
2491.89497	14005.825
2494.63845	13970.325
2497.3802	13947.525
2500.12024	13970.825
2502.85855	13940.125
2505.59514	13952.025
2508.33002	13939.325
2511.06318	13909.125
2513.79462	13893.025
2516.52435	13861.525
2519.25237	13833.625
2521.97867	13801.225
2524.70327	13810.925
2527.42616	13775.125
2530.14734	13771.525
2532.86681	13783.525
2535.58458	13776.625
2538.30065	13773.625
2541.01501	13806.225
2543.72768	13752.525
2546.43864	13748.525
2549.14791	13703.325
2551.85548	13735.425
2554.56136	13684.225
2557.26554	13697.925
2559.96803	13649.325
2562.66883	13641.525
2565.36794	13645.925
2568.06536	13631.025
2570.7611	13574.525
2573.45514	13594.225
2576.14751	13582.125
2578.83819	13541.625
2581.52719	13552.625
2584.21451	13535.025
2586.90015	13531.825
2589.58411	13520.125
2592.2664	13508.825
2594.94701	13488.925
2597.62594	13481.025
2600.30321	13459.725
2602.9788	13482.925
2605.65273	13435.025
2608.32498	13463.925
2610.99557	13480.925
2613.66449	13454.725
2616.33175	13430.925
2618.99734	13422.525
2621.66128	13403.725
2624.32355	13386.525
2626.98416	13383.825
2629.64311	13354.625
2632.30041	13376.825
2634.95605	13336.125
2637.61004	13304.925
2640.26238	13310.625
2642.91306	13294.725
2645.56209	13295.625
2648.20948	13301.425
2650.85521	13263.525
2653.4993	13273.525
2656.14175	13287.025
2658.78255	13306.025
2661.42171	13310.025
2664.05923	13349.625
2666.6951	13355.225
2669.32934	13378.025
2671.96194	13338.625
2674.59291	13381.625
2677.22224	13336.125
2679.84993	13347.325
2682.476	13316.925
2685.10043	13339.225
2687.72324	13317.925
2690.34441	13337.925
2692.96396	13331.225
2695.58188	13348.325
2698.19818	13308.125
2700.81285	13318.225
2703.4259	13256.425
2706.03733	13210.825
2708.64714	13264.425
2711.25533	13321.725
2713.86191	13330.225
2716.46687	13357.225
2719.07021	13392.225
2721.67194	13430.625
2724.27206	13394.725
2726.87057	13389.225
2729.46747	13375.625
2732.06276	13399.125
2734.65644	13372.825
2737.24852	13374.125
2739.83899	13358.025
2742.42786	13388.625
2745.01513	13359.025
2747.60079	13333.525
2750.18486	13337.325
2752.76733	13325.125
2755.3482	13316.425
2757.92747	13273.125
2760.50515	13249.325
2763.08123	13246.525
2765.65573	13241.325
2768.22863	13223.225
2770.79994	13234.125
2773.36967	13243.425
2775.9378	13224.725
2778.50435	13198.425
2781.06932	13208.625
2783.6327	13207.725
2786.1945	13213.625
2788.75471	13223.325
2791.31335	13175.325
2793.87041	13161.325
2796.42589	13147.225
2798.97979	13082.625
2801.53212	13081.625
2804.08288	13078.825
2806.63206	13080.025
2809.17967	13072.525
2811.72571	13007.525
2814.27018	12982.225
2816.81308	12971.325
2819.35442	12951.525
2821.89419	12950.925
2824.43239	12942.625
2826.96904	12926.525
2829.50412	12927.625
2832.03763	12912.025
2834.56959	12876.625
2837.1	12858.625
2839.62884	12883.925
2842.15613	12872.125
2844.68186	12919.425
2847.20604	12890.425
2849.72867	12882.925
2852.24974	12857.425
2854.76927	12862.425
2857.28724	12783.325
2859.80367	12792.125
2862.31855	12786.725
2864.83189	12777.425
2867.34368	12794.625
2869.85393	12811.525
2872.36264	12821.925
2874.8698	12798.925
2877.37543	12793.025
2879.87952	12795.225
2882.38207	12769.425
2884.88308	12775.025
2887.38256	12806.025
2889.88051	12801.925
2892.37692	12769.125
2894.8718	12782.925
2897.36515	12782.825
2899.85698	12782.225
2902.34727	12804.025
2904.83604	12821.725
2907.32328	12840.025
2909.809	12849.925
2912.29319	12835.425
2914.77587	12854.825
2917.25702	12858.625
2919.73665	12858.725
2922.21476	12818.425
2924.69136	12791.625
2927.16644	12826.325
2929.64	12802.625
2932.11205	12786.925
2934.58258	12711.225
2937.05161	12738.925
2939.51912	12711.525
2941.98513	12702.525
2944.44962	12689.325
2946.91261	12669.325
2949.37409	12746.225
2951.83407	12702.525
2954.29254	12691.325
2956.74951	12729.825
2959.20498	12699.225
2961.65895	12680.025
2964.11142	12668.525
2966.56239	12660.625
2969.01186	12645.125
2971.45984	12624.025
2973.90632	12628.725
2976.35131	12602.725
2978.7948	12548.625
2981.23681	12557.825
2983.67732	12530.325
2986.11635	12492.025
2988.55388	12483.525
2990.98993	12438.525
2993.4245	12411.025
2995.85758	12436.425
2998.28917	12390.725
3000.71928	12368.525
3003.14791	12358.625
3005.57506	12332.725
3008.00073	12315.025
3010.42493	12293.425
3012.84764	12291.825
3015.26888	12267.625
3017.68865	12234.325
3020.10694	12228.925
3022.52376	12194.125
3024.9391	12190.825
3027.35298	12173.425
3029.76539	12169.925
3032.17632	12172.525
3034.5858	12135.125
3036.9938	12117.325
3039.40034	12093.625
3041.80542	12089.825
3044.20903	12082.725
3046.61118	12088.725
3049.01187	12056.825
3051.4111	12062.225
3053.80888	12029.425
3056.20519	12035.825
3058.60005	11997.625
3060.99345	12011.025
3063.3854	11942.125
3065.7759	11920.725
3068.16494	11917.525
3070.55254	11848.525
3072.93868	11817.625
3075.32338	11772.725
3077.70662	11777.825
3080.08842	11766.025
3082.46878	11749.325
3084.84769	11723.025
3087.22515	11700.025
3089.60118	11699.925
3091.97576	11703.725
3094.3489	11728.725
3096.72061	11751.125
3099.09087	11751.025
3101.4597	11698.625
3103.82709	11723.225
3106.19305	11684.525
3108.55757	11684.725
3110.92066	11653.325
3113.28232	11673.325
3115.64255	11618.925
3118.00134	11616.225
3120.35871	11608.625
3122.71466	11558.725
3125.06917	11551.425
3127.42226	11537.225
3129.77393	11526.425
