Data from AgNPs_FTO_APTES_UA_50uM_CRN_100uM_R6G_10uM_NaF_0.1M_Addition_RamanShift__25__15-45-05-049.txt Node

Date: Mon Feb 21 15:45:05 GMT 2022
User: TCL
Spectrometer: QEP01345
Trigger mode: 4
Integration Time (sec): 7.000000E0
Scans to average: 10
Electric dark correction enabled: true
Nonlinearity correction enabled: false
Boxcar width: 0
XAxis mode: Raman Shifts
Number of Pixels in Spectrum: 1044
>>>>>Begin Spectral Data<<<<<
46.04893	1.575
50.45542	-0.925
54.85868	-1.125
59.25871	-2.225
63.6555	54.275
68.04907	60.575
72.43941	62.675
76.82654	66.975
81.21044	67.275
85.59113	70.275
89.96862	73.675
94.34289	75.275
98.71396	78.075
103.08183	83.875
107.4465	87.775
111.80798	86.175
116.16626	84.075
120.52136	87.775
124.87327	96.175
129.222	92.275
133.56755	98.875
137.90993	109.975
142.24913	118.375
146.58517	135.575
150.91804	146.575
155.24774	175.775
159.57429	225.475
163.89768	284.175
168.21792	378.175
172.53501	514.175
176.84895	720.275
181.15975	1005.275
185.46741	1412.175
189.77193	1942.475
194.07331	2608.275
198.37157	3378.375
202.6667	4180.475
206.9587	4998.775
211.24758	5831.975
215.53334	6662.975
219.81599	7638.175
224.09553	8719.375
228.37195	9903.775
232.64527	11238.775
236.91549	12554.375
241.18261	13746.475
245.44663	14742.675
249.70755	15556.675
253.96539	16282.675
258.22014	16874.875
262.4718	17379.375
266.72039	17654.775
270.96589	17704.375
275.20832	17487.275
279.44768	17112.475
283.68397	16721.975
287.91719	16460.075
292.14735	16452.575
296.37445	16869.675
300.59849	17686.575
304.81948	18615.275
309.03742	19246.075
313.25231	19215.475
317.46415	18219.675
321.67296	16680.375
325.87872	15416.975
330.08145	14914.075
334.28114	14917.775
338.47781	15217.875
342.67145	15722.375
346.86207	16477.075
351.04966	17604.075
355.23424	18843.975
359.4158	19814.675
363.59435	20268.975
367.76989	20383.475
371.94243	20298.775
376.11196	20231.275
380.27849	20077.975
384.44203	19783.975
388.60257	19446.475
392.76012	19255.475
396.91468	19324.375
401.06626	19753.875
405.21485	20113.575
409.36047	19652.675
413.50311	18451.175
417.64277	17323.075
421.77947	16606.175
425.9132	16257.275
430.04396	16183.575
434.17176	16267.575
438.2966	16535.975
442.41849	16994.175
446.53742	17513.975
450.6534	18026.375
454.76644	18353.975
458.87653	18439.075
462.98368	18215.775
467.08789	17915.275
471.18916	17465.875
475.2875	17056.075
479.38291	16652.475
483.4754	16404.275
487.56496	16135.375
491.6516	15969.475
495.73531	15881.575
499.81612	15951.575
503.89401	16144.375
507.96899	16457.775
512.04106	16833.175
516.11023	17189.075
520.1765	17446.775
524.23987	17417.975
528.30034	17113.875
532.35792	16825.275
536.41261	16490.175
540.46441	16095.775
544.51333	15882.475
548.55936	15901.975
552.60252	16279.275
556.64279	16671.975
560.6802	16887.875
564.71473	17186.375
568.7464	17920.175
572.7752	18283.775
576.80114	17578.175
580.82422	16769.175
584.84444	16452.975
588.86181	16472.675
592.87633	16722.275
596.888	17014.675
600.89682	17695.875
604.9028	20018.875
608.90594	26507.475
612.90624	34966.975
616.90371	33137.975
620.89834	22551.175
624.89015	17712.075
628.87913	16857.875
632.86528	17034.675
636.84862	17306.575
640.82913	16985.075
644.80683	16069.275
648.78172	15443.575
652.75379	15472.275
656.72306	16120.475
660.68952	17011.275
664.65319	16808.375
668.61405	15875.775
672.57211	15499.475
676.52738	15480.275
680.47986	15486.175
684.42955	15315.775
688.37646	15152.775
692.32058	15141.275
696.26192	15221.375
700.20048	15452.575
704.13626	15567.175
708.06928	15486.075
711.99952	15296.075
715.927	15277.875
719.85171	15373.575
723.77365	15502.075
727.69284	15395.275
731.60928	15302.675
735.52295	15297.475
739.43388	15346.275
743.34206	15412.475
747.24749	15433.675
751.15017	15496.375
755.05012	15735.675
758.94733	16569.475
762.8418	18613.975
766.73354	22135.075
770.62254	25822.675
774.50882	27807.275
778.39237	26589.075
782.27321	22654.375
786.15132	18852.575
790.02671	16720.675
793.89938	15784.475
797.76935	15363.275
801.6366	15223.675
805.50115	15182.275
809.36299	15083.275
813.22213	15046.375
817.07857	14990.575
820.93231	14975.875
824.78336	14980.975
828.63172	15058.975
832.47738	15082.475
836.32036	15048.475
840.16066	14990.075
843.99827	14956.875
847.8332	14927.975
851.66546	14902.175
855.49504	14858.775
859.32195	14862.975
863.1462	14819.875
866.96777	14792.575
870.78668	14772.175
874.60293	14772.175
878.41652	14850.775
882.22745	14978.475
886.03573	15040.075
889.84136	14996.475
893.64433	14888.575
897.44466	14822.175
901.24235	14807.775
905.0374	14734.875
908.8298	14633.075
912.61957	14542.275
916.40671	14578.075
920.19121	14670.375
923.97308	14893.075
927.75233	15123.475
931.52895	15446.575
935.30295	15329.075
939.07433	14821.675
942.84309	14391.675
946.60924	14161.975
950.37278	14005.575
954.13371	13918.775
957.89203	13839.775
961.64774	13783.075
965.40086	13730.975
969.15137	13683.775
972.89929	13648.475
976.64461	13632.875
980.38733	13624.175
984.12747	13671.075
987.86502	13789.775
991.59999	13933.375
995.33237	14184.675
999.06217	14618.575
1002.78939	15093.375
1006.51404	15452.375
1010.23611	15726.375
1013.95561	15939.275
1017.67255	15906.575
1021.38692	15712.575
1025.09872	15511.175
1028.80796	15589.475
1032.51465	15927.575
1036.21877	16309.775
1039.92035	16409.775
1043.61937	16255.575
1047.31584	15967.475
1051.00976	15570.875
1054.70114	15303.875
1058.38998	15148.875
1062.07627	15136.475
1065.76003	15146.175
1069.44126	15131.475
1073.11995	15221.675
1076.79611	15453.675
1080.46974	15841.575
1084.14085	16396.175
1087.80943	16934.475
1091.47549	17072.675
1095.13903	16741.575
1098.80005	16102.775
1102.45857	15725.875
1106.11456	15645.575
1109.76805	15863.375
1113.41903	16418.575
1117.06751	17231.875
1120.71348	18204.475
1124.35696	19184.675
1127.99793	19846.875
1131.63641	19513.675
1135.2724	18342.875
1138.90589	17320.475
1142.5369	16662.175
1146.16542	16182.875
1149.79145	15909.575
1153.415	15807.875
1157.03607	15944.375
1160.65467	16283.375
1164.27079	16921.975
1167.88443	17863.375
1171.49561	19390.675
1175.10432	21888.875
1178.71056	25318.575
1182.31434	28252.375
1185.91565	29085.875
1189.51451	27940.875
1193.11091	25706.275
1196.70485	23377.675
1200.29634	21838.575
1203.88538	20762.175
1207.47197	19491.875
1211.05612	18302.975
1214.63782	17649.975
1218.21708	17419.975
1221.79391	17404.075
1225.36829	17496.975
1228.94024	17401.675
1232.50976	17193.675
1236.07685	17103.075
1239.6415	17078.275
1243.20374	17230.775
1246.76355	17444.175
1250.32093	17685.475
1253.8759	18170.075
1257.42845	18761.575
1260.97859	19430.975
1264.52631	20081.475
1268.07163	20751.675
1271.61453	21397.275
1275.15503	21955.975
1278.69312	22255.475
1282.22882	22522.975
1285.76211	23049.075
1289.29301	23759.475
1292.82151	24600.175
1296.34761	25575.775
1299.87133	27303.775
1303.39266	30232.875
1306.9116	34574.475
1310.42815	38931.575
1313.94233	40503.875
1317.45412	38187.375
1320.96354	34305.875
1324.47058	30650.875
1327.97525	27745.475
1331.47754	26108.275
1334.97747	25611.675
1338.47502	26013.775
1341.97022	27171.175
1345.46305	28903.575
1348.95352	31138.975
1352.44163	33924.375
1355.92738	38184.275
1359.41078	44889.775
1362.89183	50544.275
1366.37053	47684.875
1369.84688	38679.475
1373.32088	30965.775
1376.79254	26335.375
1380.26186	23899.275
1383.72883	22570.075
1387.19347	21625.175
1390.65578	20719.075
1394.11575	20132.175
1397.57339	19907.375
1401.0287	20009.675
1404.48168	20198.475
1407.93234	20445.975
1411.38068	20742.275
1414.82669	20911.975
1418.27039	20806.275
1421.71177	20446.375
1425.15083	20007.975
1428.58758	19817.675
1432.02203	19983.875
1435.45416	20187.075
1438.88399	20294.875
1442.31151	20284.875
1445.73673	20419.175
1449.15965	20638.075
1452.58027	20640.675
1455.9986	20429.175
1459.41463	20389.475
1462.82837	20637.975
1466.23982	21120.775
1469.64898	21698.175
1473.05586	22054.475
1476.46045	22206.175
1479.86276	22528.375
1483.26279	22959.375
1486.66054	23548.775
1490.05602	24449.675
1493.44922	25759.475
1496.84016	27789.375
1500.22882	31145.175
1503.61521	36081.475
1506.99934	41930.875
1510.38121	46562.775
1513.76081	47216.775
1517.13816	42927.975
1520.51324	36182.275
1523.88607	30310.075
1527.25665	26578.575
1530.62498	24531.375
1533.99105	23311.175
1537.35488	22537.475
1540.71647	22222.575
1544.07581	22199.475
1547.4329	22317.975
1550.78776	22422.775
1554.14038	22638.775
1557.49077	22948.375
1560.83892	23439.875
1564.18484	24196.675
1567.52853	25012.775
1570.86999	25682.675
1574.20922	26021.275
1577.54624	25661.975
1580.88103	24128.375
1584.2136	22277.675
1587.54395	21370.975
1590.87208	21729.975
1594.19801	23105.475
1597.52172	25028.075
1600.84321	25847.775
1604.16251	25009.875
1607.47959	23302.375
1610.79447	21416.675
1614.10715	19657.975
1617.41763	18277.975
1620.7259	17403.675
1624.03199	17047.475
1627.33587	17157.375
1630.63757	17673.975
1633.93707	18706.975
1637.23439	20295.875
1640.52951	22611.175
1643.82246	26017.875
1647.11321	29962.275
1650.40179	32458.775
1653.68819	30921.675
1656.97241	26105.975
1660.25446	21309.675
1663.53433	18067.675
1666.81203	16257.975
1670.08756	15237.375
1673.36092	14638.175
1676.63211	14236.175
1679.90115	13936.975
1683.16801	13729.275
1686.43272	13596.875
1689.69527	13450.875
1692.95567	13285.375
1696.2139	13143.675
1699.46999	13007.675
1702.72392	12971.475
1705.97571	13030.775
1709.22535	13109.275
1712.47284	13196.575
1715.71819	13228.975
1718.96139	13187.175
1722.20246	13158.375
1725.44139	13080.975
1728.67818	13011.075
1731.91284	12919.475
1735.14537	12824.475
1738.37576	12771.475
1741.60403	12746.275
1744.83017	12665.675
1748.05418	12640.375
1751.27607	12570.275
1754.49584	12520.775
1757.71349	12408.475
1760.92903	12339.675
1764.14244	12339.075
1767.35375	12306.875
1770.56294	12287.775
1773.77002	12243.675
1776.97499	12258.475
1780.17785	12282.575
1783.37861	12287.275
1786.57727	12302.075
1789.77382	12282.375
1792.96828	12269.175
1796.16064	12245.175
1799.3509	12258.975
1802.53907	12228.275
1805.72514	12201.475
1808.90913	12138.575
1812.09102	12125.975
1815.27083	12099.675
1818.44856	12086.175
1821.6242	12053.075
1824.79776	12042.475
1827.96924	12028.575
1831.13864	12004.875
1834.30597	12005.475
1837.47122	11958.275
1840.6344	11960.475
1843.7955	11978.075
1846.95454	11947.675
1850.11151	11929.375
1853.26642	11942.575
1856.41926	11930.575
1859.57004	11913.075
1862.71876	11922.075
1865.86542	11913.775
1869.01003	11891.375
1872.15258	11931.175
1875.29308	11923.175
1878.43152	11929.575
1881.56792	11906.975
1884.70227	11903.275
1887.83457	11888.975
1890.96482	11896.375
1894.09304	11887.975
1897.21921	11888.375
1900.34335	11872.575
1903.46544	11878.575
1906.58551	11828.675
1909.70353	11853.075
1912.81953	11864.475
1915.93349	11838.575
1919.04543	11843.875
1922.15534	11795.175
1925.26322	11771.875
1928.36908	11745.975
1931.47292	11714.875
1934.57473	11702.175
1937.67453	11646.775
1940.77232	11623.875
1943.86808	11574.775
1946.96184	11532.375
1950.05358	11483.975
1953.14331	11491.475
1956.23103	11462.975
1959.31675	11433.175
1962.40046	11424.775
1965.48217	11385.675
1968.56188	11363.675
1971.63959	11330.175
1974.7153	11295.075
1977.78901	11317.575
1980.86073	11253.675
1983.93046	11191.575
1986.99819	11119.975
1990.06394	11093.675
1993.1277	11054.975
1996.18947	10996.175
1999.24925	10980.475
2002.30706	10959.075
2005.36288	10917.175
2008.41672	10897.975
2011.46859	10875.375
2014.51848	10842.475
2017.56639	10818.375
2020.61233	10784.575
2023.6563	10768.575
2026.6983	10747.075
2029.73833	10715.275
2032.7764	10703.575
2035.8125	10670.875
2038.84664	10669.775
2041.87881	10662.375
2044.90903	10628.475
2047.93729	10623.875
2050.96359	10612.075
2053.98794	10601.775
2057.01034	10587.075
2060.03078	10586.275
2063.04927	10550.075
2066.06582	10563.475
2069.08042	10541.775
2072.09307	10487.175
2075.10378	10524.875
2078.11255	10481.775
2081.11938	10503.775
2084.12426	10488.375
2087.12722	10489.775
2090.12824	10472.875
2093.12732	10463.675
2096.12447	10473.275
2099.11969	10458.275
2102.11299	10442.775
2105.10435	10491.075
2108.09379	10451.575
2111.08131	10492.775
2114.0669	10485.975
2117.05057	10500.375
2120.03233	10522.375
2123.01216	10553.575
2125.99008	10542.375
2128.96609	10575.875
2131.94018	10570.375
2134.91236	10568.075
2137.88263	10581.275
2140.851	10565.175
2143.81746	10570.875
2146.78201	10563.875
2149.74466	10568.375
2152.7054	10577.175
2155.66425	10544.175
2158.6212	10538.775
2161.57625	10542.275
2164.52941	10540.275
2167.48067	10518.875
2170.43004	10511.275
2173.37752	10525.175
2176.32311	10513.575
2179.26681	10528.675
2182.20863	10524.875
2185.14856	10555.675
2188.08661	10551.675
2191.02278	10546.475
2193.95707	10511.175
2196.88948	10499.575
2199.82001	10511.175
2202.74867	10533.775
2205.67545	10541.675
2208.60037	10522.375
2211.52341	10508.375
2214.44458	10508.075
2217.36388	10480.675
2220.28132	10473.675
2223.1969	10440.075
2226.11061	10419.775
2229.02246	10401.975
2231.93245	10387.375
2234.84058	10369.675
2237.74686	10349.975
2240.65128	10335.875
2243.55385	10312.675
2246.45456	10311.075
2249.35343	10307.775
2252.25044	10308.975
2255.14561	10296.675
2258.03893	10313.975
2260.93041	10291.175
2263.82004	10283.375
2266.70783	10256.975
2269.59378	10214.275
2272.4779	10208.275
2275.36017	10174.975
2278.24061	10178.375
2281.11922	10158.275
2283.996	10124.575
2286.87094	10104.675
2289.74405	10080.675
2292.61534	10090.775
2295.4848	10035.775
2298.35243	10054.575
2301.21824	10073.975
2304.08223	10089.875
2306.94439	10054.375
2309.80474	10082.875
2312.66327	10098.275
2315.51999	10083.175
2318.37489	10082.375
2321.22797	10077.075
2324.07925	10072.075
2326.92871	10077.075
2329.77637	10052.575
2332.62222	10028.575
2335.46626	10065.775
2338.3085	10009.675
2341.14893	10042.275
2343.98756	10044.375
2346.8244	10053.575
2349.65943	10084.775
2352.49267	10099.175
2355.32411	10091.075
2358.15376	10087.175
2360.98161	10106.575
2363.80768	10100.175
2366.63195	10086.575
2369.45444	10083.275
2372.27514	10081.975
2375.09405	10052.275
2377.91118	10019.175
2380.72652	10028.175
2383.54009	9960.575
2386.35187	9918.575
2389.16188	9875.375
2391.97011	9874.475
2394.77657	9819.075
2397.58125	9807.875
2400.38416	9783.775
2403.18529	9760.275
2405.98466	9779.875
2408.78226	9744.775
2411.57809	9688.575
2414.37216	9680.175
2417.16446	9667.675
2419.955	9637.975
2422.74378	9645.875
2425.5308	9638.475
2428.31606	9660.475
2431.09956	9670.575
2433.88131	9655.375
2436.6613	9656.575
2439.43954	9653.475
2442.21603	9635.775
2444.99077	9659.475
2447.76377	9685.175
2450.53501	9697.575
2453.30451	9677.175
2456.07226	9653.975
2458.83827	9620.675
2461.60254	9662.575
2464.36507	9639.775
2467.12586	9654.975
2469.88492	9657.775
2472.64224	9638.175
2475.39782	9655.675
2478.15167	9687.075
2480.90379	9713.775
2483.65417	9736.975
2486.40283	9734.275
2489.14976	9753.875
2491.89497	9764.075
2494.63845	9763.675
2497.3802	9735.475
2500.12024	9755.675
2502.85855	9743.675
2505.59514	9719.475
2508.33002	9663.075
2511.06318	9629.575
2513.79462	9593.675
2516.52435	9559.075
2519.25237	9541.675
2521.97867	9533.975
2524.70327	9503.675
2527.42616	9485.075
2530.14734	9472.075
2532.86681	9478.375
2535.58458	9477.575
2538.30065	9478.175
2541.01501	9496.275
2543.72768	9469.875
2546.43864	9453.075
2549.14791	9442.675
2551.85548	9468.975
2554.56136	9449.375
2557.26554	9451.775
2559.96803	9436.375
2562.66883	9430.775
2565.36794	9423.075
2568.06536	9413.575
2570.7611	9384.775
2573.45514	9388.475
2576.14751	9394.475
2578.83819	9377.375
2581.52719	9354.975
2584.21451	9332.975
2586.90015	9310.375
2589.58411	9321.675
2592.2664	9308.475
2594.94701	9284.375
2597.62594	9299.475
2600.30321	9288.875
2602.9788	9313.775
2605.65273	9326.275
2608.32498	9304.075
2610.99557	9315.375
2613.66449	9312.775
2616.33175	9334.775
2618.99734	9329.275
2621.66128	9302.475
2624.32355	9324.375
2626.98416	9312.775
2629.64311	9302.475
2632.30041	9291.875
2634.95605	9247.575
2637.61004	9248.775
2640.26238	9236.575
2642.91306	9214.075
2645.56209	9204.475
2648.20948	9198.275
2650.85521	9183.575
2653.4993	9172.875
2656.14175	9166.075
2658.78255	9186.775
2661.42171	9195.875
2664.05923	9200.675
2666.6951	9233.475
2669.32934	9250.875
2671.96194	9257.275
2674.59291	9258.975
2677.22224	9251.775
2679.84993	9248.975
2682.476	9234.575
2685.10043	9222.075
2687.72324	9206.775
2690.34441	9242.075
2692.96396	9235.875
2695.58188	9239.475
2698.19818	9205.175
2700.81285	9192.175
2703.4259	9164.075
2706.03733	9122.675
2708.64714	9141.875
2711.25533	9184.375
2713.86191	9174.675
2716.46687	9205.975
2719.07021	9203.475
2721.67194	9238.875
2724.27206	9221.075
2726.87057	9226.675
2729.46747	9211.975
2732.06276	9240.875
2734.65644	9204.275
2737.24852	9195.375
2739.83899	9200.475
2742.42786	9169.475
2745.01513	9161.875
2747.60079	9174.975
2750.18486	9156.775
2752.76733	9168.375
2755.3482	9152.975
2757.92747	9131.075
2760.50515	9127.975
2763.08123	9122.575
2765.65573	9123.075
2768.22863	9100.975
2770.79994	9087.075
2773.36967	9086.375
2775.9378	9072.275
2778.50435	9070.075
2781.06932	9085.175
2783.6327	9100.975
2786.1945	9081.475
2788.75471	9073.475
2791.31335	9066.575
2793.87041	9054.075
2796.42589	9029.875
2798.97979	9031.475
2801.53212	9031.175
2804.08288	9022.275
2806.63206	9007.875
2809.17967	9015.775
2811.72571	9008.275
2814.27018	9029.475
2816.81308	9007.075
2819.35442	9034.275
2821.89419	9040.975
2824.43239	9050.875
2826.96904	9032.175
2829.50412	9049.475
2832.03763	9005.075
2834.56959	9023.275
2837.1	9036.575
2839.62884	9036.475
2842.15613	9007.575
2844.68186	9014.075
2847.20604	9023.175
2849.72867	9070.475
2852.24974	9033.675
2854.76927	9033.375
2857.28724	9019.475
2859.80367	9034.175
2862.31855	9027.775
2864.83189	9021.175
2867.34368	9023.475
2869.85393	9066.175
2872.36264	9057.975
2874.8698	9069.275
2877.37543	9070.975
2879.87952	9063.275
2882.38207	9057.675
2884.88308	9037.475
2887.38256	9033.775
2889.88051	9037.275
2892.37692	9022.075
2894.8718	9015.375
2897.36515	9057.475
2899.85698	9047.075
2902.34727	9062.875
2904.83604	9056.975
2907.32328	9084.775
2909.809	9058.875
2912.29319	9098.075
2914.77587	9095.675
2917.25702	9075.475
2919.73665	9052.475
2922.21476	9073.775
2924.69136	9042.175
2927.16644	9010.975
2929.64	9008.575
2932.11205	8995.275
2934.58258	8963.375
2937.05161	8958.175
2939.51912	8967.275
2941.98513	8949.975
2944.44962	8917.675
2946.91261	8886.175
2949.37409	8917.775
2951.83407	8905.475
2954.29254	8920.175
2956.74951	8888.675
2959.20498	8857.675
2961.65895	8837.875
2964.11142	8855.075
2966.56239	8797.675
2969.01186	8793.275
2971.45984	8740.675
2973.90632	8762.675
2976.35131	8740.375
2978.7948	8715.675
2981.23681	8705.775
2983.67732	8686.175
2986.11635	8656.975
2988.55388	8616.275
2990.98993	8645.975
2993.4245	8616.875
2995.85758	8632.875
2998.28917	8591.275
3000.71928	8602.475
3003.14791	8577.075
3005.57506	8575.575
3008.00073	8551.375
3010.42493	8541.975
3012.84764	8545.775
3015.26888	8539.875
3017.68865	8527.375
3020.10694	8519.775
3022.52376	8491.975
3024.9391	8485.175
3027.35298	8457.175
3029.76539	8429.175
3032.17632	8411.275
3034.5858	8392.375
3036.9938	8383.175
3039.40034	8372.675
3041.80542	8376.375
3044.20903	8335.975
3046.61118	8358.975
3049.01187	8347.175
3051.4111	8319.275
3053.80888	8332.075
3056.20519	8279.075
3058.60005	8258.175
3060.99345	8239.075
3063.3854	8217.575
3065.7759	8198.575
3068.16494	8187.875
3070.55254	8151.075
3072.93868	8123.375
3075.32338	8100.275
3077.70662	8091.775
3080.08842	8064.675
3082.46878	8047.875
3084.84769	8039.775
3087.22515	8015.775
3089.60118	8040.775
3091.97576	8034.975
3094.3489	8039.675
3096.72061	8035.175
3099.09087	8058.075
3101.4597	8044.175
3103.82709	8007.875
3106.19305	8016.875
3108.55757	8038.275
3110.92066	8005.875
3113.28232	8005.075
3115.64255	7983.575
3118.00134	7975.375
3120.35871	7948.975
3122.71466	7954.575
3125.06917	7943.975
3127.42226	7956.675
3129.77393	7953.875
3132.12417	7909.375
3134.47299	7931.075
3136.82039	7911.275
3139.16636	7914.075
3141.51092	7920.275
3143.85406	7888.375
3146.19579	7896.675
3148.53609	7890.475
3150.87499	7927.275
3153.21246	7905.575
3155.54853	7959.975
3157.88318	7934.275
3160.21642	7947.975
3162.54826	7946.575
