Data from AgNPs_FTO_APTES_UA_50uM_CRN_500uM_R6G_10uM_NaF_0.1M_Addition_RamanShift__18__17-02-53-541.txt Node

Date: Mon Feb 21 17:02:53 GMT 2022
User: TCL
Spectrometer: QEP01345
Trigger mode: 4
Integration Time (sec): 7.000000E0
Scans to average: 10
Electric dark correction enabled: true
Nonlinearity correction enabled: false
Boxcar width: 0
XAxis mode: Raman Shifts
Number of Pixels in Spectrum: 1044
>>>>>Begin Spectral Data<<<<<
46.04893	-0.8875
50.45542	-0.2875
54.85868	-1.3875
59.25871	-1.7875
63.6555	50.2125
68.04907	58.2125
72.43941	61.0125
76.82654	63.7125
81.21044	70.6125
85.59113	72.5125
89.96862	73.2125
94.34289	73.8125
98.71396	79.6125
103.08183	78.6125
107.4465	83.2125
111.80798	87.6125
116.16626	85.1125
120.52136	85.4125
124.87327	89.2125
129.222	94.9125
133.56755	95.6125
137.90993	102.1125
142.24913	105.2125
146.58517	111.2125
150.91804	124.8125
155.24774	148.6125
159.57429	180.8125
163.89768	227.5125
168.21792	295.4125
172.53501	392.6125
176.84895	550.8125
181.15975	772.6125
185.46741	1079.2125
189.77193	1491.4125
194.07331	1994.0125
198.37157	2569.4125
202.6667	3178.7125
206.9587	3797.7125
211.24758	4399.3125
215.53334	5020.8125
219.81599	5649.4125
224.09553	6354.0125
228.37195	7115.7125
232.64527	7973.8125
236.91549	8840.4125
241.18261	9727.5125
245.44663	10578.5125
249.70755	11245.8125
253.96539	11862.4125
258.22014	12377.6125
262.4718	12752.5125
266.72039	13035.6125
270.96589	13185.0125
275.20832	13146.7125
279.44768	12989.3125
283.68397	12798.3125
287.91719	12631.2125
292.14735	12511.6125
296.37445	12499.8125
300.59849	12555.3125
304.81948	12676.5125
309.03742	12727.3125
313.25231	12636.5125
317.46415	12420.7125
321.67296	12143.2125
325.87872	11857.1125
330.08145	11729.0125
334.28114	11731.0125
338.47781	11870.5125
342.67145	11995.6125
346.86207	12245.8125
351.04966	12527.5125
355.23424	12807.1125
359.4158	13071.4125
363.59435	13243.5125
367.76989	13400.3125
371.94243	13495.1125
376.11196	13559.1125
380.27849	13603.0125
384.44203	13675.9125
388.60257	13706.2125
392.76012	13777.6125
396.91468	13870.0125
401.06626	14019.9125
405.21485	14115.0125
409.36047	14023.5125
413.50311	13775.7125
417.64277	13568.5125
421.77947	13424.5125
425.9132	13428.8125
430.04396	13466.3125
434.17176	13544.3125
438.2966	13686.8125
442.41849	13902.8125
446.53742	14195.9125
450.6534	14469.5125
454.76644	14676.1125
458.87653	14745.7125
462.98368	14713.2125
467.08789	14559.0125
471.18916	14428.1125
475.2875	14205.5125
479.38291	14058.4125
483.4754	13938.6125
487.56496	13842.4125
491.6516	13733.0125
495.73531	13696.1125
499.81612	13663.4125
503.89401	13747.8125
507.96899	13825.2125
512.04106	13867.6125
516.11023	13906.6125
520.1765	13957.8125
524.23987	13924.2125
528.30034	13889.5125
532.35792	13834.3125
536.41261	13771.5125
540.46441	13632.8125
544.51333	13566.5125
548.55936	13602.5125
552.60252	13739.2125
556.64279	13916.8125
560.6802	14009.6125
564.71473	14046.1125
568.7464	14142.6125
572.7752	14315.0125
576.80114	14317.6125
580.82422	14307.4125
584.84444	14414.8125
588.86181	14632.4125
592.87633	14887.9125
596.888	15078.6125
600.89682	15060.1125
604.9028	15480.3125
608.90594	17037.6125
612.90624	18901.5125
616.90371	18147.9125
620.89834	15330.9125
624.89015	14029.5125
628.87913	13864.8125
632.86528	13942.1125
636.84862	14027.9125
640.82913	13943.2125
644.80683	13704.2125
648.78172	13464.3125
652.75379	13454.1125
656.72306	13593.6125
660.68952	13823.1125
664.65319	13780.3125
668.61405	13618.7125
672.57211	13632.5125
676.52738	13774.3125
680.47986	13830.8125
684.42955	13786.9125
688.37646	13619.2125
692.32058	13560.3125
696.26192	13532.6125
700.20048	13574.8125
704.13626	13626.2125
708.06928	13532.2125
711.99952	13456.3125
715.927	13440.7125
719.85171	13459.9125
723.77365	13469.2125
727.69284	13393.3125
731.60928	13371.3125
735.52295	13362.9125
739.43388	13351.6125
743.34206	13366.4125
747.24749	13356.4125
751.15017	13378.7125
755.05012	13464.3125
758.94733	13682.4125
762.8418	14248.8125
766.73354	15243.0125
770.62254	16380.3125
774.50882	16927.6125
778.39237	16471.1125
782.27321	15303.3125
786.15132	14233.1125
790.02671	13573.7125
793.89938	13250.9125
797.76935	13103.0125
801.6366	13058.0125
805.50115	13019.7125
809.36299	12941.1125
813.22213	12866.5125
817.07857	12857.3125
820.93231	12816.9125
824.78336	12771.3125
828.63172	12743.5125
832.47738	12739.1125
836.32036	12745.7125
840.16066	12724.6125
843.99827	12685.7125
847.8332	12703.0125
851.66546	12700.7125
855.49504	12703.2125
859.32195	12741.4125
863.1462	12752.0125
866.96777	12746.7125
870.78668	12732.8125
874.60293	12747.1125
878.41652	12742.9125
882.22745	12771.4125
886.03573	12784.6125
889.84136	12800.8125
893.64433	12724.3125
897.44466	12678.2125
901.24235	12604.7125
905.0374	12525.1125
908.8298	12489.2125
912.61957	12381.9125
916.40671	12447.7125
920.19121	12525.6125
923.97308	12562.2125
927.75233	12611.5125
931.52895	12593.9125
935.30295	12555.1125
939.07433	12380.3125
942.84309	12245.3125
946.60924	12152.3125
950.37278	12089.9125
954.13371	12060.2125
957.89203	12000.9125
961.64774	11970.0125
965.40086	11899.0125
969.15137	11859.5125
972.89929	11817.8125
976.64461	11807.8125
980.38733	11792.1125
984.12747	11797.7125
987.86502	11852.9125
991.59999	11925.0125
995.33237	12005.7125
999.06217	12167.1125
1002.78939	12348.5125
1006.51404	12465.1125
1010.23611	12572.3125
1013.95561	12670.6125
1017.67255	12711.5125
1021.38692	12629.0125
1025.09872	12480.9125
1028.80796	12425.3125
1032.51465	12482.1125
1036.21877	12587.6125
1039.92035	12584.0125
1043.61937	12581.9125
1047.31584	12509.0125
1051.00976	12436.0125
1054.70114	12424.1125
1058.38998	12411.8125
1062.07627	12412.0125
1065.76003	12441.8125
1069.44126	12450.9125
1073.11995	12487.0125
1076.79611	12549.7125
1080.46974	12630.9125
1084.14085	12706.3125
1087.80943	12820.9125
1091.47549	12896.9125
1095.13903	12878.4125
1098.80005	12741.9125
1102.45857	12584.8125
1106.11456	12479.4125
1109.76805	12536.2125
1113.41903	12638.0125
1117.06751	12778.1125
1120.71348	12954.3125
1124.35696	13168.6125
1127.99793	13378.9125
1131.63641	13508.3125
1135.2724	13338.2125
1138.90589	13114.1125
1142.5369	12952.4125
1146.16542	12828.5125
1149.79145	12745.6125
1153.415	12714.0125
1157.03607	12766.0125
1160.65467	12930.7125
1164.27079	13218.9125
1167.88443	13680.5125
1171.49561	14273.6125
1175.10432	15155.6125
1178.71056	16291.4125
1182.31434	17290.5125
1185.91565	17731.2125
1189.51451	17586.9125
1193.11091	16974.2125
1196.70485	16304.3125
1200.29634	15655.3125
1203.88538	15157.8125
1207.47197	14628.5125
1211.05612	14159.0125
1214.63782	13843.1125
1218.21708	13735.5125
1221.79391	13736.0125
1225.36829	13731.1125
1228.94024	13703.0125
1232.50976	13559.1125
1236.07685	13443.2125
1239.6415	13364.0125
1243.20374	13343.8125
1246.76355	13407.1125
1250.32093	13525.3125
1253.8759	13683.0125
1257.42845	13907.7125
1260.97859	14102.7125
1264.52631	14378.5125
1268.07163	14655.3125
1271.61453	14936.6125
1275.15503	15200.1125
1278.69312	15442.1125
1282.22882	15614.0125
1285.76211	15815.8125
1289.29301	16129.4125
1292.82151	16564.2125
1296.34761	17104.6125
1299.87133	17775.2125
1303.39266	18622.0125
1306.9116	19808.2125
1310.42815	21051.9125
1313.94233	21843.9125
1317.45412	21710.6125
1320.96354	20884.8125
1324.47058	19949.6125
1327.97525	19101.0125
1331.47754	18456.7125
1334.97747	18175.5125
1338.47502	18142.1125
1341.97022	18299.2125
1345.46305	18627.8125
1348.95352	19163.8125
1352.44163	19897.7125
1355.92738	20977.5125
1359.41078	22391.4125
1362.89183	23627.7125
1366.37053	23266.8125
1369.84688	20931.6125
1373.32088	18358.7125
1376.79254	16669.5125
1380.26186	15879.5125
1383.72883	15501.4125
1387.19347	15301.2125
1390.65578	15006.1125
1394.11575	14806.2125
1397.57339	14758.0125
1401.0287	14848.4125
1404.48168	14903.6125
1407.93234	14930.6125
1411.38068	14822.4125
1414.82669	14697.0125
1418.27039	14452.7125
1421.71177	14169.7125
1425.15083	13922.0125
1428.58758	13723.8125
1432.02203	13740.9125
1435.45416	13911.0125
1438.88399	14043.8125
1442.31151	14182.5125
1445.73673	14289.9125
1449.15965	14348.8125
1452.58027	14403.6125
1455.9986	14395.8125
1459.41463	14460.8125
1462.82837	14627.4125
1466.23982	14821.6125
1469.64898	15012.8125
1473.05586	15171.6125
1476.46045	15283.9125
1479.86276	15302.0125
1483.26279	15313.4125
1486.66054	15328.5125
1490.05602	15408.3125
1493.44922	15626.1125
1496.84016	16040.5125
1500.22882	16701.8125
1503.61521	17712.3125
1506.99934	18922.8125
1510.38121	19974.5125
1513.76081	20225.0125
1517.13816	19491.8125
1520.51324	18159.7125
1523.88607	16813.5125
1527.25665	16015.3125
1530.62498	15562.9125
1533.99105	15334.0125
1537.35488	15160.3125
1540.71647	14947.5125
1544.07581	14813.2125
1547.4329	14660.9125
1550.78776	14552.3125
1554.14038	14491.7125
1557.49077	14508.4125
1560.83892	14580.7125
1564.18484	14706.3125
1567.52853	14849.4125
1570.86999	15018.5125
1574.20922	15202.5125
1577.54624	15270.7125
1580.88103	14941.7125
1584.2136	14538.3125
1587.54395	14359.6125
1590.87208	14557.4125
1594.19801	15113.2125
1597.52172	15885.6125
1600.84321	16314.1125
1604.16251	16051.1125
1607.47959	15382.3125
1610.79447	14545.9125
1614.10715	13713.7125
1617.41763	12964.8125
1620.7259	12476.9125
1624.03199	12181.5125
1627.33587	12114.0125
1630.63757	12281.2125
1633.93707	12669.8125
1637.23439	13387.2125
1640.52951	14477.3125
1643.82246	15853.2125
1647.11321	17175.7125
1650.40179	17775.3125
1653.68819	17127.4125
1656.97241	15473.5125
1660.25446	13685.0125
1663.53433	12430.3125
1666.81203	11658.7125
1670.08756	11186.2125
1673.36092	10848.5125
1676.63211	10673.5125
1679.90115	10509.5125
1683.16801	10404.4125
1686.43272	10279.0125
1689.69527	10186.5125
1692.95567	10131.8125
1696.2139	10064.1125
1699.46999	10013.5125
1702.72392	9970.4125
1705.97571	9978.8125
1709.22535	9928.1125
1712.47284	9918.3125
1715.71819	9898.0125
1718.96139	9868.4125
1722.20246	9835.5125
1725.44139	9796.5125
1728.67818	9740.5125
1731.91284	9701.3125
1735.14537	9665.7125
1738.37576	9611.5125
1741.60403	9594.0125
1744.83017	9558.8125
1748.05418	9583.0125
1751.27607	9574.7125
1754.49584	9570.6125
1757.71349	9580.9125
1760.92903	9540.3125
1764.14244	9517.9125
1767.35375	9473.0125
1770.56294	9424.4125
1773.77002	9405.9125
1776.97499	9327.1125
1780.17785	9305.0125
1783.37861	9275.7125
1786.57727	9250.7125
1789.77382	9202.5125
1792.96828	9195.1125
1796.16064	9174.1125
1799.3509	9146.5125
1802.53907	9129.3125
1805.72514	9083.6125
1808.90913	9052.8125
1812.09102	9040.2125
1815.27083	8996.9125
1818.44856	9004.7125
1821.6242	8977.8125
1824.79776	8953.5125
1827.96924	8933.8125
1831.13864	8936.7125
1834.30597	8932.1125
1837.47122	8902.3125
1840.6344	8891.6125
1843.7955	8894.1125
1846.95454	8888.6125
1850.11151	8874.0125
1853.26642	8869.6125
1856.41926	8845.8125
1859.57004	8832.4125
1862.71876	8822.6125
1865.86542	8799.2125
1869.01003	8807.5125
1872.15258	8806.3125
1875.29308	8799.9125
1878.43152	8781.0125
1881.56792	8794.7125
1884.70227	8764.7125
1887.83457	8760.0125
1890.96482	8748.3125
1894.09304	8727.4125
1897.21921	8710.5125
1900.34335	8697.3125
1903.46544	8711.6125
1906.58551	8678.9125
1909.70353	8685.5125
1912.81953	8665.1125
1915.93349	8635.3125
1919.04543	8617.1125
1922.15534	8592.0125
1925.26322	8571.7125
1928.36908	8545.5125
1931.47292	8514.4125
1934.57473	8512.0125
1937.67453	8497.9125
1940.77232	8491.7125
1943.86808	8465.4125
1946.96184	8447.8125
1950.05358	8433.5125
1953.14331	8381.8125
1956.23103	8355.7125
1959.31675	8313.5125
1962.40046	8313.9125
1965.48217	8293.0125
1968.56188	8254.7125
1971.63959	8212.2125
1974.7153	8197.5125
1977.78901	8184.8125
1980.86073	8168.2125
1983.93046	8159.3125
1986.99819	8109.7125
1990.06394	8087.7125
1993.1277	8071.2125
1996.18947	8029.6125
1999.24925	7980.7125
2002.30706	7981.2125
2005.36288	7952.7125
2008.41672	7908.1125
2011.46859	7919.7125
2014.51848	7891.0125
2017.56639	7873.5125
2020.61233	7847.8125
2023.6563	7824.2125
2026.6983	7797.0125
2029.73833	7759.3125
2032.7764	7766.4125
2035.8125	7726.3125
2038.84664	7713.9125
2041.87881	7692.4125
2044.90903	7681.1125
2047.93729	7651.2125
2050.96359	7653.4125
2053.98794	7637.2125
2057.01034	7617.0125
2060.03078	7644.3125
2063.04927	7624.6125
2066.06582	7627.9125
2069.08042	7608.5125
2072.09307	7610.6125
2075.10378	7592.5125
2078.11255	7580.6125
2081.11938	7580.4125
2084.12426	7563.5125
2087.12722	7568.6125
2090.12824	7566.6125
2093.12732	7566.2125
2096.12447	7560.8125
2099.11969	7574.3125
2102.11299	7555.2125
2105.10435	7549.4125
2108.09379	7553.2125
2111.08131	7551.9125
2114.0669	7561.1125
2117.05057	7551.8125
2120.03233	7563.3125
2123.01216	7556.1125
2125.99008	7589.5125
2128.96609	7576.8125
2131.94018	7591.1125
2134.91236	7580.4125
2137.88263	7560.9125
2140.851	7570.0125
2143.81746	7578.2125
2146.78201	7581.1125
2149.74466	7593.2125
2152.7054	7589.8125
2155.66425	7600.9125
2158.6212	7576.2125
2161.57625	7570.4125
2164.52941	7566.2125
2167.48067	7544.7125
2170.43004	7544.8125
2173.37752	7543.1125
2176.32311	7553.6125
2179.26681	7541.1125
2182.20863	7555.9125
2185.14856	7548.4125
2188.08661	7546.4125
2191.02278	7546.6125
2193.95707	7547.4125
2196.88948	7508.4125
2199.82001	7544.3125
2202.74867	7530.4125
2205.67545	7474.5125
2208.60037	7491.0125
2211.52341	7479.4125
2214.44458	7458.1125
2217.36388	7420.2125
2220.28132	7431.7125
2223.1969	7423.4125
2226.11061	7398.7125
2229.02246	7399.4125
2231.93245	7362.2125
2234.84058	7351.0125
2237.74686	7333.0125
2240.65128	7328.8125
2243.55385	7319.0125
2246.45456	7300.6125
2249.35343	7290.8125
2252.25044	7289.3125
2255.14561	7279.2125
2258.03893	7253.1125
2260.93041	7264.6125
2263.82004	7242.2125
2266.70783	7211.8125
2269.59378	7207.5125
2272.4779	7192.5125
2275.36017	7169.0125
2278.24061	7122.3125
2281.11922	7118.2125
2283.996	7113.9125
2286.87094	7106.4125
2289.74405	7072.3125
2292.61534	7076.4125
2295.4848	7079.0125
2298.35243	7068.6125
2301.21824	7061.5125
2304.08223	7048.9125
2306.94439	7053.4125
2309.80474	7048.3125
2312.66327	7048.7125
2315.51999	7030.3125
2318.37489	7037.2125
2321.22797	7015.8125
2324.07925	6986.1125
2326.92871	6969.6125
2329.77637	6987.1125
2332.62222	6959.7125
2335.46626	6964.7125
2338.3085	6942.1125
2341.14893	6927.3125
2343.98756	6920.9125
2346.8244	6925.3125
2349.65943	6916.7125
2352.49267	6920.0125
2355.32411	6927.2125
2358.15376	6924.4125
2360.98161	6911.8125
2363.80768	6900.4125
2366.63195	6902.3125
2369.45444	6905.0125
2372.27514	6873.2125
2375.09405	6874.5125
2377.91118	6876.2125
2380.72652	6835.0125
2383.54009	6836.8125
2386.35187	6808.7125
2389.16188	6778.4125
2391.97011	6764.6125
2394.77657	6750.1125
2397.58125	6748.6125
2400.38416	6732.0125
2403.18529	6713.5125
2405.98466	6706.4125
2408.78226	6705.1125
2411.57809	6661.7125
2414.37216	6668.3125
2417.16446	6671.2125
2419.955	6655.0125
2422.74378	6648.9125
2425.5308	6644.9125
2428.31606	6658.1125
2431.09956	6623.7125
2433.88131	6620.0125
2436.6613	6626.3125
2439.43954	6603.4125
2442.21603	6609.9125
2444.99077	6604.4125
2447.76377	6604.4125
2450.53501	6569.3125
2453.30451	6568.8125
2456.07226	6566.9125
2458.83827	6564.4125
2461.60254	6561.1125
2464.36507	6558.5125
2467.12586	6563.7125
2469.88492	6542.9125
2472.64224	6547.9125
2475.39782	6546.0125
2478.15167	6547.7125
2480.90379	6544.4125
2483.65417	6557.8125
2486.40283	6547.5125
2489.14976	6535.5125
2491.89497	6542.4125
2494.63845	6553.4125
2497.3802	6522.0125
2500.12024	6540.8125
2502.85855	6505.7125
2505.59514	6502.9125
2508.33002	6496.7125
2511.06318	6480.6125
2513.79462	6481.4125
2516.52435	6442.8125
2519.25237	6434.9125
2521.97867	6411.8125
2524.70327	6412.3125
2527.42616	6410.4125
2530.14734	6407.3125
2532.86681	6400.6125
2535.58458	6420.1125
2538.30065	6390.2125
2541.01501	6395.6125
2543.72768	6378.6125
2546.43864	6370.3125
2549.14791	6345.0125
2551.85548	6330.2125
2554.56136	6315.1125
2557.26554	6329.6125
2559.96803	6293.9125
2562.66883	6296.2125
2565.36794	6280.7125
2568.06536	6259.3125
2570.7611	6261.9125
2573.45514	6244.6125
2576.14751	6242.9125
2578.83819	6241.9125
2581.52719	6235.3125
2584.21451	6227.9125
2586.90015	6213.8125
2589.58411	6210.1125
2592.2664	6204.6125
2594.94701	6167.8125
2597.62594	6159.1125
2600.30321	6153.0125
2602.9788	6131.6125
2605.65273	6122.8125
2608.32498	6138.6125
2610.99557	6143.3125
2613.66449	6122.8125
2616.33175	6101.8125
2618.99734	6119.4125
2621.66128	6094.7125
2624.32355	6095.4125
2626.98416	6074.6125
2629.64311	6064.6125
2632.30041	6070.2125
2634.95605	6068.4125
2637.61004	6042.5125
2640.26238	6056.8125
2642.91306	6047.7125
2645.56209	6043.1125
2648.20948	6039.3125
2650.85521	6014.4125
2653.4993	6022.2125
2656.14175	6021.6125
2658.78255	6014.9125
2661.42171	6019.0125
2664.05923	6041.9125
2666.6951	6027.0125
2669.32934	6028.7125
2671.96194	6030.3125
2674.59291	5998.0125
2677.22224	6002.6125
2679.84993	6018.9125
2682.476	6012.7125
2685.10043	6012.5125
2687.72324	6002.0125
2690.34441	6010.1125
2692.96396	6008.2125
2695.58188	6010.6125
2698.19818	5992.7125
2700.81285	6004.2125
2703.4259	5988.8125
2706.03733	5989.6125
2708.64714	6007.0125
2711.25533	5994.6125
2713.86191	5985.6125
2716.46687	5991.7125
2719.07021	5981.4125
2721.67194	5989.7125
2724.27206	5982.5125
2726.87057	5996.2125
2729.46747	5988.3125
2732.06276	5982.3125
2734.65644	5992.3125
2737.24852	5992.9125
2739.83899	5979.4125
2742.42786	5977.8125
2745.01513	5964.3125
2747.60079	5950.4125
2750.18486	5945.4125
2752.76733	5935.8125
2755.3482	5924.7125
2757.92747	5927.3125
2760.50515	5914.2125
2763.08123	5912.2125
2765.65573	5919.9125
2768.22863	5896.7125
2770.79994	5889.2125
2773.36967	5883.2125
2775.9378	5859.2125
2778.50435	5885.5125
2781.06932	5886.2125
2783.6327	5875.1125
2786.1945	5867.2125
2788.75471	5872.6125
2791.31335	5846.5125
2793.87041	5830.0125
2796.42589	5828.2125
2798.97979	5805.9125
2801.53212	5810.8125
2804.08288	5787.1125
2806.63206	5780.6125
2809.17967	5767.0125
2811.72571	5757.1125
2814.27018	5759.0125
2816.81308	5752.4125
2819.35442	5753.8125
2821.89419	5724.2125
2824.43239	5737.9125
2826.96904	5737.7125
2829.50412	5720.8125
2832.03763	5710.2125
2834.56959	5725.3125
2837.1	5708.7125
2839.62884	5713.0125
2842.15613	5713.0125
2844.68186	5734.8125
2847.20604	5741.5125
2849.72867	5745.3125
2852.24974	5740.0125
2854.76927	5730.7125
2857.28724	5717.6125
2859.80367	5723.5125
2862.31855	5717.6125
2864.83189	5710.6125
2867.34368	5696.0125
2869.85393	5686.7125
2872.36264	5701.0125
2874.8698	5700.5125
2877.37543	5677.4125
2879.87952	5676.4125
2882.38207	5678.8125
2884.88308	5686.5125
2887.38256	5692.1125
2889.88051	5684.7125
2892.37692	5699.7125
2894.8718	5688.4125
2897.36515	5705.6125
2899.85698	5718.1125
2902.34727	5719.7125
2904.83604	5715.1125
2907.32328	5756.3125
2909.809	5754.1125
2912.29319	5744.6125
2914.77587	5742.1125
2917.25702	5757.7125
2919.73665	5764.3125
2922.21476	5779.5125
2924.69136	5757.8125
2927.16644	5765.4125
2929.64	5767.4125
2932.11205	5723.8125
2934.58258	5733.3125
2937.05161	5734.1125
2939.51912	5747.7125
2941.98513	5723.1125
2944.44962	5733.7125
2946.91261	5712.2125
2949.37409	5703.9125
2951.83407	5696.0125
2954.29254	5696.9125
2956.74951	5684.5125
2959.20498	5670.8125
2961.65895	5652.0125
2964.11142	5650.6125
2966.56239	5617.8125
2969.01186	5617.7125
2971.45984	5606.2125
2973.90632	5589.4125
2976.35131	5568.8125
2978.7948	5556.2125
2981.23681	5531.6125
2983.67732	5530.5125
2986.11635	5517.0125
2988.55388	5507.0125
2990.98993	5502.0125
2993.4245	5474.7125
2995.85758	5485.6125
2998.28917	5464.5125
3000.71928	5448.2125
3003.14791	5439.7125
3005.57506	5452.4125
3008.00073	5426.2125
3010.42493	5418.1125
3012.84764	5416.1125
3015.26888	5408.4125
3017.68865	5395.4125
3020.10694	5388.2125
3022.52376	5377.0125
3024.9391	5358.9125
3027.35298	5361.1125
3029.76539	5341.0125
3032.17632	5317.7125
3034.5858	5317.0125
3036.9938	5323.7125
3039.40034	5319.1125
3041.80542	5301.2125
3044.20903	5295.1125
3046.61118	5307.1125
3049.01187	5291.4125
3051.4111	5282.6125
3053.80888	5258.0125
3056.20519	5265.7125
3058.60005	5264.8125
3060.99345	5266.3125
3063.3854	5225.0125
3065.7759	5219.0125
3068.16494	5216.4125
3070.55254	5205.4125
3072.93868	5196.7125
3075.32338	5188.2125
3077.70662	5184.3125
3080.08842	5155.0125
