Data from AgNPs_FTO_APTES_UA_50uM_CRN_1000uM_R6G_10uM_NaF_0.1M_Addition_RamanShift__4__17-30-53-576.txt Node

Date: Mon Feb 21 17:30:53 GMT 2022
User: TCL
Spectrometer: QEP01345
Trigger mode: 4
Integration Time (sec): 7.000000E0
Scans to average: 10
Electric dark correction enabled: true
Nonlinearity correction enabled: false
Boxcar width: 0
XAxis mode: Raman Shifts
Number of Pixels in Spectrum: 1044
>>>>>Begin Spectral Data<<<<<
46.04893	-1.025
50.45542	-1.625
54.85868	1.175
59.25871	-2.125
63.6555	49.975
68.04907	54.075
72.43941	60.375
76.82654	61.375
81.21044	63.275
85.59113	66.775
89.96862	69.475
94.34289	70.775
98.71396	76.875
103.08183	77.075
107.4465	78.475
111.80798	79.775
116.16626	80.175
120.52136	82.675
124.87327	85.575
129.222	84.575
133.56755	90.275
137.90993	93.675
142.24913	98.175
146.58517	108.375
150.91804	125.275
155.24774	145.875
159.57429	167.875
163.89768	214.575
168.21792	279.275
172.53501	376.175
176.84895	525.275
181.15975	733.475
185.46741	1028.075
189.77193	1418.475
194.07331	1909.475
198.37157	2453.475
202.6667	3045.475
206.9587	3639.175
211.24758	4219.075
215.53334	4791.375
219.81599	5395.175
224.09553	6072.875
228.37195	6819.875
232.64527	7627.875
236.91549	8472.075
241.18261	9330.175
245.44663	10075.775
249.70755	10753.875
253.96539	11308.575
258.22014	11770.375
262.4718	12165.575
266.72039	12425.875
270.96589	12506.575
275.20832	12502.875
279.44768	12395.075
283.68397	12187.575
287.91719	12031.575
292.14735	11931.475
296.37445	11922.875
300.59849	11976.675
304.81948	12052.375
309.03742	12121.175
313.25231	12109.675
317.46415	11953.475
321.67296	11688.675
325.87872	11497.575
330.08145	11365.775
334.28114	11356.575
338.47781	11412.575
342.67145	11568.275
346.86207	11752.975
351.04966	12032.375
355.23424	12250.575
359.4158	12507.675
363.59435	12670.575
367.76989	12722.475
371.94243	12787.175
376.11196	12846.375
380.27849	12878.875
384.44203	12939.275
388.60257	13035.575
392.76012	13103.175
396.91468	13204.775
401.06626	13354.775
405.21485	13446.375
409.36047	13352.075
413.50311	13137.675
417.64277	12932.375
421.77947	12842.675
425.9132	12878.775
430.04396	12914.975
434.17176	12992.475
438.2966	13133.275
442.41849	13300.475
446.53742	13617.975
450.6534	13935.775
454.76644	14133.775
458.87653	14200.975
462.98368	14083.775
467.08789	13961.675
471.18916	13812.375
475.2875	13633.275
479.38291	13471.375
483.4754	13349.175
487.56496	13241.475
491.6516	13127.875
495.73531	13026.275
499.81612	13031.575
503.89401	13101.275
507.96899	13173.375
512.04106	13185.175
516.11023	13220.275
520.1765	13226.275
524.23987	13202.575
528.30034	13165.575
532.35792	13111.075
536.41261	13016.075
540.46441	12895.675
544.51333	12862.875
548.55936	12884.775
552.60252	13027.175
556.64279	13306.675
560.6802	13471.975
564.71473	13497.375
568.7464	13580.375
572.7752	13805.775
576.80114	13876.575
580.82422	13923.075
584.84444	14157.075
588.86181	14535.375
592.87633	15026.375
596.888	15196.475
600.89682	14960.375
604.9028	15055.275
608.90594	16236.575
612.90624	17831.175
616.90371	17162.975
620.89834	14625.075
624.89015	13338.475
628.87913	13164.575
632.86528	13305.275
636.84862	13418.775
640.82913	13385.275
644.80683	13103.975
648.78172	12897.775
652.75379	12863.475
656.72306	12986.275
660.68952	13143.475
664.65319	13068.475
668.61405	12893.675
672.57211	12823.175
676.52738	12896.175
680.47986	12977.275
684.42955	12984.175
688.37646	12860.075
692.32058	12783.875
696.26192	12841.475
700.20048	12909.275
704.13626	12956.475
708.06928	12977.075
711.99952	12913.075
715.927	12888.075
719.85171	12897.775
723.77365	12941.275
727.69284	12830.075
731.60928	12742.375
735.52295	12736.975
739.43388	12753.275
743.34206	12767.175
747.24749	12798.375
751.15017	12843.175
755.05012	12948.975
758.94733	13211.475
762.8418	13784.375
766.73354	14745.675
770.62254	15709.975
774.50882	16110.375
778.39237	15668.775
782.27321	14582.875
786.15132	13648.975
790.02671	13060.575
793.89938	12787.875
797.76935	12654.575
801.6366	12606.175
805.50115	12565.075
809.36299	12517.975
813.22213	12454.975
817.07857	12449.575
820.93231	12406.175
824.78336	12370.575
828.63172	12314.575
832.47738	12305.675
836.32036	12266.275
840.16066	12276.775
843.99827	12254.575
847.8332	12238.975
851.66546	12254.775
855.49504	12259.075
859.32195	12291.175
863.1462	12287.875
866.96777	12273.975
870.78668	12286.575
874.60293	12288.375
878.41652	12312.875
882.22745	12350.975
886.03573	12410.075
889.84136	12423.775
893.64433	12352.975
897.44466	12306.975
901.24235	12262.975
905.0374	12206.875
908.8298	12161.675
912.61957	12112.275
916.40671	12163.675
920.19121	12220.775
923.97308	12276.775
927.75233	12308.975
931.52895	12308.175
935.30295	12179.775
939.07433	11992.475
942.84309	11884.175
946.60924	11798.975
950.37278	11727.675
954.13371	11707.175
957.89203	11694.475
961.64774	11658.975
965.40086	11649.275
969.15137	11599.375
972.89929	11591.275
976.64461	11527.075
980.38733	11517.375
984.12747	11537.175
987.86502	11561.275
991.59999	11585.975
995.33237	11646.475
999.06217	11824.075
1002.78939	11916.475
1006.51404	12076.375
1010.23611	12234.975
1013.95561	12342.375
1017.67255	12400.075
1021.38692	12355.475
1025.09872	12204.775
1028.80796	12062.175
1032.51465	12002.375
1036.21877	11929.575
1039.92035	11975.575
1043.61937	12032.475
1047.31584	12071.775
1051.00976	12092.175
1054.70114	12079.275
1058.38998	12115.075
1062.07627	12139.575
1065.76003	12219.075
1069.44126	12287.775
1073.11995	12373.275
1076.79611	12486.075
1080.46974	12556.875
1084.14085	12650.875
1087.80943	12736.975
1091.47549	12807.775
1095.13903	12807.575
1098.80005	12684.875
1102.45857	12506.975
1106.11456	12370.875
1109.76805	12345.175
1113.41903	12426.775
1117.06751	12550.775
1120.71348	12732.275
1124.35696	13006.675
1127.99793	13261.875
1131.63641	13337.275
1135.2724	13216.175
1138.90589	13017.075
1142.5369	12863.175
1146.16542	12803.075
1149.79145	12755.275
1153.415	12792.975
1157.03607	12816.475
1160.65467	12995.775
1164.27079	13294.975
1167.88443	13738.475
1171.49561	14371.975
1175.10432	15232.175
1178.71056	16304.275
1182.31434	17331.375
1185.91565	17763.975
1189.51451	17660.775
1193.11091	17187.275
1196.70485	16621.975
1200.29634	16018.275
1203.88538	15520.875
1207.47197	15001.975
1211.05612	14552.675
1214.63782	14258.875
1218.21708	14047.475
1221.79391	13973.375
1225.36829	13936.475
1228.94024	13927.875
1232.50976	13862.175
1236.07685	13723.075
1239.6415	13651.775
1243.20374	13611.775
1246.76355	13627.575
1250.32093	13705.775
1253.8759	13863.375
1257.42845	14099.575
1260.97859	14351.875
1264.52631	14611.375
1268.07163	14870.075
1271.61453	15147.575
1275.15503	15345.275
1278.69312	15543.875
1282.22882	15764.175
1285.76211	16071.775
1289.29301	16555.575
1292.82151	17056.075
1296.34761	17714.475
1299.87133	18502.775
1303.39266	19358.675
1306.9116	20406.175
1310.42815	21419.775
1313.94233	22168.575
1317.45412	22004.375
1320.96354	21289.375
1324.47058	20449.475
1327.97525	19654.375
1331.47754	19049.775
1334.97747	18756.875
1338.47502	18653.175
1341.97022	18778.275
1345.46305	19065.475
1348.95352	19527.675
1352.44163	20177.975
1355.92738	21146.675
1359.41078	22488.575
1362.89183	23697.275
1366.37053	23402.575
1369.84688	21265.175
1373.32088	18748.375
1376.79254	17059.575
1380.26186	16342.775
1383.72883	16095.475
1387.19347	15867.675
1390.65578	15589.675
1394.11575	15385.975
1397.57339	15349.275
1401.0287	15408.875
1404.48168	15402.075
1407.93234	15328.575
1411.38068	15196.475
1414.82669	14964.775
1418.27039	14730.575
1421.71177	14445.575
1425.15083	14179.375
1428.58758	13983.575
1432.02203	13998.675
1435.45416	14165.075
1438.88399	14324.975
1442.31151	14432.475
1445.73673	14519.275
1449.15965	14587.175
1452.58027	14582.675
1455.9986	14532.575
1459.41463	14570.975
1462.82837	14733.075
1466.23982	14943.675
1469.64898	15155.375
1473.05586	15330.475
1476.46045	15417.575
1479.86276	15445.975
1483.26279	15470.475
1486.66054	15558.175
1490.05602	15764.475
1493.44922	16040.375
1496.84016	16503.175
1500.22882	17299.475
1503.61521	18326.975
1506.99934	19423.575
1510.38121	20325.075
1513.76081	20413.175
1517.13816	19647.475
1520.51324	18424.975
1523.88607	17263.275
1527.25665	16610.175
1530.62498	16315.875
1533.99105	16107.775
1537.35488	15934.375
1540.71647	15640.175
1544.07581	15378.275
1547.4329	15115.975
1550.78776	14901.175
1554.14038	14731.375
1557.49077	14715.775
1560.83892	14680.575
1564.18484	14814.875
1567.52853	15003.575
1570.86999	15208.675
1574.20922	15448.275
1577.54624	15567.875
1580.88103	15355.875
1584.2136	15000.575
1587.54395	14845.075
1590.87208	15095.775
1594.19801	15641.575
1597.52172	16361.175
1600.84321	16770.875
1604.16251	16470.575
1607.47959	15746.675
1610.79447	14830.475
1614.10715	13934.775
1617.41763	13204.675
1620.7259	12660.475
1624.03199	12365.775
1627.33587	12337.175
1630.63757	12489.775
1633.93707	12962.375
1637.23439	13764.575
1640.52951	15037.675
1643.82246	16665.175
1647.11321	18178.675
1650.40179	18782.975
1653.68819	17931.875
1656.97241	16012.675
1660.25446	14097.175
1663.53433	12717.375
1666.81203	11882.375
1670.08756	11365.775
1673.36092	11060.375
1676.63211	10838.475
1679.90115	10685.175
1683.16801	10562.375
1686.43272	10426.375
1689.69527	10349.175
1692.95567	10232.975
1696.2139	10195.675
1699.46999	10099.475
1702.72392	10050.475
1705.97571	10032.975
1709.22535	10010.075
1712.47284	9971.975
1715.71819	9955.375
1718.96139	9956.575
1722.20246	9927.275
1725.44139	9862.475
1728.67818	9834.275
1731.91284	9770.875
1735.14537	9725.575
1738.37576	9677.475
1741.60403	9651.675
1744.83017	9619.775
1748.05418	9600.375
1751.27607	9610.875
1754.49584	9614.475
1757.71349	9606.775
1760.92903	9567.175
1764.14244	9550.275
1767.35375	9521.375
1770.56294	9519.975
1773.77002	9441.175
1776.97499	9431.775
1780.17785	9423.675
1783.37861	9400.075
1786.57727	9375.375
1789.77382	9335.575
1792.96828	9298.775
1796.16064	9317.175
1799.3509	9268.575
1802.53907	9238.075
1805.72514	9226.475
1808.90913	9187.875
1812.09102	9165.175
1815.27083	9156.475
1818.44856	9138.675
1821.6242	9109.075
1824.79776	9085.375
1827.96924	9084.875
1831.13864	9059.775
1834.30597	9079.275
1837.47122	9064.875
1840.6344	9042.575
1843.7955	9039.875
1846.95454	9012.975
1850.11151	8998.975
1853.26642	8987.175
1856.41926	8967.375
1859.57004	9001.475
1862.71876	8960.675
1865.86542	8956.675
1869.01003	8954.875
1872.15258	8947.675
1875.29308	8930.675
1878.43152	8912.575
1881.56792	8905.075
1884.70227	8889.775
1887.83457	8905.775
1890.96482	8874.075
1894.09304	8860.175
1897.21921	8855.375
1900.34335	8835.575
1903.46544	8839.275
1906.58551	8824.775
1909.70353	8808.875
1912.81953	8798.375
1915.93349	8757.875
1919.04543	8734.675
1922.15534	8728.575
1925.26322	8716.375
1928.36908	8683.275
1931.47292	8664.975
1934.57473	8624.075
1937.67453	8609.175
1940.77232	8608.175
1943.86808	8597.275
1946.96184	8561.275
1950.05358	8531.475
1953.14331	8506.575
1956.23103	8495.775
1959.31675	8446.975
1962.40046	8434.375
1965.48217	8400.775
1968.56188	8401.675
1971.63959	8338.875
1974.7153	8338.275
1977.78901	8307.775
1980.86073	8300.975
1983.93046	8260.075
1986.99819	8223.275
1990.06394	8192.275
1993.1277	8176.875
1996.18947	8168.175
1999.24925	8159.175
2002.30706	8104.875
2005.36288	8076.975
2008.41672	8043.075
2011.46859	8026.775
2014.51848	8003.675
2017.56639	7963.675
2020.61233	7957.775
2023.6563	7954.475
2026.6983	7904.175
2029.73833	7889.175
2032.7764	7861.475
2035.8125	7859.075
2038.84664	7847.275
2041.87881	7800.475
2044.90903	7792.775
2047.93729	7761.275
2050.96359	7768.075
2053.98794	7761.375
2057.01034	7753.875
2060.03078	7753.075
2063.04927	7721.475
2066.06582	7726.775
2069.08042	7714.275
2072.09307	7703.475
2075.10378	7700.175
2078.11255	7687.375
2081.11938	7686.175
2084.12426	7698.675
2087.12722	7672.275
2090.12824	7676.175
2093.12732	7683.175
2096.12447	7664.075
2099.11969	7681.175
2102.11299	7676.975
2105.10435	7661.475
2108.09379	7673.575
2111.08131	7675.875
2114.0669	7677.175
2117.05057	7670.375
2120.03233	7675.875
2123.01216	7697.475
2125.99008	7666.475
2128.96609	7703.475
2131.94018	7726.775
2134.91236	7707.275
2137.88263	7704.775
2140.851	7699.375
2143.81746	7724.375
2146.78201	7701.575
2149.74466	7683.775
2152.7054	7709.075
2155.66425	7700.675
2158.6212	7693.475
2161.57625	7680.075
2164.52941	7662.275
2167.48067	7667.075
2170.43004	7656.375
2173.37752	7653.875
2176.32311	7668.075
2179.26681	7653.975
2182.20863	7655.975
2185.14856	7662.075
2188.08661	7636.275
2191.02278	7634.975
2193.95707	7661.075
2196.88948	7610.475
2199.82001	7635.975
2202.74867	7624.275
2205.67545	7590.875
2208.60037	7589.475
2211.52341	7579.875
2214.44458	7556.475
2217.36388	7518.075
2220.28132	7521.675
2223.1969	7498.575
2226.11061	7480.975
2229.02246	7465.575
2231.93245	7480.175
2234.84058	7442.275
2237.74686	7437.375
2240.65128	7417.775
2243.55385	7421.575
2246.45456	7412.575
2249.35343	7370.175
2252.25044	7375.275
2255.14561	7372.475
2258.03893	7369.375
2260.93041	7353.875
2263.82004	7332.575
2266.70783	7312.475
2269.59378	7304.575
2272.4779	7297.175
2275.36017	7263.775
2278.24061	7246.475
2281.11922	7199.575
2283.996	7208.475
2286.87094	7186.175
2289.74405	7174.775
2292.61534	7164.075
2295.4848	7164.775
2298.35243	7158.275
2301.21824	7146.475
2304.08223	7130.475
2306.94439	7128.675
2309.80474	7117.975
2312.66327	7122.175
2315.51999	7104.075
2318.37489	7110.275
2321.22797	7093.775
2324.07925	7076.775
2326.92871	7062.875
2329.77637	7040.375
2332.62222	7057.175
2335.46626	7016.675
2338.3085	7018.575
2341.14893	7015.975
2343.98756	7005.775
2346.8244	6986.275
2349.65943	6979.375
2352.49267	6979.675
2355.32411	6976.075
2358.15376	6974.675
2360.98161	6984.175
2363.80768	6978.875
2366.63195	6954.875
2369.45444	6960.175
2372.27514	6957.575
2375.09405	6948.775
2377.91118	6944.575
2380.72652	6923.375
2383.54009	6894.275
2386.35187	6884.975
2389.16188	6862.575
2391.97011	6839.775
2394.77657	6831.675
2397.58125	6813.375
2400.38416	6791.775
2403.18529	6802.075
2405.98466	6785.475
2408.78226	6755.675
2411.57809	6759.575
2414.37216	6725.175
2417.16446	6737.775
2419.955	6731.575
2422.74378	6738.175
2425.5308	6719.775
2428.31606	6715.975
2431.09956	6703.375
2433.88131	6684.975
2436.6613	6685.675
2439.43954	6678.175
2442.21603	6675.775
2444.99077	6660.275
2447.76377	6676.375
2450.53501	6657.075
2453.30451	6650.775
2456.07226	6644.575
2458.83827	6642.875
2461.60254	6624.375
2464.36507	6618.975
2467.12586	6612.575
2469.88492	6609.775
2472.64224	6603.375
2475.39782	6601.675
2478.15167	6607.975
2480.90379	6586.875
2483.65417	6613.975
2486.40283	6598.975
2489.14976	6587.675
2491.89497	6606.375
2494.63845	6591.075
2497.3802	6578.175
2500.12024	6584.575
2502.85855	6581.675
2505.59514	6566.275
2508.33002	6559.875
2511.06318	6533.975
2513.79462	6527.575
2516.52435	6509.875
2519.25237	6500.975
2521.97867	6494.475
2524.70327	6478.475
2527.42616	6463.275
2530.14734	6471.975
2532.86681	6465.175
2535.58458	6449.575
2538.30065	6462.775
2541.01501	6440.575
2543.72768	6420.475
2546.43864	6412.675
2549.14791	6395.175
2551.85548	6394.175
2554.56136	6381.175
2557.26554	6362.875
2559.96803	6350.575
2562.66883	6345.775
2565.36794	6349.975
2568.06536	6325.875
2570.7611	6320.775
2573.45514	6302.775
2576.14751	6295.975
2578.83819	6290.375
2581.52719	6286.575
2584.21451	6275.975
2586.90015	6247.275
2589.58411	6250.075
2592.2664	6252.575
2594.94701	6222.375
2597.62594	6221.375
2600.30321	6192.975
2602.9788	6204.075
2605.65273	6177.975
2608.32498	6177.775
2610.99557	6181.975
2613.66449	6172.575
2616.33175	6159.575
2618.99734	6144.975
2621.66128	6143.075
2624.32355	6143.575
2626.98416	6123.675
2629.64311	6118.575
2632.30041	6095.775
2634.95605	6086.175
2637.61004	6095.775
2640.26238	6067.575
2642.91306	6094.875
2645.56209	6076.175
2648.20948	6090.875
2650.85521	6067.875
2653.4993	6062.975
2656.14175	6058.075
2658.78255	6055.075
2661.42171	6065.775
2664.05923	6078.775
2666.6951	6068.375
2669.32934	6066.575
2671.96194	6054.475
2674.59291	6055.575
2677.22224	6047.375
2679.84993	6063.675
2682.476	6036.675
2685.10043	6061.075
2687.72324	6050.275
2690.34441	6037.875
2692.96396	6032.475
2695.58188	6048.575
2698.19818	6037.475
2700.81285	6039.975
2703.4259	6018.475
2706.03733	6020.075
2708.64714	6036.375
2711.25533	6032.975
2713.86191	6017.675
2716.46687	6046.075
2719.07021	6051.575
2721.67194	6063.975
2724.27206	6050.675
2726.87057	6047.775
2729.46747	6034.275
2732.06276	6047.175
2734.65644	6031.475
2737.24852	6025.275
2739.83899	6027.175
2742.42786	6029.175
2745.01513	6003.575
2747.60079	6016.775
2750.18486	5997.775
2752.76733	5990.675
2755.3482	5975.375
2757.92747	5961.075
2760.50515	5954.575
2763.08123	5968.575
2765.65573	5938.175
2768.22863	5927.475
2770.79994	5922.875
2773.36967	5930.475
2775.9378	5926.175
2778.50435	5897.975
2781.06932	5902.775
2783.6327	5915.575
2786.1945	5886.975
2788.75471	5885.475
2791.31335	5890.475
2793.87041	5834.275
2796.42589	5865.475
2798.97979	5842.875
2801.53212	5812.775
2804.08288	5834.975
2806.63206	5795.375
2809.17967	5791.275
2811.72571	5777.675
2814.27018	5774.975
2816.81308	5765.675
2819.35442	5746.775
2821.89419	5738.775
2824.43239	5733.875
2826.96904	5744.475
2829.50412	5747.675
2832.03763	5729.775
2834.56959	5747.775
2837.1	5737.775
2839.62884	5734.075
2842.15613	5745.175
2844.68186	5743.675
2847.20604	5780.575
2849.72867	5769.175
2852.24974	5779.675
2854.76927	5769.075
2857.28724	5765.275
2859.80367	5762.275
2862.31855	5763.075
2864.83189	5740.275
2867.34368	5746.275
2869.85393	5738.075
2872.36264	5707.475
2874.8698	5720.475
2877.37543	5714.675
2879.87952	5711.375
2882.38207	5711.875
2884.88308	5688.375
2887.38256	5718.675
2889.88051	5718.575
2892.37692	5725.475
2894.8718	5707.575
2897.36515	5726.975
2899.85698	5713.175
2902.34727	5738.175
2904.83604	5751.575
2907.32328	5729.875
2909.809	5742.475
2912.29319	5744.075
2914.77587	5760.275
2917.25702	5745.575
2919.73665	5776.875
2922.21476	5772.275
2924.69136	5778.275
2927.16644	5760.875
2929.64	5759.975
2932.11205	5744.675
2934.58258	5728.275
2937.05161	5743.475
2939.51912	5725.275
2941.98513	5741.075
2944.44962	5703.075
2946.91261	5682.275
2949.37409	5683.775
2951.83407	5680.675
2954.29254	5643.775
2956.74951	5667.475
2959.20498	5658.675
2961.65895	5638.675
2964.11142	5635.775
2966.56239	5611.575
2969.01186	5591.775
2971.45984	5578.475
2973.90632	5552.275
2976.35131	5541.675
2978.7948	5541.575
2981.23681	5531.475
2983.67732	5520.575
2986.11635	5498.175
2988.55388	5478.075
2990.98993	5501.075
2993.4245	5463.875
2995.85758	5448.875
2998.28917	5443.575
3000.71928	5416.075
3003.14791	5423.875
3005.57506	5428.775
3008.00073	5400.375
3010.42493	5376.975
3012.84764	5384.575
3015.26888	5369.775
3017.68865	5375.275
3020.10694	5374.375
3022.52376	5332.375
3024.9391	5341.175
3027.35298	5326.275
3029.76539	5315.375
3032.17632	5306.375
3034.5858	5289.975
3036.9938	5298.575
3039.40034	5296.675
3041.80542	5267.475
3044.20903	5275.875
3046.61118	5272.175
3049.01187	5262.875
3051.4111	5254.875
3053.80888	5269.075
3056.20519	5250.575
3058.60005	5223.975
3060.99345	5234.275
3063.3854	5220.775
3065.7759	5192.175
3068.16494	5195.475
3070.55254	5179.275
3072.93868	5170.175
3075.32338	5141.275
3077.70662	5136.675
3080.08842	5127.675
3082.46878	5114.775
3084.84769	5129.275
3087.22515	5128.175
3089.60118	5122.975
3091.97576	5109.375
3094.3489	5124.575
3096.72061	5121.775
3099.09087	5119.775
3101.4597	5109.575
3103.82709	5139.075
3106.19305	5114.875
3108.55757	5122.275
3110.92066	5118.875
3113.28232	5081.075
3115.64255	5096.075
3118.00134	5088.375
3120.35871	5069.375
3122.71466	5065.175
3125.06917	5051.375
3127.42226	5034.575
3129.77393	5046.475
3132.12417	5048.975
3134.47299	5060.075
3136.82039	5066.175
3139.16636	5070.775
3141.51092	5048.575
3143.85406	5059.075
3146.19579	5080.575
3148.53609	5072.075
3150.87499	5079.175
3153.21246	5079.375
3155.54853	5084.075
3157.88318	5077.275
3160.21642	5090.975
3162.54826	5085.875
3164.87868	5091.375
3167.2077	5080.975
3169.5353	5112.375
3171.86151	5099.675
3174.18631	5088.275
3176.5097	5090.575
3178.83169	5074.075
3181.15228	5076.875
3183.47147	5067.475
3185.78926	5063.075
3188.10565	5058.475
3190.42065	5045.975
