Data from AgNPs_FTO_APTES_UA_50uM_CRN_1000uM_R6G_10uM_NaF_0.1M_Addition_RamanShift__7__17-34-23-581.txt Node

Date: Mon Feb 21 17:34:23 GMT 2022
User: TCL
Spectrometer: QEP01345
Trigger mode: 4
Integration Time (sec): 7.000000E0
Scans to average: 10
Electric dark correction enabled: true
Nonlinearity correction enabled: false
Boxcar width: 0
XAxis mode: Raman Shifts
Number of Pixels in Spectrum: 1044
>>>>>Begin Spectral Data<<<<<
46.04893	0.2125
50.45542	-1.3875
54.85868	-0.8875
59.25871	-2.0875
63.6555	48.2125
68.04907	53.0125
72.43941	58.4125
76.82654	57.7125
81.21044	60.8125
85.59113	64.6125
89.96862	65.4125
94.34289	67.3125
98.71396	71.9125
103.08183	79.6125
107.4465	76.3125
111.80798	78.2125
116.16626	76.2125
120.52136	78.9125
124.87327	82.3125
129.222	87.3125
133.56755	87.5125
137.90993	89.2125
142.24913	91.3125
146.58517	104.3125
150.91804	114.3125
155.24774	133.8125
159.57429	159.6125
163.89768	199.3125
168.21792	262.7125
172.53501	354.5125
176.84895	491.7125
181.15975	683.3125
185.46741	956.6125
189.77193	1317.6125
194.07331	1780.0125
198.37157	2292.6125
202.6667	2838.1125
206.9587	3383.0125
211.24758	3933.3125
215.53334	4477.2125
219.81599	5041.1125
224.09553	5654.7125
228.37195	6338.5125
232.64527	7099.6125
236.91549	7881.0125
241.18261	8680.9125
245.44663	9406.0125
249.70755	10037.2125
253.96539	10572.0125
258.22014	10988.0125
262.4718	11360.7125
266.72039	11604.9125
270.96589	11722.0125
275.20832	11676.9125
279.44768	11557.5125
283.68397	11392.2125
287.91719	11251.6125
292.14735	11143.1125
296.37445	11113.1125
300.59849	11180.0125
304.81948	11215.3125
309.03742	11280.5125
313.25231	11236.1125
317.46415	11072.6125
321.67296	10858.6125
325.87872	10613.9125
330.08145	10512.8125
334.28114	10524.1125
338.47781	10593.5125
342.67145	10721.1125
346.86207	10881.6125
351.04966	11092.1125
355.23424	11327.9125
359.4158	11515.6125
363.59435	11669.4125
367.76989	11769.5125
371.94243	11831.3125
376.11196	11832.1125
380.27849	11895.5125
384.44203	11964.1125
388.60257	12039.3125
392.76012	12114.6125
396.91468	12224.3125
401.06626	12315.5125
405.21485	12434.3125
409.36047	12386.9125
413.50311	12176.7125
417.64277	12006.7125
421.77947	11912.7125
425.9132	11906.3125
430.04396	11965.9125
434.17176	12030.0125
438.2966	12117.9125
442.41849	12271.5125
446.53742	12504.3125
450.6534	12733.2125
454.76644	12871.0125
458.87653	12943.7125
462.98368	12951.9125
467.08789	12822.5125
471.18916	12722.4125
475.2875	12578.7125
479.38291	12470.1125
483.4754	12365.2125
487.56496	12281.8125
491.6516	12214.6125
495.73531	12160.8125
499.81612	12107.7125
503.89401	12182.8125
507.96899	12216.1125
512.04106	12266.8125
516.11023	12301.4125
520.1765	12327.3125
524.23987	12267.5125
528.30034	12217.8125
532.35792	12145.1125
536.41261	12081.5125
540.46441	11985.3125
544.51333	11940.8125
548.55936	12006.1125
552.60252	12151.4125
556.64279	12325.5125
560.6802	12464.4125
564.71473	12491.8125
568.7464	12601.8125
572.7752	12745.7125
576.80114	12827.8125
580.82422	12906.0125
584.84444	13052.4125
588.86181	13266.2125
592.87633	13539.8125
596.888	13663.8125
600.89682	13582.0125
604.9028	13789.9125
608.90594	14906.8125
612.90624	16332.8125
616.90371	15780.4125
620.89834	13519.0125
624.89015	12422.7125
628.87913	12237.3125
632.86528	12354.6125
636.84862	12458.6125
640.82913	12431.4125
644.80683	12182.8125
648.78172	12007.8125
652.75379	11993.7125
656.72306	12091.1125
660.68952	12254.0125
664.65319	12221.9125
668.61405	12019.3125
672.57211	12006.8125
676.52738	12074.0125
680.47986	12143.9125
684.42955	12123.9125
688.37646	12015.8125
692.32058	11969.3125
696.26192	11986.6125
700.20048	12052.9125
704.13626	12097.2125
708.06928	12081.3125
711.99952	12053.3125
715.927	12011.3125
719.85171	12025.5125
723.77365	12041.4125
727.69284	11968.4125
731.60928	11880.3125
735.52295	11865.9125
739.43388	11861.5125
743.34206	11879.7125
747.24749	11936.9125
751.15017	11961.4125
755.05012	12043.6125
758.94733	12262.6125
762.8418	12794.7125
766.73354	13622.9125
770.62254	14515.8125
774.50882	14893.5125
778.39237	14468.5125
782.27321	13526.0125
786.15132	12689.7125
790.02671	12142.0125
793.89938	11900.6125
797.76935	11778.0125
801.6366	11711.2125
805.50115	11672.9125
809.36299	11645.7125
813.22213	11606.6125
817.07857	11595.8125
820.93231	11566.6125
824.78336	11544.2125
828.63172	11490.2125
832.47738	11465.9125
836.32036	11435.3125
840.16066	11420.8125
843.99827	11416.7125
847.8332	11404.8125
851.66546	11425.4125
855.49504	11450.5125
859.32195	11447.1125
863.1462	11452.6125
866.96777	11437.0125
870.78668	11428.8125
874.60293	11449.9125
878.41652	11456.1125
882.22745	11500.9125
886.03573	11519.3125
889.84136	11559.3125
893.64433	11496.5125
897.44466	11435.6125
901.24235	11425.2125
905.0374	11392.0125
908.8298	11327.2125
912.61957	11276.2125
916.40671	11337.3125
920.19121	11383.9125
923.97308	11450.2125
927.75233	11450.6125
931.52895	11449.2125
935.30295	11347.8125
939.07433	11189.1125
942.84309	11076.0125
946.60924	10989.1125
950.37278	10933.1125
954.13371	10914.8125
957.89203	10859.8125
961.64774	10860.7125
965.40086	10856.8125
969.15137	10824.1125
972.89929	10800.4125
976.64461	10748.7125
980.38733	10740.2125
984.12747	10729.3125
987.86502	10743.2125
991.59999	10762.8125
995.33237	10824.3125
999.06217	10918.6125
1002.78939	11004.6125
1006.51404	11133.6125
1010.23611	11265.8125
1013.95561	11373.2125
1017.67255	11421.4125
1021.38692	11378.9125
1025.09872	11269.1125
1028.80796	11135.1125
1032.51465	11081.5125
1036.21877	11061.5125
1039.92035	11066.8125
1043.61937	11120.6125
1047.31584	11178.0125
1051.00976	11194.8125
1054.70114	11200.4125
1058.38998	11247.2125
1062.07627	11246.5125
1065.76003	11330.6125
1069.44126	11384.8125
1073.11995	11480.2125
1076.79611	11576.9125
1080.46974	11639.4125
1084.14085	11668.2125
1087.80943	11767.3125
1091.47549	11839.7125
1095.13903	11813.8125
1098.80005	11675.3125
1102.45857	11574.1125
1106.11456	11445.2125
1109.76805	11396.7125
1113.41903	11496.8125
1117.06751	11597.0125
1120.71348	11748.3125
1124.35696	11937.6125
1127.99793	12203.8125
1131.63641	12288.2125
1135.2724	12161.6125
1138.90589	12000.6125
1142.5369	11832.8125
1146.16542	11759.8125
1149.79145	11739.1125
1153.415	11735.5125
1157.03607	11793.2125
1160.65467	11915.1125
1164.27079	12178.9125
1167.88443	12563.5125
1171.49561	13057.0125
1175.10432	13767.0125
1178.71056	14676.9125
1182.31434	15522.0125
1185.91565	15958.1125
1189.51451	15917.3125
1193.11091	15583.9125
1196.70485	15135.5125
1200.29634	14631.2125
1203.88538	14162.0125
1207.47197	13684.9125
1211.05612	13294.6125
1214.63782	13001.7125
1218.21708	12801.6125
1221.79391	12699.9125
1225.36829	12607.3125
1228.94024	12609.5125
1232.50976	12585.0125
1236.07685	12514.9125
1239.6415	12480.3125
1243.20374	12445.8125
1246.76355	12444.5125
1250.32093	12525.0125
1253.8759	12618.5125
1257.42845	12819.6125
1260.97859	13038.1125
1264.52631	13240.3125
1268.07163	13484.8125
1271.61453	13682.6125
1275.15503	13859.6125
1278.69312	14031.8125
1282.22882	14210.4125
1285.76211	14418.0125
1289.29301	14771.3125
1292.82151	15181.2125
1296.34761	15723.4125
1299.87133	16301.7125
1303.39266	17013.1125
1306.9116	17840.9125
1310.42815	18645.6125
1313.94233	19191.9125
1317.45412	19058.9125
1320.96354	18516.0125
1324.47058	17884.5125
1327.97525	17299.8125
1331.47754	16848.1125
1334.97747	16641.3125
1338.47502	16633.6125
1341.97022	16793.4125
1345.46305	17103.3125
1348.95352	17551.6125
1352.44163	18114.1125
1355.92738	18887.5125
1359.41078	19923.2125
1362.89183	20929.8125
1366.37053	20730.2125
1369.84688	18958.2125
1373.32088	16819.3125
1376.79254	15351.9125
1380.26186	14685.5125
1383.72883	14380.2125
1387.19347	14166.1125
1390.65578	13924.9125
1394.11575	13753.0125
1397.57339	13653.0125
1401.0287	13632.5125
1404.48168	13624.6125
1407.93234	13581.2125
1411.38068	13450.1125
1414.82669	13289.0125
1418.27039	13074.7125
1421.71177	12816.0125
1425.15083	12591.0125
1428.58758	12453.6125
1432.02203	12443.0125
1435.45416	12528.3125
1438.88399	12640.3125
1442.31151	12706.7125
1445.73673	12799.7125
1449.15965	12854.8125
1452.58027	12864.0125
1455.9986	12864.4125
1459.41463	12904.6125
1462.82837	13064.4125
1466.23982	13218.5125
1469.64898	13407.0125
1473.05586	13539.6125
1476.46045	13635.0125
1479.86276	13690.5125
1483.26279	13741.9125
1486.66054	13800.1125
1490.05602	13998.1125
1493.44922	14284.5125
1496.84016	14765.8125
1500.22882	15511.7125
1503.61521	16480.0125
1506.99934	17548.1125
1510.38121	18365.2125
1513.76081	18463.3125
1517.13816	17721.8125
1520.51324	16619.6125
1523.88607	15601.6125
1527.25665	15009.8125
1530.62498	14694.4125
1533.99105	14485.4125
1537.35488	14329.9125
1540.71647	14104.7125
1544.07581	13883.9125
1547.4329	13637.1125
1550.78776	13424.5125
1554.14038	13330.3125
1557.49077	13280.0125
1560.83892	13294.8125
1564.18484	13436.5125
1567.52853	13557.2125
1570.86999	13776.3125
1574.20922	13986.3125
1577.54624	14064.8125
1580.88103	13858.9125
1584.2136	13448.9125
1587.54395	13327.8125
1590.87208	13423.3125
1594.19801	13763.8125
1597.52172	14327.5125
1600.84321	14632.4125
1604.16251	14402.3125
1607.47959	13862.3125
1610.79447	13193.3125
1614.10715	12549.3125
1617.41763	11927.5125
1620.7259	11480.6125
1624.03199	11218.8125
1627.33587	11135.9125
1630.63757	11220.5125
1633.93707	11554.9125
1637.23439	12177.8125
1640.52951	13102.7125
1643.82246	14389.6125
1647.11321	15626.3125
1650.40179	16190.3125
1653.68819	15707.3125
1656.97241	14298.4125
1660.25446	12721.7125
1663.53433	11546.5125
1666.81203	10822.0125
1670.08756	10354.6125
1673.36092	10061.6125
1676.63211	9878.1125
1679.90115	9745.0125
1683.16801	9626.0125
1686.43272	9516.2125
1689.69527	9431.6125
1692.95567	9341.0125
1696.2139	9280.4125
1699.46999	9209.3125
1702.72392	9148.9125
1705.97571	9134.4125
1709.22535	9145.0125
1712.47284	9113.1125
1715.71819	9059.7125
1718.96139	9033.2125
1722.20246	9032.7125
1725.44139	8983.1125
1728.67818	8950.0125
1731.91284	8884.1125
1735.14537	8859.1125
1738.37576	8797.7125
1741.60403	8787.7125
1744.83017	8749.1125
1748.05418	8740.7125
1751.27607	8712.0125
1754.49584	8736.8125
1757.71349	8724.8125
1760.92903	8712.6125
1764.14244	8680.8125
1767.35375	8685.3125
1770.56294	8610.0125
1773.77002	8604.4125
1776.97499	8558.6125
1780.17785	8539.8125
1783.37861	8510.1125
1786.57727	8505.0125
1789.77382	8471.4125
1792.96828	8445.2125
1796.16064	8426.1125
1799.3509	8393.4125
1802.53907	8365.9125
1805.72514	8339.6125
1808.90913	8344.7125
1812.09102	8304.0125
1815.27083	8296.4125
1818.44856	8271.8125
1821.6242	8266.1125
1824.79776	8243.5125
1827.96924	8224.8125
1831.13864	8199.2125
1834.30597	8220.5125
1837.47122	8202.3125
1840.6344	8174.4125
1843.7955	8153.4125
1846.95454	8138.5125
1850.11151	8137.7125
1853.26642	8124.0125
1856.41926	8103.1125
1859.57004	8116.6125
1862.71876	8093.5125
1865.86542	8085.8125
1869.01003	8076.2125
1872.15258	8047.8125
1875.29308	8084.6125
1878.43152	8051.0125
1881.56792	8048.6125
1884.70227	8031.6125
1887.83457	8021.8125
1890.96482	8013.0125
1894.09304	7992.0125
1897.21921	7973.0125
1900.34335	7964.1125
1903.46544	7953.4125
1906.58551	7960.5125
1909.70353	7937.3125
1912.81953	7920.5125
1915.93349	7891.3125
1919.04543	7869.2125
1922.15534	7860.6125
1925.26322	7835.7125
1928.36908	7812.0125
1931.47292	7789.8125
1934.57473	7789.7125
1937.67453	7762.7125
1940.77232	7747.8125
1943.86808	7734.0125
1946.96184	7696.5125
1950.05358	7661.6125
1953.14331	7652.4125
1956.23103	7632.5125
1959.31675	7599.4125
1962.40046	7572.7125
1965.48217	7552.3125
1968.56188	7532.0125
1971.63959	7516.1125
1974.7153	7469.6125
1977.78901	7453.9125
1980.86073	7426.1125
1983.93046	7426.9125
1986.99819	7381.1125
1990.06394	7373.9125
1993.1277	7346.0125
1996.18947	7325.2125
1999.24925	7311.6125
2002.30706	7259.0125
2005.36288	7238.8125
2008.41672	7211.2125
2011.46859	7200.0125
2014.51848	7159.7125
2017.56639	7150.3125
2020.61233	7143.5125
2023.6563	7112.3125
2026.6983	7075.7125
2029.73833	7052.4125
2032.7764	7053.1125
2035.8125	7046.3125
2038.84664	7001.6125
2041.87881	6986.5125
2044.90903	6956.3125
2047.93729	6953.2125
2050.96359	6927.5125
2053.98794	6937.9125
2057.01034	6929.9125
2060.03078	6932.9125
2063.04927	6892.6125
2066.06582	6908.3125
2069.08042	6909.5125
2072.09307	6879.9125
2075.10378	6862.6125
2078.11255	6867.2125
2081.11938	6863.1125
2084.12426	6874.9125
2087.12722	6869.7125
2090.12824	6845.3125
2093.12732	6838.6125
2096.12447	6841.7125
2099.11969	6847.0125
2102.11299	6841.5125
2105.10435	6847.7125
2108.09379	6844.3125
2111.08131	6846.4125
2114.0669	6861.4125
2117.05057	6833.5125
2120.03233	6842.6125
2123.01216	6857.9125
2125.99008	6852.0125
2128.96609	6854.6125
2131.94018	6869.4125
2134.91236	6865.8125
2137.88263	6854.9125
2140.851	6855.6125
2143.81746	6864.7125
2146.78201	6865.9125
2149.74466	6860.6125
2152.7054	6858.6125
2155.66425	6856.6125
2158.6212	6834.2125
2161.57625	6832.6125
2164.52941	6816.4125
2167.48067	6820.0125
2170.43004	6815.2125
2173.37752	6815.7125
2176.32311	6811.4125
2179.26681	6804.1125
2182.20863	6789.0125
2185.14856	6801.6125
2188.08661	6806.4125
2191.02278	6805.4125
2193.95707	6776.0125
2196.88948	6788.6125
2199.82001	6778.8125
2202.74867	6764.7125
2205.67545	6754.0125
2208.60037	6743.3125
2211.52341	6726.3125
2214.44458	6704.2125
2217.36388	6689.7125
2220.28132	6672.0125
2223.1969	6663.2125
2226.11061	6646.9125
2229.02246	6636.2125
2231.93245	6620.3125
2234.84058	6597.0125
2237.74686	6590.4125
2240.65128	6584.6125
2243.55385	6557.8125
2246.45456	6554.1125
2249.35343	6551.9125
2252.25044	6534.6125
2255.14561	6532.4125
2258.03893	6516.8125
2260.93041	6505.7125
2263.82004	6491.5125
2266.70783	6484.1125
2269.59378	6463.2125
2272.4779	6438.5125
2275.36017	6424.6125
2278.24061	6413.3125
2281.11922	6379.8125
2283.996	6389.9125
2286.87094	6354.6125
2289.74405	6353.2125
2292.61534	6351.3125
2295.4848	6325.7125
2298.35243	6345.4125
2301.21824	6332.8125
2304.08223	6293.9125
2306.94439	6308.7125
2309.80474	6279.4125
2312.66327	6285.4125
2315.51999	6266.1125
2318.37489	6271.9125
2321.22797	6248.1125
2324.07925	6232.8125
2326.92871	6220.3125
2329.77637	6224.8125
2332.62222	6201.4125
2335.46626	6190.9125
2338.3085	6183.4125
2341.14893	6166.5125
2343.98756	6170.7125
2346.8244	6155.8125
2349.65943	6147.7125
2352.49267	6136.6125
2355.32411	6140.8125
2358.15376	6129.7125
2360.98161	6140.1125
2363.80768	6133.5125
2366.63195	6124.3125
2369.45444	6124.8125
2372.27514	6128.0125
2375.09405	6112.6125
2377.91118	6092.9125
2380.72652	6090.7125
2383.54009	6059.5125
2386.35187	6071.7125
2389.16188	6033.6125
2391.97011	6019.3125
2394.77657	5999.2125
2397.58125	6000.0125
2400.38416	5969.4125
2403.18529	5956.5125
2405.98466	5947.4125
2408.78226	5939.6125
2411.57809	5909.1125
2414.37216	5911.9125
2417.16446	5905.6125
2419.955	5919.7125
2422.74378	5908.2125
2425.5308	5893.1125
2428.31606	5879.4125
2431.09956	5869.7125
2433.88131	5862.6125
2436.6613	5864.6125
2439.43954	5855.8125
2442.21603	5836.5125
2444.99077	5841.2125
2447.76377	5840.0125
2450.53501	5828.9125
2453.30451	5839.7125
2456.07226	5834.0125
2458.83827	5813.5125
2461.60254	5808.3125
2464.36507	5811.1125
2467.12586	5811.7125
2469.88492	5775.8125
2472.64224	5779.5125
2475.39782	5782.4125
2478.15167	5776.0125
2480.90379	5760.8125
2483.65417	5776.6125
2486.40283	5770.7125
2489.14976	5777.3125
2491.89497	5770.2125
2494.63845	5777.3125
2497.3802	5768.8125
2500.12024	5750.7125
2502.85855	5737.5125
2505.59514	5728.5125
2508.33002	5727.1125
2511.06318	5709.5125
2513.79462	5685.2125
2516.52435	5673.1125
2519.25237	5683.6125
2521.97867	5660.0125
2524.70327	5651.4125
2527.42616	5648.8125
2530.14734	5635.8125
2532.86681	5632.3125
2535.58458	5635.3125
2538.30065	5603.1125
2541.01501	5602.9125
2543.72768	5603.7125
2546.43864	5580.4125
2549.14791	5583.5125
2551.85548	5584.8125
2554.56136	5550.7125
2557.26554	5540.8125
2559.96803	5540.1125
2562.66883	5512.9125
2565.36794	5509.9125
2568.06536	5512.6125
2570.7611	5483.7125
2573.45514	5491.0125
2576.14751	5475.2125
2578.83819	5460.7125
2581.52719	5458.3125
2584.21451	5440.7125
2586.90015	5424.7125
2589.58411	5418.7125
2592.2664	5407.4125
2594.94701	5405.0125
2597.62594	5402.3125
2600.30321	5367.9125
2602.9788	5375.8125
2605.65273	5348.0125
2608.32498	5358.9125
2610.99557	5356.9125
2613.66449	5359.8125
2616.33175	5330.7125
2618.99734	5338.6125
2621.66128	5325.4125
2624.32355	5296.8125
2626.98416	5299.2125
2629.64311	5288.4125
2632.30041	5284.0125
2634.95605	5259.5125
2637.61004	5260.2125
2640.26238	5276.1125
2642.91306	5255.7125
2645.56209	5262.8125
2648.20948	5268.8125
2650.85521	5243.1125
2653.4993	5227.3125
2656.14175	5223.9125
2658.78255	5238.6125
2661.42171	5245.4125
2664.05923	5246.8125
2666.6951	5238.0125
2669.32934	5243.2125
2671.96194	5231.4125
2674.59291	5230.9125
2677.22224	5225.1125
2679.84993	5233.8125
2682.476	5238.5125
2685.10043	5216.3125
2687.72324	5198.0125
2690.34441	5202.1125
2692.96396	5222.0125
2695.58188	5203.9125
2698.19818	5209.5125
2700.81285	5220.1125
2703.4259	5194.6125
2706.03733	5197.3125
2708.64714	5201.0125
2711.25533	5204.0125
2713.86191	5190.9125
2716.46687	5197.0125
2719.07021	5205.7125
2721.67194	5213.2125
2724.27206	5209.8125
2726.87057	5196.3125
2729.46747	5206.1125
2732.06276	5217.6125
2734.65644	5189.6125
2737.24852	5212.9125
2739.83899	5174.6125
2742.42786	5181.9125
2745.01513	5158.9125
2747.60079	5169.2125
2750.18486	5152.2125
2752.76733	5137.9125
2755.3482	5124.0125
2757.92747	5111.1125
2760.50515	5117.1125
2763.08123	5098.0125
2765.65573	5111.7125
2768.22863	5089.2125
2770.79994	5090.7125
2773.36967	5074.8125
2775.9378	5072.6125
2778.50435	5061.1125
2781.06932	5056.3125
2783.6327	5063.3125
2786.1945	5047.5125
2788.75471	5059.7125
2791.31335	5027.0125
2793.87041	5034.5125
2796.42589	4993.6125
2798.97979	5018.3125
2801.53212	4988.1125
2804.08288	4975.5125
2806.63206	4967.9125
2809.17967	4956.9125
2811.72571	4939.5125
2814.27018	4944.8125
2816.81308	4933.3125
2819.35442	4919.6125
2821.89419	4906.2125
2824.43239	4915.4125
2826.96904	4923.4125
2829.50412	4919.5125
2832.03763	4911.2125
2834.56959	4906.9125
2837.1	4896.9125
2839.62884	4914.6125
2842.15613	4909.7125
2844.68186	4932.6125
2847.20604	4942.2125
2849.72867	4974.4125
2852.24974	4966.8125
2854.76927	4953.5125
2857.28724	4940.1125
2859.80367	4937.0125
2862.31855	4938.7125
2864.83189	4927.4125
2867.34368	4918.8125
2869.85393	4921.9125
2872.36264	4901.5125
2874.8698	4889.4125
2877.37543	4899.4125
2879.87952	4892.5125
2882.38207	4891.7125
2884.88308	4880.5125
2887.38256	4887.8125
2889.88051	4873.3125
2892.37692	4901.5125
2894.8718	4872.4125
2897.36515	4893.1125
2899.85698	4881.5125
2902.34727	4896.4125
2904.83604	4893.1125
2907.32328	4904.4125
2909.809	4913.3125
2912.29319	4915.3125
2914.77587	4920.8125
2917.25702	4923.3125
2919.73665	4934.6125
2922.21476	4928.7125
2924.69136	4925.7125
2927.16644	4940.0125
2929.64	4903.5125
2932.11205	4923.5125
2934.58258	4911.4125
2937.05161	4896.4125
2939.51912	4903.6125
2941.98513	4889.5125
2944.44962	4872.9125
2946.91261	4849.4125
2949.37409	4841.8125
2951.83407	4849.1125
2954.29254	4835.9125
2956.74951	4837.0125
2959.20498	4819.1125
2961.65895	4812.1125
2964.11142	4812.1125
2966.56239	4777.9125
2969.01186	4776.4125
2971.45984	4760.2125
2973.90632	4742.4125
2976.35131	4732.6125
2978.7948	4722.3125
2981.23681	4708.5125
2983.67732	4701.4125
2986.11635	4665.3125
2988.55388	4683.1125
2990.98993	4659.4125
2993.4245	4648.0125
2995.85758	4645.7125
2998.28917	4614.5125
3000.71928	4612.6125
3003.14791	4611.8125
3005.57506	4600.8125
3008.00073	4599.5125
3010.42493	4566.2125
3012.84764	4570.2125
3015.26888	4564.6125
3017.68865	4566.4125
3020.10694	4555.1125
3022.52376	4542.3125
3024.9391	4535.0125
3027.35298	4518.9125
3029.76539	4520.0125
3032.17632	4514.6125
3034.5858	4506.1125
3036.9938	4505.8125
3039.40034	4502.3125
3041.80542	4486.6125
3044.20903	4486.9125
3046.61118	4472.1125
3049.01187	4470.3125
3051.4111	4459.4125
3053.80888	4483.4125
3056.20519	4466.6125
3058.60005	4441.2125
3060.99345	4445.1125
3063.3854	4435.7125
3065.7759	4427.6125
3068.16494	4431.6125
3070.55254	4393.7125
3072.93868	4392.1125
3075.32338	4380.7125
3077.70662	4361.9125
3080.08842	4354.2125
