Data from AgNPs_FTO_APTES_UA_50uM_CRN_1uM_R6G_10uM_NaF_0.1M_Addition_RamanShift__17__11-35-24-729.txt Node

Date: Mon Feb 21 11:35:24 GMT 2022
User: TCL
Spectrometer: QEP01345
Trigger mode: 4
Integration Time (sec): 7.000000E0
Scans to average: 10
Electric dark correction enabled: true
Nonlinearity correction enabled: false
Boxcar width: 0
XAxis mode: Raman Shifts
Number of Pixels in Spectrum: 1044
>>>>>Begin Spectral Data<<<<<
46.04893	0.525
50.45542	-0.975
54.85868	-1.075
59.25871	-1.475
63.6555	63.225
68.04907	69.325
72.43941	71.125
76.82654	75.825
81.21044	74.525
85.59113	82.225
89.96862	84.125
94.34289	85.925
98.71396	88.125
103.08183	97.225
107.4465	91.225
111.80798	94.225
116.16626	93.725
120.52136	96.525
124.87327	106.325
129.222	107.325
133.56755	109.925
137.90993	120.725
142.24913	129.425
146.58517	143.025
150.91804	166.425
155.24774	195.525
159.57429	240.725
163.89768	311.925
168.21792	414.225
172.53501	569.325
176.84895	792.725
181.15975	1107.125
185.46741	1571.125
189.77193	2165.625
194.07331	2884.125
198.37157	3717.525
202.6667	4601.025
206.9587	5471.525
211.24758	6310.725
215.53334	7175.525
219.81599	8121.425
224.09553	9174.925
228.37195	10348.125
232.64527	11627.425
236.91549	12979.925
241.18261	14201.225
245.44663	15337.425
249.70755	16322.125
253.96539	17184.225
258.22014	17944.825
262.4718	18510.125
266.72039	18968.825
270.96589	19183.725
275.20832	19153.025
279.44768	19004.525
283.68397	18761.725
287.91719	18589.525
292.14735	18543.725
296.37445	18625.725
300.59849	18815.325
304.81948	19097.125
309.03742	19273.625
313.25231	19178.025
317.46415	18665.525
321.67296	17960.325
325.87872	17341.525
330.08145	17006.625
334.28114	16942.025
338.47781	17096.725
342.67145	17379.125
346.86207	17758.225
351.04966	18283.725
355.23424	18874.825
359.4158	19335.925
363.59435	19650.225
367.76989	19827.425
371.94243	19900.925
376.11196	19931.925
380.27849	19929.025
384.44203	19985.125
388.60257	20056.125
392.76012	20159.425
396.91468	20348.825
401.06626	20716.425
405.21485	20952.825
409.36047	20800.825
413.50311	20290.425
417.64277	19851.025
421.77947	19679.025
425.9132	19616.325
430.04396	19668.325
434.17176	19740.525
438.2966	19894.625
442.41849	20253.325
446.53742	20817.425
450.6534	21427.725
454.76644	21926.325
458.87653	22084.925
462.98368	21974.725
467.08789	21755.325
471.18916	21390.725
475.2875	21021.525
479.38291	20822.425
483.4754	20675.425
487.56496	20487.025
491.6516	20177.125
495.73531	19895.525
499.81612	19759.025
503.89401	19919.325
507.96899	19972.325
512.04106	19981.525
516.11023	19949.625
520.1765	19841.625
524.23987	19744.225
528.30034	19553.825
532.35792	19339.125
536.41261	19089.025
540.46441	18831.725
544.51333	18754.925
548.55936	18907.525
552.60252	19351.925
556.64279	19870.025
560.6802	20267.225
564.71473	20556.125
568.7464	21080.625
572.7752	21669.425
576.80114	21909.825
580.82422	22024.325
584.84444	22236.125
588.86181	22537.225
592.87633	22846.525
596.888	22872.925
600.89682	22690.125
604.9028	23481.225
608.90594	26585.425
612.90624	30203.025
616.90371	28609.325
620.89834	22757.925
624.89015	19971.225
628.87913	19523.325
632.86528	19621.525
636.84862	19707.425
640.82913	19458.925
644.80683	18832.925
648.78172	18371.925
652.75379	18284.025
656.72306	18616.725
660.68952	19156.425
664.65319	19094.425
668.61405	18566.025
672.57211	18442.825
676.52738	18487.025
680.47986	18493.225
684.42955	18369.325
688.37646	18326.325
692.32058	18454.125
696.26192	18643.025
700.20048	18868.125
704.13626	18967.925
708.06928	18878.925
711.99952	18728.325
715.927	18690.625
719.85171	18789.325
723.77365	18795.025
727.69284	18561.125
731.60928	18285.825
735.52295	18209.225
739.43388	18240.625
743.34206	18290.925
747.24749	18346.225
751.15017	18510.225
755.05012	18801.025
758.94733	19416.825
762.8418	20713.025
766.73354	22861.025
770.62254	24950.525
774.50882	25679.625
778.39237	24546.725
782.27321	22389.425
786.15132	20415.225
790.02671	19246.425
793.89938	18609.125
797.76935	18364.925
801.6366	18256.525
805.50115	18182.725
809.36299	18089.825
813.22213	17953.025
817.07857	17854.625
820.93231	17777.225
824.78336	17698.325
828.63172	17673.525
832.47738	17661.525
836.32036	17634.225
840.16066	17647.125
843.99827	17663.525
847.8332	17638.725
851.66546	17597.625
855.49504	17565.025
859.32195	17609.125
863.1462	17507.625
866.96777	17473.125
870.78668	17443.625
874.60293	17494.425
878.41652	17532.925
882.22745	17584.525
886.03573	17654.325
889.84136	17644.225
893.64433	17572.825
897.44466	17517.125
901.24235	17430.125
905.0374	17308.225
908.8298	17229.525
912.61957	17155.625
916.40671	17258.925
920.19121	17467.125
923.97308	17672.525
927.75233	17774.925
931.52895	17751.725
935.30295	17560.225
939.07433	17214.425
942.84309	16901.925
946.60924	16744.625
950.37278	16693.025
954.13371	16704.425
957.89203	16602.025
961.64774	16553.025
965.40086	16532.625
969.15137	16475.325
972.89929	16416.825
976.64461	16406.725
980.38733	16363.225
984.12747	16435.125
987.86502	16591.425
991.59999	16776.925
995.33237	17079.725
999.06217	17545.425
1002.78939	18095.425
1006.51404	18499.125
1010.23611	18787.125
1013.95561	19025.525
1017.67255	19016.125
1021.38692	18790.025
1025.09872	18460.425
1028.80796	18348.525
1032.51465	18527.925
1036.21877	18764.625
1039.92035	18891.625
1043.61937	18795.925
1047.31584	18583.925
1051.00976	18277.725
1054.70114	18139.225
1058.38998	18113.825
1062.07627	18278.925
1065.76003	18400.025
1069.44126	18588.725
1073.11995	18892.725
1076.79611	19237.025
1080.46974	19448.625
1084.14085	19746.625
1087.80943	20093.125
1091.47549	20325.625
1095.13903	20285.925
1098.80005	19935.825
1102.45857	19455.125
1106.11456	19127.525
1109.76805	18978.725
1113.41903	19114.225
1117.06751	19337.825
1120.71348	19668.825
1124.35696	20029.725
1127.99793	20441.725
1131.63641	20558.225
1135.2724	20308.225
1138.90589	19929.425
1142.5369	19751.425
1146.16542	19683.025
1149.79145	19671.025
1153.415	19773.525
1157.03607	20014.525
1160.65467	20493.625
1164.27079	21343.225
1167.88443	22574.825
1171.49561	24147.625
1175.10432	26265.925
1178.71056	29124.025
1182.31434	31697.225
1185.91565	32910.525
1189.51451	32723.925
1193.11091	31520.125
1196.70485	29941.025
1200.29634	28405.825
1203.88538	27181.825
1207.47197	26167.525
1211.05612	25373.925
1214.63782	24780.325
1218.21708	24421.625
1221.79391	24216.925
1225.36829	24111.525
1228.94024	23841.425
1232.50976	23455.725
1236.07685	23018.825
1239.6415	22759.525
1243.20374	22693.425
1246.76355	22806.125
1250.32093	23076.225
1253.8759	23599.625
1257.42845	24308.425
1260.97859	25190.425
1264.52631	26077.025
1268.07163	27032.825
1271.61453	27899.425
1275.15503	28683.325
1278.69312	29428.125
1282.22882	30053.325
1285.76211	30823.225
1289.29301	31748.225
1292.82151	32888.625
1296.34761	34377.225
1299.87133	36309.325
1303.39266	38705.525
1306.9116	41650.925
1310.42815	44618.125
1313.94233	46487.225
1317.45412	46405.225
1320.96354	45068.425
1324.47058	43411.525
1327.97525	42045.025
1331.47754	41149.125
1334.97747	40699.925
1338.47502	40585.425
1341.97022	40471.125
1345.46305	40272.525
1348.95352	40099.725
1352.44163	40349.025
1355.92738	41571.425
1359.41078	44194.425
1362.89183	46976.625
1366.37053	46257.425
1369.84688	41533.825
1373.32088	36242.725
1376.79254	32650.725
1380.26186	31156.725
1383.72883	30618.125
1387.19347	30320.425
1390.65578	29871.125
1394.11575	29662.625
1397.57339	29858.925
1401.0287	30377.325
1404.48168	30891.625
1407.93234	31037.625
1411.38068	30799.125
1414.82669	30082.625
1418.27039	29023.025
1421.71177	27929.125
1425.15083	27059.925
1428.58758	26574.425
1432.02203	26699.625
1435.45416	27297.825
1438.88399	27994.325
1442.31151	28531.725
1445.73673	28922.025
1449.15965	29268.525
1452.58027	29490.625
1455.9986	29583.325
1459.41463	29784.925
1462.82837	30234.925
1466.23982	30778.125
1469.64898	31322.425
1473.05586	31573.725
1476.46045	31531.825
1479.86276	31366.825
1483.26279	31188.725
1486.66054	31175.025
1490.05602	31423.425
1493.44922	31855.225
1496.84016	32610.625
1500.22882	33872.925
1503.61521	35786.425
1506.99934	38169.325
1510.38121	40161.425
1513.76081	40584.325
1517.13816	38942.625
1520.51324	36030.825
1523.88607	33479.725
1527.25665	31867.925
1530.62498	31111.925
1533.99105	30732.425
1537.35488	30413.925
1540.71647	29916.625
1544.07581	29376.325
1547.4329	28859.525
1550.78776	28366.925
1554.14038	28029.325
1557.49077	27907.725
1560.83892	27938.325
1564.18484	28202.525
1567.52853	28562.825
1570.86999	28978.325
1574.20922	29397.425
1577.54624	29620.725
1580.88103	29304.125
1584.2136	28943.725
1587.54395	29347.925
1590.87208	30641.025
1594.19801	32707.725
1597.52172	34849.225
1600.84321	35569.125
1604.16251	34057.625
1607.47959	31414.625
1610.79447	28545.625
1614.10715	25881.125
1617.41763	23752.925
1620.7259	22259.525
1624.03199	21562.225
1627.33587	21521.425
1630.63757	22205.425
1633.93707	23715.325
1637.23439	26170.325
1640.52951	29791.825
1643.82246	34008.525
1647.11321	37504.825
1650.40179	38515.225
1653.68819	36000.425
1656.97241	30961.725
1660.25446	25775.525
1663.53433	22044.625
1666.81203	19759.825
1670.08756	18351.025
1673.36092	17557.425
1676.63211	16989.725
1679.90115	16610.325
1683.16801	16303.725
1686.43272	16090.125
1689.69527	15895.225
1692.95567	15710.725
1696.2139	15547.725
1699.46999	15382.325
1702.72392	15331.725
1705.97571	15353.125
1709.22535	15428.725
1712.47284	15453.725
1715.71819	15461.525
1718.96139	15430.225
1722.20246	15341.125
1725.44139	15281.725
1728.67818	15144.825
1731.91284	15065.725
1735.14537	14981.825
1738.37576	14891.925
1741.60403	14837.025
1744.83017	14765.125
1748.05418	14714.725
1751.27607	14594.025
1754.49584	14536.125
1757.71349	14441.525
1760.92903	14396.825
1764.14244	14372.425
1767.35375	14360.125
1770.56294	14342.425
1773.77002	14340.925
1776.97499	14367.025
1780.17785	14371.625
1783.37861	14399.825
1786.57727	14366.825
1789.77382	14343.825
1792.96828	14369.825
1796.16064	14332.425
1799.3509	14314.725
1802.53907	14259.825
1805.72514	14214.725
1808.90913	14208.925
1812.09102	14161.025
1815.27083	14130.225
1818.44856	14130.925
1821.6242	14093.925
1824.79776	14083.225
1827.96924	14084.725
1831.13864	14081.825
1834.30597	14106.825
1837.47122	14089.825
1840.6344	14107.125
1843.7955	14094.525
1846.95454	14090.525
1850.11151	14066.425
1853.26642	14045.925
1856.41926	14024.925
1859.57004	14038.325
1862.71876	13996.425
1865.86542	14014.925
1869.01003	14024.725
1872.15258	14039.625
1875.29308	13993.725
1878.43152	13971.625
1881.56792	13972.925
1884.70227	13959.525
1887.83457	13963.525
1890.96482	13941.125
1894.09304	13906.925
1897.21921	13912.325
1900.34335	13853.925
1903.46544	13871.125
1906.58551	13877.325
1909.70353	13846.525
1912.81953	13812.025
1915.93349	13799.125
1919.04543	13743.425
1922.15534	13718.625
1925.26322	13704.925
1928.36908	13631.925
1931.47292	13588.425
1934.57473	13516.525
1937.67453	13513.925
1940.77232	13472.325
1943.86808	13434.425
1946.96184	13399.025
1950.05358	13355.925
1953.14331	13301.525
1956.23103	13250.625
1959.31675	13183.325
1962.40046	13174.125
1965.48217	13144.925
1968.56188	13129.725
1971.63959	13115.325
1974.7153	13090.725
1977.78901	13022.525
1980.86073	12982.125
1983.93046	12933.025
1986.99819	12893.225
1990.06394	12862.425
1993.1277	12803.225
1996.18947	12780.725
1999.24925	12729.425
2002.30706	12688.625
2005.36288	12680.825
2008.41672	12655.425
2011.46859	12608.025
2014.51848	12553.925
2017.56639	12489.925
2020.61233	12490.325
2023.6563	12462.225
2026.6983	12449.425
2029.73833	12417.725
2032.7764	12383.525
2035.8125	12374.525
2038.84664	12352.025
2041.87881	12363.925
2044.90903	12339.525
2047.93729	12271.325
2050.96359	12270.025
2053.98794	12268.425
2057.01034	12276.025
2060.03078	12267.225
2063.04927	12222.625
2066.06582	12221.925
2069.08042	12192.425
2072.09307	12209.425
2075.10378	12182.525
2078.11255	12186.225
2081.11938	12190.725
2084.12426	12181.925
2087.12722	12181.025
2090.12824	12175.925
2093.12732	12170.325
2096.12447	12173.925
2099.11969	12181.925
2102.11299	12182.525
2105.10435	12174.725
2108.09379	12153.025
2111.08131	12167.925
2114.0669	12179.925
2117.05057	12197.925
2120.03233	12239.025
2123.01216	12225.325
2125.99008	12247.625
2128.96609	12265.425
2131.94018	12215.225
2134.91236	12241.625
2137.88263	12277.325
2140.851	12275.525
2143.81746	12261.425
2146.78201	12257.225
2149.74466	12271.625
2152.7054	12259.625
2155.66425	12277.525
2158.6212	12278.225
2161.57625	12261.425
2164.52941	12250.225
2167.48067	12244.225
2170.43004	12237.025
2173.37752	12213.825
2176.32311	12211.225
2179.26681	12218.925
2182.20863	12222.825
2185.14856	12233.725
2188.08661	12252.725
2191.02278	12230.525
2193.95707	12194.225
2196.88948	12213.325
2199.82001	12212.525
2202.74867	12204.825
2205.67545	12189.925
2208.60037	12189.425
2211.52341	12154.225
2214.44458	12139.125
2217.36388	12121.225
2220.28132	12139.625
2223.1969	12100.225
2226.11061	12049.225
2229.02246	12030.425
2231.93245	12045.425
2234.84058	11987.625
2237.74686	11978.725
2240.65128	11957.525
2243.55385	11970.725
2246.45456	11944.625
2249.35343	11919.625
2252.25044	11914.025
2255.14561	11888.725
2258.03893	11884.625
2260.93041	11821.925
2263.82004	11840.025
2266.70783	11821.625
2269.59378	11792.025
2272.4779	11740.425
2275.36017	11740.425
2278.24061	11715.925
2281.11922	11712.925
2283.996	11685.425
2286.87094	11675.825
2289.74405	11656.325
2292.61534	11667.225
2295.4848	11651.925
2298.35243	11634.025
2301.21824	11593.025
2304.08223	11645.025
2306.94439	11631.825
2309.80474	11629.925
2312.66327	11626.725
2315.51999	11606.825
2318.37489	11596.525
2321.22797	11632.725
2324.07925	11595.925
2326.92871	11573.925
2329.77637	11596.925
2332.62222	11551.625
2335.46626	11558.825
2338.3085	11549.725
2341.14893	11545.425
2343.98756	11572.125
2346.8244	11566.325
2349.65943	11551.925
2352.49267	11583.125
2355.32411	11589.325
2358.15376	11559.725
2360.98161	11569.725
2363.80768	11549.625
2366.63195	11539.225
2369.45444	11531.825
2372.27514	11510.325
2375.09405	11499.625
2377.91118	11486.525
2380.72652	11433.625
2383.54009	11390.225
2386.35187	11386.925
2389.16188	11334.525
2391.97011	11350.425
2394.77657	11343.725
2397.58125	11331.725
2400.38416	11310.625
2403.18529	11277.525
2405.98466	11278.625
2408.78226	11263.825
2411.57809	11234.025
2414.37216	11201.325
2417.16446	11218.225
2419.955	11188.125
2422.74378	11190.925
2425.5308	11185.225
2428.31606	11164.125
2431.09956	11168.425
2433.88131	11167.725
2436.6613	11172.225
2439.43954	11182.625
2442.21603	11157.425
2444.99077	11166.025
2447.76377	11194.525
2450.53501	11174.425
2453.30451	11185.025
2456.07226	11182.825
2458.83827	11144.325
2461.60254	11164.725
2464.36507	11147.225
2467.12586	11133.125
2469.88492	11115.125
2472.64224	11121.025
2475.39782	11176.025
2478.15167	11168.525
2480.90379	11161.125
2483.65417	11207.925
2486.40283	11212.125
2489.14976	11217.925
2491.89497	11196.625
2494.63845	11197.125
2497.3802	11183.125
2500.12024	11227.725
2502.85855	11204.825
2505.59514	11181.025
2508.33002	11154.925
2511.06318	11143.425
2513.79462	11133.825
2516.52435	11101.125
2519.25237	11100.825
2521.97867	11085.825
2524.70327	11048.425
2527.42616	11079.625
2530.14734	11049.525
2532.86681	11068.725
2535.58458	11056.325
2538.30065	11051.525
2541.01501	11063.725
2543.72768	11058.125
2546.43864	11060.525
2549.14791	11060.225
2551.85548	11069.925
2554.56136	11029.625
2557.26554	11010.225
2559.96803	11004.725
2562.66883	10983.725
2565.36794	10957.225
2568.06536	10926.825
2570.7611	10948.225
2573.45514	10950.825
2576.14751	10942.225
2578.83819	10936.325
2581.52719	10925.525
2584.21451	10911.925
2586.90015	10919.125
2589.58411	10914.025
2592.2664	10917.425
2594.94701	10917.525
2597.62594	10912.525
2600.30321	10889.525
2602.9788	10884.525
2605.65273	10880.925
2608.32498	10893.425
2610.99557	10876.125
2613.66449	10882.725
2616.33175	10884.725
2618.99734	10889.625
2621.66128	10874.725
2624.32355	10841.925
2626.98416	10860.325
2629.64311	10887.925
2632.30041	10862.325
2634.95605	10835.325
2637.61004	10859.125
2640.26238	10821.325
2642.91306	10841.125
2645.56209	10829.425
2648.20948	10794.025
2650.85521	10775.925
2653.4993	10794.725
2656.14175	10794.125
2658.78255	10841.825
2661.42171	10823.925
2664.05923	10840.125
2666.6951	10861.225
2669.32934	10893.325
2671.96194	10872.225
2674.59291	10863.225
2677.22224	10862.225
2679.84993	10855.325
2682.476	10864.825
2685.10043	10866.925
2687.72324	10848.225
2690.34441	10836.325
2692.96396	10789.925
2695.58188	10828.725
2698.19818	10820.225
2700.81285	10821.525
2703.4259	10756.325
2706.03733	10703.625
2708.64714	10739.325
2711.25533	10782.825
2713.86191	10828.425
2716.46687	10898.225
2719.07021	10878.325
2721.67194	10923.625
2724.27206	10915.025
2726.87057	10903.125
2729.46747	10917.625
2732.06276	10930.125
2734.65644	10890.125
2737.24852	10907.125
2739.83899	10909.425
2742.42786	10894.425
2745.01513	10878.925
2747.60079	10905.525
2750.18486	10868.425
2752.76733	10868.525
2755.3482	10834.625
2757.92747	10834.725
2760.50515	10843.525
2763.08123	10815.325
2765.65573	10820.525
2768.22863	10818.625
2770.79994	10805.325
2773.36967	10816.525
2775.9378	10804.925
2778.50435	10804.725
2781.06932	10796.025
2783.6327	10833.625
2786.1945	10800.525
2788.75471	10791.125
2791.31335	10763.025
2793.87041	10769.025
2796.42589	10712.125
2798.97979	10731.825
2801.53212	10708.125
2804.08288	10683.625
2806.63206	10680.725
2809.17967	10652.425
2811.72571	10643.225
2814.27018	10658.025
2816.81308	10617.125
2819.35442	10612.125
2821.89419	10614.325
2824.43239	10581.625
2826.96904	10568.425
2829.50412	10568.125
2832.03763	10545.725
2834.56959	10543.425
2837.1	10517.925
2839.62884	10531.425
2842.15613	10514.125
2844.68186	10554.825
2847.20604	10538.125
2849.72867	10512.125
2852.24974	10513.525
2854.76927	10463.225
2857.28724	10450.525
2859.80367	10472.325
2862.31855	10465.125
2864.83189	10468.425
2867.34368	10457.925
2869.85393	10483.725
2872.36264	10476.625
2874.8698	10484.525
2877.37543	10461.725
2879.87952	10486.225
2882.38207	10493.125
2884.88308	10482.125
2887.38256	10467.725
2889.88051	10477.125
2892.37692	10492.825
2894.8718	10461.525
2897.36515	10493.725
2899.85698	10515.225
2902.34727	10503.025
2904.83604	10529.425
2907.32328	10517.325
2909.809	10528.525
2912.29319	10556.525
2914.77587	10567.425
2917.25702	10557.225
2919.73665	10552.225
2922.21476	10535.925
2924.69136	10506.625
2927.16644	10511.225
2929.64	10487.525
2932.11205	10469.025
2934.58258	10426.625
2937.05161	10463.925
2939.51912	10440.425
2941.98513	10450.325
2944.44962	10410.325
2946.91261	10396.825
2949.37409	10410.225
2951.83407	10404.925
2954.29254	10378.925
2956.74951	10370.225
2959.20498	10380.425
2961.65895	10351.525
2964.11142	10357.825
2966.56239	10351.225
2969.01186	10330.225
2971.45984	10325.725
2973.90632	10308.025
2976.35131	10263.325
2978.7948	10264.525
2981.23681	10234.425
2983.67732	10225.525
2986.11635	10187.925
2988.55388	10206.525
2990.98993	10163.325
2993.4245	10137.525
2995.85758	10108.125
2998.28917	10089.625
3000.71928	10081.125
3003.14791	10039.725
3005.57506	10027.725
3008.00073	10016.625
3010.42493	9982.125
3012.84764	9976.425
3015.26888	9963.425
3017.68865	9946.325
3020.10694	9939.625
3022.52376	9910.025
3024.9391	9908.625
3027.35298	9894.125
3029.76539	9893.925
3032.17632	9885.625
3034.5858	9879.925
3036.9938	9847.125
3039.40034	9833.225
3041.80542	9832.025
3044.20903	9803.825
3046.61118	9793.825
3049.01187	9781.725
3051.4111	9769.125
3053.80888	9752.725
3056.20519	9747.725
3058.60005	9727.225
3060.99345	9705.125
3063.3854	9684.725
3065.7759	9659.425
3068.16494	9631.225
3070.55254	9596.625
3072.93868	9593.025
3075.32338	9553.025
3077.70662	9520.725
3080.08842	9498.725
3082.46878	9467.125
3084.84769	9463.525
3087.22515	9465.925
3089.60118	9446.225
3091.97576	9453.925
3094.3489	9454.925
3096.72061	9471.925
3099.09087	9484.025
3101.4597	9458.225
3103.82709	9441.325
3106.19305	9433.525
3108.55757	9437.225
3110.92066	9411.725
3113.28232	9402.525
3115.64255	9364.625
3118.00134	9381.325
3120.35871	9328.925
3122.71466	9310.325
3125.06917	9291.425
3127.42226	9290.925
3129.77393	9270.825
3132.12417	9244.625
3134.47299	9233.725
