Data from AgNPs_FTO_APTES_UA_50uM_CRN_0uM_R6G_10uM_NaF_0.1M_Addition_RamanShift__16__10-28-54-639.txt Node

Date: Mon Feb 21 10:28:54 GMT 2022
User: TCL
Spectrometer: QEP01345
Trigger mode: 4
Integration Time (sec): 7.000000E0
Scans to average: 10
Electric dark correction enabled: true
Nonlinearity correction enabled: false
Boxcar width: 0
XAxis mode: Raman Shifts
Number of Pixels in Spectrum: 1044
>>>>>Begin Spectral Data<<<<<
46.04893	0.75
50.45542	1.15
54.85868	-0.85
59.25871	-0.85
63.6555	21.85
68.04907	24.95
72.43941	26.45
76.82654	25.55
81.21044	30.55
85.59113	32.25
89.96862	30.35
94.34289	36.55
98.71396	34.15
103.08183	37.85
107.4465	38.35
111.80798	35.65
116.16626	34.15
120.52136	33.65
124.87327	43.25
129.222	33.95
133.56755	36.75
137.90993	38.35
142.24913	39.65
146.58517	42.45
150.91804	45.75
155.24774	54.95
159.57429	55.45
163.89768	66.75
168.21792	83.45
172.53501	108.55
176.84895	149.75
181.15975	201.65
185.46741	272.65
189.77193	377.75
194.07331	495.45
198.37157	633.25
202.6667	779.65
206.9587	924.85
211.24758	1071.45
215.53334	1210.15
219.81599	1379.45
224.09553	1556.75
228.37195	1754.25
232.64527	1988.05
236.91549	2222.35
241.18261	2420.45
245.44663	2618.15
249.70755	2786.95
253.96539	2895.35
258.22014	2968.75
262.4718	3014.25
266.72039	3031.85
270.96589	3038.15
275.20832	2998.35
279.44768	2930.05
283.68397	2858.95
287.91719	2806.25
292.14735	2791.05
296.37445	2832.45
300.59849	2940.95
304.81948	3103.55
309.03742	3223.35
313.25231	3254.65
317.46415	3120.75
321.67296	2869.55
325.87872	2657.05
330.08145	2565.55
334.28114	2544.65
338.47781	2578.35
342.67145	2643.15
346.86207	2781.95
351.04966	2951.45
355.23424	3170.55
359.4158	3356.15
363.59435	3452.15
367.76989	3476.35
371.94243	3473.45
376.11196	3443.55
380.27849	3408.15
384.44203	3357.25
388.60257	3295.55
392.76012	3248.05
396.91468	3259.95
401.06626	3313.05
405.21485	3395.95
409.36047	3344.45
413.50311	3258.75
417.64277	3212.05
421.77947	3171.55
425.9132	2887.95
430.04396	2743.85
434.17176	2758.05
438.2966	2873.45
442.41849	3015.95
446.53742	3191.95
450.6534	3339.75
454.76644	3403.15
458.87653	3397.95
462.98368	3321.95
467.08789	3215.55
471.18916	3130.45
475.2875	3028.65
479.38291	2922.95
483.4754	2816.15
487.56496	2749.05
491.6516	2710.45
495.73531	2698.75
499.81612	2696.55
503.89401	2730.85
507.96899	2757.85
512.04106	2839.45
516.11023	2932.85
520.1765	2999.65
524.23987	3005.15
528.30034	2970.75
532.35792	2914.75
536.41261	2823.05
540.46441	2754.15
544.51333	2701.35
548.55936	2696.05
552.60252	2725.65
556.64279	2793.25
560.6802	2815.35
564.71473	2833.55
568.7464	2945.35
572.7752	3035.35
576.80114	2921.75
580.82422	2784.75
584.84444	2744.95
588.86181	2791.65
592.87633	2941.35
596.888	3015.35
600.89682	3028.05
604.9028	3332.15
608.90594	4350.55
612.90624	5737.55
616.90371	5650.55
620.89834	3928.15
624.89015	3021.95
628.87913	2824.15
632.86528	2834.55
636.84862	2858.65
640.82913	2805.95
644.80683	2650.25
648.78172	2551.25
652.75379	2526.45
656.72306	2641.35
660.68952	2798.05
664.65319	2754.45
668.61405	2564.95
672.57211	2477.25
676.52738	2454.75
680.47986	2458.75
684.42955	2408.95
688.37646	2417.75
692.32058	2446.05
696.26192	2477.65
700.20048	2503.05
704.13626	2521.25
708.06928	2489.05
711.99952	2469.25
715.927	2456.85
719.85171	2505.85
723.77365	2512.05
727.69284	2499.45
731.60928	2485.85
735.52295	2491.15
739.43388	2504.45
743.34206	2513.05
747.24749	2508.55
751.15017	2508.05
755.05012	2542.75
758.94733	2666.05
762.8418	2984.15
766.73354	3527.15
770.62254	4122.15
774.50882	4521.75
778.39237	4477.15
782.27321	3886.55
786.15132	3198.85
790.02671	2776.55
793.89938	2601.65
797.76935	2544.55
801.6366	2517.65
805.50115	2534.75
809.36299	2554.75
813.22213	2532.25
817.07857	2520.15
820.93231	2485.15
824.78336	2467.15
828.63172	2465.35
832.47738	2463.35
836.32036	2453.95
840.16066	2435.95
843.99827	2416.95
847.8332	2401.35
851.66546	2399.15
855.49504	2391.65
859.32195	2391.75
863.1462	2374.25
866.96777	2368.25
870.78668	2382.05
874.60293	2392.85
878.41652	2416.05
882.22745	2454.25
886.03573	2478.75
889.84136	2470.95
893.64433	2439.95
897.44466	2426.25
901.24235	2395.25
905.0374	2366.05
908.8298	2332.05
912.61957	2302.95
916.40671	2314.45
920.19121	2336.45
923.97308	2360.25
927.75233	2405.25
931.52895	2433.35
935.30295	2415.85
939.07433	2337.25
942.84309	2264.15
946.60924	2216.65
950.37278	2190.65
954.13371	2170.45
957.89203	2158.35
961.64774	2143.35
965.40086	2138.95
969.15137	2138.15
972.89929	2128.45
976.64461	2125.35
980.38733	2123.15
984.12747	2112.65
987.86502	2124.55
991.59999	2136.35
995.33237	2176.05
999.06217	2236.15
1002.78939	2303.75
1006.51404	2347.15
1010.23611	2398.25
1013.95561	2457.65
1017.67255	2433.25
1021.38692	2364.45
1025.09872	2296.85
1028.80796	2252.35
1032.51465	2232.85
1036.21877	2264.65
1039.92035	2309.65
1043.61937	2333.65
1047.31584	2336.15
1051.00976	2309.25
1054.70114	2283.75
1058.38998	2269.35
1062.07627	2277.65
1065.76003	2261.45
1069.44126	2266.65
1073.11995	2282.55
1076.79611	2340.35
1080.46974	2430.15
1084.14085	2504.95
1087.80943	2578.45
1091.47549	2593.95
1095.13903	2523.15
1098.80005	2387.95
1102.45857	2303.05
1106.11456	2274.35
1109.76805	2327.85
1113.41903	2411.05
1117.06751	2536.65
1120.71348	2701.15
1124.35696	2903.65
1127.99793	3063.65
1131.63641	3040.25
1135.2724	2853.95
1138.90589	2692.75
1142.5369	2548.15
1146.16542	2463.05
1149.79145	2392.25
1153.415	2358.45
1157.03607	2367.35
1160.65467	2407.75
1164.27079	2504.25
1167.88443	2668.45
1171.49561	2937.75
1175.10432	3398.15
1178.71056	4029.85
1182.31434	4511.95
1185.91565	4671.85
1189.51451	4600.45
1193.11091	4383.05
1196.70485	4086.25
1200.29634	3799.45
1203.88538	3507.85
1207.47197	3163.25
1211.05612	2896.85
1214.63782	2763.35
1218.21708	2714.45
1221.79391	2680.85
1225.36829	2642.25
1228.94024	2595.35
1232.50976	2564.35
1236.07685	2586.35
1239.6415	2636.05
1243.20374	2686.75
1246.76355	2667.55
1250.32093	2664.85
1253.8759	2725.85
1257.42845	2824.25
1260.97859	2953.85
1264.52631	3122.75
1268.07163	3243.55
1271.61453	3328.75
1275.15503	3350.15
1278.69312	3334.15
1282.22882	3351.55
1285.76211	3473.85
1289.29301	3663.25
1292.82151	3864.85
1296.34761	4053.45
1299.87133	4265.35
1303.39266	4619.55
1306.9116	5154.15
1310.42815	5776.75
1313.94233	6073.75
1317.45412	5879.85
1320.96354	5322.15
1324.47058	4702.15
1327.97525	4194.35
1331.47754	3968.65
1334.97747	3995.45
1338.47502	4199.45
1341.97022	4423.45
1345.46305	4643.35
1348.95352	4977.85
1352.44163	5514.25
1355.92738	6326.55
1359.41078	7309.85
1362.89183	7971.95
1366.37053	7601.65
1369.84688	6539.55
1373.32088	5418.55
1376.79254	4648.15
1380.26186	4167.85
1383.72883	3855.45
1387.19347	3536.35
1390.65578	3245.15
1394.11575	3037.35
1397.57339	2938.55
1401.0287	2920.75
1404.48168	2932.35
1407.93234	2975.55
1411.38068	3031.65
1414.82669	3057.65
1418.27039	3032.55
1421.71177	2961.15
1425.15083	2911.55
1428.58758	2935.85
1432.02203	3041.15
1435.45416	3125.95
1438.88399	3172.25
1442.31151	3163.35
1445.73673	3133.75
1449.15965	3137.65
1452.58027	3070.65
1455.9986	2977.85
1459.41463	2927.15
1462.82837	2957.85
1466.23982	3090.75
1469.64898	3222.85
1473.05586	3355.35
1476.46045	3468.95
1479.86276	3579.85
1483.26279	3694.65
1486.66054	3789.25
1490.05602	3880.65
1493.44922	3966.35
1496.84016	4106.05
1500.22882	4488.65
1503.61521	5088.45
1506.99934	5743.25
1510.38121	6286.05
1513.76081	6427.25
1517.13816	5962.45
1520.51324	5030.25
1523.88607	4220.95
1527.25665	3744.75
1530.62498	3531.25
1533.99105	3466.65
1537.35488	3423.95
1540.71647	3437.95
1544.07581	3427.35
1547.4329	3398.15
1550.78776	3344.25
1554.14038	3248.25
1557.49077	3171.35
1560.83892	3155.65
1564.18484	3236.45
1567.52853	3378.85
1570.86999	3542.95
1574.20922	3656.95
1577.54624	3670.35
1580.88103	3443.15
1584.2136	3126.25
1587.54395	2934.55
1590.87208	2960.95
1594.19801	3205.25
1597.52172	3617.25
1600.84321	3938.65
1604.16251	3957.95
1607.47959	3650.55
1610.79447	3210.35
1614.10715	2768.35
1617.41763	2474.55
1620.7259	2306.05
1624.03199	2222.15
1627.33587	2208.25
1630.63757	2250.35
1633.93707	2363.55
1637.23439	2585.35
1640.52951	2972.05
1643.82246	3523.75
1647.11321	4142.45
1650.40179	4453.85
1653.68819	4169.55
1656.97241	3435.25
1660.25446	2720.55
1663.53433	2208.55
1666.81203	1949.15
1670.08756	1802.75
1673.36092	1736.85
1676.63211	1684.45
1679.90115	1654.95
1683.16801	1618.65
1686.43272	1588.85
1689.69527	1534.55
1692.95567	1473.85
1696.2139	1366.85
1699.46999	1265.35
1702.72392	1235.75
1705.97571	1315.35
1709.22535	1398.35
1712.47284	1470.85
1715.71819	1505.45
1718.96139	1522.25
1722.20246	1526.95
1725.44139	1513.35
1728.67818	1506.35
1731.91284	1482.95
1735.14537	1467.75
1738.37576	1445.35
1741.60403	1421.95
1744.83017	1409.15
1748.05418	1376.35
1751.27607	1341.15
1754.49584	1303.35
1757.71349	1231.05
1760.92903	1188.75
1764.14244	1198.05
1767.35375	1199.55
1770.56294	1187.35
1773.77002	1198.55
1776.97499	1246.25
1780.17785	1292.95
1783.37861	1329.75
1786.57727	1328.35
1789.77382	1337.55
1792.96828	1341.25
1796.16064	1355.95
1799.3509	1349.95
1802.53907	1343.95
1805.72514	1338.05
1808.90913	1334.25
1812.09102	1335.55
1815.27083	1319.95
1818.44856	1313.65
1821.6242	1307.95
1824.79776	1312.85
1827.96924	1312.05
1831.13864	1306.55
1834.30597	1296.65
1837.47122	1307.65
1840.6344	1295.55
1843.7955	1292.65
1846.95454	1290.55
1850.11151	1281.85
1853.26642	1283.05
1856.41926	1283.95
1859.57004	1276.05
1862.71876	1277.25
1865.86542	1275.45
1869.01003	1263.55
1872.15258	1272.25
1875.29308	1267.55
1878.43152	1259.45
1881.56792	1258.05
1884.70227	1253.35
1887.83457	1256.75
1890.96482	1259.85
1894.09304	1244.55
1897.21921	1249.65
1900.34335	1242.65
1903.46544	1242.95
1906.58551	1239.95
1909.70353	1243.85
1912.81953	1231.85
1915.93349	1240.55
1919.04543	1230.35
1922.15534	1221.65
1925.26322	1226.25
1928.36908	1227.25
1931.47292	1214.85
1934.57473	1203.15
1937.67453	1207.15
1940.77232	1194.55
1943.86808	1189.45
1946.96184	1192.45
1950.05358	1182.15
1953.14331	1177.25
1956.23103	1172.05
1959.31675	1158.15
1962.40046	1164.95
1965.48217	1161.15
1968.56188	1155.35
1971.63959	1161.15
1974.7153	1144.65
1977.78901	1150.65
1980.86073	1136.45
1983.93046	1143.15
1986.99819	1131.85
1990.06394	1123.15
1993.1277	1124.25
1996.18947	1120.35
1999.24925	1105.05
2002.30706	1107.65
2005.36288	1105.85
2008.41672	1097.15
2011.46859	1096.95
2014.51848	1086.15
2017.56639	1073.75
2020.61233	1076.05
2023.6563	1076.25
2026.6983	1072.45
2029.73833	1071.05
2032.7764	1060.15
2035.8125	1056.65
2038.84664	1058.75
2041.87881	1053.55
2044.90903	1046.15
2047.93729	1047.25
2050.96359	1045.45
2053.98794	1028.85
2057.01034	1043.25
2060.03078	1032.65
2063.04927	1033.35
2066.06582	1027.85
2069.08042	1026.45
2072.09307	1027.65
2075.10378	1029.55
2078.11255	1018.05
2081.11938	1026.65
2084.12426	1023.35
2087.12722	1023.35
2090.12824	1025.55
2093.12732	1017.25
2096.12447	1015.45
2099.11969	1014.45
2102.11299	1018.45
2105.10435	1025.45
2108.09379	1012.05
2111.08131	1019.55
2114.0669	1010.15
2117.05057	1005.95
2120.03233	1007.25
2123.01216	1008.15
2125.99008	1015.85
2128.96609	1013.15
2131.94018	1008.85
2134.91236	1007.05
2137.88263	1006.55
2140.851	1008.45
2143.81746	1002.45
2146.78201	1001.35
2149.74466	994.35
2152.7054	997.15
2155.66425	989.25
2158.6212	988.15
2161.57625	988.15
2164.52941	993.25
2167.48067	981.25
2170.43004	977.55
2173.37752	976.45
2176.32311	982.55
2179.26681	976.85
2182.20863	980.55
2185.14856	983.85
2188.08661	978.35
2191.02278	978.55
2193.95707	977.45
2196.88948	979.65
2199.82001	970.25
2202.74867	969.45
2205.67545	963.45
2208.60037	964.35
2211.52341	966.25
2214.44458	954.45
2217.36388	952.95
2220.28132	949.15
2223.1969	945.85
2226.11061	934.15
2229.02246	938.85
2231.93245	929.95
2234.84058	928.75
2237.74686	931.25
2240.65128	923.55
2243.55385	926.75
2246.45456	920.75
2249.35343	924.65
2252.25044	915.65
2255.14561	916.15
2258.03893	911.45
2260.93041	890.05
2263.82004	900.75
2266.70783	905.05
2269.59378	908.95
2272.4779	905.15
2275.36017	909.05
2278.24061	900.85
2281.11922	899.55
2283.996	889.55
2286.87094	898.75
2289.74405	886.65
2292.61534	889.65
2295.4848	887.15
2298.35243	877.35
2301.21824	875.25
2304.08223	873.85
2306.94439	870.35
2309.80474	868.75
2312.66327	876.45
2315.51999	867.45
2318.37489	866.65
2321.22797	865.15
2324.07925	858.35
2326.92871	860.05
2329.77637	866.55
2332.62222	856.95
2335.46626	850.25
2338.3085	847.75
2341.14893	849.75
2343.98756	853.85
2346.8244	851.45
2349.65943	847.55
2352.49267	851.95
2355.32411	854.85
2358.15376	852.25
2360.98161	862.25
2363.80768	862.55
2366.63195	864.05
2369.45444	862.35
2372.27514	865.85
2375.09405	870.95
2377.91118	863.05
2380.72652	859.35
2383.54009	851.05
2386.35187	852.35
2389.16188	841.85
2391.97011	838.85
2394.77657	828.95
2397.58125	829.35
2400.38416	825.65
2403.18529	821.05
2405.98466	816.15
2408.78226	821.65
2411.57809	813.35
2414.37216	811.15
2417.16446	803.55
2419.955	806.55
2422.74378	812.05
2425.5308	803.25
2428.31606	813.05
2431.09956	801.45
2433.88131	810.85
2436.6613	806.95
2439.43954	805.65
2442.21603	804.15
2444.99077	815.45
2447.76377	810.55
2450.53501	811.45
2453.30451	808.65
2456.07226	811.85
2458.83827	805.35
2461.60254	807.15
2464.36507	798.75
2467.12586	794.65
2469.88492	806.85
2472.64224	795.95
2475.39782	790.65
2478.15167	777.05
2480.90379	803.65
2483.65417	799.15
2486.40283	804.85
2489.14976	817.85
2491.89497	814.35
2494.63845	795.95
2497.3802	785.35
2500.12024	805.55
2502.85855	805.95
2505.59514	795.75
2508.33002	800.75
2511.06318	790.05
2513.79462	787.05
2516.52435	783.25
2519.25237	787.05
2521.97867	780.55
2524.70327	776.75
2527.42616	769.75
2530.14734	777.65
2532.86681	776.65
2535.58458	774.45
2538.30065	767.75
2541.01501	772.75
2543.72768	772.55
2546.43864	773.75
2549.14791	772.95
2551.85548	779.95
2554.56136	769.75
2557.26554	773.85
2559.96803	770.25
2562.66883	769.95
2565.36794	765.95
2568.06536	772.35
2570.7611	768.25
2573.45514	765.55
2576.14751	768.65
2578.83819	763.65
2581.52719	757.85
2584.21451	758.15
2586.90015	759.15
2589.58411	753.35
2592.2664	749.15
2594.94701	756.95
2597.62594	755.35
2600.30321	747.95
2602.9788	751.75
2605.65273	745.65
2608.32498	753.05
2610.99557	742.55
2613.66449	756.25
2616.33175	754.35
2618.99734	751.25
2621.66128	748.45
2624.32355	747.35
2626.98416	745.95
2629.64311	747.05
2632.30041	740.75
2634.95605	743.15
2637.61004	751.35
2640.26238	739.05
2642.91306	741.15
2645.56209	731.45
2648.20948	727.25
2650.85521	724.55
2653.4993	731.05
2656.14175	733.05
2658.78255	739.65
2661.42171	745.85
2664.05923	754.55
2666.6951	748.85
2669.32934	754.65
2671.96194	752.55
2674.59291	754.55
2677.22224	754.25
2679.84993	757.75
2682.476	753.35
2685.10043	758.45
2687.72324	759.45
2690.34441	752.35
2692.96396	758.75
2695.58188	755.75
2698.19818	758.85
2700.81285	762.25
2703.4259	729.75
2706.03733	635.75
2708.64714	689.55
2711.25533	727.55
2713.86191	748.25
2716.46687	765.75
2719.07021	768.75
2721.67194	782.35
2724.27206	784.25
2726.87057	791.25
2729.46747	786.95
2732.06276	787.35
2734.65644	784.55
2737.24852	780.65
2739.83899	776.75
2742.42786	786.85
2745.01513	785.45
2747.60079	783.95
2750.18486	783.05
2752.76733	782.25
2755.3482	790.15
2757.92747	786.65
2760.50515	786.35
2763.08123	791.75
2765.65573	792.15
2768.22863	788.15
2770.79994	795.35
2773.36967	800.75
2775.9378	808.25
2778.50435	823.05
2781.06932	821.65
2783.6327	828.45
2786.1945	829.65
2788.75471	840.45
2791.31335	843.15
2793.87041	852.35
2796.42589	855.25
2798.97979	866.25
2801.53212	871.05
2804.08288	877.25
2806.63206	885.15
2809.17967	889.75
2811.72571	898.25
2814.27018	903.05
2816.81308	910.95
2819.35442	923.45
2821.89419	925.35
2824.43239	938.85
2826.96904	936.15
2829.50412	931.85
2832.03763	937.95
2834.56959	938.45
2837.1	937.35
2839.62884	951.25
2842.15613	961.05
2844.68186	975.65
2847.20604	1003.25
2849.72867	1022.15
2852.24974	1025.55
2854.76927	1021.65
2857.28724	985.65
2859.80367	1000.25
2862.31855	1008.85
2864.83189	1003.45
2867.34368	1005.05
2869.85393	1005.75
2872.36264	1004.05
2874.8698	1001.55
2877.37543	994.95
2879.87952	993.55
2882.38207	987.75
2884.88308	978.45
2887.38256	979.65
2889.88051	979.85
2892.37692	978.85
2894.8718	973.85
2897.36515	974.85
2899.85698	976.35
2902.34727	973.35
2904.83604	971.65
2907.32328	971.55
2909.809	978.75
2912.29319	967.25
2914.77587	961.55
2917.25702	961.05
2919.73665	949.35
2922.21476	956.65
2924.69136	952.35
2927.16644	945.95
2929.64	932.75
2932.11205	930.25
2934.58258	916.75
2937.05161	908.95
2939.51912	892.55
2941.98513	880.05
2944.44962	853.35
2946.91261	845.95
2949.37409	826.95
2951.83407	815.75
2954.29254	814.25
2956.74951	799.95
2959.20498	789.35
2961.65895	782.35
2964.11142	777.45
2966.56239	775.05
2969.01186	779.75
2971.45984	760.25
2973.90632	763.15
2976.35131	754.45
2978.7948	748.55
2981.23681	741.25
2983.67732	736.45
2986.11635	735.85
2988.55388	728.15
2990.98993	727.45
2993.4245	716.45
2995.85758	712.05
2998.28917	706.95
3000.71928	709.75
3003.14791	706.05
3005.57506	707.15
3008.00073	699.25
3010.42493	704.25
3012.84764	701.05
3015.26888	700.15
3017.68865	702.75
3020.10694	699.45
3022.52376	702.45
3024.9391	701.55
3027.35298	698.75
3029.76539	697.75
3032.17632	704.95
3034.5858	697.55
3036.9938	695.75
3039.40034	699.15
3041.80542	701.35
3044.20903	697.85
3046.61118	698.35
3049.01187	699.05
3051.4111	700.55
3053.80888	708.05
3056.20519	700.25
3058.60005	702.35
3060.99345	705.85
3063.3854	705.65
3065.7759	706.45
3068.16494	711.15
3070.55254	713.05
3072.93868	708.45
3075.32338	711.35
3077.70662	702.85
3080.08842	704.05
3082.46878	704.35
3084.84769	708.15
3087.22515	708.15
3089.60118	706.35
3091.97576	709.95
3094.3489	713.25
3096.72061	712.15
3099.09087	717.05
3101.4597	714.15
3103.82709	718.85
3106.19305	721.75
3108.55757	717.75
3110.92066	725.85
3113.28232	725.95
3115.64255	727.75
3118.00134	730.15
3120.35871	740.35
3122.71466	738.25
3125.06917	742.35
3127.42226	733.35
3129.77393	743.45
3132.12417	751.45
3134.47299	749.95
3136.82039	758.05
3139.16636	762.45
3141.51092	768.45
3143.85406	766.25
3146.19579	779.85
3148.53609	783.75
3150.87499	777.65
3153.21246	784.55
3155.54853	798.75
3157.88318	799.85
3160.21642	807.95
3162.54826	804.95
3164.87868	811.95
3167.2077	819.85
3169.5353	816.05
3171.86151	829.25
3174.18631	828.75
3176.5097	829.65
3178.83169	836.95
3181.15228	843.65
3183.47147	840.15
3185.78926	852.15
3188.10565	846.55
3190.42065	849.05
3192.73424	859.05
3195.04645	860.65
3197.35725	858.45
3199.66667	868.95
3201.97469	865.85
3204.28132	872.85
3206.58656	876.35
3208.8904	886.95
3211.19287	889.15
3213.49394	893.95
3215.79363	888.05
3218.09193	896.15
3220.38884	884.75
3222.68438	859.05
3224.97853	876.55
3227.2713	898.15
3229.56269	901.05
3231.8527	897.45
3234.14133	906.35
3236.42858	902.15
3238.71446	903.55
3240.99896	898.85
3243.28209	907.25
3245.56384	911.05
3247.84423	908.05
3250.12324	910.65
3252.40088	911.05
3254.67715	912.15
3256.95205	912.15
3259.22558	915.65
3261.49775	915.25
3263.76855	912.35
3266.03799	922.25
3268.30606	909.45
3270.57277	915.35
3272.83812	903.35
3275.10211	911.15
3277.36474	905.45
3279.62601	910.05
3281.88593	908.35
3284.14448	907.85
3286.40168	910.35
3288.65753	916.85
3290.91202	912.25
3293.16516	912.55
3295.41695	903.75
3297.66738	901.35
3299.91647	896.25
3302.16421	896.55
3304.4106	881.25
3306.65564	886.65
3308.89933	866.75
3311.14169	866.15
3313.38269	840.75
3315.62236	844.45
3317.86068	840.15
3320.09766	843.15
3322.3333	833.05
3324.5676	830.85
3326.80056	774.85
3329.03219	796.05
3331.26248	0.15
3333.49143	-1.55
3335.71905	0.45
