Data from AgNPs_FTO_APTES_UA_50uM_CRN_500uM_R6G_10uM_NaF_0.1M_Addition_RamanShift__25__17-11-03-551.txt Node

Date: Mon Feb 21 17:11:03 GMT 2022
User: TCL
Spectrometer: QEP01345
Trigger mode: 4
Integration Time (sec): 7.000000E0
Scans to average: 10
Electric dark correction enabled: true
Nonlinearity correction enabled: false
Boxcar width: 0
XAxis mode: Raman Shifts
Number of Pixels in Spectrum: 1044
>>>>>Begin Spectral Data<<<<<
46.04893	-1.425
50.45542	-0.325
54.85868	-0.225
59.25871	-1.525
63.6555	59.275
68.04907	65.475
72.43941	71.575
76.82654	74.275
81.21044	77.975
85.59113	77.275
89.96862	85.675
94.34289	85.875
98.71396	90.975
103.08183	89.475
107.4465	92.275
111.80798	97.675
116.16626	94.475
120.52136	99.075
124.87327	100.675
129.222	108.875
133.56755	114.075
137.90993	119.775
142.24913	126.675
146.58517	139.775
150.91804	157.175
155.24774	185.875
159.57429	230.375
163.89768	290.275
168.21792	385.275
172.53501	523.675
176.84895	734.175
181.15975	1022.675
185.46741	1425.675
189.77193	1985.975
194.07331	2655.275
198.37157	3423.775
202.6667	4243.575
206.9587	5067.075
211.24758	5893.375
215.53334	6743.075
219.81599	7658.875
224.09553	8688.175
228.37195	9856.275
232.64527	11110.575
236.91549	12389.075
241.18261	13600.775
245.44663	14666.575
249.70755	15502.075
253.96539	16276.075
258.22014	16946.275
262.4718	17475.575
266.72039	17785.175
270.96589	17886.375
275.20832	17763.775
279.44768	17415.475
283.68397	17051.875
287.91719	16791.475
292.14735	16711.675
296.37445	16999.375
300.59849	17534.975
304.81948	18116.575
309.03742	18520.575
313.25231	18439.275
317.46415	17680.575
321.67296	16636.275
325.87872	15794.075
330.08145	15429.075
334.28114	15406.175
338.47781	15649.275
342.67145	16011.275
346.86207	16605.275
351.04966	17377.575
355.23424	18300.075
359.4158	19022.175
363.59435	19421.475
367.76989	19552.875
371.94243	19624.375
376.11196	19588.375
380.27849	19522.375
384.44203	19368.075
388.60257	19196.175
392.76012	19112.675
396.91468	19186.675
401.06626	19488.375
405.21485	19701.275
409.36047	19431.075
413.50311	18622.875
417.64277	17837.075
421.77947	17359.175
425.9132	17196.875
430.04396	17208.475
434.17176	17301.075
438.2966	17581.275
442.41849	17962.475
446.53742	18484.775
450.6534	18993.875
454.76644	19290.775
458.87653	19316.875
462.98368	19103.675
467.08789	18794.775
471.18916	18434.575
475.2875	18051.975
479.38291	17708.675
483.4754	17488.375
487.56496	17271.075
491.6516	17101.975
495.73531	16984.075
499.81612	17007.975
503.89401	17161.475
507.96899	17359.975
512.04106	17619.975
516.11023	17838.175
520.1765	18009.675
524.23987	17994.075
528.30034	17838.175
532.35792	17594.675
536.41261	17388.575
540.46441	17086.975
544.51333	16915.175
548.55936	16927.475
552.60252	17232.075
556.64279	17583.775
560.6802	17789.575
564.71473	17997.975
568.7464	18512.475
572.7752	18779.475
576.80114	18317.975
580.82422	17820.575
584.84444	17694.075
588.86181	17903.275
592.87633	18346.575
596.888	18656.175
600.89682	18896.075
604.9028	20371.275
608.90594	24949.875
612.90624	30833.075
616.90371	29431.975
620.89834	21722.375
624.89015	18163.375
628.87913	17477.575
632.86528	17677.275
636.84862	17902.175
640.82913	17662.775
644.80683	16988.475
648.78172	16471.875
652.75379	16392.375
656.72306	16918.775
660.68952	17535.875
664.65319	17426.975
668.61405	16775.675
672.57211	16499.775
676.52738	16581.775
680.47986	16627.375
684.42955	16490.075
688.37646	16320.675
692.32058	16294.375
696.26192	16331.275
700.20048	16484.375
704.13626	16577.275
708.06928	16494.275
711.99952	16317.175
715.927	16295.075
719.85171	16372.775
723.77365	16374.175
727.69284	16327.975
731.60928	16255.775
735.52295	16259.675
739.43388	16318.675
743.34206	16323.775
747.24749	16396.075
751.15017	16379.175
755.05012	16536.575
758.94733	17180.475
762.8418	18629.675
766.73354	21271.875
770.62254	24026.475
774.50882	25497.075
778.39237	24536.275
782.27321	21525.475
786.15132	18694.075
790.02671	17073.775
793.89938	16382.275
797.76935	16103.075
801.6366	15962.775
805.50115	15936.575
809.36299	15844.775
813.22213	15785.575
817.07857	15757.175
820.93231	15681.075
824.78336	15677.275
828.63172	15702.775
832.47738	15695.075
836.32036	15645.975
840.16066	15584.675
843.99827	15529.275
847.8332	15506.475
851.66546	15507.775
855.49504	15525.175
859.32195	15565.075
863.1462	15562.875
866.96777	15522.575
870.78668	15508.375
874.60293	15480.775
878.41652	15494.375
882.22745	15573.475
886.03573	15627.275
889.84136	15601.575
893.64433	15506.175
897.44466	15438.575
901.24235	15422.375
905.0374	15318.375
908.8298	15209.675
912.61957	15054.475
916.40671	15113.875
920.19121	15226.875
923.97308	15301.175
927.75233	15470.475
931.52895	15653.575
935.30295	15587.475
939.07433	15194.875
942.84309	14896.375
946.60924	14673.875
950.37278	14574.375
954.13371	14494.275
957.89203	14412.875
961.64774	14380.575
965.40086	14309.575
969.15137	14254.375
972.89929	14183.875
976.64461	14148.675
980.38733	14114.575
984.12747	14169.675
987.86502	14240.375
991.59999	14329.775
995.33237	14518.175
999.06217	14807.475
1002.78939	15172.175
1006.51404	15476.575
1010.23611	15699.275
1013.95561	15834.875
1017.67255	15881.675
1021.38692	15679.875
1025.09872	15446.675
1028.80796	15380.875
1032.51465	15497.075
1036.21877	15710.475
1039.92035	15747.375
1043.61937	15709.075
1047.31584	15570.075
1051.00976	15381.375
1054.70114	15235.275
1058.38998	15190.675
1062.07627	15191.875
1065.76003	15175.275
1069.44126	15186.275
1073.11995	15226.475
1076.79611	15416.775
1080.46974	15647.375
1084.14085	15989.375
1087.80943	16380.975
1091.47549	16518.875
1095.13903	16307.675
1098.80005	15891.675
1102.45857	15583.675
1106.11456	15488.175
1109.76805	15683.475
1113.41903	16053.375
1117.06751	16580.175
1120.71348	17277.275
1124.35696	17960.275
1127.99793	18492.075
1131.63641	18385.475
1135.2724	17622.675
1138.90589	16891.475
1142.5369	16413.175
1146.16542	16089.675
1149.79145	15892.275
1153.415	15797.275
1157.03607	15853.975
1160.65467	16112.575
1164.27079	16683.075
1167.88443	17456.775
1171.49561	18659.375
1175.10432	20545.175
1178.71056	23124.275
1182.31434	25366.375
1185.91565	26091.875
1189.51451	25317.075
1193.11091	23670.675
1196.70485	22020.875
1200.29634	20827.175
1203.88538	19930.075
1207.47197	18953.675
1211.05612	18070.875
1214.63782	17493.675
1218.21708	17357.075
1221.79391	17335.875
1225.36829	17323.875
1228.94024	17172.875
1232.50976	16922.475
1236.07685	16806.375
1239.6415	16810.275
1243.20374	16851.575
1246.76355	17024.675
1250.32093	17236.875
1253.8759	17566.975
1257.42845	18019.475
1260.97859	18472.075
1264.52631	18976.575
1268.07163	19502.675
1271.61453	19979.475
1275.15503	20352.975
1278.69312	20613.875
1282.22882	20841.875
1285.76211	21280.075
1289.29301	21861.775
1292.82151	22651.675
1296.34761	23554.775
1299.87133	24965.375
1303.39266	27099.375
1306.9116	30291.075
1310.42815	33546.575
1313.94233	34965.875
1317.45412	33566.375
1320.96354	30860.375
1324.47058	28215.275
1327.97525	26117.375
1331.47754	24789.275
1334.97747	24344.175
1338.47502	24672.775
1341.97022	25417.475
1345.46305	26551.775
1348.95352	28106.675
1352.44163	30093.775
1355.92738	33109.775
1359.41078	37734.275
1362.89183	41758.775
1366.37053	40052.875
1369.84688	33486.875
1373.32088	27452.475
1376.79254	23820.575
1380.26186	22008.375
1383.72883	21120.575
1387.19347	20503.975
1390.65578	19887.575
1394.11575	19454.675
1397.57339	19331.675
1401.0287	19474.375
1404.48168	19759.075
1407.93234	19969.975
1411.38068	20110.875
1414.82669	20140.075
1418.27039	19872.975
1421.71177	19439.775
1425.15083	18948.675
1428.58758	18688.375
1432.02203	18786.975
1435.45416	18998.375
1438.88399	19158.475
1442.31151	19256.775
1445.73673	19440.075
1449.15965	19596.175
1452.58027	19623.075
1455.9986	19504.475
1459.41463	19450.775
1462.82837	19712.275
1466.23982	20160.075
1469.64898	20583.275
1473.05586	20893.075
1476.46045	21024.875
1479.86276	21120.075
1483.26279	21363.575
1486.66054	21653.075
1490.05602	22142.675
1493.44922	22941.175
1496.84016	24129.775
1500.22882	26296.675
1503.61521	29621.175
1506.99934	33672.275
1510.38121	36963.175
1513.76081	37437.075
1517.13816	34552.575
1520.51324	29925.675
1523.88607	25820.275
1527.25665	23276.575
1530.62498	21891.275
1533.99105	21186.175
1537.35488	20712.675
1540.71647	20432.175
1544.07581	20333.175
1547.4329	20340.275
1550.78776	20366.575
1554.14038	20456.275
1557.49077	20618.375
1560.83892	20908.175
1564.18484	21388.775
1567.52853	21996.975
1570.86999	22395.775
1574.20922	22678.775
1577.54624	22540.275
1580.88103	21545.875
1584.2136	20275.375
1587.54395	19648.175
1590.87208	19944.675
1594.19801	21092.775
1597.52172	22634.375
1600.84321	23468.175
1604.16251	22944.975
1607.47959	21577.875
1610.79447	19962.775
1614.10715	18351.375
1617.41763	17082.475
1620.7259	16263.075
1624.03199	15882.575
1627.33587	15921.175
1630.63757	16331.975
1633.93707	17141.675
1637.23439	18455.775
1640.52951	20473.275
1643.82246	23311.275
1647.11321	26416.375
1650.40179	28211.775
1653.68819	26957.875
1656.97241	23173.375
1660.25446	19360.975
1663.53433	16814.975
1666.81203	15306.075
1670.08756	14430.975
1673.36092	13864.975
1676.63211	13532.575
1679.90115	13263.875
1683.16801	13067.175
1686.43272	12901.575
1689.69527	12782.175
1692.95567	12648.075
1696.2139	12607.875
1699.46999	12542.475
1702.72392	12508.075
1705.97571	12504.575
1709.22535	12474.775
1712.47284	12446.075
1715.71819	12408.875
1718.96139	12383.975
1722.20246	12346.375
1725.44139	12277.775
1728.67818	12215.975
1731.91284	12107.375
1735.14537	12039.875
1738.37576	11982.675
1741.60403	11923.575
1744.83017	11929.075
1748.05418	11897.475
1751.27607	11885.775
1754.49584	11854.075
1757.71349	11820.075
1760.92903	11779.775
1764.14244	11754.275
1767.35375	11734.975
1770.56294	11671.275
1773.77002	11623.375
1776.97499	11573.175
1780.17785	11561.675
1783.37861	11532.175
1786.57727	11510.575
1789.77382	11464.675
1792.96828	11442.775
1796.16064	11417.875
1799.3509	11391.775
1802.53907	11376.075
1805.72514	11355.575
1808.90913	11313.875
1812.09102	11253.275
1815.27083	11248.075
1818.44856	11230.075
1821.6242	11208.075
1824.79776	11159.075
1827.96924	11153.975
1831.13864	11132.975
1834.30597	11112.575
1837.47122	11100.875
1840.6344	11106.475
1843.7955	11079.875
1846.95454	11081.375
1850.11151	11075.875
1853.26642	11044.575
1856.41926	11013.475
1859.57004	11008.575
1862.71876	11011.675
1865.86542	11003.175
1869.01003	11011.775
1872.15258	11008.775
1875.29308	11039.075
1878.43152	11005.775
1881.56792	11030.775
1884.70227	10983.075
1887.83457	10951.975
1890.96482	10971.275
1894.09304	10957.775
1897.21921	10946.475
1900.34335	10940.675
1903.46544	10928.775
1906.58551	10948.275
1909.70353	10911.075
1912.81953	10876.975
1915.93349	10883.875
1919.04543	10822.275
1922.15534	10794.475
1925.26322	10767.675
1928.36908	10755.275
1931.47292	10717.475
1934.57473	10684.975
1937.67453	10681.275
1940.77232	10660.175
1943.86808	10606.575
1946.96184	10598.275
1950.05358	10583.175
1953.14331	10537.175
1956.23103	10509.175
1959.31675	10467.575
1962.40046	10435.875
1965.48217	10422.675
1968.56188	10370.475
1971.63959	10350.075
1974.7153	10322.275
1977.78901	10289.875
1980.86073	10257.375
1983.93046	10236.075
1986.99819	10193.875
1990.06394	10143.475
1993.1277	10110.975
1996.18947	10101.975
1999.24925	10033.675
2002.30706	10035.575
2005.36288	9993.675
2008.41672	9966.475
2011.46859	9925.875
2014.51848	9912.475
2017.56639	9884.575
2020.61233	9844.075
2023.6563	9843.275
2026.6983	9795.875
2029.73833	9765.375
2032.7764	9762.275
2035.8125	9727.075
2038.84664	9698.475
2041.87881	9687.075
2044.90903	9660.175
2047.93729	9630.875
2050.96359	9643.175
2053.98794	9627.975
2057.01034	9616.575
2060.03078	9614.075
2063.04927	9588.575
2066.06582	9589.675
2069.08042	9555.275
2072.09307	9550.275
2075.10378	9543.475
2078.11255	9526.575
2081.11938	9522.375
2084.12426	9548.375
2087.12722	9511.875
2090.12824	9508.375
2093.12732	9514.375
2096.12447	9506.675
2099.11969	9508.375
2102.11299	9503.875
2105.10435	9488.175
2108.09379	9498.875
2111.08131	9523.375
2114.0669	9514.575
2117.05057	9530.675
2120.03233	9530.775
2123.01216	9509.175
2125.99008	9539.575
2128.96609	9548.075
2131.94018	9524.975
2134.91236	9533.175
2137.88263	9564.975
2140.851	9542.575
2143.81746	9524.975
2146.78201	9559.075
2149.74466	9547.375
2152.7054	9531.975
2155.66425	9538.975
2158.6212	9516.075
2161.57625	9510.975
2164.52941	9482.675
2167.48067	9496.875
2170.43004	9495.275
2173.37752	9487.775
2176.32311	9477.175
2179.26681	9476.275
2182.20863	9485.575
2185.14856	9499.875
2188.08661	9468.175
2191.02278	9496.675
2193.95707	9476.975
2196.88948	9464.075
2199.82001	9457.775
2202.74867	9461.775
2205.67545	9451.975
2208.60037	9439.275
2211.52341	9416.575
2214.44458	9417.175
2217.36388	9393.175
2220.28132	9380.375
2223.1969	9364.175
2226.11061	9374.475
2229.02246	9354.675
2231.93245	9300.775
2234.84058	9268.675
2237.74686	9262.675
2240.65128	9242.375
2243.55385	9237.375
2246.45456	9210.375
2249.35343	9204.275
2252.25044	9206.175
2255.14561	9190.675
2258.03893	9179.675
2260.93041	9193.875
2263.82004	9182.775
2266.70783	9156.675
2269.59378	9125.175
2272.4779	9084.275
2275.36017	9066.075
2278.24061	9049.575
2281.11922	9025.675
2283.996	8990.875
2286.87094	8981.275
2289.74405	8951.675
2292.61534	8952.975
2295.4848	8955.775
2298.35243	8964.975
2301.21824	8925.175
2304.08223	8928.075
2306.94439	8943.475
2309.80474	8916.675
2312.66327	8938.975
2315.51999	8926.575
2318.37489	8920.275
2321.22797	8883.575
2324.07925	8895.575
2326.92871	8875.075
2329.77637	8848.375
2332.62222	8856.175
2335.46626	8830.275
2338.3085	8824.975
2341.14893	8854.175
2343.98756	8838.675
2346.8244	8826.375
2349.65943	8842.675
2352.49267	8829.075
2355.32411	8852.275
2358.15376	8852.775
2360.98161	8857.975
2363.80768	8861.575
2366.63195	8852.075
2369.45444	8853.975
2372.27514	8844.675
2375.09405	8833.775
2377.91118	8793.375
2380.72652	8758.375
2383.54009	8721.075
2386.35187	8703.075
2389.16188	8655.075
2391.97011	8628.975
2394.77657	8616.875
2397.58125	8608.675
2400.38416	8594.775
2403.18529	8555.175
2405.98466	8531.075
2408.78226	8527.175
2411.57809	8496.975
2414.37216	8493.975
2417.16446	8493.775
2419.955	8490.175
2422.74378	8476.975
2425.5308	8483.175
2428.31606	8462.475
2431.09956	8446.175
2433.88131	8441.875
2436.6613	8461.775
2439.43954	8459.775
2442.21603	8430.175
2444.99077	8422.275
2447.76377	8446.275
2450.53501	8428.875
2453.30451	8445.075
2456.07226	8446.775
2458.83827	8414.175
2461.60254	8422.975
2464.36507	8432.375
2467.12586	8413.275
2469.88492	8418.175
2472.64224	8406.875
2475.39782	8424.675
2478.15167	8431.075
2480.90379	8449.275
2483.65417	8447.575
2486.40283	8438.675
2489.14976	8474.775
2491.89497	8467.475
2494.63845	8492.275
2497.3802	8446.975
2500.12024	8452.975
2502.85855	8414.475
2505.59514	8406.075
2508.33002	8377.575
2511.06318	8353.575
2513.79462	8313.075
2516.52435	8289.975
2519.25237	8264.175
2521.97867	8253.275
2524.70327	8241.875
2527.42616	8222.875
2530.14734	8233.875
2532.86681	8211.675
2535.58458	8231.075
2538.30065	8189.075
2541.01501	8217.275
2543.72768	8189.475
2546.43864	8200.775
2549.14791	8165.375
2551.85548	8155.975
2554.56136	8153.575
2557.26554	8150.375
2559.96803	8150.575
2562.66883	8131.675
2565.36794	8104.075
2568.06536	8095.675
2570.7611	8081.675
2573.45514	8065.175
2576.14751	8070.575
2578.83819	8057.075
2581.52719	8031.375
2584.21451	8026.875
2586.90015	8021.075
2589.58411	8011.175
2592.2664	8025.075
2594.94701	7987.175
2597.62594	7982.375
2600.30321	7965.375
2602.9788	7984.175
2605.65273	7943.775
2608.32498	7944.175
2610.99557	7935.675
2613.66449	7950.975
2616.33175	7937.975
2618.99734	7939.875
2621.66128	7926.075
2624.32355	7937.475
2626.98416	7932.475
2629.64311	7911.575
2632.30041	7895.675
2634.95605	7883.275
2637.61004	7876.175
2640.26238	7866.475
2642.91306	7859.475
2645.56209	7870.775
2648.20948	7846.475
2650.85521	7816.775
2653.4993	7828.875
2656.14175	7833.675
2658.78255	7848.875
2661.42171	7839.175
2664.05923	7864.675
2666.6951	7848.375
2669.32934	7855.575
2671.96194	7860.875
2674.59291	7859.275
2677.22224	7876.075
2679.84993	7864.475
2682.476	7861.775
2685.10043	7851.675
2687.72324	7843.775
2690.34441	7838.875
2692.96396	7827.275
2695.58188	7842.175
2698.19818	7838.175
2700.81285	7809.675
2703.4259	7821.475
2706.03733	7845.475
2708.64714	7839.375
2711.25533	7834.575
2713.86191	7825.475
2716.46687	7832.675
2719.07021	7860.275
2721.67194	7848.975
2724.27206	7830.475
2726.87057	7839.675
2729.46747	7849.875
2732.06276	7843.175
2734.65644	7838.775
2737.24852	7833.075
2739.83899	7801.075
2742.42786	7807.075
2745.01513	7776.175
2747.60079	7794.575
2750.18486	7766.775
2752.76733	7774.975
2755.3482	7759.975
2757.92747	7752.775
2760.50515	7731.975
2763.08123	7751.775
2765.65573	7729.375
2768.22863	7722.975
2770.79994	7722.475
2773.36967	7709.575
2775.9378	7718.675
2778.50435	7715.575
2781.06932	7725.675
2783.6327	7711.475
2786.1945	7716.475
2788.75471	7699.475
2791.31335	7686.875
2793.87041	7694.275
2796.42589	7668.975
2798.97979	7657.975
2801.53212	7639.775
2804.08288	7647.875
2806.63206	7619.475
2809.17967	7610.275
2811.72571	7605.175
2814.27018	7622.175
2816.81308	7607.175
2819.35442	7628.275
2821.89419	7593.675
2824.43239	7605.175
2826.96904	7582.575
2829.50412	7584.775
2832.03763	7576.375
2834.56959	7612.775
2837.1	7590.275
2839.62884	7589.075
2842.15613	7585.275
2844.68186	7625.875
2847.20604	7615.475
2849.72867	7622.175
2852.24974	7646.575
2854.76927	7615.075
2857.28724	7603.375
2859.80367	7607.175
2862.31855	7595.575
2864.83189	7596.575
2867.34368	7604.875
2869.85393	7601.175
2872.36264	7603.975
2874.8698	7587.475
2877.37543	7608.075
2879.87952	7593.575
2882.38207	7569.175
2884.88308	7599.875
2887.38256	7606.075
2889.88051	7579.975
2892.37692	7584.075
2894.8718	7602.975
2897.36515	7596.775
2899.85698	7600.675
2902.34727	7609.375
2904.83604	7625.375
2907.32328	7625.075
2909.809	7642.175
2912.29319	7652.475
2914.77587	7632.875
2917.25702	7650.075
2919.73665	7649.375
2922.21476	7639.375
2924.69136	7646.275
2927.16644	7626.375
2929.64	7612.775
2932.11205	7595.175
2934.58258	7583.275
2937.05161	7596.775
2939.51912	7582.775
2941.98513	7552.775
2944.44962	7529.875
2946.91261	7533.275
2949.37409	7541.075
2951.83407	7515.875
2954.29254	7496.175
2956.74951	7479.775
2959.20498	7479.475
2961.65895	7452.675
2964.11142	7452.775
2966.56239	7421.675
2969.01186	7417.575
2971.45984	7394.575
2973.90632	7360.775
2976.35131	7369.875
2978.7948	7339.875
2981.23681	7299.975
2983.67732	7273.475
2986.11635	7279.675
2988.55388	7256.575
2990.98993	7238.375
2993.4245	7239.075
2995.85758	7235.975
2998.28917	7224.675
3000.71928	7222.475
3003.14791	7204.975
3005.57506	7179.875
3008.00073	7160.775
3010.42493	7147.275
3012.84764	7157.275
3015.26888	7151.475
3017.68865	7134.875
3020.10694	7128.775
3022.52376	7098.675
3024.9391	7093.075
3027.35298	7063.375
3029.76539	7062.475
3032.17632	7058.975
3034.5858	7011.875
3036.9938	6997.475
3039.40034	6981.775
3041.80542	6994.975
3044.20903	6968.875
3046.61118	6987.675
3049.01187	6962.075
3051.4111	6971.075
3053.80888	6960.975
3056.20519	6942.075
3058.60005	6917.975
3060.99345	6916.875
3063.3854	6879.975
3065.7759	6875.875
3068.16494	6849.275
3070.55254	6838.275
3072.93868	6810.375
3075.32338	6793.975
3077.70662	6799.475
3080.08842	6747.175
3082.46878	6784.575
3084.84769	6761.975
3087.22515	6754.175
3089.60118	6742.375
3091.97576	6749.375
3094.3489	6754.475
3096.72061	6746.675
3099.09087	6734.875
3101.4597	6751.075
3103.82709	6731.275
3106.19305	6734.075
3108.55757	6737.775
3110.92066	6704.275
3113.28232	6721.575
3115.64255	6694.275
3118.00134	6688.875
3120.35871	6671.175
3122.71466	6633.175
3125.06917	6630.975
3127.42226	6632.575
3129.77393	6642.675
3132.12417	6639.675
3134.47299	6657.375
3136.82039	6617.375
3139.16636	6637.675
3141.51092	6625.175
3143.85406	6627.675
3146.19579	6649.075
3148.53609	6630.475
3150.87499	6664.675
3153.21246	6646.375
3155.54853	6677.375
3157.88318	6680.175
3160.21642	6670.175
3162.54826	6662.875
3164.87868	6647.775
3167.2077	6656.375
3169.5353	6675.375
3171.86151	6644.975
3174.18631	6655.975
3176.5097	6644.575
