Data from AgNPs_FTO_APTES_UA_50uM_CRN_200uM_R6G_10uM_NaF_0.1M_Addition_RamanShift__26__16-24-45-097.txt Node

Date: Mon Feb 21 16:24:45 GMT 2022
User: TCL
Spectrometer: QEP01345
Trigger mode: 4
Integration Time (sec): 7.000000E0
Scans to average: 10
Electric dark correction enabled: true
Nonlinearity correction enabled: false
Boxcar width: 0
XAxis mode: Raman Shifts
Number of Pixels in Spectrum: 1044
>>>>>Begin Spectral Data<<<<<
46.04893	-0.375
50.45542	0.025
54.85868	-0.375
59.25871	-2.975
63.6555	57.825
68.04907	61.925
72.43941	60.725
76.82654	64.425
81.21044	70.525
85.59113	72.425
89.96862	74.925
94.34289	80.925
98.71396	80.525
103.08183	84.925
107.4465	85.325
111.80798	86.425
116.16626	84.725
120.52136	89.625
124.87327	96.325
129.222	95.325
133.56755	100.325
137.90993	110.825
142.24913	121.225
146.58517	134.825
150.91804	151.925
155.24774	180.825
159.57429	223.525
163.89768	291.525
168.21792	388.525
172.53501	524.025
176.84895	735.125
181.15975	1027.625
185.46741	1440.125
189.77193	2000.525
194.07331	2679.325
198.37157	3456.825
202.6667	4288.225
206.9587	5112.225
211.24758	5964.725
215.53334	6830.425
219.81599	7816.625
224.09553	8953.725
228.37195	10175.225
232.64527	11516.125
236.91549	12880.125
241.18261	14095.725
245.44663	15137.025
249.70755	15946.725
253.96539	16668.325
258.22014	17295.125
262.4718	17866.125
266.72039	18150.225
270.96589	18144.825
275.20832	17898.925
279.44768	17482.225
283.68397	17009.925
287.91719	16721.325
292.14735	16707.525
296.37445	17171.425
300.59849	18020.125
304.81948	18938.625
309.03742	19687.725
313.25231	19649.325
317.46415	18643.425
321.67296	17081.225
325.87872	15785.625
330.08145	15186.625
334.28114	15180.725
338.47781	15521.625
342.67145	16031.225
346.86207	16816.425
351.04966	17972.625
355.23424	19277.425
359.4158	20252.325
363.59435	20692.225
367.76989	20820.025
371.94243	20734.125
376.11196	20627.725
380.27849	20478.525
384.44203	20178.225
388.60257	19810.925
392.76012	19564.425
396.91468	19665.725
401.06626	20129.825
405.21485	20422.125
409.36047	19933.625
413.50311	18712.625
417.64277	17564.425
421.77947	16819.425
425.9132	16470.525
430.04396	16402.825
434.17176	16512.925
438.2966	16760.125
442.41849	17274.525
446.53742	17818.025
450.6534	18365.725
454.76644	18700.525
458.87653	18753.725
462.98368	18511.425
467.08789	18161.825
471.18916	17717.025
475.2875	17288.525
479.38291	16864.625
483.4754	16540.725
487.56496	16309.825
491.6516	16119.925
495.73531	15996.725
499.81612	16066.525
503.89401	16279.225
507.96899	16574.725
512.04106	16934.925
516.11023	17326.125
520.1765	17593.625
524.23987	17563.625
528.30034	17295.225
532.35792	16978.525
536.41261	16674.125
540.46441	16257.425
544.51333	16011.225
548.55936	16090.525
552.60252	16382.825
556.64279	16849.625
560.6802	17101.325
564.71473	17408.125
568.7464	18231.225
572.7752	18579.225
576.80114	17807.525
580.82422	16893.825
584.84444	16564.725
588.86181	16640.925
592.87633	16957.825
596.888	17326.225
600.89682	17920.325
604.9028	20185.925
608.90594	26821.425
612.90624	35416.525
616.90371	33598.725
620.89834	22849.425
624.89015	17805.025
628.87913	16915.925
632.86528	17096.425
636.84862	17383.125
640.82913	17066.025
644.80683	16114.425
648.78172	15495.725
652.75379	15477.025
656.72306	16199.725
660.68952	17112.725
664.65319	16854.725
668.61405	15915.325
672.57211	15477.925
676.52738	15498.425
680.47986	15525.725
684.42955	15326.025
688.37646	15141.625
692.32058	15194.725
696.26192	15274.725
700.20048	15476.125
704.13626	15565.825
708.06928	15447.225
711.99952	15300.725
715.927	15255.125
719.85171	15435.025
723.77365	15509.925
727.69284	15426.525
731.60928	15300.925
735.52295	15284.425
739.43388	15356.425
743.34206	15415.925
747.24749	15462.625
751.15017	15493.225
755.05012	15773.225
758.94733	16579.925
762.8418	18656.025
766.73354	22269.225
770.62254	26079.825
774.50882	28095.125
778.39237	26871.025
782.27321	22827.825
786.15132	18940.125
790.02671	16711.225
793.89938	15733.025
797.76935	15364.025
801.6366	15223.225
805.50115	15150.425
809.36299	15062.725
813.22213	14998.925
817.07857	14968.825
820.93231	14927.225
824.78336	14932.025
828.63172	15006.225
832.47738	15053.525
836.32036	14981.125
840.16066	14908.325
843.99827	14859.225
847.8332	14821.225
851.66546	14797.925
855.49504	14796.725
859.32195	14779.525
863.1462	14750.025
866.96777	14716.125
870.78668	14675.425
874.60293	14711.925
878.41652	14765.125
882.22745	14861.625
886.03573	14948.625
889.84136	14920.925
893.64433	14835.325
897.44466	14762.025
901.24235	14744.025
905.0374	14661.325
908.8298	14508.425
912.61957	14458.225
916.40671	14446.625
920.19121	14549.525
923.97308	14716.925
927.75233	14996.325
931.52895	15258.625
935.30295	15162.925
939.07433	14693.125
942.84309	14248.625
946.60924	13989.725
950.37278	13837.125
954.13371	13753.425
957.89203	13707.125
961.64774	13646.325
965.40086	13555.525
969.15137	13544.325
972.89929	13475.325
976.64461	13466.025
980.38733	13497.825
984.12747	13492.425
987.86502	13597.125
991.59999	13758.125
995.33237	13969.725
999.06217	14370.725
1002.78939	14795.225
1006.51404	15191.525
1010.23611	15436.525
1013.95561	15622.925
1017.67255	15591.125
1021.38692	15425.125
1025.09872	15187.425
1028.80796	15169.225
1032.51465	15408.425
1036.21877	15703.325
1039.92035	15794.525
1043.61937	15687.425
1047.31584	15465.325
1051.00976	15178.325
1054.70114	14959.725
1058.38998	14847.325
1062.07627	14857.725
1065.76003	14848.725
1069.44126	14829.025
1073.11995	14929.925
1076.79611	15133.125
1080.46974	15557.225
1084.14085	16120.125
1087.80943	16611.325
1091.47549	16819.125
1095.13903	16484.025
1098.80005	15863.725
1102.45857	15404.425
1106.11456	15366.825
1109.76805	15617.425
1113.41903	16157.925
1117.06751	16944.725
1120.71348	17943.725
1124.35696	18977.125
1127.99793	19741.225
1131.63641	19365.525
1135.2724	18144.425
1138.90589	17080.125
1142.5369	16387.425
1146.16542	15932.825
1149.79145	15658.725
1153.415	15582.625
1157.03607	15708.425
1160.65467	16016.125
1164.27079	16666.525
1167.88443	17642.025
1171.49561	19198.725
1175.10432	21689.325
1178.71056	25143.425
1182.31434	28066.925
1185.91565	28874.325
1189.51451	27723.025
1193.11091	25453.625
1196.70485	23154.425
1200.29634	21596.325
1203.88538	20520.425
1207.47197	19218.925
1211.05612	18086.025
1214.63782	17429.925
1218.21708	17212.425
1221.79391	17156.425
1225.36829	17157.825
1228.94024	17013.025
1232.50976	16840.225
1236.07685	16690.425
1239.6415	16738.425
1243.20374	16865.125
1246.76355	17031.725
1250.32093	17284.125
1253.8759	17727.125
1257.42845	18321.025
1260.97859	18997.525
1264.52631	19669.025
1268.07163	20361.725
1271.61453	20942.825
1275.15503	21403.225
1278.69312	21682.525
1282.22882	21928.625
1285.76211	22450.425
1289.29301	23244.225
1292.82151	24092.425
1296.34761	25124.725
1299.87133	26858.825
1303.39266	29797.525
1306.9116	34170.525
1310.42815	38745.125
1313.94233	40349.925
1317.45412	38005.825
1320.96354	33992.325
1324.47058	30256.925
1327.97525	27364.225
1331.47754	25689.025
1334.97747	25184.225
1338.47502	25599.625
1341.97022	26783.425
1345.46305	28432.225
1348.95352	30768.225
1352.44163	33624.725
1355.92738	37974.725
1359.41078	44752.925
1362.89183	50569.925
1366.37053	47830.025
1369.84688	38718.525
1373.32088	30721.825
1376.79254	26012.025
1380.26186	23595.525
1383.72883	22283.125
1387.19347	21328.825
1390.65578	20410.525
1394.11575	19771.725
1397.57339	19603.825
1401.0287	19677.825
1404.48168	19940.725
1407.93234	20186.525
1411.38068	20409.925
1414.82669	20616.725
1418.27039	20464.525
1421.71177	20053.725
1425.15083	19581.425
1428.58758	19405.425
1432.02203	19597.325
1435.45416	19823.025
1438.88399	19923.325
1442.31151	19985.225
1445.73673	20106.425
1449.15965	20285.425
1452.58027	20283.125
1455.9986	20075.225
1459.41463	20005.525
1462.82837	20245.825
1466.23982	20791.325
1469.64898	21350.325
1473.05586	21700.225
1476.46045	21856.825
1479.86276	22129.825
1483.26279	22599.425
1486.66054	23177.825
1490.05602	24068.025
1493.44922	25247.125
1496.84016	27249.725
1500.22882	30596.525
1503.61521	35558.425
1506.99934	41569.725
1510.38121	46432.025
1513.76081	47130.925
1517.13816	42778.725
1520.51324	35910.025
1523.88607	29844.025
1527.25665	26015.125
1530.62498	23924.925
1533.99105	22741.225
1537.35488	22025.225
1540.71647	21658.825
1544.07581	21608.825
1547.4329	21726.725
1550.78776	21900.425
1554.14038	22072.925
1557.49077	22398.425
1560.83892	22854.325
1564.18484	23595.325
1567.52853	24477.825
1570.86999	25198.325
1574.20922	25558.925
1577.54624	25247.425
1580.88103	23736.625
1584.2136	21796.425
1587.54395	20801.525
1590.87208	21097.125
1594.19801	22477.525
1597.52172	24379.625
1600.84321	25289.525
1604.16251	24454.125
1607.47959	22830.525
1610.79447	20954.725
1614.10715	19106.025
1617.41763	17663.525
1620.7259	16817.525
1624.03199	16488.125
1627.33587	16538.525
1630.63757	17054.125
1633.93707	18051.925
1637.23439	19650.025
1640.52951	22140.825
1643.82246	25669.725
1647.11321	29908.625
1650.40179	32575.725
1653.68819	31002.325
1656.97241	26015.325
1660.25446	21070.025
1663.53433	17727.525
1666.81203	15861.925
1670.08756	14799.225
1673.36092	14180.925
1676.63211	13775.425
1679.90115	13462.725
1683.16801	13283.225
1686.43272	13072.625
1689.69527	12947.925
1692.95567	12792.525
1696.2139	12652.325
1699.46999	12519.025
1702.72392	12491.625
1705.97571	12547.225
1709.22535	12612.625
1712.47284	12659.825
1715.71819	12659.125
1718.96139	12659.325
1722.20246	12632.325
1725.44139	12548.025
1728.67818	12454.225
1731.91284	12355.925
1735.14537	12260.225
1738.37576	12210.625
1741.60403	12154.825
1744.83017	12113.125
1748.05418	12068.825
1751.27607	12027.925
1754.49584	11984.025
1757.71349	11897.225
1760.92903	11835.925
1764.14244	11795.825
1767.35375	11798.925
1770.56294	11746.525
1773.77002	11710.625
1776.97499	11702.525
1780.17785	11718.825
1783.37861	11700.625
1786.57727	11708.025
1789.77382	11698.225
1792.96828	11702.325
1796.16064	11677.725
1799.3509	11670.525
1802.53907	11648.625
1805.72514	11598.925
1808.90913	11564.925
1812.09102	11546.025
1815.27083	11495.925
1818.44856	11465.925
1821.6242	11455.125
1824.79776	11450.725
1827.96924	11399.925
1831.13864	11398.525
1834.30597	11344.425
1837.47122	11382.825
1840.6344	11335.425
1843.7955	11325.725
1846.95454	11355.625
1850.11151	11343.425
1853.26642	11323.625
1856.41926	11308.025
1859.57004	11324.425
1862.71876	11304.525
1865.86542	11319.325
1869.01003	11308.025
1872.15258	11328.725
1875.29308	11313.425
1878.43152	11303.625
1881.56792	11318.625
1884.70227	11308.225
1887.83457	11280.725
1890.96482	11298.825
1894.09304	11279.725
1897.21921	11267.925
1900.34335	11254.625
1903.46544	11266.325
1906.58551	11284.825
1909.70353	11245.225
1912.81953	11268.825
1915.93349	11243.525
1919.04543	11238.525
1922.15534	11177.825
1925.26322	11183.625
1928.36908	11119.725
1931.47292	11087.825
1934.57473	11050.525
1937.67453	11006.625
1940.77232	10991.425
1943.86808	10966.525
1946.96184	10932.925
1950.05358	10899.325
1953.14331	10864.325
1956.23103	10850.025
1959.31675	10782.425
1962.40046	10774.625
1965.48217	10748.825
1968.56188	10736.625
1971.63959	10704.325
1974.7153	10697.125
1977.78901	10666.125
1980.86073	10592.225
1983.93046	10551.625
1986.99819	10504.625
1990.06394	10462.625
1993.1277	10434.325
1996.18947	10419.225
1999.24925	10389.725
2002.30706	10348.325
2005.36288	10296.725
2008.41672	10292.125
2011.46859	10247.325
2014.51848	10214.825
2017.56639	10194.425
2020.61233	10193.825
2023.6563	10159.625
2026.6983	10141.425
2029.73833	10112.425
2032.7764	10097.525
2035.8125	10078.325
2038.84664	10036.425
2041.87881	10043.125
2044.90903	10024.925
2047.93729	9986.025
2050.96359	9973.925
2053.98794	9955.425
2057.01034	9962.225
2060.03078	9970.825
2063.04927	9940.225
2066.06582	9912.725
2069.08042	9911.725
2072.09307	9904.825
2075.10378	9892.825
2078.11255	9870.525
2081.11938	9903.125
2084.12426	9881.125
2087.12722	9848.825
2090.12824	9851.825
2093.12732	9849.625
2096.12447	9867.925
2099.11969	9859.225
2102.11299	9854.725
2105.10435	9850.825
2108.09379	9849.725
2111.08131	9882.525
2114.0669	9871.525
2117.05057	9900.825
2120.03233	9898.825
2123.01216	9934.925
2125.99008	9937.825
2128.96609	9918.225
2131.94018	9959.125
2134.91236	9938.025
2137.88263	9948.225
2140.851	9924.925
2143.81746	9937.125
2146.78201	9931.725
2149.74466	9921.425
2152.7054	9919.725
2155.66425	9903.225
2158.6212	9934.625
2161.57625	9919.525
2164.52941	9902.325
2167.48067	9897.225
2170.43004	9902.825
2173.37752	9893.125
2176.32311	9915.325
2179.26681	9897.025
2182.20863	9901.325
2185.14856	9900.325
2188.08661	9912.825
2191.02278	9889.525
2193.95707	9900.125
2196.88948	9896.625
2199.82001	9870.325
2202.74867	9866.825
2205.67545	9889.525
2208.60037	9850.425
2211.52341	9838.525
2214.44458	9830.125
2217.36388	9820.725
2220.28132	9800.425
2223.1969	9786.525
2226.11061	9754.125
2229.02246	9741.825
2231.93245	9716.525
2234.84058	9676.125
2237.74686	9656.125
2240.65128	9669.625
2243.55385	9674.625
2246.45456	9654.425
2249.35343	9654.925
2252.25044	9634.725
2255.14561	9632.225
2258.03893	9631.425
2260.93041	9606.725
2263.82004	9596.425
2266.70783	9607.025
2269.59378	9566.625
2272.4779	9574.125
2275.36017	9504.825
2278.24061	9523.125
2281.11922	9503.925
2283.996	9465.625
2286.87094	9453.125
2289.74405	9428.225
2292.61534	9403.125
2295.4848	9377.825
2298.35243	9373.825
2301.21824	9397.025
2304.08223	9397.725
2306.94439	9401.725
2309.80474	9393.125
2312.66327	9395.525
2315.51999	9394.125
2318.37489	9411.825
2321.22797	9383.325
2324.07925	9348.225
2326.92871	9354.525
2329.77637	9353.625
2332.62222	9336.525
2335.46626	9346.825
2338.3085	9351.725
2341.14893	9325.825
2343.98756	9358.425
2346.8244	9379.325
2349.65943	9380.025
2352.49267	9399.625
2355.32411	9413.025
2358.15376	9423.125
2360.98161	9425.225
2363.80768	9430.625
2366.63195	9434.825
2369.45444	9433.925
2372.27514	9414.625
2375.09405	9414.625
2377.91118	9371.325
2380.72652	9350.225
2383.54009	9267.125
2386.35187	9244.025
2389.16188	9210.825
2391.97011	9165.325
2394.77657	9148.925
2397.58125	9146.125
2400.38416	9105.125
2403.18529	9090.225
2405.98466	9087.425
2408.78226	9057.525
2411.57809	9043.725
2414.37216	9008.125
2417.16446	9006.425
2419.955	9011.125
2422.74378	8993.525
2425.5308	8985.725
2428.31606	8995.225
2431.09956	8996.025
2433.88131	8986.425
2436.6613	9000.525
2439.43954	9013.325
2442.21603	8974.625
2444.99077	9002.325
2447.76377	8975.925
2450.53501	8994.025
2453.30451	8993.625
2456.07226	8991.025
2458.83827	8995.125
2461.60254	8999.025
2464.36507	8991.325
2467.12586	8980.425
2469.88492	8973.725
2472.64224	8986.225
2475.39782	8991.725
2478.15167	8992.225
2480.90379	9017.725
2483.65417	9075.025
2486.40283	9081.225
2489.14976	9100.525
2491.89497	9112.425
2494.63845	9133.225
2497.3802	9085.325
2500.12024	9076.625
2502.85855	9064.725
2505.59514	9019.625
2508.33002	8963.025
2511.06318	8948.525
2513.79462	8921.425
2516.52435	8879.025
2519.25237	8879.025
2521.97867	8853.825
2524.70327	8815.525
2527.42616	8819.125
2530.14734	8814.825
2532.86681	8815.325
2535.58458	8791.625
2538.30065	8790.925
2541.01501	8791.825
2543.72768	8796.125
2546.43864	8795.025
2549.14791	8786.225
2551.85548	8788.425
2554.56136	8772.925
2557.26554	8748.825
2559.96803	8775.625
2562.66883	8758.525
2565.36794	8729.425
2568.06536	8740.525
2570.7611	8700.425
2573.45514	8694.425
2576.14751	8688.325
2578.83819	8664.625
2581.52719	8678.325
2584.21451	8655.825
2586.90015	8652.525
2589.58411	8643.025
2592.2664	8640.625
2594.94701	8653.625
2597.62594	8602.425
2600.30321	8611.125
2602.9788	8606.025
2605.65273	8591.825
2608.32498	8608.325
2610.99557	8584.525
2613.66449	8609.825
2616.33175	8606.125
2618.99734	8636.425
2621.66128	8613.925
2624.32355	8608.625
2626.98416	8581.825
2629.64311	8575.825
2632.30041	8565.125
2634.95605	8557.125
2637.61004	8540.825
2640.26238	8529.625
2642.91306	8523.025
2645.56209	8492.225
2648.20948	8500.025
2650.85521	8488.025
2653.4993	8494.425
2656.14175	8491.225
2658.78255	8534.825
2661.42171	8517.925
2664.05923	8545.425
2666.6951	8539.225
2669.32934	8551.725
2671.96194	8558.525
2674.59291	8582.025
2677.22224	8583.325
2679.84993	8590.725
2682.476	8551.725
2685.10043	8541.725
2687.72324	8526.325
2690.34441	8529.425
2692.96396	8524.625
2695.58188	8542.125
2698.19818	8526.325
2700.81285	8511.825
2703.4259	8502.425
2706.03733	8457.625
2708.64714	8478.125
2711.25533	8492.325
2713.86191	8500.725
2716.46687	8530.925
2719.07021	8546.925
2721.67194	8543.025
2724.27206	8555.925
2726.87057	8555.025
2729.46747	8568.625
2732.06276	8542.025
2734.65644	8542.225
2737.24852	8515.125
2739.83899	8510.325
2742.42786	8502.225
2745.01513	8494.325
2747.60079	8494.125
2750.18486	8448.925
2752.76733	8473.625
2755.3482	8423.325
2757.92747	8430.125
2760.50515	8432.125
2763.08123	8440.425
2765.65573	8426.825
2768.22863	8417.425
2770.79994	8416.525
2773.36967	8441.625
2775.9378	8423.925
2778.50435	8399.425
2781.06932	8380.625
2783.6327	8400.325
2786.1945	8397.425
2788.75471	8404.425
2791.31335	8400.525
2793.87041	8385.025
2796.42589	8367.625
2798.97979	8367.725
2801.53212	8337.625
2804.08288	8367.425
2806.63206	8337.125
2809.17967	8334.125
2811.72571	8351.625
2814.27018	8352.125
2816.81308	8339.225
2819.35442	8348.025
2821.89419	8355.425
2824.43239	8375.925
2826.96904	8376.725
2829.50412	8376.325
2832.03763	8360.225
2834.56959	8366.025
2837.1	8366.225
2839.62884	8354.325
2842.15613	8350.425
2844.68186	8360.125
2847.20604	8345.725
2849.72867	8381.625
2852.24974	8366.525
2854.76927	8347.325
2857.28724	8344.525
2859.80367	8339.625
2862.31855	8370.325
2864.83189	8363.925
2867.34368	8356.825
2869.85393	8378.325
2872.36264	8359.725
2874.8698	8379.825
2877.37543	8375.225
2879.87952	8367.825
2882.38207	8358.525
2884.88308	8354.825
2887.38256	8364.525
2889.88051	8350.125
2892.37692	8358.725
2894.8718	8355.925
2897.36515	8364.825
2899.85698	8352.825
2902.34727	8355.425
2904.83604	8381.925
2907.32328	8393.525
2909.809	8401.525
2912.29319	8404.825
2914.77587	8382.225
2917.25702	8392.525
2919.73665	8374.925
2922.21476	8389.525
2924.69136	8357.725
2927.16644	8352.925
2929.64	8321.425
2932.11205	8305.925
2934.58258	8286.025
2937.05161	8279.625
2939.51912	8279.425
2941.98513	8246.725
2944.44962	8231.125
2946.91261	8199.125
2949.37409	8213.425
2951.83407	8217.425
2954.29254	8196.025
2956.74951	8193.325
2959.20498	8186.925
2961.65895	8159.325
2964.11142	8152.825
2966.56239	8164.325
2969.01186	8140.325
2971.45984	8106.525
2973.90632	8094.325
2976.35131	8066.425
2978.7948	8062.225
2981.23681	8031.725
2983.67732	7996.925
2986.11635	7973.225
2988.55388	7979.925
2990.98993	7957.625
2993.4245	7946.825
2995.85758	7956.525
2998.28917	7904.925
3000.71928	7909.525
3003.14791	7917.025
3005.57506	7925.125
3008.00073	7903.825
3010.42493	7887.925
3012.84764	7902.125
3015.26888	7883.825
3017.68865	7846.825
3020.10694	7867.425
3022.52376	7853.425
3024.9391	7810.925
3027.35298	7788.425
3029.76539	7782.425
3032.17632	7777.525
3034.5858	7745.025
3036.9938	7721.225
3039.40034	7712.425
3041.80542	7690.625
3044.20903	7699.125
3046.61118	7691.825
3049.01187	7683.125
3051.4111	7663.925
3053.80888	7651.625
3056.20519	7623.725
3058.60005	7629.725
3060.99345	7591.525
3063.3854	7577.725
3065.7759	7565.325
3068.16494	7526.225
3070.55254	7530.425
3072.93868	7510.625
3075.32338	7475.725
3077.70662	7457.025
3080.08842	7457.325
3082.46878	7447.825
3084.84769	7431.525
3087.22515	7431.625
3089.60118	7410.825
3091.97576	7405.625
3094.3489	7417.525
3096.72061	7397.325
3099.09087	7377.025
3101.4597	7394.725
3103.82709	7399.125
3106.19305	7381.825
3108.55757	7377.825
3110.92066	7359.225
3113.28232	7342.525
3115.64255	7348.425
3118.00134	7343.725
3120.35871	7316.925
3122.71466	7306.725
3125.06917	7283.425
3127.42226	7274.325
3129.77393	7283.525
3132.12417	7284.725
3134.47299	7280.225
3136.82039	7268.025
3139.16636	7282.325
3141.51092	7271.925
3143.85406	7283.525
3146.19579	7259.225
3148.53609	7281.625
3150.87499	7291.725
3153.21246	7290.925
3155.54853	7295.425
3157.88318	7300.325
3160.21642	7308.725
3162.54826	7297.725
3164.87868	7301.325
3167.2077	7294.525
3169.5353	7301.625
3171.86151	7281.525
3174.18631	7287.725
3176.5097	7280.925
