Data from AgNPs_FTO_APTES_UA_50uM_CRN_200uM_R6G_10uM_NaF_0.1M_Addition_RamanShift__10__16-06-05-074.txt Node

Date: Mon Feb 21 16:06:05 GMT 2022
User: TCL
Spectrometer: QEP01345
Trigger mode: 4
Integration Time (sec): 7.000000E0
Scans to average: 10
Electric dark correction enabled: true
Nonlinearity correction enabled: false
Boxcar width: 0
XAxis mode: Raman Shifts
Number of Pixels in Spectrum: 1044
>>>>>Begin Spectral Data<<<<<
46.04893	0.775
50.45542	-1.125
54.85868	-0.625
59.25871	-0.625
63.6555	43.475
68.04907	49.075
72.43941	49.475
76.82654	55.875
81.21044	54.275
85.59113	59.875
89.96862	58.275
94.34289	62.475
98.71396	62.075
103.08183	70.975
107.4465	69.275
111.80798	68.475
116.16626	67.475
120.52136	70.475
124.87327	75.175
129.222	73.375
133.56755	76.475
137.90993	83.675
142.24913	87.375
146.58517	99.975
150.91804	112.075
155.24774	127.475
159.57429	153.875
163.89768	197.475
168.21792	260.675
172.53501	349.375
176.84895	487.975
181.15975	686.575
185.46741	958.875
189.77193	1319.775
194.07331	1768.475
198.37157	2296.775
202.6667	2822.175
206.9587	3360.475
211.24758	3914.075
215.53334	4430.275
219.81599	4979.275
224.09553	5602.275
228.37195	6272.575
232.64527	7027.875
236.91549	7809.575
241.18261	8589.575
245.44663	9329.975
249.70755	9987.275
253.96539	10524.475
258.22014	10975.475
262.4718	11350.275
266.72039	11631.575
270.96589	11755.775
275.20832	11727.875
279.44768	11658.675
283.68397	11537.775
287.91719	11388.575
292.14735	11294.375
296.37445	11244.775
300.59849	11272.675
304.81948	11368.275
309.03742	11375.575
313.25231	11301.375
317.46415	11173.075
321.67296	10949.875
325.87872	10729.475
330.08145	10654.375
334.28114	10662.875
338.47781	10718.975
342.67145	10855.175
346.86207	11053.775
351.04966	11262.875
355.23424	11466.175
359.4158	11659.075
363.59435	11825.275
367.76989	11936.575
371.94243	12018.475
376.11196	12055.775
380.27849	12115.675
384.44203	12163.975
388.60257	12229.175
392.76012	12327.275
396.91468	12470.075
401.06626	12668.175
405.21485	12731.775
409.36047	12666.175
413.50311	12469.875
417.64277	12306.175
421.77947	12210.175
425.9132	12227.475
430.04396	12253.075
434.17176	12320.175
438.2966	12464.575
442.41849	12612.275
446.53742	12837.475
450.6534	13089.675
454.76644	13262.175
458.87653	13320.875
462.98368	13305.675
467.08789	13243.175
471.18916	13107.475
475.2875	13007.475
479.38291	12854.675
483.4754	12722.475
487.56496	12602.675
491.6516	12506.275
495.73531	12470.575
499.81612	12459.975
503.89401	12559.575
507.96899	12606.075
512.04106	12660.675
516.11023	12664.875
520.1765	12639.175
524.23987	12604.975
528.30034	12547.975
532.35792	12510.775
536.41261	12442.975
540.46441	12353.975
544.51333	12293.875
548.55936	12375.175
552.60252	12510.375
556.64279	12737.775
560.6802	12843.575
564.71473	12877.275
568.7464	12942.675
572.7752	13092.375
576.80114	13283.875
580.82422	13436.575
584.84444	13682.175
588.86181	14004.075
592.87633	14322.575
596.888	14434.475
600.89682	14295.375
604.9028	14429.375
608.90594	15508.475
612.90624	16784.475
616.90371	16070.775
620.89834	13857.075
624.89015	12787.875
628.87913	12673.075
632.86528	12768.575
636.84862	12866.575
640.82913	12795.175
644.80683	12584.375
648.78172	12412.675
652.75379	12373.675
656.72306	12492.175
660.68952	12685.575
664.65319	12633.375
668.61405	12456.975
672.57211	12431.975
676.52738	12508.075
680.47986	12527.275
684.42955	12506.475
688.37646	12411.775
692.32058	12394.675
696.26192	12447.775
700.20048	12510.475
704.13626	12556.675
708.06928	12568.875
711.99952	12521.575
715.927	12497.175
719.85171	12553.575
723.77365	12529.375
727.69284	12469.075
731.60928	12378.775
735.52295	12380.675
739.43388	12375.675
743.34206	12375.275
747.24749	12433.775
751.15017	12491.175
755.05012	12587.775
758.94733	12834.075
762.8418	13321.175
766.73354	14186.975
770.62254	15064.675
774.50882	15372.975
778.39237	14946.675
782.27321	14030.375
786.15132	13257.175
790.02671	12746.675
793.89938	12496.075
797.76935	12374.375
801.6366	12297.875
805.50115	12274.175
809.36299	12206.375
813.22213	12143.175
817.07857	12128.275
820.93231	12100.875
824.78336	12078.575
828.63172	12043.375
832.47738	12058.375
836.32036	12058.375
840.16066	12039.675
843.99827	12024.275
847.8332	12000.675
851.66546	12037.975
855.49504	12036.575
859.32195	12048.475
863.1462	12066.775
866.96777	12059.375
870.78668	12052.475
874.60293	12077.575
878.41652	12098.075
882.22745	12129.075
886.03573	12179.675
889.84136	12146.175
893.64433	12134.675
897.44466	12114.675
901.24235	12080.375
905.0374	12045.175
908.8298	12005.075
912.61957	11973.875
916.40671	11996.675
920.19121	12092.875
923.97308	12161.475
927.75233	12186.975
931.52895	12129.875
935.30295	12044.875
939.07433	11895.575
942.84309	11778.975
946.60924	11701.575
950.37278	11670.475
954.13371	11648.675
957.89203	11635.175
961.64774	11620.975
965.40086	11587.275
969.15137	11566.475
972.89929	11537.475
976.64461	11485.375
980.38733	11491.075
984.12747	11506.275
987.86502	11559.775
991.59999	11589.375
995.33237	11678.775
999.06217	11777.375
1002.78939	11926.875
1006.51404	12068.775
1010.23611	12219.675
1013.95561	12341.475
1017.67255	12381.775
1021.38692	12330.475
1025.09872	12220.275
1028.80796	12077.275
1032.51465	12017.375
1036.21877	12002.275
1039.92035	12057.675
1043.61937	12067.775
1047.31584	12103.475
1051.00976	12112.675
1054.70114	12157.375
1058.38998	12193.275
1062.07627	12232.775
1065.76003	12314.875
1069.44126	12407.075
1073.11995	12519.275
1076.79611	12653.775
1080.46974	12776.475
1084.14085	12813.075
1087.80943	12923.775
1091.47549	12991.575
1095.13903	12996.475
1098.80005	12872.575
1102.45857	12683.075
1106.11456	12544.975
1109.76805	12474.075
1113.41903	12517.475
1117.06751	12597.475
1120.71348	12758.375
1124.35696	12953.475
1127.99793	13088.475
1131.63641	13209.875
1135.2724	13077.275
1138.90589	12955.375
1142.5369	12877.875
1146.16542	12832.075
1149.79145	12800.075
1153.415	12824.375
1157.03607	12864.975
1160.65467	13050.475
1164.27079	13382.275
1167.88443	13823.675
1171.49561	14392.075
1175.10432	15159.275
1178.71056	16148.175
1182.31434	17020.675
1185.91565	17552.475
1189.51451	17597.475
1193.11091	17270.075
1196.70485	16747.075
1200.29634	16233.275
1203.88538	15659.075
1207.47197	15171.075
1211.05612	14760.175
1214.63782	14418.975
1218.21708	14198.175
1221.79391	14026.075
1225.36829	13965.375
1228.94024	13943.075
1232.50976	13908.375
1236.07685	13848.275
1239.6415	13777.175
1243.20374	13762.975
1246.76355	13780.375
1250.32093	13884.275
1253.8759	14032.375
1257.42845	14256.275
1260.97859	14522.175
1264.52631	14824.375
1268.07163	15092.275
1271.61453	15371.775
1275.15503	15584.875
1278.69312	15803.075
1282.22882	16039.375
1285.76211	16323.975
1289.29301	16712.375
1292.82151	17155.375
1296.34761	17776.875
1299.87133	18401.975
1303.39266	19199.275
1306.9116	20048.575
1310.42815	20920.675
1313.94233	21391.075
1317.45412	21284.475
1320.96354	20757.175
1324.47058	20251.875
1327.97525	19676.775
1331.47754	19361.375
1334.97747	19177.975
1338.47502	19141.575
1341.97022	19341.575
1345.46305	19562.975
1348.95352	19930.275
1352.44163	20446.875
1355.92738	21146.075
1359.41078	22077.075
1362.89183	22843.575
1366.37053	22565.175
1369.84688	20792.675
1373.32088	18672.075
1376.79254	17178.975
1380.26186	16455.075
1383.72883	16135.175
1387.19347	15851.675
1390.65578	15580.975
1394.11575	15388.075
1397.57339	15375.775
1401.0287	15413.975
1404.48168	15392.975
1407.93234	15403.275
1411.38068	15327.275
1414.82669	15097.875
1418.27039	14911.875
1421.71177	14623.575
1425.15083	14372.475
1428.58758	14182.375
1432.02203	14232.075
1435.45416	14368.975
1438.88399	14547.675
1442.31151	14657.575
1445.73673	14741.175
1449.15965	14784.975
1452.58027	14844.375
1455.9986	14855.775
1459.41463	14902.575
1462.82837	15056.475
1466.23982	15318.075
1469.64898	15564.775
1473.05586	15765.775
1476.46045	15841.975
1479.86276	15933.775
1483.26279	15947.675
1486.66054	16024.775
1490.05602	16214.275
1493.44922	16592.375
1496.84016	17041.775
1500.22882	17773.875
1503.61521	18656.975
1506.99934	19591.575
1510.38121	20241.575
1513.76081	20254.075
1517.13816	19522.275
1520.51324	18490.175
1523.88607	17592.875
1527.25665	17055.275
1530.62498	16762.775
1533.99105	16547.675
1537.35488	16322.875
1540.71647	16072.875
1544.07581	15806.375
1547.4329	15547.475
1550.78776	15332.375
1554.14038	15200.375
1557.49077	15148.075
1560.83892	15175.775
1564.18484	15259.675
1567.52853	15427.775
1570.86999	15599.775
1574.20922	15751.375
1577.54624	15846.675
1580.88103	15634.075
1584.2136	15308.275
1587.54395	15242.475
1590.87208	15474.775
1594.19801	16016.975
1597.52172	16695.275
1600.84321	17020.575
1604.16251	16727.075
1607.47959	16037.275
1610.79447	15229.475
1614.10715	14385.875
1617.41763	13736.375
1620.7259	13137.875
1624.03199	12789.475
1627.33587	12712.175
1630.63757	12861.575
1633.93707	13236.875
1637.23439	14005.775
1640.52951	15186.775
1643.82246	16689.575
1647.11321	17982.875
1650.40179	18521.175
1653.68819	17709.475
1656.97241	15983.975
1660.25446	14238.675
1663.53433	12908.975
1666.81203	12068.975
1670.08756	11608.675
1673.36092	11297.875
1676.63211	11082.975
1679.90115	10967.375
1683.16801	10827.175
1686.43272	10716.875
1689.69527	10641.075
1692.95567	10509.075
1696.2139	10385.975
1699.46999	10255.575
1702.72392	10176.675
1705.97571	10239.675
1709.22535	10301.375
1712.47284	10360.675
1715.71819	10374.475
1718.96139	10373.375
1722.20246	10347.575
1725.44139	10324.075
1728.67818	10247.275
1731.91284	10236.775
1735.14537	10199.775
1738.37576	10138.175
1741.60403	10078.575
1744.83017	10050.375
1748.05418	10007.675
1751.27607	9979.775
1754.49584	9945.775
1757.71349	9884.375
1760.92903	9855.175
1764.14244	9845.975
1767.35375	9826.175
1770.56294	9793.875
1773.77002	9789.975
1776.97499	9800.975
1780.17785	9830.075
1783.37861	9828.075
1786.57727	9848.275
1789.77382	9806.975
1792.96828	9802.275
1796.16064	9796.275
1799.3509	9784.775
1802.53907	9753.475
1805.72514	9744.475
1808.90913	9724.775
1812.09102	9716.575
1815.27083	9689.275
1818.44856	9660.275
1821.6242	9651.675
1824.79776	9652.275
1827.96924	9657.875
1831.13864	9627.675
1834.30597	9603.975
1837.47122	9612.575
1840.6344	9593.375
1843.7955	9585.175
1846.95454	9586.975
1850.11151	9595.175
1853.26642	9574.275
1856.41926	9589.775
1859.57004	9551.175
1862.71876	9545.675
1865.86542	9523.275
1869.01003	9517.275
1872.15258	9497.975
1875.29308	9503.075
1878.43152	9458.975
1881.56792	9459.175
1884.70227	9460.275
1887.83457	9435.575
1890.96482	9407.775
1894.09304	9396.875
1897.21921	9400.575
1900.34335	9374.475
1903.46544	9358.375
1906.58551	9356.675
1909.70353	9353.475
1912.81953	9344.475
1915.93349	9304.675
1919.04543	9294.975
1922.15534	9293.175
1925.26322	9264.475
1928.36908	9244.575
1931.47292	9248.475
1934.57473	9205.175
1937.67453	9207.275
1940.77232	9165.975
1943.86808	9139.175
1946.96184	9125.675
1950.05358	9091.375
1953.14331	9047.175
1956.23103	9027.275
1959.31675	8998.675
1962.40046	8948.675
1965.48217	8957.775
1968.56188	8924.575
1971.63959	8897.275
1974.7153	8863.375
1977.78901	8850.975
1980.86073	8819.275
1983.93046	8794.875
1986.99819	8787.775
1990.06394	8726.075
1993.1277	8724.675
1996.18947	8686.575
1999.24925	8677.675
2002.30706	8630.175
2005.36288	8601.975
2008.41672	8569.775
2011.46859	8575.275
2014.51848	8552.975
2017.56639	8528.875
2020.61233	8505.375
2023.6563	8492.375
2026.6983	8441.875
2029.73833	8427.875
2032.7764	8381.575
2035.8125	8376.275
2038.84664	8366.375
2041.87881	8346.075
2044.90903	8342.475
2047.93729	8316.375
2050.96359	8315.575
2053.98794	8307.075
2057.01034	8286.275
2060.03078	8299.075
2063.04927	8275.275
2066.06582	8251.875
2069.08042	8253.475
2072.09307	8238.175
2075.10378	8213.475
2078.11255	8228.575
2081.11938	8243.875
2084.12426	8225.575
2087.12722	8234.875
2090.12824	8227.875
2093.12732	8226.075
2096.12447	8224.675
2099.11969	8204.075
2102.11299	8224.375
2105.10435	8216.075
2108.09379	8224.175
2111.08131	8229.675
2114.0669	8210.075
2117.05057	8216.975
2120.03233	8244.575
2123.01216	8248.275
2125.99008	8258.075
2128.96609	8266.775
2131.94018	8263.875
2134.91236	8258.475
2137.88263	8285.675
2140.851	8287.975
2143.81746	8278.475
2146.78201	8265.675
2149.74466	8267.675
2152.7054	8251.575
2155.66425	8262.075
2158.6212	8251.975
2161.57625	8239.375
2164.52941	8255.975
2167.48067	8232.775
2170.43004	8251.575
2173.37752	8237.975
2176.32311	8232.775
2179.26681	8214.475
2182.20863	8221.375
2185.14856	8246.175
2188.08661	8242.675
2191.02278	8246.475
2193.95707	8234.675
2196.88948	8214.175
2199.82001	8211.875
2202.74867	8207.875
2205.67545	8185.075
2208.60037	8189.775
2211.52341	8157.675
2214.44458	8126.675
2217.36388	8116.975
2220.28132	8121.575
2223.1969	8083.775
2226.11061	8083.775
2229.02246	8056.875
2231.93245	8053.175
2234.84058	8057.175
2237.74686	8024.075
2240.65128	8028.475
2243.55385	8027.875
2246.45456	8028.675
2249.35343	7993.875
2252.25044	7998.575
2255.14561	7987.175
2258.03893	7973.375
2260.93041	7954.375
2263.82004	7936.575
2266.70783	7926.075
2269.59378	7914.175
2272.4779	7895.975
2275.36017	7850.175
2278.24061	7850.875
2281.11922	7807.375
2283.996	7832.975
2286.87094	7823.275
2289.74405	7779.375
2292.61534	7774.075
2295.4848	7763.675
2298.35243	7766.575
2301.21824	7740.475
2304.08223	7743.775
2306.94439	7751.975
2309.80474	7726.975
2312.66327	7742.975
2315.51999	7706.575
2318.37489	7709.275
2321.22797	7667.275
2324.07925	7681.875
2326.92871	7675.175
2329.77637	7685.175
2332.62222	7654.075
2335.46626	7632.175
2338.3085	7626.075
2341.14893	7623.375
2343.98756	7597.875
2346.8244	7599.775
2349.65943	7608.975
2352.49267	7585.975
2355.32411	7593.475
2358.15376	7597.275
2360.98161	7593.975
2363.80768	7571.675
2366.63195	7601.475
2369.45444	7587.275
2372.27514	7549.975
2375.09405	7562.475
2377.91118	7567.175
2380.72652	7541.675
2383.54009	7535.075
2386.35187	7500.875
2389.16188	7477.275
2391.97011	7470.575
2394.77657	7465.175
2397.58125	7444.175
2400.38416	7417.875
2403.18529	7432.875
2405.98466	7408.875
2408.78226	7394.175
2411.57809	7378.575
2414.37216	7377.575
2417.16446	7341.475
2419.955	7348.375
2422.74378	7346.675
2425.5308	7332.575
2428.31606	7327.075
2431.09956	7347.975
2433.88131	7315.075
2436.6613	7321.475
2439.43954	7317.875
2442.21603	7311.375
2444.99077	7299.375
2447.76377	7314.975
2450.53501	7308.375
2453.30451	7301.675
2456.07226	7274.375
2458.83827	7272.575
2461.60254	7246.575
2464.36507	7284.075
2467.12586	7249.375
2469.88492	7252.875
2472.64224	7258.775
2475.39782	7238.975
2478.15167	7228.875
2480.90379	7226.475
2483.65417	7236.375
2486.40283	7216.175
2489.14976	7229.275
2491.89497	7213.075
2494.63845	7225.275
2497.3802	7203.175
2500.12024	7214.175
2502.85855	7240.975
2505.59514	7205.975
2508.33002	7176.075
2511.06318	7173.275
2513.79462	7189.175
2516.52435	7146.375
2519.25237	7158.175
2521.97867	7133.975
2524.70327	7128.175
2527.42616	7112.675
2530.14734	7120.575
2532.86681	7111.675
2535.58458	7105.275
2538.30065	7104.975
2541.01501	7089.875
2543.72768	7082.675
2546.43864	7052.975
2549.14791	7065.375
2551.85548	7039.175
2554.56136	7025.275
2557.26554	7017.975
2559.96803	7012.275
2562.66883	7016.675
2565.36794	6981.475
2568.06536	6967.575
2570.7611	6960.175
2573.45514	6957.975
2576.14751	6932.275
2578.83819	6927.875
2581.52719	6922.375
2584.21451	6896.475
2586.90015	6899.675
2589.58411	6898.375
2592.2664	6865.575
2594.94701	6855.875
2597.62594	6871.275
2600.30321	6852.675
2602.9788	6864.675
2605.65273	6844.275
2608.32498	6853.275
2610.99557	6816.075
2613.66449	6804.575
2616.33175	6821.375
2618.99734	6808.075
2621.66128	6790.775
2624.32355	6787.375
2626.98416	6774.875
2629.64311	6777.075
2632.30041	6770.275
2634.95605	6756.475
2637.61004	6754.275
2640.26238	6745.775
2642.91306	6725.075
2645.56209	6727.475
2648.20948	6715.275
2650.85521	6691.875
2653.4993	6684.575
2656.14175	6690.275
2658.78255	6712.275
2661.42171	6710.575
2664.05923	6719.175
2666.6951	6716.675
2669.32934	6738.875
2671.96194	6721.775
2674.59291	6719.475
2677.22224	6718.475
2679.84993	6747.775
2682.476	6691.875
2685.10043	6705.375
2687.72324	6709.575
2690.34441	6694.875
2692.96396	6701.775
2695.58188	6708.175
2698.19818	6699.175
2700.81285	6691.775
2703.4259	6674.375
2706.03733	6639.175
2708.64714	6660.075
2711.25533	6696.875
2713.86191	6671.475
2716.46687	6703.675
2719.07021	6695.075
2721.67194	6719.975
2724.27206	6707.675
2726.87057	6727.775
2729.46747	6725.575
2732.06276	6722.775
2734.65644	6712.775
2737.24852	6706.075
2739.83899	6708.675
2742.42786	6705.775
2745.01513	6684.375
2747.60079	6677.175
2750.18486	6661.575
2752.76733	6667.975
2755.3482	6639.075
2757.92747	6635.075
2760.50515	6624.075
2763.08123	6616.475
2765.65573	6613.075
2768.22863	6595.975
2770.79994	6590.375
2773.36967	6572.475
2775.9378	6568.475
2778.50435	6577.275
2781.06932	6566.175
2783.6327	6580.975
2786.1945	6542.775
2788.75471	6559.475
2791.31335	6545.975
2793.87041	6541.475
2796.42589	6517.775
2798.97979	6512.075
2801.53212	6505.275
2804.08288	6483.675
2806.63206	6453.875
2809.17967	6455.875
2811.72571	6436.675
2814.27018	6430.875
2816.81308	6426.575
2819.35442	6422.875
2821.89419	6397.575
2824.43239	6399.375
2826.96904	6403.375
2829.50412	6409.775
2832.03763	6408.375
2834.56959	6392.575
2837.1	6408.475
2839.62884	6401.475
2842.15613	6386.775
2844.68186	6405.375
2847.20604	6418.475
2849.72867	6403.475
2852.24974	6392.375
2854.76927	6377.175
2857.28724	6384.175
2859.80367	6376.675
2862.31855	6372.575
2864.83189	6371.375
2867.34368	6366.875
2869.85393	6373.475
2872.36264	6355.975
2874.8698	6345.175
2877.37543	6363.875
2879.87952	6361.975
2882.38207	6343.975
2884.88308	6335.675
2887.38256	6359.175
2889.88051	6355.475
2892.37692	6358.075
2894.8718	6328.975
2897.36515	6340.975
2899.85698	6350.175
2902.34727	6373.675
2904.83604	6375.175
2907.32328	6378.875
2909.809	6358.075
2912.29319	6374.775
2914.77587	6394.575
2917.25702	6387.075
2919.73665	6386.475
2922.21476	6385.575
2924.69136	6361.975
2927.16644	6381.875
2929.64	6349.375
2932.11205	6361.775
2934.58258	6335.475
2937.05161	6340.175
2939.51912	6350.475
2941.98513	6330.675
2944.44962	6339.375
2946.91261	6303.375
2949.37409	6296.675
2951.83407	6286.675
2954.29254	6293.375
2956.74951	6276.475
2959.20498	6253.975
2961.65895	6251.275
2964.11142	6254.875
2966.56239	6241.975
2969.01186	6213.075
2971.45984	6216.875
2973.90632	6202.775
2976.35131	6198.875
2978.7948	6164.375
2981.23681	6152.575
2983.67732	6146.775
2986.11635	6136.075
2988.55388	6127.175
2990.98993	6126.375
2993.4245	6112.175
2995.85758	6096.875
2998.28917	6072.275
3000.71928	6070.175
3003.14791	6059.875
3005.57506	6044.575
3008.00073	6033.875
3010.42493	6015.575
3012.84764	6008.475
3015.26888	6023.375
3017.68865	5989.675
3020.10694	5995.175
3022.52376	5999.375
3024.9391	5981.475
3027.35298	5989.875
3029.76539	5946.975
3032.17632	5968.475
3034.5858	5940.575
3036.9938	5927.875
3039.40034	5929.375
3041.80542	5915.375
3044.20903	5911.075
3046.61118	5914.575
3049.01187	5898.775
3051.4111	5903.875
3053.80888	5880.175
3056.20519	5894.075
3058.60005	5887.875
3060.99345	5871.975
3063.3854	5848.275
3065.7759	5856.775
3068.16494	5833.075
3070.55254	5808.075
3072.93868	5805.775
3075.32338	5775.975
3077.70662	5781.575
3080.08842	5742.975
3082.46878	5750.075
3084.84769	5729.475
3087.22515	5755.875
3089.60118	5745.475
3091.97576	5751.675
3094.3489	5742.375
3096.72061	5751.075
3099.09087	5765.775
3101.4597	5752.175
3103.82709	5748.475
3106.19305	5761.175
3108.55757	5765.475
3110.92066	5724.275
3113.28232	5722.275
3115.64255	5715.675
3118.00134	5707.575
3120.35871	5718.675
3122.71466	5700.675
3125.06917	5702.375
3127.42226	5686.775
3129.77393	5699.475
3132.12417	5678.475
3134.47299	5673.175
3136.82039	5677.475
3139.16636	5673.975
3141.51092	5673.375
3143.85406	5667.475
3146.19579	5675.175
3148.53609	5695.075
3150.87499	5681.975
3153.21246	5708.475
3155.54853	5724.975
3157.88318	5725.375
3160.21642	5735.975
3162.54826	5709.575
3164.87868	5728.875
3167.2077	5707.975
3169.5353	5703.875
3171.86151	5704.475
3174.18631	5711.675
3176.5097	5715.075
3178.83169	5700.375
3181.15228	5694.175
3183.47147	5692.375
3185.78926	5698.675
3188.10565	5691.675
