Data from AgNPs_FTO_APTES_UA_50uM_CRN_1000uM_R6G_10uM_NaF_0.1M_Addition_RamanShift__23__17-53-03-604.txt Node

Date: Mon Feb 21 17:53:03 GMT 2022
User: TCL
Spectrometer: QEP01345
Trigger mode: 4
Integration Time (sec): 7.000000E0
Scans to average: 10
Electric dark correction enabled: true
Nonlinearity correction enabled: false
Boxcar width: 0
XAxis mode: Raman Shifts
Number of Pixels in Spectrum: 1044
>>>>>Begin Spectral Data<<<<<
46.04893	-1.1875
50.45542	-0.7875
54.85868	-1.4875
59.25871	-1.3875
63.6555	60.3125
68.04907	65.8125
72.43941	66.7125
76.82654	69.2125
81.21044	73.5125
85.59113	72.2125
89.96862	78.2125
94.34289	76.1125
98.71396	81.8125
103.08183	84.4125
107.4465	87.6125
111.80798	90.7125
116.16626	92.0125
120.52136	98.8125
124.87327	100.6125
129.222	101.4125
133.56755	109.1125
137.90993	119.1125
142.24913	128.7125
146.58517	145.7125
150.91804	166.0125
155.24774	201.4125
159.57429	255.1125
163.89768	335.1125
168.21792	444.9125
172.53501	609.7125
176.84895	859.5125
181.15975	1204.8125
185.46741	1699.9125
189.77193	2347.6125
194.07331	3149.4125
198.37157	4068.5125
202.6667	5050.6125
206.9587	6051.6125
211.24758	7044.9125
215.53334	8082.9125
219.81599	9244.8125
224.09553	10566.2125
228.37195	12004.7125
232.64527	13572.6125
236.91549	15144.5125
241.18261	16549.4125
245.44663	17797.6125
249.70755	18800.5125
253.96539	19675.8125
258.22014	20506.1125
262.4718	21098.4125
266.72039	21483.3125
270.96589	21395.8125
275.20832	21156.5125
279.44768	20665.6125
283.68397	20094.1125
287.91719	19715.6125
292.14735	19699.3125
296.37445	20162.7125
300.59849	21044.4125
304.81948	22093.4125
309.03742	22891.2125
313.25231	22870.8125
317.46415	21793.6125
321.67296	20078.7125
325.87872	18639.6125
330.08145	17979.4125
334.28114	17982.3125
338.47781	18301.7125
342.67145	18875.0125
346.86207	19684.1125
351.04966	20942.5125
355.23424	22362.4125
359.4158	23494.6125
363.59435	23979.1125
367.76989	24111.6125
371.94243	24054.1125
376.11196	23883.0125
380.27849	23695.4125
384.44203	23412.4125
388.60257	23052.1125
392.76012	22751.0125
396.91468	22847.7125
401.06626	23281.4125
405.21485	23637.7125
409.36047	23094.8125
413.50311	21776.5125
417.64277	20494.2125
421.77947	19704.1125
425.9132	19403.1125
430.04396	19343.3125
434.17176	19460.3125
438.2966	19766.9125
442.41849	20273.5125
446.53742	20983.4125
450.6534	21622.2125
454.76644	22032.5125
458.87653	22013.9125
462.98368	21655.5125
467.08789	21234.5125
471.18916	20775.0125
475.2875	20247.5125
479.38291	19796.7125
483.4754	19455.6125
487.56496	19147.2125
491.6516	18900.9125
495.73531	18756.4125
499.81612	18758.3125
503.89401	19002.8125
507.96899	19293.7125
512.04106	19656.4125
516.11023	20097.2125
520.1765	20383.5125
524.23987	20332.1125
528.30034	20051.0125
532.35792	19682.1125
536.41261	19335.6125
540.46441	18925.0125
544.51333	18665.9125
548.55936	18726.9125
552.60252	19111.0125
556.64279	19670.4125
560.6802	19969.6125
564.71473	20426.5125
568.7464	21281.7125
572.7752	21752.8125
576.80114	20856.4125
580.82422	19824.2125
584.84444	19430.6125
588.86181	19608.0125
592.87633	20071.5125
596.888	20489.5125
600.89682	20880.9125
604.9028	23248.8125
608.90594	30311.5125
612.90624	39704.2125
616.90371	37918.3125
620.89834	26082.6125
624.89015	20379.9125
628.87913	19277.2125
632.86528	19555.1125
636.84862	19910.5125
640.82913	19570.8125
644.80683	18552.8125
648.78172	17803.3125
652.75379	17789.2125
656.72306	18538.0125
660.68952	19500.9125
664.65319	19269.1125
668.61405	18221.0125
672.57211	17729.6125
676.52738	17770.8125
680.47986	17783.8125
684.42955	17597.5125
688.37646	17384.1125
692.32058	17373.2125
696.26192	17537.8125
700.20048	17763.7125
704.13626	17919.1125
708.06928	17801.9125
711.99952	17577.5125
715.927	17491.9125
719.85171	17651.1125
723.77365	17748.1125
727.69284	17668.3125
731.60928	17517.4125
735.52295	17468.9125
739.43388	17527.8125
743.34206	17598.6125
747.24749	17592.0125
751.15017	17598.3125
755.05012	17887.9125
758.94733	18767.1125
762.8418	21088.9125
766.73354	25088.6125
770.62254	29149.3125
774.50882	31370.9125
778.39237	30003.5125
782.27321	25571.1125
786.15132	21315.0125
790.02671	18840.8125
793.89938	17750.0125
797.76935	17358.8125
801.6366	17161.0125
805.50115	17079.0125
809.36299	17015.3125
813.22213	17006.3125
817.07857	16950.5125
820.93231	16897.9125
824.78336	16845.7125
828.63172	16936.3125
832.47738	16920.9125
836.32036	16828.8125
840.16066	16706.6125
843.99827	16631.4125
847.8332	16620.6125
851.66546	16582.3125
855.49504	16544.3125
859.32195	16598.4125
863.1462	16577.8125
866.96777	16514.3125
870.78668	16499.1125
874.60293	16480.5125
878.41652	16525.6125
882.22745	16603.8125
886.03573	16731.2125
889.84136	16668.7125
893.64433	16555.2125
897.44466	16481.4125
901.24235	16430.9125
905.0374	16339.3125
908.8298	16189.4125
912.61957	16017.3125
916.40671	16091.0125
920.19121	16172.0125
923.97308	16298.0125
927.75233	16586.4125
931.52895	16866.8125
935.30295	16749.3125
939.07433	16187.4125
942.84309	15713.5125
946.60924	15404.4125
950.37278	15279.3125
954.13371	15174.5125
957.89203	15085.3125
961.64774	15055.7125
965.40086	15000.3125
969.15137	14913.4125
972.89929	14870.7125
976.64461	14823.0125
980.38733	14825.6125
984.12747	14837.8125
987.86502	14898.6125
991.59999	15001.3125
995.33237	15226.1125
999.06217	15563.1125
1002.78939	15964.6125
1006.51404	16353.2125
1010.23611	16642.5125
1013.95561	16879.2125
1017.67255	16803.9125
1021.38692	16534.7125
1025.09872	16253.4125
1028.80796	16058.9125
1032.51465	16179.6125
1036.21877	16375.6125
1039.92035	16435.4125
1043.61937	16436.0125
1047.31584	16340.3125
1051.00976	16203.2125
1054.70114	16055.8125
1058.38998	15938.3125
1062.07627	15940.5125
1065.76003	15945.0125
1069.44126	15961.2125
1073.11995	16079.4125
1076.79611	16320.7125
1080.46974	16760.3125
1084.14085	17305.3125
1087.80943	17886.8125
1091.47549	18114.8125
1095.13903	17776.5125
1098.80005	17153.7125
1102.45857	16659.1125
1106.11456	16578.3125
1109.76805	16817.3125
1113.41903	17410.9125
1117.06751	18279.3125
1120.71348	19362.2125
1124.35696	20529.1125
1127.99793	21325.3125
1131.63641	20941.7125
1135.2724	19648.6125
1138.90589	18502.6125
1142.5369	17779.3125
1146.16542	17263.1125
1149.79145	17017.2125
1153.415	16901.2125
1157.03607	17027.4125
1160.65467	17371.0125
1164.27079	18070.2125
1167.88443	19163.4125
1171.49561	20858.6125
1175.10432	23555.8125
1178.71056	27276.0125
1182.31434	30460.3125
1185.91565	31304.3125
1189.51451	30018.9125
1193.11091	27642.9125
1196.70485	25235.6125
1200.29634	23592.0125
1203.88538	22407.6125
1207.47197	20991.9125
1211.05612	19752.1125
1214.63782	18999.0125
1218.21708	18738.3125
1221.79391	18685.5125
1225.36829	18623.0125
1228.94024	18402.9125
1232.50976	18103.2125
1236.07685	17965.0125
1239.6415	18013.3125
1243.20374	18116.1125
1246.76355	18296.2125
1250.32093	18548.6125
1253.8759	18980.3125
1257.42845	19587.3125
1260.97859	20232.0125
1264.52631	20979.0125
1268.07163	21719.3125
1271.61453	22331.1125
1275.15503	22789.0125
1278.69312	22962.2125
1282.22882	23126.7125
1285.76211	23733.3125
1289.29301	24576.5125
1292.82151	25643.1125
1296.34761	26876.7125
1299.87133	28789.7125
1303.39266	31919.2125
1306.9116	36618.3125
1310.42815	41474.5125
1313.94233	43349.1125
1317.45412	41030.5125
1320.96354	36880.2125
1324.47058	32908.4125
1327.97525	29803.7125
1331.47754	27981.2125
1334.97747	27355.3125
1338.47502	27717.1125
1341.97022	28848.2125
1345.46305	30616.9125
1348.95352	32998.3125
1352.44163	36094.3125
1355.92738	40792.5125
1359.41078	48004.9125
1362.89183	54301.3125
1366.37053	51565.1125
1369.84688	41702.9125
1373.32088	33038.5125
1376.79254	27868.5125
1380.26186	25312.4125
1383.72883	23993.1125
1387.19347	23076.6125
1390.65578	22157.0125
1394.11575	21490.6125
1397.57339	21223.4125
1401.0287	21409.0125
1404.48168	21691.3125
1407.93234	21977.7125
1411.38068	22154.0125
1414.82669	22202.6125
1418.27039	21980.2125
1421.71177	21420.3125
1425.15083	20810.4125
1428.58758	20523.6125
1432.02203	20691.8125
1435.45416	21022.3125
1438.88399	21139.7125
1442.31151	21239.9125
1445.73673	21445.8125
1449.15965	21721.7125
1452.58027	21715.7125
1455.9986	21494.8125
1459.41463	21430.1125
1462.82837	21702.9125
1466.23982	22284.6125
1469.64898	22935.2125
1473.05586	23282.2125
1476.46045	23424.1125
1479.86276	23584.0125
1483.26279	23930.2125
1486.66054	24474.0125
1490.05602	25299.0125
1493.44922	26514.7125
1496.84016	28388.4125
1500.22882	31753.4125
1503.61521	37056.6125
1506.99934	43526.8125
1510.38121	48963.7125
1513.76081	49849.0125
1517.13816	45286.0125
1520.51324	37902.2125
1523.88607	31347.0125
1527.25665	27277.6125
1530.62498	25142.8125
1533.99105	23935.6125
1537.35488	23225.5125
1540.71647	22844.8125
1544.07581	22731.5125
1547.4329	22836.6125
1550.78776	22916.6125
1554.14038	23049.7125
1557.49077	23386.7125
1560.83892	23887.7125
1564.18484	24683.5125
1567.52853	25686.5125
1570.86999	26409.5125
1574.20922	26801.9125
1577.54624	26562.8125
1580.88103	24955.5125
1584.2136	22903.6125
1587.54395	21808.6125
1590.87208	22044.6125
1594.19801	23470.2125
1597.52172	25530.5125
1600.84321	26617.2125
1604.16251	25925.2125
1607.47959	24138.5125
1610.79447	22029.3125
1614.10715	19956.6125
1617.41763	18347.8125
1620.7259	17347.4125
1624.03199	16950.1125
1627.33587	16937.2125
1630.63757	17467.5125
1633.93707	18499.8125
1637.23439	20270.0125
1640.52951	23164.0125
1643.82246	27363.8125
1647.11321	32211.5125
1650.40179	35231.1125
1653.68819	33581.4125
1656.97241	28020.6125
1660.25446	22414.5125
1663.53433	18679.6125
1666.81203	16559.4125
1670.08756	15348.7125
1673.36092	14558.1125
1676.63211	14102.2125
1679.90115	13746.3125
1683.16801	13492.3125
1686.43272	13301.3125
1689.69527	13147.7125
1692.95567	13046.9125
1696.2139	12960.3125
1699.46999	12889.0125
1702.72392	12812.7125
1705.97571	12769.5125
1709.22535	12779.6125
1712.47284	12764.3125
1715.71819	12730.4125
1718.96139	12707.3125
1722.20246	12656.6125
1725.44139	12557.0125
1728.67818	12454.6125
1731.91284	12337.6125
1735.14537	12226.8125
1738.37576	12190.7125
1741.60403	12128.0125
1744.83017	12092.0125
1748.05418	12042.6125
1751.27607	12018.3125
1754.49584	12004.3125
1757.71349	11960.8125
1760.92903	11899.1125
1764.14244	11877.6125
1767.35375	11817.2125
1770.56294	11770.1125
1773.77002	11718.5125
1776.97499	11671.8125
1780.17785	11640.4125
1783.37861	11570.7125
1786.57727	11551.8125
1789.77382	11507.0125
1792.96828	11481.4125
1796.16064	11493.7125
1799.3509	11458.6125
1802.53907	11442.5125
1805.72514	11377.7125
1808.90913	11349.2125
1812.09102	11303.2125
1815.27083	11263.0125
1818.44856	11222.5125
1821.6242	11196.8125
1824.79776	11159.5125
1827.96924	11139.5125
1831.13864	11129.6125
1834.30597	11115.2125
1837.47122	11106.4125
1840.6344	11045.4125
1843.7955	11056.8125
1846.95454	11016.2125
1850.11151	11026.1125
1853.26642	10988.3125
1856.41926	10982.3125
1859.57004	10998.5125
1862.71876	10984.8125
1865.86542	10985.8125
1869.01003	10981.0125
1872.15258	10968.0125
1875.29308	10981.5125
1878.43152	10964.8125
1881.56792	10983.5125
1884.70227	10969.9125
1887.83457	10937.4125
1890.96482	10935.3125
1894.09304	10919.9125
1897.21921	10886.4125
1900.34335	10937.9125
1903.46544	10887.1125
1906.58551	10888.3125
1909.70353	10877.3125
1912.81953	10841.0125
1915.93349	10820.9125
1919.04543	10783.8125
1922.15534	10753.4125
1925.26322	10723.0125
1928.36908	10713.6125
1931.47292	10650.5125
1934.57473	10619.7125
1937.67453	10594.0125
1940.77232	10567.3125
1943.86808	10548.7125
1946.96184	10518.6125
1950.05358	10462.6125
1953.14331	10416.5125
1956.23103	10395.7125
1959.31675	10369.0125
1962.40046	10335.3125
1965.48217	10292.2125
1968.56188	10288.9125
1971.63959	10272.9125
1974.7153	10247.0125
1977.78901	10174.6125
1980.86073	10150.9125
1983.93046	10120.5125
1986.99819	10088.0125
1990.06394	10060.2125
1993.1277	9990.7125
1996.18947	9953.3125
1999.24925	9920.6125
2002.30706	9906.4125
2005.36288	9800.9125
2008.41672	9829.6125
2011.46859	9746.0125
2014.51848	9765.2125
2017.56639	9732.3125
2020.61233	9676.4125
2023.6563	9647.2125
2026.6983	9656.1125
2029.73833	9619.1125
2032.7764	9585.5125
2035.8125	9583.6125
2038.84664	9573.6125
2041.87881	9538.4125
2044.90903	9512.9125
2047.93729	9480.4125
2050.96359	9477.7125
2053.98794	9455.7125
2057.01034	9466.1125
2060.03078	9433.0125
2063.04927	9409.0125
2066.06582	9420.3125
2069.08042	9393.9125
2072.09307	9371.2125
2075.10378	9353.6125
2078.11255	9350.8125
2081.11938	9335.8125
2084.12426	9351.6125
2087.12722	9335.1125
2090.12824	9313.0125
2093.12732	9318.4125
2096.12447	9328.2125
2099.11969	9315.9125
2102.11299	9310.7125
2105.10435	9299.7125
2108.09379	9309.6125
2111.08131	9340.1125
2114.0669	9325.3125
2117.05057	9323.4125
2120.03233	9352.9125
2123.01216	9329.7125
2125.99008	9347.2125
2128.96609	9369.6125
2131.94018	9366.1125
2134.91236	9377.3125
2137.88263	9343.8125
2140.851	9331.2125
2143.81746	9358.5125
2146.78201	9334.1125
2149.74466	9305.1125
2152.7054	9316.4125
2155.66425	9289.1125
2158.6212	9292.1125
2161.57625	9292.6125
2164.52941	9272.6125
2167.48067	9259.5125
2170.43004	9258.9125
2173.37752	9240.7125
2176.32311	9259.8125
2179.26681	9259.0125
2182.20863	9240.6125
2185.14856	9267.4125
2188.08661	9239.9125
2191.02278	9238.9125
2193.95707	9225.9125
2196.88948	9255.2125
2199.82001	9226.4125
2202.74867	9229.5125
2205.67545	9203.1125
2208.60037	9196.6125
2211.52341	9186.4125
2214.44458	9178.0125
2217.36388	9130.4125
2220.28132	9115.7125
2223.1969	9087.4125
2226.11061	9083.8125
2229.02246	9051.5125
2231.93245	9049.5125
2234.84058	9009.1125
2237.74686	9012.0125
2240.65128	8993.9125
2243.55385	8956.2125
2246.45456	8952.4125
2249.35343	8962.7125
2252.25044	8928.2125
2255.14561	8931.7125
2258.03893	8943.4125
2260.93041	8950.6125
2263.82004	8964.7125
2266.70783	8932.9125
2269.59378	8893.5125
2272.4779	8870.6125
2275.36017	8830.6125
2278.24061	8820.3125
2281.11922	8771.5125
2283.996	8778.4125
2286.87094	8743.3125
2289.74405	8719.0125
2292.61534	8710.9125
2295.4848	8722.0125
2298.35243	8693.8125
2301.21824	8691.9125
2304.08223	8645.3125
2306.94439	8651.0125
2309.80474	8645.1125
2312.66327	8649.8125
2315.51999	8648.3125
2318.37489	8650.5125
2321.22797	8614.2125
2324.07925	8621.4125
2326.92871	8598.5125
2329.77637	8604.9125
2332.62222	8595.4125
2335.46626	8570.2125
2338.3085	8577.7125
2341.14893	8575.9125
2343.98756	8589.1125
2346.8244	8566.8125
2349.65943	8580.5125
2352.49267	8582.2125
2355.32411	8594.6125
2358.15376	8606.8125
2360.98161	8642.4125
2363.80768	8641.8125
2366.63195	8643.4125
2369.45444	8651.3125
2372.27514	8646.2125
2375.09405	8619.8125
2377.91118	8571.6125
2380.72652	8548.5125
2383.54009	8508.7125
2386.35187	8456.0125
2389.16188	8413.0125
2391.97011	8394.7125
2394.77657	8382.7125
2397.58125	8349.5125
2400.38416	8309.5125
2403.18529	8289.0125
2405.98466	8268.6125
2408.78226	8247.8125
2411.57809	8240.5125
2414.37216	8214.9125
2417.16446	8190.3125
2419.955	8225.4125
2422.74378	8219.3125
2425.5308	8193.7125
2428.31606	8183.6125
2431.09956	8198.1125
2433.88131	8171.2125
2436.6613	8197.9125
2439.43954	8169.2125
2442.21603	8193.4125
2444.99077	8191.5125
2447.76377	8181.7125
2450.53501	8182.3125
2453.30451	8205.8125
2456.07226	8190.1125
2458.83827	8196.6125
2461.60254	8162.1125
2464.36507	8165.0125
2467.12586	8160.5125
2469.88492	8157.8125
2472.64224	8166.8125
2475.39782	8172.9125
2478.15167	8174.0125
2480.90379	8187.8125
2483.65417	8220.6125
2486.40283	8243.9125
2489.14976	8276.0125
2491.89497	8257.5125
2494.63845	8277.7125
2497.3802	8267.2125
2500.12024	8238.5125
2502.85855	8212.6125
2505.59514	8181.7125
2508.33002	8144.4125
2511.06318	8106.1125
2513.79462	8072.9125
2516.52435	8026.7125
2519.25237	8002.4125
2521.97867	7970.4125
2524.70327	7945.4125
2527.42616	7938.8125
2530.14734	7925.6125
2532.86681	7925.8125
2535.58458	7937.9125
2538.30065	7929.5125
2541.01501	7952.7125
2543.72768	7917.5125
2546.43864	7929.5125
2549.14791	7910.7125
2551.85548	7883.6125
2554.56136	7899.2125
2557.26554	7883.9125
2559.96803	7864.2125
2562.66883	7857.0125
2565.36794	7862.9125
2568.06536	7844.8125
2570.7611	7834.2125
2573.45514	7818.2125
2576.14751	7799.5125
2578.83819	7788.7125
2581.52719	7784.6125
2584.21451	7771.0125
2586.90015	7750.4125
2589.58411	7744.5125
2592.2664	7733.5125
2594.94701	7716.3125
2597.62594	7726.9125
2600.30321	7714.8125
2602.9788	7713.4125
2605.65273	7677.9125
2608.32498	7712.6125
2610.99557	7700.1125
2613.66449	7719.2125
2616.33175	7721.1125
2618.99734	7694.3125
2621.66128	7676.4125
2624.32355	7691.4125
2626.98416	7680.0125
2629.64311	7657.8125
2632.30041	7651.7125
2634.95605	7611.8125
2637.61004	7600.8125
2640.26238	7598.6125
2642.91306	7601.5125
2645.56209	7588.1125
2648.20948	7575.5125
2650.85521	7566.0125
2653.4993	7563.1125
2656.14175	7557.9125
2658.78255	7564.8125
2661.42171	7564.8125
2664.05923	7601.3125
2666.6951	7602.8125
2669.32934	7613.7125
2671.96194	7620.1125
2674.59291	7612.1125
2677.22224	7596.8125
2679.84993	7611.2125
2682.476	7593.8125
2685.10043	7612.4125
2687.72324	7597.2125
2690.34441	7578.7125
2692.96396	7566.2125
2695.58188	7580.8125
2698.19818	7567.4125
2700.81285	7568.3125
2703.4259	7549.5125
2706.03733	7544.4125
2708.64714	7552.9125
2711.25533	7560.0125
2713.86191	7557.6125
2716.46687	7583.1125
2719.07021	7612.5125
2721.67194	7617.0125
2724.27206	7569.0125
2726.87057	7584.0125
2729.46747	7589.0125
2732.06276	7587.0125
2734.65644	7596.6125
2737.24852	7551.5125
2739.83899	7541.4125
2742.42786	7539.7125
2745.01513	7516.6125
2747.60079	7510.6125
2750.18486	7505.3125
2752.76733	7489.6125
2755.3482	7465.8125
2757.92747	7465.6125
2760.50515	7435.4125
2763.08123	7436.5125
2765.65573	7441.1125
2768.22863	7461.5125
2770.79994	7404.5125
2773.36967	7425.1125
2775.9378	7417.9125
2778.50435	7422.8125
2781.06932	7423.0125
2783.6327	7423.1125
2786.1945	7427.9125
2788.75471	7424.7125
2791.31335	7421.6125
2793.87041	7410.1125
2796.42589	7375.7125
2798.97979	7384.9125
2801.53212	7368.3125
2804.08288	7393.9125
2806.63206	7369.4125
2809.17967	7359.0125
2811.72571	7348.5125
2814.27018	7365.7125
2816.81308	7369.4125
2819.35442	7383.2125
2821.89419	7376.1125
2824.43239	7399.7125
2826.96904	7386.2125
2829.50412	7390.5125
2832.03763	7381.1125
2834.56959	7370.2125
2837.1	7370.1125
2839.62884	7365.0125
2842.15613	7357.0125
2844.68186	7388.4125
2847.20604	7381.6125
2849.72867	7409.7125
2852.24974	7406.0125
2854.76927	7403.2125
2857.28724	7383.4125
2859.80367	7404.0125
2862.31855	7425.3125
2864.83189	7429.4125
2867.34368	7419.2125
2869.85393	7419.1125
2872.36264	7430.4125
2874.8698	7439.6125
2877.37543	7412.8125
2879.87952	7435.0125
2882.38207	7413.9125
2884.88308	7397.6125
2887.38256	7417.0125
2889.88051	7377.8125
2892.37692	7393.4125
2894.8718	7392.7125
2897.36515	7399.0125
2899.85698	7396.4125
2902.34727	7402.7125
2904.83604	7419.2125
2907.32328	7428.4125
2909.809	7434.0125
2912.29319	7435.7125
2914.77587	7436.2125
2917.25702	7442.6125
2919.73665	7433.5125
2922.21476	7438.3125
2924.69136	7422.3125
2927.16644	7425.9125
2929.64	7375.1125
2932.11205	7372.1125
2934.58258	7361.5125
2937.05161	7352.0125
2939.51912	7335.7125
2941.98513	7324.5125
2944.44962	7307.5125
2946.91261	7272.4125
2949.37409	7284.9125
2951.83407	7250.9125
2954.29254	7240.5125
2956.74951	7234.6125
2959.20498	7224.2125
2961.65895	7201.7125
2964.11142	7178.9125
2966.56239	7156.6125
2969.01186	7142.4125
2971.45984	7112.8125
2973.90632	7107.4125
2976.35131	7066.6125
2978.7948	7051.2125
2981.23681	7026.0125
2983.67732	7020.3125
2986.11635	6991.7125
2988.55388	7003.4125
2990.98993	6963.1125
2993.4245	6954.7125
2995.85758	6959.4125
2998.28917	6930.0125
3000.71928	6927.3125
3003.14791	6921.1125
3005.57506	6925.9125
3008.00073	6892.0125
3010.42493	6899.3125
3012.84764	6881.8125
3015.26888	6871.4125
3017.68865	6849.5125
3020.10694	6844.2125
3022.52376	6831.0125
3024.9391	6830.3125
3027.35298	6785.0125
3029.76539	6770.7125
3032.17632	6746.1125
3034.5858	6738.1125
3036.9938	6707.0125
3039.40034	6703.0125
3041.80542	6701.3125
3044.20903	6689.3125
3046.61118	6686.8125
3049.01187	6648.9125
3051.4111	6665.7125
3053.80888	6639.7125
3056.20519	6643.1125
3058.60005	6608.6125
3060.99345	6606.2125
3063.3854	6575.9125
3065.7759	6559.3125
3068.16494	6535.0125
