Data from AgNPs_FTO_APTES_UA_50uM_CRN_100uM_R6G_10uM_NaF_0.1M_Addition_RamanShift__20__15-39-15-041.txt Node

Date: Mon Feb 21 15:39:15 GMT 2022
User: TCL
Spectrometer: QEP01345
Trigger mode: 4
Integration Time (sec): 7.000000E0
Scans to average: 10
Electric dark correction enabled: true
Nonlinearity correction enabled: false
Boxcar width: 0
XAxis mode: Raman Shifts
Number of Pixels in Spectrum: 1044
>>>>>Begin Spectral Data<<<<<
46.04893	-0.35
50.45542	-0.55
54.85868	-1.95
59.25871	-1.95
63.6555	52.05
68.04907	58.15
72.43941	59.95
76.82654	65.25
81.21044	65.75
85.59113	66.85
89.96862	67.95
94.34289	74.55
98.71396	78.55
103.08183	80.55
107.4465	80.25
111.80798	82.25
116.16626	78.75
120.52136	81.25
124.87327	91.75
129.222	89.15
133.56755	95.55
137.90993	100.45
142.24913	107.35
146.58517	120.95
150.91804	134.85
155.24774	160.65
159.57429	198.85
163.89768	249.25
168.21792	333.05
172.53501	451.55
176.84895	629.95
181.15975	884.85
185.46741	1237.05
189.77193	1706.65
194.07331	2292.25
198.37157	2953.85
202.6667	3657.35
206.9587	4363.55
211.24758	5045.95
215.53334	5745.45
219.81599	6480.05
224.09553	7302.35
228.37195	8230.75
232.64527	9268.25
236.91549	10327.65
241.18261	11382.25
245.44663	12337.75
249.70755	13171.25
253.96539	13860.95
258.22014	14426.05
262.4718	14897.75
266.72039	15275.85
270.96589	15447.75
275.20832	15432.35
279.44768	15265.55
283.68397	15039.55
287.91719	14844.95
292.14735	14798.25
296.37445	14809.35
300.59849	14981.75
304.81948	15233.55
309.03742	15323.65
313.25231	15203.45
317.46415	14792.75
321.67296	14245.25
325.87872	13818.35
330.08145	13617.65
334.28114	13666.95
338.47781	13817.25
342.67145	14060.85
346.86207	14388.05
351.04966	14814.85
355.23424	15287.95
359.4158	15730.55
363.59435	16013.15
367.76989	16193.65
371.94243	16277.35
376.11196	16335.55
380.27849	16403.05
384.44203	16433.05
388.60257	16427.75
392.76012	16455.75
396.91468	16585.15
401.06626	16808.65
405.21485	17000.15
409.36047	16885.15
413.50311	16484.35
417.64277	16043.55
421.77947	15859.35
425.9132	15757.15
430.04396	15788.05
434.17176	15898.75
438.2966	16117.45
442.41849	16402.85
446.53742	16787.25
450.6534	17214.55
454.76644	17556.25
458.87653	17651.45
462.98368	17581.95
467.08789	17371.65
471.18916	17186.05
475.2875	16884.65
479.38291	16673.85
483.4754	16572.75
487.56496	16376.25
491.6516	16243.95
495.73531	16143.65
499.81612	16149.85
503.89401	16304.45
507.96899	16387.15
512.04106	16478.55
516.11023	16555.15
520.1765	16625.55
524.23987	16582.35
528.30034	16507.55
532.35792	16403.15
536.41261	16275.95
540.46441	16111.85
544.51333	15982.05
548.55936	15993.85
552.60252	16230.15
556.64279	16433.05
560.6802	16550.25
564.71473	16632.85
568.7464	16833.55
572.7752	17056.55
576.80114	16991.15
580.82422	16917.65
584.84444	16959.05
588.86181	17129.65
592.87633	17421.65
596.888	17687.95
600.89682	17893.25
604.9028	18808.65
608.90594	21337.25
612.90624	24454.15
616.90371	23308.75
620.89834	18912.95
624.89015	16995.85
628.87913	16690.35
632.86528	16760.95
636.84862	16787.85
640.82913	16642.55
644.80683	16184.85
648.78172	15857.35
652.75379	15800.55
656.72306	16063.45
660.68952	16480.95
664.65319	16403.85
668.61405	16126.05
672.57211	16051.35
676.52738	16131.85
680.47986	16166.85
684.42955	16077.05
688.37646	15912.45
692.32058	15840.85
696.26192	15909.45
700.20048	16035.25
704.13626	16075.15
708.06928	15998.85
711.99952	15907.25
715.927	15858.95
719.85171	15896.75
723.77365	15901.45
727.69284	15855.75
731.60928	15815.05
735.52295	15834.05
739.43388	15878.65
743.34206	15930.85
747.24749	15948.65
751.15017	16010.65
755.05012	16145.55
758.94733	16517.05
762.8418	17382.55
766.73354	18894.55
770.62254	20670.35
774.50882	21537.05
778.39237	20790.05
782.27321	18994.95
786.15132	17343.25
790.02671	16397.95
793.89938	15916.35
797.76935	15714.55
801.6366	15674.35
805.50115	15641.75
809.36299	15577.45
813.22213	15451.75
817.07857	15373.65
820.93231	15329.85
824.78336	15341.35
828.63172	15341.35
832.47738	15381.05
836.32036	15380.25
840.16066	15434.65
843.99827	15460.75
847.8332	15430.45
851.66546	15376.65
855.49504	15332.55
859.32195	15395.05
863.1462	15433.85
866.96777	15433.35
870.78668	15413.95
874.60293	15395.35
878.41652	15402.65
882.22745	15472.75
886.03573	15527.65
889.84136	15457.05
893.64433	15388.85
897.44466	15303.65
901.24235	15293.05
905.0374	15190.85
908.8298	15098.75
912.61957	15092.85
916.40671	15142.05
920.19121	15275.65
923.97308	15443.95
927.75233	15524.25
931.52895	15584.95
935.30295	15526.55
939.07433	15265.05
942.84309	15018.95
946.60924	14914.55
950.37278	14813.45
954.13371	14761.55
957.89203	14663.55
961.64774	14629.95
965.40086	14564.45
969.15137	14478.85
972.89929	14415.15
976.64461	14419.75
980.38733	14439.75
984.12747	14477.85
987.86502	14583.85
991.59999	14777.55
995.33237	15025.05
999.06217	15377.15
1002.78939	15819.35
1006.51404	16015.35
1010.23611	16117.55
1013.95561	16264.55
1017.67255	16329.45
1021.38692	16195.35
1025.09872	16038.45
1028.80796	16140.15
1032.51465	16528.45
1036.21877	16898.35
1039.92035	17015.05
1043.61937	16835.25
1047.31584	16499.85
1051.00976	16128.25
1054.70114	15900.35
1058.38998	15831.25
1062.07627	15811.25
1065.76003	15817.05
1069.44126	15814.15
1073.11995	15845.15
1076.79611	15949.95
1080.46974	16108.05
1084.14085	16289.85
1087.80943	16525.65
1091.47549	16614.15
1095.13903	16515.65
1098.80005	16293.05
1102.45857	16048.65
1106.11456	15971.15
1109.76805	16070.25
1113.41903	16253.05
1117.06751	16517.45
1120.71348	16867.85
1124.35696	17202.75
1127.99793	17516.05
1131.63641	17551.75
1135.2724	17284.05
1138.90589	16903.55
1142.5369	16620.05
1146.16542	16378.15
1149.79145	16214.65
1153.415	16150.45
1157.03607	16247.25
1160.65467	16524.65
1164.27079	16984.55
1167.88443	17694.65
1171.49561	18617.25
1175.10432	19987.25
1178.71056	21778.75
1182.31434	23473.05
1185.91565	24214.15
1189.51451	24006.35
1193.11091	22983.95
1196.70485	21782.55
1200.29634	20742.15
1203.88538	19972.55
1207.47197	19223.85
1211.05612	18551.65
1214.63782	18131.65
1218.21708	18038.25
1221.79391	18095.85
1225.36829	18176.05
1228.94024	18103.05
1232.50976	17860.95
1236.07685	17634.15
1239.6415	17507.15
1243.20374	17545.55
1246.76355	17663.05
1250.32093	17881.45
1253.8759	18214.55
1257.42845	18656.95
1260.97859	19051.75
1264.52631	19441.05
1268.07163	19900.45
1271.61453	20409.65
1275.15503	20967.65
1278.69312	21484.55
1282.22882	21784.55
1285.76211	22115.35
1289.29301	22490.95
1292.82151	22999.65
1296.34761	23707.85
1299.87133	24822.85
1303.39266	26376.25
1306.9116	28445.85
1310.42815	30659.95
1313.94233	31746.85
1317.45412	31244.65
1320.96354	29776.05
1324.47058	28147.15
1327.97525	26744.75
1331.47754	25859.35
1334.97747	25530.65
1338.47502	25641.55
1341.97022	26125.45
1345.46305	26653.55
1348.95352	27328.35
1352.44163	28281.45
1355.92738	29905.95
1359.41078	32363.15
1362.89183	34518.05
1366.37053	33583.55
1369.84688	29648.15
1373.32088	25670.05
1376.79254	23101.15
1380.26186	21838.65
1383.72883	21218.85
1387.19347	20804.75
1390.65578	20355.45
1394.11575	20086.95
1397.57339	20118.65
1401.0287	20316.85
1404.48168	20609.25
1407.93234	20783.05
1411.38068	20901.65
1414.82669	20824.25
1418.27039	20543.15
1421.71177	20089.05
1425.15083	19603.35
1428.58758	19351.15
1432.02203	19386.65
1435.45416	19588.85
1438.88399	19799.05
1442.31151	19957.55
1445.73673	20108.65
1449.15965	20295.65
1452.58027	20381.85
1455.9986	20345.95
1459.41463	20453.85
1462.82837	20659.55
1466.23982	21058.35
1469.64898	21446.75
1473.05586	21741.85
1476.46045	21873.35
1479.86276	21959.55
1483.26279	21977.75
1486.66054	22093.15
1490.05602	22357.15
1493.44922	22785.85
1496.84016	23424.05
1500.22882	24511.75
1503.61521	26061.15
1506.99934	28042.25
1510.38121	29685.45
1513.76081	30012.85
1517.13816	28634.75
1520.51324	26348.85
1523.88607	24224.25
1527.25665	22850.85
1530.62498	22073.45
1533.99105	21607.85
1537.35488	21333.75
1540.71647	21213.95
1544.07581	21042.65
1547.4329	20923.15
1550.78776	20815.05
1554.14038	20804.35
1557.49077	20850.95
1560.83892	21007.55
1564.18484	21204.65
1567.52853	21387.25
1570.86999	21595.75
1574.20922	21752.75
1577.54624	21662.85
1580.88103	21169.55
1584.2136	20555.95
1587.54395	20419.55
1590.87208	20970.15
1594.19801	22097.05
1597.52172	23477.55
1600.84321	24169.25
1604.16251	23584.15
1607.47959	22260.85
1610.79447	20805.05
1614.10715	19396.45
1617.41763	18231.45
1620.7259	17455.75
1624.03199	17018.35
1627.33587	17052.15
1630.63757	17368.45
1633.93707	18098.85
1637.23439	19241.85
1640.52951	20796.95
1643.82246	22655.55
1647.11321	24493.65
1650.40179	25303.65
1653.68819	24243.15
1656.97241	21581.35
1660.25446	18892.05
1663.53433	16996.05
1666.81203	15842.75
1670.08756	15171.55
1673.36092	14727.45
1676.63211	14433.05
1679.90115	14211.45
1683.16801	14075.35
1686.43272	13923.75
1689.69527	13824.45
1692.95567	13699.75
1696.2139	13551.25
1699.46999	13413.55
1702.72392	13375.95
1705.97571	13437.75
1709.22535	13500.65
1712.47284	13536.15
1715.71819	13564.55
1718.96139	13569.05
1722.20246	13527.85
1725.44139	13493.45
1728.67818	13428.75
1731.91284	13402.75
1735.14537	13289.55
1738.37576	13286.15
1741.60403	13228.05
1744.83017	13191.95
1748.05418	13171.45
1751.27607	13140.85
1754.49584	13087.75
1757.71349	13000.35
1760.92903	12949.45
1764.14244	12902.15
1767.35375	12897.25
1770.56294	12864.25
1773.77002	12866.15
1776.97499	12853.25
1780.17785	12874.65
1783.37861	12915.05
1786.57727	12922.75
1789.77382	12905.25
1792.96828	12882.15
1796.16064	12879.65
1799.3509	12859.45
1802.53907	12824.05
1805.72514	12820.15
1808.90913	12756.05
1812.09102	12754.25
1815.27083	12743.85
1818.44856	12719.05
1821.6242	12729.05
1824.79776	12708.85
1827.96924	12688.55
1831.13864	12643.95
1834.30597	12647.55
1837.47122	12637.55
1840.6344	12626.25
1843.7955	12630.45
1846.95454	12621.25
1850.11151	12603.65
1853.26642	12604.55
1856.41926	12578.35
1859.57004	12572.85
1862.71876	12590.05
1865.86542	12597.25
1869.01003	12563.95
1872.15258	12566.35
1875.29308	12566.45
1878.43152	12571.05
1881.56792	12555.55
1884.70227	12552.85
1887.83457	12555.15
1890.96482	12528.05
1894.09304	12525.95
1897.21921	12507.15
1900.34335	12493.35
1903.46544	12489.15
1906.58551	12457.45
1909.70353	12461.95
1912.81953	12462.95
1915.93349	12456.85
1919.04543	12438.15
1922.15534	12407.45
1925.26322	12368.95
1928.36908	12345.05
1931.47292	12325.45
1934.57473	12293.25
1937.67453	12303.65
1940.77232	12259.15
1943.86808	12219.25
1946.96184	12202.65
1950.05358	12128.55
1953.14331	12113.45
1956.23103	12088.15
1959.31675	12055.85
1962.40046	12038.15
1965.48217	12002.25
1968.56188	11975.85
1971.63959	11930.35
1974.7153	11904.25
1977.78901	11898.25
1980.86073	11852.65
1983.93046	11797.65
1986.99819	11750.65
1990.06394	11750.25
1993.1277	11720.15
1996.18947	11657.35
1999.24925	11636.05
2002.30706	11600.95
2005.36288	11575.45
2008.41672	11544.75
2011.46859	11506.85
2014.51848	11478.05
2017.56639	11462.95
2020.61233	11457.75
2023.6563	11395.75
2026.6983	11396.15
2029.73833	11363.55
2032.7764	11337.05
2035.8125	11326.35
2038.84664	11305.65
2041.87881	11301.15
2044.90903	11256.55
2047.93729	11248.05
2050.96359	11273.15
2053.98794	11248.35
2057.01034	11222.95
2060.03078	11246.45
2063.04927	11217.55
2066.06582	11211.35
2069.08042	11195.45
2072.09307	11174.25
2075.10378	11177.75
2078.11255	11163.15
2081.11938	11154.95
2084.12426	11151.75
2087.12722	11155.65
2090.12824	11134.95
2093.12732	11126.25
2096.12447	11138.85
2099.11969	11125.05
2102.11299	11141.25
2105.10435	11125.75
2108.09379	11139.35
2111.08131	11138.85
2114.0669	11157.15
2117.05057	11145.95
2120.03233	11180.85
2123.01216	11195.25
2125.99008	11201.65
2128.96609	11237.05
2131.94018	11237.85
2134.91236	11250.95
2137.88263	11240.15
2140.851	11257.95
2143.81746	11263.15
2146.78201	11242.85
2149.74466	11284.95
2152.7054	11271.35
2155.66425	11260.25
2158.6212	11259.25
2161.57625	11250.95
2164.52941	11250.15
2167.48067	11219.35
2170.43004	11246.95
2173.37752	11234.55
2176.32311	11226.65
2179.26681	11248.25
2182.20863	11253.25
2185.14856	11247.65
2188.08661	11251.35
2191.02278	11277.15
2193.95707	11227.45
2196.88948	11235.35
2199.82001	11261.05
2202.74867	11248.25
2205.67545	11270.25
2208.60037	11237.85
2211.52341	11211.15
2214.44458	11193.45
2217.36388	11180.25
2220.28132	11188.35
2223.1969	11179.45
2226.11061	11150.65
2229.02246	11127.35
2231.93245	11087.95
2234.84058	11062.65
2237.74686	11084.95
2240.65128	11050.45
2243.55385	11048.65
2246.45456	11064.15
2249.35343	11050.45
2252.25044	11012.75
2255.14561	10987.45
2258.03893	10984.15
2260.93041	10936.35
2263.82004	10924.35
2266.70783	10917.65
2269.59378	10898.75
2272.4779	10859.55
2275.36017	10861.75
2278.24061	10837.45
2281.11922	10797.35
2283.996	10790.65
2286.87094	10780.65
2289.74405	10747.75
2292.61534	10772.55
2295.4848	10752.65
2298.35243	10775.65
2301.21824	10771.25
2304.08223	10756.05
2306.94439	10769.45
2309.80474	10757.55
2312.66327	10801.45
2315.51999	10777.25
2318.37489	10737.25
2321.22797	10747.75
2324.07925	10727.65
2326.92871	10743.35
2329.77637	10725.35
2332.62222	10712.05
2335.46626	10694.85
2338.3085	10699.05
2341.14893	10687.65
2343.98756	10716.85
2346.8244	10713.75
2349.65943	10709.95
2352.49267	10715.75
2355.32411	10708.55
2358.15376	10696.75
2360.98161	10687.65
2363.80768	10675.55
2366.63195	10680.55
2369.45444	10659.25
2372.27514	10638.65
2375.09405	10620.85
2377.91118	10624.95
2380.72652	10575.35
2383.54009	10550.55
2386.35187	10541.75
2389.16188	10494.85
2391.97011	10491.15
2394.77657	10468.25
2397.58125	10434.65
2400.38416	10441.95
2403.18529	10429.95
2405.98466	10410.35
2408.78226	10394.45
2411.57809	10356.35
2414.37216	10341.35
2417.16446	10306.15
2419.955	10311.15
2422.74378	10350.15
2425.5308	10306.45
2428.31606	10303.55
2431.09956	10303.65
2433.88131	10281.35
2436.6613	10304.05
2439.43954	10300.15
2442.21603	10258.65
2444.99077	10266.75
2447.76377	10292.75
2450.53501	10309.05
2453.30451	10271.25
2456.07226	10252.25
2458.83827	10235.75
2461.60254	10232.45
2464.36507	10246.15
2467.12586	10238.25
2469.88492	10261.45
2472.64224	10254.65
2475.39782	10246.45
2478.15167	10247.65
2480.90379	10253.75
2483.65417	10291.35
2486.40283	10292.55
2489.14976	10302.15
2491.89497	10275.55
2494.63845	10288.65
2497.3802	10251.35
2500.12024	10257.45
2502.85855	10266.95
2505.59514	10249.05
2508.33002	10218.25
2511.06318	10234.25
2513.79462	10204.85
2516.52435	10161.45
2519.25237	10142.95
2521.97867	10129.05
2524.70327	10137.45
2527.42616	10134.65
2530.14734	10114.95
2532.86681	10116.05
2535.58458	10149.85
2538.30065	10130.55
2541.01501	10111.75
2543.72768	10101.85
2546.43864	10100.15
2549.14791	10059.55
2551.85548	10062.15
2554.56136	10046.55
2557.26554	10041.95
2559.96803	10046.95
2562.66883	10037.45
2565.36794	10019.65
2568.06536	10018.75
2570.7611	10018.85
2573.45514	9981.85
2576.14751	9986.35
2578.83819	9963.85
2581.52719	9961.25
2584.21451	9956.75
2586.90015	9945.65
2589.58411	9932.15
2592.2664	9924.55
2594.94701	9914.45
2597.62594	9923.05
2600.30321	9905.55
2602.9788	9908.75
2605.65273	9897.05
2608.32498	9909.65
2610.99557	9896.05
2613.66449	9897.55
2616.33175	9894.65
2618.99734	9928.75
2621.66128	9897.85
2624.32355	9918.65
2626.98416	9900.35
2629.64311	9902.05
2632.30041	9885.75
2634.95605	9849.85
2637.61004	9872.55
2640.26238	9853.85
2642.91306	9855.45
2645.56209	9822.75
2648.20948	9793.25
2650.85521	9803.15
2653.4993	9790.15
2656.14175	9816.45
2658.78255	9802.05
2661.42171	9805.35
2664.05923	9823.05
2666.6951	9819.55
2669.32934	9838.75
2671.96194	9806.85
2674.59291	9843.35
2677.22224	9823.85
2679.84993	9829.75
2682.476	9807.15
2685.10043	9793.25
2687.72324	9796.95
2690.34441	9822.25
2692.96396	9810.65
2695.58188	9815.45
2698.19818	9767.05
2700.81285	9768.65
2703.4259	9767.55
2706.03733	9703.95
2708.64714	9718.15
2711.25533	9762.75
2713.86191	9765.75
2716.46687	9794.35
2719.07021	9794.75
2721.67194	9800.15
2724.27206	9799.65
2726.87057	9815.35
2729.46747	9814.75
2732.06276	9838.35
2734.65644	9809.35
2737.24852	9808.45
2739.83899	9784.95
2742.42786	9807.75
2745.01513	9769.05
2747.60079	9764.35
2750.18486	9774.45
2752.76733	9769.65
2755.3482	9751.45
2757.92747	9738.85
2760.50515	9743.55
2763.08123	9764.45
2765.65573	9722.15
2768.22863	9753.15
2770.79994	9709.05
2773.36967	9689.35
2775.9378	9680.05
2778.50435	9682.55
2781.06932	9701.45
2783.6327	9720.85
2786.1945	9718.55
2788.75471	9694.95
2791.31335	9661.75
2793.87041	9629.85
2796.42589	9645.15
2798.97979	9633.65
2801.53212	9599.35
2804.08288	9588.25
2806.63206	9593.95
2809.17967	9567.75
2811.72571	9536.45
2814.27018	9524.45
2816.81308	9544.45
2819.35442	9530.75
2821.89419	9549.95
2824.43239	9556.95
2826.96904	9520.45
2829.50412	9537.95
2832.03763	9504.95
2834.56959	9524.15
2837.1	9509.35
2839.62884	9502.75
2842.15613	9495.05
2844.68186	9512.95
2847.20604	9499.95
2849.72867	9528.55
2852.24974	9487.75
2854.76927	9471.25
2857.28724	9443.35
2859.80367	9476.95
2862.31855	9466.85
2864.83189	9456.55
2867.34368	9421.95
2869.85393	9460.25
2872.36264	9468.25
2874.8698	9450.95
2877.37543	9467.05
2879.87952	9452.85
2882.38207	9467.65
2884.88308	9474.45
2887.38256	9470.65
2889.88051	9498.85
2892.37692	9467.65
2894.8718	9468.05
2897.36515	9508.05
2899.85698	9504.45
2902.34727	9511.45
2904.83604	9529.65
2907.32328	9552.85
2909.809	9560.65
2912.29319	9560.35
2914.77587	9567.15
2917.25702	9596.25
2919.73665	9577.05
2922.21476	9556.05
2924.69136	9542.75
2927.16644	9543.25
2929.64	9548.55
2932.11205	9527.85
2934.58258	9468.25
2937.05161	9493.05
2939.51912	9482.15
2941.98513	9491.85
2944.44962	9463.85
2946.91261	9449.15
2949.37409	9474.75
2951.83407	9444.75
2954.29254	9447.85
2956.74951	9439.95
2959.20498	9407.55
2961.65895	9397.65
2964.11142	9373.15
2966.56239	9362.45
2969.01186	9344.95
2971.45984	9349.45
2973.90632	9312.35
2976.35131	9310.95
2978.7948	9262.35
2981.23681	9270.55
2983.67732	9253.15
2986.11635	9213.75
2988.55388	9206.75
2990.98993	9208.95
2993.4245	9195.45
2995.85758	9182.25
2998.28917	9150.45
3000.71928	9155.35
3003.14791	9133.05
3005.57506	9139.65
3008.00073	9094.85
3010.42493	9090.45
3012.84764	9075.05
3015.26888	9093.35
3017.68865	9050.15
3020.10694	9058.65
3022.52376	9073.85
3024.9391	9016.85
3027.35298	9004.35
3029.76539	8984.35
3032.17632	8983.95
3034.5858	8982.65
3036.9938	8983.15
3039.40034	8966.65
3041.80542	8977.05
3044.20903	8931.85
3046.61118	8966.85
3049.01187	8913.55
3051.4111	8918.85
3053.80888	8901.05
3056.20519	8870.55
3058.60005	8860.45
3060.99345	8850.45
3063.3854	8845.85
3065.7759	8803.15
3068.16494	8788.55
3070.55254	8779.85
3072.93868	8753.55
3075.32338	8721.05
3077.70662	8718.15
3080.08842	8695.45
3082.46878	8689.85
3084.84769	8664.85
3087.22515	8668.55
3089.60118	8682.15
3091.97576	8667.15
3094.3489	8663.05
3096.72061	8691.45
3099.09087	8691.85
3101.4597	8678.15
3103.82709	8688.05
3106.19305	8671.55
3108.55757	8666.35
3110.92066	8645.85
3113.28232	8652.75
3115.64255	8619.15
3118.00134	8613.85
3120.35871	8613.65
3122.71466	8600.65
3125.06917	8591.75
3127.42226	8584.95
3129.77393	8580.75
3132.12417	8572.05
3134.47299	8577.05
3136.82039	8577.95
3139.16636	8553.75
3141.51092	8545.05
3143.85406	8562.15
3146.19579	8554.45
3148.53609	8567.45
3150.87499	8564.25
3153.21246	8583.35
3155.54853	8597.85
3157.88318	8602.85
3160.21642	8609.75
3162.54826	8604.45
3164.87868	8591.45
3167.2077	8573.05
3169.5353	8595.55
3171.86151	8603.65
3174.18631	8610.75
3176.5097	8585.25
3178.83169	8603.35
3181.15228	8585.75
3183.47147	8561.85
3185.78926	8583.65
3188.10565	8569.75
3190.42065	8580.05
3192.73424	8586.85
3195.04645	8586.05
3197.35725	8566.55
3199.66667	8577.25
3201.97469	8580.95
3204.28132	8551.85
3206.58656	8567.85
3208.8904	8601.15
3211.19287	8587.75
3213.49394	8597.25
3215.79363	8613.55
3218.09193	8612.95
3220.38884	8602.55
3222.68438	8583.45
3224.97853	8587.35
3227.2713	8596.25
3229.56269	8595.95
3231.8527	8599.05
3234.14133	8575.05
3236.42858	8564.25
3238.71446	8552.25
3240.99896	8529.35
3243.28209	8542.55
3245.56384	8503.55
3247.84423	8528.65
3250.12324	8500.45
3252.40088	8528.65
3254.67715	8538.75
3256.95205	8520.35
3259.22558	8515.75
3261.49775	8509.65
3263.76855	8510.75
3266.03799	8503.45
3268.30606	8493.25
3270.57277	8482.55
3272.83812	8465.95
