Data from AgNPs_FTO_APTES_UA_50uM_CRN_50uM_R6G_10uM_NaF_0.1M_Addition_RamanShift__1__14-33-54-959.txt Node

Date: Mon Feb 21 14:33:54 GMT 2022
User: TCL
Spectrometer: QEP01345
Trigger mode: 4
Integration Time (sec): 7.000000E0
Scans to average: 10
Electric dark correction enabled: true
Nonlinearity correction enabled: false
Boxcar width: 0
XAxis mode: Raman Shifts
Number of Pixels in Spectrum: 1044
>>>>>Begin Spectral Data<<<<<
46.04893	0.2
50.45542	-0.4
54.85868	-1.2
59.25871	-2.1
63.6555	68.1
68.04907	73.2
72.43941	76.4
76.82654	81.2
81.21044	88.1
85.59113	89.6
89.96862	87
94.34289	97
98.71396	97.2
103.08183	101.3
107.4465	102.7
111.80798	103.4
116.16626	103.8
120.52136	105.9
124.87327	117.1
129.222	112.8
133.56755	122.4
137.90993	132.6
142.24913	144.7
146.58517	152.2
150.91804	175.8
155.24774	213.2
159.57429	255.2
163.89768	325.4
168.21792	433.8
172.53501	583.3
176.84895	813.3
181.15975	1139
185.46741	1597.3
189.77193	2201.2
194.07331	2945.3
198.37157	3800.8
202.6667	4679.4
206.9587	5586.9
211.24758	6436.2
215.53334	7334.4
219.81599	8272.5
224.09553	9333.2
228.37195	10484.1
232.64527	11790
236.91549	13104.6
241.18261	14363.9
245.44663	15581.6
249.70755	16619.5
253.96539	17500.4
258.22014	18235.3
262.4718	18887
266.72039	19291.6
270.96589	19478
275.20832	19462.3
279.44768	19262.8
283.68397	18958.6
287.91719	18715.5
292.14735	18518.5
296.37445	18576.5
300.59849	18653.1
304.81948	18830.9
309.03742	18982.3
313.25231	18935.8
317.46415	18696.1
321.67296	18377.6
325.87872	18106.1
330.08145	18021.2
334.28114	18059.5
338.47781	18183.3
342.67145	18439.4
346.86207	18760
351.04966	19200.6
355.23424	19621.9
359.4158	19958.5
363.59435	20238.9
367.76989	20420.3
371.94243	20513.4
376.11196	20620.3
380.27849	20758.7
384.44203	20879.6
388.60257	21000.9
392.76012	21139.1
396.91468	21298.4
401.06626	21570.2
405.21485	21830.7
409.36047	21704
413.50311	21345.6
417.64277	21128.7
421.77947	21041.5
425.9132	21028.4
430.04396	21131
434.17176	21281.1
438.2966	21527
442.41849	22061.7
446.53742	22785.9
450.6534	23577.6
454.76644	24017.5
458.87653	24007.6
462.98368	23711.3
467.08789	23200.8
471.18916	22765.9
475.2875	22263.9
479.38291	21860
483.4754	21599.2
487.56496	21370.8
491.6516	21246.5
495.73531	21132.9
499.81612	21211.2
503.89401	21356.1
507.96899	21408.2
512.04106	21362.7
516.11023	21276
520.1765	21237.3
524.23987	21251.6
528.30034	21263.7
532.35792	21201.6
536.41261	20974.7
540.46441	20700.5
544.51333	20548.8
548.55936	20596.1
552.60252	20952.3
556.64279	21489.2
560.6802	21831.2
564.71473	21877.8
568.7464	22080.5
572.7752	22454.2
576.80114	22759.9
580.82422	23154.8
584.84444	24039.1
588.86181	25446
592.87633	27089.9
596.888	27737.5
600.89682	26788.9
604.9028	26294.9
608.90594	28213.5
612.90624	30685.1
616.90371	28951.2
620.89834	24266.8
624.89015	22226.6
628.87913	21929.6
632.86528	21957.6
636.84862	21911.7
640.82913	21490.6
644.80683	20969.4
648.78172	20640.3
652.75379	20627.9
656.72306	20980.5
660.68952	21455.7
664.65319	21299.6
668.61405	20868.8
672.57211	20840.1
676.52738	21020.4
680.47986	20985.2
684.42955	20796.1
688.37646	20667.6
692.32058	20801.3
696.26192	21147.4
700.20048	21472.5
704.13626	21600.1
708.06928	21472.1
711.99952	21295.9
715.927	21294.8
719.85171	21464.3
723.77365	21424.3
727.69284	21138.9
731.60928	20911.5
735.52295	20870.9
739.43388	20954.6
743.34206	21025.8
747.24749	21110.3
751.15017	21230
755.05012	21505.7
758.94733	21970.3
762.8418	22936.8
766.73354	24506
770.62254	26201.8
774.50882	26771.8
778.39237	25996.8
782.27321	24373
786.15132	22887
790.02671	21929
793.89938	21429.7
797.76935	21201.9
801.6366	21123.7
805.50115	21030.7
809.36299	20936
813.22213	20773.9
817.07857	20717.5
820.93231	20683.8
824.78336	20607.1
828.63172	20578.2
832.47738	20612.3
836.32036	20726.9
840.16066	20839
843.99827	20936.3
847.8332	20856.2
851.66546	20752.7
855.49504	20769.4
859.32195	20747.1
863.1462	20716.6
866.96777	20652.9
870.78668	20615.7
874.60293	20652.7
878.41652	20707.2
882.22745	20811.5
886.03573	20940.2
889.84136	20914.5
893.64433	20821.5
897.44466	20698.8
901.24235	20664.6
905.0374	20577.6
908.8298	20519
912.61957	20489.3
916.40671	20587.6
920.19121	20817.3
923.97308	21088.3
927.75233	21299.1
931.52895	21320.6
935.30295	21147.8
939.07433	20773.4
942.84309	20478.1
946.60924	20386.3
950.37278	20344.4
954.13371	20267
957.89203	20255.8
961.64774	20192.6
965.40086	20166.8
969.15137	20181.8
972.89929	20204.5
976.64461	20245.8
980.38733	20312.4
984.12747	20434.8
987.86502	20650.6
991.59999	20877.8
995.33237	21237.5
999.06217	21807.9
1002.78939	22442
1006.51404	22895.4
1010.23611	23196.2
1013.95561	23392.8
1017.67255	23431.8
1021.38692	23164.6
1025.09872	22839.7
1028.80796	22918.8
1032.51465	23468.6
1036.21877	24023.8
1039.92035	24143.1
1043.61937	23860.7
1047.31584	23422.5
1051.00976	22885
1054.70114	22535.7
1058.38998	22362.9
1062.07627	22361.1
1065.76003	22502.8
1069.44126	22625.9
1073.11995	22954.3
1076.79611	23269
1080.46974	23552.1
1084.14085	23847.2
1087.80943	24082.8
1091.47549	24225.4
1095.13903	24068.7
1098.80005	23664.6
1102.45857	23257.5
1106.11456	23001.4
1109.76805	22970.4
1113.41903	23040.2
1117.06751	23233.4
1120.71348	23501.8
1124.35696	23774.6
1127.99793	24031.1
1131.63641	24127.8
1135.2724	23974.8
1138.90589	23757.5
1142.5369	23683.2
1146.16542	23615.3
1149.79145	23695.3
1153.415	23765.2
1157.03607	23961.2
1160.65467	24408.1
1164.27079	25271.8
1167.88443	26436.8
1171.49561	27905
1175.10432	29945.4
1178.71056	32555.5
1182.31434	34958
1185.91565	35942.7
1189.51451	35433.1
1193.11091	34050
1196.70485	32530.7
1200.29634	31247.3
1203.88538	30170.3
1207.47197	29372.1
1211.05612	28660.4
1214.63782	28109.5
1218.21708	27832
1221.79391	27831.4
1225.36829	27895.8
1228.94024	27785.5
1232.50976	27229.1
1236.07685	26667.5
1239.6415	26276.2
1243.20374	26228.3
1246.76355	26399.2
1250.32093	26748.4
1253.8759	27279.1
1257.42845	27958.5
1260.97859	28764.2
1264.52631	29658.4
1268.07163	30595.3
1271.61453	31567.2
1275.15503	32421.4
1278.69312	33193
1282.22882	33928.9
1285.76211	34907.7
1289.29301	36051.5
1292.82151	37432.5
1296.34761	39094
1299.87133	41247.1
1303.39266	43914.7
1306.9116	46729.7
1310.42815	49314.6
1313.94233	50561.1
1317.45412	49806.7
1320.96354	47716.9
1324.47058	45343
1327.97525	43292.2
1331.47754	41955.6
1334.97747	41195.8
1338.47502	40614.2
1341.97022	40081.2
1345.46305	39733.3
1348.95352	39977.9
1352.44163	41203.5
1355.92738	43696
1359.41078	47163.9
1362.89183	50011.4
1366.37053	49458.2
1369.84688	45156.4
1373.32088	39665
1376.79254	35892.3
1380.26186	34397.5
1383.72883	33955.4
1387.19347	33534.2
1390.65578	32831.7
1394.11575	32526.2
1397.57339	32585.9
1401.0287	32980.9
1404.48168	33240.4
1407.93234	33259.4
1411.38068	33053.9
1414.82669	32512.1
1418.27039	31858.4
1421.71177	31149.6
1425.15083	30367.1
1428.58758	30107.4
1432.02203	30550.8
1435.45416	31233.5
1438.88399	31824.6
1442.31151	32111.6
1445.73673	32210.4
1449.15965	32225.8
1452.58027	32060.4
1455.9986	31672.8
1459.41463	31539.9
1462.82837	31934.5
1466.23982	32659.6
1469.64898	33488.1
1473.05586	34069.6
1476.46045	34488.4
1479.86276	34706.2
1483.26279	34673.7
1486.66054	34777.8
1490.05602	35140
1493.44922	35660.3
1496.84016	36132.8
1500.22882	36636.3
1503.61521	37565.6
1506.99934	38780.7
1510.38121	39854.1
1513.76081	39930.7
1517.13816	38801.5
1520.51324	36978.8
1523.88607	35352.9
1527.25665	34533.6
1530.62498	34201.8
1533.99105	33871.4
1537.35488	33397.4
1540.71647	32830
1544.07581	32174.4
1547.4329	31557.4
1550.78776	31018.4
1554.14038	30630
1557.49077	30438.4
1560.83892	30399.6
1564.18484	30478.4
1567.52853	30715.6
1570.86999	31097.6
1574.20922	31574.9
1577.54624	31798.1
1580.88103	31606.7
1584.2136	31508.2
1587.54395	32295.2
1590.87208	34088.2
1594.19801	36494.4
1597.52172	38872.2
1600.84321	39799.7
1604.16251	38271.7
1607.47959	35257.6
1610.79447	31850.4
1614.10715	29013.3
1617.41763	27077.1
1620.7259	25892.3
1624.03199	25440.5
1627.33587	25703.2
1630.63757	26505.9
1633.93707	28020.1
1637.23439	30514.3
1640.52951	34281.3
1643.82246	38925.6
1647.11321	42636
1650.40179	43156.1
1653.68819	39672
1656.97241	34228.2
1660.25446	29358.1
1663.53433	25988.1
1666.81203	24068.4
1670.08756	22910.1
1673.36092	22246.9
1676.63211	21836.5
1679.90115	21464.9
1683.16801	21251.3
1686.43272	21084.6
1689.69527	20898.5
1692.95567	20723.4
1696.2139	20592.5
1699.46999	20418.6
1702.72392	20350.1
1705.97571	20425.4
1709.22535	20488.7
1712.47284	20519.8
1715.71819	20581
1718.96139	20541.4
1722.20246	20483.6
1725.44139	20432
1728.67818	20334.2
1731.91284	20273.2
1735.14537	20153.8
1738.37576	20090.6
1741.60403	19993.9
1744.83017	19920.4
1748.05418	19907.4
1751.27607	19881.8
1754.49584	19794.5
1757.71349	19683.1
1760.92903	19696.1
1764.14244	19666.5
1767.35375	19664.6
1770.56294	19633.8
1773.77002	19631.4
1776.97499	19625
1780.17785	19664.3
1783.37861	19704
1786.57727	19684.4
1789.77382	19667.8
1792.96828	19652.3
1796.16064	19635.7
1799.3509	19617.7
1802.53907	19583.5
1805.72514	19536.6
1808.90913	19491.3
1812.09102	19508.1
1815.27083	19451.5
1818.44856	19476.4
1821.6242	19419.6
1824.79776	19438.2
1827.96924	19430.5
1831.13864	19427
1834.30597	19407.1
1837.47122	19401.8
1840.6344	19410.9
1843.7955	19449
1846.95454	19412.9
1850.11151	19399.1
1853.26642	19404.8
1856.41926	19361.4
1859.57004	19359.5
1862.71876	19358.1
1865.86542	19348.8
1869.01003	19340.7
1872.15258	19327.4
1875.29308	19335.6
1878.43152	19306.3
1881.56792	19324.3
1884.70227	19285.8
1887.83457	19278.3
1890.96482	19265.9
1894.09304	19241.3
1897.21921	19245.5
1900.34335	19192.8
1903.46544	19221.9
1906.58551	19205.5
1909.70353	19157.4
1912.81953	19153.6
1915.93349	19132.1
1919.04543	19131
1922.15534	19116.1
1925.26322	19048.6
1928.36908	19032
1931.47292	18961.9
1934.57473	18965.4
1937.67453	18928.7
1940.77232	18886.2
1943.86808	18841.1
1946.96184	18819.2
1950.05358	18746.3
1953.14331	18707.1
1956.23103	18678.6
1959.31675	18632.1
1962.40046	18598.5
1965.48217	18548
1968.56188	18527
1971.63959	18467.4
1974.7153	18387.9
1977.78901	18391.7
1980.86073	18313.2
1983.93046	18260.1
1986.99819	18162.8
1990.06394	18171.1
1993.1277	18138.6
1996.18947	18043.1
1999.24925	18046.1
2002.30706	17986.4
2005.36288	17915.1
2008.41672	17907
2011.46859	17825.4
2014.51848	17805
2017.56639	17768
2020.61233	17720.6
2023.6563	17729.8
2026.6983	17673.8
2029.73833	17665.2
2032.7764	17620.9
2035.8125	17619.5
2038.84664	17585.8
2041.87881	17576.5
2044.90903	17564
2047.93729	17538.7
2050.96359	17557
2053.98794	17533.2
2057.01034	17500.2
2060.03078	17535.1
2063.04927	17467.2
2066.06582	17487.4
2069.08042	17453.1
2072.09307	17440.3
2075.10378	17440.7
2078.11255	17436.3
2081.11938	17429.6
2084.12426	17427.6
2087.12722	17445.1
2090.12824	17429.3
2093.12732	17434.2
2096.12447	17459.3
2099.11969	17451
2102.11299	17473.3
2105.10435	17466.8
2108.09379	17470.5
2111.08131	17472.2
2114.0669	17499
2117.05057	17519.2
2120.03233	17538.8
2123.01216	17616.8
2125.99008	17616.1
2128.96609	17586.8
2131.94018	17640.9
2134.91236	17658.2
2137.88263	17693.2
2140.851	17675.3
2143.81746	17711.2
2146.78201	17745.2
2149.74466	17734
2152.7054	17723.7
2155.66425	17708.6
2158.6212	17723.2
2161.57625	17757.8
2164.52941	17740.2
2167.48067	17717.3
2170.43004	17712.9
2173.37752	17748.2
2176.32311	17757.9
2179.26681	17754.3
2182.20863	17765.1
2185.14856	17762.5
2188.08661	17786.5
2191.02278	17800.2
2193.95707	17799.1
2196.88948	17786.3
2199.82001	17824.8
2202.74867	17777
2205.67545	17811.2
2208.60037	17780.5
2211.52341	17733.1
2214.44458	17717.6
2217.36388	17693.9
2220.28132	17690.4
2223.1969	17673.2
2226.11061	17656.8
2229.02246	17609.8
2231.93245	17621.3
2234.84058	17583.4
2237.74686	17558.4
2240.65128	17578.8
2243.55385	17565.2
2246.45456	17540.6
2249.35343	17514.8
2252.25044	17484.3
2255.14561	17457.6
2258.03893	17476.4
2260.93041	17411.7
2263.82004	17409
2266.70783	17368.1
2269.59378	17333.7
2272.4779	17320.7
2275.36017	17271.3
2278.24061	17208.6
2281.11922	17194.9
2283.996	17167.4
2286.87094	17179.1
2289.74405	17206.8
2292.61534	17169.9
2295.4848	17164.9
2298.35243	17178.4
2301.21824	17202.8
2304.08223	17177.5
2306.94439	17204.6
2309.80474	17202.7
2312.66327	17224.8
2315.51999	17208.9
2318.37489	17193.5
2321.22797	17183.9
2324.07925	17212.3
2326.92871	17157.6
2329.77637	17151.2
2332.62222	17140.8
2335.46626	17106.9
2338.3085	17105.8
2341.14893	17107.8
2343.98756	17144.3
2346.8244	17109.7
2349.65943	17119.3
2352.49267	17101.2
2355.32411	17098.3
2358.15376	17084.4
2360.98161	17069.9
2363.80768	17098
2366.63195	17028
2369.45444	17014.7
2372.27514	16986.9
2375.09405	17000.7
2377.91118	16994
2380.72652	16950.2
2383.54009	16933.9
2386.35187	16895.3
2389.16188	16864.1
2391.97011	16856.2
2394.77657	16818.3
2397.58125	16792.4
2400.38416	16807.2
2403.18529	16807.6
2405.98466	16783.9
2408.78226	16759.1
2411.57809	16716.8
2414.37216	16669.2
2417.16446	16676.2
2419.955	16689.7
2422.74378	16702.8
2425.5308	16673.7
2428.31606	16641.9
2431.09956	16667.9
2433.88131	16657.9
2436.6613	16653.6
2439.43954	16663.8
2442.21603	16639.9
2444.99077	16655.7
2447.76377	16699.3
2450.53501	16672.7
2453.30451	16682.2
2456.07226	16610.1
2458.83827	16587.3
2461.60254	16607.3
2464.36507	16650.1
2467.12586	16649.1
2469.88492	16648.2
2472.64224	16677.8
2475.39782	16664.3
2478.15167	16653.1
2480.90379	16658.2
2483.65417	16688.5
2486.40283	16680.4
2489.14976	16711.2
2491.89497	16716.7
2494.63845	16700.9
2497.3802	16647.4
2500.12024	16691
2502.85855	16714.3
2505.59514	16693.7
2508.33002	16658.2
2511.06318	16618.4
2513.79462	16668.1
2516.52435	16634.8
2519.25237	16636.7
2521.97867	16607.7
2524.70327	16590.5
2527.42616	16588.1
2530.14734	16583.1
2532.86681	16569.9
2535.58458	16629.4
2538.30065	16576.8
2541.01501	16580.2
2543.72768	16570.4
2546.43864	16530.7
2549.14791	16500
2551.85548	16519.1
2554.56136	16501.3
2557.26554	16488.6
2559.96803	16483
2562.66883	16499.1
2565.36794	16439
2568.06536	16450.1
2570.7611	16460.4
2573.45514	16449.6
2576.14751	16439.9
2578.83819	16412.6
2581.52719	16422.9
2584.21451	16416.2
2586.90015	16371.1
2589.58411	16358.7
2592.2664	16352.6
2594.94701	16328.9
2597.62594	16342.9
2600.30321	16321.6
2602.9788	16360.3
2605.65273	16360.3
2608.32498	16365
2610.99557	16338.2
2613.66449	16345.7
2616.33175	16314.2
2618.99734	16343.6
2621.66128	16324.2
2624.32355	16372.8
2626.98416	16326.7
2629.64311	16305
2632.30041	16284.4
2634.95605	16231.5
2637.61004	16232.3
2640.26238	16207.7
2642.91306	16221
2645.56209	16201.1
2648.20948	16166.6
2650.85521	16189.4
2653.4993	16192.2
2656.14175	16159.4
2658.78255	16163.7
2661.42171	16205.3
2664.05923	16231.5
2666.6951	16284.3
2669.32934	16329.8
2671.96194	16314.8
2674.59291	16300.5
2677.22224	16288.6
2679.84993	16278.7
2682.476	16226.6
2685.10043	16264.8
2687.72324	16251.4
2690.34441	16260.1
2692.96396	16258.3
2695.58188	16247.8
2698.19818	16227.1
2700.81285	16233.7
2703.4259	16199.2
2706.03733	16168.2
2708.64714	16192.5
2711.25533	16241.6
2713.86191	16248.3
2716.46687	16297.4
2719.07021	16338.3
2721.67194	16353
2724.27206	16334.1
2726.87057	16340.2
2729.46747	16373.5
2732.06276	16405.4
2734.65644	16362.7
2737.24852	16375.7
2739.83899	16348.7
2742.42786	16337.1
2745.01513	16328.8
2747.60079	16321.7
2750.18486	16348.5
2752.76733	16350
2755.3482	16335.1
2757.92747	16308.7
2760.50515	16308.8
2763.08123	16332.7
2765.65573	16301
2768.22863	16276.6
2770.79994	16259.6
2773.36967	16242.5
2775.9378	16219.3
2778.50435	16207.9
2781.06932	16231.1
2783.6327	16288.1
2786.1945	16264.5
2788.75471	16269.7
2791.31335	16232.9
2793.87041	16191.2
2796.42589	16147.2
2798.97979	16169.9
2801.53212	16110.2
2804.08288	16111.1
2806.63206	16064.3
2809.17967	16055
2811.72571	16018.1
2814.27018	15999.2
2816.81308	15976.9
2819.35442	15975.6
2821.89419	15976.3
2824.43239	15973
2826.96904	15965.7
2829.50412	15997.6
2832.03763	15939.6
2834.56959	15966.4
2837.1	15922.8
2839.62884	15905.9
2842.15613	15910.9
2844.68186	15914.6
2847.20604	15899.9
2849.72867	15920
2852.24974	15899
2854.76927	15858.8
2857.28724	15848.3
2859.80367	15855.8
2862.31855	15828.7
2864.83189	15784.6
2867.34368	15819.7
2869.85393	15838.9
2872.36264	15838
2874.8698	15815.3
2877.37543	15812
2879.87952	15802.5
2882.38207	15805.5
2884.88308	15814.5
2887.38256	15839.8
2889.88051	15838.6
2892.37692	15878.3
2894.8718	15864.9
2897.36515	15935.5
2899.85698	15911.6
2902.34727	15934
2904.83604	15926.4
2907.32328	15982.7
2909.809	15958.8
2912.29319	16013.1
2914.77587	15998.5
2917.25702	16002.1
2919.73665	15989.7
2922.21476	15969.6
2924.69136	15935.7
2927.16644	15997.1
2929.64	15947.5
2932.11205	15929.3
2934.58258	15884
2937.05161	15894.7
2939.51912	15899.8
2941.98513	15919.7
2944.44962	15867.6
2946.91261	15852.4
2949.37409	15875.7
2951.83407	15866.5
2954.29254	15881.3
2956.74951	15865.8
2959.20498	15847.4
2961.65895	15841.6
2964.11142	15819.5
2966.56239	15756.5
2969.01186	15816.6
2971.45984	15772.2
2973.90632	15757.9
2976.35131	15736
2978.7948	15689.4
2981.23681	15715.8
2983.67732	15671.5
2986.11635	15620.1
2988.55388	15572.4
2990.98993	15551.7
2993.4245	15556.7
2995.85758	15511.7
2998.28917	15487.8
3000.71928	15509.8
3003.14791	15467.8
3005.57506	15440.3
3008.00073	15435.3
3010.42493	15413.5
3012.84764	15390.1
3015.26888	15393.2
3017.68865	15346.9
3020.10694	15367
3022.52376	15317.2
3024.9391	15325.2
3027.35298	15266.3
3029.76539	15267.6
3032.17632	15274.1
3034.5858	15233.6
3036.9938	15239.8
3039.40034	15241
3041.80542	15243.6
3044.20903	15207.5
3046.61118	15219.9
3049.01187	15185.4
3051.4111	15204.6
3053.80888	15135.4
3056.20519	15111.9
3058.60005	15097.3
3060.99345	15089.2
3063.3854	15060.5
3065.7759	15039.9
3068.16494	15012.8
3070.55254	14940.5
3072.93868	14936.1
3075.32338	14892.3
3077.70662	14849
3080.08842	14862.9
3082.46878	14816.7
3084.84769	14788
3087.22515	14792.7
3089.60118	14807.4
3091.97576	14813.3
3094.3489	14781.6
3096.72061	14781.3
3099.09087	14773.5
3101.4597	14783.7
3103.82709	14768.6
3106.19305	14767.2
3108.55757	14805.8
3110.92066	14734.1
3113.28232	14727
3115.64255	14656.5
3118.00134	14646.6
3120.35871	14640.9
3122.71466	14645
3125.06917	14649.5
3127.42226	14634.2
3129.77393	14608
3132.12417	14591.6
3134.47299	14555.8
3136.82039	14584.4
3139.16636	14599.9
3141.51092	14567.5
3143.85406	14565.6
3146.19579	14549.9
3148.53609	14546.6
3150.87499	14558.1
3153.21246	14573
3155.54853	14610.6
3157.88318	14622.7
3160.21642	14643.8
3162.54826	14591.5
3164.87868	14592
3167.2077	14598.3
3169.5353	14612.7
3171.86151	14606.5
3174.18631	14583.3
3176.5097	14581.4
3178.83169	14557.4
3181.15228	14581
3183.47147	14523.9
3185.78926	14571.1
3188.10565	14534.2
3190.42065	14542.8
3192.73424	14544.6
3195.04645	14538.2
3197.35725	14502
3199.66667	14494.9
3201.97469	14476.7
3204.28132	14494.1
3206.58656	14466.3
3208.8904	14497.8
3211.19287	14508.3
3213.49394	14496.3
3215.79363	14547.5
3218.09193	14568.3
3220.38884	14521.5
3222.68438	14501.6
3224.97853	14482.7
3227.2713	14498.1
3229.56269	14489.2
3231.8527	14489.3
3234.14133	14471.8
3236.42858	14429.3
3238.71446	14451
3240.99896	14399.7
3243.28209	14384.3
3245.56384	14374.3
3247.84423	14394.1
3250.12324	14405.4
3252.40088	14402.9
3254.67715	14375.1
3256.95205	14343.4
3259.22558	14342.2
3261.49775	14318.4
3263.76855	14313.2
3266.03799	14319.3
3268.30606	14293.7
3270.57277	14318.8
3272.83812	14295
3275.10211	14227.2
3277.36474	14199.4
3279.62601	14211.1
3281.88593	14184.2
3284.14448	14237.7
3286.40168	14228.5
3288.65753	14217.1
3290.91202	14224.6
3293.16516	14198.1
3295.41695	14164.2
3297.66738	14067.4
3299.91647	14012.4
3302.16421	13949.2
3304.4106	13919.5
3306.65564	13797.7
3308.89933	13710.3
3311.14169	13608.8
3313.38269	13487.4
3315.62236	13412.1
3317.86068	13326
3320.09766	13207.1
3322.3333	13138.1
3324.5676	13112.5
3326.80056	12881.6
3329.03219	12822.7
3331.26248	4.5
3333.49143	-0.4
3335.71905	0.2
