Data from AgNPs_FTO_APTES_UA_50uM_CRN_1uM_R6G_10uM_NaF_0.1M_Addition_RamanShift__4__11-20-14-708.txt Node

Date: Mon Feb 21 11:20:14 GMT 2022
User: TCL
Spectrometer: QEP01345
Trigger mode: 4
Integration Time (sec): 7.000000E0
Scans to average: 10
Electric dark correction enabled: true
Nonlinearity correction enabled: false
Boxcar width: 0
XAxis mode: Raman Shifts
Number of Pixels in Spectrum: 1044
>>>>>Begin Spectral Data<<<<<
46.04893	0.325
50.45542	-0.175
54.85868	-0.375
59.25871	-1.775
63.6555	65.025
68.04907	65.525
72.43941	71.425
76.82654	75.425
81.21044	75.125
85.59113	79.425
89.96862	78.525
94.34289	85.125
98.71396	87.025
103.08183	88.325
107.4465	92.225
111.80798	94.225
116.16626	92.525
120.52136	97.325
124.87327	105.725
129.222	103.425
133.56755	108.925
137.90993	118.725
142.24913	129.725
146.58517	139.725
150.91804	162.525
155.24774	190.425
159.57429	235.025
163.89768	295.925
168.21792	391.025
172.53501	539.125
176.84895	744.225
181.15975	1043.925
185.46741	1476.125
189.77193	2020.325
194.07331	2704.225
198.37157	3476.325
202.6667	4294.425
206.9587	5108.025
211.24758	5913.225
215.53334	6686.025
219.81599	7560.825
224.09553	8516.525
228.37195	9570.825
232.64527	10730.625
236.91549	11918.925
241.18261	13112.825
245.44663	14220.225
249.70755	15200.125
253.96539	16069.225
258.22014	16813.025
262.4718	17353.725
266.72039	17736.625
270.96589	17937.025
275.20832	17951.225
279.44768	17776.025
283.68397	17580.625
287.91719	17373.425
292.14735	17213.125
296.37445	17219.425
300.59849	17253.525
304.81948	17375.825
309.03742	17427.725
313.25231	17403.925
317.46415	17204.325
321.67296	16912.525
325.87872	16659.925
330.08145	16525.625
334.28114	16476.625
338.47781	16606.925
342.67145	16800.625
346.86207	17093.525
351.04966	17411.325
355.23424	17826.025
359.4158	18162.625
363.59435	18419.925
367.76989	18614.625
371.94243	18743.725
376.11196	18828.625
380.27849	18877.425
384.44203	19000.225
388.60257	19155.025
392.76012	19317.025
396.91468	19532.125
401.06626	19797.425
405.21485	19997.225
409.36047	19976.525
413.50311	19774.925
417.64277	19672.325
421.77947	19701.825
425.9132	19761.925
430.04396	19840.525
434.17176	19940.225
438.2966	20074.525
442.41849	20435.725
446.53742	21058.525
450.6534	21700.625
454.76644	22181.325
458.87653	22318.125
462.98368	22124.125
467.08789	21784.425
471.18916	21343.725
475.2875	20873.325
479.38291	20623.825
483.4754	20438.925
487.56496	20297.625
491.6516	20128.125
495.73531	19938.025
499.81612	19857.225
503.89401	19980.325
507.96899	20023.125
512.04106	19996.325
516.11023	19808.325
520.1765	19691.225
524.23987	19615.025
528.30034	19530.925
532.35792	19418.825
536.41261	19193.425
540.46441	18961.025
544.51333	18879.125
548.55936	18974.125
552.60252	19377.825
556.64279	19870.425
560.6802	20221.925
564.71473	20430.325
568.7464	20738.325
572.7752	21250.325
576.80114	21795.225
580.82422	22394.125
584.84444	23288.025
588.86181	24433.325
592.87633	25596.525
596.888	25658.425
600.89682	24476.525
604.9028	23983.725
608.90594	25431.725
612.90624	27220.725
616.90371	25781.325
620.89834	21959.925
624.89015	20246.325
628.87913	19948.825
632.86528	20007.725
636.84862	19902.225
640.82913	19527.225
644.80683	19085.625
648.78172	18787.125
652.75379	18798.625
656.72306	19047.425
660.68952	19423.125
664.65319	19330.125
668.61405	19015.925
672.57211	19014.025
676.52738	19128.325
680.47986	19114.825
684.42955	18888.025
688.37646	18841.825
692.32058	19045.925
696.26192	19356.725
700.20048	19699.025
704.13626	19804.825
708.06928	19678.525
711.99952	19543.925
715.927	19626.925
719.85171	19769.825
723.77365	19777.225
727.69284	19425.225
731.60928	19150.525
735.52295	19038.525
739.43388	19071.425
743.34206	19136.625
747.24749	19232.025
751.15017	19446.225
755.05012	19664.125
758.94733	20142.125
762.8418	20991.825
766.73354	22294.825
770.62254	23558.825
774.50882	23872.525
778.39237	23034.525
782.27321	21664.125
786.15132	20553.725
790.02671	19799.725
793.89938	19415.825
797.76935	19272.425
801.6366	19209.025
805.50115	19217.725
809.36299	19125.225
813.22213	18989.325
817.07857	18892.125
820.93231	18766.025
824.78336	18703.225
828.63172	18635.625
832.47738	18657.125
836.32036	18666.425
840.16066	18791.325
843.99827	18822.825
847.8332	18745.225
851.66546	18718.125
855.49504	18712.625
859.32195	18719.525
863.1462	18662.425
866.96777	18620.725
870.78668	18567.925
874.60293	18622.825
878.41652	18674.125
882.22745	18749.425
886.03573	18828.625
889.84136	18831.725
893.64433	18753.525
897.44466	18639.725
901.24235	18601.325
905.0374	18477.125
908.8298	18423.025
912.61957	18450.025
916.40671	18517.925
920.19121	18742.925
923.97308	19025.125
927.75233	19175.225
931.52895	19098.225
935.30295	18864.125
939.07433	18547.125
942.84309	18304.925
946.60924	18209.225
950.37278	18223.425
954.13371	18228.325
957.89203	18140.325
961.64774	18103.625
965.40086	18115.625
969.15137	18110.225
972.89929	18070.025
976.64461	18033.325
980.38733	18056.925
984.12747	18098.125
987.86502	18270.025
991.59999	18470.325
995.33237	18829.825
999.06217	19248.525
1002.78939	19852.025
1006.51404	20323.725
1010.23611	20654.225
1013.95561	20834.625
1017.67255	20904.625
1021.38692	20646.925
1025.09872	20322.725
1028.80796	20281.425
1032.51465	20646.225
1036.21877	21066.425
1039.92035	21224.225
1043.61937	21090.125
1047.31584	20757.625
1051.00976	20275.525
1054.70114	19959.025
1058.38998	19879.025
1062.07627	19946.725
1065.76003	20061.625
1069.44126	20240.625
1073.11995	20577.325
1076.79611	20912.425
1080.46974	21142.825
1084.14085	21390.425
1087.80943	21611.325
1091.47549	21761.425
1095.13903	21743.025
1098.80005	21345.725
1102.45857	20878.225
1106.11456	20604.525
1109.76805	20480.225
1113.41903	20517.725
1117.06751	20577.725
1120.71348	20789.425
1124.35696	20938.525
1127.99793	21135.325
1131.63641	21294.325
1135.2724	21252.625
1138.90589	21204.625
1142.5369	21194.425
1146.16542	21258.925
1149.79145	21384.825
1153.415	21533.725
1157.03607	21810.025
1160.65467	22342.325
1164.27079	23304.025
1167.88443	24490.125
1171.49561	25796.525
1175.10432	27466.325
1178.71056	29707.925
1182.31434	31861.125
1185.91565	32883.525
1189.51451	32527.225
1193.11091	31450.925
1196.70485	30179.825
1200.29634	29021.725
1203.88538	28242.125
1207.47197	27715.425
1211.05612	27275.825
1214.63782	26862.525
1218.21708	26417.925
1221.79391	25959.825
1225.36829	25761.525
1228.94024	25524.625
1232.50976	25047.025
1236.07685	24552.025
1239.6415	24189.625
1243.20374	24123.025
1246.76355	24272.425
1250.32093	24620.425
1253.8759	25199.825
1257.42845	25925.625
1260.97859	26697.225
1264.52631	27635.225
1268.07163	28541.225
1271.61453	29474.525
1275.15503	30303.225
1278.69312	31160.025
1282.22882	32062.125
1285.76211	33075.825
1289.29301	34214.425
1292.82151	35611.425
1296.34761	37376.325
1299.87133	39558.125
1303.39266	42082.825
1306.9116	44491.525
1310.42815	46385.325
1313.94233	47339.325
1317.45412	46894.725
1320.96354	45522.825
1324.47058	44092.125
1327.97525	42967.925
1331.47754	42346.025
1334.97747	41862.525
1338.47502	41232.825
1341.97022	40390.325
1345.46305	39430.525
1348.95352	38901.425
1352.44163	39252.325
1355.92738	40840.025
1359.41078	43398.325
1362.89183	45605.125
1366.37053	45407.025
1369.84688	41940.125
1373.32088	37171.725
1376.79254	33822.325
1380.26186	32505.425
1383.72883	32413.725
1387.19347	32349.625
1390.65578	31880.625
1394.11575	31574.825
1397.57339	31861.125
1401.0287	32423.725
1404.48168	32886.625
1407.93234	33017.625
1411.38068	32700.725
1414.82669	31943.225
1418.27039	30895.225
1421.71177	29797.425
1425.15083	28893.225
1428.58758	28533.825
1432.02203	28836.925
1435.45416	29672.825
1438.88399	30509.125
1442.31151	31054.425
1445.73673	31241.825
1449.15965	31243.225
1452.58027	31128.825
1455.9986	30830.425
1459.41463	30841.025
1462.82837	31259.625
1466.23982	31940.425
1469.64898	32582.325
1473.05586	33030.025
1476.46045	33242.125
1479.86276	33211.725
1483.26279	33085.225
1486.66054	32996.225
1490.05602	33204.625
1493.44922	33483.725
1496.84016	33656.225
1500.22882	33896.725
1503.61521	34436.525
1506.99934	35168.225
1510.38121	35838.025
1513.76081	35930.125
1517.13816	35207.525
1520.51324	34053.525
1523.88607	33063.525
1527.25665	32711.325
1530.62498	32734.525
1533.99105	32628.925
1537.35488	32261.625
1540.71647	31643.825
1544.07581	30853.725
1547.4329	30089.825
1550.78776	29401.525
1554.14038	28934.125
1557.49077	28665.125
1560.83892	28440.125
1564.18484	28398.125
1567.52853	28531.925
1570.86999	28792.625
1574.20922	29272.725
1577.54624	29683.625
1580.88103	29859.025
1584.2136	30224.625
1587.54395	31404.225
1590.87208	33421.325
1594.19801	35957.825
1597.52172	38239.525
1600.84321	38788.725
1604.16251	36961.025
1607.47959	33706.725
1610.79447	30262.325
1614.10715	27367.525
1617.41763	25261.125
1620.7259	23955.225
1624.03199	23406.725
1627.33587	23588.825
1630.63757	24373.725
1633.93707	25950.825
1637.23439	28663.225
1640.52951	32543.625
1643.82246	37183.125
1647.11321	40820.525
1650.40179	41077.725
1653.68819	37515.425
1656.97241	32088.125
1660.25446	27121.325
1663.53433	23760.325
1666.81203	21663.125
1670.08756	20474.525
1673.36092	19793.825
1676.63211	19344.125
1679.90115	18944.325
1683.16801	18688.725
1686.43272	18494.525
1689.69527	18344.725
1692.95567	18153.925
1696.2139	18033.425
1699.46999	17864.525
1702.72392	17766.125
1705.97571	17824.225
1709.22535	17892.025
1712.47284	17973.225
1715.71819	17988.725
1718.96139	17949.625
1722.20246	17904.325
1725.44139	17846.025
1728.67818	17763.325
1731.91284	17686.925
1735.14537	17574.925
1738.37576	17479.825
1741.60403	17404.425
1744.83017	17344.025
1748.05418	17302.325
1751.27607	17234.425
1754.49584	17150.825
1757.71349	17089.125
1760.92903	17058.525
1764.14244	16990.025
1767.35375	16994.125
1770.56294	16984.625
1773.77002	17025.625
1776.97499	17083.625
1780.17785	17061.125
1783.37861	17106.025
1786.57727	17078.825
1789.77382	17084.325
1792.96828	17094.125
1796.16064	17068.825
1799.3509	17034.425
1802.53907	16983.825
1805.72514	16960.525
1808.90913	16947.925
1812.09102	16894.625
1815.27083	16872.925
1818.44856	16884.925
1821.6242	16857.125
1824.79776	16860.125
1827.96924	16859.325
1831.13864	16885.725
1834.30597	16895.025
1837.47122	16856.425
1840.6344	16873.425
1843.7955	16882.325
1846.95454	16855.125
1850.11151	16830.525
1853.26642	16833.325
1856.41926	16811.525
1859.57004	16788.825
1862.71876	16764.525
1865.86542	16804.425
1869.01003	16781.825
1872.15258	16797.425
1875.29308	16758.025
1878.43152	16769.725
1881.56792	16751.225
1884.70227	16728.125
1887.83457	16720.525
1890.96482	16676.925
1894.09304	16650.925
1897.21921	16664.525
1900.34335	16631.825
1903.46544	16629.925
1906.58551	16649.425
1909.70353	16642.125
1912.81953	16595.625
1915.93349	16543.625
1919.04543	16560.225
1922.15534	16520.925
1925.26322	16476.825
1928.36908	16425.025
1931.47292	16359.025
1934.57473	16339.725
1937.67453	16328.725
1940.77232	16319.625
1943.86808	16255.225
1946.96184	16267.125
1950.05358	16197.025
1953.14331	16169.725
1956.23103	16109.325
1959.31675	16047.925
1962.40046	16026.625
1965.48217	15974.425
1968.56188	15986.625
1971.63959	15942.525
1974.7153	15887.225
1977.78901	15849.225
1980.86073	15803.925
1983.93046	15738.225
1986.99819	15686.625
1990.06394	15658.125
1993.1277	15647.925
1996.18947	15581.625
1999.24925	15559.625
2002.30706	15511.125
2005.36288	15481.925
2008.41672	15442.025
2011.46859	15400.525
2014.51848	15342.325
2017.56639	15293.125
2020.61233	15283.725
2023.6563	15277.525
2026.6983	15253.225
2029.73833	15226.325
2032.7764	15187.525
2035.8125	15152.125
2038.84664	15164.725
2041.87881	15140.825
2044.90903	15129.725
2047.93729	15088.725
2050.96359	15068.325
2053.98794	15043.025
2057.01034	15073.125
2060.03078	15073.425
2063.04927	15019.325
2066.06582	14994.325
2069.08042	15007.225
2072.09307	15015.525
2075.10378	15020.725
2078.11255	15013.425
2081.11938	15016.425
2084.12426	15010.525
2087.12722	15029.325
2090.12824	15028.825
2093.12732	15039.825
2096.12447	15018.825
2099.11969	14988.925
2102.11299	14982.525
2105.10435	15024.025
2108.09379	15039.225
2111.08131	15033.825
2114.0669	15063.025
2117.05057	15104.225
2120.03233	15112.925
2123.01216	15117.625
2125.99008	15143.625
2128.96609	15152.825
2131.94018	15136.825
2134.91236	15138.825
2137.88263	15172.525
2140.851	15201.525
2143.81746	15218.925
2146.78201	15215.525
2149.74466	15223.225
2152.7054	15230.725
2155.66425	15221.025
2158.6212	15223.125
2161.57625	15230.025
2164.52941	15244.525
2167.48067	15249.525
2170.43004	15221.125
2173.37752	15199.125
2176.32311	15197.625
2179.26681	15245.725
2182.20863	15225.025
2185.14856	15274.525
2188.08661	15250.825
2191.02278	15234.925
2193.95707	15259.125
2196.88948	15241.825
2199.82001	15240.025
2202.74867	15221.325
2205.67545	15214.225
2208.60037	15216.125
2211.52341	15202.425
2214.44458	15174.125
2217.36388	15155.125
2220.28132	15191.725
2223.1969	15129.625
2226.11061	15103.025
2229.02246	15093.825
2231.93245	15075.825
2234.84058	15055.825
2237.74686	15034.825
2240.65128	15040.925
2243.55385	15006.225
2246.45456	14996.525
2249.35343	14946.525
2252.25044	14953.925
2255.14561	14917.625
2258.03893	14917.125
2260.93041	14852.025
2263.82004	14841.025
2266.70783	14827.225
2269.59378	14799.125
2272.4779	14787.725
2275.36017	14780.125
2278.24061	14734.825
2281.11922	14728.525
2283.996	14708.425
2286.87094	14684.325
2289.74405	14655.525
2292.61534	14665.125
2295.4848	14661.125
2298.35243	14659.325
2301.21824	14659.725
2304.08223	14676.425
2306.94439	14688.825
2309.80474	14672.725
2312.66327	14719.625
2315.51999	14667.225
2318.37489	14695.125
2321.22797	14692.125
2324.07925	14683.325
2326.92871	14642.425
2329.77637	14627.525
2332.62222	14628.525
2335.46626	14613.325
2338.3085	14612.125
2341.14893	14622.125
2343.98756	14637.825
2346.8244	14632.525
2349.65943	14623.725
2352.49267	14611.225
2355.32411	14622.425
2358.15376	14605.325
2360.98161	14580.525
2363.80768	14584.925
2366.63195	14524.825
2369.45444	14540.425
2372.27514	14518.025
2375.09405	14501.425
2377.91118	14473.525
2380.72652	14433.725
2383.54009	14420.925
2386.35187	14421.425
2389.16188	14367.525
2391.97011	14390.725
2394.77657	14372.725
2397.58125	14361.225
2400.38416	14339.925
2403.18529	14347.325
2405.98466	14354.225
2408.78226	14326.325
2411.57809	14266.125
2414.37216	14275.525
2417.16446	14234.225
2419.955	14260.125
2422.74378	14253.825
2425.5308	14236.625
2428.31606	14229.125
2431.09956	14220.425
2433.88131	14202.825
2436.6613	14207.325
2439.43954	14226.025
2442.21603	14226.425
2444.99077	14196.925
2447.76377	14232.225
2450.53501	14197.525
2453.30451	14219.925
2456.07226	14193.325
2458.83827	14215.725
2461.60254	14183.725
2464.36507	14197.725
2467.12586	14173.525
2469.88492	14202.625
2472.64224	14178.825
2475.39782	14211.825
2478.15167	14189.325
2480.90379	14187.425
2483.65417	14249.925
2486.40283	14261.425
2489.14976	14275.925
2491.89497	14259.125
2494.63845	14239.325
2497.3802	14237.525
2500.12024	14244.525
2502.85855	14267.825
2505.59514	14253.725
2508.33002	14226.825
2511.06318	14218.125
2513.79462	14200.725
2516.52435	14220.025
2519.25237	14195.725
2521.97867	14132.825
2524.70327	14167.925
2527.42616	14127.925
2530.14734	14179.225
2532.86681	14187.625
2535.58458	14173.625
2538.30065	14156.925
2541.01501	14176.725
2543.72768	14125.125
2546.43864	14104.225
2549.14791	14129.225
2551.85548	14138.325
2554.56136	14145.525
2557.26554	14082.625
2559.96803	14062.925
2562.66883	14087.725
2565.36794	14037.025
2568.06536	14024.025
2570.7611	14016.725
2573.45514	14030.525
2576.14751	14085.825
2578.83819	14052.025
2581.52719	14007.225
2584.21451	13983.925
2586.90015	13997.025
2589.58411	13981.125
2592.2664	13998.325
2594.94701	14005.425
2597.62594	14011.925
2600.30321	13997.425
2602.9788	13977.825
2605.65273	13981.325
2608.32498	14003.425
2610.99557	13984.425
2613.66449	13979.725
2616.33175	13961.825
2618.99734	13997.125
2621.66128	13959.825
2624.32355	13916.625
2626.98416	13941.025
2629.64311	13934.325
2632.30041	13944.225
2634.95605	13918.725
2637.61004	13901.825
2640.26238	13886.625
2642.91306	13877.225
2645.56209	13870.025
2648.20948	13893.525
2650.85521	13844.925
2653.4993	13865.525
2656.14175	13893.925
2658.78255	13927.025
2661.42171	13921.025
2664.05923	13935.025
2666.6951	13960.625
2669.32934	13994.925
2671.96194	13965.125
2674.59291	13970.425
2677.22224	13955.725
2679.84993	13911.525
2682.476	13962.025
2685.10043	13984.025
2687.72324	13957.625
2690.34441	13934.425
2692.96396	13949.025
2695.58188	13941.625
2698.19818	13917.525
2700.81285	13920.625
2703.4259	13891.725
2706.03733	13812.025
2708.64714	13871.425
2711.25533	13950.125
2713.86191	13982.625
2716.46687	14006.425
2719.07021	14031.625
2721.67194	14024.725
2724.27206	14054.625
2726.87057	14074.925
2729.46747	14044.425
2732.06276	14081.725
2734.65644	14087.025
2737.24852	14084.025
2739.83899	14076.825
2742.42786	14116.925
2745.01513	14094.525
2747.60079	14078.125
2750.18486	14065.325
2752.76733	14049.825
2755.3482	14007.225
2757.92747	14034.625
2760.50515	14002.925
2763.08123	13998.625
2765.65573	13986.125
2768.22863	13995.525
2770.79994	13965.725
2773.36967	13985.825
2775.9378	13987.725
2778.50435	13961.725
2781.06932	13995.025
2783.6327	14024.425
2786.1945	14002.625
2788.75471	13981.125
2791.31335	13966.125
2793.87041	13948.825
2796.42589	13893.725
2798.97979	13877.525
2801.53212	13883.125
2804.08288	13875.325
2806.63206	13800.125
2809.17967	13803.425
2811.72571	13769.825
2814.27018	13784.525
2816.81308	13727.825
2819.35442	13716.725
2821.89419	13714.125
2824.43239	13690.725
2826.96904	13690.225
2829.50412	13724.325
2832.03763	13658.825
2834.56959	13668.925
2837.1	13667.125
2839.62884	13672.325
2842.15613	13665.625
2844.68186	13694.325
2847.20604	13672.625
2849.72867	13627.525
2852.24974	13628.925
2854.76927	13617.925
2857.28724	13554.025
2859.80367	13591.025
2862.31855	13561.525
2864.83189	13546.325
2867.34368	13539.925
2869.85393	13561.725
2872.36264	13576.825
2874.8698	13592.925
2877.37543	13581.525
2879.87952	13604.925
2882.38207	13579.725
2884.88308	13604.925
2887.38256	13626.925
2889.88051	13607.325
2892.37692	13611.725
2894.8718	13614.525
2897.36515	13645.825
2899.85698	13645.525
2902.34727	13667.425
2904.83604	13670.425
2907.32328	13689.325
2909.809	13677.725
2912.29319	13704.025
2914.77587	13718.425
2917.25702	13700.525
2919.73665	13704.025
2922.21476	13702.025
2924.69136	13681.325
2927.16644	13709.025
2929.64	13653.225
2932.11205	13640.025
2934.58258	13620.725
2937.05161	13617.425
2939.51912	13643.225
2941.98513	13641.925
2944.44962	13601.025
2946.91261	13578.125
2949.37409	13600.325
2951.83407	13604.625
2954.29254	13617.225
2956.74951	13613.225
2959.20498	13592.925
2961.65895	13588.325
2964.11142	13582.225
2966.56239	13542.525
2969.01186	13548.325
2971.45984	13539.725
2973.90632	13529.125
2976.35131	13500.125
2978.7948	13490.825
2981.23681	13472.525
2983.67732	13438.525
2986.11635	13426.125
2988.55388	13382.725
2990.98993	13348.725
2993.4245	13327.925
2995.85758	13308.025
2998.28917	13308.125
3000.71928	13284.325
3003.14791	13262.225
3005.57506	13212.425
3008.00073	13203.125
3010.42493	13164.925
3012.84764	13194.825
3015.26888	13182.025
3017.68865	13111.725
3020.10694	13131.825
3022.52376	13087.025
3024.9391	13080.225
3027.35298	13083.525
3029.76539	13095.125
3032.17632	13099.525
3034.5858	13082.725
3036.9938	13044.125
3039.40034	13072.525
3041.80542	13039.725
3044.20903	13024.025
3046.61118	13017.625
3049.01187	13001.825
3051.4111	12976.425
3053.80888	12962.825
3056.20519	12918.225
3058.60005	12900.625
3060.99345	12918.325
3063.3854	12864.525
3065.7759	12853.925
3068.16494	12809.225
3070.55254	12806.325
3072.93868	12745.525
3075.32338	12695.725
3077.70662	12674.525
3080.08842	12649.125
3082.46878	12656.925
3084.84769	12614.625
3087.22515	12638.825
3089.60118	12625.825
3091.97576	12653.325
3094.3489	12640.525
3096.72061	12669.825
3099.09087	12655.725
3101.4597	12637.725
3103.82709	12632.425
3106.19305	12615.125
3108.55757	12622.425
3110.92066	12604.625
3113.28232	12599.325
3115.64255	12582.125
3118.00134	12548.025
3120.35871	12524.225
3122.71466	12497.325
3125.06917	12468.225
3127.42226	12444.925
3129.77393	12450.525
