Data from AgNPs_FTO_APTES_UA_50uM_CRN_200uM_R6G_10uM_NaF_0.1M_Addition_RamanShift__21__16-18-55-090.txt Node

Date: Mon Feb 21 16:18:55 GMT 2022
User: TCL
Spectrometer: QEP01345
Trigger mode: 4
Integration Time (sec): 7.000000E0
Scans to average: 10
Electric dark correction enabled: true
Nonlinearity correction enabled: false
Boxcar width: 0
XAxis mode: Raman Shifts
Number of Pixels in Spectrum: 1044
>>>>>Begin Spectral Data<<<<<
46.04893	0.275
50.45542	-0.225
54.85868	-1.025
59.25871	-2.025
63.6555	54.375
68.04907	62.375
72.43941	60.775
76.82654	62.075
81.21044	63.775
85.59113	70.575
89.96862	68.275
94.34289	75.575
98.71396	73.875
103.08183	82.275
107.4465	81.275
111.80798	78.375
116.16626	80.475
120.52136	85.775
124.87327	92.875
129.222	88.475
133.56755	91.075
137.90993	104.475
142.24913	103.675
146.58517	120.875
150.91804	140.875
155.24774	163.775
159.57429	202.275
163.89768	255.075
168.21792	341.975
172.53501	460.875
176.84895	644.175
181.15975	891.175
185.46741	1257.675
189.77193	1743.375
194.07331	2338.375
198.37157	3014.275
202.6667	3715.075
206.9587	4442.675
211.24758	5137.475
215.53334	5840.775
219.81599	6608.875
224.09553	7438.575
228.37195	8365.575
232.64527	9392.075
236.91549	10490.675
241.18261	11547.575
245.44663	12512.575
249.70755	13339.675
253.96539	14028.775
258.22014	14590.475
262.4718	15133.275
266.72039	15483.575
270.96589	15618.075
275.20832	15589.475
279.44768	15443.875
283.68397	15160.875
287.91719	14986.775
292.14735	14891.175
296.37445	14939.975
300.59849	15132.775
304.81948	15316.475
309.03742	15421.975
313.25231	15310.675
317.46415	14942.175
321.67296	14433.975
325.87872	14004.075
330.08145	13848.975
334.28114	13897.775
338.47781	14052.675
342.67145	14269.575
346.86207	14575.975
351.04966	14983.575
355.23424	15517.175
359.4158	15907.175
363.59435	16179.675
367.76989	16365.075
371.94243	16474.575
376.11196	16522.975
380.27849	16589.175
384.44203	16622.275
388.60257	16598.375
392.76012	16594.975
396.91468	16740.675
401.06626	16988.275
405.21485	17155.475
409.36047	17029.675
413.50311	16645.575
417.64277	16255.975
421.77947	16079.175
425.9132	15999.975
430.04396	16051.275
434.17176	16157.975
438.2966	16350.775
442.41849	16710.475
446.53742	17144.275
450.6534	17579.175
454.76644	17896.075
458.87653	17989.975
462.98368	17889.875
467.08789	17646.575
471.18916	17390.375
475.2875	17107.575
479.38291	16897.275
483.4754	16733.575
487.56496	16562.875
491.6516	16419.775
495.73531	16335.875
499.81612	16345.575
503.89401	16450.375
507.96899	16575.075
512.04106	16667.075
516.11023	16742.575
520.1765	16788.475
524.23987	16771.575
528.30034	16699.275
532.35792	16629.275
536.41261	16468.175
540.46441	16299.975
544.51333	16180.175
548.55936	16210.275
552.60252	16392.975
556.64279	16641.675
560.6802	16785.375
564.71473	16891.875
568.7464	17101.875
572.7752	17287.275
576.80114	17263.675
580.82422	17164.275
584.84444	17223.675
588.86181	17459.575
592.87633	17900.175
596.888	18172.475
600.89682	18265.275
604.9028	19006.675
608.90594	21455.675
612.90624	24387.875
616.90371	23197.275
620.89834	18952.875
624.89015	17085.275
628.87913	16804.775
632.86528	16850.375
636.84862	16946.775
640.82913	16767.175
644.80683	16379.875
648.78172	16031.775
652.75379	15985.975
656.72306	16281.675
660.68952	16655.575
664.65319	16605.275
668.61405	16292.475
672.57211	16280.475
676.52738	16342.475
680.47986	16378.175
684.42955	16249.775
688.37646	16116.475
692.32058	16068.175
696.26192	16104.675
700.20048	16187.875
704.13626	16222.375
708.06928	16192.375
711.99952	16044.375
715.927	16021.175
719.85171	16088.975
723.77365	16100.375
727.69284	16070.575
731.60928	16026.075
735.52295	16010.175
739.43388	16046.175
743.34206	16133.875
747.24749	16145.275
751.15017	16181.075
755.05012	16284.075
758.94733	16653.775
762.8418	17479.175
766.73354	18983.075
770.62254	20650.075
774.50882	21510.675
778.39237	20822.875
782.27321	19073.675
786.15132	17457.275
790.02671	16488.775
793.89938	16036.275
797.76935	15851.575
801.6366	15794.775
805.50115	15761.475
809.36299	15677.775
813.22213	15597.675
817.07857	15516.075
820.93231	15522.475
824.78336	15476.575
828.63172	15483.875
832.47738	15499.975
836.32036	15478.875
840.16066	15513.375
843.99827	15540.875
847.8332	15507.375
851.66546	15485.075
855.49504	15522.175
859.32195	15558.375
863.1462	15573.275
866.96777	15577.175
870.78668	15536.075
874.60293	15536.775
878.41652	15544.875
882.22745	15557.775
886.03573	15600.575
889.84136	15607.775
893.64433	15511.375
897.44466	15434.875
901.24235	15371.475
905.0374	15301.475
908.8298	15224.175
912.61957	15191.375
916.40671	15228.875
920.19121	15367.075
923.97308	15495.575
927.75233	15581.775
931.52895	15617.575
935.30295	15530.575
939.07433	15288.075
942.84309	15100.075
946.60924	14987.575
950.37278	14882.375
954.13371	14836.975
957.89203	14745.575
961.64774	14691.575
965.40086	14632.875
969.15137	14585.975
972.89929	14527.975
976.64461	14487.475
980.38733	14498.375
984.12747	14513.375
987.86502	14639.075
991.59999	14781.775
995.33237	15006.975
999.06217	15325.975
1002.78939	15665.575
1006.51404	15920.275
1010.23611	16052.775
1013.95561	16148.075
1017.67255	16197.675
1021.38692	16102.175
1025.09872	15914.375
1028.80796	15931.475
1032.51465	16156.575
1036.21877	16430.875
1039.92035	16483.775
1043.61937	16375.575
1047.31584	16149.375
1051.00976	15885.975
1054.70114	15737.375
1058.38998	15679.575
1062.07627	15688.175
1065.76003	15688.075
1069.44126	15698.175
1073.11995	15755.475
1076.79611	15861.575
1080.46974	15985.575
1084.14085	16149.775
1087.80943	16336.475
1091.47549	16417.275
1095.13903	16362.075
1098.80005	16128.975
1102.45857	15901.675
1106.11456	15802.475
1109.76805	15920.375
1113.41903	16123.775
1117.06751	16358.175
1120.71348	16687.675
1124.35696	17002.375
1127.99793	17341.775
1131.63641	17356.275
1135.2724	17120.675
1138.90589	16758.075
1142.5369	16447.175
1146.16542	16320.275
1149.79145	16146.675
1153.415	16123.675
1157.03607	16195.175
1160.65467	16445.675
1164.27079	16873.075
1167.88443	17580.675
1171.49561	18488.775
1175.10432	19795.175
1178.71056	21443.575
1182.31434	23083.575
1185.91565	23760.075
1189.51451	23512.175
1193.11091	22516.275
1196.70485	21384.675
1200.29634	20440.575
1203.88538	19681.075
1207.47197	18976.675
1211.05612	18368.475
1214.63782	17983.275
1218.21708	17870.875
1221.79391	17902.175
1225.36829	17961.775
1228.94024	17861.475
1232.50976	17610.775
1236.07685	17409.375
1239.6415	17300.675
1243.20374	17346.975
1246.76355	17455.675
1250.32093	17603.175
1253.8759	17947.975
1257.42845	18299.775
1260.97859	18672.775
1264.52631	19085.375
1268.07163	19494.775
1271.61453	19946.775
1275.15503	20413.575
1278.69312	20844.875
1282.22882	21183.875
1285.76211	21518.475
1289.29301	21920.275
1292.82151	22477.975
1296.34761	23213.175
1299.87133	24276.975
1303.39266	25719.675
1306.9116	27660.475
1310.42815	29740.875
1313.94233	30877.275
1317.45412	30432.975
1320.96354	29044.675
1324.47058	27502.275
1327.97525	26163.775
1331.47754	25306.575
1334.97747	25025.375
1338.47502	25119.375
1341.97022	25533.775
1345.46305	26058.375
1348.95352	26656.475
1352.44163	27652.675
1355.92738	29170.375
1359.41078	31512.575
1362.89183	33553.175
1366.37053	32762.475
1369.84688	28934.975
1373.32088	25054.175
1376.79254	22593.275
1380.26186	21342.375
1383.72883	20836.375
1387.19347	20467.475
1390.65578	20031.175
1394.11575	19775.575
1397.57339	19813.975
1401.0287	20085.475
1404.48168	20361.575
1407.93234	20581.475
1411.38068	20643.275
1414.82669	20582.175
1418.27039	20272.475
1421.71177	19822.675
1425.15083	19298.375
1428.58758	19069.775
1432.02203	19072.175
1435.45416	19312.975
1438.88399	19558.475
1442.31151	19748.875
1445.73673	19881.875
1449.15965	20066.075
1452.58027	20136.575
1455.9986	20124.175
1459.41463	20097.475
1462.82837	20391.675
1466.23982	20720.575
1469.64898	21110.175
1473.05586	21417.375
1476.46045	21513.675
1479.86276	21648.775
1483.26279	21700.475
1486.66054	21750.575
1490.05602	21983.075
1493.44922	22312.175
1496.84016	22799.575
1500.22882	23720.475
1503.61521	25130.075
1506.99934	26963.675
1510.38121	28555.575
1513.76081	28887.675
1517.13816	27608.175
1520.51324	25410.275
1523.88607	23380.375
1527.25665	22103.975
1530.62498	21406.075
1533.99105	21024.875
1537.35488	20775.075
1540.71647	20596.975
1544.07581	20456.175
1547.4329	20356.075
1550.78776	20223.275
1554.14038	20168.475
1557.49077	20251.775
1560.83892	20336.275
1564.18484	20513.975
1567.52853	20701.175
1570.86999	20903.875
1574.20922	21059.675
1577.54624	21058.275
1580.88103	20605.075
1584.2136	20091.875
1587.54395	19921.975
1590.87208	20442.075
1594.19801	21514.875
1597.52172	22852.375
1600.84321	23509.375
1604.16251	23064.275
1607.47959	21798.075
1610.79447	20363.075
1614.10715	18928.575
1617.41763	17761.775
1620.7259	17021.775
1624.03199	16635.275
1627.33587	16578.375
1630.63757	16920.575
1633.93707	17609.375
1637.23439	18759.175
1640.52951	20376.175
1643.82246	22315.475
1647.11321	24183.175
1650.40179	24949.275
1653.68819	23825.575
1656.97241	21198.075
1660.25446	18562.475
1663.53433	16675.475
1666.81203	15535.575
1670.08756	14867.975
1673.36092	14463.775
1676.63211	14195.275
1679.90115	13993.975
1683.16801	13837.375
1686.43272	13707.675
1689.69527	13561.775
1692.95567	13445.575
1696.2139	13328.275
1699.46999	13203.175
1702.72392	13139.975
1705.97571	13146.675
1709.22535	13241.175
1712.47284	13269.875
1715.71819	13295.275
1718.96139	13286.175
1722.20246	13267.275
1725.44139	13231.375
1728.67818	13142.875
1731.91284	13091.375
1735.14537	13022.775
1738.37576	12953.275
1741.60403	12965.875
1744.83017	12911.375
1748.05418	12868.375
1751.27607	12855.875
1754.49584	12810.475
1757.71349	12738.375
1760.92903	12691.375
1764.14244	12645.775
1767.35375	12648.675
1770.56294	12579.575
1773.77002	12584.775
1776.97499	12579.575
1780.17785	12624.875
1783.37861	12613.575
1786.57727	12624.675
1789.77382	12623.175
1792.96828	12590.575
1796.16064	12589.875
1799.3509	12530.975
1802.53907	12536.575
1805.72514	12524.975
1808.90913	12490.475
1812.09102	12445.675
1815.27083	12434.975
1818.44856	12406.775
1821.6242	12376.175
1824.79776	12346.675
1827.96924	12346.675
1831.13864	12349.375
1834.30597	12333.075
1837.47122	12316.975
1840.6344	12288.275
1843.7955	12282.875
1846.95454	12301.775
1850.11151	12273.675
1853.26642	12278.375
1856.41926	12296.875
1859.57004	12290.175
1862.71876	12281.575
1865.86542	12272.575
1869.01003	12256.075
1872.15258	12281.975
1875.29308	12272.075
1878.43152	12272.575
1881.56792	12268.375
1884.70227	12248.875
1887.83457	12212.275
1890.96482	12240.675
1894.09304	12175.475
1897.21921	12219.775
1900.34335	12178.775
1903.46544	12180.675
1906.58551	12166.275
1909.70353	12198.675
1912.81953	12152.875
1915.93349	12124.975
1919.04543	12088.375
1922.15534	12059.975
1925.26322	12055.275
1928.36908	12019.175
1931.47292	11998.175
1934.57473	11977.075
1937.67453	11925.775
1940.77232	11922.575
1943.86808	11892.375
1946.96184	11871.375
1950.05358	11834.075
1953.14331	11801.375
1956.23103	11788.475
1959.31675	11715.175
1962.40046	11698.275
1965.48217	11626.875
1968.56188	11633.975
1971.63959	11590.575
1974.7153	11561.275
1977.78901	11508.975
1980.86073	11484.375
1983.93046	11458.075
1986.99819	11415.875
1990.06394	11404.075
1993.1277	11353.275
1996.18947	11330.775
1999.24925	11305.475
2002.30706	11261.075
2005.36288	11215.675
2008.41672	11188.275
2011.46859	11179.675
2014.51848	11152.375
2017.56639	11112.575
2020.61233	11105.675
2023.6563	11066.575
2026.6983	11015.675
2029.73833	11030.475
2032.7764	10991.175
2035.8125	10971.275
2038.84664	10961.875
2041.87881	10953.675
2044.90903	10902.675
2047.93729	10903.575
2050.96359	10883.775
2053.98794	10890.975
2057.01034	10887.375
2060.03078	10882.475
2063.04927	10858.575
2066.06582	10861.975
2069.08042	10844.775
2072.09307	10850.275
2075.10378	10814.775
2078.11255	10795.075
2081.11938	10812.875
2084.12426	10791.875
2087.12722	10797.075
2090.12824	10770.275
2093.12732	10782.875
2096.12447	10800.675
2099.11969	10797.375
2102.11299	10771.775
2105.10435	10802.475
2108.09379	10808.275
2111.08131	10806.075
2114.0669	10829.275
2117.05057	10819.775
2120.03233	10811.175
2123.01216	10825.575
2125.99008	10868.375
2128.96609	10855.475
2131.94018	10891.475
2134.91236	10859.875
2137.88263	10866.175
2140.851	10882.675
2143.81746	10869.575
2146.78201	10883.775
2149.74466	10911.275
2152.7054	10904.275
2155.66425	10896.275
2158.6212	10882.775
2161.57625	10881.375
2164.52941	10891.475
2167.48067	10873.475
2170.43004	10870.075
2173.37752	10870.875
2176.32311	10872.375
2179.26681	10895.675
2182.20863	10875.375
2185.14856	10867.375
2188.08661	10877.375
2191.02278	10886.275
2193.95707	10883.075
2196.88948	10871.375
2199.82001	10860.775
2202.74867	10844.175
2205.67545	10856.175
2208.60037	10846.275
2211.52341	10807.675
2214.44458	10823.475
2217.36388	10793.275
2220.28132	10772.175
2223.1969	10732.075
2226.11061	10718.875
2229.02246	10704.275
2231.93245	10665.075
2234.84058	10678.975
2237.74686	10669.175
2240.65128	10646.675
2243.55385	10629.575
2246.45456	10640.475
2249.35343	10609.875
2252.25044	10597.475
2255.14561	10553.475
2258.03893	10568.275
2260.93041	10531.275
2263.82004	10510.775
2266.70783	10536.975
2269.59378	10480.475
2272.4779	10475.775
2275.36017	10428.575
2278.24061	10432.675
2281.11922	10397.475
2283.996	10387.875
2286.87094	10382.875
2289.74405	10374.975
2292.61534	10332.875
2295.4848	10301.775
2298.35243	10343.775
2301.21824	10356.075
2304.08223	10330.875
2306.94439	10313.975
2309.80474	10309.975
2312.66327	10325.775
2315.51999	10319.775
2318.37489	10297.875
2321.22797	10284.175
2324.07925	10286.975
2326.92871	10276.275
2329.77637	10269.275
2332.62222	10243.475
2335.46626	10255.175
2338.3085	10234.575
2341.14893	10239.875
2343.98756	10241.675
2346.8244	10247.675
2349.65943	10255.375
2352.49267	10228.775
2355.32411	10266.975
2358.15376	10261.475
2360.98161	10247.375
2363.80768	10241.175
2366.63195	10225.575
2369.45444	10223.275
2372.27514	10205.975
2375.09405	10174.875
2377.91118	10170.275
2380.72652	10132.075
2383.54009	10089.875
2386.35187	10079.675
2389.16188	10047.175
2391.97011	10051.175
2394.77657	10001.475
2397.58125	10001.075
2400.38416	9970.175
2403.18529	9968.775
2405.98466	9954.075
2408.78226	9939.975
2411.57809	9918.375
2414.37216	9892.275
2417.16446	9900.475
2419.955	9864.375
2422.74378	9880.475
2425.5308	9857.175
2428.31606	9869.475
2431.09956	9855.875
2433.88131	9845.875
2436.6613	9860.675
2439.43954	9850.175
2442.21603	9832.975
2444.99077	9804.075
2447.76377	9820.675
2450.53501	9829.575
2453.30451	9811.675
2456.07226	9798.075
2458.83827	9805.875
2461.60254	9799.775
2464.36507	9807.675
2467.12586	9786.775
2469.88492	9783.775
2472.64224	9803.975
2475.39782	9798.275
2478.15167	9778.975
2480.90379	9775.975
2483.65417	9788.075
2486.40283	9801.575
2489.14976	9806.075
2491.89497	9827.775
2494.63845	9819.475
2497.3802	9804.375
2500.12024	9828.775
2502.85855	9800.475
2505.59514	9757.675
2508.33002	9729.775
2511.06318	9742.675
2513.79462	9706.475
2516.52435	9718.275
2519.25237	9692.975
2521.97867	9681.875
2524.70327	9679.875
2527.42616	9660.075
2530.14734	9646.675
2532.86681	9654.275
2535.58458	9639.675
2538.30065	9619.475
2541.01501	9628.875
2543.72768	9604.775
2546.43864	9594.375
2549.14791	9575.775
2551.85548	9590.275
2554.56136	9555.775
2557.26554	9560.775
2559.96803	9533.175
2562.66883	9531.575
2565.36794	9526.875
2568.06536	9520.875
2570.7611	9506.175
2573.45514	9501.575
2576.14751	9480.275
2578.83819	9469.575
2581.52719	9471.775
2584.21451	9438.775
2586.90015	9447.375
2589.58411	9432.975
2592.2664	9452.775
2594.94701	9413.075
2597.62594	9406.975
2600.30321	9404.175
2602.9788	9391.975
2605.65273	9378.675
2608.32498	9376.075
2610.99557	9351.575
2613.66449	9380.275
2616.33175	9363.975
2618.99734	9368.575
2621.66128	9362.475
2624.32355	9337.175
2626.98416	9332.975
2629.64311	9342.275
2632.30041	9344.075
2634.95605	9326.075
2637.61004	9307.575
2640.26238	9294.575
2642.91306	9305.375
2645.56209	9304.975
2648.20948	9297.275
2650.85521	9268.675
2653.4993	9271.175
2656.14175	9278.575
2658.78255	9288.575
2661.42171	9289.575
2664.05923	9296.175
2666.6951	9319.675
2669.32934	9301.375
2671.96194	9286.675
2674.59291	9304.575
2677.22224	9312.775
2679.84993	9333.775
2682.476	9278.975
2685.10043	9289.075
2687.72324	9265.375
2690.34441	9280.975
2692.96396	9257.975
2695.58188	9255.975
2698.19818	9268.175
2700.81285	9249.575
2703.4259	9240.775
2706.03733	9179.775
2708.64714	9218.975
2711.25533	9250.175
2713.86191	9250.875
2716.46687	9270.875
2719.07021	9284.175
2721.67194	9284.075
2724.27206	9279.475
2726.87057	9299.675
2729.46747	9324.375
2732.06276	9321.275
2734.65644	9318.775
2737.24852	9299.775
2739.83899	9278.775
2742.42786	9275.875
2745.01513	9263.775
2747.60079	9259.775
2750.18486	9246.275
2752.76733	9226.875
2755.3482	9210.275
2757.92747	9215.075
2760.50515	9194.775
2763.08123	9217.575
2765.65573	9196.175
2768.22863	9200.675
2770.79994	9183.975
2773.36967	9171.075
2775.9378	9182.475
2778.50435	9159.575
2781.06932	9183.675
2783.6327	9178.875
2786.1945	9186.175
2788.75471	9163.375
2791.31335	9141.175
2793.87041	9134.575
2796.42589	9117.575
2798.97979	9099.375
2801.53212	9081.375
2804.08288	9084.175
2806.63206	9060.375
2809.17967	9046.875
2811.72571	9020.075
2814.27018	9012.475
2816.81308	8998.275
2819.35442	8989.375
2821.89419	8983.475
2824.43239	9027.275
2826.96904	8999.475
2829.50412	8994.575
2832.03763	8982.075
2834.56959	8978.675
2837.1	8962.675
2839.62884	8964.375
2842.15613	8967.775
2844.68186	8985.475
2847.20604	8958.075
2849.72867	8982.175
2852.24974	8968.475
2854.76927	8948.175
2857.28724	8908.475
2859.80367	8930.175
2862.31855	8923.475
2864.83189	8888.175
2867.34368	8909.875
2869.85393	8910.575
2872.36264	8926.075
2874.8698	8912.675
2877.37543	8929.275
2879.87952	8930.375
2882.38207	8926.875
2884.88308	8905.975
2887.38256	8929.975
2889.88051	8952.275
2892.37692	8940.475
2894.8718	8950.675
2897.36515	8951.975
2899.85698	8936.375
2902.34727	8970.775
2904.83604	8977.975
2907.32328	8997.775
2909.809	9013.075
2912.29319	9008.575
2914.77587	9007.775
2917.25702	9032.575
2919.73665	9023.675
2922.21476	9029.475
2924.69136	9025.475
2927.16644	9012.275
2929.64	8997.875
2932.11205	8988.775
2934.58258	8945.775
2937.05161	8948.675
2939.51912	8956.975
2941.98513	8946.075
2944.44962	8932.575
2946.91261	8875.875
2949.37409	8906.475
2951.83407	8913.175
2954.29254	8898.875
2956.74951	8892.875
2959.20498	8896.775
2961.65895	8870.275
2964.11142	8841.675
2966.56239	8828.675
2969.01186	8817.975
2971.45984	8809.375
2973.90632	8784.475
2976.35131	8770.875
2978.7948	8754.775
2981.23681	8716.075
2983.67732	8716.875
2986.11635	8705.875
2988.55388	8677.575
2990.98993	8655.075
2993.4245	8631.275
2995.85758	8625.975
2998.28917	8609.575
3000.71928	8592.975
3003.14791	8572.875
3005.57506	8573.175
3008.00073	8555.575
3010.42493	8538.775
3012.84764	8546.175
3015.26888	8540.475
3017.68865	8510.075
3020.10694	8498.375
3022.52376	8494.075
3024.9391	8473.175
3027.35298	8452.875
3029.76539	8454.575
3032.17632	8448.075
3034.5858	8436.875
3036.9938	8411.975
3039.40034	8407.875
3041.80542	8391.275
3044.20903	8386.675
3046.61118	8389.975
3049.01187	8380.975
3051.4111	8392.675
3053.80888	8357.275
3056.20519	8342.775
3058.60005	8322.875
3060.99345	8309.675
3063.3854	8306.575
3065.7759	8266.275
3068.16494	8259.175
3070.55254	8237.275
3072.93868	8221.375
3075.32338	8196.875
3077.70662	8188.575
3080.08842	8171.675
3082.46878	8169.575
3084.84769	8159.375
3087.22515	8161.475
3089.60118	8158.575
3091.97576	8148.275
3094.3489	8162.375
3096.72061	8167.575
3099.09087	8157.875
3101.4597	8148.275
3103.82709	8146.675
3106.19305	8132.975
3108.55757	8153.075
3110.92066	8128.275
3113.28232	8093.175
3115.64255	8096.075
3118.00134	8083.775
3120.35871	8077.375
3122.71466	8049.975
3125.06917	8038.275
3127.42226	8051.575
3129.77393	8050.475
3132.12417	8034.075
3134.47299	8034.875
3136.82039	8020.275
3139.16636	8016.275
3141.51092	8026.275
3143.85406	8012.075
3146.19579	8020.875
3148.53609	8037.375
3150.87499	8040.475
3153.21246	8049.375
3155.54853	8063.575
3157.88318	8024.875
3160.21642	8066.575
3162.54826	8081.475
