Data from AgNPs_FTO_APTES_UA_50uM_CRN_5uM_R6G_10uM_NaF_0.1M_Addition_RamanShift__28__13-05-14-846.txt Node

Date: Mon Feb 21 13:05:14 GMT 2022
User: TCL
Spectrometer: QEP01345
Trigger mode: 4
Integration Time (sec): 7.000000E0
Scans to average: 10
Electric dark correction enabled: true
Nonlinearity correction enabled: false
Boxcar width: 0
XAxis mode: Raman Shifts
Number of Pixels in Spectrum: 1044
>>>>>Begin Spectral Data<<<<<
46.04893	0.625
50.45542	-0.075
54.85868	0.525
59.25871	-1.975
63.6555	57.725
68.04907	62.625
72.43941	66.825
76.82654	71.325
81.21044	77.125
85.59113	77.025
89.96862	74.225
94.34289	85.125
98.71396	82.925
103.08183	86.425
107.4465	89.125
111.80798	89.325
116.16626	90.325
120.52136	96.725
124.87327	102.525
129.222	98.825
133.56755	108.525
137.90993	122.025
142.24913	127.625
146.58517	143.725
150.91804	163.225
155.24774	194.325
159.57429	242.625
163.89768	312.025
168.21792	422.825
172.53501	567.925
176.84895	796.425
181.15975	1115.225
185.46741	1568.925
189.77193	2167.625
194.07331	2921.725
198.37157	3792.325
202.6667	4702.725
206.9587	5655.625
211.24758	6647.425
215.53334	7732.425
219.81599	8940.625
224.09553	10400.625
228.37195	11952.825
232.64527	13639.125
236.91549	15179.325
241.18261	16464.725
245.44663	17333.825
249.70755	17963.525
253.96539	18457.625
258.22014	18948.225
262.4718	19342.925
266.72039	19434.225
270.96589	19206.425
275.20832	18720.525
279.44768	18068.625
283.68397	17494.625
287.91719	17186.825
292.14735	17371.925
296.37445	18230.725
300.59849	19709.925
304.81948	21502.225
309.03742	22948.025
313.25231	23202.225
317.46415	21718.525
321.67296	19132.925
325.87872	16933.025
330.08145	15957.525
334.28114	15950.925
338.47781	16457.625
342.67145	17223.825
346.86207	18434.525
351.04966	20301.925
355.23424	22423.425
359.4158	23947.525
363.59435	24416.925
367.76989	24297.525
371.94243	23788.425
376.11196	23234.625
380.27849	22681.125
384.44203	22051.325
388.60257	21459.625
392.76012	21032.425
396.91468	21127.525
401.06626	21796.325
405.21485	22165.625
409.36047	21340.225
413.50311	19354.425
417.64277	17475.825
421.77947	16332.925
425.9132	15767.425
430.04396	15575.625
434.17176	15603.525
438.2966	15908.125
442.41849	16485.125
446.53742	17163.025
450.6534	17707.525
454.76644	17951.225
458.87653	17872.425
462.98368	17578.625
467.08789	17154.125
471.18916	16600.425
475.2875	15977.925
479.38291	15420.725
483.4754	15056.425
487.56496	14748.225
491.6516	14556.825
495.73531	14480.225
499.81612	14564.825
503.89401	14894.325
507.96899	15290.425
512.04106	15806.325
516.11023	16370.825
520.1765	16790.025
524.23987	16793.625
528.30034	16450.625
532.35792	16039.325
536.41261	15540.925
540.46441	15000.525
544.51333	14643.225
548.55936	14756.625
552.60252	15258.925
556.64279	15870.625
560.6802	16256.625
564.71473	17018.625
568.7464	18572.825
572.7752	19006.325
576.80114	17405.825
580.82422	15822.425
584.84444	15208.725
588.86181	15131.425
592.87633	15331.225
596.888	15794.525
600.89682	16890.025
604.9028	20797.325
608.90594	31421.425
612.90624	45423.225
616.90371	42718.425
620.89834	25580.125
624.89015	17576.025
628.87913	16231.125
632.86528	16706.925
636.84862	17332.125
640.82913	16699.625
644.80683	15074.525
648.78172	13930.425
652.75379	13940.825
656.72306	15118.625
660.68952	16579.825
664.65319	16065.225
668.61405	14445.725
672.57211	13721.625
676.52738	13683.225
680.47986	13687.125
684.42955	13423.425
688.37646	13262.725
692.32058	13314.625
696.26192	13500.525
700.20048	13788.025
704.13626	13926.225
708.06928	13740.125
711.99952	13542.325
715.927	13515.625
719.85171	13760.725
723.77365	13914.025
727.69284	13722.425
731.60928	13498.825
735.52295	13424.725
739.43388	13488.925
743.34206	13615.225
747.24749	13671.425
751.15017	13770.625
755.05012	14193.425
758.94733	15713.125
762.8418	19522.625
766.73354	25728.025
770.62254	31163.025
774.50882	33748.925
778.39237	32051.225
782.27321	26034.125
786.15132	19707.525
790.02671	16053.725
793.89938	14488.225
797.76935	13829.225
801.6366	13581.825
805.50115	13438.725
809.36299	13344.525
813.22213	13284.425
817.07857	13237.025
820.93231	13188.425
824.78336	13269.925
828.63172	13405.525
832.47738	13500.025
836.32036	13388.525
840.16066	13198.225
843.99827	13095.825
847.8332	13011.525
851.66546	12944.325
855.49504	12919.625
859.32195	12882.325
863.1462	12801.425
866.96777	12698.025
870.78668	12692.825
874.60293	12749.525
878.41652	12852.825
882.22745	13075.425
886.03573	13227.225
889.84136	13184.525
893.64433	13121.925
897.44466	13112.525
901.24235	13087.825
905.0374	12949.025
908.8298	12717.725
912.61957	12539.725
916.40671	12546.325
920.19121	12652.925
923.97308	12935.025
927.75233	13409.425
931.52895	13927.425
935.30295	13719.525
939.07433	12907.425
942.84309	12232.325
946.60924	11875.625
950.37278	11712.025
954.13371	11655.425
957.89203	11569.525
961.64774	11523.025
965.40086	11471.425
969.15137	11411.925
972.89929	11390.725
976.64461	11376.525
980.38733	11372.925
984.12747	11408.925
987.86502	11518.125
991.59999	11682.325
995.33237	11968.025
999.06217	12463.325
1002.78939	13090.925
1006.51404	13670.825
1010.23611	14066.225
1013.95561	14217.725
1017.67255	14157.925
1021.38692	13884.825
1025.09872	13564.925
1028.80796	13564.625
1032.51465	13892.225
1036.21877	14238.925
1039.92035	14388.225
1043.61937	14292.825
1047.31584	14066.925
1051.00976	13703.025
1054.70114	13412.425
1058.38998	13266.625
1062.07627	13239.025
1065.76003	13260.425
1069.44126	13304.625
1073.11995	13568.825
1076.79611	14011.725
1080.46974	14728.425
1084.14085	15760.125
1087.80943	16630.825
1091.47549	16765.825
1095.13903	16093.925
1098.80005	15038.625
1102.45857	14352.825
1106.11456	14276.325
1109.76805	14656.325
1113.41903	15558.625
1117.06751	16970.825
1120.71348	18829.725
1124.35696	21031.825
1127.99793	22278.525
1131.63641	21191.725
1135.2724	18858.725
1138.90589	17029.325
1142.5369	15890.525
1146.16542	15146.925
1149.79145	14714.625
1153.415	14610.225
1157.03607	14774.625
1160.65467	15236.825
1164.27079	16138.025
1167.88443	17631.225
1171.49561	19952.425
1175.10432	23833.825
1178.71056	29159.725
1182.31434	33393.525
1185.91565	34328.825
1189.51451	32238.025
1193.11091	28951.925
1196.70485	25765.825
1200.29634	23700.125
1203.88538	22022.725
1207.47197	19893.525
1211.05612	17912.125
1214.63782	16737.125
1218.21708	16322.525
1221.79391	16288.525
1225.36829	16356.325
1228.94024	16336.925
1232.50976	16108.925
1236.07685	15978.125
1239.6415	15973.325
1243.20374	16115.525
1246.76355	16305.925
1250.32093	16641.725
1253.8759	17240.525
1257.42845	18112.925
1260.97859	19193.225
1264.52631	20333.825
1268.07163	21429.025
1271.61453	22275.425
1275.15503	22775.025
1278.69312	23120.925
1282.22882	23628.725
1285.76211	24716.325
1289.29301	26047.325
1292.82151	27319.025
1296.34761	28808.925
1299.87133	31414.725
1303.39266	36287.125
1306.9116	43676.625
1310.42815	50941.825
1313.94233	52793.025
1317.45412	47958.225
1320.96354	40831.325
1324.47058	34606.425
1327.97525	30064.425
1331.47754	27646.625
1334.97747	26905.325
1338.47502	27515.625
1341.97022	29474.525
1345.46305	32648.225
1348.95352	36743.725
1352.44163	41737.725
1355.92738	49228.425
1359.41078	61049.725
1362.89183	70274.325
1366.37053	64443.625
1369.84688	49188.625
1373.32088	37208.725
1376.79254	30669.825
1380.26186	27021.225
1383.72883	24613.725
1387.19347	22750.025
1390.65578	21225.425
1394.11575	20231.625
1397.57339	19891.325
1401.0287	19921.025
1404.48168	20064.625
1407.93234	20200.225
1411.38068	20409.925
1414.82669	20613.725
1418.27039	20572.525
1421.71177	20136.125
1425.15083	19633.325
1428.58758	19597.825
1432.02203	20073.225
1435.45416	20423.725
1438.88399	20299.525
1442.31151	20141.825
1445.73673	20261.725
1449.15965	20441.225
1452.58027	20377.225
1455.9986	20058.725
1459.41463	20035.025
1462.82837	20409.125
1466.23982	21191.725
1469.64898	21882.025
1473.05586	22204.025
1476.46045	22289.825
1479.86276	22633.925
1483.26279	23424.225
1486.66054	24596.025
1490.05602	26335.425
1493.44922	28913.325
1496.84016	33021.825
1500.22882	39522.625
1503.61521	48952.125
1506.99934	59618.125
1510.38121	67368.225
1513.76081	67240.425
1517.13816	58792.425
1520.51324	46837.525
1523.88607	36907.425
1527.25665	30778.625
1530.62498	27435.325
1533.99105	25424.225
1537.35488	24274.025
1540.71647	23551.925
1544.07581	23391.725
1547.4329	23511.125
1550.78776	23845.625
1554.14038	24213.625
1557.49077	24718.425
1560.83892	25545.925
1564.18484	26982.825
1567.52853	28853.325
1570.86999	30168.025
1574.20922	30699.025
1577.54624	29946.325
1580.88103	27062.425
1584.2136	23749.425
1587.54395	21948.825
1590.87208	22176.225
1594.19801	24082.325
1597.52172	26480.525
1600.84321	27400.225
1604.16251	25993.125
1607.47959	23644.725
1610.79447	21238.025
1614.10715	19067.225
1617.41763	17457.125
1620.7259	16534.625
1624.03199	16210.125
1627.33587	16505.125
1630.63757	17351.425
1633.93707	18938.425
1637.23439	21445.725
1640.52951	25390.925
1643.82246	31328.125
1647.11321	38287.025
1650.40179	42459.025
1653.68819	39686.025
1656.97241	31738.025
1660.25446	23978.225
1663.53433	18895.325
1666.81203	16049.725
1670.08756	14475.025
1673.36092	13554.725
1676.63211	12974.025
1679.90115	12569.525
1683.16801	12266.525
1686.43272	12053.425
1689.69527	11890.825
1692.95567	11714.025
1696.2139	11569.425
1699.46999	11422.825
1702.72392	11354.225
1705.97571	11417.025
1709.22535	11462.525
1712.47284	11530.725
1715.71819	11554.625
1718.96139	11504.225
1722.20246	11436.425
1725.44139	11281.225
1728.67818	11177.525
1731.91284	11031.725
1735.14537	10907.925
1738.37576	10849.125
1741.60403	10798.525
1744.83017	10721.325
1748.05418	10673.425
1751.27607	10581.325
1754.49584	10506.925
1757.71349	10405.325
1760.92903	10372.225
1764.14244	10308.425
1767.35375	10258.825
1770.56294	10190.025
1773.77002	10127.925
1776.97499	10142.325
1780.17785	10141.825
1783.37861	10127.425
1786.57727	10101.125
1789.77382	10103.825
1792.96828	10106.425
1796.16064	10081.625
1799.3509	10076.725
1802.53907	10023.925
1805.72514	9995.125
1808.90913	9977.025
1812.09102	9936.325
1815.27083	9881.025
1818.44856	9866.525
1821.6242	9844.425
1824.79776	9838.525
1827.96924	9827.825
1831.13864	9791.925
1834.30597	9761.025
1837.47122	9754.525
1840.6344	9726.925
1843.7955	9722.825
1846.95454	9711.125
1850.11151	9690.525
1853.26642	9699.825
1856.41926	9695.825
1859.57004	9681.125
1862.71876	9698.925
1865.86542	9699.625
1869.01003	9716.125
1872.15258	9731.325
1875.29308	9763.225
1878.43152	9747.125
1881.56792	9714.425
1884.70227	9740.125
1887.83457	9770.125
1890.96482	9750.725
1894.09304	9717.225
1897.21921	9710.525
1900.34335	9729.725
1903.46544	9770.325
1906.58551	9749.325
1909.70353	9744.725
1912.81953	9758.525
1915.93349	9721.125
1919.04543	9700.325
1922.15534	9693.225
1925.26322	9638.625
1928.36908	9590.325
1931.47292	9532.425
1934.57473	9453.025
1937.67453	9428.625
1940.77232	9398.625
1943.86808	9379.425
1946.96184	9329.425
1950.05358	9290.025
1953.14331	9268.125
1956.23103	9212.125
1959.31675	9201.825
1962.40046	9208.525
1965.48217	9189.325
1968.56188	9200.925
1971.63959	9189.625
1974.7153	9157.325
1977.78901	9116.925
1980.86073	9069.925
1983.93046	9000.625
1986.99819	8955.325
1990.06394	8906.425
1993.1277	8880.225
1996.18947	8846.225
1999.24925	8799.925
2002.30706	8778.125
2005.36288	8750.125
2008.41672	8715.125
2011.46859	8693.025
2014.51848	8658.425
2017.56639	8657.325
2020.61233	8619.225
2023.6563	8592.125
2026.6983	8579.625
2029.73833	8554.025
2032.7764	8532.225
2035.8125	8526.625
2038.84664	8511.125
2041.87881	8512.025
2044.90903	8505.625
2047.93729	8469.525
2050.96359	8461.325
2053.98794	8449.625
2057.01034	8431.125
2060.03078	8438.525
2063.04927	8413.225
2066.06582	8393.425
2069.08042	8367.625
2072.09307	8370.925
2075.10378	8368.025
2078.11255	8335.025
2081.11938	8353.625
2084.12426	8348.325
2087.12722	8334.925
2090.12824	8325.625
2093.12732	8302.325
2096.12447	8331.625
2099.11969	8317.925
2102.11299	8314.725
2105.10435	8344.425
2108.09379	8326.525
2111.08131	8349.025
2114.0669	8368.625
2117.05057	8358.225
2120.03233	8402.425
2123.01216	8406.325
2125.99008	8446.625
2128.96609	8435.325
2131.94018	8436.825
2134.91236	8443.025
2137.88263	8413.725
2140.851	8402.625
2143.81746	8419.925
2146.78201	8395.725
2149.74466	8351.025
2152.7054	8344.125
2155.66425	8343.925
2158.6212	8316.625
2161.57625	8318.925
2164.52941	8322.725
2167.48067	8320.125
2170.43004	8324.025
2173.37752	8308.925
2176.32311	8323.625
2179.26681	8356.225
2182.20863	8334.225
2185.14856	8318.825
2188.08661	8346.825
2191.02278	8339.525
2193.95707	8329.025
2196.88948	8295.725
2199.82001	8298.825
2202.74867	8300.225
2205.67545	8303.725
2208.60037	8303.425
2211.52341	8288.825
2214.44458	8293.625
2217.36388	8267.125
2220.28132	8259.625
2223.1969	8255.325
2226.11061	8212.525
2229.02246	8208.725
2231.93245	8182.325
2234.84058	8162.725
2237.74686	8155.525
2240.65128	8154.225
2243.55385	8144.225
2246.45456	8152.425
2249.35343	8148.825
2252.25044	8146.325
2255.14561	8154.925
2258.03893	8214.325
2260.93041	8178.525
2263.82004	8211.825
2266.70783	8194.125
2269.59378	8149.025
2272.4779	8168.025
2275.36017	8112.325
2278.24061	8104.225
2281.11922	8085.625
2283.996	8054.425
2286.87094	8036.925
2289.74405	8005.025
2292.61534	8005.125
2295.4848	7975.625
2298.35243	7967.325
2301.21824	7959.825
2304.08223	7972.125
2306.94439	7959.825
2309.80474	7959.525
2312.66327	7975.925
2315.51999	7964.225
2318.37489	7992.325
2321.22797	7958.325
2324.07925	7960.325
2326.92871	7955.125
2329.77637	7944.025
2332.62222	7945.625
2335.46626	7952.525
2338.3085	7957.225
2341.14893	7969.225
2343.98756	8013.025
2346.8244	8019.625
2349.65943	8046.025
2352.49267	8031.125
2355.32411	8089.425
2358.15376	8123.725
2360.98161	8135.925
2363.80768	8121.225
2366.63195	8142.525
2369.45444	8141.425
2372.27514	8180.225
2375.09405	8131.625
2377.91118	8105.925
2380.72652	8084.925
2383.54009	8011.625
2386.35187	7987.625
2389.16188	7934.625
2391.97011	7917.225
2394.77657	7877.525
2397.58125	7855.825
2400.38416	7807.925
2403.18529	7795.825
2405.98466	7772.825
2408.78226	7746.925
2411.57809	7741.525
2414.37216	7714.325
2417.16446	7713.825
2419.955	7687.425
2422.74378	7705.725
2425.5308	7698.325
2428.31606	7689.225
2431.09956	7723.925
2433.88131	7715.225
2436.6613	7739.625
2439.43954	7728.825
2442.21603	7744.225
2444.99077	7749.825
2447.76377	7776.225
2450.53501	7770.225
2453.30451	7777.125
2456.07226	7792.125
2458.83827	7767.125
2461.60254	7754.525
2464.36507	7774.825
2467.12586	7773.725
2469.88492	7783.925
2472.64224	7776.125
2475.39782	7803.825
2478.15167	7832.625
2480.90379	7858.425
2483.65417	7898.925
2486.40283	7938.925
2489.14976	7971.225
2491.89497	8002.925
2494.63845	8003.325
2497.3802	7978.225
2500.12024	7972.325
2502.85855	7919.425
2505.59514	7888.725
2508.33002	7833.325
2511.06318	7784.025
2513.79462	7739.225
2516.52435	7690.125
2519.25237	7654.325
2521.97867	7624.225
2524.70327	7603.825
2527.42616	7584.925
2530.14734	7575.625
2532.86681	7572.025
2535.58458	7603.025
2538.30065	7594.125
2541.01501	7598.025
2543.72768	7592.825
2546.43864	7603.925
2549.14791	7616.825
2551.85548	7617.825
2554.56136	7594.525
2557.26554	7612.025
2559.96803	7612.225
2562.66883	7623.325
2565.36794	7605.025
2568.06536	7614.825
2570.7611	7598.025
2573.45514	7586.325
2576.14751	7580.325
2578.83819	7570.325
2581.52719	7565.925
2584.21451	7512.725
2586.90015	7533.825
2589.58411	7527.925
2592.2664	7533.625
2594.94701	7550.225
2597.62594	7543.025
2600.30321	7531.425
2602.9788	7530.225
2605.65273	7542.525
2608.32498	7529.625
2610.99557	7532.525
2613.66449	7565.525
2616.33175	7580.925
2618.99734	7579.825
2621.66128	7606.225
2624.32355	7578.625
2626.98416	7571.525
2629.64311	7541.825
2632.30041	7548.125
2634.95605	7519.825
2637.61004	7479.425
2640.26238	7481.825
2642.91306	7473.225
2645.56209	7443.325
2648.20948	7446.325
2650.85521	7425.325
2653.4993	7428.625
2656.14175	7471.325
2658.78255	7478.925
2661.42171	7475.925
2664.05923	7528.125
2666.6951	7534.025
2669.32934	7552.425
2671.96194	7547.425
2674.59291	7564.225
2677.22224	7586.525
2679.84993	7549.425
2682.476	7535.025
2685.10043	7545.425
2687.72324	7539.025
2690.34441	7515.525
2692.96396	7495.525
2695.58188	7515.725
2698.19818	7506.425
2700.81285	7497.825
2703.4259	7451.925
2706.03733	7389.625
2708.64714	7453.525
2711.25533	7476.825
2713.86191	7515.525
2716.46687	7501.125
2719.07021	7518.925
2721.67194	7551.225
2724.27206	7551.625
2726.87057	7548.225
2729.46747	7551.025
2732.06276	7559.125
2734.65644	7518.825
2737.24852	7527.925
2739.83899	7506.025
2742.42786	7485.425
2745.01513	7488.825
2747.60079	7468.125
2750.18486	7430.725
2752.76733	7432.025
2755.3482	7406.325
2757.92747	7421.825
2760.50515	7399.125
2763.08123	7381.825
2765.65573	7385.125
2768.22863	7404.625
2770.79994	7372.725
2773.36967	7401.725
2775.9378	7409.425
2778.50435	7406.125
2781.06932	7405.725
2783.6327	7418.325
2786.1945	7402.425
2788.75471	7413.625
2791.31335	7446.825
2793.87041	7428.925
2796.42589	7410.025
2798.97979	7441.925
2801.53212	7410.225
2804.08288	7427.325
2806.63206	7436.725
2809.17967	7458.925
2811.72571	7470.825
2814.27018	7464.825
2816.81308	7463.225
2819.35442	7498.125
2821.89419	7521.825
2824.43239	7546.125
2826.96904	7541.225
2829.50412	7567.725
2832.03763	7521.225
2834.56959	7513.825
2837.1	7497.425
2839.62884	7505.025
2842.15613	7483.625
2844.68186	7521.325
2847.20604	7517.725
2849.72867	7555.925
2852.24974	7562.825
2854.76927	7564.625
2857.28724	7557.225
2859.80367	7594.925
2862.31855	7641.825
2864.83189	7657.225
2867.34368	7680.725
2869.85393	7710.325
2872.36264	7697.125
2874.8698	7713.625
2877.37543	7706.725
2879.87952	7692.725
2882.38207	7690.225
2884.88308	7665.625
2887.38256	7655.025
2889.88051	7656.525
2892.37692	7655.325
2894.8718	7648.425
2897.36515	7643.725
2899.85698	7642.125
2902.34727	7652.725
2904.83604	7647.325
2907.32328	7691.125
2909.809	7669.725
2912.29319	7657.725
2914.77587	7629.825
2917.25702	7611.925
2919.73665	7591.525
2922.21476	7581.625
2924.69136	7551.025
2927.16644	7532.825
2929.64	7517.025
2932.11205	7479.625
2934.58258	7444.225
2937.05161	7447.925
2939.51912	7456.225
2941.98513	7437.025
2944.44962	7423.125
2946.91261	7392.525
2949.37409	7413.225
2951.83407	7401.125
2954.29254	7393.525
2956.74951	7378.325
2959.20498	7381.725
2961.65895	7354.325
2964.11142	7334.225
2966.56239	7311.925
2969.01186	7302.225
2971.45984	7247.425
2973.90632	7227.125
2976.35131	7224.725
2978.7948	7214.525
2981.23681	7182.825
2983.67732	7180.225
2986.11635	7140.425
2988.55388	7136.925
2990.98993	7149.725
2993.4245	7123.125
2995.85758	7126.625
2998.28917	7111.725
3000.71928	7120.325
3003.14791	7101.625
3005.57506	7102.625
3008.00073	7094.925
3010.42493	7103.625
3012.84764	7116.725
3015.26888	7096.925
3017.68865	7065.625
3020.10694	7072.625
3022.52376	7036.825
3024.9391	7024.325
3027.35298	7016.125
3029.76539	6997.725
3032.17632	6979.625
3034.5858	6929.825
3036.9938	6912.425
3039.40034	6903.725
3041.80542	6893.225
3044.20903	6877.425
3046.61118	6881.325
3049.01187	6863.725
3051.4111	6847.225
3053.80888	6850.325
3056.20519	6806.925
3058.60005	6787.725
3060.99345	6775.125
3063.3854	6755.225
3065.7759	6739.025
3068.16494	6714.425
3070.55254	6689.325
3072.93868	6666.025
3075.32338	6643.625
3077.70662	6627.425
3080.08842	6609.625
3082.46878	6591.925
3084.84769	6593.925
3087.22515	6592.925
3089.60118	6581.225
3091.97576	6574.925
3094.3489	6568.325
3096.72061	6578.925
3099.09087	6562.425
3101.4597	6553.425
3103.82709	6556.425
3106.19305	6561.325
3108.55757	6583.225
3110.92066	6539.425
3113.28232	6534.225
3115.64255	6521.625
3118.00134	6518.825
3120.35871	6515.125
3122.71466	6485.525
3125.06917	6493.825
3127.42226	6482.725
3129.77393	6478.125
3132.12417	6490.025
3134.47299	6494.425
3136.82039	6478.925
3139.16636	6497.125
3141.51092	6484.125
3143.85406	6505.625
3146.19579	6496.325
3148.53609	6510.425
3150.87499	6507.025
3153.21246	6537.725
3155.54853	6555.225
3157.88318	6527.525
3160.21642	6569.625
3162.54826	6558.825
3164.87868	6564.125
3167.2077	6545.025
3169.5353	6550.325
3171.86151	6544.825
3174.18631	6552.925
3176.5097	6535.025
3178.83169	6532.625
3181.15228	6520.625
3183.47147	6526.825
3185.78926	6519.125
