Data from AgNPs_FTO_APTES_UA_50uM_CRN_200uM_R6G_10uM_NaF_0.1M_Addition_RamanShift__30__16-29-25-102.txt Node

Date: Mon Feb 21 16:29:25 GMT 2022
User: TCL
Spectrometer: QEP01345
Trigger mode: 4
Integration Time (sec): 7.000000E0
Scans to average: 10
Electric dark correction enabled: true
Nonlinearity correction enabled: false
Boxcar width: 0
XAxis mode: Raman Shifts
Number of Pixels in Spectrum: 1044
>>>>>Begin Spectral Data<<<<<
46.04893	0.1875
50.45542	-0.3125
54.85868	0.3875
59.25871	-1.3125
63.6555	42.8875
68.04907	46.5875
72.43941	49.5875
76.82654	52.2875
81.21044	56.1875
85.59113	59.9875
89.96862	58.2875
94.34289	62.0875
98.71396	63.3875
103.08183	67.8875
107.4465	67.5875
111.80798	65.4875
116.16626	68.8875
120.52136	65.7875
124.87327	75.0875
129.222	73.5875
133.56755	74.6875
137.90993	81.9875
142.24913	84.5875
146.58517	90.9875
150.91804	104.3875
155.24774	121.1875
159.57429	143.3875
163.89768	179.7875
168.21792	236.2875
172.53501	318.9875
176.84895	447.6875
181.15975	610.2875
185.46741	853.2875
189.77193	1182.2875
194.07331	1570.2875
198.37157	2029.9875
202.6667	2502.8875
206.9587	2993.0875
211.24758	3477.6875
215.53334	4003.1875
219.81599	4621.0875
224.09553	5320.2875
228.37195	6131.3875
232.64527	6979.6875
236.91549	7846.2875
241.18261	8544.4875
245.44663	9173.4875
249.70755	9568.0875
253.96539	9873.6875
258.22014	10088.3875
262.4718	10210.9875
266.72039	10290.1875
270.96589	10261.5875
275.20832	10125.9875
279.44768	9840.9875
283.68397	9573.4875
287.91719	9424.6875
292.14735	9519.0875
296.37445	9981.6875
300.59849	10737.1875
304.81948	11658.4875
309.03742	12338.8875
313.25231	12419.7875
317.46415	11560.0875
321.67296	10201.9875
325.87872	9090.5875
330.08145	8588.2875
334.28114	8558.7875
338.47781	8818.9875
342.67145	9230.5875
346.86207	9938.1875
351.04966	10931.0875
355.23424	12041.7875
359.4158	12858.7875
363.59435	13158.7875
367.76989	13166.4875
371.94243	13063.3875
376.11196	12852.0875
380.27849	12641.4875
384.44203	12342.4875
388.60257	11951.2875
392.76012	11692.5875
396.91468	11724.7875
401.06626	12124.3875
405.21485	12382.5875
409.36047	11922.4875
413.50311	10829.1875
417.64277	9780.7875
421.77947	9152.4875
425.9132	8839.3875
430.04396	8730.8875
434.17176	8746.2875
438.2966	8940.3875
442.41849	9258.2875
446.53742	9629.8875
450.6534	9916.3875
454.76644	10094.1875
458.87653	10037.8875
462.98368	9851.9875
467.08789	9653.0875
471.18916	9338.1875
475.2875	8979.2875
479.38291	8692.0875
483.4754	8493.6875
487.56496	8373.8875
491.6516	8304.2875
495.73531	8294.8875
499.81612	8344.6875
503.89401	8558.2875
507.96899	8802.1875
512.04106	9150.9875
516.11023	9547.1875
520.1765	9800.5875
524.23987	9774.6875
528.30034	9457.1875
532.35792	9125.4875
536.41261	8801.8875
540.46441	8435.0875
544.51333	8218.8875
548.55936	8228.5875
552.60252	8466.1875
556.64279	8797.5875
560.6802	8996.5875
564.71473	9311.3875
568.7464	10051.5875
572.7752	10355.0875
576.80114	9652.9875
580.82422	8817.0875
584.84444	8438.2875
588.86181	8358.2875
592.87633	8409.1875
596.888	8576.8875
600.89682	9161.0875
604.9028	11194.9875
608.90594	16844.9875
612.90624	24431.6875
616.90371	23346.5875
620.89834	14039.9875
624.89015	9707.0875
628.87913	8933.9875
632.86528	9090.9875
636.84862	9413.0875
640.82913	9198.6875
644.80683	8507.8875
648.78172	8017.1875
652.75379	8046.8875
656.72306	8708.8875
660.68952	9453.9875
664.65319	9224.9875
668.61405	8364.7875
672.57211	7921.8875
676.52738	7884.4875
680.47986	7924.4875
684.42955	7812.6875
688.37646	7706.9875
692.32058	7709.7875
696.26192	7792.8875
700.20048	7964.2875
704.13626	8012.0875
708.06928	7973.3875
711.99952	7865.7875
715.927	7863.4875
719.85171	7945.5875
723.77365	8030.4875
727.69284	7966.8875
731.60928	7856.2875
735.52295	7856.0875
739.43388	7893.6875
743.34206	7925.3875
747.24749	7958.0875
751.15017	8005.3875
755.05012	8235.3875
758.94733	8949.9875
762.8418	10646.2875
766.73354	13590.6875
770.62254	16693.1875
774.50882	18591.8875
778.39237	17997.5875
782.27321	14644.5875
786.15132	11202.2875
790.02671	9263.0875
793.89938	8448.0875
797.76935	8156.9875
801.6366	8020.2875
805.50115	7945.5875
809.36299	7929.8875
813.22213	7864.8875
817.07857	7844.8875
820.93231	7819.9875
824.78336	7828.1875
828.63172	7899.9875
832.47738	7913.0875
836.32036	7864.2875
840.16066	7752.0875
843.99827	7709.5875
847.8332	7667.9875
851.66546	7668.2875
855.49504	7694.2875
859.32195	7646.9875
863.1462	7606.6875
866.96777	7578.1875
870.78668	7583.8875
874.60293	7620.2875
878.41652	7690.7875
882.22745	7794.6875
886.03573	7886.8875
889.84136	7874.3875
893.64433	7778.1875
897.44466	7765.8875
901.24235	7751.7875
905.0374	7699.2875
908.8298	7585.2875
912.61957	7537.1875
916.40671	7522.9875
920.19121	7571.9875
923.97308	7673.7875
927.75233	7874.8875
931.52895	8111.3875
935.30295	8021.4875
939.07433	7652.2875
942.84309	7283.8875
946.60924	7087.7875
950.37278	7013.5875
954.13371	6968.1875
957.89203	6905.6875
961.64774	6920.7875
965.40086	6882.6875
969.15137	6867.9875
972.89929	6850.2875
976.64461	6848.8875
980.38733	6857.4875
984.12747	6866.2875
987.86502	6889.2875
991.59999	6949.3875
995.33237	7046.3875
999.06217	7189.4875
1002.78939	7376.0875
1006.51404	7619.2875
1010.23611	7861.3875
1013.95561	8024.6875
1017.67255	7998.1875
1021.38692	7883.4875
1025.09872	7689.0875
1028.80796	7592.2875
1032.51465	7626.7875
1036.21877	7715.0875
1039.92035	7814.7875
1043.61937	7873.8875
1047.31584	7852.7875
1051.00976	7804.4875
1054.70114	7744.0875
1058.38998	7700.7875
1062.07627	7713.2875
1065.76003	7743.4875
1069.44126	7767.1875
1073.11995	7843.7875
1076.79611	8039.3875
1080.46974	8380.6875
1084.14085	8865.6875
1087.80943	9305.0875
1091.47549	9394.4875
1095.13903	9107.1875
1098.80005	8572.1875
1102.45857	8185.1875
1106.11456	8124.0875
1109.76805	8325.1875
1113.41903	8777.9875
1117.06751	9460.1875
1120.71348	10313.0875
1124.35696	11255.4875
1127.99793	11889.7875
1131.63641	11510.3875
1135.2724	10437.3875
1138.90589	9519.8875
1142.5369	8947.3875
1146.16542	8580.6875
1149.79145	8350.0875
1153.415	8304.2875
1157.03607	8372.3875
1160.65467	8609.1875
1164.27079	9016.3875
1167.88443	9700.3875
1171.49561	10872.3875
1175.10432	12921.0875
1178.71056	15742.5875
1182.31434	17694.2875
1185.91565	17894.6875
1189.51451	16807.8875
1193.11091	15131.0875
1196.70485	13398.1875
1200.29634	12371.9875
1203.88538	11590.9875
1207.47197	10555.9875
1211.05612	9612.8875
1214.63782	9088.2875
1218.21708	8832.9875
1221.79391	8747.8875
1225.36829	8766.1875
1228.94024	8747.5875
1232.50976	8749.2875
1236.07685	8800.5875
1239.6415	8851.4875
1243.20374	8950.5875
1246.76355	9034.8875
1250.32093	9200.4875
1253.8759	9454.9875
1257.42845	9848.5875
1260.97859	10249.4875
1264.52631	10739.0875
1268.07163	11189.5875
1271.61453	11600.4875
1275.15503	11848.4875
1278.69312	11859.8875
1282.22882	11913.5875
1285.76211	12277.1875
1289.29301	12818.0875
1292.82151	13356.6875
1296.34761	13994.8875
1299.87133	15105.6875
1303.39266	17225.6875
1306.9116	20493.2875
1310.42815	23946.4875
1313.94233	25170.1875
1317.45412	23341.4875
1320.96354	20136.5875
1324.47058	17153.3875
1327.97525	14868.5875
1331.47754	13602.8875
1334.97747	13272.6875
1338.47502	13588.6875
1341.97022	14509.4875
1345.46305	16068.7875
1348.95352	18179.4875
1352.44163	20847.3875
1355.92738	24699.8875
1359.41078	30309.0875
1362.89183	34628.3875
1366.37053	32214.5875
1369.84688	25402.0875
1373.32088	19502.5875
1376.79254	15816.3875
1380.26186	13802.4875
1383.72883	12673.6875
1387.19347	11801.6875
1390.65578	11022.6875
1394.11575	10396.0875
1397.57339	10072.6875
1401.0287	9984.3875
1404.48168	10012.6875
1407.93234	10103.8875
1411.38068	10282.1875
1414.82669	10463.5875
1418.27039	10494.0875
1421.71177	10443.2875
1425.15083	10290.8875
1428.58758	10235.9875
1432.02203	10351.1875
1435.45416	10509.1875
1438.88399	10478.9875
1442.31151	10441.3875
1445.73673	10437.9875
1449.15965	10515.9875
1452.58027	10459.8875
1455.9986	10285.9875
1459.41463	10238.0875
1462.82837	10403.4875
1466.23982	10695.7875
1469.64898	10989.1875
1473.05586	11190.3875
1476.46045	11339.6875
1479.86276	11637.6875
1483.26279	12091.2875
1486.66054	12691.4875
1490.05602	13523.8875
1493.44922	14720.7875
1496.84016	16719.4875
1500.22882	19922.9875
1503.61521	24237.4875
1506.99934	29025.7875
1510.38121	32963.2875
1513.76081	33856.9875
1517.13816	30485.7875
1520.51324	24681.0875
1523.88607	19460.7875
1527.25665	16174.4875
1530.62498	14373.7875
1533.99105	13329.0875
1537.35488	12665.5875
1540.71647	12397.1875
1544.07581	12389.4875
1547.4329	12508.6875
1550.78776	12658.3875
1554.14038	12810.7875
1557.49077	13062.4875
1560.83892	13479.9875
1564.18484	14192.1875
1567.52853	15052.7875
1570.86999	15763.6875
1574.20922	16124.0875
1577.54624	15860.8875
1580.88103	14502.7875
1584.2136	12701.4875
1587.54395	11621.7875
1590.87208	11436.7875
1594.19801	12160.6875
1597.52172	13246.5875
1600.84321	13750.2875
1604.16251	13205.8875
1607.47959	12299.3875
1610.79447	11291.8875
1614.10715	10311.5875
1617.41763	9538.3875
1620.7259	9077.7875
1624.03199	8890.1875
1627.33587	8925.1875
1630.63757	9190.3875
1633.93707	9731.3875
1637.23439	10663.0875
1640.52951	12193.9875
1643.82246	14573.6875
1647.11321	17687.1875
1650.40179	20045.4875
1653.68819	19407.7875
1656.97241	16061.6875
1660.25446	12529.3875
1663.53433	10139.5875
1666.81203	8843.0875
1670.08756	8127.0875
1673.36092	7716.5875
1676.63211	7462.1875
1679.90115	7262.1875
1683.16801	7141.9875
1686.43272	7011.9875
1689.69527	6909.8875
1692.95567	6796.9875
1696.2139	6692.9875
1699.46999	6575.8875
1702.72392	6543.2875
1705.97571	6596.7875
1709.22535	6659.8875
1712.47284	6749.3875
1715.71819	6787.9875
1718.96139	6789.2875
1722.20246	6789.0875
1725.44139	6748.2875
1728.67818	6668.7875
1731.91284	6612.6875
1735.14537	6510.3875
1738.37576	6469.7875
1741.60403	6432.8875
1744.83017	6403.0875
1748.05418	6362.4875
1751.27607	6329.5875
1754.49584	6268.5875
1757.71349	6183.5875
1760.92903	6147.6875
1764.14244	6121.5875
1767.35375	6110.4875
1770.56294	6071.8875
1773.77002	6066.7875
1776.97499	6079.8875
1780.17785	6100.9875
1783.37861	6099.5875
1786.57727	6096.8875
1789.77382	6117.0875
1792.96828	6099.5875
1796.16064	6098.3875
1799.3509	6080.3875
1802.53907	6079.7875
1805.72514	6045.6875
1808.90913	6037.2875
1812.09102	6015.2875
1815.27083	5967.7875
1818.44856	5968.5875
1821.6242	5946.9875
1824.79776	5931.4875
1827.96924	5938.0875
1831.13864	5936.0875
1834.30597	5911.0875
1837.47122	5906.4875
1840.6344	5895.7875
1843.7955	5866.8875
1846.95454	5871.0875
1850.11151	5868.0875
1853.26642	5854.5875
1856.41926	5855.2875
1859.57004	5858.0875
1862.71876	5861.6875
1865.86542	5859.3875
1869.01003	5860.4875
1872.15258	5857.7875
1875.29308	5871.1875
1878.43152	5850.1875
1881.56792	5859.6875
1884.70227	5864.1875
1887.83457	5843.2875
1890.96482	5841.2875
1894.09304	5842.9875
1897.21921	5829.3875
1900.34335	5831.2875
1903.46544	5845.5875
1906.58551	5842.6875
1909.70353	5838.1875
1912.81953	5835.9875
1915.93349	5818.9875
1919.04543	5817.5875
1922.15534	5799.5875
1925.26322	5784.2875
1928.36908	5777.5875
1931.47292	5749.8875
1934.57473	5721.8875
1937.67453	5692.8875
1940.77232	5695.9875
1943.86808	5668.3875
1946.96184	5654.3875
1950.05358	5633.3875
1953.14331	5617.9875
1956.23103	5596.6875
1959.31675	5581.4875
1962.40046	5552.2875
1965.48217	5568.0875
1968.56188	5537.3875
1971.63959	5537.7875
1974.7153	5536.0875
1977.78901	5515.5875
1980.86073	5502.6875
1983.93046	5465.9875
1986.99819	5451.5875
1990.06394	5408.3875
1993.1277	5404.4875
1996.18947	5372.5875
1999.24925	5361.0875
2002.30706	5326.8875
2005.36288	5303.1875
2008.41672	5288.1875
2011.46859	5284.4875
2014.51848	5276.0875
2017.56639	5248.7875
2020.61233	5224.8875
2023.6563	5214.3875
2026.6983	5208.1875
2029.73833	5200.8875
2032.7764	5175.2875
2035.8125	5176.5875
2038.84664	5141.8875
2041.87881	5148.4875
2044.90903	5127.1875
2047.93729	5116.8875
2050.96359	5118.5875
2053.98794	5107.1875
2057.01034	5101.0875
2060.03078	5107.8875
2063.04927	5094.0875
2066.06582	5103.4875
2069.08042	5074.2875
2072.09307	5081.2875
2075.10378	5059.8875
2078.11255	5070.9875
2081.11938	5066.4875
2084.12426	5052.2875
2087.12722	5061.9875
2090.12824	5062.9875
2093.12732	5058.5875
2096.12447	5058.7875
2099.11969	5065.0875
2102.11299	5045.3875
2105.10435	5045.8875
2108.09379	5046.4875
2111.08131	5063.2875
2114.0669	5062.5875
2117.05057	5075.6875
2120.03233	5093.5875
2123.01216	5095.0875
2125.99008	5094.3875
2128.96609	5077.4875
2131.94018	5096.8875
2134.91236	5090.6875
2137.88263	5087.8875
2140.851	5103.2875
2143.81746	5085.1875
2146.78201	5080.1875
2149.74466	5094.5875
2152.7054	5069.8875
2155.66425	5058.9875
2158.6212	5059.8875
2161.57625	5069.2875
2164.52941	5055.9875
2167.48067	5049.6875
2170.43004	5044.6875
2173.37752	5037.0875
2176.32311	5042.3875
2179.26681	5063.8875
2182.20863	5041.8875
2185.14856	5058.5875
2188.08661	5053.1875
2191.02278	5049.1875
2193.95707	5046.9875
2196.88948	5048.5875
2199.82001	5037.4875
2202.74867	5017.3875
2205.67545	5008.0875
2208.60037	5020.5875
2211.52341	5006.5875
2214.44458	4993.5875
2217.36388	4974.7875
2220.28132	4969.2875
2223.1969	4982.7875
2226.11061	4944.6875
2229.02246	4939.7875
2231.93245	4926.4875
2234.84058	4916.6875
2237.74686	4906.0875
2240.65128	4888.1875
2243.55385	4897.7875
2246.45456	4898.2875
2249.35343	4894.3875
2252.25044	4898.3875
2255.14561	4887.5875
2258.03893	4903.3875
2260.93041	4890.2875
2263.82004	4887.1875
2266.70783	4888.2875
2269.59378	4868.5875
2272.4779	4853.5875
2275.36017	4861.0875
2278.24061	4843.1875
2281.11922	4835.9875
2283.996	4817.9875
2286.87094	4806.6875
2289.74405	4804.8875
2292.61534	4775.1875
2295.4848	4755.2875
2298.35243	4764.5875
2301.21824	4753.3875
2304.08223	4745.5875
2306.94439	4738.8875
2309.80474	4732.9875
2312.66327	4741.3875
2315.51999	4742.5875
2318.37489	4739.0875
2321.22797	4735.1875
2324.07925	4731.4875
2326.92871	4713.2875
2329.77637	4733.8875
2332.62222	4709.9875
2335.46626	4700.3875
2338.3085	4701.3875
2341.14893	4706.8875
2343.98756	4697.2875
2346.8244	4712.3875
2349.65943	4720.2875
2352.49267	4723.6875
2355.32411	4760.6875
2358.15376	4764.9875
2360.98161	4789.4875
2363.80768	4794.6875
2366.63195	4798.7875
2369.45444	4803.1875
2372.27514	4818.0875
2375.09405	4818.1875
2377.91118	4787.7875
2380.72652	4760.5875
2383.54009	4733.4875
2386.35187	4701.5875
2389.16188	4671.8875
2391.97011	4641.4875
2394.77657	4613.3875
2397.58125	4600.4875
2400.38416	4580.7875
2403.18529	4563.2875
2405.98466	4557.7875
2408.78226	4563.3875
2411.57809	4535.3875
2414.37216	4535.2875
2417.16446	4523.8875
2419.955	4525.6875
2422.74378	4526.8875
2425.5308	4525.9875
2428.31606	4535.4875
2431.09956	4520.5875
2433.88131	4528.9875
2436.6613	4544.8875
2439.43954	4536.9875
2442.21603	4526.2875
2444.99077	4551.1875
2447.76377	4546.9875
2450.53501	4537.5875
2453.30451	4559.3875
2456.07226	4549.9875
2458.83827	4545.6875
2461.60254	4550.4875
2464.36507	4552.6875
2467.12586	4535.1875
2469.88492	4529.8875
2472.64224	4537.9875
2475.39782	4527.1875
2478.15167	4542.4875
2480.90379	4576.7875
2483.65417	4591.6875
2486.40283	4611.7875
2489.14976	4629.4875
2491.89497	4659.0875
2494.63845	4637.2875
2497.3802	4604.7875
2500.12024	4611.2875
2502.85855	4609.8875
2505.59514	4576.8875
2508.33002	4551.8875
2511.06318	4524.5875
2513.79462	4486.0875
2516.52435	4454.9875
2519.25237	4431.7875
2521.97867	4431.5875
2524.70327	4400.1875
2527.42616	4398.2875
2530.14734	4385.9875
2532.86681	4369.6875
2535.58458	4390.0875
2538.30065	4364.1875
2541.01501	4383.3875
2543.72768	4381.7875
2546.43864	4393.7875
2549.14791	4375.6875
2551.85548	4371.1875
2554.56136	4386.5875
2557.26554	4381.5875
2559.96803	4380.7875
2562.66883	4373.8875
2565.36794	4357.9875
2568.06536	4356.9875
2570.7611	4362.8875
2573.45514	4344.3875
2576.14751	4325.1875
2578.83819	4317.4875
2581.52719	4295.6875
2584.21451	4300.1875
2586.90015	4289.5875
2589.58411	4276.6875
2592.2664	4274.4875
2594.94701	4267.1875
2597.62594	4270.9875
2600.30321	4267.6875
2602.9788	4272.2875
2605.65273	4259.8875
2608.32498	4258.6875
2610.99557	4258.3875
2613.66449	4255.7875
2616.33175	4260.5875
2618.99734	4274.5875
2621.66128	4245.9875
2624.32355	4237.0875
2626.98416	4236.7875
2629.64311	4234.8875
2632.30041	4219.8875
2634.95605	4218.3875
2637.61004	4205.5875
2640.26238	4169.1875
2642.91306	4175.1875
2645.56209	4184.2875
2648.20948	4163.3875
2650.85521	4173.5875
2653.4993	4175.2875
2656.14175	4171.8875
2658.78255	4180.3875
2661.42171	4182.2875
2664.05923	4206.2875
2666.6951	4206.8875
2669.32934	4213.4875
2671.96194	4203.9875
2674.59291	4207.4875
2677.22224	4230.7875
2679.84993	4218.5875
2682.476	4220.0875
2685.10043	4228.7875
2687.72324	4208.6875
2690.34441	4216.9875
2692.96396	4211.2875
2695.58188	4209.0875
2698.19818	4210.1875
2700.81285	4206.4875
2703.4259	4187.8875
2706.03733	4142.4875
2708.64714	4171.0875
2711.25533	4197.1875
2713.86191	4212.0875
2716.46687	4223.4875
2719.07021	4227.0875
2721.67194	4255.1875
2724.27206	4237.7875
2726.87057	4247.1875
2729.46747	4251.0875
2732.06276	4219.3875
2734.65644	4227.3875
2737.24852	4207.7875
2739.83899	4204.3875
2742.42786	4194.2875
2745.01513	4166.2875
2747.60079	4164.5875
2750.18486	4175.9875
2752.76733	4148.7875
2755.3482	4143.5875
2757.92747	4143.1875
2760.50515	4136.0875
2763.08123	4140.8875
2765.65573	4129.1875
2768.22863	4130.3875
2770.79994	4106.2875
2773.36967	4120.5875
2775.9378	4121.5875
2778.50435	4111.6875
2781.06932	4112.1875
2783.6327	4114.5875
2786.1945	4105.1875
2788.75471	4136.1875
2791.31335	4125.0875
2793.87041	4095.8875
2796.42589	4105.7875
2798.97979	4109.4875
2801.53212	4098.9875
2804.08288	4112.7875
2806.63206	4125.5875
2809.17967	4112.7875
2811.72571	4118.3875
2814.27018	4127.3875
2816.81308	4144.4875
2819.35442	4140.6875
2821.89419	4153.9875
2824.43239	4151.5875
2826.96904	4164.0875
2829.50412	4164.0875
2832.03763	4169.0875
2834.56959	4158.6875
2837.1	4178.1875
2839.62884	4194.5875
2842.15613	4199.3875
2844.68186	4252.7875
2847.20604	4278.9875
2849.72867	4310.8875
2852.24974	4329.3875
2854.76927	4313.2875
2857.28724	4282.6875
2859.80367	4305.3875
2862.31855	4319.3875
2864.83189	4302.0875
2867.34368	4317.7875
2869.85393	4316.3875
2872.36264	4309.4875
2874.8698	4305.4875
2877.37543	4304.4875
2879.87952	4299.0875
2882.38207	4294.8875
2884.88308	4269.8875
2887.38256	4280.1875
2889.88051	4259.2875
2892.37692	4262.5875
2894.8718	4266.2875
2897.36515	4277.0875
2899.85698	4264.1875
2902.34727	4267.5875
2904.83604	4291.0875
2907.32328	4271.4875
2909.809	4274.0875
2912.29319	4295.1875
2914.77587	4278.2875
2917.25702	4275.3875
2919.73665	4258.5875
2922.21476	4270.6875
2924.69136	4259.0875
2927.16644	4245.8875
2929.64	4231.7875
2932.11205	4211.0875
2934.58258	4197.5875
2937.05161	4203.1875
2939.51912	4166.5875
2941.98513	4163.6875
2944.44962	4148.3875
2946.91261	4120.3875
2949.37409	4092.4875
2951.83407	4078.8875
2954.29254	4072.3875
2956.74951	4061.7875
2959.20498	4046.8875
2961.65895	4039.0875
2964.11142	4029.4875
2966.56239	4020.0875
2969.01186	4006.0875
2971.45984	3990.7875
2973.90632	3998.9875
2976.35131	3987.6875
2978.7948	3979.7875
2981.23681	3957.3875
2983.67732	3960.0875
2986.11635	3925.2875
2988.55388	3917.2875
2990.98993	3921.2875
2993.4245	3920.2875
2995.85758	3887.6875
2998.28917	3903.5875
3000.71928	3893.8875
3003.14791	3889.8875
3005.57506	3872.1875
3008.00073	3883.0875
3010.42493	3870.5875
3012.84764	3872.2875
3015.26888	3871.5875
3017.68865	3873.9875
3020.10694	3850.3875
3022.52376	3863.6875
3024.9391	3844.1875
3027.35298	3826.2875
3029.76539	3823.0875
3032.17632	3815.2875
3034.5858	3796.1875
3036.9938	3793.6875
3039.40034	3790.9875
3041.80542	3773.1875
3044.20903	3770.5875
3046.61118	3774.0875
3049.01187	3764.3875
3051.4111	3765.2875
3053.80888	3734.8875
3056.20519	3737.0875
3058.60005	3723.9875
3060.99345	3729.0875
3063.3854	3716.5875
3065.7759	3705.2875
3068.16494	3694.8875
3070.55254	3686.3875
3072.93868	3678.3875
3075.32338	3656.8875
3077.70662	3664.0875
3080.08842	3647.3875
3082.46878	3637.7875
3084.84769	3636.4875
3087.22515	3635.9875
3089.60118	3625.4875
3091.97576	3627.4875
3094.3489	3613.4875
3096.72061	3618.1875
3099.09087	3633.3875
3101.4597	3605.3875
3103.82709	3615.6875
3106.19305	3608.4875
