Data from AgNPs_FTO_APTES_UA_50uM_CRN_0uM_R6G_10uM_NaF_0.1M_Addition_RamanShift__36__10-52-14-671.txt Node

Date: Mon Feb 21 10:52:14 GMT 2022
User: TCL
Spectrometer: QEP01345
Trigger mode: 4
Integration Time (sec): 7.000000E0
Scans to average: 10
Electric dark correction enabled: true
Nonlinearity correction enabled: false
Boxcar width: 0
XAxis mode: Raman Shifts
Number of Pixels in Spectrum: 1044
>>>>>Begin Spectral Data<<<<<
46.04893	0.5875
50.45542	-1.4125
54.85868	0.8875
59.25871	-1.4125
63.6555	49.0875
68.04907	54.0875
72.43941	55.1875
76.82654	59.0875
81.21044	60.9875
85.59113	66.8875
89.96862	67.5875
94.34289	69.8875
98.71396	69.5875
103.08183	76.0875
107.4465	75.9875
111.80798	74.7875
116.16626	75.3875
120.52136	76.9875
124.87327	85.7875
129.222	85.7875
133.56755	89.4875
137.90993	95.9875
142.24913	107.0875
146.58517	112.7875
150.91804	126.4875
155.24774	152.3875
159.57429	190.3875
163.89768	243.3875
168.21792	321.9875
172.53501	443.1875
176.84895	614.0875
181.15975	859.5875
185.46741	1204.1875
189.77193	1662.2875
194.07331	2217.6875
198.37157	2856.7875
202.6667	3523.9875
206.9587	4201.8875
211.24758	4860.5875
215.53334	5537.3875
219.81599	6255.7875
224.09553	7064.4875
228.37195	7975.2875
232.64527	8953.4875
236.91549	9944.5875
241.18261	10905.2875
245.44663	11788.2875
249.70755	12512.0875
253.96539	13160.7875
258.22014	13690.2875
262.4718	14154.7875
266.72039	14472.7875
270.96589	14620.3875
275.20832	14604.7875
279.44768	14471.7875
283.68397	14291.0875
287.91719	14123.8875
292.14735	14095.9875
296.37445	14124.4875
300.59849	14319.7875
304.81948	14555.6875
309.03742	14738.0875
313.25231	14647.6875
317.46415	14286.4875
321.67296	13736.3875
325.87872	13225.9875
330.08145	12954.1875
334.28114	12906.3875
338.47781	12986.4875
342.67145	13225.4875
346.86207	13541.9875
351.04966	13896.2875
355.23424	14395.7875
359.4158	14738.4875
363.59435	14989.4875
367.76989	15090.1875
371.94243	15117.6875
376.11196	15126.5875
380.27849	15157.7875
384.44203	15169.8875
388.60257	15206.7875
392.76012	15265.2875
396.91468	15408.0875
401.06626	15707.3875
405.21485	15898.8875
409.36047	15763.9875
413.50311	15420.7875
417.64277	15071.8875
421.77947	14926.7875
425.9132	14904.5875
430.04396	14947.3875
434.17176	14948.2875
438.2966	15113.6875
442.41849	15370.3875
446.53742	15822.9875
450.6534	16279.3875
454.76644	16658.5875
458.87653	16728.6875
462.98368	16630.8875
467.08789	16398.4875
471.18916	16124.8875
475.2875	15881.1875
479.38291	15702.6875
483.4754	15587.6875
487.56496	15464.5875
491.6516	15276.6875
495.73531	15078.0875
499.81612	15024.2875
503.89401	15081.0875
507.96899	15149.9875
512.04106	15139.4875
516.11023	15080.7875
520.1765	14990.1875
524.23987	14899.5875
528.30034	14780.1875
532.35792	14615.8875
536.41261	14413.1875
540.46441	14175.5875
544.51333	14099.6875
548.55936	14183.9875
552.60252	14497.1875
556.64279	14928.2875
560.6802	15266.8875
564.71473	15509.9875
568.7464	15935.8875
572.7752	16448.8875
576.80114	16614.8875
580.82422	16724.4875
584.84444	16932.8875
588.86181	17202.4875
592.87633	17500.6875
596.888	17459.1875
600.89682	17194.5875
604.9028	17719.1875
608.90594	20073.0875
612.90624	22971.0875
616.90371	21902.0875
620.89834	17277.7875
624.89015	15011.4875
628.87913	14659.6875
632.86528	14712.1875
636.84862	14794.0875
640.82913	14565.6875
644.80683	14145.4875
648.78172	13785.4875
652.75379	13728.2875
656.72306	14040.3875
660.68952	14392.2875
664.65319	14341.1875
668.61405	13939.7875
672.57211	13812.6875
676.52738	13899.1875
680.47986	13925.2875
684.42955	13795.0875
688.37646	13785.1875
692.32058	13839.5875
696.26192	13988.3875
700.20048	14151.5875
704.13626	14228.9875
708.06928	14199.9875
711.99952	14110.4875
715.927	14054.7875
719.85171	14166.1875
723.77365	14138.8875
727.69284	13908.8875
731.60928	13704.5875
735.52295	13650.2875
739.43388	13656.6875
743.34206	13709.7875
747.24749	13769.8875
751.15017	13892.6875
755.05012	14081.8875
758.94733	14585.8875
762.8418	15560.0875
766.73354	17227.5875
770.62254	18908.8875
774.50882	19479.4875
778.39237	18668.2875
782.27321	17022.8875
786.15132	15479.4875
790.02671	14541.3875
793.89938	14023.4875
797.76935	13821.8875
801.6366	13736.8875
805.50115	13700.1875
809.36299	13620.0875
813.22213	13496.4875
817.07857	13403.6875
820.93231	13327.7875
824.78336	13313.7875
828.63172	13269.5875
832.47738	13254.1875
836.32036	13211.8875
840.16066	13250.0875
843.99827	13252.9875
847.8332	13263.9875
851.66546	13209.0875
855.49504	13218.4875
859.32195	13193.6875
863.1462	13147.3875
866.96777	13132.8875
870.78668	13123.1875
874.60293	13083.8875
878.41652	13145.0875
882.22745	13228.1875
886.03573	13266.7875
889.84136	13279.8875
893.64433	13252.6875
897.44466	13175.1875
901.24235	13124.9875
905.0374	13013.2875
908.8298	12950.4875
912.61957	12898.4875
916.40671	12978.9875
920.19121	13100.4875
923.97308	13263.1875
927.75233	13361.3875
931.52895	13389.8875
935.30295	13216.6875
939.07433	12914.6875
942.84309	12660.0875
946.60924	12564.8875
950.37278	12489.3875
954.13371	12465.1875
957.89203	12412.0875
961.64774	12378.5875
965.40086	12357.8875
969.15137	12332.2875
972.89929	12298.2875
976.64461	12263.5875
980.38733	12264.4875
984.12747	12270.1875
987.86502	12403.5875
991.59999	12523.0875
995.33237	12685.0875
999.06217	13042.0875
1002.78939	13426.8875
1006.51404	13737.5875
1010.23611	13985.9875
1013.95561	14131.7875
1017.67255	14152.6875
1021.38692	13971.1875
1025.09872	13700.1875
1028.80796	13590.5875
1032.51465	13705.9875
1036.21877	13869.4875
1039.92035	13932.9875
1043.61937	13891.7875
1047.31584	13728.6875
1051.00976	13550.9875
1054.70114	13483.5875
1058.38998	13444.6875
1062.07627	13546.5875
1065.76003	13657.6875
1069.44126	13776.5875
1073.11995	14043.9875
1076.79611	14352.2875
1080.46974	14504.8875
1084.14085	14712.4875
1087.80943	14990.8875
1091.47549	15162.9875
1095.13903	15130.6875
1098.80005	14832.5875
1102.45857	14419.9875
1106.11456	14144.0875
1109.76805	14050.1875
1113.41903	14084.1875
1117.06751	14239.8875
1120.71348	14509.8875
1124.35696	14775.4875
1127.99793	15143.7875
1131.63641	15217.8875
1135.2724	15008.6875
1138.90589	14764.6875
1142.5369	14609.3875
1146.16542	14563.6875
1149.79145	14557.8875
1153.415	14604.7875
1157.03607	14744.4875
1160.65467	15114.1875
1164.27079	15719.7875
1167.88443	16653.0875
1171.49561	17820.0875
1175.10432	19539.4875
1178.71056	21748.0875
1182.31434	23724.4875
1185.91565	24643.6875
1189.51451	24503.1875
1193.11091	23605.2875
1196.70485	22432.6875
1200.29634	21216.4875
1203.88538	20213.8875
1207.47197	19396.8875
1211.05612	18699.3875
1214.63782	18274.8875
1218.21708	17998.2875
1221.79391	17874.6875
1225.36829	17877.3875
1228.94024	17713.4875
1232.50976	17302.0875
1236.07685	16976.1875
1239.6415	16719.4875
1243.20374	16632.8875
1246.76355	16669.0875
1250.32093	16865.1875
1253.8759	17258.9875
1257.42845	17833.6875
1260.97859	18445.7875
1264.52631	19155.1875
1268.07163	19842.6875
1271.61453	20508.0875
1275.15503	21108.4875
1278.69312	21733.7875
1282.22882	22210.9875
1285.76211	22793.7875
1289.29301	23558.9875
1292.82151	24455.8875
1296.34761	25600.9875
1299.87133	27080.6875
1303.39266	28955.1875
1306.9116	31176.3875
1310.42815	33472.4875
1313.94233	35062.3875
1317.45412	34974.2875
1320.96354	33873.5875
1324.47058	32520.7875
1327.97525	31442.7875
1331.47754	30648.9875
1334.97747	30187.9875
1338.47502	29900.6875
1341.97022	29707.8875
1345.46305	29391.2875
1348.95352	29257.1875
1352.44163	29558.9875
1355.92738	30610.0875
1359.41078	32651.7875
1362.89183	35017.5875
1366.37053	34740.3875
1369.84688	31360.9875
1373.32088	27201.2875
1376.79254	24338.6875
1380.26186	23042.7875
1383.72883	22613.8875
1387.19347	22299.7875
1390.65578	21922.3875
1394.11575	21741.0875
1397.57339	21927.5875
1401.0287	22347.7875
1404.48168	22723.8875
1407.93234	22804.2875
1411.38068	22558.8875
1414.82669	21994.4875
1418.27039	21204.9875
1421.71177	20379.0875
1425.15083	19646.1875
1428.58758	19331.5875
1432.02203	19399.1875
1435.45416	19898.7875
1438.88399	20394.6875
1442.31151	20756.0875
1445.73673	21024.6875
1449.15965	21316.5875
1452.58027	21545.6875
1455.9986	21517.9875
1459.41463	21669.0875
1462.82837	22003.5875
1466.23982	22459.2875
1469.64898	22775.8875
1473.05586	22956.8875
1476.46045	22913.6875
1479.86276	22800.4875
1483.26279	22682.2875
1486.66054	22695.5875
1490.05602	22985.2875
1493.44922	23356.5875
1496.84016	23920.3875
1500.22882	24935.3875
1503.61521	26444.9875
1506.99934	28170.6875
1510.38121	29743.3875
1513.76081	30223.2875
1517.13816	29110.2875
1520.51324	26874.0875
1523.88607	24797.2875
1527.25665	23480.2875
1530.62498	22850.3875
1533.99105	22497.9875
1537.35488	22212.9875
1540.71647	21862.0875
1544.07581	21396.5875
1547.4329	20973.4875
1550.78776	20523.3875
1554.14038	20261.0875
1557.49077	20195.4875
1560.83892	20216.5875
1564.18484	20450.3875
1567.52853	20753.2875
1570.86999	21121.5875
1574.20922	21460.2875
1577.54624	21648.5875
1580.88103	21386.8875
1584.2136	21110.2875
1587.54395	21328.8875
1590.87208	22331.9875
1594.19801	23898.7875
1597.52172	25560.7875
1600.84321	26115.7875
1604.16251	24967.2875
1607.47959	22869.8875
1610.79447	20677.7875
1614.10715	18650.3875
1617.41763	17075.7875
1620.7259	16043.9875
1624.03199	15467.7875
1627.33587	15467.5875
1630.63757	15926.6875
1633.93707	16997.4875
1637.23439	18819.6875
1640.52951	21469.2875
1643.82246	24669.3875
1647.11321	27447.5875
1650.40179	28447.0875
1653.68819	26680.1875
1656.97241	22875.0875
1660.25446	18975.6875
1663.53433	16073.8875
1666.81203	14336.7875
1670.08756	13277.6875
1673.36092	12664.0875
1676.63211	12295.3875
1679.90115	12023.0875
1683.16801	11815.0875
1686.43272	11631.9875
1689.69527	11500.1875
1692.95567	11369.2875
1696.2139	11224.8875
1699.46999	11088.9875
1702.72392	11026.6875
1705.97571	11077.6875
1709.22535	11144.4875
1712.47284	11181.4875
1715.71819	11196.3875
1718.96139	11149.6875
1722.20246	11145.8875
1725.44139	11088.4875
1728.67818	11003.6875
1731.91284	10905.8875
1735.14537	10864.5875
1738.37576	10802.3875
1741.60403	10756.6875
1744.83017	10704.7875
1748.05418	10652.4875
1751.27607	10577.5875
1754.49584	10529.3875
1757.71349	10451.8875
1760.92903	10369.9875
1764.14244	10359.3875
1767.35375	10355.7875
1770.56294	10344.0875
1773.77002	10342.9875
1776.97499	10368.0875
1780.17785	10421.6875
1783.37861	10424.1875
1786.57727	10409.9875
1789.77382	10382.4875
1792.96828	10416.1875
1796.16064	10391.1875
1799.3509	10350.4875
1802.53907	10327.4875
1805.72514	10282.6875
1808.90913	10296.6875
1812.09102	10241.0875
1815.27083	10252.0875
1818.44856	10224.5875
1821.6242	10200.4875
1824.79776	10184.0875
1827.96924	10191.4875
1831.13864	10174.1875
1834.30597	10212.7875
1837.47122	10191.0875
1840.6344	10163.7875
1843.7955	10186.7875
1846.95454	10188.2875
1850.11151	10164.9875
1853.26642	10130.6875
1856.41926	10154.7875
1859.57004	10173.8875
1862.71876	10134.9875
1865.86542	10159.2875
1869.01003	10140.1875
1872.15258	10108.1875
1875.29308	10111.8875
1878.43152	10108.4875
1881.56792	10113.1875
1884.70227	10083.3875
1887.83457	10086.8875
1890.96482	10079.7875
1894.09304	10052.4875
1897.21921	10052.0875
1900.34335	10029.9875
1903.46544	10012.5875
1906.58551	10014.5875
1909.70353	9976.0875
1912.81953	9975.3875
1915.93349	9954.8875
1919.04543	9936.3875
1922.15534	9907.6875
1925.26322	9875.9875
1928.36908	9826.8875
1931.47292	9787.3875
1934.57473	9768.9875
1937.67453	9751.9875
1940.77232	9756.0875
1943.86808	9696.5875
1946.96184	9672.8875
1950.05358	9652.2875
1953.14331	9620.0875
1956.23103	9575.5875
1959.31675	9539.4875
1962.40046	9524.8875
1965.48217	9485.6875
1968.56188	9478.7875
1971.63959	9462.5875
1974.7153	9422.0875
1977.78901	9423.3875
1980.86073	9366.2875
1983.93046	9320.1875
1986.99819	9284.5875
1990.06394	9281.0875
1993.1277	9256.7875
1996.18947	9222.0875
1999.24925	9177.8875
2002.30706	9166.4875
2005.36288	9149.3875
2008.41672	9106.8875
2011.46859	9074.2875
2014.51848	9065.2875
2017.56639	9029.4875
2020.61233	9018.0875
2023.6563	8986.6875
2026.6983	8984.2875
2029.73833	8960.3875
2032.7764	8935.0875
2035.8125	8908.9875
2038.84664	8890.0875
2041.87881	8899.1875
2044.90903	8886.2875
2047.93729	8869.8875
2050.96359	8853.4875
2053.98794	8831.8875
2057.01034	8822.2875
2060.03078	8815.5875
2063.04927	8814.0875
2066.06582	8807.3875
2069.08042	8804.4875
2072.09307	8789.7875
2075.10378	8784.8875
2078.11255	8752.1875
2081.11938	8779.3875
2084.12426	8786.3875
2087.12722	8773.5875
2090.12824	8780.0875
2093.12732	8754.7875
2096.12447	8783.9875
2099.11969	8766.4875
2102.11299	8761.2875
2105.10435	8760.7875
2108.09379	8779.7875
2111.08131	8793.8875
2114.0669	8795.8875
2117.05057	8800.9875
2120.03233	8811.4875
2123.01216	8807.4875
2125.99008	8813.1875
2128.96609	8817.7875
2131.94018	8819.4875
2134.91236	8815.7875
2137.88263	8819.2875
2140.851	8818.5875
2143.81746	8828.1875
2146.78201	8835.0875
2149.74466	8816.3875
2152.7054	8810.6875
2155.66425	8797.9875
2158.6212	8835.3875
2161.57625	8820.7875
2164.52941	8819.7875
2167.48067	8808.9875
2170.43004	8813.1875
2173.37752	8781.2875
2176.32311	8786.9875
2179.26681	8791.3875
2182.20863	8791.3875
2185.14856	8797.3875
2188.08661	8788.1875
2191.02278	8793.1875
2193.95707	8792.4875
2196.88948	8782.5875
2199.82001	8773.7875
2202.74867	8783.7875
2205.67545	8769.9875
2208.60037	8750.5875
2211.52341	8728.5875
2214.44458	8729.6875
2217.36388	8710.0875
2220.28132	8721.5875
2223.1969	8699.7875
2226.11061	8684.0875
2229.02246	8662.7875
2231.93245	8640.5875
2234.84058	8650.2875
2237.74686	8603.6875
2240.65128	8612.4875
2243.55385	8591.1875
2246.45456	8576.4875
2249.35343	8550.2875
2252.25044	8551.7875
2255.14561	8560.3875
2258.03893	8544.4875
2260.93041	8499.8875
2263.82004	8477.6875
2266.70783	8505.6875
2269.59378	8456.3875
2272.4779	8447.0875
2275.36017	8419.6875
2278.24061	8393.2875
2281.11922	8393.5875
2283.996	8380.3875
2286.87094	8391.9875
2289.74405	8357.4875
2292.61534	8360.9875
2295.4848	8359.3875
2298.35243	8350.6875
2301.21824	8324.1875
2304.08223	8320.2875
2306.94439	8353.0875
2309.80474	8326.3875
2312.66327	8338.2875
2315.51999	8319.5875
2318.37489	8344.1875
2321.22797	8322.1875
2324.07925	8315.3875
2326.92871	8286.2875
2329.77637	8299.5875
2332.62222	8291.6875
2335.46626	8287.5875
2338.3085	8276.2875
2341.14893	8263.3875
2343.98756	8278.3875
2346.8244	8278.4875
2349.65943	8273.4875
2352.49267	8289.0875
2355.32411	8304.7875
2358.15376	8281.2875
2360.98161	8285.2875
2363.80768	8278.6875
2366.63195	8284.9875
2369.45444	8260.7875
2372.27514	8242.9875
2375.09405	8228.5875
2377.91118	8232.1875
2380.72652	8197.0875
2383.54009	8176.8875
2386.35187	8179.6875
2389.16188	8148.6875
2391.97011	8145.8875
2394.77657	8104.2875
2397.58125	8084.6875
2400.38416	8118.0875
2403.18529	8085.3875
2405.98466	8071.5875
2408.78226	8057.8875
2411.57809	8061.9875
2414.37216	8015.5875
2417.16446	8030.6875
2419.955	8021.5875
2422.74378	8008.3875
2425.5308	7995.5875
2428.31606	7980.5875
2431.09956	8002.4875
2433.88131	7998.2875
2436.6613	7992.2875
2439.43954	7996.4875
2442.21603	8008.3875
2444.99077	7989.6875
2447.76377	8024.5875
2450.53501	7967.4875
2453.30451	7984.9875
2456.07226	7962.2875
2458.83827	7991.2875
2461.60254	7982.8875
2464.36507	7967.3875
2467.12586	7951.0875
2469.88492	7973.9875
2472.64224	7974.6875
2475.39782	7961.3875
2478.15167	7962.3875
2480.90379	7981.9875
2483.65417	7984.3875
2486.40283	7986.3875
2489.14976	8025.7875
2491.89497	8017.3875
2494.63845	8008.6875
2497.3802	7988.3875
2500.12024	8014.6875
2502.85855	7993.3875
2505.59514	7982.3875
2508.33002	7981.8875
2511.06318	7953.3875
2513.79462	7945.2875
2516.52435	7922.8875
2519.25237	7923.2875
2521.97867	7892.8875
2524.70327	7899.7875
2527.42616	7877.6875
2530.14734	7884.0875
2532.86681	7908.4875
2535.58458	7900.8875
2538.30065	7899.1875
2541.01501	7878.4875
2543.72768	7862.8875
2546.43864	7853.0875
2549.14791	7871.6875
2551.85548	7854.5875
2554.56136	7848.9875
2557.26554	7834.7875
2559.96803	7802.2875
2562.66883	7812.5875
2565.36794	7811.5875
2568.06536	7829.0875
2570.7611	7790.0875
2573.45514	7795.4875
2576.14751	7799.8875
2578.83819	7779.5875
2581.52719	7787.9875
2584.21451	7755.0875
2586.90015	7762.6875
2589.58411	7741.9875
2592.2664	7751.5875
2594.94701	7761.3875
2597.62594	7759.1875
2600.30321	7745.8875
2602.9788	7728.3875
2605.65273	7731.8875
2608.32498	7752.7875
2610.99557	7740.4875
2613.66449	7730.2875
2616.33175	7730.8875
2618.99734	7734.1875
2621.66128	7721.4875
2624.32355	7714.4875
2626.98416	7705.2875
2629.64311	7707.9875
2632.30041	7712.7875
2634.95605	7718.2875
2637.61004	7679.0875
2640.26238	7662.4875
2642.91306	7692.9875
2645.56209	7663.8875
2648.20948	7659.3875
2650.85521	7637.7875
2653.4993	7658.4875
2656.14175	7655.3875
2658.78255	7683.0875
2661.42171	7685.5875
2664.05923	7691.2875
2666.6951	7677.6875
2669.32934	7709.6875
2671.96194	7689.8875
2674.59291	7693.8875
2677.22224	7697.1875
2679.84993	7700.1875
2682.476	7686.5875
2685.10043	7702.2875
2687.72324	7702.0875
2690.34441	7691.7875
2692.96396	7678.8875
2695.58188	7673.6875
2698.19818	7670.1875
2700.81285	7678.1875
2703.4259	7620.7875
2706.03733	7555.4875
2708.64714	7584.3875
2711.25533	7663.1875
2713.86191	7656.8875
2716.46687	7702.6875
2719.07021	7700.8875
2721.67194	7725.5875
2724.27206	7697.9875
2726.87057	7696.5875
2729.46747	7719.8875
2732.06276	7718.8875
2734.65644	7716.5875
2737.24852	7724.2875
2739.83899	7702.4875
2742.42786	7716.9875
2745.01513	7693.0875
2747.60079	7696.0875
2750.18486	7692.9875
2752.76733	7691.4875
2755.3482	7658.2875
2757.92747	7659.5875
2760.50515	7662.4875
2763.08123	7662.1875
2765.65573	7638.5875
2768.22863	7639.1875
2770.79994	7649.9875
2773.36967	7655.8875
2775.9378	7634.2875
2778.50435	7631.0875
2781.06932	7643.9875
2783.6327	7660.3875
2786.1945	7634.3875
2788.75471	7641.3875
2791.31335	7610.3875
2793.87041	7597.5875
2796.42589	7588.9875
2798.97979	7584.0875
2801.53212	7549.0875
2804.08288	7565.9875
2806.63206	7547.6875
2809.17967	7536.0875
2811.72571	7526.2875
2814.27018	7508.6875
2816.81308	7513.2875
2819.35442	7500.0875
2821.89419	7500.5875
2824.43239	7488.1875
2826.96904	7471.9875
2829.50412	7479.1875
2832.03763	7462.7875
2834.56959	7479.1875
2837.1	7451.7875
2839.62884	7448.5875
2842.15613	7464.9875
2844.68186	7460.1875
2847.20604	7462.0875
2849.72867	7480.9875
2852.24974	7473.8875
2854.76927	7465.3875
2857.28724	7437.6875
2859.80367	7415.7875
2862.31855	7439.7875
2864.83189	7431.3875
2867.34368	7447.3875
2869.85393	7457.9875
2872.36264	7472.5875
2874.8698	7458.1875
2877.37543	7463.3875
2879.87952	7449.5875
2882.38207	7463.5875
2884.88308	7455.2875
2887.38256	7463.8875
2889.88051	7456.1875
2892.37692	7453.8875
2894.8718	7447.1875
2897.36515	7488.5875
2899.85698	7484.9875
2902.34727	7475.8875
2904.83604	7478.9875
2907.32328	7488.0875
2909.809	7493.9875
2912.29319	7513.2875
2914.77587	7521.5875
2917.25702	7511.4875
2919.73665	7511.3875
2922.21476	7510.5875
2924.69136	7500.9875
2927.16644	7496.8875
2929.64	7475.7875
2932.11205	7465.3875
2934.58258	7422.2875
2937.05161	7450.4875
2939.51912	7449.5875
2941.98513	7412.3875
2944.44962	7387.4875
2946.91261	7393.1875
2949.37409	7399.2875
2951.83407	7378.8875
2954.29254	7361.0875
2956.74951	7369.4875
2959.20498	7357.0875
2961.65895	7369.5875
2964.11142	7348.2875
2966.56239	7348.8875
2969.01186	7315.2875
2971.45984	7314.4875
2973.90632	7297.4875
2976.35131	7297.7875
2978.7948	7256.3875
2981.23681	7256.0875
2983.67732	7245.9875
2986.11635	7233.0875
2988.55388	7213.1875
2990.98993	7180.6875
2993.4245	7158.3875
2995.85758	7155.8875
2998.28917	7129.1875
3000.71928	7130.8875
3003.14791	7112.6875
3005.57506	7104.2875
3008.00073	7080.7875
3010.42493	7065.2875
3012.84764	7062.3875
3015.26888	7068.0875
3017.68865	7040.3875
3020.10694	7044.4875
3022.52376	7016.8875
3024.9391	7009.2875
3027.35298	6994.5875
3029.76539	6979.1875
3032.17632	6986.4875
3034.5858	6986.9875
3036.9938	6947.8875
3039.40034	6969.3875
3041.80542	6957.1875
3044.20903	6923.1875
3046.61118	6963.2875
3049.01187	6952.9875
3051.4111	6934.3875
3053.80888	6906.8875
3056.20519	6914.2875
3058.60005	6911.8875
3060.99345	6897.0875
3063.3854	6850.8875
3065.7759	6869.9875
3068.16494	6840.3875
3070.55254	6829.7875
3072.93868	6804.1875
