Data from AgNPs_FTO_APTES_UA_50uM_CRN_50uM_R6G_10uM_NaF_0.1M_Addition_RamanShift__29__15-06-35-000.txt Node

Date: Mon Feb 21 15:06:35 GMT 2022
User: TCL
Spectrometer: QEP01345
Trigger mode: 4
Integration Time (sec): 7.000000E0
Scans to average: 10
Electric dark correction enabled: true
Nonlinearity correction enabled: false
Boxcar width: 0
XAxis mode: Raman Shifts
Number of Pixels in Spectrum: 1044
>>>>>Begin Spectral Data<<<<<
46.04893	-0.275
50.45542	0.925
54.85868	-0.575
59.25871	-1.275
63.6555	48.625
68.04907	54.725
72.43941	53.025
76.82654	60.525
81.21044	60.125
85.59113	64.825
89.96862	64.925
94.34289	72.125
98.71396	67.325
103.08183	77.825
107.4465	74.725
111.80798	71.925
116.16626	73.225
120.52136	73.725
124.87327	84.625
129.222	78.325
133.56755	77.325
137.90993	86.225
142.24913	87.625
146.58517	95.925
150.91804	104.225
155.24774	126.525
159.57429	143.925
163.89768	178.825
168.21792	234.725
172.53501	303.725
176.84895	422.325
181.15975	576.625
185.46741	805.925
189.77193	1115.425
194.07331	1478.925
198.37157	1913.525
202.6667	2371.925
206.9587	2825.225
211.24758	3272.525
215.53334	3740.725
219.81599	4295.925
224.09553	4918.225
228.37195	5613.325
232.64527	6386.625
236.91549	7162.125
241.18261	7835.525
245.44663	8368.425
249.70755	8815.125
253.96539	9177.425
258.22014	9414.525
262.4718	9589.525
266.72039	9718.025
270.96589	9763.425
275.20832	9679.325
279.44768	9482.525
283.68397	9261.925
287.91719	9148.625
292.14735	9209.125
296.37445	9525.425
300.59849	10090.525
304.81948	10724.025
309.03742	11233.625
313.25231	11239.625
317.46415	10593.325
321.67296	9571.725
325.87872	8724.825
330.08145	8383.125
334.28114	8368.825
338.47781	8583.225
342.67145	8912.625
346.86207	9419.325
351.04966	10182.725
355.23424	11042.625
359.4158	11693.225
363.59435	11954.525
367.76989	12057.725
371.94243	11940.425
376.11196	11802.425
380.27849	11675.025
384.44203	11474.625
388.60257	11210.425
392.76012	11080.425
396.91468	11114.825
401.06626	11438.025
405.21485	11703.125
409.36047	11369.325
413.50311	10581.925
417.64277	9808.025
421.77947	9349.825
425.9132	9126.525
430.04396	9048.125
434.17176	9091.725
438.2966	9257.425
442.41849	9536.725
446.53742	9850.925
450.6534	10146.425
454.76644	10304.025
458.87653	10338.125
462.98368	10190.725
467.08789	9974.425
471.18916	9700.025
475.2875	9409.825
479.38291	9150.025
483.4754	9002.325
487.56496	8915.425
491.6516	8843.425
495.73531	8832.925
499.81612	8868.125
503.89401	9038.625
507.96899	9228.325
512.04106	9443.725
516.11023	9732.225
520.1765	9923.025
524.23987	9904.325
528.30034	9676.025
532.35792	9399.825
536.41261	9133.425
540.46441	8878.225
544.51333	8724.625
548.55936	8764.525
552.60252	8966.625
556.64279	9257.425
560.6802	9368.825
564.71473	9589.225
568.7464	10132.525
572.7752	10377.525
576.80114	9924.925
580.82422	9401.925
584.84444	9185.225
588.86181	9148.325
592.87633	9157.925
596.888	9316.325
600.89682	9803.625
604.9028	11371.625
608.90594	15716.825
612.90624	21544.525
616.90371	20512.825
620.89834	13416.825
624.89015	10156.625
628.87913	9553.225
632.86528	9649.025
636.84862	9855.725
640.82913	9663.125
644.80683	9118.025
648.78172	8729.825
652.75379	8765.125
656.72306	9300.325
660.68952	9892.225
664.65319	9701.225
668.61405	9046.825
672.57211	8727.125
676.52738	8693.125
680.47986	8711.225
684.42955	8623.925
688.37646	8578.425
692.32058	8562.825
696.26192	8668.625
700.20048	8800.925
704.13626	8882.925
708.06928	8815.225
711.99952	8766.525
715.927	8746.625
719.85171	8790.125
723.77365	8831.125
727.69284	8769.225
731.60928	8695.925
735.52295	8698.625
739.43388	8746.925
743.34206	8769.725
747.24749	8826.425
751.15017	8891.525
755.05012	9119.925
758.94733	9705.425
762.8418	11055.825
766.73354	13394.825
770.62254	15803.725
774.50882	17179.525
778.39237	16594.025
782.27321	13959.425
786.15132	11317.825
790.02671	9863.325
793.89938	9220.825
797.76935	8973.325
801.6366	8844.425
805.50115	8825.825
809.36299	8793.425
813.22213	8763.325
817.07857	8734.925
820.93231	8716.225
824.78336	8744.425
828.63172	8779.425
832.47738	8820.425
836.32036	8780.125
840.16066	8721.625
843.99827	8677.225
847.8332	8652.125
851.66546	8654.525
855.49504	8646.625
859.32195	8660.825
863.1462	8626.325
866.96777	8563.225
870.78668	8570.425
874.60293	8598.125
878.41652	8677.725
882.22745	8779.525
886.03573	8834.525
889.84136	8808.125
893.64433	8746.525
897.44466	8713.225
901.24235	8723.125
905.0374	8682.325
908.8298	8607.025
912.61957	8577.325
916.40671	8575.725
920.19121	8648.825
923.97308	8744.225
927.75233	8917.625
931.52895	9085.025
935.30295	9015.825
939.07433	8684.625
942.84309	8386.825
946.60924	8256.825
950.37278	8175.725
954.13371	8130.825
957.89203	8094.525
961.64774	8073.625
965.40086	8058.125
969.15137	8032.825
972.89929	8011.625
976.64461	7995.225
980.38733	8007.525
984.12747	8041.525
987.86502	8062.125
991.59999	8151.625
995.33237	8286.225
999.06217	8483.825
1002.78939	8723.525
1006.51404	8955.725
1010.23611	9161.825
1013.95561	9310.225
1017.67255	9336.325
1021.38692	9193.825
1025.09872	9058.225
1028.80796	9025.425
1032.51465	9152.425
1036.21877	9291.725
1039.92035	9405.625
1043.61937	9392.725
1047.31584	9277.025
1051.00976	9148.125
1054.70114	9053.225
1058.38998	9034.125
1062.07627	9060.025
1065.76003	9103.625
1069.44126	9156.925
1073.11995	9266.425
1076.79611	9399.225
1080.46974	9636.425
1084.14085	9994.025
1087.80943	10341.025
1091.47549	10432.125
1095.13903	10168.625
1098.80005	9723.625
1102.45857	9373.725
1106.11456	9307.025
1109.76805	9471.325
1113.41903	9810.325
1117.06751	10342.425
1120.71348	10997.325
1124.35696	11713.325
1127.99793	12217.025
1131.63641	11933.025
1135.2724	11108.825
1138.90589	10454.125
1142.5369	10014.925
1146.16542	9680.225
1149.79145	9544.425
1153.415	9503.225
1157.03607	9591.825
1160.65467	9811.525
1164.27079	10178.425
1167.88443	10773.225
1171.49561	11787.925
1175.10432	13479.325
1178.71056	15798.325
1182.31434	17456.525
1185.91565	17764.725
1189.51451	17017.625
1193.11091	15612.825
1196.70485	14176.825
1200.29634	13234.425
1203.88538	12515.825
1207.47197	11649.625
1211.05612	10879.225
1214.63782	10411.925
1218.21708	10255.825
1221.79391	10226.025
1225.36829	10301.925
1228.94024	10375.925
1232.50976	10352.725
1236.07685	10385.225
1239.6415	10403.525
1243.20374	10494.125
1246.76355	10598.925
1250.32093	10758.425
1253.8759	11024.525
1257.42845	11371.025
1260.97859	11760.725
1264.52631	12150.325
1268.07163	12525.125
1271.61453	12926.425
1275.15503	13191.325
1278.69312	13348.325
1282.22882	13470.825
1285.76211	13847.825
1289.29301	14323.825
1292.82151	14776.425
1296.34761	15301.625
1299.87133	16314.325
1303.39266	18076.425
1306.9116	20789.625
1310.42815	23537.025
1313.94233	24545.525
1317.45412	23096.625
1320.96354	20633.425
1324.47058	18267.325
1327.97525	16478.025
1331.47754	15571.525
1334.97747	15387.825
1338.47502	15709.325
1341.97022	16523.425
1345.46305	17725.925
1348.95352	19253.025
1352.44163	21165.525
1355.92738	24086.825
1359.41078	28354.325
1362.89183	31634.225
1366.37053	29516.625
1369.84688	24092.625
1373.32088	19440.725
1376.79254	16490.125
1380.26186	14840.225
1383.72883	13879.725
1387.19347	13182.225
1390.65578	12512.325
1394.11575	12036.225
1397.57339	11769.925
1401.0287	11810.625
1404.48168	11899.725
1407.93234	12080.525
1411.38068	12335.525
1414.82669	12504.125
1418.27039	12520.225
1421.71177	12315.225
1425.15083	12145.025
1428.58758	12073.725
1432.02203	12196.025
1435.45416	12309.525
1438.88399	12263.325
1442.31151	12213.325
1445.73673	12233.125
1449.15965	12282.825
1452.58027	12205.825
1455.9986	12099.325
1459.41463	12048.625
1462.82837	12183.725
1466.23982	12448.925
1469.64898	12776.025
1473.05586	12981.225
1476.46045	13099.825
1479.86276	13429.525
1483.26279	13824.925
1486.66054	14345.025
1490.05602	15090.025
1493.44922	16189.525
1496.84016	17874.725
1500.22882	20466.125
1503.61521	23889.025
1506.99934	27613.525
1510.38121	30421.725
1513.76081	30746.025
1517.13816	27863.425
1520.51324	23326.425
1523.88607	19418.425
1527.25665	16912.525
1530.62498	15527.425
1533.99105	14731.225
1537.35488	14239.325
1540.71647	14060.725
1544.07581	14066.325
1547.4329	14122.725
1550.78776	14192.625
1554.14038	14243.325
1557.49077	14392.725
1560.83892	14709.225
1564.18484	15260.825
1567.52853	15867.725
1570.86999	16368.925
1574.20922	16653.425
1577.54624	16366.525
1580.88103	15257.625
1584.2136	13921.425
1587.54395	13205.625
1590.87208	13256.325
1594.19801	14062.825
1597.52172	15210.725
1600.84321	15717.625
1604.16251	15207.225
1607.47959	14229.425
1610.79447	13145.325
1614.10715	12126.525
1617.41763	11318.825
1620.7259	10825.225
1624.03199	10606.725
1627.33587	10672.325
1630.63757	10996.125
1633.93707	11579.025
1637.23439	12496.225
1640.52951	13937.625
1643.82246	15792.925
1647.11321	18195.425
1650.40179	19800.625
1653.68819	18985.525
1656.97241	16092.925
1660.25446	13198.025
1663.53433	11241.525
1666.81203	10134.025
1670.08756	9522.725
1673.36092	9178.125
1676.63211	8940.225
1679.90115	8772.625
1683.16801	8640.925
1686.43272	8551.825
1689.69527	8464.425
1692.95567	8345.625
1696.2139	8224.925
1699.46999	8129.525
1702.72392	8093.425
1705.97571	8151.325
1709.22535	8234.025
1712.47284	8315.625
1715.71819	8342.825
1718.96139	8375.925
1722.20246	8363.725
1725.44139	8305.525
1728.67818	8246.325
1731.91284	8185.725
1735.14537	8133.125
1738.37576	8095.725
1741.60403	8041.825
1744.83017	8003.225
1748.05418	7980.325
1751.27607	7928.725
1754.49584	7894.025
1757.71349	7819.625
1760.92903	7754.925
1764.14244	7745.325
1767.35375	7754.725
1770.56294	7709.725
1773.77002	7696.725
1776.97499	7725.525
1780.17785	7771.425
1783.37861	7738.525
1786.57727	7786.425
1789.77382	7769.825
1792.96828	7762.925
1796.16064	7750.625
1799.3509	7748.125
1802.53907	7737.325
1805.72514	7725.425
1808.90913	7697.825
1812.09102	7680.425
1815.27083	7664.325
1818.44856	7658.725
1821.6242	7647.225
1824.79776	7641.325
1827.96924	7632.925
1831.13864	7622.325
1834.30597	7615.625
1837.47122	7589.625
1840.6344	7594.025
1843.7955	7585.525
1846.95454	7583.325
1850.11151	7577.025
1853.26642	7571.725
1856.41926	7578.525
1859.57004	7576.325
1862.71876	7577.625
1865.86542	7576.725
1869.01003	7599.625
1872.15258	7576.625
1875.29308	7588.725
1878.43152	7594.725
1881.56792	7584.625
1884.70227	7584.125
1887.83457	7573.525
1890.96482	7569.025
1894.09304	7572.125
1897.21921	7568.725
1900.34335	7569.525
1903.46544	7574.525
1906.58551	7567.925
1909.70353	7581.925
1912.81953	7574.025
1915.93349	7573.525
1919.04543	7577.225
1922.15534	7562.125
1925.26322	7538.825
1928.36908	7515.125
1931.47292	7492.025
1934.57473	7457.125
1937.67453	7445.225
1940.77232	7417.825
1943.86808	7399.125
1946.96184	7372.325
1950.05358	7354.525
1953.14331	7341.125
1956.23103	7305.125
1959.31675	7302.325
1962.40046	7251.725
1965.48217	7264.725
1968.56188	7239.225
1971.63959	7222.925
1974.7153	7214.625
1977.78901	7194.425
1980.86073	7171.625
1983.93046	7144.925
1986.99819	7104.125
1990.06394	7110.025
1993.1277	7055.925
1996.18947	7040.625
1999.24925	6999.525
2002.30706	6968.925
2005.36288	6970.725
2008.41672	6949.025
2011.46859	6908.725
2014.51848	6926.625
2017.56639	6895.425
2020.61233	6868.825
2023.6563	6852.825
2026.6983	6840.325
2029.73833	6827.425
2032.7764	6789.425
2035.8125	6810.525
2038.84664	6808.525
2041.87881	6772.725
2044.90903	6765.625
2047.93729	6767.525
2050.96359	6745.825
2053.98794	6735.825
2057.01034	6735.425
2060.03078	6728.725
2063.04927	6727.225
2066.06582	6708.825
2069.08042	6722.025
2072.09307	6685.025
2075.10378	6689.825
2078.11255	6675.225
2081.11938	6693.225
2084.12426	6679.725
2087.12722	6685.625
2090.12824	6651.725
2093.12732	6684.925
2096.12447	6679.625
2099.11969	6673.425
2102.11299	6683.625
2105.10435	6696.325
2108.09379	6678.225
2111.08131	6678.525
2114.0669	6672.325
2117.05057	6670.025
2120.03233	6732.825
2123.01216	6714.625
2125.99008	6712.225
2128.96609	6727.625
2131.94018	6743.025
2134.91236	6734.825
2137.88263	6729.525
2140.851	6728.325
2143.81746	6741.825
2146.78201	6731.025
2149.74466	6736.025
2152.7054	6736.725
2155.66425	6736.325
2158.6212	6720.725
2161.57625	6705.425
2164.52941	6715.225
2167.48067	6691.425
2170.43004	6707.225
2173.37752	6702.225
2176.32311	6714.225
2179.26681	6718.625
2182.20863	6701.925
2185.14856	6721.625
2188.08661	6726.025
2191.02278	6732.625
2193.95707	6704.625
2196.88948	6706.625
2199.82001	6683.525
2202.74867	6696.325
2205.67545	6687.325
2208.60037	6678.825
2211.52341	6662.225
2214.44458	6661.225
2217.36388	6654.225
2220.28132	6637.625
2223.1969	6643.225
2226.11061	6640.725
2229.02246	6610.325
2231.93245	6593.425
2234.84058	6571.825
2237.74686	6555.525
2240.65128	6564.325
2243.55385	6555.525
2246.45456	6548.225
2249.35343	6555.525
2252.25044	6547.225
2255.14561	6543.425
2258.03893	6550.625
2260.93041	6527.325
2263.82004	6544.425
2266.70783	6537.325
2269.59378	6489.325
2272.4779	6482.425
2275.36017	6478.225
2278.24061	6447.525
2281.11922	6437.325
2283.996	6419.225
2286.87094	6421.625
2289.74405	6400.225
2292.61534	6392.525
2295.4848	6376.325
2298.35243	6369.425
2301.21824	6389.125
2304.08223	6378.425
2306.94439	6370.225
2309.80474	6381.425
2312.66327	6370.625
2315.51999	6371.725
2318.37489	6371.625
2321.22797	6352.525
2324.07925	6344.425
2326.92871	6357.025
2329.77637	6344.725
2332.62222	6343.025
2335.46626	6328.725
2338.3085	6320.025
2341.14893	6328.825
2343.98756	6334.925
2346.8244	6340.325
2349.65943	6359.425
2352.49267	6342.525
2355.32411	6352.325
2358.15376	6370.225
2360.98161	6370.325
2363.80768	6375.525
2366.63195	6392.525
2369.45444	6386.725
2372.27514	6403.425
2375.09405	6371.425
2377.91118	6343.325
2380.72652	6319.525
2383.54009	6292.725
2386.35187	6275.725
2389.16188	6251.725
2391.97011	6225.225
2394.77657	6219.725
2397.58125	6190.825
2400.38416	6187.225
2403.18529	6159.825
2405.98466	6157.225
2408.78226	6137.525
2411.57809	6101.525
2414.37216	6095.225
2417.16446	6111.925
2419.955	6092.425
2422.74378	6097.225
2425.5308	6095.325
2428.31606	6088.525
2431.09956	6093.525
2433.88131	6082.325
2436.6613	6087.325
2439.43954	6092.225
2442.21603	6089.625
2444.99077	6084.325
2447.76377	6110.125
2450.53501	6106.825
2453.30451	6108.125
2456.07226	6081.125
2458.83827	6077.425
2461.60254	6072.325
2464.36507	6091.525
2467.12586	6084.225
2469.88492	6074.725
2472.64224	6080.425
2475.39782	6081.625
2478.15167	6080.325
2480.90379	6112.425
2483.65417	6117.325
2486.40283	6141.425
2489.14976	6141.925
2491.89497	6147.925
2494.63845	6165.625
2497.3802	6146.525
2500.12024	6130.725
2502.85855	6126.525
2505.59514	6097.725
2508.33002	6100.625
2511.06318	6063.125
2513.79462	6035.625
2516.52435	5996.825
2519.25237	5987.325
2521.97867	5973.125
2524.70327	5959.925
2527.42616	5946.825
2530.14734	5951.125
2532.86681	5948.425
2535.58458	5960.925
2538.30065	5955.825
2541.01501	5937.825
2543.72768	5935.925
2546.43864	5930.325
2549.14791	5920.425
2551.85548	5926.225
2554.56136	5911.725
2557.26554	5902.525
2559.96803	5894.925
2562.66883	5908.325
2565.36794	5884.125
2568.06536	5888.125
2570.7611	5887.825
2573.45514	5863.025
2576.14751	5859.825
2578.83819	5858.325
2581.52719	5848.625
2584.21451	5832.325
2586.90015	5831.925
2589.58411	5813.625
2592.2664	5812.525
2594.94701	5815.125
2597.62594	5813.825
2600.30321	5811.925
2602.9788	5809.025
2605.65273	5814.425
2608.32498	5807.325
2610.99557	5798.125
2613.66449	5816.225
2616.33175	5806.525
2618.99734	5819.825
2621.66128	5799.625
2624.32355	5804.725
2626.98416	5780.525
2629.64311	5783.725
2632.30041	5771.225
2634.95605	5770.625
2637.61004	5746.425
2640.26238	5731.325
2642.91306	5721.825
2645.56209	5712.225
2648.20948	5704.025
2650.85521	5688.425
2653.4993	5709.725
2656.14175	5700.125
2658.78255	5705.625
2661.42171	5705.725
2664.05923	5736.825
2666.6951	5751.925
2669.32934	5758.925
2671.96194	5771.025
2674.59291	5762.925
2677.22224	5762.825
2679.84993	5762.425
2682.476	5755.525
2685.10043	5752.325
2687.72324	5757.725
2690.34441	5736.825
2692.96396	5752.125
2695.58188	5757.425
2698.19818	5733.625
2700.81285	5726.425
2703.4259	5706.125
2706.03733	5660.025
2708.64714	5695.725
2711.25533	5711.825
2713.86191	5713.725
2716.46687	5747.525
2719.07021	5724.425
2721.67194	5766.125
2724.27206	5767.225
2726.87057	5756.925
2729.46747	5748.425
2732.06276	5763.725
2734.65644	5746.625
2737.24852	5744.825
2739.83899	5725.425
2742.42786	5742.825
2745.01513	5717.025
2747.60079	5713.025
2750.18486	5703.725
2752.76733	5692.325
2755.3482	5695.925
2757.92747	5690.525
2760.50515	5681.525
2763.08123	5670.625
2765.65573	5675.025
2768.22863	5664.025
2770.79994	5661.325
2773.36967	5647.825
2775.9378	5625.925
2778.50435	5642.125
2781.06932	5651.525
2783.6327	5658.525
2786.1945	5662.625
2788.75471	5656.925
2791.31335	5636.425
2793.87041	5627.925
2796.42589	5608.425
2798.97979	5615.025
2801.53212	5622.525
2804.08288	5612.325
2806.63206	5609.725
2809.17967	5595.525
2811.72571	5608.625
2814.27018	5598.225
2816.81308	5613.825
2819.35442	5626.325
2821.89419	5617.525
2824.43239	5637.725
2826.96904	5632.525
2829.50412	5653.725
2832.03763	5611.625
2834.56959	5631.325
2837.1	5626.725
2839.62884	5653.125
2842.15613	5647.425
2844.68186	5681.725
2847.20604	5692.725
2849.72867	5740.025
2852.24974	5739.225
2854.76927	5716.525
2857.28724	5713.725
2859.80367	5703.225
2862.31855	5708.125
2864.83189	5715.025
2867.34368	5694.625
2869.85393	5716.425
2872.36264	5705.325
2874.8698	5703.325
2877.37543	5693.925
2879.87952	5681.625
2882.38207	5694.625
2884.88308	5673.425
2887.38256	5676.625
2889.88051	5665.825
2892.37692	5676.425
2894.8718	5672.325
2897.36515	5681.625
2899.85698	5677.225
2902.34727	5679.425
2904.83604	5694.825
2907.32328	5687.325
2909.809	5693.625
2912.29319	5698.325
2914.77587	5701.825
2917.25702	5681.725
2919.73665	5665.425
2922.21476	5665.825
2924.69136	5663.625
2927.16644	5658.225
2929.64	5666.025
2932.11205	5643.225
2934.58258	5611.025
2937.05161	5602.125
2939.51912	5614.825
2941.98513	5603.925
2944.44962	5571.925
2946.91261	5544.025
2949.37409	5530.025
2951.83407	5522.525
2954.29254	5521.325
2956.74951	5500.025
2959.20498	5488.425
2961.65895	5489.625
2964.11142	5476.025
2966.56239	5468.825
2969.01186	5448.825
2971.45984	5427.825
2973.90632	5436.125
2976.35131	5408.625
2978.7948	5392.125
2981.23681	5380.525
2983.67732	5365.625
2986.11635	5367.325
2988.55388	5348.425
2990.98993	5341.825
2993.4245	5332.125
2995.85758	5325.325
2998.28917	5311.025
3000.71928	5303.925
3003.14791	5307.225
3005.57506	5285.425
3008.00073	5273.325
3010.42493	5271.225
3012.84764	5256.225
3015.26888	5263.725
3017.68865	5243.525
3020.10694	5234.325
3022.52376	5233.125
3024.9391	5221.925
3027.35298	5206.925
3029.76539	5207.225
3032.17632	5200.025
3034.5858	5194.225
3036.9938	5178.125
3039.40034	5186.025
3041.80542	5160.125
3044.20903	5152.025
3046.61118	5151.325
3049.01187	5139.825
3051.4111	5142.125
3053.80888	5127.125
3056.20519	5110.525
3058.60005	5117.225
3060.99345	5102.425
3063.3854	5086.525
3065.7759	5072.125
3068.16494	5065.125
3070.55254	5037.225
3072.93868	5031.725
3075.32338	4991.225
3077.70662	4991.225
3080.08842	4985.025
3082.46878	4971.525
3084.84769	4958.825
3087.22515	4962.625
3089.60118	4959.425
3091.97576	4945.525
3094.3489	4950.225
3096.72061	4950.625
3099.09087	4946.525
3101.4597	4958.425
3103.82709	4958.725
3106.19305	4955.925
3108.55757	4952.725
3110.92066	4927.425
3113.28232	4932.425
3115.64255	4905.725
3118.00134	4908.025
3120.35871	4915.925
3122.71466	4907.525
3125.06917	4905.625
3127.42226	4913.425
3129.77393	4912.525
3132.12417	4900.025
3134.47299	4913.425
3136.82039	4903.325
3139.16636	4905.925
3141.51092	4896.425
3143.85406	4916.025
3146.19579	4922.525
3148.53609	4915.825
3150.87499	4917.125
3153.21246	4911.325
3155.54853	4951.825
3157.88318	4929.025
3160.21642	4943.925
3162.54826	4950.825
3164.87868	4938.825
3167.2077	4939.025
3169.5353	4957.725
3171.86151	4950.825
3174.18631	4943.425
3176.5097	4931.725
3178.83169	4921.325
3181.15228	4939.725
3183.47147	4923.425
3185.78926	4944.025
3188.10565	4931.925
3190.42065	4939.725
3192.73424	4936.425
3195.04645	4952.625
3197.35725	4958.425
3199.66667	4956.625
3201.97469	4947.125
3204.28132	4927.525
3206.58656	4966.025
3208.8904	4963.525
3211.19287	4973.625
3213.49394	4980.625
