Data from AgNPs_FTO_APTES_UA_50uM_CRN_200uM_R6G_10uM_NaF_0.1M_Addition_RamanShift__20__16-17-45-088.txt Node

Date: Mon Feb 21 16:17:45 GMT 2022
User: TCL
Spectrometer: QEP01345
Trigger mode: 4
Integration Time (sec): 7.000000E0
Scans to average: 10
Electric dark correction enabled: true
Nonlinearity correction enabled: false
Boxcar width: 0
XAxis mode: Raman Shifts
Number of Pixels in Spectrum: 1044
>>>>>Begin Spectral Data<<<<<
46.04893	-0.4875
50.45542	-0.8875
54.85868	0.2125
59.25871	-1.1875
63.6555	53.0125
68.04907	57.4125
72.43941	59.4125
76.82654	64.6125
81.21044	64.2125
85.59113	69.2125
89.96862	68.6125
94.34289	75.4125
98.71396	74.5125
103.08183	80.0125
107.4465	83.5125
111.80798	79.6125
116.16626	78.2125
120.52136	82.4125
124.87327	90.4125
129.222	88.5125
133.56755	93.8125
137.90993	103.8125
142.24913	106.2125
146.58517	119.5125
150.91804	136.4125
155.24774	158.6125
159.57429	192.7125
163.89768	245.6125
168.21792	324.5125
172.53501	440.0125
176.84895	613.5125
181.15975	862.8125
185.46741	1204.3125
189.77193	1662.7125
194.07331	2234.5125
198.37157	2877.3125
202.6667	3555.9125
206.9587	4244.6125
211.24758	4909.7125
215.53334	5579.5125
219.81599	6274.8125
224.09553	7070.5125
228.37195	7948.6125
232.64527	8916.7125
236.91549	9951.5125
241.18261	10932.3125
245.44663	11876.8125
249.70755	12678.9125
253.96539	13345.9125
258.22014	13893.2125
262.4718	14372.4125
266.72039	14703.7125
270.96589	14868.3125
275.20832	14849.1125
279.44768	14738.7125
283.68397	14510.2125
287.91719	14309.1125
292.14735	14228.7125
296.37445	14217.7125
300.59849	14346.2125
304.81948	14505.4125
309.03742	14579.2125
313.25231	14469.6125
317.46415	14136.3125
321.67296	13737.1125
325.87872	13356.5125
330.08145	13238.4125
334.28114	13241.8125
338.47781	13388.6125
342.67145	13610.0125
346.86207	13909.8125
351.04966	14255.3125
355.23424	14660.6125
359.4158	15013.3125
363.59435	15263.3125
367.76989	15441.2125
371.94243	15535.6125
376.11196	15592.1125
380.27849	15672.9125
384.44203	15712.0125
388.60257	15723.0125
392.76012	15784.6125
396.91468	15873.8125
401.06626	16075.9125
405.21485	16256.4125
409.36047	16162.8125
413.50311	15816.8125
417.64277	15511.5125
421.77947	15352.9125
425.9132	15333.6125
430.04396	15331.3125
434.17176	15422.6125
438.2966	15656.5125
442.41849	15902.8125
446.53742	16271.5125
450.6534	16669.8125
454.76644	16962.8125
458.87653	17056.7125
462.98368	16969.1125
467.08789	16805.7125
471.18916	16596.5125
475.2875	16351.4125
479.38291	16201.6125
483.4754	16021.0125
487.56496	15869.8125
491.6516	15755.2125
495.73531	15669.7125
499.81612	15667.5125
503.89401	15783.0125
507.96899	15869.3125
512.04106	15963.4125
516.11023	15992.9125
520.1765	16051.7125
524.23987	15994.4125
528.30034	15961.3125
532.35792	15888.0125
536.41261	15745.0125
540.46441	15639.8125
544.51333	15549.5125
548.55936	15559.4125
552.60252	15732.6125
556.64279	15952.3125
560.6802	16039.6125
564.71473	16105.5125
568.7464	16281.9125
572.7752	16474.8125
576.80114	16489.3125
580.82422	16438.1125
584.84444	16539.5125
588.86181	16793.6125
592.87633	17127.3125
596.888	17338.0125
600.89682	17408.0125
604.9028	18058.8125
608.90594	20138.6125
612.90624	22577.7125
616.90371	21535.2125
620.89834	17904.4125
624.89015	16286.8125
628.87913	16064.7125
632.86528	16129.3125
636.84862	16199.1125
640.82913	16061.3125
644.80683	15704.4125
648.78172	15423.8125
652.75379	15417.1125
656.72306	15639.3125
660.68952	15941.0125
664.65319	15902.0125
668.61405	15635.3125
672.57211	15661.1125
676.52738	15765.6125
680.47986	15789.7125
684.42955	15702.3125
688.37646	15511.2125
692.32058	15488.8125
696.26192	15535.8125
700.20048	15595.5125
704.13626	15607.6125
708.06928	15564.8125
711.99952	15474.0125
715.927	15416.3125
719.85171	15469.1125
723.77365	15514.2125
727.69284	15427.2125
731.60928	15450.9125
735.52295	15415.1125
739.43388	15444.7125
743.34206	15480.6125
747.24749	15535.6125
751.15017	15535.0125
755.05012	15635.7125
758.94733	15975.4125
762.8418	16680.8125
766.73354	17992.0125
770.62254	19422.4125
774.50882	20137.8125
778.39237	19509.4125
782.27321	18034.5125
786.15132	16615.9125
790.02671	15805.4125
793.89938	15380.9125
797.76935	15246.5125
801.6366	15181.3125
805.50115	15151.6125
809.36299	15071.6125
813.22213	14997.6125
817.07857	14949.7125
820.93231	14926.1125
824.78336	14870.3125
828.63172	14891.7125
832.47738	14893.9125
836.32036	14881.4125
840.16066	14920.3125
843.99827	14935.9125
847.8332	14906.0125
851.66546	14898.2125
855.49504	14880.2125
859.32195	14951.2125
863.1462	14937.8125
866.96777	14958.2125
870.78668	14931.5125
874.60293	14951.2125
878.41652	14948.2125
882.22745	14996.8125
886.03573	15023.0125
889.84136	15002.6125
893.64433	14942.2125
897.44466	14857.7125
901.24235	14757.4125
905.0374	14692.2125
908.8298	14630.8125
912.61957	14598.3125
916.40671	14645.9125
920.19121	14752.2125
923.97308	14853.4125
927.75233	14919.1125
931.52895	14950.6125
935.30295	14894.4125
939.07433	14681.3125
942.84309	14486.1125
946.60924	14363.8125
950.37278	14296.4125
954.13371	14254.0125
957.89203	14180.4125
961.64774	14132.6125
965.40086	14083.4125
969.15137	14030.9125
972.89929	14001.8125
976.64461	13969.0125
980.38733	13972.8125
984.12747	13998.3125
987.86502	14101.5125
991.59999	14232.4125
995.33237	14433.6125
999.06217	14706.3125
1002.78939	14987.6125
1006.51404	15204.5125
1010.23611	15276.0125
1013.95561	15431.3125
1017.67255	15461.2125
1021.38692	15362.1125
1025.09872	15222.9125
1028.80796	15222.0125
1032.51465	15422.2125
1036.21877	15653.5125
1039.92035	15718.3125
1043.61937	15639.8125
1047.31584	15431.5125
1051.00976	15186.3125
1054.70114	15042.8125
1058.38998	15038.8125
1062.07627	15036.6125
1065.76003	15088.1125
1069.44126	15063.9125
1073.11995	15122.0125
1076.79611	15214.5125
1080.46974	15301.4125
1084.14085	15478.8125
1087.80943	15588.4125
1091.47549	15723.1125
1095.13903	15657.5125
1098.80005	15465.8125
1102.45857	15267.4125
1106.11456	15166.3125
1109.76805	15222.7125
1113.41903	15380.4125
1117.06751	15571.8125
1120.71348	15822.0125
1124.35696	16150.1125
1127.99793	16393.0125
1131.63641	16466.8125
1135.2724	16274.7125
1138.90589	15939.7125
1142.5369	15744.2125
1146.16542	15584.9125
1149.79145	15427.0125
1153.415	15398.3125
1157.03607	15478.5125
1160.65467	15703.9125
1164.27079	16119.6125
1167.88443	16738.6125
1171.49561	17597.5125
1175.10432	18717.7125
1178.71056	20192.9125
1182.31434	21554.1125
1185.91565	22190.6125
1189.51451	22009.2125
1193.11091	21195.9125
1196.70485	20192.0125
1200.29634	19350.1125
1203.88538	18677.9125
1207.47197	18046.2125
1211.05612	17493.7125
1214.63782	17102.4125
1218.21708	17013.2125
1221.79391	17051.9125
1225.36829	17073.3125
1228.94024	17025.3125
1232.50976	16761.2125
1236.07685	16596.5125
1239.6415	16494.9125
1243.20374	16537.1125
1246.76355	16603.3125
1250.32093	16748.6125
1253.8759	17002.2125
1257.42845	17373.0125
1260.97859	17671.7125
1264.52631	18040.0125
1268.07163	18433.5125
1271.61453	18825.2125
1275.15503	19248.9125
1278.69312	19669.4125
1282.22882	19964.4125
1285.76211	20274.2125
1289.29301	20629.2125
1292.82151	21116.1125
1296.34761	21746.4125
1299.87133	22691.0125
1303.39266	23940.3125
1306.9116	25603.5125
1310.42815	27332.0125
1313.94233	28380.6125
1317.45412	28027.5125
1320.96354	26882.0125
1324.47058	25656.0125
1327.97525	24481.5125
1331.47754	23742.7125
1334.97747	23432.7125
1338.47502	23515.9125
1341.97022	23788.8125
1345.46305	24206.3125
1348.95352	24749.8125
1352.44163	25580.4125
1355.92738	26958.1125
1359.41078	28853.7125
1362.89183	30533.0125
1366.37053	29894.9125
1369.84688	26676.9125
1373.32088	23326.0125
1376.79254	21102.1125
1380.26186	20061.3125
1383.72883	19545.2125
1387.19347	19224.3125
1390.65578	18862.8125
1394.11575	18645.3125
1397.57339	18655.8125
1401.0287	18847.4125
1404.48168	19074.3125
1407.93234	19225.4125
1411.38068	19243.0125
1414.82669	19132.0125
1418.27039	18852.2125
1421.71177	18460.4125
1425.15083	18030.9125
1428.58758	17787.7125
1432.02203	17797.7125
1435.45416	18016.6125
1438.88399	18265.8125
1442.31151	18432.3125
1445.73673	18577.5125
1449.15965	18718.0125
1452.58027	18789.0125
1455.9986	18746.9125
1459.41463	18843.1125
1462.82837	19017.3125
1466.23982	19355.9125
1469.64898	19691.3125
1473.05586	19930.5125
1476.46045	20067.9125
1479.86276	20137.3125
1483.26279	20126.2125
1486.66054	20207.1125
1490.05602	20360.5125
1493.44922	20671.3125
1496.84016	21106.0125
1500.22882	21873.6125
1503.61521	23096.2125
1506.99934	24630.4125
1510.38121	25894.5125
1513.76081	26252.7125
1517.13816	25203.8125
1520.51324	23439.2125
1523.88607	21774.5125
1527.25665	20629.7125
1530.62498	20084.0125
1533.99105	19745.1125
1537.35488	19510.3125
1540.71647	19355.6125
1544.07581	19221.4125
1547.4329	19045.1125
1550.78776	18964.1125
1554.14038	18901.9125
1557.49077	18894.1125
1560.83892	19018.5125
1564.18484	19164.7125
1567.52853	19317.4125
1570.86999	19454.2125
1574.20922	19640.8125
1577.54624	19633.4125
1580.88103	19276.2125
1584.2136	18791.0125
1587.54395	18674.7125
1590.87208	19125.8125
1594.19801	20010.2125
1597.52172	21176.8125
1600.84321	21800.2125
1604.16251	21396.7125
1607.47959	20285.4125
1610.79447	19057.4125
1614.10715	17807.6125
1617.41763	16778.4125
1620.7259	16092.6125
1624.03199	15719.1125
1627.33587	15654.1125
1630.63757	15922.1125
1633.93707	16536.5125
1637.23439	17517.8125
1640.52951	18940.2125
1643.82246	20661.9125
1647.11321	22293.0125
1650.40179	23002.0125
1653.68819	21967.4125
1656.97241	19716.4125
1660.25446	17374.0125
1663.53433	15715.3125
1666.81203	14679.9125
1670.08756	14100.3125
1673.36092	13727.8125
1676.63211	13507.1125
1679.90115	13337.5125
1683.16801	13178.1125
1686.43272	13040.8125
1689.69527	12945.2125
1692.95567	12785.9125
1696.2139	12668.1125
1699.46999	12539.2125
1702.72392	12480.1125
1705.97571	12538.6125
1709.22535	12599.3125
1712.47284	12644.2125
1715.71819	12672.0125
1718.96139	12679.9125
1722.20246	12627.2125
1725.44139	12566.1125
1728.67818	12549.6125
1731.91284	12512.7125
1735.14537	12430.9125
1738.37576	12362.5125
1741.60403	12345.5125
1744.83017	12314.8125
1748.05418	12306.1125
1751.27607	12268.6125
1754.49584	12234.9125
1757.71349	12162.3125
1760.92903	12122.0125
1764.14244	12063.2125
1767.35375	12041.7125
1770.56294	11994.8125
1773.77002	11975.7125
1776.97499	11998.4125
1780.17785	11997.2125
1783.37861	12048.5125
1786.57727	12023.2125
1789.77382	12018.6125
1792.96828	12005.9125
1796.16064	11974.0125
1799.3509	11972.0125
1802.53907	11952.4125
1805.72514	11908.6125
1808.90913	11874.2125
1812.09102	11851.3125
1815.27083	11842.4125
1818.44856	11817.6125
1821.6242	11785.3125
1824.79776	11763.2125
1827.96924	11745.3125
1831.13864	11775.7125
1834.30597	11758.0125
1837.47122	11750.0125
1840.6344	11736.4125
1843.7955	11740.7125
1846.95454	11748.3125
1850.11151	11718.4125
1853.26642	11714.1125
1856.41926	11707.5125
1859.57004	11729.3125
1862.71876	11701.1125
1865.86542	11708.6125
1869.01003	11704.4125
1872.15258	11679.5125
1875.29308	11679.1125
1878.43152	11625.6125
1881.56792	11666.7125
1884.70227	11637.6125
1887.83457	11629.8125
1890.96482	11620.2125
1894.09304	11593.6125
1897.21921	11626.8125
1900.34335	11606.1125
1903.46544	11592.4125
1906.58551	11583.6125
1909.70353	11552.2125
1912.81953	11530.8125
1915.93349	11520.6125
1919.04543	11496.7125
1922.15534	11467.5125
1925.26322	11468.4125
1928.36908	11448.2125
1931.47292	11406.9125
1934.57473	11389.6125
1937.67453	11329.2125
1940.77232	11330.3125
1943.86808	11288.3125
1946.96184	11305.5125
1950.05358	11236.6125
1953.14331	11222.6125
1956.23103	11195.0125
1959.31675	11139.2125
1962.40046	11129.9125
1965.48217	11076.2125
1968.56188	11073.3125
1971.63959	11051.5125
1974.7153	11012.7125
1977.78901	10978.3125
1980.86073	10937.2125
1983.93046	10905.7125
1986.99819	10848.3125
1990.06394	10842.2125
1993.1277	10804.4125
1996.18947	10793.7125
1999.24925	10763.6125
2002.30706	10724.8125
2005.36288	10698.0125
2008.41672	10669.1125
2011.46859	10650.5125
2014.51848	10601.2125
2017.56639	10591.5125
2020.61233	10554.5125
2023.6563	10531.1125
2026.6983	10539.5125
2029.73833	10490.4125
2032.7764	10484.3125
2035.8125	10435.1125
2038.84664	10429.1125
2041.87881	10420.7125
2044.90903	10385.5125
2047.93729	10342.7125
2050.96359	10334.9125
2053.98794	10350.9125
2057.01034	10345.0125
2060.03078	10340.7125
2063.04927	10321.6125
2066.06582	10346.6125
2069.08042	10305.7125
2072.09307	10299.8125
2075.10378	10296.6125
2078.11255	10289.2125
2081.11938	10318.5125
2084.12426	10278.7125
2087.12722	10258.4125
2090.12824	10253.3125
2093.12732	10247.2125
2096.12447	10269.4125
2099.11969	10261.9125
2102.11299	10260.1125
2105.10435	10282.1125
2108.09379	10282.2125
2111.08131	10287.6125
2114.0669	10299.5125
2117.05057	10269.3125
2120.03233	10310.2125
2123.01216	10311.5125
2125.99008	10339.7125
2128.96609	10391.5125
2131.94018	10361.8125
2134.91236	10340.2125
2137.88263	10350.6125
2140.851	10339.8125
2143.81746	10345.7125
2146.78201	10338.2125
2149.74466	10365.0125
2152.7054	10357.7125
2155.66425	10367.2125
2158.6212	10379.4125
2161.57625	10337.2125
2164.52941	10346.1125
2167.48067	10340.5125
2170.43004	10328.9125
2173.37752	10339.9125
2176.32311	10350.1125
2179.26681	10331.0125
2182.20863	10342.4125
2185.14856	10365.0125
2188.08661	10330.4125
2191.02278	10347.1125
2193.95707	10350.6125
2196.88948	10345.5125
2199.82001	10357.6125
2202.74867	10296.7125
2205.67545	10313.8125
2208.60037	10294.5125
2211.52341	10289.8125
2214.44458	10274.9125
2217.36388	10255.7125
2220.28132	10248.7125
2223.1969	10212.3125
2226.11061	10208.7125
2229.02246	10189.1125
2231.93245	10159.9125
2234.84058	10150.9125
2237.74686	10132.0125
2240.65128	10114.0125
2243.55385	10095.1125
2246.45456	10111.1125
2249.35343	10089.3125
2252.25044	10066.3125
2255.14561	10062.6125
2258.03893	10057.0125
2260.93041	10025.7125
2263.82004	9996.6125
2266.70783	9996.5125
2269.59378	9946.1125
2272.4779	9939.8125
2275.36017	9903.3125
2278.24061	9892.5125
2281.11922	9873.8125
2283.996	9879.7125
2286.87094	9863.9125
2289.74405	9821.7125
2292.61534	9794.6125
2295.4848	9826.2125
2298.35243	9822.0125
2301.21824	9811.1125
2304.08223	9809.6125
2306.94439	9832.6125
2309.80474	9816.1125
2312.66327	9791.2125
2315.51999	9816.8125
2318.37489	9782.2125
2321.22797	9775.2125
2324.07925	9767.7125
2326.92871	9791.6125
2329.77637	9764.3125
2332.62222	9730.7125
2335.46626	9723.1125
2338.3085	9731.2125
2341.14893	9719.6125
2343.98756	9735.2125
2346.8244	9734.2125
2349.65943	9730.8125
2352.49267	9711.8125
2355.32411	9753.1125
2358.15376	9742.0125
2360.98161	9720.5125
2363.80768	9715.4125
2366.63195	9699.8125
2369.45444	9700.9125
2372.27514	9693.8125
2375.09405	9635.7125
2377.91118	9633.0125
2380.72652	9613.8125
2383.54009	9575.5125
2386.35187	9553.6125
2389.16188	9542.4125
2391.97011	9528.5125
2394.77657	9516.3125
2397.58125	9493.4125
2400.38416	9481.8125
2403.18529	9446.5125
2405.98466	9461.9125
2408.78226	9453.5125
2411.57809	9405.5125
2414.37216	9396.6125
2417.16446	9390.5125
2419.955	9403.4125
2422.74378	9385.1125
2425.5308	9376.9125
2428.31606	9349.9125
2431.09956	9355.0125
2433.88131	9344.9125
2436.6613	9377.8125
2439.43954	9355.8125
2442.21603	9322.7125
2444.99077	9339.9125
2447.76377	9339.8125
2450.53501	9313.4125
2453.30451	9355.5125
2456.07226	9342.7125
2458.83827	9334.1125
2461.60254	9300.0125
2464.36507	9287.7125
2467.12586	9280.9125
2469.88492	9296.3125
2472.64224	9288.5125
2475.39782	9265.1125
2478.15167	9246.9125
2480.90379	9283.8125
2483.65417	9288.7125
2486.40283	9303.7125
2489.14976	9301.1125
2491.89497	9315.2125
2494.63845	9301.1125
2497.3802	9298.9125
2500.12024	9302.1125
2502.85855	9275.8125
2505.59514	9288.7125
2508.33002	9258.1125
2511.06318	9236.8125
2513.79462	9212.9125
2516.52435	9224.5125
2519.25237	9200.2125
2521.97867	9178.2125
2524.70327	9177.1125
2527.42616	9168.0125
2530.14734	9158.5125
2532.86681	9146.8125
2535.58458	9137.8125
2538.30065	9138.3125
2541.01501	9155.4125
2543.72768	9115.3125
2546.43864	9122.3125
2549.14791	9099.2125
2551.85548	9091.7125
2554.56136	9072.5125
2557.26554	9065.8125
2559.96803	9052.5125
2562.66883	9052.7125
2565.36794	9042.3125
2568.06536	9031.4125
2570.7611	9033.0125
2573.45514	8984.5125
2576.14751	8994.7125
2578.83819	8980.9125
2581.52719	8947.7125
2584.21451	8961.5125
2586.90015	8955.1125
2589.58411	8942.3125
2592.2664	8953.9125
2594.94701	8934.7125
2597.62594	8942.0125
2600.30321	8912.7125
2602.9788	8913.9125
2605.65273	8900.3125
2608.32498	8901.7125
2610.99557	8889.3125
2613.66449	8885.5125
2616.33175	8877.3125
2618.99734	8884.6125
2621.66128	8856.2125
2624.32355	8857.5125
2626.98416	8837.6125
2629.64311	8862.0125
2632.30041	8837.3125
2634.95605	8834.7125
2637.61004	8820.8125
2640.26238	8812.0125
2642.91306	8813.8125
2645.56209	8799.4125
2648.20948	8792.6125
2650.85521	8778.6125
2653.4993	8779.4125
2656.14175	8785.2125
2658.78255	8795.8125
2661.42171	8825.5125
2664.05923	8818.6125
2666.6951	8812.0125
2669.32934	8806.3125
2671.96194	8807.6125
2674.59291	8836.9125
2677.22224	8810.9125
2679.84993	8829.3125
2682.476	8815.6125
2685.10043	8803.3125
2687.72324	8793.0125
2690.34441	8776.1125
2692.96396	8799.9125
2695.58188	8781.5125
2698.19818	8772.5125
2700.81285	8768.7125
2703.4259	8753.2125
2706.03733	8675.5125
2708.64714	8729.3125
2711.25533	8767.1125
2713.86191	8766.5125
2716.46687	8778.9125
2719.07021	8787.1125
2721.67194	8823.4125
2724.27206	8774.7125
2726.87057	8792.7125
2729.46747	8785.6125
2732.06276	8787.5125
2734.65644	8799.4125
2737.24852	8800.2125
2739.83899	8767.4125
2742.42786	8794.3125
2745.01513	8768.2125
2747.60079	8767.4125
2750.18486	8749.0125
2752.76733	8734.1125
2755.3482	8730.5125
2757.92747	8731.4125
2760.50515	8715.5125
2763.08123	8709.5125
2765.65573	8732.4125
2768.22863	8711.9125
2770.79994	8687.5125
2773.36967	8720.7125
2775.9378	8667.8125
2778.50435	8676.1125
2781.06932	8685.1125
2783.6327	8680.4125
2786.1945	8682.6125
2788.75471	8671.4125
2791.31335	8657.1125
2793.87041	8618.6125
2796.42589	8635.9125
2798.97979	8622.5125
2801.53212	8576.3125
2804.08288	8609.8125
2806.63206	8558.1125
2809.17967	8565.2125
2811.72571	8537.9125
2814.27018	8523.6125
2816.81308	8524.1125
2819.35442	8514.9125
2821.89419	8504.1125
2824.43239	8503.8125
2826.96904	8500.9125
2829.50412	8485.6125
2832.03763	8446.6125
2834.56959	8483.2125
2837.1	8470.4125
2839.62884	8480.3125
2842.15613	8474.3125
2844.68186	8487.7125
2847.20604	8470.5125
2849.72867	8482.5125
2852.24974	8477.5125
2854.76927	8444.5125
2857.28724	8424.4125
2859.80367	8420.2125
2862.31855	8421.3125
2864.83189	8418.7125
2867.34368	8422.5125
2869.85393	8432.9125
2872.36264	8414.2125
2874.8698	8450.3125
2877.37543	8410.2125
2879.87952	8427.0125
2882.38207	8434.9125
2884.88308	8411.4125
2887.38256	8439.0125
2889.88051	8430.0125
2892.37692	8436.7125
2894.8718	8429.4125
2897.36515	8457.5125
2899.85698	8449.3125
2902.34727	8486.8125
2904.83604	8464.9125
2907.32328	8507.9125
2909.809	8495.7125
2912.29319	8518.5125
2914.77587	8507.6125
2917.25702	8509.8125
2919.73665	8516.6125
2922.21476	8524.0125
2924.69136	8505.3125
2927.16644	8531.1125
2929.64	8498.7125
2932.11205	8502.1125
2934.58258	8471.0125
2937.05161	8467.3125
2939.51912	8465.6125
2941.98513	8465.1125
2944.44962	8439.3125
2946.91261	8413.1125
2949.37409	8441.9125
2951.83407	8432.0125
2954.29254	8430.7125
2956.74951	8413.7125
2959.20498	8384.6125
2961.65895	8375.2125
2964.11142	8381.0125
2966.56239	8376.7125
2969.01186	8376.3125
2971.45984	8349.2125
2973.90632	8321.8125
2976.35131	8291.2125
2978.7948	8293.4125
2981.23681	8280.0125
2983.67732	8241.0125
2986.11635	8237.9125
2988.55388	8202.9125
2990.98993	8222.9125
2993.4245	8164.8125
2995.85758	8178.6125
2998.28917	8156.4125
3000.71928	8151.6125
3003.14791	8113.7125
3005.57506	8132.1125
3008.00073	8100.6125
3010.42493	8097.1125
3012.84764	8099.7125
3015.26888	8084.1125
3017.68865	8081.6125
3020.10694	8074.1125
3022.52376	8036.1125
3024.9391	8025.1125
3027.35298	8033.2125
3029.76539	8006.6125
3032.17632	8005.4125
3034.5858	7998.3125
3036.9938	8004.1125
3039.40034	7973.7125
3041.80542	7965.4125
3044.20903	7957.3125
3046.61118	7952.9125
3049.01187	7962.2125
3051.4111	7961.6125
3053.80888	7928.8125
3056.20519	7919.9125
3058.60005	7885.7125
