Data from AgNPs_FTO_APTES_UA_50uM_CRN_5uM_R6G_10uM_NaF_0.1M_Addition_RamanShift__26__13-02-54-843.txt Node

Date: Mon Feb 21 13:02:54 GMT 2022
User: TCL
Spectrometer: QEP01345
Trigger mode: 4
Integration Time (sec): 7.000000E0
Scans to average: 10
Electric dark correction enabled: true
Nonlinearity correction enabled: false
Boxcar width: 0
XAxis mode: Raman Shifts
Number of Pixels in Spectrum: 1044
>>>>>Begin Spectral Data<<<<<
46.04893	0.625
50.45542	-1.175
54.85868	0.425
59.25871	-2.675
63.6555	58.325
68.04907	65.525
72.43941	64.125
76.82654	68.325
81.21044	72.025
85.59113	76.625
89.96862	78.825
94.34289	80.425
98.71396	84.525
103.08183	89.025
107.4465	90.425
111.80798	88.425
116.16626	91.025
120.52136	93.025
124.87327	101.325
129.222	101.725
133.56755	104.125
137.90993	122.225
142.24913	129.925
146.58517	139.225
150.91804	161.625
155.24774	193.425
159.57429	242.625
163.89768	306.425
168.21792	413.025
172.53501	564.725
176.84895	783.025
181.15975	1096.925
185.46741	1545.625
189.77193	2141.725
194.07331	2856.625
198.37157	3714.625
202.6667	4595.125
206.9587	5541.625
211.24758	6501.325
215.53334	7547.325
219.81599	8761.325
224.09553	10131.825
228.37195	11662.725
232.64527	13287.225
236.91549	14820.625
241.18261	16055.525
245.44663	16920.225
249.70755	17572.925
253.96539	18055.225
258.22014	18534.525
262.4718	18898.425
266.72039	19034.225
270.96589	18876.725
275.20832	18407.325
279.44768	17819.625
283.68397	17248.925
287.91719	16986.925
292.14735	17149.125
296.37445	17973.025
300.59849	19388.325
304.81948	21029.625
309.03742	22340.725
313.25231	22577.925
317.46415	21112.225
321.67296	18665.325
325.87872	16626.725
330.08145	15706.325
334.28114	15736.925
338.47781	16212.225
342.67145	16937.125
346.86207	18057.925
351.04966	19785.825
355.23424	21825.325
359.4158	23263.525
363.59435	23785.125
367.76989	23656.625
371.94243	23168.425
376.11196	22675.725
380.27849	22214.025
384.44203	21594.825
388.60257	21007.425
392.76012	20637.925
396.91468	20760.025
401.06626	21342.925
405.21485	21777.625
409.36047	20952.025
413.50311	19124.725
417.64277	17345.925
421.77947	16307.925
425.9132	15790.825
430.04396	15604.825
434.17176	15631.725
438.2966	15925.425
442.41849	16470.825
446.53742	17138.825
450.6534	17718.425
454.76644	17962.925
458.87653	17905.225
462.98368	17601.825
467.08789	17191.825
471.18916	16673.125
475.2875	16063.025
479.38291	15517.525
483.4754	15149.225
487.56496	14883.425
491.6516	14710.125
495.73531	14636.625
499.81612	14713.425
503.89401	15039.625
507.96899	15409.725
512.04106	15885.425
516.11023	16436.425
520.1765	16828.925
524.23987	16800.225
528.30034	16475.725
532.35792	16076.125
536.41261	15600.325
540.46441	15043.025
544.51333	14758.625
548.55936	14856.325
552.60252	15332.925
556.64279	15911.825
560.6802	16300.325
564.71473	17022.925
568.7464	18420.225
572.7752	18870.525
576.80114	17418.625
580.82422	15941.125
584.84444	15375.425
588.86181	15303.025
592.87633	15515.225
596.888	15962.825
600.89682	17016.925
604.9028	20683.425
608.90594	30753.125
612.90624	43867.125
616.90371	41235.925
620.89834	25029.125
624.89015	17548.925
628.87913	16337.825
632.86528	16746.825
636.84862	17316.925
640.82913	16705.225
644.80683	15201.025
648.78172	14114.725
652.75379	14126.625
656.72306	15263.325
660.68952	16586.125
664.65319	16155.725
668.61405	14668.125
672.57211	14000.925
676.52738	13954.425
680.47986	13945.325
684.42955	13684.325
688.37646	13598.125
692.32058	13614.525
696.26192	13797.125
700.20048	14044.325
704.13626	14187.325
708.06928	14018.725
711.99952	13773.925
715.927	13762.525
719.85171	13950.825
723.77365	14094.125
727.69284	13942.325
731.60928	13714.925
735.52295	13639.725
739.43388	13697.225
743.34206	13841.825
747.24749	13905.025
751.15017	13982.025
755.05012	14424.025
758.94733	15848.125
762.8418	19463.025
766.73354	25287.725
770.62254	30561.125
774.50882	32985.425
778.39237	31334.325
782.27321	25602.525
786.15132	19603.225
790.02671	16187.125
793.89938	14679.325
797.76935	14087.425
801.6366	13816.025
805.50115	13669.125
809.36299	13567.525
813.22213	13483.125
817.07857	13421.125
820.93231	13429.125
824.78336	13478.925
828.63172	13626.625
832.47738	13675.625
836.32036	13578.125
840.16066	13420.225
843.99827	13322.625
847.8332	13269.625
851.66546	13199.425
855.49504	13188.625
859.32195	13164.325
863.1462	13031.125
866.96777	12993.725
870.78668	12966.225
874.60293	12985.125
878.41652	13128.725
882.22745	13316.725
886.03573	13472.825
889.84136	13453.825
893.64433	13372.325
897.44466	13358.725
901.24235	13332.725
905.0374	13193.225
908.8298	12956.425
912.61957	12815.525
916.40671	12813.125
920.19121	12947.725
923.97308	13216.225
927.75233	13667.825
931.52895	14130.125
935.30295	13915.625
939.07433	13153.725
942.84309	12535.825
946.60924	12196.825
950.37278	12046.525
954.13371	11940.625
957.89203	11891.825
961.64774	11839.225
965.40086	11764.225
969.15137	11751.725
972.89929	11696.125
976.64461	11689.525
980.38733	11690.425
984.12747	11731.525
987.86502	11853.625
991.59999	12007.225
995.33237	12303.025
999.06217	12791.025
1002.78939	13462.725
1006.51404	14029.225
1010.23611	14396.925
1013.95561	14546.125
1017.67255	14505.325
1021.38692	14238.225
1025.09872	13974.225
1028.80796	13991.625
1032.51465	14339.225
1036.21877	14726.925
1039.92035	14837.325
1043.61937	14740.325
1047.31584	14456.525
1051.00976	14097.425
1054.70114	13765.825
1058.38998	13628.825
1062.07627	13625.325
1065.76003	13647.725
1069.44126	13711.825
1073.11995	13930.225
1076.79611	14348.525
1080.46974	15050.525
1084.14085	16002.925
1087.80943	16820.825
1091.47549	16961.725
1095.13903	16347.025
1098.80005	15330.325
1102.45857	14652.225
1106.11456	14556.425
1109.76805	14908.125
1113.41903	15773.225
1117.06751	17096.925
1120.71348	18850.025
1124.35696	20841.125
1127.99793	22069.025
1131.63641	21093.125
1135.2724	18907.525
1138.90589	17173.425
1142.5369	16123.125
1146.16542	15412.725
1149.79145	14997.425
1153.415	14898.425
1157.03607	15048.025
1160.65467	15523.825
1164.27079	16434.025
1167.88443	17857.525
1171.49561	20094.825
1175.10432	23823.825
1178.71056	28886.125
1182.31434	33027.425
1185.91565	33940.725
1189.51451	32076.125
1193.11091	28874.025
1196.70485	25842.825
1200.29634	23830.525
1203.88538	22189.425
1207.47197	20135.125
1211.05612	18287.825
1214.63782	17158.225
1218.21708	16747.525
1221.79391	16742.225
1225.36829	16800.925
1228.94024	16747.225
1232.50976	16544.425
1236.07685	16401.725
1239.6415	16401.425
1243.20374	16483.425
1246.76355	16679.825
1250.32093	17000.825
1253.8759	17563.225
1257.42845	18422.925
1260.97859	19451.025
1264.52631	20554.925
1268.07163	21628.025
1271.61453	22476.225
1275.15503	23095.325
1278.69312	23451.125
1282.22882	24025.825
1285.76211	25027.825
1289.29301	26318.525
1292.82151	27510.125
1296.34761	28909.525
1299.87133	31490.125
1303.39266	36103.325
1306.9116	43135.925
1310.42815	50045.725
1313.94233	51769.925
1317.45412	47294.325
1320.96354	40624.425
1324.47058	34722.825
1327.97525	30496.025
1331.47754	28204.125
1334.97747	27485.325
1338.47502	28111.025
1341.97022	29877.625
1345.46305	32882.025
1348.95352	36660.125
1352.44163	41248.125
1355.92738	48386.725
1359.41078	59326.025
1362.89183	68041.225
1366.37053	62563.725
1369.84688	48110.125
1373.32088	36782.125
1376.79254	30498.825
1380.26186	27083.125
1383.72883	24773.525
1387.19347	23035.125
1390.65578	21578.525
1394.11575	20715.425
1397.57339	20380.625
1401.0287	20434.925
1404.48168	20613.725
1407.93234	20781.425
1411.38068	21023.525
1414.82669	21138.825
1418.27039	21076.425
1421.71177	20589.525
1425.15083	20064.625
1428.58758	19983.425
1432.02203	20433.825
1435.45416	20732.725
1438.88399	20627.725
1442.31151	20490.225
1445.73673	20607.825
1449.15965	20782.125
1452.58027	20768.725
1455.9986	20534.425
1459.41463	20519.725
1462.82837	20922.925
1466.23982	21698.125
1469.64898	22332.625
1473.05586	22618.525
1476.46045	22703.425
1479.86276	23016.625
1483.26279	23744.025
1486.66054	24832.625
1490.05602	26481.725
1493.44922	28930.125
1496.84016	32832.825
1500.22882	38972.225
1503.61521	47838.325
1506.99934	57808.125
1510.38121	64994.025
1513.76081	64779.425
1517.13816	56680.325
1520.51324	45479.225
1523.88607	36226.625
1527.25665	30589.325
1530.62498	27493.625
1533.99105	25651.625
1537.35488	24494.625
1540.71647	23855.325
1544.07581	23679.625
1547.4329	23793.325
1550.78776	24119.625
1554.14038	24510.025
1557.49077	24905.925
1560.83892	25683.525
1564.18484	27061.725
1567.52853	28732.925
1570.86999	29967.025
1574.20922	30454.125
1577.54624	29729.625
1580.88103	27060.525
1584.2136	23909.625
1587.54395	22300.925
1590.87208	22626.825
1594.19801	24443.825
1597.52172	26851.125
1600.84321	27684.425
1604.16251	26301.625
1607.47959	23991.225
1610.79447	21657.125
1614.10715	19506.325
1617.41763	17835.025
1620.7259	16940.525
1624.03199	16603.225
1627.33587	16836.325
1630.63757	17695.625
1633.93707	19204.525
1637.23439	21680.025
1640.52951	25476.325
1643.82246	31096.625
1647.11321	37618.725
1650.40179	41400.425
1653.68819	38677.425
1656.97241	31131.225
1660.25446	23762.325
1663.53433	18940.425
1666.81203	16260.325
1670.08756	14809.125
1673.36092	13900.625
1676.63211	13348.225
1679.90115	12960.525
1683.16801	12652.925
1686.43272	12453.225
1689.69527	12268.825
1692.95567	12094.325
1696.2139	11959.125
1699.46999	11803.525
1702.72392	11742.225
1705.97571	11792.825
1709.22535	11861.025
1712.47284	11916.925
1715.71819	11925.925
1718.96139	11914.425
1722.20246	11811.025
1725.44139	11686.725
1728.67818	11547.325
1731.91284	11431.425
1735.14537	11305.025
1738.37576	11244.525
1741.60403	11171.225
1744.83017	11119.525
1748.05418	11056.125
1751.27607	10987.625
1754.49584	10892.625
1757.71349	10804.725
1760.92903	10746.025
1764.14244	10696.125
1767.35375	10680.425
1770.56294	10596.525
1773.77002	10550.225
1776.97499	10576.125
1780.17785	10550.325
1783.37861	10554.125
1786.57727	10525.525
1789.77382	10521.325
1792.96828	10511.225
1796.16064	10504.625
1799.3509	10490.225
1802.53907	10480.625
1805.72514	10437.625
1808.90913	10398.125
1812.09102	10344.825
1815.27083	10317.625
1818.44856	10284.025
1821.6242	10282.025
1824.79776	10270.225
1827.96924	10241.625
1831.13864	10231.625
1834.30597	10200.425
1837.47122	10186.425
1840.6344	10154.125
1843.7955	10137.625
1846.95454	10151.825
1850.11151	10138.225
1853.26642	10129.725
1856.41926	10134.825
1859.57004	10126.925
1862.71876	10134.725
1865.86542	10161.025
1869.01003	10147.725
1872.15258	10166.825
1875.29308	10172.725
1878.43152	10183.725
1881.56792	10198.725
1884.70227	10213.225
1887.83457	10190.925
1890.96482	10208.625
1894.09304	10165.525
1897.21921	10176.225
1900.34335	10190.225
1903.46544	10212.825
1906.58551	10184.325
1909.70353	10193.425
1912.81953	10208.725
1915.93349	10190.525
1919.04543	10163.625
1922.15534	10120.825
1925.26322	10081.625
1928.36908	10013.425
1931.47292	9992.125
1934.57473	9919.425
1937.67453	9864.025
1940.77232	9828.525
1943.86808	9782.325
1946.96184	9784.825
1950.05358	9734.325
1953.14331	9709.625
1956.23103	9663.025
1959.31675	9633.425
1962.40046	9596.925
1965.48217	9634.725
1968.56188	9633.925
1971.63959	9620.625
1974.7153	9583.225
1977.78901	9533.725
1980.86073	9502.525
1983.93046	9427.925
1986.99819	9398.125
1990.06394	9321.925
1993.1277	9323.825
1996.18947	9273.625
1999.24925	9251.025
2002.30706	9205.825
2005.36288	9169.525
2008.41672	9144.225
2011.46859	9144.825
2014.51848	9068.825
2017.56639	9064.925
2020.61233	9037.425
2023.6563	9036.825
2026.6983	8994.125
2029.73833	8986.225
2032.7764	8976.625
2035.8125	8947.025
2038.84664	8946.425
2041.87881	8946.125
2044.90903	8937.425
2047.93729	8882.525
2050.96359	8872.125
2053.98794	8880.025
2057.01034	8858.025
2060.03078	8864.725
2063.04927	8827.825
2066.06582	8829.225
2069.08042	8812.125
2072.09307	8783.825
2075.10378	8785.125
2078.11255	8778.925
2081.11938	8779.325
2084.12426	8777.925
2087.12722	8776.425
2090.12824	8750.725
2093.12732	8761.925
2096.12447	8759.325
2099.11969	8742.225
2102.11299	8758.525
2105.10435	8762.225
2108.09379	8762.625
2111.08131	8776.725
2114.0669	8775.825
2117.05057	8808.225
2120.03233	8821.425
2123.01216	8839.525
2125.99008	8853.825
2128.96609	8880.725
2131.94018	8862.025
2134.91236	8880.525
2137.88263	8860.625
2140.851	8835.225
2143.81746	8833.925
2146.78201	8792.225
2149.74466	8802.125
2152.7054	8781.225
2155.66425	8823.725
2158.6212	8795.525
2161.57625	8778.525
2164.52941	8767.225
2167.48067	8744.125
2170.43004	8744.025
2173.37752	8764.825
2176.32311	8762.225
2179.26681	8781.925
2182.20863	8783.725
2185.14856	8806.525
2188.08661	8809.625
2191.02278	8771.125
2193.95707	8770.625
2196.88948	8745.525
2199.82001	8761.225
2202.74867	8759.925
2205.67545	8733.625
2208.60037	8752.125
2211.52341	8732.425
2214.44458	8723.825
2217.36388	8724.125
2220.28132	8718.025
2223.1969	8667.325
2226.11061	8673.225
2229.02246	8626.225
2231.93245	8640.125
2234.84058	8625.625
2237.74686	8583.625
2240.65128	8597.725
2243.55385	8603.125
2246.45456	8610.525
2249.35343	8588.625
2252.25044	8597.425
2255.14561	8602.525
2258.03893	8627.225
2260.93041	8645.125
2263.82004	8639.925
2266.70783	8611.325
2269.59378	8587.225
2272.4779	8567.325
2275.36017	8542.325
2278.24061	8540.625
2281.11922	8509.725
2283.996	8496.025
2286.87094	8469.825
2289.74405	8425.725
2292.61534	8406.225
2295.4848	8399.025
2298.35243	8405.225
2301.21824	8400.825
2304.08223	8395.225
2306.94439	8414.825
2309.80474	8425.025
2312.66327	8425.725
2315.51999	8417.725
2318.37489	8420.925
2321.22797	8422.725
2324.07925	8406.225
2326.92871	8390.825
2329.77637	8381.425
2332.62222	8388.425
2335.46626	8390.625
2338.3085	8386.425
2341.14893	8412.825
2343.98756	8426.025
2346.8244	8452.325
2349.65943	8472.225
2352.49267	8494.225
2355.32411	8526.925
2358.15376	8530.625
2360.98161	8541.125
2363.80768	8559.925
2366.63195	8555.925
2369.45444	8574.425
2372.27514	8569.925
2375.09405	8555.025
2377.91118	8535.825
2380.72652	8491.325
2383.54009	8435.525
2386.35187	8400.625
2389.16188	8336.825
2391.97011	8314.125
2394.77657	8306.025
2397.58125	8261.825
2400.38416	8250.325
2403.18529	8211.525
2405.98466	8188.025
2408.78226	8186.825
2411.57809	8149.825
2414.37216	8138.325
2417.16446	8105.325
2419.955	8107.525
2422.74378	8127.225
2425.5308	8109.525
2428.31606	8123.525
2431.09956	8158.525
2433.88131	8143.025
2436.6613	8145.225
2439.43954	8154.825
2442.21603	8124.625
2444.99077	8148.025
2447.76377	8181.225
2450.53501	8172.325
2453.30451	8189.925
2456.07226	8176.625
2458.83827	8168.225
2461.60254	8175.925
2464.36507	8180.725
2467.12586	8167.225
2469.88492	8166.925
2472.64224	8172.425
2475.39782	8180.225
2478.15167	8218.525
2480.90379	8267.925
2483.65417	8308.325
2486.40283	8337.225
2489.14976	8377.025
2491.89497	8395.325
2494.63845	8421.925
2497.3802	8388.125
2500.12024	8369.825
2502.85855	8324.525
2505.59514	8287.025
2508.33002	8255.525
2511.06318	8193.225
2513.79462	8142.625
2516.52435	8097.325
2519.25237	8057.725
2521.97867	8057.225
2524.70327	8008.325
2527.42616	8010.825
2530.14734	8015.625
2532.86681	7998.425
2535.58458	7988.625
2538.30065	8010.225
2541.01501	8010.325
2543.72768	8021.425
2546.43864	8027.725
2549.14791	8008.225
2551.85548	8017.325
2554.56136	8017.625
2557.26554	8028.125
2559.96803	8016.825
2562.66883	8036.225
2565.36794	7987.625
2568.06536	8036.425
2570.7611	8010.425
2573.45514	7996.525
2576.14751	7967.925
2578.83819	7966.825
2581.52719	7957.225
2584.21451	7936.625
2586.90015	7938.125
2589.58411	7910.825
2592.2664	7927.025
2594.94701	7935.425
2597.62594	7950.025
2600.30321	7930.725
2602.9788	7939.425
2605.65273	7939.025
2608.32498	7950.925
2610.99557	7951.625
2613.66449	7981.225
2616.33175	7998.125
2618.99734	8000.525
2621.66128	7979.325
2624.32355	7973.325
2626.98416	7976.825
2629.64311	7950.925
2632.30041	7947.425
2634.95605	7937.825
2637.61004	7927.225
2640.26238	7900.325
2642.91306	7896.625
2645.56209	7861.125
2648.20948	7851.125
2650.85521	7841.525
2653.4993	7847.325
2656.14175	7852.125
2658.78255	7887.625
2661.42171	7915.925
2664.05923	7929.125
2666.6951	7942.825
2669.32934	7976.125
2671.96194	7953.825
2674.59291	7972.525
2677.22224	7981.625
2679.84993	7980.225
2682.476	7968.425
2685.10043	7989.025
2687.72324	7918.225
2690.34441	7918.525
2692.96396	7901.825
2695.58188	7915.125
2698.19818	7912.525
2700.81285	7926.425
2703.4259	7869.725
2706.03733	7825.525
2708.64714	7853.725
2711.25533	7884.925
2713.86191	7903.025
2716.46687	7920.425
2719.07021	7942.325
2721.67194	7954.825
2724.27206	7945.925
2726.87057	7960.025
2729.46747	7960.525
2732.06276	7954.125
2734.65644	7940.925
2737.24852	7927.325
2739.83899	7904.425
2742.42786	7914.925
2745.01513	7890.125
2747.60079	7880.625
2750.18486	7864.225
2752.76733	7849.125
2755.3482	7833.525
2757.92747	7825.125
2760.50515	7837.425
2763.08123	7830.725
2765.65573	7817.725
2768.22863	7817.425
2770.79994	7785.425
2773.36967	7810.825
2775.9378	7818.625
2778.50435	7831.625
2781.06932	7824.825
2783.6327	7828.325
2786.1945	7842.925
2788.75471	7850.325
2791.31335	7838.525
2793.87041	7858.625
2796.42589	7819.825
2798.97979	7841.825
2801.53212	7830.825
2804.08288	7852.225
2806.63206	7829.325
2809.17967	7849.225
2811.72571	7865.225
2814.27018	7857.425
2816.81308	7890.925
2819.35442	7887.825
2821.89419	7897.225
2824.43239	7939.325
2826.96904	7938.925
2829.50412	7919.825
2832.03763	7915.025
2834.56959	7906.225
2837.1	7893.725
2839.62884	7883.225
2842.15613	7868.225
2844.68186	7901.825
2847.20604	7929.925
2849.72867	7929.625
2852.24974	7965.825
2854.76927	7951.825
2857.28724	7954.225
2859.80367	7986.925
2862.31855	8005.725
2864.83189	8036.625
2867.34368	8061.125
2869.85393	8080.025
2872.36264	8081.125
2874.8698	8081.125
2877.37543	8083.825
2879.87952	8057.425
2882.38207	8059.125
2884.88308	8054.225
2887.38256	8051.825
2889.88051	8021.625
2892.37692	8018.225
2894.8718	8040.225
2897.36515	8034.825
2899.85698	8049.625
2902.34727	8074.825
2904.83604	8049.225
2907.32328	8047.925
2909.809	8052.225
2912.29319	8047.725
2914.77587	8021.625
2917.25702	7988.325
2919.73665	7988.225
2922.21476	7997.625
2924.69136	7943.325
2927.16644	7940.825
2929.64	7904.525
2932.11205	7885.225
2934.58258	7825.225
2937.05161	7848.025
2939.51912	7844.325
2941.98513	7831.425
2944.44962	7825.225
2946.91261	7795.925
2949.37409	7822.125
2951.83407	7790.125
2954.29254	7785.325
2956.74951	7776.125
2959.20498	7770.225
2961.65895	7739.825
2964.11142	7752.225
2966.56239	7687.425
2969.01186	7677.225
2971.45984	7644.025
2973.90632	7632.525
2976.35131	7622.025
2978.7948	7611.725
2981.23681	7603.325
2983.67732	7562.225
2986.11635	7539.825
2988.55388	7523.525
2990.98993	7516.025
2993.4245	7536.925
2995.85758	7520.425
2998.28917	7504.625
3000.71928	7509.925
3003.14791	7485.825
3005.57506	7490.825
3008.00073	7487.625
3010.42493	7479.625
3012.84764	7449.625
3015.26888	7456.725
3017.68865	7444.825
3020.10694	7422.225
3022.52376	7426.725
3024.9391	7413.325
3027.35298	7383.325
3029.76539	7387.025
3032.17632	7371.225
3034.5858	7348.925
3036.9938	7296.825
3039.40034	7287.425
3041.80542	7279.125
3044.20903	7258.325
3046.61118	7255.225
3049.01187	7218.425
3051.4111	7224.425
3053.80888	7196.425
3056.20519	7209.025
3058.60005	7198.325
3060.99345	7159.625
3063.3854	7140.525
3065.7759	7130.725
3068.16494	7095.025
3070.55254	7050.425
3072.93868	7030.725
3075.32338	7010.425
3077.70662	7004.425
3080.08842	6990.825
3082.46878	6957.625
3084.84769	6954.625
3087.22515	6978.025
3089.60118	6967.725
3091.97576	6931.925
3094.3489	6961.125
3096.72061	6944.425
3099.09087	6927.325
3101.4597	6936.625
3103.82709	6946.725
3106.19305	6930.625
3108.55757	6946.925
3110.92066	6904.125
3113.28232	6932.425
3115.64255	6889.325
3118.00134	6895.125
3120.35871	6885.125
3122.71466	6874.025
3125.06917	6849.425
3127.42226	6862.925
3129.77393	6860.025
3132.12417	6859.625
3134.47299	6846.125
3136.82039	6856.625
3139.16636	6867.625
3141.51092	6856.225
3143.85406	6868.725
3146.19579	6887.225
3148.53609	6864.725
3150.87499	6870.325
3153.21246	6898.825
3155.54853	6925.525
3157.88318	6911.825
3160.21642	6915.925
3162.54826	6920.525
3164.87868	6913.025
3167.2077	6913.525
3169.5353	6924.125
3171.86151	6937.425
3174.18631	6918.325
3176.5097	6907.725
3178.83169	6885.925
3181.15228	6905.525
