Data from AgNPs_FTO_APTES_UA_50uM_CRN_0uM_R6G_10uM_NaF_0.1M_Addition_RamanShift__42__10-59-14-680.txt Node

Date: Mon Feb 21 10:59:14 GMT 2022
User: TCL
Spectrometer: QEP01345
Trigger mode: 4
Integration Time (sec): 7.000000E0
Scans to average: 10
Electric dark correction enabled: true
Nonlinearity correction enabled: false
Boxcar width: 0
XAxis mode: Raman Shifts
Number of Pixels in Spectrum: 1044
>>>>>Begin Spectral Data<<<<<
46.04893	0.5875
50.45542	-0.8125
54.85868	-0.5125
59.25871	-1.4125
63.6555	52.4875
68.04907	59.1875
72.43941	58.2875
76.82654	61.3875
81.21044	66.5875
85.59113	67.2875
89.96862	66.3875
94.34289	72.2875
98.71396	70.4875
103.08183	77.9875
107.4465	74.9875
111.80798	80.4875
116.16626	77.8875
120.52136	78.7875
124.87327	86.1875
129.222	84.9875
133.56755	89.6875
137.90993	97.9875
142.24913	102.5875
146.58517	115.6875
150.91804	128.3875
155.24774	152.9875
159.57429	187.4875
163.89768	241.4875
168.21792	321.4875
172.53501	431.1875
176.84895	602.2875
181.15975	836.0875
185.46741	1171.8875
189.77193	1612.8875
194.07331	2155.1875
198.37157	2771.6875
202.6667	3412.5875
206.9587	4069.6875
211.24758	4721.2875
215.53334	5378.2875
219.81599	6079.3875
224.09553	6891.1875
228.37195	7782.2875
232.64527	8758.2875
236.91549	9769.3875
241.18261	10696.6875
245.44663	11533.7875
249.70755	12270.2875
253.96539	12868.9875
258.22014	13396.4875
262.4718	13844.5875
266.72039	14146.7875
270.96589	14310.6875
275.20832	14258.3875
279.44768	14131.7875
283.68397	13968.4875
287.91719	13815.5875
292.14735	13801.5875
296.37445	13915.6875
300.59849	14144.4875
304.81948	14470.7875
309.03742	14686.4875
313.25231	14632.8875
317.46415	14207.3875
321.67296	13554.3875
325.87872	12936.2875
330.08145	12638.2875
334.28114	12611.6875
338.47781	12754.6875
342.67145	12971.1875
346.86207	13365.3875
351.04966	13851.3875
355.23424	14436.6875
359.4158	14903.3875
363.59435	15179.7875
367.76989	15304.0875
371.94243	15278.4875
376.11196	15294.0875
380.27849	15305.8875
384.44203	15278.5875
388.60257	15237.7875
392.76012	15280.3875
396.91468	15411.8875
401.06626	15724.4875
405.21485	15988.9875
409.36047	15854.8875
413.50311	15382.0875
417.64277	14983.8875
421.77947	14769.4875
425.9132	14726.7875
430.04396	14760.8875
434.17176	14837.1875
438.2966	15016.5875
442.41849	15340.5875
446.53742	15860.7875
450.6534	16374.5875
454.76644	16803.3875
458.87653	16896.9875
462.98368	16725.2875
467.08789	16417.9875
471.18916	16080.4875
475.2875	15721.1875
479.38291	15503.6875
483.4754	15331.1875
487.56496	15173.5875
491.6516	14933.4875
495.73531	14801.5875
499.81612	14717.1875
503.89401	14823.9875
507.96899	14895.3875
512.04106	14910.1875
516.11023	14968.5875
520.1765	14958.2875
524.23987	14916.4875
528.30034	14777.7875
532.35792	14602.9875
536.41261	14362.4875
540.46441	14076.2875
544.51333	13974.0875
548.55936	14122.2875
552.60252	14427.4875
556.64279	14807.7875
560.6802	15082.2875
564.71473	15296.8875
568.7464	15786.3875
572.7752	16298.4875
576.80114	16278.0875
580.82422	16187.3875
584.84444	16276.0875
588.86181	16502.3875
592.87633	16883.2875
596.888	17104.4875
600.89682	17080.8875
604.9028	17912.5875
608.90594	20827.9875
612.90624	24541.2875
616.90371	23455.8875
620.89834	18074.8875
624.89015	15490.6875
628.87913	15135.7875
632.86528	15122.9875
636.84862	15102.6875
640.82913	14776.7875
644.80683	14222.7875
648.78172	13802.2875
652.75379	13723.6875
656.72306	14045.0875
660.68952	14549.3875
664.65319	14540.3875
668.61405	14036.1875
672.57211	13889.2875
676.52738	13915.3875
680.47986	13928.2875
684.42955	13817.1875
688.37646	13772.2875
692.32058	13872.5875
696.26192	14016.7875
700.20048	14160.3875
704.13626	14271.0875
708.06928	14187.7875
711.99952	14036.7875
715.927	14025.6875
719.85171	14101.4875
723.77365	14071.3875
727.69284	13874.6875
731.60928	13679.5875
735.52295	13654.7875
739.43388	13694.2875
743.34206	13797.1875
747.24749	13857.4875
751.15017	13962.4875
755.05012	14196.3875
758.94733	14754.8875
762.8418	15902.4875
766.73354	17869.1875
770.62254	19806.0875
774.50882	20651.7875
778.39237	19744.1875
782.27321	17747.0875
786.15132	15840.2875
790.02671	14662.8875
793.89938	14111.8875
797.76935	13911.5875
801.6366	13822.1875
805.50115	13770.1875
809.36299	13719.1875
813.22213	13609.1875
817.07857	13554.4875
820.93231	13492.9875
824.78336	13479.1875
828.63172	13504.3875
832.47738	13511.3875
836.32036	13523.0875
840.16066	13550.5875
843.99827	13597.0875
847.8332	13565.5875
851.66546	13500.6875
855.49504	13467.2875
859.32195	13431.2875
863.1462	13370.0875
866.96777	13289.9875
870.78668	13253.4875
874.60293	13275.0875
878.41652	13301.9875
882.22745	13410.5875
886.03573	13509.1875
889.84136	13456.6875
893.64433	13409.3875
897.44466	13357.7875
901.24235	13319.4875
905.0374	13194.3875
908.8298	13118.0875
912.61957	13116.4875
916.40671	13158.8875
920.19121	13340.9875
923.97308	13579.4875
927.75233	13721.3875
931.52895	13785.6875
935.30295	13643.6875
939.07433	13283.4875
942.84309	13024.2875
946.60924	12880.3875
950.37278	12795.8875
954.13371	12724.4875
957.89203	12617.5875
961.64774	12566.9875
965.40086	12527.0875
969.15137	12510.8875
972.89929	12439.2875
976.64461	12434.9875
980.38733	12447.9875
984.12747	12515.2875
987.86502	12629.8875
991.59999	12817.6875
995.33237	13149.8875
999.06217	13690.0875
1002.78939	14314.6875
1006.51404	14699.5875
1010.23611	14913.3875
1013.95561	15029.0875
1017.67255	15086.5875
1021.38692	14878.1875
1025.09872	14672.5875
1028.80796	14805.2875
1032.51465	15222.6875
1036.21877	15681.4875
1039.92035	15790.3875
1043.61937	15533.9875
1047.31584	15071.2875
1051.00976	14566.1875
1054.70114	14252.6875
1058.38998	14151.6875
1062.07627	14155.6875
1065.76003	14173.7875
1069.44126	14276.4875
1073.11995	14434.0875
1076.79611	14670.9875
1080.46974	14819.1875
1084.14085	15111.5875
1087.80943	15421.0875
1091.47549	15538.5875
1095.13903	15396.4875
1098.80005	15056.3875
1102.45857	14648.9875
1106.11456	14408.1875
1109.76805	14393.4875
1113.41903	14584.6875
1117.06751	14871.8875
1120.71348	15234.0875
1124.35696	15646.1875
1127.99793	16031.6875
1131.63641	16068.2875
1135.2724	15737.8875
1138.90589	15352.5875
1142.5369	15087.2875
1146.16542	14911.2875
1149.79145	14828.9875
1153.415	14873.0875
1157.03607	15010.2875
1160.65467	15342.6875
1164.27079	15961.0875
1167.88443	16840.2875
1171.49561	18188.0875
1175.10432	20160.7875
1178.71056	22697.7875
1182.31434	24948.7875
1185.91565	26012.5875
1189.51451	25755.1875
1193.11091	24621.4875
1196.70485	23027.3875
1200.29634	21721.6875
1203.88538	20595.6875
1207.47197	19504.7875
1211.05612	18663.8875
1214.63782	18255.7875
1218.21708	18145.2875
1221.79391	18293.1875
1225.36829	18407.0875
1228.94024	18221.6875
1232.50976	17846.4875
1236.07685	17486.4875
1239.6415	17262.3875
1243.20374	17197.0875
1246.76355	17237.9875
1250.32093	17465.8875
1253.8759	17939.2875
1257.42845	18567.5875
1260.97859	19233.5875
1264.52631	19873.1875
1268.07163	20542.9875
1271.61453	21237.9875
1275.15503	21946.7875
1278.69312	22658.1875
1282.22882	23178.9875
1285.76211	23818.1875
1289.29301	24468.6875
1292.82151	25260.5875
1296.34761	26318.6875
1299.87133	27829.4875
1303.39266	29922.6875
1306.9116	32773.5875
1310.42815	35765.4875
1313.94233	37663.4875
1317.45412	37492.3875
1320.96354	35766.2875
1324.47058	33750.2875
1327.97525	31983.1875
1331.47754	30845.5875
1334.97747	30321.6875
1338.47502	30280.8875
1341.97022	30482.6875
1345.46305	30488.6875
1348.95352	30576.5875
1352.44163	31146.2875
1355.92738	32695.5875
1359.41078	35591.3875
1362.89183	38624.3875
1366.37053	38100.4875
1369.84688	33703.6875
1373.32088	28840.5875
1376.79254	25576.1875
1380.26186	24044.9875
1383.72883	23345.9875
1387.19347	22901.9875
1390.65578	22483.2875
1394.11575	22282.7875
1397.57339	22514.5875
1401.0287	22989.5875
1404.48168	23452.1875
1407.93234	23774.6875
1411.38068	23840.1875
1414.82669	23482.1875
1418.27039	22723.7875
1421.71177	21841.3875
1425.15083	21054.0875
1428.58758	20625.7875
1432.02203	20671.3875
1435.45416	21026.5875
1438.88399	21398.2875
1442.31151	21625.3875
1445.73673	21845.6875
1449.15965	22110.2875
1452.58027	22325.1875
1455.9986	22303.5875
1459.41463	22396.3875
1462.82837	22673.5875
1466.23982	23103.5875
1469.64898	23537.4875
1473.05586	23818.3875
1476.46045	23884.3875
1479.86276	23929.9875
1483.26279	24031.4875
1486.66054	24261.5875
1490.05602	24653.0875
1493.44922	25160.7875
1496.84016	25834.4875
1500.22882	26957.3875
1503.61521	28631.9875
1506.99934	30739.2875
1510.38121	32617.2875
1513.76081	33198.6875
1517.13816	31920.3875
1520.51324	29220.0875
1523.88607	26650.4875
1527.25665	24971.2875
1530.62498	24063.7875
1533.99105	23557.7875
1537.35488	23267.4875
1540.71647	22944.2875
1544.07581	22650.9875
1547.4329	22330.6875
1550.78776	21975.6875
1554.14038	21775.2875
1557.49077	21707.3875
1560.83892	21797.0875
1564.18484	21985.3875
1567.52853	22194.1875
1570.86999	22482.8875
1574.20922	22745.0875
1577.54624	22837.7875
1580.88103	22456.1875
1584.2136	21962.7875
1587.54395	22169.3875
1590.87208	23218.2875
1594.19801	25079.9875
1597.52172	27110.4875
1600.84321	27978.7875
1604.16251	26956.8875
1607.47959	24711.2875
1610.79447	22183.3875
1614.10715	19961.9875
1617.41763	18259.9875
1620.7259	17133.5875
1624.03199	16619.2875
1627.33587	16649.0875
1630.63757	17223.1875
1633.93707	18365.5875
1637.23439	20112.7875
1640.52951	22556.1875
1643.82246	25417.0875
1647.11321	28027.7875
1650.40179	28993.9875
1653.68819	27357.1875
1656.97241	23590.9875
1660.25446	19676.3875
1663.53433	16866.5875
1666.81203	15131.2875
1670.08756	14146.5875
1673.36092	13519.9875
1676.63211	13105.6875
1679.90115	12869.1875
1683.16801	12644.2875
1686.43272	12495.5875
1689.69527	12310.9875
1692.95567	12203.6875
1696.2139	12040.9875
1699.46999	11912.7875
1702.72392	11841.9875
1705.97571	11894.3875
1709.22535	11980.6875
1712.47284	12014.3875
1715.71819	12025.4875
1718.96139	12028.9875
1722.20246	11992.7875
1725.44139	11917.7875
1728.67818	11838.2875
1731.91284	11771.1875
1735.14537	11724.4875
1738.37576	11639.2875
1741.60403	11588.4875
1744.83017	11533.2875
1748.05418	11494.2875
1751.27607	11421.9875
1754.49584	11358.6875
1757.71349	11286.3875
1760.92903	11240.5875
1764.14244	11240.5875
1767.35375	11223.8875
1770.56294	11192.5875
1773.77002	11232.4875
1776.97499	11256.6875
1780.17785	11297.1875
1783.37861	11295.2875
1786.57727	11287.1875
1789.77382	11296.7875
1792.96828	11309.0875
1796.16064	11298.0875
1799.3509	11276.9875
1802.53907	11247.4875
1805.72514	11228.3875
1808.90913	11189.6875
1812.09102	11151.4875
1815.27083	11158.5875
1818.44856	11145.8875
1821.6242	11119.3875
1824.79776	11109.5875
1827.96924	11105.9875
1831.13864	11069.6875
1834.30597	11081.1875
1837.47122	11089.2875
1840.6344	11085.6875
1843.7955	11082.1875
1846.95454	11080.4875
1850.11151	11079.0875
1853.26642	11037.3875
1856.41926	11073.1875
1859.57004	11079.6875
1862.71876	11076.3875
1865.86542	11072.1875
1869.01003	11091.0875
1872.15258	11066.4875
1875.29308	11063.5875
1878.43152	11096.5875
1881.56792	11136.2875
1884.70227	11092.8875
1887.83457	11085.2875
1890.96482	11064.1875
1894.09304	11064.6875
1897.21921	11067.2875
1900.34335	11082.3875
1903.46544	11065.8875
1906.58551	11068.4875
1909.70353	11052.1875
1912.81953	11053.6875
1915.93349	11037.0875
1919.04543	11020.2875
1922.15534	10990.9875
1925.26322	10951.1875
1928.36908	10913.9875
1931.47292	10873.0875
1934.57473	10837.1875
1937.67453	10805.2875
1940.77232	10793.3875
1943.86808	10748.8875
1946.96184	10716.5875
1950.05358	10707.6875
1953.14331	10629.4875
1956.23103	10584.9875
1959.31675	10540.6875
1962.40046	10532.1875
1965.48217	10518.5875
1968.56188	10505.0875
1971.63959	10511.1875
1974.7153	10455.0875
1977.78901	10409.4875
1980.86073	10361.3875
1983.93046	10326.7875
1986.99819	10283.1875
1990.06394	10272.5875
1993.1277	10247.9875
1996.18947	10210.1875
1999.24925	10163.1875
2002.30706	10128.3875
2005.36288	10123.5875
2008.41672	10108.7875
2011.46859	10068.4875
2014.51848	10033.8875
2017.56639	9998.0875
2020.61233	9986.1875
2023.6563	9964.5875
2026.6983	9954.6875
2029.73833	9916.9875
2032.7764	9897.3875
2035.8125	9876.9875
2038.84664	9903.7875
2041.87881	9893.9875
2044.90903	9860.4875
2047.93729	9840.3875
2050.96359	9825.4875
2053.98794	9825.8875
2057.01034	9816.3875
2060.03078	9804.0875
2063.04927	9803.4875
2066.06582	9758.1875
2069.08042	9768.3875
2072.09307	9777.0875
2075.10378	9745.7875
2078.11255	9740.4875
2081.11938	9751.2875
2084.12426	9734.0875
2087.12722	9737.6875
2090.12824	9742.8875
2093.12732	9747.6875
2096.12447	9730.5875
2099.11969	9735.3875
2102.11299	9732.5875
2105.10435	9729.3875
2108.09379	9723.3875
2111.08131	9737.8875
2114.0669	9753.8875
2117.05057	9754.5875
2120.03233	9760.7875
2123.01216	9763.4875
2125.99008	9799.3875
2128.96609	9795.3875
2131.94018	9805.3875
2134.91236	9796.0875
2137.88263	9802.0875
2140.851	9817.0875
2143.81746	9794.4875
2146.78201	9820.1875
2149.74466	9826.4875
2152.7054	9837.6875
2155.66425	9809.0875
2158.6212	9809.0875
2161.57625	9808.3875
2164.52941	9794.2875
2167.48067	9799.6875
2170.43004	9785.5875
2173.37752	9785.1875
2176.32311	9786.0875
2179.26681	9796.1875
2182.20863	9798.2875
2185.14856	9820.2875
2188.08661	9802.1875
2191.02278	9828.5875
2193.95707	9822.3875
2196.88948	9801.1875
2199.82001	9833.1875
2202.74867	9811.4875
2205.67545	9795.3875
2208.60037	9777.8875
2211.52341	9809.0875
2214.44458	9788.6875
2217.36388	9762.3875
2220.28132	9787.0875
2223.1969	9757.7875
2226.11061	9736.4875
2229.02246	9723.1875
2231.93245	9711.7875
2234.84058	9687.6875
2237.74686	9652.5875
2240.65128	9635.3875
2243.55385	9619.0875
2246.45456	9630.8875
2249.35343	9611.3875
2252.25044	9605.1875
2255.14561	9605.0875
2258.03893	9584.8875
2260.93041	9544.4875
2263.82004	9551.4875
2266.70783	9530.9875
2269.59378	9513.1875
2272.4779	9500.9875
2275.36017	9471.3875
2278.24061	9453.2875
2281.11922	9421.7875
2283.996	9451.0875
2286.87094	9431.1875
2289.74405	9384.3875
2292.61534	9395.0875
2295.4848	9419.1875
2298.35243	9403.5875
2301.21824	9382.5875
2304.08223	9397.5875
2306.94439	9417.9875
2309.80474	9441.3875
2312.66327	9428.9875
2315.51999	9430.0875
2318.37489	9433.5875
2321.22797	9454.5875
2324.07925	9438.8875
2326.92871	9432.8875
2329.77637	9405.2875
2332.62222	9408.5875
2335.46626	9382.6875
2338.3085	9400.4875
2341.14893	9427.9875
2343.98756	9441.1875
2346.8244	9453.0875
2349.65943	9468.5875
2352.49267	9457.6875
2355.32411	9485.1875
2358.15376	9482.3875
2360.98161	9457.1875
2363.80768	9449.0875
2366.63195	9444.1875
2369.45444	9419.9875
2372.27514	9366.6875
2375.09405	9359.3875
2377.91118	9366.0875
2380.72652	9312.6875
2383.54009	9281.2875
2386.35187	9276.5875
2389.16188	9253.7875
2391.97011	9235.8875
2394.77657	9243.3875
2397.58125	9212.7875
2400.38416	9215.5875
2403.18529	9200.5875
2405.98466	9173.0875
2408.78226	9159.0875
2411.57809	9124.0875
2414.37216	9113.2875
2417.16446	9112.6875
2419.955	9070.8875
2422.74378	9079.7875
2425.5308	9050.8875
2428.31606	9064.0875
2431.09956	9060.5875
2433.88131	9061.8875
2436.6613	9101.0875
2439.43954	9090.7875
2442.21603	9071.0875
2444.99077	9070.6875
2447.76377	9071.4875
2450.53501	9057.8875
2453.30451	9076.2875
2456.07226	9064.8875
2458.83827	9083.5875
2461.60254	9041.6875
2464.36507	9040.9875
2467.12586	9032.1875
2469.88492	9041.3875
2472.64224	9049.3875
2475.39782	9050.2875
2478.15167	9066.9875
2480.90379	9094.5875
2483.65417	9115.0875
2486.40283	9147.9875
2489.14976	9129.6875
2491.89497	9161.7875
2494.63845	9152.6875
2497.3802	9141.1875
2500.12024	9152.5875
2502.85855	9148.3875
2505.59514	9125.3875
2508.33002	9120.7875
2511.06318	9087.7875
2513.79462	9059.0875
2516.52435	9037.2875
2519.25237	9043.7875
2521.97867	9004.9875
2524.70327	9026.7875
2527.42616	9010.9875
2530.14734	9026.0875
2532.86681	8998.9875
2535.58458	9016.1875
2538.30065	8988.8875
2541.01501	9014.0875
2543.72768	9008.8875
2546.43864	9003.9875
2549.14791	8985.5875
2551.85548	9006.5875
2554.56136	8990.1875
2557.26554	8998.1875
2559.96803	8972.8875
2562.66883	8962.1875
2565.36794	8955.6875
2568.06536	8962.5875
2570.7611	8936.6875
2573.45514	8933.6875
2576.14751	8956.5875
2578.83819	8935.9875
2581.52719	8935.5875
2584.21451	8920.4875
2586.90015	8929.4875
2589.58411	8945.5875
2592.2664	8922.0875
2594.94701	8942.7875
2597.62594	8942.2875
2600.30321	8929.4875
2602.9788	8914.7875
2605.65273	8938.3875
2608.32498	8935.0875
2610.99557	8969.6875
2613.66449	8939.7875
2616.33175	8933.4875
2618.99734	8946.0875
2621.66128	8945.6875
2624.32355	8948.0875
2626.98416	8951.3875
2629.64311	8961.7875
2632.30041	8978.1875
2634.95605	8944.1875
2637.61004	8914.7875
2640.26238	8918.5875
2642.91306	8918.2875
2645.56209	8890.1875
2648.20948	8856.2875
2650.85521	8856.1875
2653.4993	8847.6875
2656.14175	8849.6875
2658.78255	8873.0875
2661.42171	8879.9875
2664.05923	8893.5875
2666.6951	8890.4875
2669.32934	8932.9875
2671.96194	8922.5875
2674.59291	8919.2875
2677.22224	8921.4875
2679.84993	8931.5875
2682.476	8923.7875
2685.10043	8909.1875
2687.72324	8920.6875
2690.34441	8905.8875
2692.96396	8889.9875
2695.58188	8881.0875
2698.19818	8872.0875
2700.81285	8872.3875
2703.4259	8813.4875
2706.03733	8750.8875
2708.64714	8796.8875
2711.25533	8858.5875
2713.86191	8862.3875
2716.46687	8902.8875
2719.07021	8934.3875
2721.67194	8940.5875
2724.27206	8912.7875
2726.87057	8940.0875
2729.46747	8911.2875
2732.06276	8912.4875
2734.65644	8897.7875
2737.24852	8932.0875
2739.83899	8908.2875
2742.42786	8930.5875
2745.01513	8904.0875
2747.60079	8908.5875
2750.18486	8895.8875
2752.76733	8895.1875
2755.3482	8891.3875
2757.92747	8899.1875
2760.50515	8850.0875
2763.08123	8870.0875
2765.65573	8857.3875
2768.22863	8869.2875
2770.79994	8855.0875
2773.36967	8866.5875
2775.9378	8878.2875
2778.50435	8874.1875
2781.06932	8889.9875
2783.6327	8882.6875
2786.1945	8882.0875
2788.75471	8871.3875
2791.31335	8841.2875
2793.87041	8816.0875
2796.42589	8799.7875
2798.97979	8808.9875
2801.53212	8801.4875
2804.08288	8786.8875
2806.63206	8794.7875
2809.17967	8790.1875
2811.72571	8757.6875
2814.27018	8757.9875
2816.81308	8728.1875
2819.35442	8739.0875
2821.89419	8743.4875
2824.43239	8744.8875
2826.96904	8725.1875
2829.50412	8736.1875
2832.03763	8731.4875
2834.56959	8713.3875
2837.1	8729.2875
2839.62884	8709.3875
2842.15613	8704.8875
2844.68186	8724.2875
2847.20604	8718.5875
2849.72867	8740.1875
2852.24974	8730.4875
2854.76927	8736.3875
2857.28724	8665.1875
2859.80367	8689.2875
2862.31855	8705.1875
2864.83189	8683.4875
2867.34368	8686.0875
2869.85393	8718.2875
2872.36264	8713.3875
2874.8698	8729.7875
2877.37543	8706.3875
2879.87952	8721.4875
2882.38207	8715.9875
2884.88308	8726.2875
2887.38256	8712.8875
2889.88051	8722.7875
2892.37692	8724.9875
2894.8718	8723.7875
2897.36515	8744.8875
2899.85698	8738.3875
2902.34727	8747.6875
2904.83604	8758.2875
2907.32328	8776.1875
2909.809	8775.7875
2912.29319	8809.7875
2914.77587	8814.9875
2917.25702	8798.4875
2919.73665	8764.7875
2922.21476	8782.7875
2924.69136	8760.2875
2927.16644	8742.4875
2929.64	8724.9875
2932.11205	8709.7875
2934.58258	8681.5875
2937.05161	8687.3875
2939.51912	8688.2875
2941.98513	8689.3875
2944.44962	8667.1875
2946.91261	8637.3875
2949.37409	8656.5875
2951.83407	8661.3875
2954.29254	8638.4875
2956.74951	8640.7875
2959.20498	8634.1875
2961.65895	8614.3875
2964.11142	8595.2875
2966.56239	8604.3875
2969.01186	8593.9875
2971.45984	8548.9875
2973.90632	8557.1875
2976.35131	8533.5875
2978.7948	8514.6875
2981.23681	8502.2875
2983.67732	8465.5875
2986.11635	8479.9875
2988.55388	8442.0875
2990.98993	8425.1875
2993.4245	8412.6875
2995.85758	8396.9875
2998.28917	8359.6875
3000.71928	8348.3875
3003.14791	8345.6875
3005.57506	8335.8875
3008.00073	8301.6875
3010.42493	8306.0875
3012.84764	8263.6875
3015.26888	8268.1875
3017.68865	8249.6875
3020.10694	8245.0875
3022.52376	8242.7875
3024.9391	8204.9875
3027.35298	8203.6875
3029.76539	8205.8875
3032.17632	8220.1875
3034.5858	8175.5875
3036.9938	8175.9875
3039.40034	8188.2875
3041.80542	8148.7875
3044.20903	8136.1875
3046.61118	8160.0875
3049.01187	8118.2875
3051.4111	8138.9875
3053.80888	8123.9875
3056.20519	8120.0875
3058.60005	8103.1875
3060.99345	8067.4875
3063.3854	8057.0875
3065.7759	8044.6875
3068.16494	8013.2875
