Data from AgNPs_FTO_APTES_UA_50uM_CRN_0uM_R6G_10uM_NaF_0.1M_Addition_RamanShift__7__10-18-24-625.txt Node

Date: Mon Feb 21 10:18:24 GMT 2022
User: TCL
Spectrometer: QEP01345
Trigger mode: 4
Integration Time (sec): 7.000000E0
Scans to average: 10
Electric dark correction enabled: true
Nonlinearity correction enabled: false
Boxcar width: 0
XAxis mode: Raman Shifts
Number of Pixels in Spectrum: 1044
>>>>>Begin Spectral Data<<<<<
46.04893	0.825
50.45542	0.125
54.85868	0.825
59.25871	-1.275
63.6555	27.425
68.04907	32.825
72.43941	30.625
76.82654	34.325
81.21044	34.025
85.59113	36.425
89.96862	38.225
94.34289	44.225
98.71396	41.425
103.08183	45.825
107.4465	44.825
111.80798	43.025
116.16626	43.725
120.52136	44.425
124.87327	47.725
129.222	46.125
133.56755	46.325
137.90993	51.625
142.24913	54.525
146.58517	55.625
150.91804	65.425
155.24774	74.925
159.57429	91.925
163.89768	112.825
168.21792	152.425
172.53501	198.325
176.84895	277.525
181.15975	376.225
185.46741	518.125
189.77193	728.225
194.07331	968.825
198.37157	1251.825
202.6667	1543.825
206.9587	1835.325
211.24758	2142.125
215.53334	2450.725
219.81599	2777.025
224.09553	3163.825
228.37195	3581.625
232.64527	4042.825
236.91549	4480.525
241.18261	4881.825
245.44663	5215.925
249.70755	5501.225
253.96539	5701.025
258.22014	5885.825
262.4718	6053.425
266.72039	6203.725
270.96589	6216.425
275.20832	6189.425
279.44768	6089.725
283.68397	5952.825
287.91719	5857.425
292.14735	5809.025
296.37445	5896.725
300.59849	6122.225
304.81948	6423.725
309.03742	6693.725
313.25231	6763.425
317.46415	6562.725
321.67296	6109.525
325.87872	5716.225
330.08145	5491.425
334.28114	5459.625
338.47781	5518.725
342.67145	5649.225
346.86207	5868.225
351.04966	6185.225
355.23424	6601.125
359.4158	6868.925
363.59435	6993.625
367.76989	7006.925
371.94243	6955.425
376.11196	6904.325
380.27849	6839.325
384.44203	6766.625
388.60257	6658.425
392.76012	6602.025
396.91468	6637.625
401.06626	6754.225
405.21485	6871.725
409.36047	6719.825
413.50311	6368.525
417.64277	5995.325
421.77947	5793.225
425.9132	5676.925
430.04396	5662.425
434.17176	5685.125
438.2966	5780.125
442.41849	5960.425
446.53742	6171.625
450.6534	6363.125
454.76644	6462.625
458.87653	6391.825
462.98368	6250.225
467.08789	6085.025
471.18916	5959.125
475.2875	5803.225
479.38291	5678.125
483.4754	5585.725
487.56496	5528.625
491.6516	5485.725
495.73531	5479.825
499.81612	5516.725
503.89401	5596.925
507.96899	5694.825
512.04106	5800.825
516.11023	5920.325
520.1765	6001.325
524.23987	6042.625
528.30034	5952.925
532.35792	5876.525
536.41261	5755.725
540.46441	5585.525
544.51333	5490.925
548.55936	5500.225
552.60252	5589.625
556.64279	5738.425
560.6802	5862.425
564.71473	5959.325
568.7464	6164.725
572.7752	6317.725
576.80114	6097.925
580.82422	5838.225
584.84444	5761.325
588.86181	5890.525
592.87633	6173.725
596.888	6356.825
600.89682	6307.325
604.9028	6676.825
608.90594	8423.025
612.90624	11166.225
616.90371	11196.225
620.89834	7829.525
624.89015	5993.625
628.87913	5620.925
632.86528	5657.225
636.84862	5763.025
640.82913	5724.325
644.80683	5490.925
648.78172	5285.125
652.75379	5284.925
656.72306	5486.625
660.68952	5782.825
664.65319	5738.125
668.61405	5439.225
672.57211	5260.825
676.52738	5268.525
680.47986	5278.325
684.42955	5232.225
688.37646	5155.125
692.32058	5157.825
696.26192	5198.525
700.20048	5221.125
704.13626	5266.425
708.06928	5258.625
711.99952	5240.425
715.927	5245.125
719.85171	5297.625
723.77365	5315.925
727.69284	5281.525
731.60928	5225.125
735.52295	5232.525
739.43388	5239.025
743.34206	5255.825
747.24749	5261.525
751.15017	5266.225
755.05012	5312.725
758.94733	5525.525
762.8418	6120.325
766.73354	7211.425
770.62254	8459.225
774.50882	9156.325
778.39237	8851.525
782.27321	7706.425
786.15132	6490.925
790.02671	5752.325
793.89938	5396.125
797.76935	5252.325
801.6366	5169.425
805.50115	5135.725
809.36299	5094.525
813.22213	5084.725
817.07857	5051.025
820.93231	5036.425
824.78336	5037.225
828.63172	5052.825
832.47738	5056.425
836.32036	5052.225
840.16066	5014.025
843.99827	4992.525
847.8332	4993.725
851.66546	4984.325
855.49504	4981.025
859.32195	4961.025
863.1462	4943.525
866.96777	4925.525
870.78668	4905.725
874.60293	4933.625
878.41652	4922.725
882.22745	4961.125
886.03573	4999.625
889.84136	4990.125
893.64433	4958.925
897.44466	4953.625
901.24235	4945.025
905.0374	4934.825
908.8298	4888.625
912.61957	4880.225
916.40671	4890.625
920.19121	4909.925
923.97308	4965.625
927.75233	5065.225
931.52895	5120.425
935.30295	5088.625
939.07433	4935.625
942.84309	4774.325
946.60924	4682.525
950.37278	4614.725
954.13371	4587.025
957.89203	4546.425
961.64774	4527.425
965.40086	4500.725
969.15137	4486.025
972.89929	4486.925
976.64461	4479.125
980.38733	4444.825
984.12747	4440.625
987.86502	4466.125
991.59999	4464.325
995.33237	4545.325
999.06217	4603.425
1002.78939	4693.525
1006.51404	4768.125
1010.23611	4851.725
1013.95561	4900.825
1017.67255	4866.425
1021.38692	4786.825
1025.09872	4687.225
1028.80796	4611.625
1032.51465	4568.225
1036.21877	4566.625
1039.92035	4595.225
1043.61937	4620.225
1047.31584	4656.525
1051.00976	4699.525
1054.70114	4707.025
1058.38998	4691.625
1062.07627	4699.425
1065.76003	4708.025
1069.44126	4687.025
1073.11995	4714.225
1076.79611	4764.525
1080.46974	4871.425
1084.14085	5029.425
1087.80943	5220.325
1091.47549	5290.025
1095.13903	5160.525
1098.80005	4958.825
1102.45857	4773.425
1106.11456	4715.525
1109.76805	4749.025
1113.41903	4871.925
1117.06751	5043.925
1120.71348	5297.425
1124.35696	5592.425
1127.99793	5852.025
1131.63641	5888.425
1135.2724	5553.125
1138.90589	5216.925
1142.5369	4981.025
1146.16542	4839.425
1149.79145	4756.925
1153.415	4702.925
1157.03607	4719.625
1160.65467	4788.625
1164.27079	4963.425
1167.88443	5255.925
1171.49561	5763.825
1175.10432	6639.225
1178.71056	7822.025
1182.31434	8729.525
1185.91565	8880.225
1189.51451	8461.225
1193.11091	7782.325
1196.70485	7089.825
1200.29634	6580.625
1203.88538	6154.125
1207.47197	5680.225
1211.05612	5264.425
1214.63782	5076.025
1218.21708	5044.025
1221.79391	5092.925
1225.36829	5137.125
1228.94024	5116.425
1232.50976	4990.125
1236.07685	4908.625
1239.6415	4861.925
1243.20374	4848.725
1246.76355	4830.025
1250.32093	4837.025
1253.8759	4921.125
1257.42845	5047.025
1260.97859	5232.925
1264.52631	5487.625
1268.07163	5715.525
1271.61453	5908.425
1275.15503	6069.525
1278.69312	6098.825
1282.22882	6146.625
1285.76211	6291.625
1289.29301	6594.725
1292.82151	6901.725
1296.34761	7217.325
1299.87133	7657.625
1303.39266	8377.225
1306.9116	9513.325
1310.42815	10920.425
1313.94233	11912.125
1317.45412	11706.225
1320.96354	10555.625
1324.47058	9219.525
1327.97525	8073.225
1331.47754	7387.125
1334.97747	7076.825
1338.47502	7028.725
1341.97022	7151.825
1345.46305	7450.025
1348.95352	8124.925
1352.44163	9119.825
1355.92738	10565.725
1359.41078	12571.925
1362.89183	14702.125
1366.37053	14717.225
1369.84688	12244.625
1373.32088	9482.425
1376.79254	7761.625
1380.26186	6895.125
1383.72883	6467.425
1387.19347	6111.325
1390.65578	5803.425
1394.11575	5594.725
1397.57339	5517.125
1401.0287	5546.925
1404.48168	5576.225
1407.93234	5571.725
1411.38068	5526.925
1414.82669	5483.925
1418.27039	5431.925
1421.71177	5375.025
1425.15083	5283.325
1428.58758	5210.725
1432.02203	5251.625
1435.45416	5345.825
1438.88399	5425.625
1442.31151	5413.525
1445.73673	5379.925
1449.15965	5405.325
1452.58027	5388.725
1455.9986	5291.225
1459.41463	5242.925
1462.82837	5283.025
1466.23982	5420.225
1469.64898	5585.325
1473.05586	5714.425
1476.46045	5769.825
1479.86276	5831.825
1483.26279	5948.425
1486.66054	6096.525
1490.05602	6291.025
1493.44922	6609.825
1496.84016	7104.525
1500.22882	7989.125
1503.61521	9238.725
1506.99934	10769.925
1510.38121	12347.425
1513.76081	13158.725
1517.13816	12517.025
1520.51324	10596.925
1523.88607	8638.225
1527.25665	7345.925
1530.62498	6630.525
1533.99105	6235.625
1537.35488	5952.225
1540.71647	5757.825
1544.07581	5635.025
1547.4329	5560.125
1550.78776	5526.725
1554.14038	5566.525
1557.49077	5658.125
1560.83892	5788.125
1564.18484	6037.125
1567.52853	6309.825
1570.86999	6603.425
1574.20922	6779.825
1577.54624	6778.325
1580.88103	6411.725
1584.2136	5743.625
1587.54395	5352.025
1590.87208	5328.025
1594.19801	5638.725
1597.52172	6211.325
1600.84321	6527.225
1604.16251	6328.925
1607.47959	5837.025
1610.79447	5263.125
1614.10715	4781.325
1617.41763	4394.325
1620.7259	4186.625
1624.03199	4073.925
1627.33587	4078.725
1630.63757	4172.025
1633.93707	4395.125
1637.23439	4819.925
1640.52951	5531.325
1643.82246	6613.225
1647.11321	7894.125
1650.40179	8791.825
1653.68819	8573.525
1656.97241	7178.525
1660.25446	5601.725
1663.53433	4511.725
1666.81203	3912.425
1670.08756	3591.425
1673.36092	3431.425
1676.63211	3328.525
1679.90115	3261.525
1683.16801	3213.725
1686.43272	3154.125
1689.69527	3091.725
1692.95567	3014.425
1696.2139	2889.425
1699.46999	2784.525
1702.72392	2736.225
1705.97571	2829.625
1709.22535	2917.325
1712.47284	2989.625
1715.71819	3029.225
1718.96139	3042.125
1722.20246	3038.325
1725.44139	3021.225
1728.67818	2981.925
1731.91284	2960.725
1735.14537	2934.925
1738.37576	2911.125
1741.60403	2889.125
1744.83017	2868.825
1748.05418	2829.925
1751.27607	2784.225
1754.49584	2735.125
1757.71349	2653.225
1760.92903	2609.225
1764.14244	2605.125
1767.35375	2603.225
1770.56294	2595.725
1773.77002	2609.525
1776.97499	2654.425
1780.17785	2707.525
1783.37861	2730.325
1786.57727	2736.325
1789.77382	2746.825
1792.96828	2746.325
1796.16064	2749.425
1799.3509	2751.625
1802.53907	2729.625
1805.72514	2724.025
1808.90913	2713.325
1812.09102	2709.725
1815.27083	2687.725
1818.44856	2677.325
1821.6242	2680.225
1824.79776	2669.325
1827.96924	2658.225
1831.13864	2663.125
1834.30597	2650.225
1837.47122	2657.825
1840.6344	2632.725
1843.7955	2624.425
1846.95454	2609.625
1850.11151	2604.925
1853.26642	2606.725
1856.41926	2594.325
1859.57004	2589.125
1862.71876	2585.025
1865.86542	2587.025
1869.01003	2587.425
1872.15258	2571.325
1875.29308	2568.225
1878.43152	2562.725
1881.56792	2553.525
1884.70227	2557.825
1887.83457	2556.125
1890.96482	2563.525
1894.09304	2547.825
1897.21921	2530.925
1900.34335	2532.625
1903.46544	2540.825
1906.58551	2526.825
1909.70353	2521.225
1912.81953	2528.425
1915.93349	2505.325
1919.04543	2500.625
1922.15534	2487.825
1925.26322	2479.225
1928.36908	2466.825
1931.47292	2451.425
1934.57473	2434.225
1937.67453	2425.325
1940.77232	2405.825
1943.86808	2404.025
1946.96184	2398.525
1950.05358	2385.025
1953.14331	2373.525
1956.23103	2366.725
1959.31675	2353.225
1962.40046	2356.925
1965.48217	2345.925
1968.56188	2338.225
1971.63959	2335.825
1974.7153	2346.925
1977.78901	2332.725
1980.86073	2304.025
1983.93046	2299.525
1986.99819	2282.525
1990.06394	2276.525
1993.1277	2262.425
1996.18947	2264.525
1999.24925	2235.125
2002.30706	2233.425
2005.36288	2231.625
2008.41672	2231.925
2011.46859	2213.825
2014.51848	2197.725
2017.56639	2191.825
2020.61233	2179.725
2023.6563	2182.225
2026.6983	2159.225
2029.73833	2154.925
2032.7764	2139.725
2035.8125	2133.225
2038.84664	2124.525
2041.87881	2127.225
2044.90903	2111.525
2047.93729	2105.625
2050.96359	2113.425
2053.98794	2098.625
2057.01034	2086.525
2060.03078	2089.125
2063.04927	2083.125
2066.06582	2082.325
2069.08042	2076.825
2072.09307	2079.725
2075.10378	2069.725
2078.11255	2074.425
2081.11938	2072.925
2084.12426	2075.625
2087.12722	2069.325
2090.12824	2073.125
2093.12732	2068.225
2096.12447	2055.125
2099.11969	2061.125
2102.11299	2055.825
2105.10435	2067.925
2108.09379	2055.325
2111.08131	2060.625
2114.0669	2066.225
2117.05057	2066.825
2120.03233	2055.525
2123.01216	2058.525
2125.99008	2058.025
2128.96609	2048.625
2131.94018	2052.825
2134.91236	2045.225
2137.88263	2044.025
2140.851	2046.925
2143.81746	2038.725
2146.78201	2036.725
2149.74466	2034.325
2152.7054	2023.925
2155.66425	2012.925
2158.6212	2014.525
2161.57625	2011.825
2164.52941	2009.425
2167.48067	2003.025
2170.43004	1996.325
2173.37752	1997.025
2176.32311	1994.525
2179.26681	1991.425
2182.20863	1987.625
2185.14856	2007.625
2188.08661	1991.225
2191.02278	1998.925
2193.95707	1991.525
2196.88948	1972.225
2199.82001	1983.125
2202.74867	1977.025
2205.67545	1972.225
2208.60037	1961.825
2211.52341	1956.525
2214.44458	1956.925
2217.36388	1943.725
2220.28132	1940.825
2223.1969	1921.925
2226.11061	1923.925
2229.02246	1920.625
2231.93245	1910.525
2234.84058	1905.125
2237.74686	1895.025
2240.65128	1895.825
2243.55385	1891.125
2246.45456	1900.325
2249.35343	1882.325
2252.25044	1889.925
2255.14561	1886.525
2258.03893	1870.025
2260.93041	1849.025
2263.82004	1864.725
2266.70783	1870.125
2269.59378	1862.925
2272.4779	1867.525
2275.36017	1860.525
2278.24061	1856.225
2281.11922	1849.825
2283.996	1849.225
2286.87094	1833.325
2289.74405	1820.625
2292.61534	1819.225
2295.4848	1810.425
2298.35243	1810.225
2301.21824	1806.325
2304.08223	1793.325
2306.94439	1793.925
2309.80474	1787.625
2312.66327	1794.925
2315.51999	1783.125
2318.37489	1785.625
2321.22797	1781.425
2324.07925	1769.925
2326.92871	1765.025
2329.77637	1778.125
2332.62222	1759.925
2335.46626	1754.225
2338.3085	1750.425
2341.14893	1744.925
2343.98756	1754.025
2346.8244	1749.825
2349.65943	1746.625
2352.49267	1742.425
2355.32411	1766.125
2358.15376	1761.225
2360.98161	1758.225
2363.80768	1773.925
2366.63195	1777.825
2369.45444	1774.225
2372.27514	1775.725
2375.09405	1765.525
2377.91118	1769.725
2380.72652	1755.425
2383.54009	1741.425
2386.35187	1735.925
2389.16188	1721.925
2391.97011	1712.125
2394.77657	1702.525
2397.58125	1692.825
2400.38416	1689.425
2403.18529	1685.325
2405.98466	1681.425
2408.78226	1676.125
2411.57809	1658.325
2414.37216	1667.825
2417.16446	1657.925
2419.955	1653.325
2422.74378	1652.225
2425.5308	1655.025
2428.31606	1649.825
2431.09956	1648.925
2433.88131	1649.125
2436.6613	1647.325
2439.43954	1666.625
2442.21603	1656.725
2444.99077	1653.425
2447.76377	1650.925
2450.53501	1653.025
2453.30451	1661.025
2456.07226	1649.325
2458.83827	1648.425
2461.60254	1648.625
2464.36507	1649.125
2467.12586	1632.625
2469.88492	1637.225
2472.64224	1633.325
2475.39782	1612.725
2478.15167	1608.425
2480.90379	1628.925
2483.65417	1639.125
2486.40283	1642.625
2489.14976	1654.125
2491.89497	1650.825
2494.63845	1627.725
2497.3802	1629.925
2500.12024	1646.425
2502.85855	1635.225
2505.59514	1632.125
2508.33002	1623.525
2511.06318	1613.625
2513.79462	1608.125
2516.52435	1591.725
2519.25237	1583.125
2521.97867	1572.325
2524.70327	1567.925
2527.42616	1562.925
2530.14734	1559.225
2532.86681	1560.325
2535.58458	1551.125
2538.30065	1552.425
2541.01501	1553.125
2543.72768	1548.225
2546.43864	1552.225
2549.14791	1545.225
2551.85548	1550.825
2554.56136	1547.625
2557.26554	1538.025
2559.96803	1533.625
2562.66883	1536.725
2565.36794	1525.525
2568.06536	1537.725
2570.7611	1522.725
2573.45514	1511.425
2576.14751	1517.725
2578.83819	1508.125
2581.52719	1507.525
2584.21451	1503.825
2586.90015	1500.625
2589.58411	1493.325
2592.2664	1477.525
2594.94701	1481.925
2597.62594	1486.425
2600.30321	1491.325
2602.9788	1484.525
2605.65273	1480.325
2608.32498	1480.525
2610.99557	1479.825
2613.66449	1488.825
2616.33175	1469.825
2618.99734	1477.025
2621.66128	1469.825
2624.32355	1459.425
2626.98416	1468.925
2629.64311	1459.025
2632.30041	1452.625
2634.95605	1454.325
2637.61004	1447.925
2640.26238	1443.525
2642.91306	1446.325
2645.56209	1427.325
2648.20948	1421.025
2650.85521	1417.625
2653.4993	1425.025
2656.14175	1427.625
2658.78255	1434.725
2661.42171	1427.525
2664.05923	1443.425
2666.6951	1433.525
2669.32934	1446.025
2671.96194	1442.725
2674.59291	1438.125
2677.22224	1448.125
2679.84993	1442.825
2682.476	1436.925
2685.10043	1442.125
2687.72324	1432.925
2690.34441	1436.425
2692.96396	1425.825
2695.58188	1432.425
2698.19818	1422.725
2700.81285	1413.825
2703.4259	1377.725
2706.03733	1286.525
2708.64714	1342.825
2711.25533	1395.225
2713.86191	1404.325
2716.46687	1409.525
2719.07021	1420.325
2721.67194	1432.825
2724.27206	1435.625
2726.87057	1431.425
2729.46747	1431.825
2732.06276	1433.525
2734.65644	1424.725
2737.24852	1426.525
2739.83899	1427.625
2742.42786	1419.025
2745.01513	1414.625
2747.60079	1422.825
2750.18486	1407.925
2752.76733	1408.825
2755.3482	1404.325
2757.92747	1402.725
2760.50515	1402.825
2763.08123	1404.525
2765.65573	1402.125
2768.22863	1393.825
2770.79994	1398.125
2773.36967	1393.625
2775.9378	1394.025
2778.50435	1397.425
2781.06932	1397.025
2783.6327	1394.625
2786.1945	1394.525
2788.75471	1391.325
2791.31335	1393.225
2793.87041	1400.825
2796.42589	1392.425
2798.97979	1399.325
2801.53212	1380.325
2804.08288	1381.725
2806.63206	1391.525
2809.17967	1388.925
2811.72571	1383.925
2814.27018	1397.925
2816.81308	1396.525
2819.35442	1393.325
2821.89419	1394.725
2824.43239	1405.325
2826.96904	1400.625
2829.50412	1401.725
2832.03763	1395.925
2834.56959	1402.025
2837.1	1407.225
2839.62884	1408.325
2842.15613	1412.525
2844.68186	1436.225
2847.20604	1455.825
2849.72867	1472.925
2852.24974	1481.325
2854.76927	1463.825
2857.28724	1447.825
2859.80367	1461.325
2862.31855	1480.125
2864.83189	1488.325
2867.34368	1495.325
2869.85393	1502.125
2872.36264	1503.725
2874.8698	1508.925
2877.37543	1511.525
2879.87952	1515.125
2882.38207	1512.125
2884.88308	1505.425
2887.38256	1516.625
2889.88051	1513.025
2892.37692	1516.225
2894.8718	1516.525
2897.36515	1516.725
2899.85698	1518.125
2902.34727	1515.125
2904.83604	1523.225
2907.32328	1512.925
2909.809	1512.425
2912.29319	1525.025
2914.77587	1525.925
2917.25702	1518.625
2919.73665	1523.425
2922.21476	1517.325
2924.69136	1516.925
2927.16644	1505.725
2929.64	1499.525
2932.11205	1490.325
2934.58258	1477.125
2937.05161	1475.825
2939.51912	1465.825
2941.98513	1455.825
2944.44962	1428.525
2946.91261	1414.325
2949.37409	1404.825
2951.83407	1396.425
2954.29254	1396.925
2956.74951	1383.225
2959.20498	1376.025
2961.65895	1368.125
2964.11142	1363.825
2966.56239	1359.725
2969.01186	1347.825
2971.45984	1339.025
2973.90632	1331.525
2976.35131	1318.125
2978.7948	1311.025
2981.23681	1306.225
2983.67732	1314.625
2986.11635	1297.125
2988.55388	1279.025
2990.98993	1283.725
2993.4245	1276.925
2995.85758	1270.625
2998.28917	1274.125
3000.71928	1269.825
3003.14791	1277.825
3005.57506	1271.425
3008.00073	1273.325
3010.42493	1269.225
3012.84764	1261.325
3015.26888	1260.325
3017.68865	1261.225
3020.10694	1256.325
3022.52376	1257.825
3024.9391	1254.525
3027.35298	1253.125
3029.76539	1249.325
3032.17632	1242.325
3034.5858	1245.125
3036.9938	1236.925
3039.40034	1247.125
3041.80542	1230.425
3044.20903	1226.225
3046.61118	1228.825
3049.01187	1231.825
3051.4111	1228.325
3053.80888	1233.425
3056.20519	1229.425
3058.60005	1236.125
3060.99345	1225.925
3063.3854	1229.825
3065.7759	1233.825
3068.16494	1231.425
3070.55254	1220.325
3072.93868	1219.825
3075.32338	1211.725
3077.70662	1221.625
3080.08842	1218.625
3082.46878	1211.625
3084.84769	1224.225
3087.22515	1230.625
3089.60118	1222.125
3091.97576	1225.625
3094.3489	1231.625
3096.72061	1230.925
3099.09087	1226.425
3101.4597	1230.225
3103.82709	1239.825
3106.19305	1235.925
3108.55757	1235.225
3110.92066	1236.525
3113.28232	1241.225
3115.64255	1240.125
3118.00134	1245.525
3120.35871	1244.225
3122.71466	1237.125
3125.06917	1244.525
3127.42226	1232.325
3129.77393	1247.725
3132.12417	1246.725
3134.47299	1254.825
3136.82039	1261.725
3139.16636	1258.625
3141.51092	1265.025
3143.85406	1271.525
3146.19579	1278.025
3148.53609	1281.425
3150.87499	1287.225
3153.21246	1292.725
3155.54853	1293.825
3157.88318	1296.325
3160.21642	1308.425
3162.54826	1308.125
3164.87868	1317.625
3167.2077	1312.725
3169.5353	1323.225
3171.86151	1325.425
3174.18631	1324.725
3176.5097	1321.425
3178.83169	1331.725
3181.15228	1330.825
3183.47147	1336.925
3185.78926	1338.225
3188.10565	1333.025
3190.42065	1347.725
3192.73424	1347.825
3195.04645	1342.925
3197.35725	1348.925
3199.66667	1361.825
3201.97469	1350.325
3204.28132	1355.125
3206.58656	1364.725
3208.8904	1373.325
3211.19287	1378.725
3213.49394	1376.625
3215.79363	1379.025
3218.09193	1379.925
3220.38884	1367.025
3222.68438	1340.025
3224.97853	1364.425
3227.2713	1379.425
3229.56269	1391.625
3231.8527	1391.525
3234.14133	1384.025
