Data from AgNPs_FTO_APTES_UA_50uM_CRN_200uM_R6G_10uM_NaF_0.1M_Addition_RamanShift__16__16-13-05-083.txt Node

Date: Mon Feb 21 16:13:05 GMT 2022
User: TCL
Spectrometer: QEP01345
Trigger mode: 4
Integration Time (sec): 7.000000E0
Scans to average: 10
Electric dark correction enabled: true
Nonlinearity correction enabled: false
Boxcar width: 0
XAxis mode: Raman Shifts
Number of Pixels in Spectrum: 1044
>>>>>Begin Spectral Data<<<<<
46.04893	-0.5625
50.45542	-0.3625
54.85868	-0.8625
59.25871	-1.5625
63.6555	51.1375
68.04907	54.2375
72.43941	57.7375
76.82654	59.5375
81.21044	63.1375
85.59113	69.5375
89.96862	67.7375
94.34289	71.6375
98.71396	74.3375
103.08183	78.0375
107.4465	78.2375
111.80798	78.0375
116.16626	75.3375
120.52136	81.3375
124.87327	84.5375
129.222	84.9375
133.56755	89.5375
137.90993	97.9375
142.24913	101.2375
146.58517	110.8375
150.91804	128.8375
155.24774	152.7375
159.57429	188.0375
163.89768	230.2375
168.21792	310.4375
172.53501	412.5375
176.84895	579.9375
181.15975	817.8375
185.46741	1148.4375
189.77193	1589.4375
194.07331	2120.5375
198.37157	2745.0375
202.6667	3393.4375
206.9587	4039.5375
211.24758	4678.5375
215.53334	5318.3375
219.81599	5985.4375
224.09553	6709.1375
228.37195	7529.2375
232.64527	8456.8375
236.91549	9378.5375
241.18261	10358.8375
245.44663	11237.0375
249.70755	11992.1375
253.96539	12632.2375
258.22014	13193.2375
262.4718	13623.1375
266.72039	13914.8375
270.96589	14065.3375
275.20832	14075.6375
279.44768	13936.0375
283.68397	13740.8375
287.91719	13565.0375
292.14735	13456.4375
296.37445	13444.5375
300.59849	13548.4375
304.81948	13653.4375
309.03742	13715.6375
313.25231	13619.0375
317.46415	13353.3375
321.67296	12963.5375
325.87872	12683.7375
330.08145	12528.1375
334.28114	12561.0375
338.47781	12662.4375
342.67145	12879.1375
346.86207	13116.1375
351.04966	13435.1375
355.23424	13746.7375
359.4158	14070.1375
363.59435	14263.5375
367.76989	14423.2375
371.94243	14515.1375
376.11196	14593.8375
380.27849	14643.6375
384.44203	14709.5375
388.60257	14767.0375
392.76012	14805.8375
396.91468	14928.9375
401.06626	15123.5375
405.21485	15210.1375
409.36047	15142.9375
413.50311	14833.1375
417.64277	14548.1375
421.77947	14360.3375
425.9132	14343.0375
430.04396	14353.3375
434.17176	14396.3375
438.2966	14556.4375
442.41849	14793.3375
446.53742	15076.2375
450.6534	15354.2375
454.76644	15563.4375
458.87653	15665.6375
462.98368	15640.0375
467.08789	15538.9375
471.18916	15397.0375
475.2875	15236.7375
479.38291	15065.9375
483.4754	14949.1375
487.56496	14825.3375
491.6516	14741.8375
495.73531	14692.0375
499.81612	14667.9375
503.89401	14828.2375
507.96899	14879.9375
512.04106	14945.1375
516.11023	15050.2375
520.1765	15041.4375
524.23987	15026.0375
528.30034	14948.9375
532.35792	14904.3375
536.41261	14817.2375
540.46441	14699.1375
544.51333	14600.6375
548.55936	14608.3375
552.60252	14755.6375
556.64279	14948.5375
560.6802	15016.7375
564.71473	15057.1375
568.7464	15148.4375
572.7752	15322.2375
576.80114	15348.0375
580.82422	15340.9375
584.84444	15431.8375
588.86181	15566.5375
592.87633	15759.6375
596.888	15910.1375
600.89682	15982.5375
604.9028	16664.3375
608.90594	18482.9375
612.90624	20638.2375
616.90371	19774.7375
620.89834	16606.7375
624.89015	15153.5375
628.87913	14935.9375
632.86528	15025.0375
636.84862	15146.1375
640.82913	15034.7375
644.80683	14776.5375
648.78172	14523.5375
652.75379	14492.8375
656.72306	14671.5375
660.68952	14956.2375
664.65319	14958.4375
668.61405	14726.2375
672.57211	14718.8375
676.52738	14824.6375
680.47986	14915.1375
684.42955	14815.4375
688.37646	14684.1375
692.32058	14590.6375
696.26192	14599.6375
700.20048	14673.9375
704.13626	14703.2375
708.06928	14657.8375
711.99952	14569.4375
715.927	14522.4375
719.85171	14537.3375
723.77365	14580.0375
727.69284	14552.0375
731.60928	14514.5375
735.52295	14519.7375
739.43388	14520.0375
743.34206	14506.1375
747.24749	14532.7375
751.15017	14514.6375
755.05012	14624.6375
758.94733	14901.0375
762.8418	15513.2375
766.73354	16612.2375
770.62254	17898.0375
774.50882	18538.8375
778.39237	18061.4375
782.27321	16757.0375
786.15132	15584.6375
790.02671	14856.6375
793.89938	14482.4375
797.76935	14327.7375
801.6366	14255.2375
805.50115	14214.1375
809.36299	14098.3375
813.22213	14056.6375
817.07857	13976.2375
820.93231	13939.9375
824.78336	13937.7375
828.63172	13955.7375
832.47738	13931.7375
836.32036	13939.3375
840.16066	13949.4375
843.99827	13921.7375
847.8332	13956.9375
851.66546	13914.2375
855.49504	13936.7375
859.32195	13969.9375
863.1462	14014.3375
866.96777	13987.6375
870.78668	13981.8375
874.60293	14009.4375
878.41652	14039.9375
882.22745	14076.5375
886.03573	14074.6375
889.84136	14065.5375
893.64433	14031.0375
897.44466	13966.7375
901.24235	13855.8375
905.0374	13805.2375
908.8298	13749.9375
912.61957	13694.5375
916.40671	13727.6375
920.19121	13797.0375
923.97308	13888.0375
927.75233	13939.3375
931.52895	13966.3375
935.30295	13905.3375
939.07433	13728.3375
942.84309	13540.6375
946.60924	13451.2375
950.37278	13408.0375
954.13371	13363.4375
957.89203	13307.8375
961.64774	13266.6375
965.40086	13235.3375
969.15137	13202.5375
972.89929	13117.4375
976.64461	13107.8375
980.38733	13132.2375
984.12747	13158.9375
987.86502	13245.3375
991.59999	13313.8375
995.33237	13460.7375
999.06217	13636.3375
1002.78939	13823.5375
1006.51404	13959.0375
1010.23611	14076.4375
1013.95561	14173.0375
1017.67255	14198.8375
1021.38692	14125.6375
1025.09872	14010.0375
1028.80796	13940.7375
1032.51465	14042.3375
1036.21877	14137.3375
1039.92035	14216.1375
1043.61937	14158.5375
1047.31584	14088.1375
1051.00976	14019.6375
1054.70114	13960.6375
1058.38998	13947.4375
1062.07627	13969.4375
1065.76003	14050.1375
1069.44126	14064.2375
1073.11995	14149.3375
1076.79611	14254.7375
1080.46974	14322.7375
1084.14085	14460.9375
1087.80943	14596.7375
1091.47549	14640.1375
1095.13903	14612.6375
1098.80005	14449.3375
1102.45857	14312.1375
1106.11456	14192.5375
1109.76805	14226.9375
1113.41903	14319.9375
1117.06751	14445.9375
1120.71348	14667.7375
1124.35696	14876.5375
1127.99793	15107.0375
1131.63641	15193.6375
1135.2724	15046.9375
1138.90589	14817.1375
1142.5369	14623.4375
1146.16542	14479.2375
1149.79145	14361.4375
1153.415	14310.7375
1157.03607	14366.6375
1160.65467	14544.7375
1164.27079	14879.9375
1167.88443	15386.9375
1171.49561	16055.9375
1175.10432	16969.4375
1178.71056	18222.8375
1182.31434	19357.2375
1185.91565	19862.8375
1189.51451	19762.2375
1193.11091	19188.4375
1196.70485	18423.7375
1200.29634	17699.6375
1203.88538	17101.9375
1207.47197	16502.1375
1211.05612	15962.5375
1214.63782	15630.5375
1218.21708	15460.2375
1221.79391	15442.7375
1225.36829	15463.4375
1228.94024	15416.5375
1232.50976	15290.7375
1236.07685	15163.2375
1239.6415	15102.2375
1243.20374	15134.0375
1246.76355	15190.4375
1250.32093	15301.2375
1253.8759	15508.6375
1257.42845	15738.2375
1260.97859	16036.8375
1264.52631	16308.9375
1268.07163	16636.9375
1271.61453	16974.1375
1275.15503	17332.0375
1278.69312	17571.6375
1282.22882	17782.2375
1285.76211	18002.9375
1289.29301	18285.8375
1292.82151	18706.5375
1296.34761	19229.0375
1299.87133	19952.9375
1303.39266	20885.7375
1306.9116	22115.9375
1310.42815	23415.9375
1313.94233	24209.6375
1317.45412	23994.4375
1320.96354	23144.1375
1324.47058	22257.5375
1327.97525	21323.8375
1331.47754	20745.8375
1334.97747	20440.0375
1338.47502	20426.4375
1341.97022	20670.0375
1345.46305	21061.8375
1348.95352	21668.4375
1352.44163	22496.1375
1355.92738	23609.2375
1359.41078	25101.9375
1362.89183	26460.1375
1366.37053	25937.0375
1369.84688	23426.0375
1373.32088	20595.7375
1376.79254	18758.5375
1380.26186	17914.1375
1383.72883	17444.3375
1387.19347	17136.6375
1390.65578	16718.8375
1394.11575	16502.9375
1397.57339	16443.2375
1401.0287	16486.3375
1404.48168	16548.3375
1407.93234	16591.5375
1411.38068	16571.4375
1414.82669	16442.6375
1418.27039	16256.2375
1421.71177	16042.2375
1425.15083	15790.0375
1428.58758	15615.1375
1432.02203	15595.3375
1435.45416	15739.3375
1438.88399	15909.1375
1442.31151	16051.0375
1445.73673	16130.0375
1449.15965	16259.3375
1452.58027	16312.7375
1455.9986	16348.7375
1459.41463	16419.5375
1462.82837	16594.2375
1466.23982	16870.7375
1469.64898	17098.3375
1473.05586	17316.3375
1476.46045	17422.4375
1479.86276	17457.9375
1483.26279	17489.6375
1486.66054	17532.6375
1490.05602	17703.0375
1493.44922	18043.2375
1496.84016	18516.5375
1500.22882	19349.2375
1503.61521	20533.6375
1506.99934	21922.1375
1510.38121	23025.2375
1513.76081	23309.1375
1517.13816	22447.0375
1520.51324	20867.6375
1523.88607	19372.7375
1527.25665	18386.9375
1530.62498	17878.3375
1533.99105	17534.3375
1537.35488	17327.5375
1540.71647	17148.3375
1544.07581	16986.6375
1547.4329	16864.0375
1550.78776	16748.6375
1554.14038	16727.0375
1557.49077	16732.2375
1560.83892	16839.3375
1564.18484	16991.3375
1567.52853	17224.7375
1570.86999	17379.8375
1574.20922	17570.1375
1577.54624	17513.2375
1580.88103	17190.0375
1584.2136	16688.7375
1587.54395	16467.8375
1590.87208	16636.3375
1594.19801	17225.9375
1597.52172	18040.8375
1600.84321	18454.8375
1604.16251	18161.4375
1607.47959	17453.4375
1610.79447	16628.0375
1614.10715	15782.1375
1617.41763	15003.9375
1620.7259	14455.1375
1624.03199	14110.3375
1627.33587	14053.0375
1630.63757	14175.2375
1633.93707	14617.4375
1637.23439	15375.9375
1640.52951	16473.8375
1643.82246	17886.2375
1647.11321	19272.9375
1650.40179	19944.9375
1653.68819	19249.8375
1656.97241	17475.9375
1660.25446	15594.0375
1663.53433	14224.2375
1666.81203	13328.6375
1670.08756	12835.4375
1673.36092	12532.1375
1676.63211	12332.8375
1679.90115	12188.4375
1683.16801	12077.1375
1686.43272	11945.7375
1689.69527	11852.4375
1692.95567	11737.6375
1696.2139	11598.5375
1699.46999	11477.5375
1702.72392	11452.2375
1705.97571	11472.7375
1709.22535	11563.9375
1712.47284	11613.6375
1715.71819	11645.8375
1718.96139	11623.1375
1722.20246	11618.6375
1725.44139	11554.2375
1728.67818	11511.7375
1731.91284	11483.2375
1735.14537	11420.8375
1738.37576	11381.6375
1741.60403	11344.4375
1744.83017	11310.8375
1748.05418	11289.7375
1751.27607	11275.3375
1754.49584	11215.0375
1757.71349	11167.4375
1760.92903	11114.7375
1764.14244	11078.0375
1767.35375	11046.5375
1770.56294	11007.0375
1773.77002	10998.6375
1776.97499	10996.6375
1780.17785	11042.2375
1783.37861	11052.9375
1786.57727	11034.2375
1789.77382	11000.9375
1792.96828	10971.5375
1796.16064	10967.7375
1799.3509	10957.2375
1802.53907	10916.0375
1805.72514	10891.2375
1808.90913	10876.7375
1812.09102	10851.4375
1815.27083	10841.9375
1818.44856	10796.3375
1821.6242	10797.3375
1824.79776	10792.2375
1827.96924	10760.2375
1831.13864	10753.6375
1834.30597	10750.1375
1837.47122	10737.3375
1840.6344	10733.4375
1843.7955	10713.7375
1846.95454	10676.0375
1850.11151	10713.3375
1853.26642	10698.1375
1856.41926	10677.6375
1859.57004	10679.1375
1862.71876	10627.8375
1865.86542	10642.4375
1869.01003	10635.1375
1872.15258	10624.4375
1875.29308	10598.3375
1878.43152	10614.4375
1881.56792	10606.5375
1884.70227	10574.1375
1887.83457	10565.7375
1890.96482	10578.5375
1894.09304	10525.5375
1897.21921	10520.3375
1900.34335	10500.6375
1903.46544	10481.9375
1906.58551	10484.7375
1909.70353	10485.9375
1912.81953	10450.0375
1915.93349	10431.6375
1919.04543	10416.9375
1922.15534	10406.0375
1925.26322	10406.2375
1928.36908	10383.3375
1931.47292	10371.3375
1934.57473	10317.4375
1937.67453	10303.5375
1940.77232	10269.6375
1943.86808	10252.2375
1946.96184	10223.9375
1950.05358	10196.9375
1953.14331	10159.2375
1956.23103	10135.0375
1959.31675	10102.0375
1962.40046	10095.0375
1965.48217	10061.6375
1968.56188	10010.9375
1971.63959	9983.2375
1974.7153	9966.7375
1977.78901	9952.3375
1980.86073	9899.2375
1983.93046	9879.7375
1986.99819	9852.8375
1990.06394	9816.4375
1993.1277	9801.6375
1996.18947	9767.0375
1999.24925	9751.2375
2002.30706	9703.4375
2005.36288	9656.1375
2008.41672	9647.6375
2011.46859	9629.4375
2014.51848	9594.2375
2017.56639	9590.0375
2020.61233	9545.5375
2023.6563	9516.1375
2026.6983	9501.1375
2029.73833	9471.0375
2032.7764	9432.2375
2035.8125	9405.6375
2038.84664	9395.5375
2041.87881	9395.2375
2044.90903	9373.6375
2047.93729	9339.1375
2050.96359	9337.2375
2053.98794	9341.1375
2057.01034	9316.0375
2060.03078	9316.6375
2063.04927	9299.6375
2066.06582	9290.6375
2069.08042	9286.7375
2072.09307	9290.4375
2075.10378	9267.9375
2078.11255	9267.8375
2081.11938	9261.3375
2084.12426	9270.0375
2087.12722	9254.6375
2090.12824	9246.3375
2093.12732	9221.8375
2096.12447	9256.0375
2099.11969	9274.5375
2102.11299	9255.1375
2105.10435	9250.8375
2108.09379	9254.8375
2111.08131	9260.0375
2114.0669	9252.2375
2117.05057	9249.0375
2120.03233	9276.4375
2123.01216	9280.4375
2125.99008	9287.3375
2128.96609	9299.7375
2131.94018	9297.3375
2134.91236	9304.7375
2137.88263	9302.6375
2140.851	9317.6375
2143.81746	9329.9375
2146.78201	9314.6375
2149.74466	9319.8375
2152.7054	9322.6375
2155.66425	9320.5375
2158.6212	9318.0375
2161.57625	9297.4375
2164.52941	9307.9375
2167.48067	9297.9375
2170.43004	9278.6375
2173.37752	9320.4375
2176.32311	9306.9375
2179.26681	9287.7375
2182.20863	9274.1375
2185.14856	9279.6375
2188.08661	9298.7375
2191.02278	9276.2375
2193.95707	9264.8375
2196.88948	9270.0375
2199.82001	9269.6375
2202.74867	9277.4375
2205.67545	9273.8375
2208.60037	9249.4375
2211.52341	9204.3375
2214.44458	9208.9375
2217.36388	9195.1375
2220.28132	9168.8375
2223.1969	9156.8375
2226.11061	9137.0375
2229.02246	9111.4375
2231.93245	9094.3375
2234.84058	9077.6375
2237.74686	9055.6375
2240.65128	9041.2375
2243.55385	9023.9375
2246.45456	9049.8375
2249.35343	9018.7375
2252.25044	8999.7375
2255.14561	8994.2375
2258.03893	8978.1375
2260.93041	8933.9375
2263.82004	8948.0375
2266.70783	8945.5375
2269.59378	8911.9375
2272.4779	8901.4375
2275.36017	8866.4375
2278.24061	8861.1375
2281.11922	8849.9375
2283.996	8841.2375
2286.87094	8809.3375
2289.74405	8782.6375
2292.61534	8788.0375
2295.4848	8768.6375
2298.35243	8759.9375
2301.21824	8769.8375
2304.08223	8750.8375
2306.94439	8756.4375
2309.80474	8757.1375
2312.66327	8753.0375
2315.51999	8720.7375
2318.37489	8736.1375
2321.22797	8704.4375
2324.07925	8687.5375
2326.92871	8679.3375
2329.77637	8691.3375
2332.62222	8638.2375
2335.46626	8646.3375
2338.3085	8644.7375
2341.14893	8622.8375
2343.98756	8626.0375
2346.8244	8612.7375
2349.65943	8635.2375
2352.49267	8620.3375
2355.32411	8622.6375
2358.15376	8607.4375
2360.98161	8606.7375
2363.80768	8587.5375
2366.63195	8581.9375
2369.45444	8573.8375
2372.27514	8579.8375
2375.09405	8551.5375
2377.91118	8569.7375
2380.72652	8517.7375
2383.54009	8511.3375
2386.35187	8493.3375
2389.16188	8441.8375
2391.97011	8451.6375
2394.77657	8443.7375
2397.58125	8399.5375
2400.38416	8392.9375
2403.18529	8385.4375
2405.98466	8356.1375
2408.78226	8326.9375
2411.57809	8327.0375
2414.37216	8318.4375
2417.16446	8323.2375
2419.955	8328.1375
2422.74378	8306.5375
2425.5308	8292.8375
2428.31606	8295.0375
2431.09956	8287.3375
2433.88131	8270.4375
2436.6613	8274.7375
2439.43954	8253.0375
2442.21603	8274.6375
2444.99077	8264.2375
2447.76377	8263.5375
2450.53501	8278.6375
2453.30451	8242.7375
2456.07226	8252.1375
2458.83827	8214.7375
2461.60254	8236.0375
2464.36507	8203.3375
2467.12586	8207.1375
2469.88492	8197.5375
2472.64224	8204.7375
2475.39782	8162.8375
2478.15167	8169.2375
2480.90379	8175.1375
2483.65417	8166.8375
2486.40283	8204.8375
2489.14976	8212.0375
2491.89497	8191.8375
2494.63845	8188.3375
2497.3802	8155.8375
2500.12024	8173.4375
2502.85855	8171.6375
2505.59514	8159.8375
2508.33002	8138.6375
2511.06318	8122.0375
2513.79462	8117.7375
2516.52435	8119.9375
2519.25237	8087.0375
2521.97867	8071.5375
2524.70327	8061.5375
2527.42616	8049.9375
2530.14734	8057.0375
2532.86681	8034.1375
2535.58458	8041.1375
2538.30065	8030.1375
2541.01501	8022.7375
2543.72768	8002.0375
2546.43864	7965.8375
2549.14791	7983.9375
2551.85548	7961.2375
2554.56136	7943.3375
2557.26554	7948.2375
2559.96803	7941.3375
2562.66883	7932.5375
2565.36794	7916.1375
2568.06536	7895.9375
2570.7611	7901.4375
2573.45514	7866.8375
2576.14751	7878.2375
2578.83819	7861.9375
2581.52719	7827.4375
2584.21451	7834.0375
2586.90015	7818.4375
2589.58411	7808.3375
2592.2664	7811.8375
2594.94701	7795.4375
2597.62594	7773.4375
2600.30321	7749.9375
2602.9788	7746.7375
2605.65273	7742.1375
2608.32498	7752.6375
2610.99557	7707.2375
2613.66449	7702.7375
2616.33175	7716.0375
2618.99734	7695.0375
2621.66128	7701.3375
2624.32355	7682.3375
2626.98416	7694.6375
2629.64311	7684.6375
2632.30041	7699.7375
2634.95605	7660.2375
2637.61004	7642.7375
2640.26238	7646.5375
2642.91306	7649.5375
2645.56209	7627.4375
2648.20948	7615.5375
2650.85521	7618.8375
2653.4993	7611.1375
2656.14175	7594.9375
2658.78255	7605.3375
2661.42171	7604.9375
2664.05923	7624.3375
2666.6951	7628.5375
2669.32934	7620.0375
2671.96194	7617.7375
2674.59291	7611.2375
2677.22224	7604.4375
2679.84993	7603.6375
2682.476	7594.5375
2685.10043	7597.8375
2687.72324	7599.7375
2690.34441	7588.3375
2692.96396	7606.8375
2695.58188	7587.0375
2698.19818	7579.9375
2700.81285	7589.4375
2703.4259	7554.7375
2706.03733	7500.5375
2708.64714	7529.7375
2711.25533	7580.8375
2713.86191	7559.4375
2716.46687	7567.3375
2719.07021	7582.0375
2721.67194	7576.2375
2724.27206	7586.3375
2726.87057	7573.3375
2729.46747	7587.3375
2732.06276	7609.6375
2734.65644	7574.0375
2737.24852	7564.8375
2739.83899	7566.0375
2742.42786	7565.4375
2745.01513	7546.3375
2747.60079	7554.2375
2750.18486	7540.1375
2752.76733	7528.5375
2755.3482	7504.6375
2757.92747	7533.6375
2760.50515	7483.4375
2763.08123	7511.7375
2765.65573	7481.9375
2768.22863	7483.2375
2770.79994	7458.7375
2773.36967	7471.0375
2775.9378	7445.9375
2778.50435	7460.8375
2781.06932	7443.3375
2783.6327	7441.9375
2786.1945	7434.2375
2788.75471	7435.7375
2791.31335	7424.7375
2793.87041	7394.5375
2796.42589	7373.0375
2798.97979	7387.7375
2801.53212	7358.3375
2804.08288	7344.0375
2806.63206	7331.9375
2809.17967	7294.2375
2811.72571	7295.4375
2814.27018	7291.1375
2816.81308	7278.4375
2819.35442	7280.6375
2821.89419	7294.8375
2824.43239	7273.1375
2826.96904	7267.7375
2829.50412	7233.6375
2832.03763	7258.4375
2834.56959	7220.3375
2837.1	7224.8375
2839.62884	7234.7375
2842.15613	7236.7375
2844.68186	7261.0375
2847.20604	7239.1375
2849.72867	7256.5375
2852.24974	7244.0375
2854.76927	7232.3375
2857.28724	7202.5375
2859.80367	7208.6375
2862.31855	7196.3375
2864.83189	7219.6375
2867.34368	7192.0375
2869.85393	7205.4375
2872.36264	7194.8375
2874.8698	7193.8375
2877.37543	7183.8375
2879.87952	7194.9375
2882.38207	7187.2375
2884.88308	7182.9375
2887.38256	7223.5375
2889.88051	7190.1375
2892.37692	7183.5375
2894.8718	7194.7375
2897.36515	7226.1375
2899.85698	7209.4375
2902.34727	7213.5375
2904.83604	7204.1375
2907.32328	7228.5375
2909.809	7237.8375
2912.29319	7249.5375
2914.77587	7244.2375
2917.25702	7237.6375
2919.73665	7255.3375
2922.21476	7247.9375
2924.69136	7235.3375
2927.16644	7234.3375
2929.64	7223.5375
2932.11205	7229.3375
2934.58258	7213.5375
2937.05161	7221.1375
2939.51912	7230.1375
2941.98513	7207.8375
2944.44962	7203.7375
2946.91261	7178.2375
2949.37409	7185.5375
2951.83407	7196.1375
2954.29254	7160.2375
2956.74951	7155.6375
2959.20498	7147.6375
2961.65895	7151.2375
2964.11142	7140.2375
2966.56239	7112.6375
2969.01186	7077.6375
2971.45984	7083.4375
2973.90632	7070.2375
2976.35131	7048.0375
2978.7948	7028.0375
2981.23681	7024.7375
2983.67732	6996.4375
2986.11635	7001.1375
2988.55388	6979.8375
2990.98993	6978.0375
2993.4245	6953.9375
2995.85758	6931.8375
2998.28917	6917.0375
3000.71928	6910.3375
3003.14791	6887.1375
3005.57506	6886.7375
3008.00073	6887.8375
3010.42493	6881.3375
3012.84764	6890.2375
3015.26888	6863.9375
3017.68865	6852.7375
3020.10694	6830.9375
3022.52376	6831.1375
3024.9391	6812.6375
3027.35298	6814.0375
3029.76539	6788.7375
3032.17632	6787.4375
3034.5858	6784.4375
3036.9938	6754.7375
3039.40034	6762.2375
3041.80542	6761.4375
3044.20903	6745.7375
3046.61118	6750.6375
3049.01187	6726.6375
3051.4111	6733.7375
3053.80888	6731.1375
3056.20519	6686.5375
3058.60005	6687.1375
3060.99345	6691.7375
3063.3854	6680.7375
3065.7759	6644.5375
3068.16494	6652.7375
3070.55254	6630.8375
