Data from AgNPs_FTO_APTES_UA_50uM_CRN_0uM_R6G_10uM_NaF_0.1M_Addition_RamanShift__26__10-40-34-655.txt Node

Date: Mon Feb 21 10:40:34 GMT 2022
User: TCL
Spectrometer: QEP01345
Trigger mode: 4
Integration Time (sec): 7.000000E0
Scans to average: 10
Electric dark correction enabled: true
Nonlinearity correction enabled: false
Boxcar width: 0
XAxis mode: Raman Shifts
Number of Pixels in Spectrum: 1044
>>>>>Begin Spectral Data<<<<<
46.04893	-0.775
50.45542	-0.275
54.85868	-1.175
59.25871	-0.575
63.6555	46.025
68.04907	49.525
72.43941	47.225
76.82654	53.425
81.21044	55.325
85.59113	59.325
89.96862	60.125
94.34289	63.325
98.71396	63.725
103.08183	69.025
107.4465	68.525
111.80798	68.825
116.16626	69.525
120.52136	68.125
124.87327	77.025
129.222	73.025
133.56755	76.525
137.90993	84.125
142.24913	87.625
146.58517	101.625
150.91804	114.425
155.24774	132.925
159.57429	161.725
163.89768	202.325
168.21792	268.725
172.53501	362.625
176.84895	512.525
181.15975	704.025
185.46741	991.625
189.77193	1363.425
194.07331	1825.325
198.37157	2349.525
202.6667	2893.025
206.9587	3455.025
211.24758	3979.125
215.53334	4526.425
219.81599	5091.825
224.09553	5743.925
228.37195	6427.625
232.64527	7213.725
236.91549	8027.425
241.18261	8821.125
245.44663	9558.125
249.70755	10212.325
253.96539	10799.025
258.22014	11253.825
262.4718	11599.425
266.72039	11847.125
270.96589	11963.025
275.20832	11941.625
279.44768	11808.125
283.68397	11636.625
287.91719	11477.125
292.14735	11341.425
296.37445	11341.125
300.59849	11400.225
304.81948	11424.125
309.03742	11523.125
313.25231	11532.925
317.46415	11440.225
321.67296	11321.425
325.87872	11213.825
330.08145	11132.125
334.28114	11099.125
338.47781	11134.325
342.67145	11273.425
346.86207	11463.825
351.04966	11663.025
355.23424	11914.725
359.4158	12130.325
363.59435	12248.425
367.76989	12345.425
371.94243	12387.825
376.11196	12401.225
380.27849	12420.525
384.44203	12470.525
388.60257	12550.925
392.76012	12655.425
396.91468	12769.525
401.06626	12979.325
405.21485	13100.325
409.36047	13069.825
413.50311	12915.925
417.64277	12905.625
421.77947	12956.525
425.9132	12987.725
430.04396	13017.825
434.17176	13091.925
438.2966	13172.225
442.41849	13411.225
446.53742	13824.625
450.6534	14189.725
454.76644	14449.625
458.87653	14513.125
462.98368	14377.825
467.08789	14124.425
471.18916	13854.425
475.2875	13521.625
479.38291	13294.625
483.4754	13150.725
487.56496	13063.125
491.6516	12986.525
495.73531	12911.625
499.81612	12912.125
503.89401	13011.925
507.96899	13061.725
512.04106	12985.425
516.11023	12914.525
520.1765	12803.925
524.23987	12788.725
528.30034	12728.825
532.35792	12685.125
536.41261	12552.125
540.46441	12354.025
544.51333	12277.525
548.55936	12334.425
552.60252	12541.725
556.64279	12854.625
560.6802	13128.925
564.71473	13257.525
568.7464	13408.525
572.7752	13722.125
576.80114	14123.625
580.82422	14617.925
584.84444	15384.425
588.86181	16543.725
592.87633	17777.325
596.888	17950.425
600.89682	16764.225
604.9028	15889.525
608.90594	16421.725
612.90624	17420.025
616.90371	16558.725
620.89834	14193.925
624.89015	13061.425
628.87913	12921.525
632.86528	13014.425
636.84862	12969.725
640.82913	12734.425
644.80683	12408.025
648.78172	12251.125
652.75379	12289.925
656.72306	12465.825
660.68952	12638.325
664.65319	12587.725
668.61405	12340.925
672.57211	12340.725
676.52738	12444.725
680.47986	12453.625
684.42955	12322.825
688.37646	12268.625
692.32058	12329.725
696.26192	12555.325
700.20048	12760.325
704.13626	12871.925
708.06928	12821.525
711.99952	12808.225
715.927	12862.225
719.85171	12950.925
723.77365	12862.825
727.69284	12647.625
731.60928	12450.025
735.52295	12393.325
739.43388	12415.825
743.34206	12452.925
747.24749	12528.725
751.15017	12629.825
755.05012	12811.725
758.94733	13137.225
762.8418	13668.225
766.73354	14500.925
770.62254	15362.825
774.50882	15515.925
778.39237	14975.525
782.27321	14073.125
786.15132	13379.225
790.02671	12846.625
793.89938	12625.825
797.76935	12516.625
801.6366	12486.225
805.50115	12445.725
809.36299	12422.625
813.22213	12354.925
817.07857	12281.025
820.93231	12184.525
824.78336	12143.325
828.63172	12114.125
832.47738	12100.525
836.32036	12096.425
840.16066	12117.025
843.99827	12147.725
847.8332	12159.925
851.66546	12125.025
855.49504	12166.025
859.32195	12165.425
863.1462	12142.825
866.96777	12118.625
870.78668	12095.025
874.60293	12105.325
878.41652	12151.425
882.22745	12212.625
886.03573	12231.025
889.84136	12251.725
893.64433	12186.525
897.44466	12157.625
901.24235	12126.325
905.0374	12072.325
908.8298	12014.625
912.61957	12015.325
916.40671	12089.325
920.19121	12259.525
923.97308	12397.525
927.75233	12512.325
931.52895	12446.325
935.30295	12196.325
939.07433	12008.025
942.84309	11861.225
946.60924	11750.325
950.37278	11734.825
954.13371	11759.425
957.89203	11721.225
961.64774	11696.625
965.40086	11740.025
969.15137	11713.425
972.89929	11692.225
976.64461	11684.225
980.38733	11705.225
984.12747	11705.325
987.86502	11793.125
991.59999	11858.325
995.33237	11947.325
999.06217	12173.125
1002.78939	12441.225
1006.51404	12706.825
1010.23611	12957.425
1013.95561	13099.625
1017.67255	13147.625
1021.38692	12991.225
1025.09872	12785.025
1028.80796	12620.125
1032.51465	12638.625
1036.21877	12721.825
1039.92035	12781.625
1043.61937	12786.025
1047.31584	12763.425
1051.00976	12665.325
1054.70114	12621.925
1058.38998	12632.925
1062.07627	12682.725
1065.76003	12776.425
1069.44126	12898.525
1073.11995	13187.425
1076.79611	13412.225
1080.46974	13546.525
1084.14085	13665.225
1087.80943	13809.025
1091.47549	13910.625
1095.13903	13896.825
1098.80005	13657.025
1102.45857	13306.625
1106.11456	13078.625
1109.76805	12983.425
1113.41903	12999.725
1117.06751	13051.825
1120.71348	13163.525
1124.35696	13311.925
1127.99793	13451.025
1131.63641	13523.525
1135.2724	13510.725
1138.90589	13460.125
1142.5369	13465.725
1146.16542	13567.725
1149.79145	13671.425
1153.415	13732.725
1157.03607	13854.425
1160.65467	14162.925
1164.27079	14743.025
1167.88443	15411.825
1171.49561	16159.225
1175.10432	17143.925
1178.71056	18457.525
1182.31434	19661.525
1185.91565	20162.525
1189.51451	19836.925
1193.11091	19205.525
1196.70485	18528.125
1200.29634	17908.125
1203.88538	17444.025
1207.47197	17165.025
1211.05612	16950.625
1214.63782	16707.225
1218.21708	16370.025
1221.79391	16058.525
1225.36829	15886.925
1228.94024	15834.625
1232.50976	15605.425
1236.07685	15266.025
1239.6415	15010.825
1243.20374	14918.925
1246.76355	14971.925
1250.32093	15136.425
1253.8759	15434.425
1257.42845	15844.125
1260.97859	16280.225
1264.52631	16817.825
1268.07163	17316.125
1271.61453	17842.125
1275.15503	18298.725
1278.69312	18869.125
1282.22882	19524.525
1285.76211	20326.625
1289.29301	21188.625
1292.82151	22139.125
1296.34761	23305.125
1299.87133	24667.125
1303.39266	26060.325
1306.9116	27330.025
1310.42815	28203.725
1313.94233	28703.925
1317.45412	28293.525
1320.96354	27319.025
1324.47058	26422.825
1327.97525	25722.325
1331.47754	25249.825
1334.97747	24801.225
1338.47502	24327.025
1341.97022	23746.825
1345.46305	23248.325
1348.95352	23084.825
1352.44163	23573.525
1355.92738	24833.525
1359.41078	26672.125
1362.89183	28246.925
1366.37053	28462.825
1369.84688	26469.425
1373.32088	23278.925
1376.79254	20930.125
1380.26186	20015.125
1383.72883	19879.625
1387.19347	19710.725
1390.65578	19311.525
1394.11575	19110.525
1397.57339	19215.825
1401.0287	19564.125
1404.48168	19867.625
1407.93234	19827.425
1411.38068	19585.525
1414.82669	19087.125
1418.27039	18437.625
1421.71177	17885.725
1425.15083	17357.025
1428.58758	17196.225
1432.02203	17410.225
1435.45416	17892.725
1438.88399	18356.725
1442.31151	18601.625
1445.73673	18572.825
1449.15965	18574.125
1452.58027	18414.525
1455.9986	18205.725
1459.41463	18199.825
1462.82837	18458.525
1466.23982	18871.125
1469.64898	19305.525
1473.05586	19618.025
1476.46045	19762.625
1479.86276	19761.325
1483.26279	19708.325
1486.66054	19767.325
1490.05602	19963.225
1493.44922	20221.325
1496.84016	20422.525
1500.22882	20641.525
1503.61521	20980.025
1506.99934	21385.325
1510.38121	21780.425
1513.76081	21844.325
1517.13816	21497.225
1520.51324	20973.225
1523.88607	20517.525
1527.25665	20375.325
1530.62498	20336.925
1533.99105	20235.125
1537.35488	19860.925
1540.71647	19313.825
1544.07581	18689.725
1547.4329	18185.925
1550.78776	17735.825
1554.14038	17406.225
1557.49077	17260.925
1560.83892	17150.325
1564.18484	17176.525
1567.52853	17248.725
1570.86999	17452.125
1574.20922	17724.825
1577.54624	17967.725
1580.88103	18044.325
1584.2136	18203.325
1587.54395	18824.325
1590.87208	19996.425
1594.19801	21485.325
1597.52172	22799.725
1600.84321	23165.325
1604.16251	22007.125
1607.47959	20061.725
1610.79447	18017.725
1614.10715	16352.825
1617.41763	15193.325
1620.7259	14483.425
1624.03199	14183.425
1627.33587	14264.425
1630.63757	14722.725
1633.93707	15597.325
1637.23439	17189.525
1640.52951	19688.725
1643.82246	22763.125
1647.11321	25328.125
1650.40179	25674.725
1653.68819	23416.225
1656.97241	19858.725
1660.25446	16718.025
1663.53433	14579.025
1666.81203	13362.225
1670.08756	12653.925
1673.36092	12225.125
1676.63211	12016.025
1679.90115	11759.025
1683.16801	11650.325
1686.43272	11503.725
1689.69527	11381.825
1692.95567	11270.225
1696.2139	11126.125
1699.46999	11006.525
1702.72392	10930.525
1705.97571	10978.425
1709.22535	11080.625
1712.47284	11161.425
1715.71819	11187.825
1718.96139	11157.125
1722.20246	11144.725
1725.44139	11096.825
1728.67818	11024.425
1731.91284	10977.825
1735.14537	10939.025
1738.37576	10906.425
1741.60403	10870.225
1744.83017	10800.525
1748.05418	10745.425
1751.27607	10706.425
1754.49584	10636.925
1757.71349	10563.925
1760.92903	10507.025
1764.14244	10504.225
1767.35375	10536.725
1770.56294	10490.625
1773.77002	10518.225
1776.97499	10565.525
1780.17785	10586.625
1783.37861	10608.725
1786.57727	10605.925
1789.77382	10621.825
1792.96828	10633.825
1796.16064	10602.125
1799.3509	10573.325
1802.53907	10559.525
1805.72514	10546.925
1808.90913	10511.225
1812.09102	10486.925
1815.27083	10502.325
1818.44856	10472.125
1821.6242	10484.425
1824.79776	10462.525
1827.96924	10458.425
1831.13864	10423.525
1834.30597	10449.125
1837.47122	10438.625
1840.6344	10420.525
1843.7955	10440.625
1846.95454	10435.725
1850.11151	10406.125
1853.26642	10405.725
1856.41926	10388.025
1859.57004	10373.425
1862.71876	10375.925
1865.86542	10383.125
1869.01003	10393.725
1872.15258	10340.625
1875.29308	10359.125
1878.43152	10328.825
1881.56792	10337.825
1884.70227	10353.425
1887.83457	10308.925
1890.96482	10318.425
1894.09304	10259.725
1897.21921	10285.525
1900.34335	10278.425
1903.46544	10264.625
1906.58551	10237.225
1909.70353	10235.825
1912.81953	10244.725
1915.93349	10207.125
1919.04543	10195.025
1922.15534	10168.225
1925.26322	10168.325
1928.36908	10152.625
1931.47292	10112.325
1934.57473	10112.625
1937.67453	10090.325
1940.77232	10088.625
1943.86808	10039.825
1946.96184	10040.325
1950.05358	10004.525
1953.14331	9994.025
1956.23103	9958.425
1959.31675	9893.125
1962.40046	9888.025
1965.48217	9858.625
1968.56188	9836.625
1971.63959	9851.425
1974.7153	9797.225
1977.78901	9777.225
1980.86073	9725.225
1983.93046	9668.925
1986.99819	9656.125
1990.06394	9651.325
1993.1277	9639.825
1996.18947	9619.425
1999.24925	9594.825
2002.30706	9555.725
2005.36288	9548.525
2008.41672	9517.225
2011.46859	9493.725
2014.51848	9445.225
2017.56639	9413.525
2020.61233	9408.425
2023.6563	9396.525
2026.6983	9384.825
2029.73833	9357.725
2032.7764	9338.925
2035.8125	9319.825
2038.84664	9296.825
2041.87881	9287.825
2044.90903	9260.225
2047.93729	9245.225
2050.96359	9245.425
2053.98794	9247.625
2057.01034	9240.825
2060.03078	9225.925
2063.04927	9205.025
2066.06582	9221.625
2069.08042	9201.525
2072.09307	9228.325
2075.10378	9233.725
2078.11255	9207.025
2081.11938	9205.725
2084.12426	9217.225
2087.12722	9230.525
2090.12824	9208.825
2093.12732	9214.625
2096.12447	9233.825
2099.11969	9220.525
2102.11299	9220.725
2105.10435	9221.025
2108.09379	9262.925
2111.08131	9232.425
2114.0669	9257.925
2117.05057	9270.625
2120.03233	9259.625
2123.01216	9278.425
2125.99008	9284.225
2128.96609	9315.025
2131.94018	9300.925
2134.91236	9288.025
2137.88263	9319.925
2140.851	9324.525
2143.81746	9327.825
2146.78201	9303.925
2149.74466	9320.925
2152.7054	9310.625
2155.66425	9331.525
2158.6212	9332.925
2161.57625	9301.925
2164.52941	9326.425
2167.48067	9339.725
2170.43004	9323.025
2173.37752	9305.925
2176.32311	9295.625
2179.26681	9298.225
2182.20863	9299.725
2185.14856	9336.225
2188.08661	9321.525
2191.02278	9296.225
2193.95707	9308.125
2196.88948	9323.025
2199.82001	9308.725
2202.74867	9315.025
2205.67545	9287.125
2208.60037	9275.425
2211.52341	9279.525
2214.44458	9256.625
2217.36388	9238.125
2220.28132	9244.625
2223.1969	9225.325
2226.11061	9218.525
2229.02246	9172.925
2231.93245	9189.025
2234.84058	9188.125
2237.74686	9159.025
2240.65128	9168.525
2243.55385	9156.825
2246.45456	9125.525
2249.35343	9132.125
2252.25044	9117.425
2255.14561	9097.625
2258.03893	9080.625
2260.93041	9019.925
2263.82004	9030.525
2266.70783	9029.025
2269.59378	9014.725
2272.4779	8997.425
2275.36017	8985.225
2278.24061	8980.125
2281.11922	8946.725
2283.996	8971.725
2286.87094	8925.525
2289.74405	8936.125
2292.61534	8908.425
2295.4848	8913.525
2298.35243	8914.925
2301.21824	8883.025
2304.08223	8909.625
2306.94439	8906.625
2309.80474	8897.225
2312.66327	8883.825
2315.51999	8896.825
2318.37489	8884.125
2321.22797	8897.225
2324.07925	8867.725
2326.92871	8834.525
2329.77637	8870.225
2332.62222	8835.025
2335.46626	8823.325
2338.3085	8817.825
2341.14893	8831.425
2343.98756	8817.325
2346.8244	8836.425
2349.65943	8802.725
2352.49267	8826.225
2355.32411	8824.025
2358.15376	8819.625
2360.98161	8826.825
2363.80768	8809.625
2366.63195	8806.125
2369.45444	8801.225
2372.27514	8785.625
2375.09405	8760.125
2377.91118	8758.525
2380.72652	8746.525
2383.54009	8722.125
2386.35187	8720.325
2389.16188	8715.725
2391.97011	8708.825
2394.77657	8707.625
2397.58125	8668.225
2400.38416	8671.725
2403.18529	8664.625
2405.98466	8654.625
2408.78226	8645.125
2411.57809	8629.725
2414.37216	8614.525
2417.16446	8596.625
2419.955	8623.625
2422.74378	8619.825
2425.5308	8598.325
2428.31606	8589.425
2431.09956	8588.925
2433.88131	8613.825
2436.6613	8606.425
2439.43954	8609.725
2442.21603	8590.325
2444.99077	8590.625
2447.76377	8601.425
2450.53501	8574.225
2453.30451	8578.525
2456.07226	8569.725
2458.83827	8582.825
2461.60254	8537.925
2464.36507	8535.725
2467.12586	8548.825
2469.88492	8542.625
2472.64224	8535.925
2475.39782	8528.325
2478.15167	8532.225
2480.90379	8571.325
2483.65417	8563.625
2486.40283	8562.325
2489.14976	8572.525
2491.89497	8552.925
2494.63845	8539.825
2497.3802	8522.225
2500.12024	8553.825
2502.85855	8567.325
2505.59514	8535.625
2508.33002	8533.125
2511.06318	8533.625
2513.79462	8502.925
2516.52435	8497.325
2519.25237	8511.525
2521.97867	8464.125
2524.70327	8483.525
2527.42616	8489.425
2530.14734	8483.725
2532.86681	8477.725
2535.58458	8490.425
2538.30065	8500.525
2541.01501	8455.825
2543.72768	8448.525
2546.43864	8444.825
2549.14791	8441.125
2551.85548	8446.125
2554.56136	8420.725
2557.26554	8435.425
2559.96803	8409.125
2562.66883	8410.325
2565.36794	8392.525
2568.06536	8405.125
2570.7611	8399.325
2573.45514	8364.525
2576.14751	8380.925
2578.83819	8352.525
2581.52719	8369.525
2584.21451	8362.625
2586.90015	8322.725
2589.58411	8319.925
2592.2664	8309.625
2594.94701	8342.425
2597.62594	8338.425
2600.30321	8315.925
2602.9788	8303.725
2605.65273	8302.525
2608.32498	8341.825
2610.99557	8321.525
2613.66449	8316.825
2616.33175	8288.425
2618.99734	8288.725
2621.66128	8287.125
2624.32355	8248.825
2626.98416	8256.425
2629.64311	8258.225
2632.30041	8246.525
2634.95605	8261.625
2637.61004	8227.725
2640.26238	8216.525
2642.91306	8226.525
2645.56209	8230.025
2648.20948	8212.625
2650.85521	8208.025
2653.4993	8202.325
2656.14175	8213.525
2658.78255	8237.625
2661.42171	8231.425
2664.05923	8238.525
2666.6951	8252.025
2669.32934	8261.825
2671.96194	8269.225
2674.59291	8266.725
2677.22224	8253.725
2679.84993	8280.325
2682.476	8282.625
2685.10043	8273.325
2687.72324	8257.525
2690.34441	8262.125
2692.96396	8257.725
2695.58188	8273.225
2698.19818	8262.225
2700.81285	8274.625
2703.4259	8221.425
2706.03733	8131.525
2708.64714	8178.325
2711.25533	8254.925
2713.86191	8306.225
2716.46687	8299.225
2719.07021	8311.125
2721.67194	8318.325
2724.27206	8323.625
2726.87057	8308.125
2729.46747	8320.925
2732.06276	8322.825
2734.65644	8321.225
2737.24852	8327.225
2739.83899	8333.725
2742.42786	8331.925
2745.01513	8309.125
2747.60079	8338.025
2750.18486	8318.925
2752.76733	8301.825
2755.3482	8285.125
2757.92747	8289.525
2760.50515	8284.925
2763.08123	8271.525
2765.65573	8251.625
2768.22863	8271.825
2770.79994	8237.225
2773.36967	8270.025
2775.9378	8252.425
2778.50435	8270.425
2781.06932	8242.925
2783.6327	8270.825
2786.1945	8227.825
2788.75471	8238.525
2791.31335	8221.825
2793.87041	8207.825
2796.42589	8191.825
2798.97979	8173.325
2801.53212	8166.825
2804.08288	8155.525
2806.63206	8159.925
2809.17967	8145.425
2811.72571	8119.625
2814.27018	8111.225
2816.81308	8068.625
2819.35442	8077.325
2821.89419	8100.925
2824.43239	8072.425
2826.96904	8048.525
2829.50412	8046.925
2832.03763	8042.425
2834.56959	8042.125
2837.1	8041.425
2839.62884	8048.025
2842.15613	8034.325
2844.68186	8059.925
2847.20604	8055.725
2849.72867	8066.225
2852.24974	8050.425
2854.76927	8063.625
2857.28724	8004.725
2859.80367	8011.025
2862.31855	8007.325
2864.83189	8029.525
2867.34368	8012.825
2869.85393	8016.425
2872.36264	8014.725
2874.8698	8026.125
2877.37543	8025.125
2879.87952	8046.725
2882.38207	8033.025
2884.88308	8043.025
2887.38256	8031.125
2889.88051	8039.425
2892.37692	8054.025
2894.8718	8035.625
2897.36515	8049.325
2899.85698	8062.125
2902.34727	8090.925
2904.83604	8095.625
2907.32328	8066.125
2909.809	8068.925
2912.29319	8108.925
2914.77587	8100.325
2917.25702	8103.625
2919.73665	8098.225
2922.21476	8101.225
2924.69136	8086.525
2927.16644	8084.825
2929.64	8069.625
2932.11205	8071.925
2934.58258	8041.425
2937.05161	8055.625
2939.51912	8051.725
2941.98513	8039.925
2944.44962	8022.725
2946.91261	7980.025
2949.37409	8010.125
2951.83407	8004.625
2954.29254	8002.625
2956.74951	8021.225
2959.20498	7997.125
2961.65895	7983.225
2964.11142	7972.425
2966.56239	7990.725
2969.01186	7968.925
2971.45984	7952.925
2973.90632	7924.025
2976.35131	7912.025
2978.7948	7909.925
2981.23681	7891.625
2983.67732	7892.425
2986.11635	7869.025
2988.55388	7827.725
2990.98993	7821.425
2993.4245	7808.125
2995.85758	7811.825
2998.28917	7774.925
3000.71928	7749.225
3003.14791	7752.025
3005.57506	7749.125
3008.00073	7728.925
3010.42493	7710.825
3012.84764	7693.325
3015.26888	7701.425
3017.68865	7702.125
3020.10694	7681.025
3022.52376	7667.425
3024.9391	7670.525
3027.35298	7643.025
3029.76539	7640.025
3032.17632	7651.925
3034.5858	7636.425
3036.9938	7625.025
3039.40034	7610.825
3041.80542	7615.225
3044.20903	7577.525
3046.61118	7596.025
3049.01187	7601.525
3051.4111	7591.925
3053.80888	7572.725
3056.20519	7580.825
3058.60005	7577.925
3060.99345	7543.625
3063.3854	7538.625
3065.7759	7498.225
3068.16494	7509.325
3070.55254	7490.325
3072.93868	7464.225
3075.32338	7454.525
3077.70662	7422.025
3080.08842	7408.425
3082.46878	7404.825
3084.84769	7395.025
3087.22515	7409.125
3089.60118	7417.325
3091.97576	7411.125
3094.3489	7397.625
3096.72061	7419.225
3099.09087	7422.425
3101.4597	7428.825
3103.82709	7421.825
3106.19305	7390.125
3108.55757	7382.925
3110.92066	7373.225
3113.28232	7387.325
3115.64255	7371.225
3118.00134	7362.025
3120.35871	7335.525
3122.71466	7333.925
3125.06917	7319.425
3127.42226	7285.425
3129.77393	7301.825
3132.12417	7303.925
3134.47299	7299.925
3136.82039	7312.825
3139.16636	7316.125
3141.51092	7314.325
3143.85406	7304.125
3146.19579	7308.425
3148.53609	7317.925
3150.87499	7333.725
3153.21246	7317.325
3155.54853	7334.025
3157.88318	7312.325
3160.21642	7335.925
3162.54826	7333.525
3164.87868	7336.825
3167.2077	7353.125
3169.5353	7349.725
3171.86151	7337.125
3174.18631	7348.225
3176.5097	7325.725
3178.83169	7336.725
3181.15228	7335.325
