Data from AgNPs_FTO_APTES_UA_50uM_CRN_5uM_R6G_10uM_NaF_0.1M_Addition_RamanShift__20__12-55-54-834.txt Node

Date: Mon Feb 21 12:55:54 GMT 2022
User: TCL
Spectrometer: QEP01345
Trigger mode: 4
Integration Time (sec): 7.000000E0
Scans to average: 10
Electric dark correction enabled: true
Nonlinearity correction enabled: false
Boxcar width: 0
XAxis mode: Raman Shifts
Number of Pixels in Spectrum: 1044
>>>>>Begin Spectral Data<<<<<
46.04893	1.0125
50.45542	-1.2875
54.85868	-0.3875
59.25871	-1.5875
63.6555	56.1125
68.04907	61.8125
72.43941	63.4125
76.82654	68.0125
81.21044	71.0125
85.59113	75.1125
89.96862	77.0125
94.34289	82.6125
98.71396	81.5125
103.08183	86.3125
107.4465	85.6125
111.80798	87.7125
116.16626	88.7125
120.52136	93.0125
124.87327	99.0125
129.222	98.6125
133.56755	103.1125
137.90993	114.1125
142.24913	122.7125
146.58517	139.1125
150.91804	159.6125
155.24774	191.0125
159.57429	239.1125
163.89768	304.4125
168.21792	404.9125
172.53501	550.3125
176.84895	772.1125
181.15975	1079.0125
185.46741	1514.5125
189.77193	2088.1125
194.07331	2804.8125
198.37157	3599.0125
202.6667	4453.0125
206.9587	5316.4125
211.24758	6223.5125
215.53334	7174.2125
219.81599	8241.8125
224.09553	9469.2125
228.37195	10860.5125
232.64527	12329.7125
236.91549	13731.0125
241.18261	14955.2125
245.44663	15855.2125
249.70755	16503.1125
253.96539	17026.7125
258.22014	17515.9125
262.4718	17981.8125
266.72039	18282.8125
270.96589	18328.9125
275.20832	18093.2125
279.44768	17712.8125
283.68397	17270.2125
287.91719	16969.2125
292.14735	16971.4125
296.37445	17429.7125
300.59849	18327.7125
304.81948	19331.0125
309.03742	19987.0125
313.25231	19988.2125
317.46415	19008.4125
321.67296	17337.0125
325.87872	16027.1125
330.08145	15417.1125
334.28114	15365.5125
338.47781	15636.8125
342.67145	16084.3125
346.86207	16813.6125
351.04966	17881.8125
355.23424	19157.2125
359.4158	20182.0125
363.59435	20659.6125
367.76989	20778.5125
371.94243	20643.8125
376.11196	20405.4125
380.27849	20223.0125
384.44203	19969.6125
388.60257	19644.4125
392.76012	19518.8125
396.91468	19615.5125
401.06626	20019.8125
405.21485	20375.7125
409.36047	19832.2125
413.50311	18562.0125
417.64277	17364.1125
421.77947	16709.2125
425.9132	16361.1125
430.04396	16281.4125
434.17176	16298.2125
438.2966	16564.3125
442.41849	17007.3125
446.53742	17657.2125
450.6534	18231.5125
454.76644	18551.6125
458.87653	18593.5125
462.98368	18349.9125
467.08789	18020.0125
471.18916	17555.8125
475.2875	17111.5125
479.38291	16745.1125
483.4754	16428.2125
487.56496	16139.9125
491.6516	15947.4125
495.73531	15797.8125
499.81612	15832.9125
503.89401	16035.1125
507.96899	16304.7125
512.04106	16547.5125
516.11023	16818.8125
520.1765	17034.2125
524.23987	16985.6125
528.30034	16713.1125
532.35792	16465.2125
536.41261	16118.1125
540.46441	15662.4125
544.51333	15470.0125
548.55936	15579.4125
552.60252	16015.4125
556.64279	16587.9125
560.6802	16963.7125
564.71473	17370.8125
568.7464	18323.4125
572.7752	18824.4125
576.80114	18181.4125
580.82422	17436.7125
584.84444	17179.3125
588.86181	17390.7125
592.87633	17844.1125
596.888	18199.4125
600.89682	18536.4125
604.9028	20743.0125
608.90594	27672.9125
612.90624	36429.2125
616.90371	34142.4125
620.89834	22591.5125
624.89015	17262.7125
628.87913	16328.8125
632.86528	16630.1125
636.84862	17051.2125
640.82913	16717.7125
644.80683	15630.4125
648.78172	14822.3125
652.75379	14737.1125
656.72306	15532.2125
660.68952	16536.8125
664.65319	16198.6125
668.61405	15179.1125
672.57211	14800.9125
676.52738	14877.4125
680.47986	15000.2125
684.42955	14902.4125
688.37646	14792.8125
692.32058	14811.0125
696.26192	14907.0125
700.20048	15013.1125
704.13626	15089.1125
708.06928	14920.4125
711.99952	14725.9125
715.927	14603.6125
719.85171	14715.6125
723.77365	14774.7125
727.69284	14592.7125
731.60928	14428.8125
735.52295	14390.8125
739.43388	14441.4125
743.34206	14554.2125
747.24749	14612.5125
751.15017	14698.3125
755.05012	14978.0125
758.94733	15935.6125
762.8418	18377.1125
766.73354	22687.1125
770.62254	26932.7125
774.50882	28782.9125
778.39237	27125.6125
782.27321	22845.3125
786.15132	18732.5125
790.02671	16246.2125
793.89938	15094.1125
797.76935	14595.7125
801.6366	14371.3125
805.50115	14230.5125
809.36299	14095.9125
813.22213	13963.9125
817.07857	13912.6125
820.93231	13879.0125
824.78336	13865.6125
828.63172	13908.3125
832.47738	13919.6125
836.32036	13845.1125
840.16066	13780.3125
843.99827	13752.4125
847.8332	13702.1125
851.66546	13651.3125
855.49504	13638.1125
859.32195	13657.0125
863.1462	13589.6125
866.96777	13547.6125
870.78668	13510.4125
874.60293	13548.2125
878.41652	13576.4125
882.22745	13702.8125
886.03573	13833.1125
889.84136	13822.1125
893.64433	13752.7125
897.44466	13717.4125
901.24235	13653.2125
905.0374	13524.7125
908.8298	13338.2125
912.61957	13207.3125
916.40671	13243.4125
920.19121	13353.2125
923.97308	13579.4125
927.75233	13880.2125
931.52895	14092.1125
935.30295	13937.2125
939.07433	13407.1125
942.84309	12916.9125
946.60924	12720.7125
950.37278	12575.0125
954.13371	12484.1125
957.89203	12422.9125
961.64774	12380.1125
965.40086	12309.9125
969.15137	12284.5125
972.89929	12219.7125
976.64461	12207.2125
980.38733	12189.7125
984.12747	12236.1125
987.86502	12336.2125
991.59999	12486.6125
995.33237	12781.8125
999.06217	13208.5125
1002.78939	13815.0125
1006.51404	14362.9125
1010.23611	14719.0125
1013.95561	14885.5125
1017.67255	14864.8125
1021.38692	14635.1125
1025.09872	14286.0125
1028.80796	14152.8125
1032.51465	14379.6125
1036.21877	14690.8125
1039.92035	14817.1125
1043.61937	14776.4125
1047.31584	14547.4125
1051.00976	14254.8125
1054.70114	14034.5125
1058.38998	13951.2125
1062.07627	13971.5125
1065.76003	14027.3125
1069.44126	14076.2125
1073.11995	14347.4125
1076.79611	14690.0125
1080.46974	15166.4125
1084.14085	15799.6125
1087.80943	16416.6125
1091.47549	16652.4125
1095.13903	16347.4125
1098.80005	15628.0125
1102.45857	15062.9125
1106.11456	14873.6125
1109.76805	15034.6125
1113.41903	15558.3125
1117.06751	16332.2125
1120.71348	17351.2125
1124.35696	18439.7125
1127.99793	19362.4125
1131.63641	19130.1125
1135.2724	17952.8125
1138.90589	16884.1125
1142.5369	16189.9125
1146.16542	15706.4125
1149.79145	15441.5125
1153.415	15389.6125
1157.03607	15546.9125
1160.65467	15990.3125
1164.27079	16849.2125
1167.88443	18201.3125
1171.49561	20237.6125
1175.10432	23358.0125
1178.71056	27636.6125
1182.31434	31337.7125
1185.91565	32507.8125
1189.51451	31213.7125
1193.11091	28728.0125
1196.70485	26221.1125
1200.29634	24275.0125
1203.88538	22669.8125
1207.47197	20905.8125
1211.05612	19366.0125
1214.63782	18480.4125
1218.21708	18189.5125
1221.79391	18259.6125
1225.36829	18416.4125
1228.94024	18253.9125
1232.50976	17821.6125
1236.07685	17472.9125
1239.6415	17288.5125
1243.20374	17268.0125
1246.76355	17395.0125
1250.32093	17663.4125
1253.8759	18185.2125
1257.42845	18970.2125
1260.97859	19904.6125
1264.52631	20973.8125
1268.07163	22050.1125
1271.61453	23043.7125
1275.15503	23816.0125
1278.69312	24321.7125
1282.22882	24817.5125
1285.76211	25577.2125
1289.29301	26712.5125
1292.82151	28013.0125
1296.34761	29552.7125
1299.87133	31871.7125
1303.39266	35523.2125
1306.9116	40751.5125
1310.42815	45991.2125
1313.94233	48154.8125
1317.45412	45901.5125
1320.96354	41587.6125
1324.47058	37459.2125
1327.97525	34164.4125
1331.47754	32082.9125
1334.97747	31253.6125
1338.47502	31259.2125
1341.97022	32028.5125
1345.46305	33505.3125
1348.95352	35735.0125
1352.44163	38741.5125
1355.92738	43277.5125
1359.41078	50484.4125
1362.89183	57241.4125
1366.37053	54937.3125
1369.84688	44705.8125
1373.32088	35363.1125
1376.79254	30022.2125
1380.26186	27277.4125
1383.72883	25681.2125
1387.19347	24540.3125
1390.65578	23649.8125
1394.11575	23147.1125
1397.57339	23023.7125
1401.0287	23170.4125
1404.48168	23320.0125
1407.93234	23298.8125
1411.38068	23163.2125
1414.82669	22870.7125
1418.27039	22451.9125
1421.71177	21765.7125
1425.15083	21102.3125
1428.58758	20842.4125
1432.02203	21128.0125
1435.45416	21681.3125
1438.88399	21936.0125
1442.31151	21989.9125
1445.73673	22169.3125
1449.15965	22433.6125
1452.58027	22592.5125
1455.9986	22539.0125
1459.41463	22642.1125
1462.82837	23096.5125
1466.23982	23710.5125
1469.64898	24268.0125
1473.05586	24515.7125
1476.46045	24552.5125
1479.86276	24583.4125
1483.26279	24801.3125
1486.66054	25464.4125
1490.05602	26392.2125
1493.44922	27807.3125
1496.84016	30121.6125
1500.22882	33966.6125
1503.61521	39685.1125
1506.99934	46360.0125
1510.38121	51512.0125
1513.76081	51928.4125
1517.13816	46857.0125
1520.51324	39341.2125
1523.88607	32955.4125
1527.25665	29067.2125
1530.62498	26915.7125
1533.99105	25793.3125
1537.35488	24876.6125
1540.71647	24274.5125
1544.07581	23767.4125
1547.4329	23509.9125
1550.78776	23413.9125
1554.14038	23561.6125
1557.49077	23829.8125
1560.83892	24391.0125
1564.18484	25281.2125
1567.52853	26449.8125
1570.86999	27403.2125
1574.20922	27982.3125
1577.54624	27686.8125
1580.88103	26037.4125
1584.2136	24040.2125
1587.54395	23128.3125
1590.87208	23742.7125
1594.19801	25522.3125
1597.52172	27725.0125
1600.84321	28453.5125
1604.16251	26987.6125
1607.47959	24564.3125
1610.79447	22107.9125
1614.10715	19892.9125
1617.41763	18125.5125
1620.7259	17002.7125
1624.03199	16527.7125
1627.33587	16654.8125
1630.63757	17366.5125
1633.93707	18848.7125
1637.23439	21288.9125
1640.52951	24908.4125
1643.82246	29870.5125
1647.11321	35118.6125
1650.40179	38029.2125
1653.68819	35787.8125
1656.97241	29341.3125
1660.25446	22867.6125
1663.53433	18469.5125
1666.81203	15926.8125
1670.08756	14449.2125
1673.36092	13586.4125
1676.63211	13051.6125
1679.90115	12673.3125
1683.16801	12354.7125
1686.43272	12136.7125
1689.69527	11952.3125
1692.95567	11789.9125
1696.2139	11609.7125
1699.46999	11461.1125
1702.72392	11388.0125
1705.97571	11442.4125
1709.22535	11497.4125
1712.47284	11520.5125
1715.71819	11489.3125
1718.96139	11433.9125
1722.20246	11362.2125
1725.44139	11223.3125
1728.67818	11122.6125
1731.91284	11012.2125
1735.14537	10897.7125
1738.37576	10813.7125
1741.60403	10740.1125
1744.83017	10698.2125
1748.05418	10632.0125
1751.27607	10587.1125
1754.49584	10499.7125
1757.71349	10408.8125
1760.92903	10341.1125
1764.14244	10299.4125
1767.35375	10270.8125
1770.56294	10194.8125
1773.77002	10189.8125
1776.97499	10187.8125
1780.17785	10194.5125
1783.37861	10199.1125
1786.57727	10159.4125
1789.77382	10151.5125
1792.96828	10149.0125
1796.16064	10125.3125
1799.3509	10084.5125
1802.53907	10053.6125
1805.72514	10018.2125
1808.90913	9978.5125
1812.09102	9975.7125
1815.27083	9916.5125
1818.44856	9924.7125
1821.6242	9891.7125
1824.79776	9871.6125
1827.96924	9877.4125
1831.13864	9867.8125
1834.30597	9850.7125
1837.47122	9844.3125
1840.6344	9831.1125
1843.7955	9842.4125
1846.95454	9833.9125
1850.11151	9795.0125
1853.26642	9801.4125
1856.41926	9803.8125
1859.57004	9813.5125
1862.71876	9793.3125
1865.86542	9796.5125
1869.01003	9783.1125
1872.15258	9800.6125
1875.29308	9783.8125
1878.43152	9798.3125
1881.56792	9784.5125
1884.70227	9806.2125
1887.83457	9799.7125
1890.96482	9787.2125
1894.09304	9757.0125
1897.21921	9767.0125
1900.34335	9781.8125
1903.46544	9775.5125
1906.58551	9753.0125
1909.70353	9739.5125
1912.81953	9743.0125
1915.93349	9712.8125
1919.04543	9669.2125
1922.15534	9630.2125
1925.26322	9593.2125
1928.36908	9516.5125
1931.47292	9483.9125
1934.57473	9442.0125
1937.67453	9384.9125
1940.77232	9324.4125
1943.86808	9320.6125
1946.96184	9292.9125
1950.05358	9276.1125
1953.14331	9221.0125
1956.23103	9211.4125
1959.31675	9165.0125
1962.40046	9155.4125
1965.48217	9137.3125
1968.56188	9152.7125
1971.63959	9110.5125
1974.7153	9066.2125
1977.78901	9052.6125
1980.86073	8999.7125
1983.93046	8956.6125
1986.99819	8908.7125
1990.06394	8874.9125
1993.1277	8830.7125
1996.18947	8798.5125
1999.24925	8777.2125
2002.30706	8749.0125
2005.36288	8703.7125
2008.41672	8689.6125
2011.46859	8665.2125
2014.51848	8660.7125
2017.56639	8602.7125
2020.61233	8584.8125
2023.6563	8555.4125
2026.6983	8539.3125
2029.73833	8523.0125
2032.7764	8518.7125
2035.8125	8507.4125
2038.84664	8505.9125
2041.87881	8481.7125
2044.90903	8443.8125
2047.93729	8435.1125
2050.96359	8451.7125
2053.98794	8444.1125
2057.01034	8413.0125
2060.03078	8409.6125
2063.04927	8386.3125
2066.06582	8380.0125
2069.08042	8367.7125
2072.09307	8352.1125
2075.10378	8343.3125
2078.11255	8357.3125
2081.11938	8359.3125
2084.12426	8333.6125
2087.12722	8336.5125
2090.12824	8323.9125
2093.12732	8334.5125
2096.12447	8326.7125
2099.11969	8323.2125
2102.11299	8320.0125
2105.10435	8343.8125
2108.09379	8347.6125
2111.08131	8360.1125
2114.0669	8348.9125
2117.05057	8373.1125
2120.03233	8390.9125
2123.01216	8382.2125
2125.99008	8377.9125
2128.96609	8381.1125
2131.94018	8407.0125
2134.91236	8379.9125
2137.88263	8392.7125
2140.851	8376.7125
2143.81746	8366.1125
2146.78201	8335.2125
2149.74466	8348.8125
2152.7054	8335.3125
2155.66425	8304.3125
2158.6212	8300.7125
2161.57625	8305.0125
2164.52941	8315.6125
2167.48067	8302.0125
2170.43004	8291.4125
2173.37752	8289.3125
2176.32311	8311.2125
2179.26681	8308.7125
2182.20863	8311.1125
2185.14856	8307.8125
2188.08661	8304.1125
2191.02278	8305.8125
2193.95707	8286.7125
2196.88948	8257.5125
2199.82001	8265.0125
2202.74867	8254.3125
2205.67545	8248.2125
2208.60037	8240.3125
2211.52341	8250.0125
2214.44458	8247.4125
2217.36388	8222.3125
2220.28132	8229.6125
2223.1969	8179.9125
2226.11061	8183.8125
2229.02246	8170.7125
2231.93245	8148.3125
2234.84058	8118.8125
2237.74686	8101.9125
2240.65128	8113.4125
2243.55385	8111.3125
2246.45456	8093.0125
2249.35343	8091.1125
2252.25044	8084.1125
2255.14561	8088.4125
2258.03893	8107.1125
2260.93041	8076.9125
2263.82004	8072.5125
2266.70783	8059.1125
2269.59378	8025.5125
2272.4779	8017.2125
2275.36017	8009.4125
2278.24061	7983.1125
2281.11922	7972.0125
2283.996	7940.2125
2286.87094	7919.5125
2289.74405	7908.9125
2292.61534	7899.2125
2295.4848	7903.3125
2298.35243	7878.8125
2301.21824	7863.8125
2304.08223	7874.2125
2306.94439	7879.4125
2309.80474	7882.1125
2312.66327	7892.1125
2315.51999	7876.9125
2318.37489	7876.8125
2321.22797	7883.9125
2324.07925	7862.2125
2326.92871	7859.3125
2329.77637	7851.1125
2332.62222	7820.6125
2335.46626	7840.0125
2338.3085	7830.1125
2341.14893	7837.7125
2343.98756	7881.9125
2346.8244	7891.0125
2349.65943	7920.0125
2352.49267	7913.8125
2355.32411	7930.3125
2358.15376	7950.3125
2360.98161	7968.4125
2363.80768	7958.0125
2366.63195	7974.8125
2369.45444	7961.6125
2372.27514	7969.5125
2375.09405	7953.3125
2377.91118	7920.5125
2380.72652	7880.4125
2383.54009	7837.7125
2386.35187	7803.1125
2389.16188	7776.8125
2391.97011	7751.8125
2394.77657	7733.4125
2397.58125	7705.4125
2400.38416	7696.0125
2403.18529	7653.2125
2405.98466	7660.1125
2408.78226	7636.8125
2411.57809	7642.7125
2414.37216	7605.9125
2417.16446	7622.4125
2419.955	7596.1125
2422.74378	7607.0125
2425.5308	7595.6125
2428.31606	7592.3125
2431.09956	7587.9125
2433.88131	7593.7125
2436.6613	7602.6125
2439.43954	7607.9125
2442.21603	7585.6125
2444.99077	7598.7125
2447.76377	7592.4125
2450.53501	7628.6125
2453.30451	7650.1125
2456.07226	7636.5125
2458.83827	7622.1125
2461.60254	7640.6125
2464.36507	7637.7125
2467.12586	7629.8125
2469.88492	7631.1125
2472.64224	7642.0125
2475.39782	7639.8125
2478.15167	7639.8125
2480.90379	7660.1125
2483.65417	7685.5125
2486.40283	7735.4125
2489.14976	7755.7125
2491.89497	7776.3125
2494.63845	7784.1125
2497.3802	7748.3125
2500.12024	7715.4125
2502.85855	7709.9125
2505.59514	7703.1125
2508.33002	7660.0125
2511.06318	7646.1125
2513.79462	7602.7125
2516.52435	7576.6125
2519.25237	7538.1125
2521.97867	7509.9125
2524.70327	7495.8125
2527.42616	7503.0125
2530.14734	7477.6125
2532.86681	7464.5125
2535.58458	7501.5125
2538.30065	7500.2125
2541.01501	7497.2125
2543.72768	7482.0125
2546.43864	7495.0125
2549.14791	7471.5125
2551.85548	7511.4125
2554.56136	7501.7125
2557.26554	7496.5125
2559.96803	7495.1125
2562.66883	7491.2125
2565.36794	7486.6125
2568.06536	7481.7125
2570.7611	7477.3125
2573.45514	7462.6125
2576.14751	7464.6125
2578.83819	7442.4125
2581.52719	7433.7125
2584.21451	7413.4125
2586.90015	7412.6125
2589.58411	7412.9125
2592.2664	7428.1125
2594.94701	7410.7125
2597.62594	7428.1125
2600.30321	7405.5125
2602.9788	7416.3125
2605.65273	7408.0125
2608.32498	7416.8125
2610.99557	7415.6125
2613.66449	7431.3125
2616.33175	7432.3125
2618.99734	7448.0125
2621.66128	7443.3125
2624.32355	7420.6125
2626.98416	7416.7125
2629.64311	7413.7125
2632.30041	7409.4125
2634.95605	7391.7125
2637.61004	7388.4125
2640.26238	7366.2125
2642.91306	7342.1125
2645.56209	7349.2125
2648.20948	7320.7125
2650.85521	7331.8125
2653.4993	7353.2125
2656.14175	7343.4125
2658.78255	7361.9125
2661.42171	7397.2125
2664.05923	7409.4125
2666.6951	7434.2125
2669.32934	7437.2125
2671.96194	7432.6125
2674.59291	7426.8125
2677.22224	7446.5125
2679.84993	7417.4125
2682.476	7418.3125
2685.10043	7420.4125
2687.72324	7403.9125
2690.34441	7368.0125
2692.96396	7381.2125
2695.58188	7378.7125
2698.19818	7366.3125
2700.81285	7356.9125
2703.4259	7342.5125
2706.03733	7264.3125
2708.64714	7309.7125
2711.25533	7346.0125
2713.86191	7349.9125
2716.46687	7376.6125
2719.07021	7406.8125
2721.67194	7405.2125
2724.27206	7391.9125
2726.87057	7407.4125
2729.46747	7395.4125
2732.06276	7428.1125
2734.65644	7406.4125
2737.24852	7401.1125
2739.83899	7382.6125
2742.42786	7386.8125
2745.01513	7381.9125
2747.60079	7383.7125
2750.18486	7370.3125
2752.76733	7343.0125
2755.3482	7326.7125
2757.92747	7335.1125
2760.50515	7311.9125
2763.08123	7338.1125
2765.65573	7333.5125
2768.22863	7300.9125
2770.79994	7317.0125
2773.36967	7325.9125
2775.9378	7309.9125
2778.50435	7317.2125
2781.06932	7327.4125
2783.6327	7315.0125
2786.1945	7329.6125
2788.75471	7334.2125
2791.31335	7334.2125
2793.87041	7329.7125
2796.42589	7303.3125
2798.97979	7291.3125
2801.53212	7292.3125
2804.08288	7305.4125
2806.63206	7293.3125
2809.17967	7285.2125
2811.72571	7276.3125
2814.27018	7278.4125
2816.81308	7287.1125
2819.35442	7301.2125
2821.89419	7305.4125
2824.43239	7336.8125
2826.96904	7319.5125
2829.50412	7331.8125
2832.03763	7310.5125
2834.56959	7296.2125
2837.1	7293.3125
2839.62884	7284.4125
2842.15613	7273.6125
2844.68186	7283.1125
2847.20604	7290.4125
2849.72867	7316.1125
2852.24974	7291.5125
2854.76927	7305.9125
2857.28724	7293.3125
2859.80367	7329.8125
2862.31855	7352.3125
2864.83189	7355.4125
2867.34368	7376.3125
2869.85393	7409.0125
2872.36264	7415.3125
2874.8698	7428.7125
2877.37543	7431.0125
2879.87952	7406.1125
2882.38207	7406.1125
2884.88308	7424.7125
2887.38256	7422.5125
2889.88051	7434.5125
2892.37692	7435.4125
2894.8718	7416.4125
2897.36515	7448.9125
2899.85698	7429.1125
2902.34727	7449.9125
2904.83604	7476.5125
2907.32328	7471.6125
2909.809	7455.0125
2912.29319	7481.2125
2914.77587	7451.5125
2917.25702	7443.7125
2919.73665	7453.7125
2922.21476	7461.9125
2924.69136	7442.5125
2927.16644	7416.1125
2929.64	7390.9125
2932.11205	7370.2125
2934.58258	7318.2125
2937.05161	7325.1125
2939.51912	7327.5125
2941.98513	7314.5125
2944.44962	7319.1125
2946.91261	7275.9125
2949.37409	7294.9125
2951.83407	7269.3125
2954.29254	7241.8125
2956.74951	7255.0125
2959.20498	7238.1125
2961.65895	7219.4125
2964.11142	7187.8125
2966.56239	7179.7125
2969.01186	7135.0125
2971.45984	7130.4125
2973.90632	7113.3125
2976.35131	7088.7125
2978.7948	7077.9125
2981.23681	7057.7125
2983.67732	7063.1125
2986.11635	7029.1125
2988.55388	6984.3125
2990.98993	6984.8125
2993.4245	6993.8125
2995.85758	7001.6125
2998.28917	6974.4125
3000.71928	6965.6125
3003.14791	6961.8125
3005.57506	6949.2125
3008.00073	6911.4125
3010.42493	6930.2125
3012.84764	6896.7125
3015.26888	6910.9125
3017.68865	6883.1125
3020.10694	6887.1125
3022.52376	6873.9125
3024.9391	6842.7125
3027.35298	6840.5125
3029.76539	6824.3125
3032.17632	6826.3125
3034.5858	6800.4125
3036.9938	6783.5125
3039.40034	6766.6125
3041.80542	6743.2125
3044.20903	6730.5125
3046.61118	6717.0125
3049.01187	6727.0125
3051.4111	6732.1125
3053.80888	6715.9125
3056.20519	6696.2125
3058.60005	6674.0125
3060.99345	6667.9125
3063.3854	6644.5125
3065.7759	6640.7125
3068.16494	6594.9125
3070.55254	6584.6125
3072.93868	6558.3125
3075.32338	6560.8125
