Data from AgNPs_FTO_APTES_UA_50uM_CRN_0uM_R6G_10uM_NaF_0.1M_Addition_RamanShift__8__10-19-34-626.txt Node

Date: Mon Feb 21 10:19:34 GMT 2022
User: TCL
Spectrometer: QEP01345
Trigger mode: 4
Integration Time (sec): 7.000000E0
Scans to average: 10
Electric dark correction enabled: true
Nonlinearity correction enabled: false
Boxcar width: 0
XAxis mode: Raman Shifts
Number of Pixels in Spectrum: 1044
>>>>>Begin Spectral Data<<<<<
46.04893	1.3875
50.45542	-0.5125
54.85868	-1.0125
59.25871	-0.3125
63.6555	25.5875
68.04907	30.3875
72.43941	27.8875
76.82654	35.0875
81.21044	34.2875
85.59113	38.7875
89.96862	37.3875
94.34289	42.4875
98.71396	40.8875
103.08183	44.2875
107.4465	46.1875
111.80798	45.6875
116.16626	42.0875
120.52136	45.2875
124.87327	50.0875
129.222	45.1875
133.56755	44.8875
137.90993	51.3875
142.24913	51.0875
146.58517	60.3875
150.91804	66.5875
155.24774	73.6875
159.57429	88.5875
163.89768	108.9875
168.21792	147.1875
172.53501	190.6875
176.84895	267.7875
181.15975	370.2875
185.46741	510.8875
189.77193	702.2875
194.07331	941.2875
198.37157	1209.3875
202.6667	1505.6875
206.9587	1799.1875
211.24758	2076.8875
215.53334	2379.9875
219.81599	2703.7875
224.09553	3081.1875
228.37195	3478.4875
232.64527	3918.0875
236.91549	4366.5875
241.18261	4754.4875
245.44663	5085.3875
249.70755	5350.2875
253.96539	5547.6875
258.22014	5741.2875
262.4718	5892.8875
266.72039	6017.9875
270.96589	6055.9875
275.20832	6018.4875
279.44768	5917.5875
283.68397	5777.8875
287.91719	5670.6875
292.14735	5661.4875
296.37445	5738.0875
300.59849	5944.0875
304.81948	6245.5875
309.03742	6525.6875
313.25231	6578.1875
317.46415	6386.2875
321.67296	5959.4875
325.87872	5566.8875
330.08145	5354.8875
334.28114	5318.6875
338.47781	5373.3875
342.67145	5500.3875
346.86207	5711.8875
351.04966	6032.7875
355.23424	6406.2875
359.4158	6713.4875
363.59435	6829.8875
367.76989	6827.0875
371.94243	6785.7875
376.11196	6728.3875
380.27849	6693.3875
384.44203	6600.6875
388.60257	6502.9875
392.76012	6454.7875
396.91468	6471.7875
401.06626	6609.3875
405.21485	6710.0875
409.36047	6595.3875
413.50311	6239.6875
417.64277	5892.0875
421.77947	5673.6875
425.9132	5562.3875
430.04396	5537.8875
434.17176	5570.1875
438.2966	5674.4875
442.41849	5848.2875
446.53742	6054.7875
450.6534	6242.5875
454.76644	6350.1875
458.87653	6284.2875
462.98368	6147.7875
467.08789	5989.9875
471.18916	5867.0875
475.2875	5738.3875
479.38291	5579.4875
483.4754	5502.2875
487.56496	5428.2875
491.6516	5407.5875
495.73531	5391.9875
499.81612	5408.8875
503.89401	5496.1875
507.96899	5592.3875
512.04106	5687.5875
516.11023	5807.3875
520.1765	5900.0875
524.23987	5939.6875
528.30034	5878.4875
532.35792	5777.4875
536.41261	5644.4875
540.46441	5512.8875
544.51333	5417.2875
548.55936	5405.4875
552.60252	5477.8875
556.64279	5642.5875
560.6802	5767.6875
564.71473	5829.9875
568.7464	6062.9875
572.7752	6215.5875
576.80114	6023.7875
580.82422	5723.9875
584.84444	5653.8875
588.86181	5787.1875
592.87633	6060.9875
596.888	6248.0875
600.89682	6212.3875
604.9028	6569.0875
608.90594	8269.6875
612.90624	10928.8875
616.90371	10947.1875
620.89834	7667.8875
624.89015	5923.6875
628.87913	5570.7875
632.86528	5560.0875
636.84862	5716.4875
640.82913	5661.0875
644.80683	5410.4875
648.78172	5235.8875
652.75379	5227.0875
656.72306	5413.6875
660.68952	5690.4875
664.65319	5640.8875
668.61405	5356.8875
672.57211	5212.2875
676.52738	5180.4875
680.47986	5195.4875
684.42955	5129.0875
688.37646	5081.3875
692.32058	5075.3875
696.26192	5118.6875
700.20048	5155.1875
704.13626	5195.2875
708.06928	5181.0875
711.99952	5150.1875
715.927	5152.5875
719.85171	5224.1875
723.77365	5250.9875
727.69284	5221.8875
731.60928	5172.8875
735.52295	5146.8875
739.43388	5176.2875
743.34206	5195.6875
747.24749	5192.0875
751.15017	5205.6875
755.05012	5247.7875
758.94733	5443.6875
762.8418	6015.6875
766.73354	7078.5875
770.62254	8272.5875
774.50882	8944.3875
778.39237	8678.0875
782.27321	7579.8875
786.15132	6391.4875
790.02671	5652.4875
793.89938	5326.7875
797.76935	5169.2875
801.6366	5117.5875
805.50115	5070.9875
809.36299	5046.6875
813.22213	5023.5875
817.07857	5002.7875
820.93231	4977.9875
824.78336	4981.7875
828.63172	5006.0875
832.47738	5024.1875
836.32036	5004.6875
840.16066	4966.4875
843.99827	4950.3875
847.8332	4936.5875
851.66546	4930.2875
855.49504	4934.8875
859.32195	4930.7875
863.1462	4890.8875
866.96777	4871.1875
870.78668	4866.9875
874.60293	4884.5875
878.41652	4879.2875
882.22745	4941.7875
886.03573	4962.5875
889.84136	4965.8875
893.64433	4903.7875
897.44466	4902.4875
901.24235	4894.5875
905.0374	4869.2875
908.8298	4844.0875
912.61957	4831.6875
916.40671	4835.4875
920.19121	4867.4875
923.97308	4917.8875
927.75233	4997.6875
931.52895	5071.8875
935.30295	5029.1875
939.07433	4874.4875
942.84309	4727.6875
946.60924	4629.1875
950.37278	4595.6875
954.13371	4546.4875
957.89203	4520.4875
961.64774	4479.6875
965.40086	4474.5875
969.15137	4450.0875
972.89929	4439.0875
976.64461	4434.4875
980.38733	4418.8875
984.12747	4420.9875
987.86502	4426.8875
991.59999	4446.7875
995.33237	4488.3875
999.06217	4573.9875
1002.78939	4672.6875
1006.51404	4760.7875
1010.23611	4815.6875
1013.95561	4871.3875
1017.67255	4844.2875
1021.38692	4773.3875
1025.09872	4666.2875
1028.80796	4572.3875
1032.51465	4542.9875
1036.21877	4536.1875
1039.92035	4567.6875
1043.61937	4602.7875
1047.31584	4629.9875
1051.00976	4666.7875
1054.70114	4690.2875
1058.38998	4679.1875
1062.07627	4673.7875
1065.76003	4673.4875
1069.44126	4651.6875
1073.11995	4669.4875
1076.79611	4745.6875
1080.46974	4844.7875
1084.14085	5009.1875
1087.80943	5152.4875
1091.47549	5236.8875
1095.13903	5122.0875
1098.80005	4934.8875
1102.45857	4754.3875
1106.11456	4695.1875
1109.76805	4735.7875
1113.41903	4843.1875
1117.06751	5019.7875
1120.71348	5272.1875
1124.35696	5543.3875
1127.99793	5818.3875
1131.63641	5843.4875
1135.2724	5516.6875
1138.90589	5206.5875
1142.5369	4974.6875
1146.16542	4827.4875
1149.79145	4747.5875
1153.415	4685.0875
1157.03607	4696.7875
1160.65467	4770.6875
1164.27079	4923.0875
1167.88443	5222.8875
1171.49561	5719.9875
1175.10432	6545.8875
1178.71056	7690.1875
1182.31434	8581.5875
1185.91565	8716.9875
1189.51451	8337.0875
1193.11091	7700.0875
1196.70485	7055.9875
1200.29634	6547.9875
1203.88538	6128.5875
1207.47197	5655.8875
1211.05612	5253.1875
1214.63782	5043.1875
1218.21708	5038.5875
1221.79391	5082.7875
1225.36829	5107.8875
1228.94024	5071.8875
1232.50976	4981.5875
1236.07685	4879.7875
1239.6415	4833.4875
1243.20374	4833.1875
1246.76355	4835.0875
1250.32093	4845.1875
1253.8759	4901.1875
1257.42845	5028.2875
1260.97859	5220.5875
1264.52631	5449.6875
1268.07163	5681.9875
1271.61453	5861.5875
1275.15503	6006.8875
1278.69312	6046.0875
1282.22882	6081.4875
1285.76211	6235.1875
1289.29301	6521.3875
1292.82151	6832.4875
1296.34761	7138.9875
1299.87133	7579.7875
1303.39266	8250.5875
1306.9116	9352.2875
1310.42815	10738.3875
1313.94233	11650.5875
1317.45412	11430.8875
1320.96354	10288.6875
1324.47058	9006.5875
1327.97525	7925.6875
1331.47754	7276.4875
1334.97747	7031.4875
1338.47502	7000.5875
1341.97022	7118.1875
1345.46305	7425.3875
1348.95352	8047.9875
1352.44163	9006.3875
1355.92738	10419.4875
1359.41078	12380.0875
1362.89183	14383.0875
1366.37053	14388.9875
1369.84688	11978.9875
1373.32088	9351.8875
1376.79254	7681.3875
1380.26186	6901.3875
1383.72883	6444.5875
1387.19347	6116.6875
1390.65578	5784.3875
1394.11575	5579.7875
1397.57339	5474.0875
1401.0287	5514.2875
1404.48168	5525.8875
1407.93234	5521.0875
1411.38068	5503.6875
1414.82669	5469.9875
1418.27039	5407.8875
1421.71177	5355.1875
1425.15083	5239.5875
1428.58758	5191.7875
1432.02203	5233.1875
1435.45416	5327.6875
1438.88399	5393.7875
1442.31151	5390.4875
1445.73673	5355.0875
1449.15965	5389.1875
1452.58027	5370.1875
1455.9986	5283.8875
1459.41463	5224.5875
1462.82837	5257.8875
1466.23982	5409.3875
1469.64898	5570.0875
1473.05586	5682.4875
1476.46045	5749.3875
1479.86276	5828.3875
1483.26279	5929.8875
1486.66054	6055.3875
1490.05602	6300.1875
1493.44922	6579.6875
1496.84016	7062.9875
1500.22882	7874.1875
1503.61521	9087.7875
1506.99934	10588.6875
1510.38121	12075.1875
1513.76081	12861.7875
1517.13816	12168.8875
1520.51324	10376.0875
1523.88607	8476.5875
1527.25665	7241.7875
1530.62498	6559.2875
1533.99105	6198.1875
1537.35488	5930.2875
1540.71647	5744.1875
1544.07581	5612.2875
1547.4329	5556.0875
1550.78776	5520.2875
1554.14038	5559.1875
1557.49077	5621.2875
1560.83892	5761.4875
1564.18484	5979.4875
1567.52853	6251.4875
1570.86999	6545.3875
1574.20922	6722.3875
1577.54624	6716.3875
1580.88103	6339.8875
1584.2136	5710.5875
1587.54395	5346.7875
1590.87208	5311.2875
1594.19801	5623.6875
1597.52172	6172.8875
1600.84321	6499.5875
1604.16251	6324.0875
1607.47959	5834.3875
1610.79447	5279.2875
1614.10715	4791.9875
1617.41763	4413.4875
1620.7259	4213.4875
1624.03199	4091.8875
1627.33587	4107.1875
1630.63757	4184.2875
1633.93707	4395.0875
1637.23439	4814.1875
1640.52951	5532.6875
1643.82246	6584.2875
1647.11321	7813.4875
1650.40179	8685.3875
1653.68819	8422.2875
1656.97241	7083.8875
1660.25446	5571.8875
1663.53433	4506.5875
1666.81203	3925.1875
1670.08756	3626.0875
1673.36092	3465.0875
1676.63211	3364.0875
1679.90115	3307.6875
1683.16801	3250.7875
1686.43272	3192.7875
1689.69527	3143.4875
1692.95567	3052.6875
1696.2139	2935.3875
1699.46999	2812.4875
1702.72392	2764.8875
1705.97571	2858.4875
1709.22535	2953.7875
1712.47284	3029.0875
1715.71819	3061.3875
1718.96139	3069.7875
1722.20246	3069.5875
1725.44139	3055.2875
1728.67818	3028.7875
1731.91284	2994.3875
1735.14537	2963.2875
1738.37576	2934.1875
1741.60403	2921.9875
1744.83017	2885.6875
1748.05418	2868.7875
1751.27607	2822.5875
1754.49584	2764.8875
1757.71349	2697.0875
1760.92903	2646.5875
1764.14244	2638.9875
1767.35375	2638.8875
1770.56294	2627.3875
1773.77002	2643.4875
1776.97499	2685.3875
1780.17785	2744.7875
1783.37861	2762.2875
1786.57727	2771.0875
1789.77382	2780.3875
1792.96828	2772.9875
1796.16064	2786.9875
1799.3509	2782.4875
1802.53907	2760.9875
1805.72514	2749.3875
1808.90913	2748.3875
1812.09102	2732.5875
1815.27083	2724.5875
1818.44856	2723.3875
1821.6242	2703.8875
1824.79776	2709.0875
1827.96924	2695.2875
1831.13864	2696.9875
1834.30597	2688.1875
1837.47122	2689.2875
1840.6344	2666.4875
1843.7955	2663.8875
1846.95454	2659.8875
1850.11151	2650.5875
1853.26642	2643.6875
1856.41926	2632.9875
1859.57004	2645.6875
1862.71876	2622.4875
1865.86542	2617.5875
1869.01003	2612.2875
1872.15258	2616.7875
1875.29308	2593.3875
1878.43152	2603.4875
1881.56792	2602.1875
1884.70227	2592.5875
1887.83457	2599.0875
1890.96482	2589.3875
1894.09304	2583.3875
1897.21921	2578.8875
1900.34335	2582.1875
1903.46544	2572.6875
1906.58551	2574.1875
1909.70353	2559.0875
1912.81953	2555.2875
1915.93349	2566.0875
1919.04543	2551.6875
1922.15534	2527.3875
1925.26322	2522.3875
1928.36908	2518.7875
1931.47292	2493.0875
1934.57473	2489.0875
1937.67453	2476.7875
1940.77232	2463.4875
1943.86808	2457.0875
1946.96184	2443.8875
1950.05358	2429.3875
1953.14331	2424.5875
1956.23103	2414.8875
1959.31675	2395.6875
1962.40046	2394.4875
1965.48217	2389.8875
1968.56188	2393.6875
1971.63959	2391.2875
1974.7153	2391.6875
1977.78901	2379.9875
1980.86073	2354.0875
1983.93046	2342.9875
1986.99819	2333.9875
1990.06394	2326.0875
1993.1277	2312.8875
1996.18947	2305.1875
1999.24925	2293.9875
2002.30706	2286.4875
2005.36288	2277.7875
2008.41672	2259.0875
2011.46859	2257.4875
2014.51848	2246.1875
2017.56639	2229.3875
2020.61233	2225.7875
2023.6563	2220.7875
2026.6983	2204.9875
2029.73833	2199.8875
2032.7764	2191.6875
2035.8125	2180.7875
2038.84664	2170.4875
2041.87881	2171.8875
2044.90903	2162.2875
2047.93729	2154.5875
2050.96359	2140.7875
2053.98794	2145.4875
2057.01034	2130.8875
2060.03078	2126.5875
2063.04927	2129.8875
2066.06582	2131.0875
2069.08042	2132.8875
2072.09307	2122.4875
2075.10378	2121.8875
2078.11255	2114.2875
2081.11938	2123.5875
2084.12426	2113.5875
2087.12722	2121.9875
2090.12824	2105.6875
2093.12732	2101.8875
2096.12447	2109.8875
2099.11969	2105.2875
2102.11299	2111.3875
2105.10435	2110.9875
2108.09379	2109.3875
2111.08131	2110.9875
2114.0669	2106.8875
2117.05057	2105.8875
2120.03233	2103.2875
2123.01216	2101.7875
2125.99008	2100.2875
2128.96609	2102.9875
2131.94018	2105.6875
2134.91236	2101.3875
2137.88263	2086.4875
2140.851	2090.0875
2143.81746	2086.9875
2146.78201	2083.7875
2149.74466	2070.9875
2152.7054	2070.7875
2155.66425	2071.4875
2158.6212	2069.8875
2161.57625	2061.7875
2164.52941	2061.6875
2167.48067	2050.1875
2170.43004	2046.0875
2173.37752	2044.6875
2176.32311	2052.9875
2179.26681	2044.2875
2182.20863	2038.2875
2185.14856	2033.2875
2188.08661	2034.4875
2191.02278	2042.5875
2193.95707	2026.8875
2196.88948	2030.1875
2199.82001	2041.5875
2202.74867	2029.0875
2205.67545	2012.2875
2208.60037	2011.7875
2211.52341	2003.8875
2214.44458	1990.5875
2217.36388	1983.5875
2220.28132	1981.9875
2223.1969	1975.0875
2226.11061	1968.2875
2229.02246	1972.0875
2231.93245	1956.0875
2234.84058	1953.9875
2237.74686	1949.5875
2240.65128	1949.7875
2243.55385	1947.0875
2246.45456	1932.4875
2249.35343	1935.9875
2252.25044	1936.4875
2255.14561	1938.7875
2258.03893	1919.8875
2260.93041	1895.0875
2263.82004	1896.9875
2266.70783	1915.3875
2269.59378	1912.5875
2272.4779	1908.6875
2275.36017	1898.9875
2278.24061	1897.8875
2281.11922	1892.2875
2283.996	1893.4875
2286.87094	1880.1875
2289.74405	1873.4875
2292.61534	1863.1875
2295.4848	1862.9875
2298.35243	1858.4875
2301.21824	1843.9875
2304.08223	1843.5875
2306.94439	1836.6875
2309.80474	1841.6875
2312.66327	1839.1875
2315.51999	1834.6875
2318.37489	1834.6875
2321.22797	1824.4875
2324.07925	1812.6875
2326.92871	1809.6875
2329.77637	1819.0875
2332.62222	1813.3875
2335.46626	1806.6875
2338.3085	1804.6875
2341.14893	1791.2875
2343.98756	1796.0875
2346.8244	1798.1875
2349.65943	1800.6875
2352.49267	1799.3875
2355.32411	1800.6875
2358.15376	1799.4875
2360.98161	1811.5875
2363.80768	1820.4875
2366.63195	1823.2875
2369.45444	1823.9875
2372.27514	1821.7875
2375.09405	1811.9875
2377.91118	1810.3875
2380.72652	1799.6875
2383.54009	1790.9875
2386.35187	1783.7875
2389.16188	1769.1875
2391.97011	1761.0875
2394.77657	1755.8875
2397.58125	1744.0875
2400.38416	1734.9875
2403.18529	1726.2875
2405.98466	1727.6875
2408.78226	1719.5875
2411.57809	1712.7875
2414.37216	1720.3875
2417.16446	1713.5875
2419.955	1697.2875
2422.74378	1711.8875
2425.5308	1686.6875
2428.31606	1703.1875
2431.09956	1688.4875
2433.88131	1699.7875
2436.6613	1702.0875
2439.43954	1697.7875
2442.21603	1698.1875
2444.99077	1696.8875
2447.76377	1700.0875
2450.53501	1692.0875
2453.30451	1692.0875
2456.07226	1699.1875
2458.83827	1694.3875
2461.60254	1691.3875
2464.36507	1692.3875
2467.12586	1684.3875
2469.88492	1682.4875
2472.64224	1677.2875
2475.39782	1667.4875
2478.15167	1653.6875
2480.90379	1675.3875
2483.65417	1679.6875
2486.40283	1691.8875
2489.14976	1702.1875
2491.89497	1697.7875
2494.63845	1689.0875
2497.3802	1657.7875
2500.12024	1689.3875
2502.85855	1686.9875
2505.59514	1674.0875
2508.33002	1668.5875
2511.06318	1657.1875
2513.79462	1648.7875
2516.52435	1626.4875
2519.25237	1619.2875
2521.97867	1610.2875
2524.70327	1608.9875
2527.42616	1601.6875
2530.14734	1614.6875
2532.86681	1591.8875
2535.58458	1607.4875
2538.30065	1595.9875
2541.01501	1590.9875
2543.72768	1589.1875
2546.43864	1587.7875
2549.14791	1591.0875
2551.85548	1593.7875
2554.56136	1589.0875
2557.26554	1574.7875
2559.96803	1577.3875
2562.66883	1575.2875
2565.36794	1567.5875
2568.06536	1580.4875
2570.7611	1569.3875
2573.45514	1566.2875
2576.14751	1557.1875
2578.83819	1553.0875
2581.52719	1545.8875
2584.21451	1546.5875
2586.90015	1543.3875
2589.58411	1531.1875
2592.2664	1534.7875
2594.94701	1533.4875
2597.62594	1527.2875
2600.30321	1529.9875
2602.9788	1524.2875
2605.65273	1530.7875
2608.32498	1527.0875
2610.99557	1515.5875
2613.66449	1525.9875
2616.33175	1517.0875
2618.99734	1522.2875
2621.66128	1507.5875
2624.32355	1509.9875
2626.98416	1498.4875
2629.64311	1496.2875
2632.30041	1496.3875
2634.95605	1486.1875
2637.61004	1484.6875
2640.26238	1478.8875
2642.91306	1468.9875
2645.56209	1479.7875
2648.20948	1465.8875
2650.85521	1458.8875
2653.4993	1475.6875
2656.14175	1479.1875
2658.78255	1481.4875
2661.42171	1477.2875
2664.05923	1482.4875
2666.6951	1486.8875
2669.32934	1487.9875
2671.96194	1487.1875
2674.59291	1482.9875
2677.22224	1491.1875
2679.84993	1489.8875
2682.476	1479.6875
2685.10043	1473.3875
2687.72324	1479.8875
2690.34441	1481.1875
2692.96396	1479.0875
2695.58188	1471.9875
2698.19818	1472.5875
2700.81285	1465.8875
2703.4259	1428.0875
2706.03733	1320.5875
2708.64714	1378.3875
2711.25533	1429.2875
2713.86191	1452.2875
2716.46687	1453.4875
2719.07021	1471.7875
2721.67194	1479.0875
2724.27206	1481.1875
2726.87057	1480.0875
2729.46747	1476.8875
2732.06276	1483.0875
2734.65644	1465.3875
2737.24852	1466.9875
2739.83899	1468.4875
2742.42786	1471.3875
2745.01513	1460.3875
2747.60079	1464.6875
2750.18486	1451.6875
2752.76733	1462.7875
2755.3482	1452.7875
2757.92747	1447.5875
2760.50515	1452.5875
2763.08123	1452.0875
2765.65573	1440.2875
2768.22863	1439.9875
2770.79994	1437.1875
2773.36967	1434.1875
2775.9378	1437.0875
2778.50435	1434.2875
2781.06932	1444.2875
2783.6327	1444.2875
2786.1945	1432.4875
2788.75471	1443.0875
2791.31335	1448.9875
2793.87041	1428.9875
2796.42589	1439.5875
2798.97979	1436.1875
2801.53212	1434.3875
2804.08288	1428.7875
2806.63206	1433.7875
2809.17967	1424.2875
2811.72571	1429.1875
2814.27018	1434.0875
2816.81308	1434.1875
2819.35442	1442.8875
2821.89419	1445.4875
2824.43239	1446.1875
2826.96904	1445.8875
2829.50412	1441.9875
2832.03763	1445.3875
2834.56959	1452.4875
2837.1	1461.5875
2839.62884	1465.0875
2842.15613	1473.1875
2844.68186	1487.0875
2847.20604	1511.9875
2849.72867	1630.4875
2852.24974	1555.5875
2854.76927	1524.3875
2857.28724	1492.3875
2859.80367	1518.1875
2862.31855	1522.5875
2864.83189	1539.0875
2867.34368	1540.3875
2869.85393	1549.9875
2872.36264	1571.3875
2874.8698	1583.3875
2877.37543	1559.3875
2879.87952	1569.3875
2882.38207	1558.4875
2884.88308	1555.2875
2887.38256	1562.1875
2889.88051	1560.0875
2892.37692	1559.9875
2894.8718	1566.3875
2897.36515	1550.8875
2899.85698	1557.7875
2902.34727	1565.0875
2904.83604	1561.9875
2907.32328	1568.6875
2909.809	1556.4875
2912.29319	1564.9875
2914.77587	1569.1875
2917.25702	1558.6875
2919.73665	1558.2875
2922.21476	1556.8875
2924.69136	1546.0875
2927.16644	1550.8875
2929.64	1535.0875
2932.11205	1544.5875
2934.58258	1518.9875
2937.05161	1513.1875
2939.51912	1501.2875
2941.98513	1500.9875
2944.44962	1469.0875
2946.91261	1457.9875
2949.37409	1453.9875
2951.83407	1444.1875
2954.29254	1437.8875
2956.74951	1416.3875
2959.20498	1417.4875
2961.65895	1402.6875
2964.11142	1406.9875
2966.56239	1392.1875
2969.01186	1389.4875
2971.45984	1381.2875
2973.90632	1371.1875
2976.35131	1364.0875
2978.7948	1357.4875
2981.23681	1346.0875
2983.67732	1341.3875
2986.11635	1330.5875
2988.55388	1327.0875
2990.98993	1327.2875
2993.4245	1320.9875
2995.85758	1322.3875
2998.28917	1307.7875
3000.71928	1308.6875
3003.14791	1308.5875
3005.57506	1309.1875
3008.00073	1311.0875
3010.42493	1309.5875
3012.84764	1307.4875
3015.26888	1299.3875
3017.68865	1299.8875
3020.10694	1304.2875
3022.52376	1296.7875
3024.9391	1293.8875
3027.35298	1284.7875
3029.76539	1290.8875
3032.17632	1285.8875
3034.5858	1283.6875
3036.9938	1289.9875
3039.40034	1284.6875
3041.80542	1283.3875
3044.20903	1273.2875
3046.61118	1266.3875
3049.01187	1271.3875
3051.4111	1274.1875
3053.80888	1275.6875
3056.20519	1272.0875
3058.60005	1279.8875
3060.99345	1272.8875
3063.3854	1268.4875
3065.7759	1268.0875
3068.16494	1271.3875
3070.55254	1265.4875
3072.93868	1267.7875
3075.32338	1270.1875
3077.70662	1260.3875
3080.08842	1255.6875
3082.46878	1254.7875
3084.84769	1252.8875
3087.22515	1269.4875
3089.60118	1266.0875
3091.97576	1260.9875
3094.3489	1264.3875
3096.72061	1262.3875
3099.09087	1268.1875
3101.4597	1274.8875
3103.82709	1272.1875
3106.19305	1276.9875
3108.55757	1273.0875
3110.92066	1279.3875
3113.28232	1280.7875
3115.64255	1279.6875
3118.00134	1273.7875
3120.35871	1281.4875
3122.71466	1276.8875
