Data from AgNPs_FTO_APTES_UA_50uM_CRN_1uM_R6G_10uM_NaF_0.1M_Addition_RamanShift__20__11-38-54-733.txt Node

Date: Mon Feb 21 11:38:54 GMT 2022
User: TCL
Spectrometer: QEP01345
Trigger mode: 4
Integration Time (sec): 7.000000E0
Scans to average: 10
Electric dark correction enabled: true
Nonlinearity correction enabled: false
Boxcar width: 0
XAxis mode: Raman Shifts
Number of Pixels in Spectrum: 1044
>>>>>Begin Spectral Data<<<<<
46.04893	0.6125
50.45542	-0.1875
54.85868	-1.1875
59.25871	-1.7875
63.6555	64.8125
68.04907	73.8125
72.43941	70.8125
76.82654	77.0125
81.21044	80.2125
85.59113	80.7125
89.96862	87.5125
94.34289	94.0125
98.71396	86.2125
103.08183	95.6125
107.4465	97.6125
111.80798	95.2125
116.16626	95.3125
120.52136	97.4125
124.87327	107.3125
129.222	107.0125
133.56755	112.6125
137.90993	124.3125
142.24913	133.3125
146.58517	148.5125
150.91804	172.0125
155.24774	201.1125
159.57429	250.7125
163.89768	317.6125
168.21792	427.1125
172.53501	583.0125
176.84895	810.0125
181.15975	1137.5125
185.46741	1599.9125
189.77193	2206.6125
194.07331	2940.4125
198.37157	3803.3125
202.6667	4684.2125
206.9587	5575.5125
211.24758	6470.8125
215.53334	7359.6125
219.81599	8337.4125
224.09553	9433.2125
228.37195	10614.2125
232.64527	11950.2125
236.91549	13308.7125
241.18261	14684.7125
245.44663	15825.5125
249.70755	16823.5125
253.96539	17719.1125
258.22014	18489.6125
262.4718	19141.6125
266.72039	19571.0125
270.96589	19786.9125
275.20832	19777.0125
279.44768	19618.6125
283.68397	19382.3125
287.91719	19213.0125
292.14735	19169.9125
296.37445	19298.0125
300.59849	19561.2125
304.81948	19871.0125
309.03742	20074.8125
313.25231	19926.9125
317.46415	19343.6125
321.67296	18518.8125
325.87872	17819.0125
330.08145	17486.0125
334.28114	17431.7125
338.47781	17621.7125
342.67145	17924.9125
346.86207	18380.3125
351.04966	19010.6125
355.23424	19705.8125
359.4158	20284.5125
363.59435	20674.4125
367.76989	20882.2125
371.94243	20913.8125
376.11196	20958.6125
380.27849	20952.0125
384.44203	20944.1125
388.60257	20944.4125
392.76012	21068.0125
396.91468	21274.5125
401.06626	21662.7125
405.21485	21980.3125
409.36047	21835.8125
413.50311	21244.2125
417.64277	20752.3125
421.77947	20519.9125
425.9132	20443.5125
430.04396	20468.1125
434.17176	20577.3125
438.2966	20769.8125
442.41849	21166.3125
446.53742	21784.0125
450.6534	22407.0125
454.76644	22901.2125
458.87653	23133.5125
462.98368	22982.2125
467.08789	22693.5125
471.18916	22332.8125
475.2875	21879.9125
479.38291	21577.3125
483.4754	21430.1125
487.56496	21179.1125
491.6516	20867.9125
495.73531	20618.7125
499.81612	20552.0125
503.89401	20665.9125
507.96899	20773.8125
512.04106	20783.4125
516.11023	20796.5125
520.1765	20746.1125
524.23987	20665.4125
528.30034	20493.3125
532.35792	20258.1125
536.41261	19962.6125
540.46441	19707.8125
544.51333	19616.9125
548.55936	19780.9125
552.60252	20216.2125
556.64279	20735.0125
560.6802	21043.1125
564.71473	21320.0125
568.7464	21884.8125
572.7752	22416.4125
576.80114	22489.0125
580.82422	22451.4125
584.84444	22543.2125
588.86181	22721.6125
592.87633	23035.0125
596.888	23217.6125
600.89682	23374.9125
604.9028	24538.2125
608.90594	28207.3125
612.90624	32672.4125
616.90371	31089.5125
620.89834	24449.3125
624.89015	21318.7125
628.87913	20822.3125
632.86528	20913.3125
636.84862	20919.5125
640.82913	20587.7125
644.80683	19855.8125
648.78172	19365.4125
652.75379	19232.8125
656.72306	19652.2125
660.68952	20291.3125
664.65319	20193.6125
668.61405	19676.1125
672.57211	19485.5125
676.52738	19497.7125
680.47986	19511.6125
684.42955	19361.4125
688.37646	19337.7125
692.32058	19449.7125
696.26192	19666.8125
700.20048	19884.3125
704.13626	19986.8125
708.06928	19897.8125
711.99952	19633.0125
715.927	19616.0125
719.85171	19704.9125
723.77365	19668.2125
727.69284	19459.2125
731.60928	19247.4125
735.52295	19166.0125
739.43388	19202.5125
743.34206	19300.5125
747.24749	19400.3125
751.15017	19569.7125
755.05012	19903.6125
758.94733	20560.3125
762.8418	22011.7125
766.73354	24481.5125
770.62254	26924.9125
774.50882	27794.3125
778.39237	26576.0125
782.27321	24068.1125
786.15132	21741.2125
790.02671	20303.5125
793.89938	19640.0125
797.76935	19344.4125
801.6366	19285.9125
805.50115	19203.9125
809.36299	19079.8125
813.22213	18951.4125
817.07857	18890.6125
820.93231	18844.9125
824.78336	18807.1125
828.63172	18788.5125
832.47738	18795.6125
836.32036	18806.6125
840.16066	18846.8125
843.99827	18881.9125
847.8332	18805.7125
851.66546	18729.6125
855.49504	18742.6125
859.32195	18727.2125
863.1462	18656.5125
866.96777	18549.0125
870.78668	18520.8125
874.60293	18582.6125
878.41652	18582.7125
882.22745	18661.6125
886.03573	18716.9125
889.84136	18728.1125
893.64433	18704.7125
897.44466	18555.2125
901.24235	18488.3125
905.0374	18420.4125
908.8298	18312.0125
912.61957	18290.7125
916.40671	18397.3125
920.19121	18613.7125
923.97308	18825.8125
927.75233	18990.9125
931.52895	19062.2125
935.30295	18847.0125
939.07433	18450.6125
942.84309	18098.1125
946.60924	17955.0125
950.37278	17859.3125
954.13371	17816.0125
957.89203	17697.5125
961.64774	17622.9125
965.40086	17567.4125
969.15137	17531.5125
972.89929	17460.1125
976.64461	17450.8125
980.38733	17438.4125
984.12747	17523.6125
987.86502	17695.9125
991.59999	17986.9125
995.33237	18358.2125
999.06217	18962.0125
1002.78939	19688.6125
1006.51404	20222.5125
1010.23611	20535.2125
1013.95561	20736.7125
1017.67255	20746.4125
1021.38692	20496.0125
1025.09872	20280.7125
1028.80796	20343.1125
1032.51465	20787.1125
1036.21877	21276.6125
1039.92035	21383.2125
1043.61937	21191.9125
1047.31584	20674.2125
1051.00976	20099.1125
1054.70114	19761.0125
1058.38998	19664.2125
1062.07627	19698.9125
1065.76003	19825.3125
1069.44126	19970.7125
1073.11995	20214.3125
1076.79611	20497.8125
1080.46974	20743.2125
1084.14085	21061.8125
1087.80943	21439.8125
1091.47549	21615.7125
1095.13903	21484.9125
1098.80005	21047.9125
1102.45857	20534.2125
1106.11456	20284.3125
1109.76805	20224.6125
1113.41903	20485.0125
1117.06751	20809.0125
1120.71348	21270.7125
1124.35696	21713.3125
1127.99793	22169.1125
1131.63641	22255.9125
1135.2724	21811.7125
1138.90589	21371.5125
1142.5369	21022.4125
1146.16542	20859.7125
1149.79145	20797.4125
1153.415	20880.6125
1157.03607	21111.8125
1160.65467	21571.4125
1164.27079	22379.6125
1167.88443	23584.9125
1171.49561	25239.3125
1175.10432	27616.4125
1178.71056	30703.2125
1182.31434	33596.3125
1185.91565	34997.6125
1189.51451	34801.5125
1193.11091	33414.7125
1196.70485	31589.3125
1200.29634	29850.7125
1203.88538	28439.4125
1207.47197	27194.6125
1211.05612	26129.5125
1214.63782	25544.2125
1218.21708	25379.0125
1221.79391	25350.5125
1225.36829	25409.7125
1228.94024	25176.3125
1232.50976	24843.0125
1236.07685	24509.1125
1239.6415	24281.5125
1243.20374	24210.1125
1246.76355	24335.4125
1250.32093	24635.6125
1253.8759	25193.7125
1257.42845	26001.5125
1260.97859	26847.1125
1264.52631	27701.9125
1268.07163	28576.1125
1271.61453	29506.0125
1275.15503	30364.0125
1278.69312	31208.2125
1282.22882	31972.9125
1285.76211	32669.1125
1289.29301	33445.4125
1292.82151	34495.6125
1296.34761	35834.6125
1299.87133	37721.8125
1303.39266	40345.5125
1306.9116	43731.0125
1310.42815	47281.8125
1313.94233	49403.9125
1317.45412	49104.1125
1320.96354	47301.8125
1324.47058	45118.0125
1327.97525	43282.3125
1331.47754	42197.5125
1334.97747	41863.8125
1338.47502	42031.3125
1341.97022	42423.5125
1345.46305	42494.0125
1348.95352	42483.8125
1352.44163	42924.8125
1355.92738	44581.7125
1359.41078	47888.7125
1362.89183	51249.1125
1366.37053	50131.0125
1369.84688	44546.1125
1373.32088	38621.5125
1376.79254	34807.6125
1380.26186	32916.2125
1383.72883	32173.3125
1387.19347	31658.6125
1390.65578	31134.4125
1394.11575	30916.6125
1397.57339	31178.3125
1401.0287	31781.6125
1404.48168	32403.1125
1407.93234	32884.1125
1411.38068	33005.0125
1414.82669	32669.9125
1418.27039	31735.0125
1421.71177	30584.3125
1425.15083	29482.1125
1428.58758	28944.5125
1432.02203	28980.7125
1435.45416	29350.5125
1438.88399	29880.6125
1442.31151	30219.0125
1445.73673	30561.8125
1449.15965	30965.0125
1452.58027	31199.7125
1455.9986	31223.3125
1459.41463	31377.3125
1462.82837	31776.5125
1466.23982	32401.1125
1469.64898	33018.0125
1473.05586	33378.6125
1476.46045	33403.1125
1479.86276	33471.6125
1483.26279	33565.8125
1486.66054	33782.9125
1490.05602	34242.6125
1493.44922	34923.0125
1496.84016	35742.3125
1500.22882	37216.0125
1503.61521	39371.4125
1506.99934	42140.3125
1510.38121	44349.3125
1513.76081	44788.4125
1517.13816	42785.5125
1520.51324	39389.1125
1523.88607	36316.4125
1527.25665	34309.5125
1530.62498	33289.4125
1533.99105	32736.9125
1537.35488	32288.8125
1540.71647	31946.6125
1544.07581	31603.4125
1547.4329	31144.6125
1550.78776	30789.1125
1554.14038	30508.2125
1557.49077	30494.5125
1560.83892	30563.0125
1564.18484	30815.3125
1567.52853	31112.5125
1570.86999	31392.2125
1574.20922	31719.6125
1577.54624	31785.4125
1580.88103	31318.8125
1584.2136	30753.6125
1587.54395	31060.9125
1590.87208	32455.4125
1594.19801	34776.4125
1597.52172	37258.8125
1600.84321	38190.6125
1604.16251	36794.1125
1607.47959	34021.2125
1610.79447	30986.6125
1614.10715	28182.7125
1617.41763	25870.2125
1620.7259	24362.8125
1624.03199	23635.8125
1627.33587	23655.5125
1630.63757	24402.0125
1633.93707	25918.0125
1637.23439	28321.0125
1640.52951	31588.9125
1643.82246	35330.5125
1647.11321	38583.9125
1650.40179	39665.1125
1653.68819	37292.1125
1656.97241	32330.0125
1660.25446	27253.3125
1663.53433	23609.7125
1666.81203	21334.6125
1670.08756	20027.0125
1673.36092	19204.1125
1676.63211	18665.0125
1679.90115	18261.0125
1683.16801	18003.1125
1686.43272	17745.0125
1689.69527	17584.4125
1692.95567	17360.3125
1696.2139	17196.8125
1699.46999	17052.3125
1702.72392	17000.7125
1705.97571	17040.9125
1709.22535	17084.2125
1712.47284	17134.0125
1715.71819	17150.2125
1718.96139	17059.0125
1722.20246	17025.6125
1725.44139	16945.6125
1728.67818	16865.0125
1731.91284	16741.3125
1735.14537	16667.3125
1738.37576	16583.6125
1741.60403	16513.8125
1744.83017	16456.6125
1748.05418	16389.7125
1751.27607	16287.7125
1754.49584	16236.1125
1757.71349	16174.5125
1760.92903	16105.9125
1764.14244	16086.6125
1767.35375	16053.1125
1770.56294	16049.7125
1773.77002	16032.2125
1776.97499	16054.3125
1780.17785	16096.7125
1783.37861	16096.0125
1786.57727	16086.1125
1789.77382	16050.5125
1792.96828	16070.5125
1796.16064	16082.5125
1799.3509	16051.3125
1802.53907	16002.4125
1805.72514	15958.2125
1808.90913	15917.1125
1812.09102	15908.4125
1815.27083	15852.4125
1818.44856	15886.6125
1821.6242	15838.8125
1824.79776	15838.0125
1827.96924	15821.9125
1831.13864	15825.6125
1834.30597	15828.8125
1837.47122	15830.6125
1840.6344	15790.3125
1843.7955	15800.9125
1846.95454	15821.6125
1850.11151	15805.5125
1853.26642	15772.5125
1856.41926	15768.6125
1859.57004	15781.8125
1862.71876	15778.3125
1865.86542	15789.6125
1869.01003	15832.4125
1872.15258	15791.4125
1875.29308	15809.5125
1878.43152	15783.1125
1881.56792	15829.4125
1884.70227	15831.2125
1887.83457	15811.1125
1890.96482	15798.8125
1894.09304	15775.9125
1897.21921	15781.7125
1900.34335	15765.5125
1903.46544	15772.9125
1906.58551	15784.6125
1909.70353	15764.4125
1912.81953	15765.3125
1915.93349	15718.5125
1919.04543	15652.7125
1922.15534	15635.7125
1925.26322	15588.8125
1928.36908	15525.0125
1931.47292	15454.7125
1934.57473	15430.9125
1937.67453	15396.2125
1940.77232	15350.9125
1943.86808	15266.0125
1946.96184	15219.3125
1950.05358	15190.7125
1953.14331	15111.7125
1956.23103	15080.5125
1959.31675	15025.4125
1962.40046	14987.8125
1965.48217	14965.6125
1968.56188	14928.5125
1971.63959	14919.3125
1974.7153	14887.1125
1977.78901	14819.5125
1980.86073	14738.8125
1983.93046	14689.9125
1986.99819	14658.4125
1990.06394	14616.4125
1993.1277	14601.9125
1996.18947	14534.6125
1999.24925	14518.1125
2002.30706	14466.1125
2005.36288	14415.0125
2008.41672	14399.5125
2011.46859	14333.2125
2014.51848	14280.9125
2017.56639	14265.2125
2020.61233	14206.7125
2023.6563	14186.8125
2026.6983	14172.7125
2029.73833	14153.3125
2032.7764	14117.5125
2035.8125	14086.3125
2038.84664	14071.0125
2041.87881	14078.5125
2044.90903	14065.6125
2047.93729	14044.5125
2050.96359	14006.4125
2053.98794	13988.3125
2057.01034	13978.9125
2060.03078	13958.8125
2063.04927	13947.1125
2066.06582	13929.9125
2069.08042	13917.2125
2072.09307	13932.3125
2075.10378	13894.8125
2078.11255	13880.1125
2081.11938	13893.4125
2084.12426	13867.1125
2087.12722	13914.8125
2090.12824	13859.7125
2093.12732	13856.9125
2096.12447	13865.0125
2099.11969	13848.4125
2102.11299	13858.9125
2105.10435	13852.8125
2108.09379	13854.3125
2111.08131	13888.3125
2114.0669	13880.0125
2117.05057	13918.3125
2120.03233	13916.4125
2123.01216	13936.9125
2125.99008	13976.2125
2128.96609	13968.6125
2131.94018	13981.4125
2134.91236	13954.1125
2137.88263	13976.1125
2140.851	13994.5125
2143.81746	14009.7125
2146.78201	13976.0125
2149.74466	13989.3125
2152.7054	14031.7125
2155.66425	13987.0125
2158.6212	13985.6125
2161.57625	13964.4125
2164.52941	13999.1125
2167.48067	13984.2125
2170.43004	13962.9125
2173.37752	13920.5125
2176.32311	13969.2125
2179.26681	13948.6125
2182.20863	13989.7125
2185.14856	13988.6125
2188.08661	13964.0125
2191.02278	13994.3125
2193.95707	14006.8125
2196.88948	13960.3125
2199.82001	13998.7125
2202.74867	13949.3125
2205.67545	13968.6125
2208.60037	13927.2125
2211.52341	13953.4125
2214.44458	13915.4125
2217.36388	13905.7125
2220.28132	13898.1125
2223.1969	13891.0125
2226.11061	13826.4125
2229.02246	13810.0125
2231.93245	13807.3125
2234.84058	13773.4125
2237.74686	13717.3125
2240.65128	13705.4125
2243.55385	13704.4125
2246.45456	13692.0125
2249.35343	13683.1125
2252.25044	13670.8125
2255.14561	13628.4125
2258.03893	13641.4125
2260.93041	13601.0125
2263.82004	13582.0125
2266.70783	13588.5125
2269.59378	13546.9125
2272.4779	13518.0125
2275.36017	13475.7125
2278.24061	13472.7125
2281.11922	13440.1125
2283.996	13448.7125
2286.87094	13440.0125
2289.74405	13397.8125
2292.61534	13393.1125
2295.4848	13379.0125
2298.35243	13369.8125
2301.21824	13361.3125
2304.08223	13392.6125
2306.94439	13399.8125
2309.80474	13378.7125
2312.66327	13392.7125
2315.51999	13394.6125
2318.37489	13387.0125
2321.22797	13416.4125
2324.07925	13380.5125
2326.92871	13380.2125
2329.77637	13337.8125
2332.62222	13332.0125
2335.46626	13343.7125
2338.3085	13340.0125
2341.14893	13343.8125
2343.98756	13377.4125
2346.8244	13410.8125
2349.65943	13375.4125
2352.49267	13372.3125
2355.32411	13377.9125
2358.15376	13402.3125
2360.98161	13363.6125
2363.80768	13338.0125
2366.63195	13316.6125
2369.45444	13331.9125
2372.27514	13301.5125
2375.09405	13255.8125
2377.91118	13253.1125
2380.72652	13226.8125
2383.54009	13159.7125
2386.35187	13156.4125
2389.16188	13108.2125
2391.97011	13121.2125
2394.77657	13108.9125
2397.58125	13066.9125
2400.38416	13073.7125
2403.18529	13012.0125
2405.98466	13071.4125
2408.78226	12988.8125
2411.57809	12981.8125
2414.37216	12943.1125
2417.16446	12935.3125
2419.955	12926.1125
2422.74378	12937.9125
2425.5308	12866.8125
2428.31606	12877.6125
2431.09956	12886.6125
2433.88131	12883.3125
2436.6613	12886.2125
2439.43954	12907.7125
2442.21603	12901.9125
2444.99077	12846.1125
2447.76377	12897.6125
2450.53501	12859.2125
2453.30451	12877.2125
2456.07226	12878.4125
2458.83827	12866.7125
2461.60254	12875.8125
2464.36507	12865.0125
2467.12586	12836.0125
2469.88492	12833.1125
2472.64224	12859.0125
2475.39782	12869.1125
2478.15167	12865.9125
2480.90379	12909.1125
2483.65417	12924.2125
2486.40283	12967.5125
2489.14976	12972.5125
2491.89497	12978.6125
2494.63845	12965.1125
2497.3802	12955.6125
2500.12024	12958.6125
2502.85855	12956.3125
2505.59514	12956.2125
2508.33002	12924.0125
2511.06318	12930.6125
2513.79462	12868.5125
2516.52435	12829.8125
2519.25237	12831.8125
2521.97867	12796.2125
2524.70327	12781.2125
2527.42616	12790.6125
2530.14734	12832.5125
2532.86681	12809.4125
2535.58458	12805.9125
2538.30065	12807.4125
2541.01501	12827.0125
2543.72768	12765.9125
2546.43864	12794.8125
2549.14791	12785.2125
2551.85548	12805.3125
2554.56136	12745.7125
2557.26554	12753.9125
2559.96803	12735.4125
2562.66883	12699.5125
2565.36794	12693.9125
2568.06536	12685.4125
2570.7611	12681.8125
2573.45514	12670.7125
2576.14751	12685.9125
2578.83819	12661.9125
2581.52719	12657.4125
2584.21451	12660.5125
2586.90015	12659.9125
2589.58411	12647.4125
2592.2664	12681.3125
2594.94701	12676.6125
2597.62594	12677.6125
2600.30321	12657.2125
2602.9788	12664.0125
2605.65273	12659.9125
2608.32498	12659.8125
2610.99557	12658.6125
2613.66449	12661.5125
2616.33175	12666.1125
2618.99734	12667.3125
2621.66128	12670.2125
2624.32355	12642.7125
2626.98416	12668.3125
2629.64311	12677.4125
2632.30041	12649.0125
2634.95605	12620.8125
2637.61004	12624.1125
2640.26238	12622.1125
2642.91306	12638.4125
2645.56209	12584.6125
2648.20948	12590.1125
2650.85521	12548.5125
2653.4993	12550.4125
2656.14175	12559.5125
2658.78255	12598.5125
2661.42171	12578.7125
2664.05923	12596.6125
2666.6951	12630.1125
2669.32934	12669.3125
2671.96194	12629.1125
2674.59291	12657.7125
2677.22224	12667.3125
2679.84993	12640.6125
2682.476	12628.2125
2685.10043	12653.1125
2687.72324	12648.1125
2690.34441	12599.5125
2692.96396	12597.8125
2695.58188	12601.6125
2698.19818	12599.3125
2700.81285	12587.8125
2703.4259	12534.1125
2706.03733	12440.5125
2708.64714	12507.2125
2711.25533	12550.8125
2713.86191	12632.7125
2716.46687	12650.0125
2719.07021	12668.2125
2721.67194	12650.5125
2724.27206	12687.6125
2726.87057	12683.7125
2729.46747	12679.3125
2732.06276	12692.8125
2734.65644	12700.0125
2737.24852	12692.1125
2739.83899	12677.7125
2742.42786	12693.2125
2745.01513	12697.3125
2747.60079	12696.0125
2750.18486	12654.3125
2752.76733	12638.6125
2755.3482	12613.5125
2757.92747	12643.5125
2760.50515	12609.8125
2763.08123	12587.2125
2765.65573	12583.5125
2768.22863	12593.9125
2770.79994	12584.4125
2773.36967	12585.0125
2775.9378	12576.4125
2778.50435	12575.5125
2781.06932	12585.5125
2783.6327	12576.2125
2786.1945	12606.3125
2788.75471	12616.8125
2791.31335	12567.1125
2793.87041	12566.8125
2796.42589	12533.7125
2798.97979	12497.6125
2801.53212	12504.7125
2804.08288	12468.8125
2806.63206	12451.6125
2809.17967	12465.3125
2811.72571	12399.2125
2814.27018	12425.2125
2816.81308	12394.0125
2819.35442	12424.2125
2821.89419	12386.8125
2824.43239	12382.1125
2826.96904	12358.0125
2829.50412	12367.8125
2832.03763	12361.4125
2834.56959	12368.2125
2837.1	12335.9125
2839.62884	12356.8125
2842.15613	12332.9125
2844.68186	12335.2125
2847.20604	12335.2125
2849.72867	12308.8125
2852.24974	12253.4125
2854.76927	12291.5125
2857.28724	12219.8125
2859.80367	12247.3125
2862.31855	12230.1125
2864.83189	12238.2125
2867.34368	12244.1125
2869.85393	12263.2125
2872.36264	12290.2125
2874.8698	12265.9125
2877.37543	12285.4125
2879.87952	12253.0125
2882.38207	12309.1125
2884.88308	12269.9125
2887.38256	12276.5125
2889.88051	12278.8125
2892.37692	12276.7125
2894.8718	12259.5125
2897.36515	12288.6125
2899.85698	12294.8125
2902.34727	12316.6125
2904.83604	12324.9125
2907.32328	12303.3125
2909.809	12299.6125
2912.29319	12336.1125
2914.77587	12329.1125
2917.25702	12354.6125
2919.73665	12343.4125
2922.21476	12305.8125
2924.69136	12278.6125
2927.16644	12306.8125
2929.64	12262.9125
2932.11205	12247.9125
2934.58258	12207.2125
2937.05161	12230.3125
2939.51912	12207.4125
2941.98513	12182.1125
2944.44962	12201.1125
2946.91261	12173.4125
2949.37409	12190.7125
2951.83407	12181.0125
2954.29254	12186.6125
2956.74951	12150.9125
2959.20498	12150.4125
2961.65895	12125.5125
2964.11142	12137.9125
2966.56239	12093.1125
2969.01186	12114.4125
2971.45984	12081.0125
2973.90632	12073.5125
2976.35131	12051.8125
2978.7948	12012.1125
2981.23681	11984.1125
2983.67732	11962.1125
2986.11635	11913.9125
2988.55388	11888.9125
2990.98993	11882.5125
2993.4245	11876.5125
2995.85758	11867.0125
2998.28917	11832.3125
3000.71928	11833.1125
3003.14791	11780.5125
3005.57506	11766.6125
3008.00073	11700.8125
3010.42493	11690.8125
3012.84764	11706.6125
3015.26888	11657.4125
3017.68865	11657.4125
3020.10694	11640.2125
3022.52376	11628.5125
3024.9391	11603.5125
