Data from AgNPs_FTO_APTES_UA_50uM_CRN_0uM_R6G_10uM_NaF_0.1M_Addition_RamanShift__33__10-48-44-666.txt Node

Date: Mon Feb 21 10:48:44 GMT 2022
User: TCL
Spectrometer: QEP01345
Trigger mode: 4
Integration Time (sec): 7.000000E0
Scans to average: 10
Electric dark correction enabled: true
Nonlinearity correction enabled: false
Boxcar width: 0
XAxis mode: Raman Shifts
Number of Pixels in Spectrum: 1044
>>>>>Begin Spectral Data<<<<<
46.04893	-0.275
50.45542	-0.775
54.85868	0.825
59.25871	-0.875
63.6555	42.525
68.04907	47.325
72.43941	45.325
76.82654	50.125
81.21044	53.225
85.59113	53.425
89.96862	59.025
94.34289	62.425
98.71396	63.725
103.08183	65.225
107.4465	64.225
111.80798	62.825
116.16626	70.225
120.52136	67.025
124.87327	75.525
129.222	69.925
133.56755	77.325
137.90993	82.325
142.24913	88.325
146.58517	98.025
150.91804	107.925
155.24774	128.325
159.57429	158.425
163.89768	198.825
168.21792	266.325
172.53501	359.525
176.84895	502.125
181.15975	695.325
185.46741	981.125
189.77193	1348.625
194.07331	1805.225
198.37157	2340.625
202.6667	2896.025
206.9587	3459.725
211.24758	3989.025
215.53334	4517.725
219.81599	5090.325
224.09553	5716.425
228.37195	6393.925
232.64527	7182.925
236.91549	7988.725
241.18261	8811.025
245.44663	9571.825
249.70755	10265.425
253.96539	10881.125
258.22014	11344.625
262.4718	11696.325
266.72039	11923.825
270.96589	12031.425
275.20832	11968.425
279.44768	11857.825
283.68397	11705.225
287.91719	11542.725
292.14735	11456.225
296.37445	11372.925
300.59849	11360.525
304.81948	11372.525
309.03742	11404.025
313.25231	11363.425
317.46415	11183.625
321.67296	10987.425
325.87872	10775.625
330.08145	10647.325
334.28114	10623.325
338.47781	10639.825
342.67145	10756.725
346.86207	10902.325
351.04966	11084.225
355.23424	11289.825
359.4158	11436.725
363.59435	11579.625
367.76989	11653.025
371.94243	11664.525
376.11196	11638.625
380.27849	11634.225
384.44203	11675.725
388.60257	11692.325
392.76012	11798.025
396.91468	12008.225
401.06626	12188.225
405.21485	12344.625
409.36047	12289.025
413.50311	12132.925
417.64277	12040.825
421.77947	12028.425
425.9132	12096.025
430.04396	12117.325
434.17176	12147.025
438.2966	12208.425
442.41849	12333.125
446.53742	12539.825
450.6534	12778.025
454.76644	12983.025
458.87653	13054.725
462.98368	13074.425
467.08789	13016.825
471.18916	12907.025
475.2875	12785.625
479.38291	12674.825
483.4754	12664.625
487.56496	12624.225
491.6516	12488.225
495.73531	12375.425
499.81612	12293.125
503.89401	12325.025
507.96899	12377.625
512.04106	12366.525
516.11023	12317.725
520.1765	12237.925
524.23987	12092.025
528.30034	12033.925
532.35792	11902.925
536.41261	11800.225
540.46441	11684.725
544.51333	11671.125
548.55936	11765.025
552.60252	11924.425
556.64279	12189.425
560.6802	12368.325
564.71473	12520.225
568.7464	12762.025
572.7752	13205.825
576.80114	13710.325
580.82422	14199.225
584.84444	14623.725
588.86181	15142.725
592.87633	15643.125
596.888	15628.025
600.89682	15002.625
604.9028	14618.025
608.90594	15159.125
612.90624	15962.625
616.90371	15130.025
620.89834	13177.225
624.89015	12301.225
628.87913	12215.125
632.86528	12356.225
636.84862	12407.425
640.82913	12202.825
644.80683	11872.625
648.78172	11679.225
652.75379	11653.725
656.72306	11731.025
660.68952	11899.225
664.65319	11899.425
668.61405	11741.525
672.57211	11720.825
676.52738	11760.025
680.47986	11759.325
684.42955	11671.325
688.37646	11652.025
692.32058	11697.625
696.26192	11803.825
700.20048	11895.125
704.13626	12003.225
708.06928	12049.325
711.99952	12083.025
715.927	12046.825
719.85171	12024.325
723.77365	11940.525
727.69284	11751.025
731.60928	11581.125
735.52295	11487.525
739.43388	11476.425
743.34206	11509.225
747.24749	11572.725
751.15017	11701.425
755.05012	11908.825
758.94733	12211.825
762.8418	12746.225
766.73354	13530.125
770.62254	14253.525
774.50882	14347.525
778.39237	13812.425
782.27321	13052.925
786.15132	12403.325
790.02671	11982.225
793.89938	11736.825
797.76935	11590.425
801.6366	11539.525
805.50115	11479.125
809.36299	11452.225
813.22213	11371.825
817.07857	11364.725
820.93231	11332.825
824.78336	11329.225
828.63172	11273.425
832.47738	11224.125
836.32036	11208.525
840.16066	11210.825
843.99827	11226.425
847.8332	11215.525
851.66546	11264.225
855.49504	11266.625
859.32195	11275.825
863.1462	11275.925
866.96777	11251.025
870.78668	11232.125
874.60293	11240.225
878.41652	11262.225
882.22745	11282.025
886.03573	11337.625
889.84136	11336.625
893.64433	11343.625
897.44466	11329.925
901.24235	11328.925
905.0374	11301.925
908.8298	11301.725
912.61957	11298.625
916.40671	11359.825
920.19121	11513.825
923.97308	11664.725
927.75233	11675.125
931.52895	11562.425
935.30295	11385.025
939.07433	11166.725
942.84309	10984.025
946.60924	10895.625
950.37278	10846.225
954.13371	10836.425
957.89203	10802.225
961.64774	10779.525
965.40086	10770.025
969.15137	10787.225
972.89929	10714.425
976.64461	10670.825
980.38733	10628.825
984.12747	10659.825
987.86502	10681.825
991.59999	10711.425
995.33237	10775.825
999.06217	10886.625
1002.78939	11035.925
1006.51404	11182.225
1010.23611	11401.825
1013.95561	11516.425
1017.67255	11562.525
1021.38692	11464.025
1025.09872	11335.325
1028.80796	11170.325
1032.51465	11099.925
1036.21877	11104.725
1039.92035	11132.525
1043.61937	11214.125
1047.31584	11287.925
1051.00976	11322.125
1054.70114	11356.825
1058.38998	11418.225
1062.07627	11517.125
1065.76003	11671.325
1069.44126	11796.225
1073.11995	12018.225
1076.79611	12211.025
1080.46974	12288.925
1084.14085	12347.525
1087.80943	12435.725
1091.47549	12555.325
1095.13903	12647.125
1098.80005	12484.325
1102.45857	12177.325
1106.11456	11880.225
1109.76805	11724.825
1113.41903	11680.025
1117.06751	11689.025
1120.71348	11799.125
1124.35696	11910.325
1127.99793	12047.025
1131.63641	12140.625
1135.2724	12136.225
1138.90589	12087.925
1142.5369	12119.025
1146.16542	12169.725
1149.79145	12253.225
1153.415	12353.625
1157.03607	12466.625
1160.65467	12743.125
1164.27079	13131.525
1167.88443	13623.025
1171.49561	14222.325
1175.10432	14998.825
1178.71056	15970.325
1182.31434	16814.325
1185.91565	17291.525
1189.51451	17389.925
1193.11091	17215.025
1196.70485	16761.925
1200.29634	16190.125
1203.88538	15737.825
1207.47197	15445.425
1211.05612	15260.325
1214.63782	15044.625
1218.21708	14707.825
1221.79391	14346.925
1225.36829	14019.825
1228.94024	13847.525
1232.50976	13734.325
1236.07685	13625.925
1239.6415	13520.425
1243.20374	13453.125
1246.76355	13483.225
1250.32093	13572.625
1253.8759	13771.625
1257.42845	14132.725
1260.97859	14529.325
1264.52631	14939.925
1268.07163	15370.725
1271.61453	15793.525
1275.15503	16211.125
1278.69312	16651.625
1282.22882	17133.525
1285.76211	17733.925
1289.29301	18345.225
1292.82151	19033.225
1296.34761	19785.825
1299.87133	20725.725
1303.39266	21594.525
1306.9116	22342.625
1310.42815	22884.525
1313.94233	23105.625
1317.45412	22956.325
1320.96354	22607.725
1324.47058	22415.825
1327.97525	22279.125
1331.47754	22198.025
1334.97747	22070.425
1338.47502	21905.125
1341.97022	21796.325
1345.46305	21692.225
1348.95352	21588.125
1352.44163	21552.125
1355.92738	21725.625
1359.41078	22270.625
1362.89183	22941.025
1366.37053	22844.925
1369.84688	21554.725
1373.32088	19615.725
1376.79254	18139.825
1380.26186	17438.525
1383.72883	17222.625
1387.19347	17042.425
1390.65578	16817.125
1394.11575	16663.225
1397.57339	16733.425
1401.0287	16843.225
1404.48168	16946.725
1407.93234	16815.125
1411.38068	16518.825
1414.82669	16030.525
1418.27039	15486.825
1421.71177	14989.225
1425.15083	14615.625
1428.58758	14441.425
1432.02203	14561.125
1435.45416	14833.725
1438.88399	15158.925
1442.31151	15391.425
1445.73673	15512.825
1449.15965	15650.225
1452.58027	15748.925
1455.9986	15827.425
1459.41463	15984.925
1462.82837	16165.825
1466.23982	16407.225
1469.64898	16584.425
1473.05586	16680.925
1476.46045	16694.125
1479.86276	16735.025
1483.26279	16736.325
1486.66054	16825.325
1490.05602	17039.825
1493.44922	17363.025
1496.84016	17806.425
1500.22882	18371.325
1503.61521	19004.125
1506.99934	19586.325
1510.38121	19979.625
1513.76081	20004.025
1517.13816	19728.325
1520.51324	19151.725
1523.88607	18749.425
1527.25665	18490.425
1530.62498	18302.125
1533.99105	18083.625
1537.35488	17695.725
1540.71647	17196.425
1544.07581	16662.525
1547.4329	16208.125
1550.78776	15806.625
1554.14038	15601.625
1557.49077	15507.825
1560.83892	15540.225
1564.18484	15575.025
1567.52853	15655.925
1570.86999	15823.325
1574.20922	16099.425
1577.54624	16260.425
1580.88103	16333.425
1584.2136	16363.625
1587.54395	16680.025
1590.87208	17266.325
1594.19801	17988.425
1597.52172	18602.525
1600.84321	18570.025
1604.16251	17754.925
1607.47959	16617.625
1610.79447	15411.725
1614.10715	14358.925
1617.41763	13450.225
1620.7259	12835.025
1624.03199	12511.125
1627.33587	12497.725
1630.63757	12798.825
1633.93707	13474.225
1637.23439	14666.925
1640.52951	16413.825
1643.82246	18550.725
1647.11321	20341.425
1650.40179	20841.725
1653.68819	19627.325
1656.97241	17241.725
1660.25446	14842.025
1663.53433	13000.625
1666.81203	11864.925
1670.08756	11158.125
1673.36092	10756.125
1676.63211	10498.225
1679.90115	10326.425
1683.16801	10164.725
1686.43272	10015.425
1689.69527	9931.325
1692.95567	9802.825
1696.2139	9654.425
1699.46999	9541.425
1702.72392	9474.125
1705.97571	9541.625
1709.22535	9609.625
1712.47284	9655.825
1715.71819	9677.825
1718.96139	9674.625
1722.20246	9665.525
1725.44139	9613.925
1728.67818	9586.625
1731.91284	9526.325
1735.14537	9487.125
1738.37576	9417.125
1741.60403	9405.825
1744.83017	9357.125
1748.05418	9324.925
1751.27607	9249.125
1754.49584	9174.825
1757.71349	9127.625
1760.92903	9073.225
1764.14244	9070.825
1767.35375	9070.025
1770.56294	9055.325
1773.77002	9073.025
1776.97499	9113.425
1780.17785	9128.225
1783.37861	9152.725
1786.57727	9154.825
1789.77382	9168.025
1792.96828	9161.725
1796.16064	9133.425
1799.3509	9106.625
1802.53907	9098.225
1805.72514	9047.125
1808.90913	9048.425
1812.09102	9017.725
1815.27083	9005.425
1818.44856	9012.525
1821.6242	8993.325
1824.79776	8977.325
1827.96924	8962.225
1831.13864	8969.125
1834.30597	8952.325
1837.47122	8944.825
1840.6344	8959.125
1843.7955	8939.925
1846.95454	8931.025
1850.11151	8929.225
1853.26642	8916.525
1856.41926	8907.825
1859.57004	8918.725
1862.71876	8893.625
1865.86542	8874.125
1869.01003	8879.025
1872.15258	8866.125
1875.29308	8844.225
1878.43152	8846.425
1881.56792	8836.225
1884.70227	8820.925
1887.83457	8793.925
1890.96482	8787.925
1894.09304	8745.525
1897.21921	8750.825
1900.34335	8733.625
1903.46544	8711.725
1906.58551	8728.125
1909.70353	8702.425
1912.81953	8697.125
1915.93349	8669.125
1919.04543	8635.125
1922.15534	8628.725
1925.26322	8589.225
1928.36908	8587.625
1931.47292	8560.025
1934.57473	8565.325
1937.67453	8524.125
1940.77232	8500.125
1943.86808	8506.225
1946.96184	8467.625
1950.05358	8449.725
1953.14331	8416.725
1956.23103	8369.525
1959.31675	8355.925
1962.40046	8315.925
1965.48217	8302.425
1968.56188	8274.125
1971.63959	8255.025
1974.7153	8246.025
1977.78901	8214.625
1980.86073	8158.625
1983.93046	8146.825
1986.99819	8106.725
1990.06394	8072.925
1993.1277	8084.925
1996.18947	8041.025
1999.24925	8030.425
2002.30706	8020.525
2005.36288	7991.225
2008.41672	7970.825
2011.46859	7939.025
2014.51848	7928.425
2017.56639	7881.425
2020.61233	7881.425
2023.6563	7869.225
2026.6983	7831.325
2029.73833	7814.125
2032.7764	7783.725
2035.8125	7783.325
2038.84664	7758.825
2041.87881	7755.725
2044.90903	7721.725
2047.93729	7712.425
2050.96359	7683.525
2053.98794	7688.325
2057.01034	7661.525
2060.03078	7685.825
2063.04927	7672.025
2066.06582	7672.025
2069.08042	7651.025
2072.09307	7673.025
2075.10378	7642.025
2078.11255	7658.525
2081.11938	7642.825
2084.12426	7657.425
2087.12722	7662.625
2090.12824	7670.325
2093.12732	7637.025
2096.12447	7657.825
2099.11969	7658.325
2102.11299	7655.925
2105.10435	7647.425
2108.09379	7660.225
2111.08131	7667.125
2114.0669	7672.325
2117.05057	7661.625
2120.03233	7663.225
2123.01216	7670.725
2125.99008	7666.525
2128.96609	7703.525
2131.94018	7690.625
2134.91236	7691.125
2137.88263	7688.925
2140.851	7684.625
2143.81746	7701.525
2146.78201	7689.325
2149.74466	7674.425
2152.7054	7704.925
2155.66425	7669.825
2158.6212	7686.425
2161.57625	7657.525
2164.52941	7691.825
2167.48067	7662.525
2170.43004	7651.825
2173.37752	7641.025
2176.32311	7641.125
2179.26681	7636.625
2182.20863	7648.725
2185.14856	7649.925
2188.08661	7646.925
2191.02278	7635.125
2193.95707	7639.325
2196.88948	7602.325
2199.82001	7631.525
2202.74867	7601.025
2205.67545	7576.125
2208.60037	7567.825
2211.52341	7562.525
2214.44458	7566.025
2217.36388	7515.325
2220.28132	7537.425
2223.1969	7525.025
2226.11061	7511.225
2229.02246	7499.925
2231.93245	7477.925
2234.84058	7465.725
2237.74686	7470.425
2240.65128	7444.125
2243.55385	7431.025
2246.45456	7436.125
2249.35343	7405.425
2252.25044	7410.025
2255.14561	7411.325
2258.03893	7366.025
2260.93041	7329.725
2263.82004	7324.625
2266.70783	7329.025
2269.59378	7312.525
2272.4779	7286.825
2275.36017	7281.025
2278.24061	7255.825
2281.11922	7243.325
2283.996	7239.125
2286.87094	7235.425
2289.74405	7198.725
2292.61534	7192.225
2295.4848	7195.825
2298.35243	7199.825
2301.21824	7173.125
2304.08223	7168.425
2306.94439	7163.925
2309.80474	7165.125
2312.66327	7158.925
2315.51999	7140.725
2318.37489	7131.125
2321.22797	7138.025
2324.07925	7130.825
2326.92871	7090.025
2329.77637	7090.525
2332.62222	7079.225
2335.46626	7075.525
2338.3085	7042.825
2341.14893	7053.225
2343.98756	7042.725
2346.8244	7057.225
2349.65943	7049.925
2352.49267	7040.025
2355.32411	7031.425
2358.15376	7054.925
2360.98161	7032.025
2363.80768	7039.925
2366.63195	7032.925
2369.45444	7022.525
2372.27514	6995.825
2375.09405	7000.925
2377.91118	6999.925
2380.72652	6977.725
2383.54009	6957.025
2386.35187	6946.425
2389.16188	6921.825
2391.97011	6922.425
2394.77657	6910.925
2397.58125	6903.325
2400.38416	6897.225
2403.18529	6871.925
2405.98466	6887.625
2408.78226	6866.425
2411.57809	6845.625
2414.37216	6838.325
2417.16446	6825.625
2419.955	6849.525
2422.74378	6839.625
2425.5308	6815.625
2428.31606	6818.125
2431.09956	6818.625
2433.88131	6804.525
2436.6613	6819.325
2439.43954	6835.525
2442.21603	6807.325
2444.99077	6812.125
2447.76377	6784.225
2450.53501	6775.225
2453.30451	6800.425
2456.07226	6772.025
2458.83827	6766.225
2461.60254	6766.925
2464.36507	6756.425
2467.12586	6742.625
2469.88492	6731.325
2472.64224	6736.325
2475.39782	6723.425
2478.15167	6725.625
2480.90379	6740.825
2483.65417	6732.425
2486.40283	6727.425
2489.14976	6746.625
2491.89497	6726.525
2494.63845	6710.025
2497.3802	6681.225
2500.12024	6703.625
2502.85855	6715.325
2505.59514	6678.525
2508.33002	6696.325
2511.06318	6697.925
2513.79462	6687.325
2516.52435	6663.725
2519.25237	6670.725
2521.97867	6653.325
2524.70327	6642.825
2527.42616	6651.125
2530.14734	6646.125
2532.86681	6642.125
2535.58458	6634.425
2538.30065	6634.425
2541.01501	6628.225
2543.72768	6585.425
2546.43864	6611.925
2549.14791	6571.825
2551.85548	6589.225
2554.56136	6572.425
2557.26554	6554.025
2559.96803	6545.425
2562.66883	6549.625
2565.36794	6539.325
2568.06536	6537.825
2570.7611	6495.825
2573.45514	6511.425
2576.14751	6487.625
2578.83819	6481.825
2581.52719	6482.625
2584.21451	6461.025
2586.90015	6457.125
2589.58411	6464.625
2592.2664	6457.325
2594.94701	6431.625
2597.62594	6442.825
2600.30321	6433.325
2602.9788	6428.825
2605.65273	6429.125
2608.32498	6433.525
2610.99557	6421.725
2613.66449	6412.425
2616.33175	6393.425
2618.99734	6414.125
2621.66128	6385.825
2624.32355	6377.325
2626.98416	6377.025
2629.64311	6355.925
2632.30041	6360.825
2634.95605	6358.025
2637.61004	6330.325
2640.26238	6342.925
2642.91306	6327.125
2645.56209	6315.525
2648.20948	6306.425
2650.85521	6317.625
2653.4993	6301.425
2656.14175	6312.225
2658.78255	6324.725
2661.42171	6324.925
2664.05923	6327.225
2666.6951	6327.725
2669.32934	6332.425
2671.96194	6334.525
2674.59291	6340.425
2677.22224	6332.225
2679.84993	6338.925
2682.476	6329.625
2685.10043	6345.725
2687.72324	6345.525
2690.34441	6342.725
2692.96396	6355.525
2695.58188	6335.225
2698.19818	6330.725
2700.81285	6317.825
2703.4259	6291.125
2706.03733	6196.525
2708.64714	6244.325
2711.25533	6286.625
2713.86191	6310.325
2716.46687	6344.925
2719.07021	6343.825
2721.67194	6365.125
2724.27206	6348.325
2726.87057	6336.925
2729.46747	6335.325
2732.06276	6353.425
2734.65644	6341.725
2737.24852	6346.125
2739.83899	6338.725
2742.42786	6321.225
2745.01513	6328.725
2747.60079	6343.225
2750.18486	6297.225
2752.76733	6313.125
2755.3482	6285.625
2757.92747	6294.525
2760.50515	6272.925
2763.08123	6283.325
2765.65573	6266.725
2768.22863	6260.725
2770.79994	6243.425
2773.36967	6267.625
2775.9378	6259.725
2778.50435	6259.625
2781.06932	6241.825
2783.6327	6247.225
2786.1945	6232.225
2788.75471	6236.325
2791.31335	6210.825
2793.87041	6197.325
2796.42589	6177.925
2798.97979	6185.025
2801.53212	6164.625
2804.08288	6178.325
2806.63206	6163.525
2809.17967	6148.925
2811.72571	6132.625
2814.27018	6110.225
2816.81308	6104.425
2819.35442	6096.825
2821.89419	6070.725
2824.43239	6078.725
2826.96904	6073.325
2829.50412	6058.625
2832.03763	6046.625
2834.56959	6055.325
2837.1	6033.325
2839.62884	6060.325
2842.15613	6045.925
2844.68186	6063.925
2847.20604	6077.425
2849.72867	6043.725
2852.24974	6048.825
2854.76927	6030.725
2857.28724	6000.525
2859.80367	6005.325
2862.31855	5999.525
2864.83189	5987.925
2867.34368	6004.525
2869.85393	6006.525
2872.36264	5992.925
2874.8698	5992.825
2877.37543	5993.225
2879.87952	5990.825
2882.38207	5994.125
2884.88308	6005.525
2887.38256	5994.625
2889.88051	5990.125
2892.37692	5992.125
2894.8718	6001.625
2897.36515	6006.225
2899.85698	5998.525
2902.34727	5991.225
2904.83604	6004.725
2907.32328	6018.025
2909.809	6003.225
2912.29319	6026.325
2914.77587	6037.525
2917.25702	6028.225
2919.73665	6022.025
2922.21476	6038.625
2924.69136	6024.625
2927.16644	6011.125
2929.64	6010.625
2932.11205	5998.025
2934.58258	5967.725
2937.05161	5982.525
2939.51912	6006.125
2941.98513	5958.625
2944.44962	5952.625
2946.91261	5952.725
2949.37409	5958.025
2951.83407	5956.625
2954.29254	5941.625
2956.74951	5923.525
2959.20498	5925.325
2961.65895	5925.125
2964.11142	5924.325
2966.56239	5903.125
2969.01186	5904.125
2971.45984	5884.625
2973.90632	5877.125
2976.35131	5872.325
2978.7948	5856.925
2981.23681	5844.025
2983.67732	5847.525
2986.11635	5834.225
2988.55388	5803.825
2990.98993	5809.025
2993.4245	5799.625
2995.85758	5785.125
2998.28917	5757.525
3000.71928	5750.725
3003.14791	5733.025
3005.57506	5730.025
3008.00073	5704.825
3010.42493	5683.725
3012.84764	5689.825
3015.26888	5679.025
3017.68865	5681.725
3020.10694	5673.225
3022.52376	5654.525
3024.9391	5638.925
3027.35298	5620.125
3029.76539	5640.625
3032.17632	5629.825
3034.5858	5625.325
3036.9938	5634.325
3039.40034	5626.725
3041.80542	5602.925
3044.20903	5595.625
3046.61118	5588.025
3049.01187	5589.325
3051.4111	5607.425
3053.80888	5577.525
3056.20519	5569.325
3058.60005	5566.225
3060.99345	5549.425
3063.3854	5545.925
3065.7759	5527.825
3068.16494	5528.025
3070.55254	5502.525
3072.93868	5482.525
3075.32338	5468.825
3077.70662	5469.925
3080.08842	5449.225
3082.46878	5459.925
3084.84769	5438.725
3087.22515	5437.025
3089.60118	5442.325
3091.97576	5444.325
3094.3489	5443.825
3096.72061	5449.825
3099.09087	5434.725
3101.4597	5446.525
3103.82709	5428.025
3106.19305	5417.925
3108.55757	5432.825
3110.92066	5409.725
3113.28232	5430.925
3115.64255	5402.725
3118.00134	5386.025
3120.35871	5374.125
3122.71466	5359.625
3125.06917	5360.625
3127.42226	5357.625
3129.77393	5338.825
3132.12417	5352.725
3134.47299	5333.325
3136.82039	5355.425
3139.16636	5357.225
3141.51092	5346.725
3143.85406	5370.825
3146.19579	5368.625
3148.53609	5361.125
3150.87499	5374.625
3153.21246	5367.325
3155.54853	5379.425
3157.88318	5355.125
3160.21642	5383.625
3162.54826	5385.425
3164.87868	5369.125
3167.2077	5388.925
3169.5353	5371.325
3171.86151	5377.125
3174.18631	5366.525
3176.5097	5358.625
3178.83169	5359.925
3181.15228	5363.925
3183.47147	5334.725
3185.78926	5345.525
3188.10565	5343.825
3190.42065	5349.425
