Data from AgNPs_FTO_APTES_UA_50uM_CRN_0uM_R6G_10uM_NaF_0.1M_Addition_RamanShift__23__10-37-04-650.txt Node

Date: Mon Feb 21 10:37:04 GMT 2022
User: TCL
Spectrometer: QEP01345
Trigger mode: 4
Integration Time (sec): 7.000000E0
Scans to average: 10
Electric dark correction enabled: true
Nonlinearity correction enabled: false
Boxcar width: 0
XAxis mode: Raman Shifts
Number of Pixels in Spectrum: 1044
>>>>>Begin Spectral Data<<<<<
46.04893	0.3875
50.45542	-0.5125
54.85868	-0.6125
59.25871	-1.7125
63.6555	42.0875
68.04907	46.5875
72.43941	47.5875
76.82654	49.8875
81.21044	56.5875
85.59113	54.1875
89.96862	57.8875
94.34289	61.2875
98.71396	58.5875
103.08183	65.4875
107.4465	68.2875
111.80798	61.9875
116.16626	63.7875
120.52136	63.0875
124.87327	68.2875
129.222	65.7875
133.56755	69.4875
137.90993	77.0875
142.24913	80.7875
146.58517	89.3875
150.91804	100.1875
155.24774	114.0875
159.57429	145.3875
163.89768	173.7875
168.21792	233.4875
172.53501	307.6875
176.84895	430.0875
181.15975	595.5875
185.46741	834.5875
189.77193	1141.8875
194.07331	1528.2875
198.37157	1961.8875
202.6667	2443.2875
206.9587	2892.6875
211.24758	3358.3875
215.53334	3801.1875
219.81599	4279.5875
224.09553	4823.7875
228.37195	5415.9875
232.64527	6080.0875
236.91549	6769.4875
241.18261	7417.0875
245.44663	8024.0875
249.70755	8582.2875
253.96539	9075.9875
258.22014	9443.7875
262.4718	9752.8875
266.72039	10006.4875
270.96589	10104.6875
275.20832	10081.5875
279.44768	9952.3875
283.68397	9807.5875
287.91719	9675.9875
292.14735	9575.4875
296.37445	9557.2875
300.59849	9592.9875
304.81948	9694.8875
309.03742	9797.3875
313.25231	9800.7875
317.46415	9733.5875
321.67296	9608.0875
325.87872	9513.1875
330.08145	9470.7875
334.28114	9473.1875
338.47781	9526.0875
342.67145	9639.9875
346.86207	9787.9875
351.04966	9992.5875
355.23424	10204.9875
359.4158	10357.1875
363.59435	10493.3875
367.76989	10578.7875
371.94243	10651.1875
376.11196	10693.7875
380.27849	10730.3875
384.44203	10813.6875
388.60257	10844.2875
392.76012	10901.0875
396.91468	10958.2875
401.06626	11116.7875
405.21485	11231.2875
409.36047	11230.6875
413.50311	11137.2875
417.64277	11080.9875
421.77947	11065.7875
425.9132	11088.8875
430.04396	11118.7875
434.17176	11220.6875
438.2966	11341.9875
442.41849	11620.2875
446.53742	12061.4875
450.6534	12521.4875
454.76644	12815.1875
458.87653	12793.3875
462.98368	12581.5875
467.08789	12267.7875
471.18916	11972.6875
475.2875	11634.1875
479.38291	11370.2875
483.4754	11231.2875
487.56496	11161.1875
491.6516	11116.5875
495.73531	11072.3875
499.81612	11122.5875
503.89401	11230.4875
507.96899	11249.4875
512.04106	11189.3875
516.11023	11142.4875
520.1765	11114.3875
524.23987	11133.7875
528.30034	11173.4875
532.35792	11153.6875
536.41261	11009.1875
540.46441	10825.8875
544.51333	10729.5875
548.55936	10746.8875
552.60252	10931.1875
556.64279	11250.8875
560.6802	11470.2875
564.71473	11522.3875
568.7464	11569.4875
572.7752	11723.7875
576.80114	11918.5875
580.82422	12209.7875
584.84444	12732.4875
588.86181	13623.2875
592.87633	14648.0875
596.888	14980.7875
600.89682	14224.3875
604.9028	13694.5875
608.90594	14360.6875
612.90624	15550.9875
616.90371	14932.4875
620.89834	12754.0875
624.89015	11663.0875
628.87913	11494.2875
632.86528	11472.8875
636.84862	11376.5875
640.82913	11159.8875
644.80683	10919.9875
648.78172	10772.5875
652.75379	10782.7875
656.72306	10947.7875
660.68952	11152.9875
664.65319	11113.9875
668.61405	10937.9875
672.57211	10919.0875
676.52738	11003.2875
680.47986	10979.0875
684.42955	10837.3875
688.37646	10817.4875
692.32058	10908.0875
696.26192	11085.3875
700.20048	11283.9875
704.13626	11336.2875
708.06928	11250.7875
711.99952	11192.6875
715.927	11216.9875
719.85171	11353.0875
723.77365	11338.8875
727.69284	11173.9875
731.60928	11028.1875
735.52295	11004.9875
739.43388	11027.5875
743.34206	11093.2875
747.24749	11134.2875
751.15017	11198.8875
755.05012	11301.7875
758.94733	11556.4875
762.8418	12017.0875
766.73354	12775.2875
770.62254	13526.8875
774.50882	13809.6875
778.39237	13423.5875
782.27321	12679.7875
786.15132	11981.8875
790.02671	11504.1875
793.89938	11279.0875
797.76935	11206.0875
801.6366	11164.4875
805.50115	11166.3875
809.36299	11159.8875
813.22213	11045.2875
817.07857	11005.4875
820.93231	10918.5875
824.78336	10913.1875
828.63172	10927.6875
832.47738	10904.6875
836.32036	10954.7875
840.16066	11015.1875
843.99827	11055.8875
847.8332	11065.2875
851.66546	11014.7875
855.49504	10996.1875
859.32195	11002.0875
863.1462	10966.3875
866.96777	10910.4875
870.78668	10901.2875
874.60293	10894.7875
878.41652	10976.7875
882.22745	11023.2875
886.03573	11111.5875
889.84136	11093.0875
893.64433	11050.1875
897.44466	10955.7875
901.24235	10918.1875
905.0374	10885.2875
908.8298	10859.5875
912.61957	10860.2875
916.40671	10903.5875
920.19121	11003.5875
923.97308	11148.8875
927.75233	11286.4875
931.52895	11275.3875
935.30295	11136.3875
939.07433	10952.7875
942.84309	10844.7875
946.60924	10773.2875
950.37278	10765.8875
954.13371	10726.3875
957.89203	10659.5875
961.64774	10629.6875
965.40086	10628.6875
969.15137	10622.7875
972.89929	10636.0875
976.64461	10650.0875
980.38733	10671.6875
984.12747	10704.7875
987.86502	10817.3875
991.59999	10927.7875
995.33237	11113.4875
999.06217	11401.0875
1002.78939	11737.4875
1006.51404	11985.2875
1010.23611	12128.3875
1013.95561	12237.1875
1017.67255	12277.6875
1021.38692	12150.3875
1025.09872	11971.5875
1028.80796	11986.9875
1032.51465	12233.2875
1036.21877	12506.0875
1039.92035	12594.2875
1043.61937	12485.7875
1047.31584	12283.5875
1051.00976	11962.6875
1054.70114	11780.8875
1058.38998	11706.3875
1062.07627	11687.2875
1065.76003	11689.8875
1069.44126	11741.1875
1073.11995	11900.3875
1076.79611	12083.1875
1080.46974	12224.1875
1084.14085	12356.5875
1087.80943	12489.5875
1091.47549	12526.6875
1095.13903	12478.7875
1098.80005	12236.4875
1102.45857	11998.7875
1106.11456	11896.2875
1109.76805	11873.1875
1113.41903	11923.6875
1117.06751	11999.0875
1120.71348	12120.6875
1124.35696	12239.0875
1127.99793	12376.4875
1131.63641	12444.7875
1135.2724	12398.0875
1138.90589	12293.2875
1142.5369	12236.5875
1146.16542	12222.0875
1149.79145	12266.0875
1153.415	12310.8875
1157.03607	12355.3875
1160.65467	12556.0875
1164.27079	13012.3875
1167.88443	13555.8875
1171.49561	14288.8875
1175.10432	15300.3875
1178.71056	16679.2875
1182.31434	17927.8875
1185.91565	18452.4875
1189.51451	18143.0875
1193.11091	17407.5875
1196.70485	16590.4875
1200.29634	15915.3875
1203.88538	15450.2875
1207.47197	15024.4875
1211.05612	14702.5875
1214.63782	14484.9875
1218.21708	14368.0875
1221.79391	14364.1875
1225.36829	14462.6875
1228.94024	14416.8875
1232.50976	14085.1875
1236.07685	13686.1875
1239.6415	13458.4875
1243.20374	13369.8875
1246.76355	13424.4875
1250.32093	13604.8875
1253.8759	13872.1875
1257.42845	14255.0875
1260.97859	14646.0875
1264.52631	15089.4875
1268.07163	15542.9875
1271.61453	16009.0875
1275.15503	16432.9875
1278.69312	16875.1875
1282.22882	17341.3875
1285.76211	17871.1875
1289.29301	18478.0875
1292.82151	19199.2875
1296.34761	20109.5875
1299.87133	21273.4875
1303.39266	22621.8875
1306.9116	24039.1875
1310.42815	25318.8875
1313.94233	26065.3875
1317.45412	25636.8875
1320.96354	24552.7875
1324.47058	23263.0875
1327.97525	22206.8875
1331.47754	21500.5875
1334.97747	21075.0875
1338.47502	20747.2875
1341.97022	20301.4875
1345.46305	19876.8875
1348.95352	19919.8875
1352.44163	20655.4875
1355.92738	22124.6875
1359.41078	24024.2875
1362.89183	25656.5875
1366.37053	25660.6875
1369.84688	23592.8875
1373.32088	20642.5875
1376.79254	18523.1875
1380.26186	17678.8875
1383.72883	17484.5875
1387.19347	17255.8875
1390.65578	16862.8875
1394.11575	16613.5875
1397.57339	16696.3875
1401.0287	16925.2875
1404.48168	17119.1875
1407.93234	17168.3875
1411.38068	17058.5875
1414.82669	16840.9875
1418.27039	16503.3875
1421.71177	16050.4875
1425.15083	15639.9875
1428.58758	15450.0875
1432.02203	15667.7875
1435.45416	16081.0875
1438.88399	16478.1875
1442.31151	16606.0875
1445.73673	16608.2875
1449.15965	16567.0875
1452.58027	16398.1875
1455.9986	16148.3875
1459.41463	16018.3875
1462.82837	16207.7875
1466.23982	16602.2875
1469.64898	17010.8875
1473.05586	17362.1875
1476.46045	17591.8875
1479.86276	17680.4875
1483.26279	17692.1875
1486.66054	17726.7875
1490.05602	17886.4875
1493.44922	18030.9875
1496.84016	18116.9875
1500.22882	18211.1875
1503.61521	18481.6875
1506.99934	18920.0875
1510.38121	19369.0875
1513.76081	19518.8875
1517.13816	19161.8875
1520.51324	18448.7875
1523.88607	17792.2875
1527.25665	17459.0875
1530.62498	17369.3875
1533.99105	17314.2875
1537.35488	17107.4875
1540.71647	16803.5875
1544.07581	16445.6875
1547.4329	16120.5875
1550.78776	15774.9875
1554.14038	15527.9875
1557.49077	15349.7875
1560.83892	15252.8875
1564.18484	15246.1875
1567.52853	15341.5875
1570.86999	15507.8875
1574.20922	15723.9875
1577.54624	15872.9875
1580.88103	15836.4875
1584.2136	15916.8875
1587.54395	16354.4875
1590.87208	17348.3875
1594.19801	18742.5875
1597.52172	20146.2875
1600.84321	20727.8875
1604.16251	19965.9875
1607.47959	18322.1875
1610.79447	16428.2875
1614.10715	14881.9875
1617.41763	13822.2875
1620.7259	13239.3875
1624.03199	12984.4875
1627.33587	13070.5875
1630.63757	13426.4875
1633.93707	14140.9875
1637.23439	15329.9875
1640.52951	17264.5875
1643.82246	19612.2875
1647.11321	21584.5875
1650.40179	21802.1875
1653.68819	19976.3875
1656.97241	17112.8875
1660.25446	14648.2875
1663.53433	13034.7875
1666.81203	12120.1875
1670.08756	11613.7875
1673.36092	11341.3875
1676.63211	11120.1875
1679.90115	10992.5875
1683.16801	10856.3875
1686.43272	10758.3875
1689.69527	10679.5875
1692.95567	10578.4875
1696.2139	10450.8875
1699.46999	10315.6875
1702.72392	10258.3875
1705.97571	10328.9875
1709.22535	10429.8875
1712.47284	10492.2875
1715.71819	10516.7875
1718.96139	10543.7875
1722.20246	10516.9875
1725.44139	10453.5875
1728.67818	10414.5875
1731.91284	10367.2875
1735.14537	10358.5875
1738.37576	10298.0875
1741.60403	10257.1875
1744.83017	10216.0875
1748.05418	10195.7875
1751.27607	10129.7875
1754.49584	10088.2875
1757.71349	10015.0875
1760.92903	9962.9875
1764.14244	9977.8875
1767.35375	9960.5875
1770.56294	9966.0875
1773.77002	9981.0875
1776.97499	10049.4875
1780.17785	10067.6875
1783.37861	10090.9875
1786.57727	10100.2875
1789.77382	10105.6875
1792.96828	10126.1875
1796.16064	10112.0875
1799.3509	10090.1875
1802.53907	10085.8875
1805.72514	10041.8875
1808.90913	10036.9875
1812.09102	10024.6875
1815.27083	10033.9875
1818.44856	10011.4875
1821.6242	9986.0875
1824.79776	10002.0875
1827.96924	9984.2875
1831.13864	9965.2875
1834.30597	9998.5875
1837.47122	9970.8875
1840.6344	9966.9875
1843.7955	9964.0875
1846.95454	9951.2875
1850.11151	9934.5875
1853.26642	9927.3875
1856.41926	9919.7875
1859.57004	9945.9875
1862.71876	9942.1875
1865.86542	9926.4875
1869.01003	9930.0875
1872.15258	9920.1875
1875.29308	9912.0875
1878.43152	9922.6875
1881.56792	9936.1875
1884.70227	9912.1875
1887.83457	9900.6875
1890.96482	9904.5875
1894.09304	9874.9875
1897.21921	9864.4875
1900.34335	9892.6875
1903.46544	9864.7875
1906.58551	9858.9875
1909.70353	9858.9875
1912.81953	9859.4875
1915.93349	9849.5875
1919.04543	9824.2875
1922.15534	9808.0875
1925.26322	9797.0875
1928.36908	9771.8875
1931.47292	9766.4875
1934.57473	9766.9875
1937.67453	9736.6875
1940.77232	9724.1875
1943.86808	9695.9875
1946.96184	9689.1875
1950.05358	9652.7875
1953.14331	9621.2875
1956.23103	9584.9875
1959.31675	9581.0875
1962.40046	9548.2875
1965.48217	9544.9875
1968.56188	9537.1875
1971.63959	9500.1875
1974.7153	9499.0875
1977.78901	9466.7875
1980.86073	9444.2875
1983.93046	9389.4875
1986.99819	9375.6875
1990.06394	9351.0875
1993.1277	9348.6875
1996.18947	9317.4875
1999.24925	9265.9875
2002.30706	9277.3875
2005.36288	9259.2875
2008.41672	9233.0875
2011.46859	9193.9875
2014.51848	9184.2875
2017.56639	9108.1875
2020.61233	9133.3875
2023.6563	9138.2875
2026.6983	9103.5875
2029.73833	9104.1875
2032.7764	9078.0875
2035.8125	9069.5875
2038.84664	9037.7875
2041.87881	9053.1875
2044.90903	9018.3875
2047.93729	9019.4875
2050.96359	9006.3875
2053.98794	9017.4875
2057.01034	9025.7875
2060.03078	9002.3875
2063.04927	8980.8875
2066.06582	8989.6875
2069.08042	8990.1875
2072.09307	8985.7875
2075.10378	8980.7875
2078.11255	8973.4875
2081.11938	8987.3875
2084.12426	8997.4875
2087.12722	8980.4875
2090.12824	8988.9875
2093.12732	8985.8875
2096.12447	9000.4875
2099.11969	8976.6875
2102.11299	8995.1875
2105.10435	9023.6875
2108.09379	8999.3875
2111.08131	9008.6875
2114.0669	9012.2875
2117.05057	9031.1875
2120.03233	9035.9875
2123.01216	9050.5875
2125.99008	9056.5875
2128.96609	9062.3875
2131.94018	9071.4875
2134.91236	9106.3875
2137.88263	9107.6875
2140.851	9103.9875
2143.81746	9124.8875
2146.78201	9112.2875
2149.74466	9127.7875
2152.7054	9128.9875
2155.66425	9127.9875
2158.6212	9135.4875
2161.57625	9137.2875
2164.52941	9124.0875
2167.48067	9148.9875
2170.43004	9121.6875
2173.37752	9125.4875
2176.32311	9134.9875
2179.26681	9113.4875
2182.20863	9128.6875
2185.14856	9152.2875
2188.08661	9153.2875
2191.02278	9169.9875
2193.95707	9166.2875
2196.88948	9151.5875
2199.82001	9163.4875
2202.74867	9158.0875
2205.67545	9140.0875
2208.60037	9141.9875
2211.52341	9133.0875
2214.44458	9131.9875
2217.36388	9121.7875
2220.28132	9093.8875
2223.1969	9081.8875
2226.11061	9081.9875
2229.02246	9057.7875
2231.93245	9043.1875
2234.84058	9030.9875
2237.74686	9033.7875
2240.65128	9044.9875
2243.55385	9021.2875
2246.45456	8997.0875
2249.35343	8997.9875
2252.25044	8985.5875
2255.14561	8991.4875
2258.03893	8942.8875
2260.93041	8913.1875
2263.82004	8903.9875
2266.70783	8919.4875
2269.59378	8916.0875
2272.4779	8900.0875
2275.36017	8883.2875
2278.24061	8857.3875
2281.11922	8841.2875
2283.996	8840.8875
2286.87094	8824.0875
2289.74405	8820.7875
2292.61534	8820.8875
2295.4848	8835.3875
2298.35243	8820.3875
2301.21824	8815.4875
2304.08223	8811.1875
2306.94439	8839.4875
2309.80474	8840.7875
2312.66327	8835.1875
2315.51999	8834.7875
2318.37489	8824.4875
2321.22797	8819.7875
2324.07925	8814.4875
2326.92871	8793.7875
2329.77637	8817.4875
2332.62222	8800.1875
2335.46626	8790.7875
2338.3085	8747.9875
2341.14893	8779.0875
2343.98756	8816.5875
2346.8244	8796.3875
2349.65943	8785.1875
2352.49267	8792.3875
2355.32411	8779.0875
2358.15376	8784.6875
2360.98161	8776.4875
2363.80768	8761.6875
2366.63195	8761.7875
2369.45444	8740.9875
2372.27514	8715.7875
2375.09405	8719.0875
2377.91118	8713.0875
2380.72652	8683.9875
2383.54009	8687.5875
2386.35187	8666.3875
2389.16188	8663.0875
2391.97011	8651.8875
2394.77657	8656.3875
2397.58125	8645.9875
2400.38416	8643.1875
2403.18529	8652.9875
2405.98466	8624.8875
2408.78226	8609.9875
2411.57809	8588.6875
2414.37216	8572.8875
2417.16446	8577.3875
2419.955	8556.6875
2422.74378	8564.7875
2425.5308	8537.8875
2428.31606	8539.7875
2431.09956	8551.2875
2433.88131	8542.1875
2436.6613	8571.0875
2439.43954	8566.4875
2442.21603	8536.9875
2444.99077	8530.5875
2447.76377	8543.2875
2450.53501	8549.8875
2453.30451	8532.5875
2456.07226	8504.9875
2458.83827	8525.2875
2461.60254	8526.2875
2464.36507	8497.5875
2467.12586	8508.9875
2469.88492	8518.4875
2472.64224	8493.7875
2475.39782	8504.5875
2478.15167	8505.0875
2480.90379	8543.1875
2483.65417	8544.3875
2486.40283	8552.4875
2489.14976	8540.5875
2491.89497	8545.7875
2494.63845	8524.8875
2497.3802	8507.2875
2500.12024	8550.7875
2502.85855	8544.5875
2505.59514	8540.0875
2508.33002	8516.1875
2511.06318	8512.6875
2513.79462	8511.2875
2516.52435	8493.6875
2519.25237	8506.5875
2521.97867	8490.9875
2524.70327	8476.5875
2527.42616	8492.5875
2530.14734	8489.4875
2532.86681	8475.3875
2535.58458	8489.4875
2538.30065	8494.4875
2541.01501	8474.8875
2543.72768	8442.1875
2546.43864	8467.4875
2549.14791	8447.3875
2551.85548	8420.3875
2554.56136	8418.8875
2557.26554	8431.7875
2559.96803	8407.7875
2562.66883	8400.7875
2565.36794	8397.8875
2568.06536	8414.6875
2570.7611	8409.0875
2573.45514	8389.9875
2576.14751	8401.8875
2578.83819	8401.0875
2581.52719	8380.3875
2584.21451	8363.0875
2586.90015	8358.1875
2589.58411	8334.6875
2592.2664	8337.4875
2594.94701	8370.6875
2597.62594	8361.9875
2600.30321	8352.5875
2602.9788	8339.0875
2605.65273	8341.0875
2608.32498	8339.7875
2610.99557	8345.5875
2613.66449	8337.7875
2616.33175	8327.5875
2618.99734	8344.4875
2621.66128	8323.7875
2624.32355	8301.5875
2626.98416	8321.7875
2629.64311	8298.4875
2632.30041	8310.6875
2634.95605	8294.9875
2637.61004	8266.7875
2640.26238	8246.0875
2642.91306	8262.4875
2645.56209	8251.8875
2648.20948	8241.7875
2650.85521	8224.3875
2653.4993	8233.5875
2656.14175	8242.0875
2658.78255	8247.0875
2661.42171	8270.6875
2664.05923	8269.1875
2666.6951	8285.9875
2669.32934	8292.9875
2671.96194	8303.4875
2674.59291	8311.8875
2677.22224	8295.7875
2679.84993	8305.0875
2682.476	8285.8875
2685.10043	8288.6875
2687.72324	8299.1875
2690.34441	8295.0875
2692.96396	8294.8875
2695.58188	8282.6875
2698.19818	8289.5875
2700.81285	8278.4875
2703.4259	8229.8875
2706.03733	8174.2875
2708.64714	8200.4875
2711.25533	8271.0875
2713.86191	8297.2875
2716.46687	8318.7875
2719.07021	8345.2875
2721.67194	8344.8875
2724.27206	8352.4875
2726.87057	8351.5875
2729.46747	8338.7875
2732.06276	8360.1875
2734.65644	8332.4875
2737.24852	8357.4875
2739.83899	8363.5875
2742.42786	8360.0875
2745.01513	8343.6875
2747.60079	8343.0875
2750.18486	8338.3875
2752.76733	8325.0875
2755.3482	8326.0875
2757.92747	8321.1875
2760.50515	8308.7875
2763.08123	8294.3875
2765.65573	8326.3875
2768.22863	8313.8875
2770.79994	8320.7875
2773.36967	8323.2875
2775.9378	8302.8875
2778.50435	8319.7875
2781.06932	8315.6875
2783.6327	8288.5875
2786.1945	8277.2875
2788.75471	8291.1875
2791.31335	8260.1875
2793.87041	8274.6875
2796.42589	8260.8875
2798.97979	8252.4875
2801.53212	8223.4875
2804.08288	8208.4875
2806.63206	8191.4875
2809.17967	8195.0875
2811.72571	8184.8875
2814.27018	8151.8875
2816.81308	8156.4875
2819.35442	8152.6875
2821.89419	8125.6875
2824.43239	8122.5875
2826.96904	8110.8875
2829.50412	8138.2875
2832.03763	8125.8875
2834.56959	8113.9875
2837.1	8121.1875
2839.62884	8119.4875
2842.15613	8124.8875
2844.68186	8173.9875
2847.20604	8166.3875
2849.72867	8162.4875
2852.24974	8155.6875
2854.76927	8174.3875
2857.28724	8100.6875
2859.80367	8132.7875
2862.31855	8125.0875
2864.83189	8105.7875
2867.34368	8115.5875
2869.85393	8139.6875
2872.36264	8146.9875
2874.8698	8152.9875
2877.37543	8147.6875
2879.87952	8142.4875
2882.38207	8146.1875
2884.88308	8184.1875
2887.38256	8152.6875
2889.88051	8182.1875
2892.37692	8172.9875
2894.8718	8184.9875
2897.36515	8187.0875
2899.85698	8203.4875
2902.34727	8218.5875
2904.83604	8226.1875
2907.32328	8234.7875
2909.809	8214.1875
2912.29319	8258.5875
2914.77587	8247.6875
2917.25702	8229.5875
2919.73665	8250.7875
2922.21476	8238.2875
2924.69136	8217.2875
2927.16644	8230.5875
2929.64	8198.9875
2932.11205	8220.8875
2934.58258	8193.5875
2937.05161	8183.6875
2939.51912	8188.4875
2941.98513	8175.2875
2944.44962	8153.3875
2946.91261	8135.2875
2949.37409	8141.8875
2951.83407	8128.1875
2954.29254	8158.3875
2956.74951	8153.9875
2959.20498	8114.3875
2961.65895	8115.4875
2964.11142	8120.1875
2966.56239	8108.8875
2969.01186	8105.1875
2971.45984	8081.0875
2973.90632	8092.1875
2976.35131	8032.2875
2978.7948	8056.3875
2981.23681	8042.4875
2983.67732	8007.5875
2986.11635	8007.6875
2988.55388	7977.0875
2990.98993	7970.5875
2993.4245	7953.3875
2995.85758	7936.1875
2998.28917	7921.7875
3000.71928	7929.1875
3003.14791	7890.5875
3005.57506	7903.8875
3008.00073	7866.5875
3010.42493	7875.6875
3012.84764	7857.7875
3015.26888	7857.6875
3017.68865	7859.3875
3020.10694	7852.6875
3022.52376	7819.2875
3024.9391	7837.4875
3027.35298	7814.3875
3029.76539	7817.3875
3032.17632	7820.5875
3034.5858	7804.4875
3036.9938	7803.4875
3039.40034	7816.9875
3041.80542	7794.6875
3044.20903	7771.0875
3046.61118	7782.5875
3049.01187	7791.8875
3051.4111	7769.7875
3053.80888	7758.2875
3056.20519	7770.1875
3058.60005	7747.8875
3060.99345	7736.8875
3063.3854	7739.2875
3065.7759	7733.8875
3068.16494	7710.4875
3070.55254	7682.7875
3072.93868	7677.9875
3075.32338	7631.8875
3077.70662	7647.4875
3080.08842	7622.6875
