Data from AgNPs_FTO_APTES_UA_50uM_CRN_1uM_R6G_10uM_NaF_0.1M_Addition_RamanShift__23__11-42-24-738.txt Node

Date: Mon Feb 21 11:42:24 GMT 2022
User: TCL
Spectrometer: QEP01345
Trigger mode: 4
Integration Time (sec): 7.000000E0
Scans to average: 10
Electric dark correction enabled: true
Nonlinearity correction enabled: false
Boxcar width: 0
XAxis mode: Raman Shifts
Number of Pixels in Spectrum: 1044
>>>>>Begin Spectral Data<<<<<
46.04893	-0.275
50.45542	-0.775
54.85868	-0.275
59.25871	-2.175
63.6555	68.525
68.04907	74.825
72.43941	74.025
76.82654	79.525
81.21044	84.025
85.59113	83.625
89.96862	86.725
94.34289	91.225
98.71396	91.425
103.08183	97.725
107.4465	95.325
111.80798	100.525
116.16626	100.625
120.52136	102.125
124.87327	111.525
129.222	109.325
133.56755	114.625
137.90993	125.125
142.24913	135.825
146.58517	152.325
150.91804	168.025
155.24774	199.825
159.57429	245.425
163.89768	318.125
168.21792	422.225
172.53501	572.325
176.84895	798.925
181.15975	1127.325
185.46741	1579.325
189.77193	2165.625
194.07331	2889.325
198.37157	3750.225
202.6667	4616.325
206.9587	5506.825
211.24758	6363.725
215.53334	7263.225
219.81599	8229.325
224.09553	9321.625
228.37195	10480.425
232.64527	11842.825
236.91549	13176.325
241.18261	14468.425
245.44663	15647.025
249.70755	16626.925
253.96539	17485.225
258.22014	18244.225
262.4718	18868.525
266.72039	19256.425
270.96589	19489.725
275.20832	19480.425
279.44768	19335.225
283.68397	19134.425
287.91719	18958.125
292.14735	18923.025
296.37445	19060.125
300.59849	19333.225
304.81948	19687.325
309.03742	19959.925
313.25231	19844.425
317.46415	19237.325
321.67296	18349.625
325.87872	17600.025
330.08145	17237.125
334.28114	17256.825
338.47781	17428.325
342.67145	17779.725
346.86207	18259.625
351.04966	18913.125
355.23424	19673.025
359.4158	20304.625
363.59435	20677.125
367.76989	20876.225
371.94243	20896.325
376.11196	20864.625
380.27849	20902.025
384.44203	20880.025
388.60257	20877.125
392.76012	20907.325
396.91468	21158.525
401.06626	21574.725
405.21485	21875.125
409.36047	21715.725
413.50311	21101.825
417.64277	20536.525
421.77947	20309.925
425.9132	20205.125
430.04396	20279.325
434.17176	20355.125
438.2966	20616.025
442.41849	21022.425
446.53742	21655.325
450.6534	22253.325
454.76644	22814.825
458.87653	22979.625
462.98368	22870.225
467.08789	22553.025
471.18916	22109.725
475.2875	21657.425
479.38291	21357.025
483.4754	21134.125
487.56496	20885.525
491.6516	20597.825
495.73531	20379.225
499.81612	20281.725
503.89401	20427.225
507.96899	20538.525
512.04106	20563.325
516.11023	20644.725
520.1765	20623.125
524.23987	20531.825
528.30034	20378.625
532.35792	20103.925
536.41261	19827.525
540.46441	19525.425
544.51333	19444.325
548.55936	19592.325
552.60252	20067.925
556.64279	20528.325
560.6802	20840.925
564.71473	21124.525
568.7464	21694.725
572.7752	22244.025
576.80114	22226.525
580.82422	22145.325
584.84444	22211.825
588.86181	22430.925
592.87633	22732.225
596.888	23042.125
600.89682	23283.525
604.9028	24521.825
608.90594	28468.825
612.90624	33233.125
616.90371	31708.725
620.89834	24712.325
624.89015	21451.625
628.87913	20922.425
632.86528	20994.025
636.84862	20981.525
640.82913	20596.925
644.80683	19877.625
648.78172	19270.225
652.75379	19205.325
656.72306	19663.625
660.68952	20291.425
664.65319	20230.025
668.61405	19679.025
672.57211	19442.225
676.52738	19435.125
680.47986	19407.225
684.42955	19318.225
688.37646	19266.525
692.32058	19380.925
696.26192	19611.325
700.20048	19803.325
704.13626	19912.325
708.06928	19842.625
711.99952	19626.625
715.927	19602.725
719.85171	19659.125
723.77365	19648.125
727.69284	19437.825
731.60928	19228.625
735.52295	19148.425
739.43388	19183.725
743.34206	19310.925
747.24749	19450.725
751.15017	19577.225
755.05012	19925.925
758.94733	20643.625
762.8418	22143.425
766.73354	24709.425
770.62254	27294.825
774.50882	28270.325
778.39237	27004.225
782.27321	24330.625
786.15132	21890.425
790.02671	20375.625
793.89938	19681.425
797.76935	19392.325
801.6366	19312.625
805.50115	19232.725
809.36299	19140.625
813.22213	19039.825
817.07857	18956.125
820.93231	18902.525
824.78336	18884.825
828.63172	18877.225
832.47738	18940.325
836.32036	18945.025
840.16066	18989.425
843.99827	19006.125
847.8332	18979.225
851.66546	18883.925
855.49504	18864.725
859.32195	18849.625
863.1462	18750.925
866.96777	18634.825
870.78668	18598.825
874.60293	18667.425
878.41652	18706.625
882.22745	18814.925
886.03573	18861.425
889.84136	18837.925
893.64433	18751.725
897.44466	18698.625
901.24235	18612.325
905.0374	18486.425
908.8298	18441.325
912.61957	18438.225
916.40671	18526.525
920.19121	18754.225
923.97308	18985.325
927.75233	19224.625
931.52895	19255.125
935.30295	19052.525
939.07433	18638.925
942.84309	18269.225
946.60924	18136.725
950.37278	18040.525
954.13371	17958.525
957.89203	17834.725
961.64774	17753.025
965.40086	17703.925
969.15137	17636.825
972.89929	17610.825
976.64461	17576.925
980.38733	17571.625
984.12747	17671.625
987.86502	17838.125
991.59999	18098.225
995.33237	18531.725
999.06217	19205.725
1002.78939	19964.325
1006.51404	20581.525
1010.23611	20901.925
1013.95561	21132.425
1017.67255	21173.425
1021.38692	20912.325
1025.09872	20697.925
1028.80796	20845.725
1032.51465	21436.625
1036.21877	21970.625
1039.92035	22057.425
1043.61937	21793.825
1047.31584	21220.825
1051.00976	20527.525
1054.70114	20093.725
1058.38998	19996.925
1062.07627	20019.425
1065.76003	20074.425
1069.44126	20234.825
1073.11995	20435.525
1076.79611	20700.825
1080.46974	20946.825
1084.14085	21261.325
1087.80943	21668.925
1091.47549	21809.825
1095.13903	21640.825
1098.80005	21178.125
1102.45857	20672.625
1106.11456	20380.825
1109.76805	20443.425
1113.41903	20664.225
1117.06751	21042.625
1120.71348	21567.825
1124.35696	22104.625
1127.99793	22570.925
1131.63641	22583.725
1135.2724	22138.525
1138.90589	21597.325
1142.5369	21261.925
1146.16542	21050.425
1149.79145	20954.025
1153.415	21056.425
1157.03607	21290.425
1160.65467	21767.525
1164.27079	22524.725
1167.88443	23750.225
1171.49561	25420.225
1175.10432	27852.925
1178.71056	31095.025
1182.31434	34085.625
1185.91565	35471.025
1189.51451	35177.125
1193.11091	33663.325
1196.70485	31761.525
1200.29634	29931.325
1203.88538	28515.525
1207.47197	27262.125
1211.05612	26185.725
1214.63782	25594.925
1218.21708	25418.525
1221.79391	25502.325
1225.36829	25610.725
1228.94024	25437.225
1232.50976	25050.025
1236.07685	24754.525
1239.6415	24529.925
1243.20374	24507.025
1246.76355	24586.325
1250.32093	24904.425
1253.8759	25513.325
1257.42845	26325.925
1260.97859	27208.925
1264.52631	28002.925
1268.07163	28901.425
1271.61453	29778.125
1275.15503	30647.625
1278.69312	31511.425
1282.22882	32276.425
1285.76211	33007.425
1289.29301	33896.425
1292.82151	34878.425
1296.34761	36213.125
1299.87133	38119.325
1303.39266	40864.625
1306.9116	44520.325
1310.42815	48316.825
1313.94233	50585.625
1317.45412	50203.925
1320.96354	48077.925
1324.47058	45672.825
1327.97525	43584.725
1331.47754	42318.725
1334.97747	41932.625
1338.47502	42106.425
1341.97022	42530.925
1345.46305	42804.225
1348.95352	42969.025
1352.44163	43637.925
1355.92738	45466.625
1359.41078	49163.325
1362.89183	52866.725
1366.37053	51685.525
1369.84688	45694.025
1373.32088	39439.425
1376.79254	35374.525
1380.26186	33447.325
1383.72883	32614.225
1387.19347	32015.025
1390.65578	31455.425
1394.11575	31223.025
1397.57339	31487.525
1401.0287	32127.825
1404.48168	32797.425
1407.93234	33290.225
1411.38068	33471.925
1414.82669	33173.625
1418.27039	32284.625
1421.71177	31068.425
1425.15083	30051.525
1428.58758	29496.325
1432.02203	29555.425
1435.45416	29879.925
1438.88399	30342.225
1442.31151	30672.525
1445.73673	30980.825
1449.15965	31304.125
1452.58027	31506.825
1455.9986	31500.125
1459.41463	31606.425
1462.82837	31975.425
1466.23982	32581.525
1469.64898	33224.625
1473.05586	33606.625
1476.46045	33692.825
1479.86276	33823.425
1483.26279	34018.525
1486.66054	34390.225
1490.05602	34896.325
1493.44922	35683.325
1496.84016	36657.525
1500.22882	38199.225
1503.61521	40600.025
1506.99934	43542.325
1510.38121	45970.625
1513.76081	46479.125
1517.13816	44319.725
1520.51324	40604.625
1523.88607	37272.025
1527.25665	35105.225
1530.62498	33912.525
1533.99105	33271.025
1537.35488	32872.325
1540.71647	32500.125
1544.07581	32147.725
1547.4329	31817.025
1550.78776	31436.525
1554.14038	31207.025
1557.49077	31180.025
1560.83892	31338.225
1564.18484	31559.225
1567.52853	31853.325
1570.86999	32148.725
1574.20922	32399.325
1577.54624	32493.925
1580.88103	31861.325
1584.2136	31217.825
1587.54395	31535.025
1590.87208	32947.225
1594.19801	35359.225
1597.52172	37983.125
1600.84321	39010.225
1604.16251	37615.225
1607.47959	34818.925
1610.79447	31694.925
1614.10715	28750.625
1617.41763	26474.425
1620.7259	25010.925
1624.03199	24298.525
1627.33587	24369.825
1630.63757	25154.725
1633.93707	26711.525
1637.23439	29077.125
1640.52951	32333.525
1643.82246	35954.625
1647.11321	39220.625
1650.40179	40384.825
1653.68819	37968.725
1656.97241	32911.725
1660.25446	27857.225
1663.53433	24155.725
1666.81203	21944.525
1670.08756	20602.225
1673.36092	19779.025
1676.63211	19272.925
1679.90115	18862.425
1683.16801	18579.525
1686.43272	18323.925
1689.69527	18181.625
1692.95567	17969.025
1696.2139	17835.225
1699.46999	17625.725
1702.72392	17561.325
1705.97571	17646.725
1709.22535	17680.925
1712.47284	17723.125
1715.71819	17762.725
1718.96139	17743.125
1722.20246	17679.225
1725.44139	17563.225
1728.67818	17493.825
1731.91284	17369.925
1735.14537	17249.825
1738.37576	17197.325
1741.60403	17123.025
1744.83017	17037.625
1748.05418	17022.025
1751.27607	16943.025
1754.49584	16842.325
1757.71349	16749.425
1760.92903	16733.725
1764.14244	16681.625
1767.35375	16737.625
1770.56294	16692.925
1773.77002	16660.125
1776.97499	16713.125
1780.17785	16701.625
1783.37861	16735.725
1786.57727	16705.525
1789.77382	16695.225
1792.96828	16737.325
1796.16064	16711.125
1799.3509	16664.125
1802.53907	16657.325
1805.72514	16618.225
1808.90913	16578.425
1812.09102	16523.325
1815.27083	16513.125
1818.44856	16498.525
1821.6242	16504.325
1824.79776	16478.425
1827.96924	16471.925
1831.13864	16485.025
1834.30597	16481.925
1837.47122	16465.525
1840.6344	16432.025
1843.7955	16460.625
1846.95454	16463.725
1850.11151	16452.025
1853.26642	16428.525
1856.41926	16406.025
1859.57004	16443.725
1862.71876	16477.225
1865.86542	16471.225
1869.01003	16459.525
1872.15258	16466.925
1875.29308	16483.125
1878.43152	16484.225
1881.56792	16473.625
1884.70227	16516.725
1887.83457	16495.525
1890.96482	16486.525
1894.09304	16463.225
1897.21921	16463.425
1900.34335	16484.625
1903.46544	16466.625
1906.58551	16496.225
1909.70353	16479.725
1912.81953	16486.125
1915.93349	16436.425
1919.04543	16392.725
1922.15534	16395.025
1925.26322	16349.125
1928.36908	16230.725
1931.47292	16200.025
1934.57473	16151.425
1937.67453	16092.325
1940.77232	16056.225
1943.86808	15974.225
1946.96184	15953.025
1950.05358	15893.425
1953.14331	15845.225
1956.23103	15782.225
1959.31675	15702.525
1962.40046	15706.625
1965.48217	15647.125
1968.56188	15622.325
1971.63959	15598.825
1974.7153	15581.425
1977.78901	15534.925
1980.86073	15457.525
1983.93046	15386.525
1986.99819	15343.525
1990.06394	15297.725
1993.1277	15267.625
1996.18947	15251.425
1999.24925	15171.025
2002.30706	15110.925
2005.36288	15095.525
2008.41672	15056.725
2011.46859	15047.225
2014.51848	14965.125
2017.56639	14925.925
2020.61233	14941.125
2023.6563	14887.425
2026.6983	14839.325
2029.73833	14812.925
2032.7764	14811.825
2035.8125	14770.525
2038.84664	14785.725
2041.87881	14769.925
2044.90903	14741.825
2047.93729	14712.625
2050.96359	14691.925
2053.98794	14667.825
2057.01034	14675.225
2060.03078	14622.625
2063.04927	14619.925
2066.06582	14641.125
2069.08042	14586.625
2072.09307	14600.425
2075.10378	14567.325
2078.11255	14564.725
2081.11938	14614.625
2084.12426	14574.925
2087.12722	14535.425
2090.12824	14557.125
2093.12732	14548.625
2096.12447	14529.125
2099.11969	14513.625
2102.11299	14518.825
2105.10435	14536.925
2108.09379	14545.825
2111.08131	14570.825
2114.0669	14569.625
2117.05057	14605.525
2120.03233	14614.625
2123.01216	14633.625
2125.99008	14655.225
2128.96609	14668.325
2131.94018	14634.825
2134.91236	14652.025
2137.88263	14664.625
2140.851	14694.825
2143.81746	14690.425
2146.78201	14691.125
2149.74466	14682.525
2152.7054	14690.525
2155.66425	14688.125
2158.6212	14675.725
2161.57625	14665.425
2164.52941	14708.125
2167.48067	14694.925
2170.43004	14666.125
2173.37752	14641.925
2176.32311	14637.925
2179.26681	14670.625
2182.20863	14660.525
2185.14856	14672.125
2188.08661	14678.025
2191.02278	14677.525
2193.95707	14684.525
2196.88948	14681.625
2199.82001	14688.325
2202.74867	14668.625
2205.67545	14648.725
2208.60037	14677.325
2211.52341	14677.525
2214.44458	14632.225
2217.36388	14634.725
2220.28132	14604.925
2223.1969	14631.425
2226.11061	14589.925
2229.02246	14547.925
2231.93245	14531.825
2234.84058	14487.825
2237.74686	14443.825
2240.65128	14439.125
2243.55385	14422.125
2246.45456	14432.925
2249.35343	14413.425
2252.25044	14381.625
2255.14561	14350.525
2258.03893	14343.125
2260.93041	14305.525
2263.82004	14300.025
2266.70783	14305.425
2269.59378	14281.525
2272.4779	14232.125
2275.36017	14206.025
2278.24061	14186.225
2281.11922	14135.725
2283.996	14157.125
2286.87094	14138.425
2289.74405	14087.125
2292.61534	14079.125
2295.4848	14062.425
2298.35243	14096.225
2301.21824	14093.125
2304.08223	14106.025
2306.94439	14149.425
2309.80474	14120.325
2312.66327	14134.125
2315.51999	14126.025
2318.37489	14121.725
2321.22797	14115.325
2324.07925	14110.625
2326.92871	14087.625
2329.77637	14095.625
2332.62222	14041.425
2335.46626	14079.925
2338.3085	14091.525
2341.14893	14125.025
2343.98756	14142.325
2346.8244	14136.125
2349.65943	14146.425
2352.49267	14130.325
2355.32411	14153.925
2358.15376	14150.125
2360.98161	14182.625
2363.80768	14107.125
2366.63195	14127.825
2369.45444	14080.825
2372.27514	14060.625
2375.09405	14015.925
2377.91118	13984.625
2380.72652	13944.425
2383.54009	13886.425
2386.35187	13878.325
2389.16188	13841.225
2391.97011	13859.025
2394.77657	13822.025
2397.58125	13826.225
2400.38416	13787.825
2403.18529	13797.025
2405.98466	13777.225
2408.78226	13750.925
2411.57809	13691.825
2414.37216	13644.025
2417.16446	13672.425
2419.955	13635.125
2422.74378	13618.725
2425.5308	13601.725
2428.31606	13591.725
2431.09956	13590.125
2433.88131	13619.825
2436.6613	13623.725
2439.43954	13607.825
2442.21603	13625.225
2444.99077	13596.925
2447.76377	13622.125
2450.53501	13613.725
2453.30451	13601.125
2456.07226	13590.225
2458.83827	13594.325
2461.60254	13582.925
2464.36507	13584.825
2467.12586	13549.425
2469.88492	13567.825
2472.64224	13586.025
2475.39782	13575.225
2478.15167	13587.325
2480.90379	13635.725
2483.65417	13681.125
2486.40283	13688.925
2489.14976	13695.325
2491.89497	13705.825
2494.63845	13674.025
2497.3802	13682.725
2500.12024	13730.225
2502.85855	13712.225
2505.59514	13695.325
2508.33002	13651.725
2511.06318	13675.325
2513.79462	13629.025
2516.52435	13612.925
2519.25237	13560.125
2521.97867	13550.325
2524.70327	13513.125
2527.42616	13535.425
2530.14734	13535.325
2532.86681	13531.125
2535.58458	13566.125
2538.30065	13525.325
2541.01501	13542.125
2543.72768	13526.225
2546.43864	13533.425
2549.14791	13517.125
2551.85548	13544.025
2554.56136	13514.025
2557.26554	13475.225
2559.96803	13474.425
2562.66883	13443.325
2565.36794	13420.925
2568.06536	13422.525
2570.7611	13407.125
2573.45514	13424.925
2576.14751	13429.625
2578.83819	13427.125
2581.52719	13401.825
2584.21451	13397.125
2586.90015	13424.625
2589.58411	13423.325
2592.2664	13414.525
2594.94701	13416.825
2597.62594	13407.125
2600.30321	13413.325
2602.9788	13402.225
2605.65273	13405.525
2608.32498	13421.225
2610.99557	13403.225
2613.66449	13449.725
2616.33175	13430.025
2618.99734	13409.325
2621.66128	13412.025
2624.32355	13418.425
2626.98416	13433.425
2629.64311	13457.525
2632.30041	13463.425
2634.95605	13428.225
2637.61004	13409.925
2640.26238	13392.125
2642.91306	13407.425
2645.56209	13380.825
2648.20948	13349.825
2650.85521	13298.425
2653.4993	13317.825
2656.14175	13327.225
2658.78255	13355.925
2661.42171	13343.725
2664.05923	13389.425
2666.6951	13398.725
2669.32934	13425.725
2671.96194	13407.425
2674.59291	13455.225
2677.22224	13443.325
2679.84993	13423.425
2682.476	13418.525
2685.10043	13450.525
2687.72324	13391.525
2690.34441	13370.725
2692.96396	13399.025
2695.58188	13376.325
2698.19818	13342.425
2700.81285	13365.225
2703.4259	13295.625
2706.03733	13246.925
2708.64714	13273.925
2711.25533	13350.425
2713.86191	13395.825
2716.46687	13416.425
2719.07021	13468.225
2721.67194	13463.625
2724.27206	13489.625
2726.87057	13463.325
2729.46747	13459.725
2732.06276	13487.225
2734.65644	13450.925
2737.24852	13466.325
2739.83899	13459.125
2742.42786	13471.925
2745.01513	13460.025
2747.60079	13463.225
2750.18486	13440.425
2752.76733	13437.525
2755.3482	13416.625
2757.92747	13423.825
2760.50515	13395.625
2763.08123	13415.025
2765.65573	13367.925
2768.22863	13364.725
2770.79994	13372.825
2773.36967	13364.825
2775.9378	13361.225
2778.50435	13364.625
2781.06932	13374.425
2783.6327	13383.725
2786.1945	13340.025
2788.75471	13392.325
2791.31335	13383.025
2793.87041	13348.025
2796.42589	13314.525
2798.97979	13294.325
2801.53212	13250.625
2804.08288	13285.725
2806.63206	13249.725
2809.17967	13238.425
2811.72571	13192.125
2814.27018	13190.625
2816.81308	13168.725
2819.35442	13203.925
2821.89419	13183.025
2824.43239	13167.125
2826.96904	13177.925
2829.50412	13173.925
2832.03763	13152.625
2834.56959	13164.925
2837.1	13112.325
2839.62884	13146.425
2842.15613	13112.025
2844.68186	13136.125
2847.20604	13122.025
2849.72867	13090.425
2852.24974	13068.525
2854.76927	13073.125
2857.28724	13049.925
2859.80367	13025.125
2862.31855	13022.225
2864.83189	13043.625
2867.34368	13047.625
2869.85393	13072.425
2872.36264	13032.825
2874.8698	13071.025
2877.37543	13085.725
2879.87952	13039.125
2882.38207	13075.225
2884.88308	13066.025
2887.38256	13088.225
2889.88051	13074.725
2892.37692	13047.625
2894.8718	13041.125
2897.36515	13084.725
2899.85698	13104.225
2902.34727	13124.425
2904.83604	13120.925
2907.32328	13123.625
2909.809	13149.125
2912.29319	13169.325
2914.77587	13164.725
2917.25702	13168.025
2919.73665	13105.425
2922.21476	13132.925
2924.69136	13110.225
2927.16644	13094.025
2929.64	13092.625
2932.11205	13036.625
2934.58258	13026.425
2937.05161	13026.925
2939.51912	13017.725
2941.98513	13032.725
2944.44962	12989.625
2946.91261	12951.825
2949.37409	13000.625
2951.83407	12988.425
2954.29254	12993.125
2956.74951	12948.125
2959.20498	12965.125
2961.65895	12930.025
2964.11142	12955.125
2966.56239	12936.025
2969.01186	12893.225
2971.45984	12866.025
2973.90632	12870.025
2976.35131	12840.725
2978.7948	12800.425
2981.23681	12798.125
2983.67732	12774.725
2986.11635	12742.925
2988.55388	12691.525
2990.98993	12680.125
2993.4245	12670.625
2995.85758	12619.825
2998.28917	12628.525
3000.71928	12592.925
3003.14791	12592.725
3005.57506	12553.425
3008.00073	12504.025
3010.42493	12509.225
3012.84764	12483.925
3015.26888	12482.125
3017.68865	12440.525
3020.10694	12439.325
3022.52376	12397.025
3024.9391	12385.625
3027.35298	12344.925
3029.76539	12373.525
3032.17632	12368.125
3034.5858	12329.225
3036.9938	12311.025
3039.40034	12313.125
3041.80542	12322.225
3044.20903	12279.525
3046.61118	12276.225
3049.01187	12210.925
3051.4111	12225.225
3053.80888	12193.825
3056.20519	12197.425
3058.60005	12158.525
3060.99345	12147.125
3063.3854	12092.025
3065.7759	12063.925
3068.16494	12041.725
3070.55254	11999.725
3072.93868	11958.925
3075.32338	11909.425
3077.70662	11874.925
3080.08842	11871.325
3082.46878	11854.825
3084.84769	11842.425
3087.22515	11813.425
3089.60118	11812.525
3091.97576	11810.625
3094.3489	11812.125
3096.72061	11832.025
3099.09087	11841.825
3101.4597	11820.625
3103.82709	11785.125
3106.19305	11785.825
3108.55757	11764.625
3110.92066	11749.225
3113.28232	11739.125
3115.64255	11719.625
3118.00134	11698.425
3120.35871	11670.125
3122.71466	11636.925
3125.06917	11625.925
3127.42226	11607.325
