Data from AgNPs_FTO_APTES_UA_50uM_CRN_1000uM_R6G_10uM_NaF_0.1M_Addition_RamanShift__21__17-50-43-601.txt Node

Date: Mon Feb 21 17:50:43 GMT 2022
User: TCL
Spectrometer: QEP01345
Trigger mode: 4
Integration Time (sec): 7.000000E0
Scans to average: 10
Electric dark correction enabled: true
Nonlinearity correction enabled: false
Boxcar width: 0
XAxis mode: Raman Shifts
Number of Pixels in Spectrum: 1044
>>>>>Begin Spectral Data<<<<<
46.04893	-0.775
50.45542	-0.375
54.85868	-0.275
59.25871	-1.175
63.6555	59.525
68.04907	64.225
72.43941	67.825
76.82654	64.525
81.21044	73.325
85.59113	73.825
89.96862	78.125
94.34289	76.325
98.71396	79.525
103.08183	84.725
107.4465	87.125
111.80798	91.925
116.16626	91.425
120.52136	90.625
124.87327	95.625
129.222	103.225
133.56755	109.525
137.90993	117.025
142.24913	123.825
146.58517	139.925
150.91804	157.025
155.24774	188.325
159.57429	232.825
163.89768	301.025
168.21792	399.425
172.53501	542.925
176.84895	764.925
181.15975	1069.125
185.46741	1505.025
189.77193	2093.225
194.07331	2811.425
198.37157	3621.225
202.6667	4484.025
206.9587	5366.625
211.24758	6201.925
215.53334	7085.425
219.81599	8019.125
224.09553	9054.125
228.37195	10203.625
232.64527	11486.225
236.91549	12810.025
241.18261	14033.725
245.44663	15150.425
249.70755	16163.125
253.96539	16993.725
258.22014	17700.825
262.4718	18295.725
266.72039	18694.125
270.96589	18877.625
275.20832	18838.325
279.44768	18534.025
283.68397	18222.325
287.91719	17937.825
292.14735	17835.825
296.37445	17946.325
300.59849	18257.025
304.81948	18617.725
309.03742	18810.725
313.25231	18677.725
317.46415	18221.325
321.67296	17495.125
325.87872	16895.825
330.08145	16611.125
334.28114	16652.725
338.47781	16800.525
342.67145	17112.025
346.86207	17547.125
351.04966	18067.725
355.23424	18768.425
359.4158	19299.225
363.59435	19684.225
367.76989	19875.025
371.94243	19969.125
376.11196	19994.525
380.27849	20031.625
384.44203	20022.725
388.60257	19957.525
392.76012	19987.625
396.91468	20051.625
401.06626	20315.825
405.21485	20485.925
409.36047	20302.725
413.50311	19757.925
417.64277	19249.425
421.77947	18947.425
425.9132	18892.625
430.04396	18967.625
434.17176	19119.025
438.2966	19373.825
442.41849	19761.425
446.53742	20344.225
450.6534	20924.625
454.76644	21262.325
458.87653	21358.125
462.98368	21096.925
467.08789	20752.625
471.18916	20381.525
475.2875	20026.225
479.38291	19796.425
483.4754	19586.725
487.56496	19327.925
491.6516	19121.125
495.73531	18994.625
499.81612	18931.525
503.89401	19098.425
507.96899	19210.625
512.04106	19350.425
516.11023	19512.325
520.1765	19564.225
524.23987	19548.825
528.30034	19405.425
532.35792	19232.625
536.41261	19092.525
540.46441	18860.825
544.51333	18732.225
548.55936	18748.725
552.60252	19035.525
556.64279	19406.925
560.6802	19681.925
564.71473	19822.125
568.7464	20175.125
572.7752	20458.425
576.80114	20287.525
580.82422	19981.725
584.84444	19997.025
588.86181	20397.325
592.87633	20905.225
596.888	21199.325
600.89682	21163.325
604.9028	22019.925
608.90594	25157.925
612.90624	29261.225
616.90371	28112.925
620.89834	22364.125
624.89015	19586.825
628.87913	19096.325
632.86528	19226.325
636.84862	19415.125
640.82913	19233.625
644.80683	18733.525
648.78172	18282.825
652.75379	18257.825
656.72306	18579.525
660.68952	19052.525
664.65319	18946.425
668.61405	18540.025
672.57211	18388.925
676.52738	18500.225
680.47986	18556.225
684.42955	18410.725
688.37646	18214.725
692.32058	18166.525
696.26192	18261.225
700.20048	18358.425
704.13626	18469.225
708.06928	18388.525
711.99952	18231.425
715.927	18161.025
719.85171	18208.425
723.77365	18236.125
727.69284	18180.925
731.60928	18093.325
735.52295	18065.425
739.43388	18113.825
743.34206	18170.625
747.24749	18153.925
751.15017	18202.925
755.05012	18338.825
758.94733	18796.925
762.8418	19957.725
766.73354	21922.425
770.62254	24072.625
774.50882	25154.625
778.39237	24300.125
782.27321	21975.925
786.15132	19853.025
790.02671	18593.725
793.89938	18011.725
797.76935	17780.525
801.6366	17687.625
805.50115	17616.525
809.36299	17556.725
813.22213	17472.725
817.07857	17398.625
820.93231	17379.125
824.78336	17330.625
828.63172	17312.925
832.47738	17270.425
836.32036	17270.025
840.16066	17225.625
843.99827	17183.025
847.8332	17164.525
851.66546	17128.425
855.49504	17164.925
859.32195	17187.525
863.1462	17225.025
866.96777	17237.825
870.78668	17183.925
874.60293	17174.825
878.41652	17164.425
882.22745	17197.025
886.03573	17225.025
889.84136	17231.725
893.64433	17138.425
897.44466	17028.125
901.24235	16923.525
905.0374	16851.825
908.8298	16770.625
912.61957	16669.025
916.40671	16736.825
920.19121	16815.525
923.97308	16908.125
927.75233	17032.525
931.52895	17082.925
935.30295	16955.125
939.07433	16671.925
942.84309	16416.925
946.60924	16224.325
950.37278	16159.325
954.13371	16059.725
957.89203	15982.725
961.64774	15935.325
965.40086	15864.425
969.15137	15767.225
972.89929	15746.525
976.64461	15704.425
980.38733	15661.625
984.12747	15667.325
987.86502	15745.525
991.59999	15857.825
995.33237	16024.825
999.06217	16289.725
1002.78939	16635.825
1006.51404	16915.125
1010.23611	17072.425
1013.95561	17220.925
1017.67255	17230.525
1021.38692	17056.325
1025.09872	16807.625
1028.80796	16665.025
1032.51465	16733.025
1036.21877	16881.225
1039.92035	16924.025
1043.61937	16913.225
1047.31584	16814.225
1051.00976	16640.025
1054.70114	16572.725
1058.38998	16532.125
1062.07627	16515.725
1065.76003	16562.425
1069.44126	16579.325
1073.11995	16653.025
1076.79611	16758.725
1080.46974	16909.925
1084.14085	17168.925
1087.80943	17419.125
1091.47549	17530.625
1095.13903	17422.125
1098.80005	17105.125
1102.45857	16861.025
1106.11456	16756.225
1109.76805	16826.625
1113.41903	17087.125
1117.06751	17500.925
1120.71348	17949.725
1124.35696	18413.025
1127.99793	18811.625
1131.63641	18856.225
1135.2724	18411.525
1138.90589	17900.025
1142.5369	17561.225
1146.16542	17348.625
1149.79145	17164.325
1153.415	17160.325
1157.03607	17260.625
1160.65467	17544.725
1164.27079	18096.625
1167.88443	18833.225
1171.49561	19968.925
1175.10432	21535.025
1178.71056	23729.425
1182.31434	25646.925
1185.91565	26376.525
1189.51451	25802.725
1193.11091	24608.925
1196.70485	23259.925
1200.29634	22187.425
1203.88538	21320.125
1207.47197	20486.425
1211.05612	19732.625
1214.63782	19313.425
1218.21708	19130.225
1221.79391	19168.425
1225.36829	19130.425
1228.94024	18898.325
1232.50976	18617.025
1236.07685	18381.025
1239.6415	18320.725
1243.20374	18337.725
1246.76355	18454.925
1250.32093	18657.725
1253.8759	18912.825
1257.42845	19347.525
1260.97859	19745.925
1264.52631	20152.525
1268.07163	20636.825
1271.61453	21072.025
1275.15503	21488.625
1278.69312	21829.825
1282.22882	22085.425
1285.76211	22469.825
1289.29301	23094.625
1292.82151	23868.225
1296.34761	24803.425
1299.87133	26151.625
1303.39266	27946.025
1306.9116	30473.125
1310.42815	33080.925
1313.94233	34511.825
1317.45412	33899.925
1320.96354	32064.125
1324.47058	30109.425
1327.97525	28452.725
1331.47754	27351.025
1334.97747	26969.025
1338.47502	27059.925
1341.97022	27514.525
1345.46305	28125.025
1348.95352	28989.725
1352.44163	30331.325
1355.92738	32406.925
1359.41078	35548.125
1362.89183	38457.525
1366.37053	37525.225
1369.84688	32641.825
1373.32088	27609.325
1376.79254	24518.425
1380.26186	23021.625
1383.72883	22399.525
1387.19347	22027.625
1390.65578	21615.325
1394.11575	21326.525
1397.57339	21357.125
1401.0287	21635.025
1404.48168	21970.125
1407.93234	22216.925
1411.38068	22279.425
1414.82669	22094.325
1418.27039	21648.825
1421.71177	21007.825
1425.15083	20435.325
1428.58758	20034.825
1432.02203	20111.525
1435.45416	20377.725
1438.88399	20645.725
1442.31151	20854.725
1445.73673	21056.225
1449.15965	21265.725
1452.58027	21351.325
1455.9986	21253.025
1459.41463	21285.925
1462.82837	21488.125
1466.23982	21915.625
1469.64898	22326.825
1473.05586	22626.925
1476.46045	22742.825
1479.86276	22786.325
1483.26279	22799.725
1486.66054	22877.625
1490.05602	23117.125
1493.44922	23500.825
1496.84016	24179.325
1500.22882	25437.925
1503.61521	27534.925
1506.99934	30208.825
1510.38121	32490.925
1513.76081	32971.025
1517.13816	31197.425
1520.51324	28038.425
1523.88607	25191.325
1527.25665	23462.025
1530.62498	22527.025
1533.99105	22135.325
1537.35488	21867.125
1540.71647	21665.125
1544.07581	21471.325
1547.4329	21325.025
1550.78776	21197.325
1554.14038	21135.325
1557.49077	21206.125
1560.83892	21323.725
1564.18484	21584.025
1567.52853	21893.925
1570.86999	22226.625
1574.20922	22486.925
1577.54624	22524.625
1580.88103	21878.825
1584.2136	21078.625
1587.54395	20779.225
1590.87208	21233.425
1594.19801	22367.925
1597.52172	23932.725
1600.84321	24846.925
1604.16251	24415.725
1607.47959	23024.925
1610.79447	21250.525
1614.10715	19544.625
1617.41763	18189.525
1620.7259	17271.825
1624.03199	16808.125
1627.33587	16758.825
1630.63757	17104.725
1633.93707	17893.025
1637.23439	19223.125
1640.52951	21229.125
1643.82246	23891.825
1647.11321	26607.525
1650.40179	27925.025
1653.68819	26592.025
1656.97241	23252.925
1660.25446	19820.125
1663.53433	17405.525
1666.81203	16003.825
1670.08756	15099.825
1673.36092	14583.325
1676.63211	14189.725
1679.90115	13980.625
1683.16801	13795.625
1686.43272	13587.725
1689.69527	13483.725
1692.95567	13358.925
1696.2139	13287.025
1699.46999	13191.825
1702.72392	13143.525
1705.97571	13120.525
1709.22535	13082.425
1712.47284	13069.625
1715.71819	13058.025
1718.96139	13019.125
1722.20246	12971.625
1725.44139	12895.925
1728.67818	12808.825
1731.91284	12749.325
1735.14537	12675.825
1738.37576	12636.625
1741.60403	12599.725
1744.83017	12559.925
1748.05418	12535.625
1751.27607	12491.325
1754.49584	12526.225
1757.71349	12466.525
1760.92903	12423.325
1764.14244	12384.125
1767.35375	12348.425
1770.56294	12272.025
1773.77002	12254.725
1776.97499	12232.125
1780.17785	12144.025
1783.37861	12137.425
1786.57727	12116.625
1789.77382	12068.125
1792.96828	12056.025
1796.16064	12032.025
1799.3509	12010.725
1802.53907	11975.725
1805.72514	11913.625
1808.90913	11908.125
1812.09102	11847.825
1815.27083	11826.525
1818.44856	11807.625
1821.6242	11780.925
1824.79776	11747.825
1827.96924	11723.025
1831.13864	11709.425
1834.30597	11694.525
1837.47122	11681.025
1840.6344	11654.825
1843.7955	11629.025
1846.95454	11624.725
1850.11151	11608.225
1853.26642	11602.025
1856.41926	11582.125
1859.57004	11595.525
1862.71876	11576.625
1865.86542	11564.525
1869.01003	11545.425
1872.15258	11563.225
1875.29308	11544.525
1878.43152	11529.125
1881.56792	11513.925
1884.70227	11523.625
1887.83457	11504.025
1890.96482	11501.525
1894.09304	11490.025
1897.21921	11455.325
1900.34335	11473.325
1903.46544	11448.825
1906.58551	11443.325
1909.70353	11417.925
1912.81953	11399.625
1915.93349	11351.025
1919.04543	11349.225
1922.15534	11283.625
1925.26322	11253.725
1928.36908	11228.725
1931.47292	11223.025
1934.57473	11179.825
1937.67453	11185.125
1940.77232	11135.925
1943.86808	11111.325
1946.96184	11074.325
1950.05358	11022.925
1953.14331	10968.625
1956.23103	10961.825
1959.31675	10923.925
1962.40046	10898.225
1965.48217	10874.725
1968.56188	10836.325
1971.63959	10789.025
1974.7153	10779.925
1977.78901	10723.325
1980.86073	10678.225
1983.93046	10673.525
1986.99819	10615.925
1990.06394	10601.725
1993.1277	10574.925
1996.18947	10511.925
1999.24925	10481.325
2002.30706	10452.125
2005.36288	10414.425
2008.41672	10387.025
2011.46859	10345.725
2014.51848	10325.525
2017.56639	10292.325
2020.61233	10256.425
2023.6563	10249.225
2026.6983	10196.725
2029.73833	10171.025
2032.7764	10141.225
2035.8125	10126.525
2038.84664	10115.225
2041.87881	10094.725
2044.90903	10047.325
2047.93729	10046.025
2050.96359	10008.925
2053.98794	9997.225
2057.01034	10012.025
2060.03078	10015.425
2063.04927	9961.825
2066.06582	9950.825
2069.08042	9951.325
2072.09307	9932.525
2075.10378	9928.325
2078.11255	9917.025
2081.11938	9909.625
2084.12426	9890.225
2087.12722	9899.125
2090.12824	9886.825
2093.12732	9881.225
2096.12447	9899.325
2099.11969	9881.025
2102.11299	9866.725
2105.10435	9861.125
2108.09379	9879.825
2111.08131	9880.525
2114.0669	9899.325
2117.05057	9886.125
2120.03233	9880.825
2123.01216	9880.225
2125.99008	9912.925
2128.96609	9891.725
2131.94018	9922.525
2134.91236	9911.825
2137.88263	9907.025
2140.851	9877.325
2143.81746	9917.025
2146.78201	9908.125
2149.74466	9903.625
2152.7054	9907.825
2155.66425	9882.725
2158.6212	9872.025
2161.57625	9861.125
2164.52941	9861.325
2167.48067	9852.025
2170.43004	9833.125
2173.37752	9846.725
2176.32311	9838.225
2179.26681	9830.625
2182.20863	9840.325
2185.14856	9837.325
2188.08661	9808.925
2191.02278	9819.825
2193.95707	9816.225
2196.88948	9815.125
2199.82001	9802.725
2202.74867	9794.425
2205.67545	9790.225
2208.60037	9774.725
2211.52341	9770.325
2214.44458	9737.225
2217.36388	9694.425
2220.28132	9691.325
2223.1969	9670.325
2226.11061	9647.425
2229.02246	9663.025
2231.93245	9669.125
2234.84058	9636.925
2237.74686	9616.225
2240.65128	9575.325
2243.55385	9570.325
2246.45456	9582.925
2249.35343	9539.525
2252.25044	9533.225
2255.14561	9520.425
2258.03893	9516.625
2260.93041	9532.025
2263.82004	9496.325
2266.70783	9448.525
2269.59378	9382.225
2272.4779	9372.225
2275.36017	9346.225
2278.24061	9314.925
2281.11922	9282.025
2283.996	9284.625
2286.87094	9258.725
2289.74405	9226.225
2292.61534	9217.125
2295.4848	9201.725
2298.35243	9208.125
2301.21824	9208.925
2304.08223	9206.025
2306.94439	9198.225
2309.80474	9179.325
2312.66327	9174.325
2315.51999	9171.225
2318.37489	9146.325
2321.22797	9138.725
2324.07925	9128.925
2326.92871	9115.125
2329.77637	9108.925
2332.62222	9094.625
2335.46626	9091.725
2338.3085	9066.325
2341.14893	9075.325
2343.98756	9067.125
2346.8244	9040.925
2349.65943	9036.625
2352.49267	9028.325
2355.32411	9062.525
2358.15376	9054.925
2360.98161	9051.725
2363.80768	9062.725
2366.63195	9032.125
2369.45444	9008.125
2372.27514	9030.325
2375.09405	8997.025
2377.91118	8978.525
2380.72652	8942.225
2383.54009	8937.025
2386.35187	8923.825
2389.16188	8863.225
2391.97011	8856.725
2394.77657	8818.125
2397.58125	8810.125
2400.38416	8743.225
2403.18529	8770.425
2405.98466	8736.125
2408.78226	8731.425
2411.57809	8719.925
2414.37216	8692.625
2417.16446	8710.425
2419.955	8651.725
2422.74378	8667.825
2425.5308	8647.825
2428.31606	8662.425
2431.09956	8647.325
2433.88131	8629.325
2436.6613	8619.125
2439.43954	8645.325
2442.21603	8583.925
2444.99077	8611.125
2447.76377	8609.025
2450.53501	8597.425
2453.30451	8587.825
2456.07226	8608.625
2458.83827	8564.625
2461.60254	8584.825
2464.36507	8561.025
2467.12586	8558.225
2469.88492	8556.325
2472.64224	8546.425
2475.39782	8544.925
2478.15167	8552.625
2480.90379	8578.625
2483.65417	8573.025
2486.40283	8556.125
2489.14976	8585.225
2491.89497	8588.425
2494.63845	8584.325
2497.3802	8571.125
2500.12024	8593.125
2502.85855	8540.525
2505.59514	8544.925
2508.33002	8506.025
2511.06318	8485.725
2513.79462	8454.425
2516.52435	8436.725
2519.25237	8433.025
2521.97867	8413.325
2524.70327	8377.025
2527.42616	8364.325
2530.14734	8375.725
2532.86681	8366.625
2535.58458	8365.825
2538.30065	8348.725
2541.01501	8333.525
2543.72768	8338.525
2546.43864	8312.925
2549.14791	8335.525
2551.85548	8309.325
2554.56136	8283.925
2557.26554	8277.925
2559.96803	8274.925
2562.66883	8234.725
2565.36794	8251.425
2568.06536	8237.025
2570.7611	8182.625
2573.45514	8201.225
2576.14751	8211.625
2578.83819	8185.525
2581.52719	8155.825
2584.21451	8156.425
2586.90015	8154.025
2589.58411	8127.825
2592.2664	8112.625
2594.94701	8103.525
2597.62594	8102.525
2600.30321	8086.925
2602.9788	8071.725
2605.65273	8063.925
2608.32498	8063.525
2610.99557	8060.025
2613.66449	8065.725
2616.33175	8057.725
2618.99734	8070.425
2621.66128	8047.625
2624.32355	8022.825
2626.98416	8019.625
2629.64311	8027.225
2632.30041	8005.225
2634.95605	7992.525
2637.61004	7994.125
2640.26238	7989.425
2642.91306	7964.225
2645.56209	7993.725
2648.20948	7965.725
2650.85521	7954.925
2653.4993	7941.325
2656.14175	7930.325
2658.78255	7939.125
2661.42171	7950.225
2664.05923	7954.525
2666.6951	7947.625
2669.32934	7962.425
2671.96194	7952.425
2674.59291	7956.225
2677.22224	7940.025
2679.84993	7944.925
2682.476	7961.325
2685.10043	7949.625
2687.72324	7944.425
2690.34441	7924.425
2692.96396	7898.625
2695.58188	7917.925
2698.19818	7897.925
2700.81285	7930.525
2703.4259	7887.825
2706.03733	7894.925
2708.64714	7920.025
2711.25533	7925.225
2713.86191	7909.225
2716.46687	7912.025
2719.07021	7911.525
2721.67194	7936.825
2724.27206	7925.025
2726.87057	7936.125
2729.46747	7923.025
2732.06276	7909.525
2734.65644	7912.925
2737.24852	7912.525
2739.83899	7896.525
2742.42786	7897.525
2745.01513	7874.125
2747.60079	7883.825
2750.18486	7872.925
2752.76733	7863.025
2755.3482	7832.325
2757.92747	7841.025
2760.50515	7821.625
2763.08123	7816.425
2765.65573	7809.525
2768.22863	7804.125
2770.79994	7792.425
2773.36967	7764.925
2775.9378	7777.725
2778.50435	7798.325
2781.06932	7785.725
2783.6327	7765.825
2786.1945	7766.225
2788.75471	7772.425
2791.31335	7754.625
2793.87041	7743.125
2796.42589	7717.225
2798.97979	7717.725
2801.53212	7686.525
2804.08288	7695.125
2806.63206	7667.025
2809.17967	7674.625
2811.72571	7636.725
2814.27018	7651.425
2816.81308	7654.625
2819.35442	7637.825
2821.89419	7639.625
2824.43239	7649.925
2826.96904	7624.825
2829.50412	7633.425
2832.03763	7631.725
2834.56959	7620.825
2837.1	7591.825
2839.62884	7591.525
2842.15613	7607.225
2844.68186	7635.025
2847.20604	7635.925
2849.72867	7644.225
2852.24974	7648.925
2854.76927	7619.125
2857.28724	7619.925
2859.80367	7631.625
2862.31855	7601.125
2864.83189	7617.825
2867.34368	7598.425
2869.85393	7601.625
2872.36264	7587.325
2874.8698	7605.125
2877.37543	7580.925
2879.87952	7582.125
2882.38207	7600.425
2884.88308	7576.225
2887.38256	7601.325
2889.88051	7594.625
2892.37692	7608.925
2894.8718	7601.425
2897.36515	7597.725
2899.85698	7598.925
2902.34727	7618.025
2904.83604	7635.225
2907.32328	7658.525
2909.809	7642.325
2912.29319	7674.825
2914.77587	7677.125
2917.25702	7681.725
2919.73665	7677.825
2922.21476	7672.325
2924.69136	7674.825
2927.16644	7670.025
2929.64	7653.425
2932.11205	7649.125
2934.58258	7593.625
2937.05161	7624.825
2939.51912	7611.725
2941.98513	7594.125
2944.44962	7569.425
2946.91261	7537.625
2949.37409	7564.325
2951.83407	7535.625
2954.29254	7532.825
2956.74951	7534.925
2959.20498	7510.825
2961.65895	7496.125
2964.11142	7472.625
2966.56239	7444.425
2969.01186	7443.525
2971.45984	7414.925
2973.90632	7378.525
2976.35131	7352.725
2978.7948	7362.725
2981.23681	7345.025
2983.67732	7300.525
2986.11635	7291.625
2988.55388	7277.325
2990.98993	7263.425
2993.4245	7232.325
2995.85758	7235.025
2998.28917	7221.725
3000.71928	7183.125
3003.14791	7212.025
3005.57506	7174.325
3008.00073	7137.525
3010.42493	7132.325
3012.84764	7115.625
3015.26888	7124.125
3017.68865	7106.725
3020.10694	7096.825
3022.52376	7100.625
3024.9391	7071.525
3027.35298	7051.025
3029.76539	7049.825
3032.17632	7011.525
3034.5858	6996.125
3036.9938	6993.125
3039.40034	6999.225
3041.80542	6986.025
3044.20903	6974.925
3046.61118	6973.925
3049.01187	6979.125
3051.4111	6951.825
3053.80888	6944.325
3056.20519	6938.625
3058.60005	6910.925
3060.99345	6886.125
3063.3854	6878.425
3065.7759	6865.725
3068.16494	6845.225
3070.55254	6813.525
3072.93868	6807.525
3075.32338	6769.425
3077.70662	6757.025
3080.08842	6760.125
3082.46878	6756.325
3084.84769	6735.125
3087.22515	6745.625
3089.60118	6720.325
3091.97576	6741.125
3094.3489	6738.425
3096.72061	6732.625
3099.09087	6726.525
3101.4597	6701.725
3103.82709	6709.525
3106.19305	6710.725
3108.55757	6723.725
3110.92066	6677.325
3113.28232	6675.925
3115.64255	6654.625
3118.00134	6658.225
3120.35871	6633.125
3122.71466	6622.725
3125.06917	6604.225
3127.42226	6586.425
3129.77393	6610.725
3132.12417	6612.625
3134.47299	6608.625
3136.82039	6609.025
3139.16636	6607.725
3141.51092	6624.225
3143.85406	6610.325
3146.19579	6581.525
3148.53609	6604.925
3150.87499	6605.925
3153.21246	6621.825
3155.54853	6610.225
3157.88318	6619.925
3160.21642	6639.625
3162.54826	6633.525
3164.87868	6634.125
3167.2077	6626.925
3169.5353	6628.425
3171.86151	6626.825
3174.18631	6630.525
3176.5097	6620.425
