Data from AgNPs_FTO_APTES_UA_50uM_CRN_50uM_R6G_10uM_NaF_0.1M_Addition_RamanShift__26__15-03-04-996.txt Node

Date: Mon Feb 21 15:03:04 GMT 2022
User: TCL
Spectrometer: QEP01345
Trigger mode: 4
Integration Time (sec): 7.000000E0
Scans to average: 10
Electric dark correction enabled: true
Nonlinearity correction enabled: false
Boxcar width: 0
XAxis mode: Raman Shifts
Number of Pixels in Spectrum: 1044
>>>>>Begin Spectral Data<<<<<
46.04893	-0.125
50.45542	-1.325
54.85868	-0.125
59.25871	-0.225
63.6555	63.475
68.04907	65.475
72.43941	67.775
76.82654	73.175
81.21044	74.175
85.59113	80.475
89.96862	80.375
94.34289	85.875
98.71396	83.975
103.08183	91.375
107.4465	91.775
111.80798	94.275
116.16626	93.675
120.52136	94.375
124.87327	101.375
129.222	101.375
133.56755	106.775
137.90993	113.475
142.24913	120.475
146.58517	135.175
150.91804	150.675
155.24774	182.275
159.57429	217.675
163.89768	277.875
168.21792	366.175
172.53501	491.575
176.84895	690.575
181.15975	954.475
185.46741	1344.475
189.77193	1858.775
194.07331	2504.275
198.37157	3211.675
202.6667	3982.775
206.9587	4745.575
211.24758	5536.875
215.53334	6334.175
219.81599	7266.175
224.09553	8284.675
228.37195	9434.675
232.64527	10690.275
236.91549	11937.175
241.18261	13058.775
245.44663	13996.875
249.70755	14756.575
253.96539	15462.675
258.22014	16014.075
262.4718	16500.975
266.72039	16744.175
270.96589	16832.575
275.20832	16664.975
279.44768	16335.375
283.68397	15952.175
287.91719	15743.675
292.14735	15780.475
296.37445	16156.175
300.59849	16897.275
304.81948	17712.675
309.03742	18319.875
313.25231	18270.775
317.46415	17279.175
321.67296	15909.175
325.87872	14755.475
330.08145	14257.775
334.28114	14239.875
338.47781	14568.875
342.67145	15023.475
346.86207	15714.875
351.04966	16749.575
355.23424	17911.375
359.4158	18801.575
363.59435	19213.875
367.76989	19316.875
371.94243	19297.275
376.11196	19200.675
380.27849	19075.275
384.44203	18822.975
388.60257	18546.975
392.76012	18335.975
396.91468	18448.775
401.06626	18883.175
405.21485	19218.775
409.36047	18806.875
413.50311	17708.375
417.64277	16618.775
421.77947	15976.575
425.9132	15698.875
430.04396	15623.375
434.17176	15702.075
438.2966	15969.375
442.41849	16373.375
446.53742	16923.875
450.6534	17389.075
454.76644	17743.775
458.87653	17846.175
462.98368	17655.175
467.08789	17339.075
471.18916	16925.475
475.2875	16499.375
479.38291	16140.175
483.4754	15854.175
487.56496	15616.575
491.6516	15462.575
495.73531	15369.875
499.81612	15406.875
503.89401	15623.875
507.96899	15909.175
512.04106	16206.375
516.11023	16537.775
520.1765	16776.675
524.23987	16717.175
528.30034	16472.875
532.35792	16182.675
536.41261	15869.875
540.46441	15498.875
544.51333	15247.975
548.55936	15337.875
552.60252	15682.975
556.64279	16062.675
560.6802	16264.775
564.71473	16554.675
568.7464	17261.175
572.7752	17596.875
576.80114	16974.575
580.82422	16289.975
584.84444	16060.675
588.86181	16085.175
592.87633	16313.275
596.888	16611.575
600.89682	17240.475
604.9028	19474.475
608.90594	25608.175
612.90624	33476.875
616.90371	31759.575
620.89834	21704.475
624.89015	17156.075
628.87913	16380.375
632.86528	16502.075
636.84862	16791.175
640.82913	16437.675
644.80683	15538.075
648.78172	14922.875
652.75379	14912.175
656.72306	15584.275
660.68952	16400.675
664.65319	16196.175
668.61405	15341.575
672.57211	14969.575
676.52738	14971.975
680.47986	14984.275
684.42955	14796.475
688.37646	14707.375
692.32058	14665.475
696.26192	14807.975
700.20048	14988.675
704.13626	15111.475
708.06928	15015.175
711.99952	14854.175
715.927	14840.375
719.85171	14932.675
723.77365	15018.975
727.69284	14920.975
731.60928	14802.975
735.52295	14825.375
739.43388	14888.375
743.34206	14951.675
747.24749	15004.175
751.15017	15062.575
755.05012	15358.975
758.94733	16122.575
762.8418	18086.475
766.73354	21488.275
770.62254	25014.875
774.50882	26893.875
778.39237	25697.675
782.27321	21913.475
786.15132	18278.675
790.02671	16272.775
793.89938	15323.875
797.76935	14977.175
801.6366	14811.075
805.50115	14741.375
809.36299	14685.175
813.22213	14581.075
817.07857	14572.275
820.93231	14540.075
824.78336	14570.475
828.63172	14609.675
832.47738	14668.175
836.32036	14643.875
840.16066	14604.075
843.99827	14575.775
847.8332	14571.375
851.66546	14490.775
855.49504	14482.675
859.32195	14490.075
863.1462	14420.275
866.96777	14362.875
870.78668	14363.975
874.60293	14384.975
878.41652	14445.375
882.22745	14564.275
886.03573	14664.975
889.84136	14636.475
893.64433	14504.875
897.44466	14441.475
901.24235	14470.375
905.0374	14370.775
908.8298	14255.675
912.61957	14193.375
916.40671	14228.275
920.19121	14340.875
923.97308	14555.075
927.75233	14822.375
931.52895	15056.675
935.30295	14946.475
939.07433	14508.675
942.84309	14075.875
946.60924	13822.875
950.37278	13694.275
954.13371	13605.075
957.89203	13531.775
961.64774	13484.275
965.40086	13448.975
969.15137	13357.775
972.89929	13315.475
976.64461	13316.175
980.38733	13328.275
984.12747	13370.575
987.86502	13481.175
991.59999	13673.675
995.33237	13961.875
999.06217	14410.775
1002.78939	14938.675
1006.51404	15319.675
1010.23611	15608.575
1013.95561	15792.175
1017.67255	15816.875
1021.38692	15591.775
1025.09872	15412.275
1028.80796	15499.075
1032.51465	15893.875
1036.21877	16307.775
1039.92035	16415.975
1043.61937	16243.375
1047.31584	15896.775
1051.00976	15465.075
1054.70114	15152.575
1058.38998	15026.175
1062.07627	15034.575
1065.76003	15049.475
1069.44126	15083.075
1073.11995	15200.475
1076.79611	15392.475
1080.46974	15734.775
1084.14085	16264.475
1087.80943	16779.375
1091.47549	16954.575
1095.13903	16589.775
1098.80005	15982.275
1102.45857	15568.675
1106.11456	15478.775
1109.76805	15716.375
1113.41903	16211.075
1117.06751	16962.275
1120.71348	17872.675
1124.35696	18836.975
1127.99793	19491.575
1131.63641	19181.475
1135.2724	18091.775
1138.90589	17118.175
1142.5369	16488.075
1146.16542	16046.875
1149.79145	15795.675
1153.415	15709.275
1157.03607	15881.175
1160.65467	16226.575
1164.27079	16846.975
1167.88443	17855.875
1171.49561	19378.975
1175.10432	21880.475
1178.71056	25246.875
1182.31434	28185.075
1185.91565	29087.675
1189.51451	28084.775
1193.11091	25934.275
1196.70485	23571.075
1200.29634	21977.075
1203.88538	20864.975
1207.47197	19570.575
1211.05612	18412.775
1214.63782	17778.875
1218.21708	17563.475
1221.79391	17612.275
1225.36829	17685.775
1228.94024	17622.975
1232.50976	17419.475
1236.07685	17308.175
1239.6415	17263.875
1243.20374	17395.275
1246.76355	17563.275
1250.32093	17867.175
1253.8759	18342.675
1257.42845	18983.575
1260.97859	19636.275
1264.52631	20325.175
1268.07163	21014.475
1271.61453	21689.875
1275.15503	22332.775
1278.69312	22689.275
1282.22882	23033.375
1285.76211	23538.575
1289.29301	24289.875
1292.82151	25077.475
1296.34761	26125.275
1299.87133	27788.675
1303.39266	30656.375
1306.9116	34925.175
1310.42815	39185.075
1313.94233	40772.475
1317.45412	38744.275
1320.96354	35082.775
1324.47058	31591.675
1327.97525	28822.975
1331.47754	27271.775
1334.97747	26735.875
1338.47502	27084.375
1341.97022	28184.375
1345.46305	29728.875
1348.95352	31702.275
1352.44163	34306.975
1355.92738	38381.675
1359.41078	44755.775
1362.89183	50069.775
1366.37053	47356.075
1369.84688	38747.475
1373.32088	31252.875
1376.79254	26740.075
1380.26186	24375.375
1383.72883	23090.575
1387.19347	22133.575
1390.65578	21244.375
1394.11575	20642.475
1397.57339	20490.975
1401.0287	20641.475
1404.48168	20937.175
1407.93234	21230.475
1411.38068	21545.275
1414.82669	21679.675
1418.27039	21466.875
1421.71177	21082.675
1425.15083	20571.275
1428.58758	20330.075
1432.02203	20454.975
1435.45416	20700.375
1438.88399	20793.175
1442.31151	20840.875
1445.73673	20967.775
1449.15965	21158.675
1452.58027	21201.375
1455.9986	21014.675
1459.41463	20982.875
1462.82837	21272.075
1466.23982	21809.375
1469.64898	22368.475
1473.05586	22710.175
1476.46045	22933.775
1479.86276	23229.275
1483.26279	23656.775
1486.66054	24260.975
1490.05602	25140.075
1493.44922	26454.775
1496.84016	28432.675
1500.22882	31668.975
1503.61521	36324.575
1506.99934	41825.275
1510.38121	46153.675
1513.76081	46601.775
1517.13816	42516.075
1520.51324	36198.675
1523.88607	30658.075
1527.25665	27095.875
1530.62498	25188.875
1533.99105	23975.075
1537.35488	23285.675
1540.71647	22963.675
1544.07581	22844.075
1547.4329	22883.675
1550.78776	22986.275
1554.14038	23167.975
1557.49077	23411.475
1560.83892	23869.975
1564.18484	24588.575
1567.52853	25338.475
1570.86999	25954.275
1574.20922	26257.975
1577.54624	25944.675
1580.88103	24504.575
1584.2136	22757.675
1587.54395	21994.475
1590.87208	22432.175
1594.19801	23999.575
1597.52172	25955.775
1600.84321	26803.975
1604.16251	25894.775
1607.47959	24062.375
1610.79447	22037.775
1614.10715	20160.575
1617.41763	18730.675
1620.7259	17790.275
1624.03199	17417.775
1627.33587	17563.075
1630.63757	18145.275
1633.93707	19207.575
1637.23439	20866.075
1640.52951	23234.975
1643.82246	26508.375
1647.11321	30292.575
1650.40179	32555.275
1653.68819	31003.375
1656.97241	26296.475
1660.25446	21525.275
1663.53433	18323.475
1666.81203	16475.075
1670.08756	15435.075
1673.36092	14826.975
1676.63211	14404.575
1679.90115	14145.575
1683.16801	13915.575
1686.43272	13733.675
1689.69527	13616.875
1692.95567	13430.075
1696.2139	13281.475
1699.46999	13172.275
1702.72392	13118.775
1705.97571	13172.575
1709.22535	13232.275
1712.47284	13343.975
1715.71819	13359.875
1718.96139	13327.275
1722.20246	13296.775
1725.44139	13217.275
1728.67818	13147.275
1731.91284	13057.475
1735.14537	12953.975
1738.37576	12919.775
1741.60403	12866.175
1744.83017	12824.375
1748.05418	12809.675
1751.27607	12732.875
1754.49584	12641.375
1757.71349	12564.075
1760.92903	12524.875
1764.14244	12470.375
1767.35375	12487.075
1770.56294	12445.175
1773.77002	12413.575
1776.97499	12424.975
1780.17785	12436.975
1783.37861	12464.475
1786.57727	12468.375
1789.77382	12452.975
1792.96828	12437.475
1796.16064	12446.275
1799.3509	12423.175
1802.53907	12395.375
1805.72514	12368.375
1808.90913	12339.375
1812.09102	12323.375
1815.27083	12301.475
1818.44856	12258.775
1821.6242	12243.975
1824.79776	12253.175
1827.96924	12225.875
1831.13864	12206.275
1834.30597	12203.375
1837.47122	12168.875
1840.6344	12172.375
1843.7955	12168.175
1846.95454	12155.575
1850.11151	12149.575
1853.26642	12145.775
1856.41926	12166.875
1859.57004	12144.275
1862.71876	12154.375
1865.86542	12156.175
1869.01003	12162.175
1872.15258	12161.675
1875.29308	12163.575
1878.43152	12158.475
1881.56792	12176.475
1884.70227	12159.175
1887.83457	12139.175
1890.96482	12150.575
1894.09304	12146.575
1897.21921	12144.775
1900.34335	12134.075
1903.46544	12153.275
1906.58551	12124.975
1909.70353	12125.775
1912.81953	12144.475
1915.93349	12154.575
1919.04543	12123.775
1922.15534	12105.675
1925.26322	12086.575
1928.36908	12026.575
1931.47292	12016.275
1934.57473	11954.975
1937.67453	11930.075
1940.77232	11914.975
1943.86808	11865.375
1946.96184	11801.275
1950.05358	11781.475
1953.14331	11732.175
1956.23103	11712.875
1959.31675	11665.975
1962.40046	11648.275
1965.48217	11643.075
1968.56188	11592.175
1971.63959	11605.075
1974.7153	11551.975
1977.78901	11531.375
1980.86073	11466.375
1983.93046	11419.775
1986.99819	11397.175
1990.06394	11359.475
1993.1277	11317.875
1996.18947	11292.275
1999.24925	11250.875
2002.30706	11183.975
2005.36288	11176.375
2008.41672	11155.875
2011.46859	11119.075
2014.51848	11085.075
2017.56639	11049.075
2020.61233	11040.175
2023.6563	11031.575
2026.6983	10975.675
2029.73833	10950.775
2032.7764	10939.575
2035.8125	10914.675
2038.84664	10921.875
2041.87881	10922.975
2044.90903	10902.975
2047.93729	10876.775
2050.96359	10879.275
2053.98794	10870.875
2057.01034	10871.675
2060.03078	10833.375
2063.04927	10809.675
2066.06582	10806.775
2069.08042	10773.775
2072.09307	10774.275
2075.10378	10760.475
2078.11255	10736.875
2081.11938	10765.875
2084.12426	10711.975
2087.12722	10750.375
2090.12824	10736.475
2093.12732	10744.975
2096.12447	10740.375
2099.11969	10743.775
2102.11299	10763.975
2105.10435	10759.275
2108.09379	10724.575
2111.08131	10760.675
2114.0669	10765.575
2117.05057	10744.975
2120.03233	10791.875
2123.01216	10826.875
2125.99008	10828.675
2128.96609	10851.875
2131.94018	10824.475
2134.91236	10815.575
2137.88263	10814.975
2140.851	10832.875
2143.81746	10838.075
2146.78201	10847.275
2149.74466	10841.675
2152.7054	10848.575
2155.66425	10807.175
2158.6212	10799.775
2161.57625	10825.975
2164.52941	10808.775
2167.48067	10807.775
2170.43004	10802.575
2173.37752	10806.475
2176.32311	10798.875
2179.26681	10808.975
2182.20863	10813.675
2185.14856	10834.875
2188.08661	10842.075
2191.02278	10826.975
2193.95707	10817.575
2196.88948	10800.175
2199.82001	10786.475
2202.74867	10809.475
2205.67545	10803.175
2208.60037	10804.075
2211.52341	10784.275
2214.44458	10788.275
2217.36388	10755.075
2220.28132	10777.875
2223.1969	10746.775
2226.11061	10723.175
2229.02246	10692.875
2231.93245	10676.175
2234.84058	10672.975
2237.74686	10640.175
2240.65128	10642.175
2243.55385	10609.575
2246.45456	10642.575
2249.35343	10606.675
2252.25044	10590.875
2255.14561	10608.375
2258.03893	10614.575
2260.93041	10581.575
2263.82004	10578.875
2266.70783	10558.675
2269.59378	10545.575
2272.4779	10536.875
2275.36017	10475.375
2278.24061	10461.675
2281.11922	10456.975
2283.996	10401.975
2286.87094	10412.775
2289.74405	10396.875
2292.61534	10355.775
2295.4848	10366.775
2298.35243	10377.575
2301.21824	10359.375
2304.08223	10390.575
2306.94439	10361.275
2309.80474	10361.575
2312.66327	10404.775
2315.51999	10402.175
2318.37489	10407.975
2321.22797	10395.975
2324.07925	10364.175
2326.92871	10366.275
2329.77637	10370.175
2332.62222	10349.775
2335.46626	10362.975
2338.3085	10352.775
2341.14893	10354.675
2343.98756	10376.075
2346.8244	10400.175
2349.65943	10425.675
2352.49267	10391.075
2355.32411	10422.875
2358.15376	10453.775
2360.98161	10411.575
2363.80768	10415.775
2366.63195	10424.375
2369.45444	10430.075
2372.27514	10405.175
2375.09405	10370.375
2377.91118	10351.775
2380.72652	10326.975
2383.54009	10301.675
2386.35187	10249.375
2389.16188	10202.475
2391.97011	10162.275
2394.77657	10165.175
2397.58125	10148.775
2400.38416	10128.075
2403.18529	10126.675
2405.98466	10079.175
2408.78226	10030.975
2411.57809	10021.575
2414.37216	10006.475
2417.16446	9989.575
2419.955	9973.975
2422.74378	9987.275
2425.5308	9980.175
2428.31606	9975.875
2431.09956	9990.775
2433.88131	9960.175
2436.6613	9981.575
2439.43954	9995.975
2442.21603	9966.775
2444.99077	9987.375
2447.76377	10027.575
2450.53501	10009.475
2453.30451	10027.475
2456.07226	10012.875
2458.83827	10004.975
2461.60254	9998.075
2464.36507	9979.975
2467.12586	10000.775
2469.88492	9998.975
2472.64224	10018.275
2475.39782	10011.475
2478.15167	10013.475
2480.90379	10056.875
2483.65417	10061.675
2486.40283	10089.475
2489.14976	10135.775
2491.89497	10117.075
2494.63845	10128.375
2497.3802	10091.775
2500.12024	10100.175
2502.85855	10083.275
2505.59514	10064.275
2508.33002	10023.175
2511.06318	9999.775
2513.79462	9944.075
2516.52435	9938.375
2519.25237	9898.475
2521.97867	9873.375
2524.70327	9895.275
2527.42616	9839.875
2530.14734	9857.575
2532.86681	9842.375
2535.58458	9873.275
2538.30065	9854.875
2541.01501	9857.675
2543.72768	9849.575
2546.43864	9856.875
2549.14791	9840.475
2551.85548	9835.875
2554.56136	9822.875
2557.26554	9840.175
2559.96803	9826.775
2562.66883	9803.075
2565.36794	9798.675
2568.06536	9793.875
2570.7611	9776.075
2573.45514	9776.275
2576.14751	9774.975
2578.83819	9738.575
2581.52719	9711.775
2584.21451	9737.975
2586.90015	9732.975
2589.58411	9709.575
2592.2664	9718.875
2594.94701	9673.975
2597.62594	9713.375
2600.30321	9692.075
2602.9788	9731.175
2605.65273	9714.975
2608.32498	9726.775
2610.99557	9709.775
2613.66449	9738.775
2616.33175	9754.375
2618.99734	9740.575
2621.66128	9727.675
2624.32355	9735.075
2626.98416	9730.775
2629.64311	9722.675
2632.30041	9709.175
2634.95605	9681.775
2637.61004	9659.875
2640.26238	9656.675
2642.91306	9630.575
2645.56209	9611.575
2648.20948	9596.275
2650.85521	9588.875
2653.4993	9587.675
2656.14175	9579.675
2658.78255	9620.075
2661.42171	9613.275
2664.05923	9634.975
2666.6951	9656.375
2669.32934	9685.775
2671.96194	9679.775
2674.59291	9685.975
2677.22224	9673.075
2679.84993	9686.575
2682.476	9652.375
2685.10043	9674.475
2687.72324	9662.075
2690.34441	9646.275
2692.96396	9645.575
2695.58188	9649.275
2698.19818	9628.875
2700.81285	9608.075
2703.4259	9591.375
2706.03733	9521.675
2708.64714	9562.275
2711.25533	9595.975
2713.86191	9619.975
2716.46687	9631.675
2719.07021	9659.375
2721.67194	9655.375
2724.27206	9635.275
2726.87057	9663.875
2729.46747	9652.275
2732.06276	9672.475
2734.65644	9652.575
2737.24852	9642.375
2739.83899	9625.675
2742.42786	9627.175
2745.01513	9588.275
2747.60079	9609.175
2750.18486	9577.775
2752.76733	9582.575
2755.3482	9589.975
2757.92747	9591.275
2760.50515	9541.275
2763.08123	9595.475
2765.65573	9552.075
2768.22863	9557.275
2770.79994	9516.775
2773.36967	9532.775
2775.9378	9509.875
2778.50435	9532.975
2781.06932	9534.775
2783.6327	9532.175
2786.1945	9548.775
2788.75471	9553.175
2791.31335	9534.475
2793.87041	9512.875
2796.42589	9489.275
2798.97979	9494.075
2801.53212	9490.875
2804.08288	9480.075
2806.63206	9477.875
2809.17967	9483.875
2811.72571	9441.775
2814.27018	9456.475
2816.81308	9451.575
2819.35442	9472.675
2821.89419	9470.675
2824.43239	9471.375
2826.96904	9493.875
2829.50412	9464.875
2832.03763	9473.175
2834.56959	9462.975
2837.1	9463.775
2839.62884	9461.175
2842.15613	9419.875
2844.68186	9461.175
2847.20604	9469.575
2849.72867	9482.575
2852.24974	9492.775
2854.76927	9475.775
2857.28724	9455.175
2859.80367	9477.375
2862.31855	9453.575
2864.83189	9454.175
2867.34368	9469.575
2869.85393	9506.575
2872.36264	9486.075
2874.8698	9499.075
2877.37543	9485.675
2879.87952	9476.875
2882.38207	9455.375
2884.88308	9467.275
2887.38256	9459.675
2889.88051	9464.275
2892.37692	9445.775
2894.8718	9448.675
2897.36515	9466.975
2899.85698	9483.175
2902.34727	9504.575
2904.83604	9499.775
2907.32328	9487.375
2909.809	9484.575
2912.29319	9537.375
2914.77587	9531.275
2917.25702	9520.875
2919.73665	9489.975
2922.21476	9504.375
2924.69136	9462.475
2927.16644	9463.475
2929.64	9453.175
2932.11205	9424.875
2934.58258	9403.775
2937.05161	9397.675
2939.51912	9402.275
2941.98513	9379.875
2944.44962	9360.975
2946.91261	9343.375
2949.37409	9338.975
2951.83407	9349.175
2954.29254	9346.675
2956.74951	9307.975
2959.20498	9300.575
2961.65895	9284.375
2964.11142	9273.675
2966.56239	9245.275
2969.01186	9237.075
2971.45984	9226.275
2973.90632	9208.575
2976.35131	9191.775
2978.7948	9179.575
2981.23681	9167.975
2983.67732	9144.875
2986.11635	9109.275
2988.55388	9086.675
2990.98993	9076.075
2993.4245	9067.575
2995.85758	9046.375
2998.28917	9043.975
3000.71928	9047.675
3003.14791	9015.075
3005.57506	9019.875
3008.00073	8999.975
3010.42493	8990.675
3012.84764	8984.075
3015.26888	8957.775
3017.68865	8950.775
3020.10694	8942.075
3022.52376	8916.875
3024.9391	8916.175
3027.35298	8871.075
3029.76539	8869.775
3032.17632	8854.775
3034.5858	8850.475
3036.9938	8825.075
3039.40034	8825.275
3041.80542	8802.375
3044.20903	8793.875
3046.61118	8807.675
3049.01187	8760.975
3051.4111	8807.975
3053.80888	8767.675
3056.20519	8728.375
3058.60005	8712.975
3060.99345	8699.675
3063.3854	8677.475
3065.7759	8654.275
3068.16494	8627.975
3070.55254	8591.975
3072.93868	8596.075
3075.32338	8532.475
3077.70662	8528.375
3080.08842	8501.575
3082.46878	8483.775
3084.84769	8470.975
3087.22515	8482.075
3089.60118	8484.675
3091.97576	8465.775
3094.3489	8444.275
3096.72061	8459.575
3099.09087	8462.375
3101.4597	8473.975
3103.82709	8452.175
3106.19305	8436.375
3108.55757	8446.675
3110.92066	8427.075
3113.28232	8400.575
3115.64255	8398.075
3118.00134	8376.975
3120.35871	8386.975
3122.71466	8345.575
3125.06917	8350.775
3127.42226	8345.175
3129.77393	8347.775
3132.12417	8336.375
3134.47299	8357.875
3136.82039	8344.475
3139.16636	8327.875
3141.51092	8300.275
3143.85406	8316.975
3146.19579	8325.975
3148.53609	8336.575
3150.87499	8334.475
3153.21246	8338.275
3155.54853	8372.575
3157.88318	8358.675
