Data from AgNPs_FTO_APTES_UA_50uM_CRN_20uM_R6G_10uM_NaF_0.1M_Addition_RamanShift__24__14-22-14-944.txt Node

Date: Mon Feb 21 14:22:14 GMT 2022
User: TCL
Spectrometer: QEP01345
Trigger mode: 4
Integration Time (sec): 7.000000E0
Scans to average: 10
Electric dark correction enabled: true
Nonlinearity correction enabled: false
Boxcar width: 0
XAxis mode: Raman Shifts
Number of Pixels in Spectrum: 1044
>>>>>Begin Spectral Data<<<<<
46.04893	-0.4125
50.45542	-0.8125
54.85868	-0.4125
59.25871	-1.7125
63.6555	60.9875
68.04907	64.9875
72.43941	66.0875
76.82654	71.9875
81.21044	74.6875
85.59113	79.5875
89.96862	80.5875
94.34289	88.1875
98.71396	83.8875
103.08183	89.6875
107.4465	90.6875
111.80798	94.5875
116.16626	91.9875
120.52136	91.4875
124.87327	102.7875
129.222	102.6875
133.56755	101.9875
137.90993	113.6875
142.24913	120.2875
146.58517	128.8875
150.91804	152.3875
155.24774	177.2875
159.57429	215.9875
163.89768	274.0875
168.21792	365.7875
172.53501	492.5875
176.84895	683.7875
181.15975	955.4875
185.46741	1343.4875
189.77193	1850.9875
194.07331	2466.9875
198.37157	3199.7875
202.6667	3952.7875
206.9587	4712.7875
211.24758	5489.5875
215.53334	6302.6875
219.81599	7201.0875
224.09553	8262.1875
228.37195	9407.8875
232.64527	10636.5875
236.91549	11868.2875
241.18261	12977.9875
245.44663	13847.5875
249.70755	14585.2875
253.96539	15182.0875
258.22014	15743.4875
262.4718	16168.0875
266.72039	16381.5875
270.96589	16449.6875
275.20832	16238.6875
279.44768	15968.3875
283.68397	15668.4875
287.91719	15504.3875
292.14735	15556.6875
296.37445	15931.7875
300.59849	16598.1875
304.81948	17406.8875
309.03742	17974.4875
313.25231	17919.5875
317.46415	17004.7875
321.67296	15663.5875
325.87872	14547.7875
330.08145	14086.9875
334.28114	14086.0875
338.47781	14355.5875
342.67145	14772.9875
346.86207	15456.8875
351.04966	16418.6875
355.23424	17553.1875
359.4158	18365.1875
363.59435	18747.6875
367.76989	18845.1875
371.94243	18737.2875
376.11196	18582.7875
380.27849	18433.7875
384.44203	18236.7875
388.60257	17961.8875
392.76012	17807.3875
396.91468	17977.2875
401.06626	18366.8875
405.21485	18694.5875
409.36047	18309.7875
413.50311	17284.0875
417.64277	16315.8875
421.77947	15749.4875
425.9132	15530.8875
430.04396	15499.6875
434.17176	15589.9875
438.2966	15817.1875
442.41849	16257.0875
446.53742	16855.9875
450.6534	17399.7875
454.76644	17721.0875
458.87653	17794.6875
462.98368	17556.6875
467.08789	17217.8875
471.18916	16773.5875
475.2875	16355.9875
479.38291	16042.9875
483.4754	15752.3875
487.56496	15567.0875
491.6516	15351.5875
495.73531	15248.3875
499.81612	15254.9875
503.89401	15472.7875
507.96899	15668.0875
512.04106	15921.3875
516.11023	16164.3875
520.1765	16324.0875
524.23987	16327.7875
528.30034	16120.5875
532.35792	15875.8875
536.41261	15597.2875
540.46441	15200.0875
544.51333	14992.8875
548.55936	15059.1875
552.60252	15399.8875
556.64279	15829.7875
560.6802	16057.3875
564.71473	16368.1875
568.7464	17085.2875
572.7752	17444.9875
576.80114	16927.2875
580.82422	16358.4875
584.84444	16242.6875
588.86181	16353.4875
592.87633	16677.7875
596.888	17005.8875
600.89682	17496.9875
604.9028	19536.6875
608.90594	25314.7875
612.90624	32664.4875
616.90371	30699.6875
620.89834	21153.9875
624.89015	16881.9875
628.87913	16212.1875
632.86528	16395.9875
636.84862	16567.3875
640.82913	16166.9875
644.80683	15233.6875
648.78172	14573.4875
652.75379	14532.0875
656.72306	15159.8875
660.68952	16002.7875
664.65319	15811.5875
668.61405	15016.9875
672.57211	14704.2875
676.52738	14715.8875
680.47986	14669.1875
684.42955	14466.9875
688.37646	14305.9875
692.32058	14326.3875
696.26192	14448.2875
700.20048	14634.0875
704.13626	14765.7875
708.06928	14696.8875
711.99952	14530.1875
715.927	14476.6875
719.85171	14552.2875
723.77365	14600.9875
727.69284	14492.0875
731.60928	14364.4875
735.52295	14373.1875
739.43388	14458.2875
743.34206	14564.2875
747.24749	14625.4875
751.15017	14716.7875
755.05012	14998.2875
758.94733	15803.6875
762.8418	17813.4875
766.73354	21238.5875
770.62254	24613.8875
774.50882	26199.1875
778.39237	24960.1875
782.27321	21362.8875
786.15132	17872.8875
790.02671	15821.1875
793.89938	14919.4875
797.76935	14539.4875
801.6366	14374.1875
805.50115	14304.0875
809.36299	14273.5875
813.22213	14156.1875
817.07857	14127.8875
820.93231	14077.2875
824.78336	14086.7875
828.63172	14105.6875
832.47738	14142.1875
836.32036	14155.0875
840.16066	14149.9875
843.99827	14132.2875
847.8332	14065.2875
851.66546	14003.6875
855.49504	13965.0875
859.32195	13965.8875
863.1462	13920.2875
866.96777	13845.2875
870.78668	13856.0875
874.60293	13865.5875
878.41652	13902.9875
882.22745	14047.7875
886.03573	14138.5875
889.84136	14098.6875
893.64433	14011.3875
897.44466	13946.0875
901.24235	13905.2875
905.0374	13806.2875
908.8298	13700.2875
912.61957	13626.7875
916.40671	13684.6875
920.19121	13855.0875
923.97308	14077.8875
927.75233	14369.4875
931.52895	14565.0875
935.30295	14411.4875
939.07433	13911.2875
942.84309	13506.0875
946.60924	13274.5875
950.37278	13142.8875
954.13371	13094.3875
957.89203	13009.8875
961.64774	12949.3875
965.40086	12897.9875
969.15137	12811.8875
972.89929	12747.0875
976.64461	12763.7875
980.38733	12730.8875
984.12747	12816.6875
987.86502	12921.6875
991.59999	13112.6875
995.33237	13452.6875
999.06217	13979.0875
1002.78939	14664.5875
1006.51404	15086.5875
1010.23611	15367.7875
1013.95561	15574.2875
1017.67255	15609.1875
1021.38692	15348.7875
1025.09872	15115.4875
1028.80796	15240.1875
1032.51465	15726.7875
1036.21877	16182.5875
1039.92035	16289.2875
1043.61937	16064.4875
1047.31584	15617.3875
1051.00976	15142.0875
1054.70114	14834.3875
1058.38998	14688.0875
1062.07627	14692.8875
1065.76003	14706.7875
1069.44126	14768.0875
1073.11995	14916.2875
1076.79611	15169.1875
1080.46974	15518.4875
1084.14085	16013.3875
1087.80943	16470.4875
1091.47549	16610.0875
1095.13903	16259.2875
1098.80005	15663.2875
1102.45857	15236.2875
1106.11456	15060.0875
1109.76805	15255.1875
1113.41903	15712.2875
1117.06751	16414.5875
1120.71348	17335.6875
1124.35696	18318.7875
1127.99793	19010.8875
1131.63641	18699.5875
1135.2724	17722.0875
1138.90589	16860.4875
1142.5369	16266.8875
1146.16542	15818.3875
1149.79145	15574.6875
1153.415	15498.9875
1157.03607	15662.2875
1160.65467	16040.8875
1164.27079	16775.7875
1167.88443	17852.4875
1171.49561	19547.7875
1175.10432	22179.9875
1178.71056	25687.5875
1182.31434	28634.0875
1185.91565	29643.8875
1189.51451	28713.3875
1193.11091	26733.2875
1196.70485	24480.2875
1200.29634	22733.4875
1203.88538	21373.9875
1207.47197	19954.5875
1211.05612	18710.2875
1214.63782	18085.2875
1218.21708	17913.4875
1221.79391	18064.3875
1225.36829	18224.4875
1228.94024	18100.6875
1232.50976	17850.2875
1236.07685	17605.8875
1239.6415	17537.5875
1243.20374	17537.2875
1246.76355	17692.9875
1250.32093	17985.7875
1253.8759	18516.7875
1257.42845	19203.7875
1260.97859	19979.6875
1264.52631	20748.5875
1268.07163	21545.8875
1271.61453	22320.0875
1275.15503	23004.4875
1278.69312	23610.4875
1282.22882	24089.1875
1285.76211	24796.0875
1289.29301	25573.9875
1292.82151	26472.1875
1296.34761	27670.3875
1299.87133	29513.7875
1303.39266	32617.3875
1306.9116	37090.9875
1310.42815	41546.7875
1313.94233	43283.6875
1317.45412	41295.5875
1320.96354	37573.8875
1324.47058	34048.0875
1327.97525	31219.7875
1331.47754	29598.0875
1334.97747	29039.0875
1338.47502	29372.9875
1341.97022	30332.0875
1345.46305	31750.3875
1348.95352	33505.9875
1352.44163	35835.6875
1355.92738	39746.4875
1359.41078	45726.3875
1362.89183	50582.1875
1366.37053	47718.9875
1369.84688	39360.6875
1373.32088	32033.5875
1376.79254	27641.3875
1380.26186	25353.3875
1383.72883	24044.1875
1387.19347	23089.9875
1390.65578	22253.3875
1394.11575	21784.6875
1397.57339	21815.7875
1401.0287	22136.2875
1404.48168	22510.2875
1407.93234	22783.9875
1411.38068	22976.7875
1414.82669	22862.6875
1418.27039	22437.9875
1421.71177	21820.4875
1425.15083	21196.5875
1428.58758	20975.6875
1432.02203	21172.7875
1435.45416	21427.9875
1438.88399	21536.5875
1442.31151	21594.1875
1445.73673	21793.8875
1449.15965	22024.6875
1452.58027	22105.7875
1455.9986	21972.3875
1459.41463	22058.6875
1462.82837	22410.0875
1466.23982	23017.8875
1469.64898	23600.9875
1473.05586	23874.0875
1476.46045	23994.2875
1479.86276	24196.5875
1483.26279	24539.1875
1486.66054	25105.1875
1490.05602	26020.9875
1493.44922	27320.9875
1496.84016	29276.3875
1500.22882	32438.3875
1503.61521	37022.1875
1506.99934	42237.0875
1510.38121	46105.8875
1513.76081	46091.0875
1517.13816	41860.7875
1520.51324	35844.9875
1523.88607	30773.3875
1527.25665	27613.6875
1530.62498	25900.7875
1533.99105	24846.3875
1537.35488	24275.9875
1540.71647	23922.9875
1544.07581	23750.8875
1547.4329	23657.3875
1550.78776	23640.5875
1554.14038	23717.2875
1557.49077	23940.3875
1560.83892	24332.6875
1564.18484	24928.9875
1567.52853	25661.4875
1570.86999	26228.3875
1574.20922	26506.4875
1577.54624	26203.1875
1580.88103	24863.9875
1584.2136	23264.1875
1587.54395	22683.4875
1590.87208	23376.3875
1594.19801	25201.7875
1597.52172	27425.0875
1600.84321	28335.4875
1604.16251	27263.3875
1607.47959	25063.4875
1610.79447	22662.5875
1614.10715	20505.6875
1617.41763	18939.5875
1620.7259	17905.9875
1624.03199	17526.9875
1627.33587	17673.9875
1630.63757	18381.1875
1633.93707	19642.2875
1637.23439	21607.0875
1640.52951	24348.5875
1643.82246	27975.2875
1647.11321	31789.2875
1650.40179	33658.6875
1653.68819	31518.8875
1656.97241	26487.9875
1660.25446	21585.6875
1663.53433	18254.2875
1666.81203	16316.3875
1670.08756	15219.3875
1673.36092	14560.6875
1676.63211	14121.4875
1679.90115	13798.5875
1683.16801	13554.3875
1686.43272	13376.8875
1689.69527	13235.7875
1692.95567	13074.5875
1696.2139	12947.6875
1699.46999	12756.8875
1702.72392	12712.8875
1705.97571	12759.5875
1709.22535	12818.7875
1712.47284	12886.4875
1715.71819	12892.2875
1718.96139	12864.0875
1722.20246	12811.4875
1725.44139	12763.4875
1728.67818	12660.1875
1731.91284	12552.9875
1735.14537	12484.4875
1738.37576	12418.9875
1741.60403	12364.3875
1744.83017	12306.0875
1748.05418	12264.6875
1751.27607	12207.8875
1754.49584	12129.4875
1757.71349	12066.0875
1760.92903	12024.3875
1764.14244	11978.3875
1767.35375	11974.9875
1770.56294	11913.2875
1773.77002	11921.2875
1776.97499	11908.8875
1780.17785	11937.6875
1783.37861	11957.2875
1786.57727	11950.2875
1789.77382	11932.0875
1792.96828	11916.9875
1796.16064	11907.1875
1799.3509	11918.3875
1802.53907	11892.4875
1805.72514	11861.2875
1808.90913	11826.5875
1812.09102	11816.8875
1815.27083	11779.5875
1818.44856	11777.3875
1821.6242	11741.5875
1824.79776	11718.3875
1827.96924	11682.8875
1831.13864	11704.4875
1834.30597	11684.4875
1837.47122	11663.4875
1840.6344	11675.0875
1843.7955	11651.5875
1846.95454	11629.8875
1850.11151	11657.3875
1853.26642	11645.7875
1856.41926	11637.8875
1859.57004	11650.1875
1862.71876	11642.8875
1865.86542	11674.5875
1869.01003	11662.6875
1872.15258	11664.8875
1875.29308	11648.4875
1878.43152	11704.2875
1881.56792	11698.3875
1884.70227	11685.4875
1887.83457	11689.6875
1890.96482	11680.9875
1894.09304	11667.6875
1897.21921	11686.5875
1900.34335	11691.0875
1903.46544	11700.7875
1906.58551	11699.7875
1909.70353	11696.2875
1912.81953	11699.6875
1915.93349	11695.3875
1919.04543	11634.5875
1922.15534	11642.1875
1925.26322	11575.0875
1928.36908	11546.4875
1931.47292	11494.8875
1934.57473	11460.2875
1937.67453	11437.8875
1940.77232	11372.3875
1943.86808	11354.8875
1946.96184	11306.2875
1950.05358	11236.7875
1953.14331	11223.6875
1956.23103	11206.7875
1959.31675	11176.5875
1962.40046	11169.6875
1965.48217	11137.7875
1968.56188	11113.1875
1971.63959	11109.8875
1974.7153	11057.1875
1977.78901	11029.1875
1980.86073	10978.2875
1983.93046	10935.1875
1986.99819	10904.4875
1990.06394	10875.8875
1993.1277	10829.3875
1996.18947	10796.1875
1999.24925	10740.9875
2002.30706	10690.7875
2005.36288	10693.0875
2008.41672	10660.2875
2011.46859	10615.7875
2014.51848	10594.0875
2017.56639	10578.2875
2020.61233	10558.5875
2023.6563	10533.9875
2026.6983	10497.3875
2029.73833	10466.6875
2032.7764	10435.8875
2035.8125	10472.4875
2038.84664	10459.9875
2041.87881	10455.6875
2044.90903	10410.8875
2047.93729	10380.1875
2050.96359	10381.6875
2053.98794	10400.5875
2057.01034	10382.4875
2060.03078	10360.3875
2063.04927	10353.9875
2066.06582	10330.7875
2069.08042	10312.8875
2072.09307	10305.0875
2075.10378	10289.1875
2078.11255	10246.9875
2081.11938	10278.9875
2084.12426	10241.6875
2087.12722	10268.2875
2090.12824	10260.4875
2093.12732	10236.8875
2096.12447	10268.8875
2099.11969	10256.0875
2102.11299	10274.9875
2105.10435	10260.1875
2108.09379	10270.3875
2111.08131	10276.7875
2114.0669	10269.7875
2117.05057	10283.0875
2120.03233	10315.3875
2123.01216	10341.1875
2125.99008	10357.6875
2128.96609	10344.5875
2131.94018	10364.4875
2134.91236	10366.1875
2137.88263	10337.1875
2140.851	10358.5875
2143.81746	10343.1875
2146.78201	10346.9875
2149.74466	10352.9875
2152.7054	10348.8875
2155.66425	10324.8875
2158.6212	10329.7875
2161.57625	10317.9875
2164.52941	10312.0875
2167.48067	10320.3875
2170.43004	10292.5875
2173.37752	10321.6875
2176.32311	10346.9875
2179.26681	10321.0875
2182.20863	10311.8875
2185.14856	10352.0875
2188.08661	10330.1875
2191.02278	10342.0875
2193.95707	10342.0875
2196.88948	10320.7875
2199.82001	10328.4875
2202.74867	10329.7875
2205.67545	10340.1875
2208.60037	10306.3875
2211.52341	10328.7875
2214.44458	10315.8875
2217.36388	10298.5875
2220.28132	10292.6875
2223.1969	10270.7875
2226.11061	10277.1875
2229.02246	10234.3875
2231.93245	10213.8875
2234.84058	10195.1875
2237.74686	10171.3875
2240.65128	10184.6875
2243.55385	10173.3875
2246.45456	10169.2875
2249.35343	10153.6875
2252.25044	10134.8875
2255.14561	10125.5875
2258.03893	10160.7875
2260.93041	10106.1875
2263.82004	10115.0875
2266.70783	10108.8875
2269.59378	10085.5875
2272.4779	10052.5875
2275.36017	10002.2875
2278.24061	9995.8875
2281.11922	9964.3875
2283.996	9961.3875
2286.87094	9959.2875
2289.74405	9924.6875
2292.61534	9901.9875
2295.4848	9895.5875
2298.35243	9912.5875
2301.21824	9916.1875
2304.08223	9907.0875
2306.94439	9929.6875
2309.80474	9936.9875
2312.66327	9928.3875
2315.51999	9944.8875
2318.37489	9927.4875
2321.22797	9930.9875
2324.07925	9937.4875
2326.92871	9925.1875
2329.77637	9927.1875
2332.62222	9915.0875
2335.46626	9893.7875
2338.3085	9899.7875
2341.14893	9924.9875
2343.98756	9953.5875
2346.8244	9957.2875
2349.65943	9974.8875
2352.49267	10004.4875
2355.32411	10014.8875
2358.15376	9999.0875
2360.98161	9991.7875
2363.80768	9997.1875
2366.63195	9979.5875
2369.45444	9963.0875
2372.27514	9962.6875
2375.09405	9923.4875
2377.91118	9927.1875
2380.72652	9880.0875
2383.54009	9837.3875
2386.35187	9817.8875
2389.16188	9769.7875
2391.97011	9745.8875
2394.77657	9749.4875
2397.58125	9714.0875
2400.38416	9713.3875
2403.18529	9680.3875
2405.98466	9643.9875
2408.78226	9609.0875
2411.57809	9618.5875
2414.37216	9592.6875
2417.16446	9581.2875
2419.955	9548.1875
2422.74378	9556.9875
2425.5308	9553.6875
2428.31606	9582.4875
2431.09956	9560.2875
2433.88131	9552.2875
2436.6613	9554.9875
2439.43954	9584.2875
2442.21603	9580.8875
2444.99077	9596.2875
2447.76377	9594.7875
2450.53501	9600.5875
2453.30451	9594.6875
2456.07226	9580.7875
2458.83827	9578.0875
2461.60254	9589.7875
2464.36507	9595.4875
2467.12586	9595.3875
2469.88492	9574.7875
2472.64224	9599.9875
2475.39782	9595.8875
2478.15167	9619.9875
2480.90379	9650.3875
2483.65417	9650.5875
2486.40283	9688.2875
2489.14976	9709.9875
2491.89497	9714.6875
2494.63845	9733.5875
2497.3802	9696.0875
2500.12024	9710.0875
2502.85855	9706.7875
2505.59514	9689.7875
2508.33002	9644.3875
2511.06318	9604.1875
2513.79462	9570.9875
2516.52435	9554.3875
2519.25237	9544.5875
2521.97867	9489.8875
2524.70327	9506.3875
2527.42616	9499.1875
2530.14734	9487.8875
2532.86681	9482.3875
2535.58458	9514.9875
2538.30065	9493.6875
2541.01501	9514.1875
2543.72768	9497.0875
2546.43864	9494.2875
2549.14791	9475.8875
2551.85548	9475.3875
2554.56136	9467.1875
2557.26554	9460.4875
2559.96803	9450.0875
2562.66883	9466.2875
2565.36794	9453.4875
2568.06536	9441.1875
2570.7611	9445.5875
2573.45514	9447.0875
2576.14751	9441.0875
2578.83819	9433.1875
2581.52719	9416.2875
2584.21451	9421.7875
2586.90015	9428.5875
2589.58411	9384.2875
2592.2664	9383.1875
2594.94701	9388.9875
2597.62594	9378.5875
2600.30321	9424.8875
2602.9788	9426.9875
2605.65273	9393.2875
2608.32498	9421.4875
2610.99557	9399.9875
2613.66449	9430.7875
2616.33175	9427.7875
2618.99734	9427.8875
2621.66128	9412.5875
2624.32355	9441.2875
2626.98416	9444.5875
2629.64311	9421.1875
2632.30041	9414.4875
2634.95605	9406.7875
2637.61004	9392.9875
2640.26238	9382.5875
2642.91306	9366.4875
2645.56209	9336.3875
2648.20948	9311.6875
2650.85521	9308.6875
2653.4993	9327.2875
2656.14175	9294.1875
2658.78255	9325.6875
2661.42171	9348.5875
2664.05923	9355.7875
2666.6951	9397.2875
2669.32934	9411.0875
2671.96194	9416.3875
2674.59291	9425.3875
2677.22224	9406.4875
2679.84993	9401.6875
2682.476	9405.5875
2685.10043	9371.8875
2687.72324	9361.2875
2690.34441	9365.4875
2692.96396	9398.2875
2695.58188	9360.9875
2698.19818	9328.3875
2700.81285	9335.1875
2703.4259	9318.8875
2706.03733	9249.6875
2708.64714	9326.2875
2711.25533	9325.7875
2713.86191	9336.5875
2716.46687	9356.1875
2719.07021	9369.9875
2721.67194	9386.8875
2724.27206	9408.3875
2726.87057	9390.0875
2729.46747	9393.9875
2732.06276	9384.4875
2734.65644	9391.0875
2737.24852	9369.7875
2739.83899	9365.9875
2742.42786	9358.9875
2745.01513	9359.3875
2747.60079	9361.8875
2750.18486	9363.6875
2752.76733	9344.9875
2755.3482	9331.4875
2757.92747	9335.8875
2760.50515	9327.5875
2763.08123	9343.2875
2765.65573	9307.3875
2768.22863	9302.3875
2770.79994	9298.3875
2773.36967	9268.4875
2775.9378	9297.9875
2778.50435	9298.6875
2781.06932	9291.2875
2783.6327	9323.9875
2786.1945	9306.5875
2788.75471	9304.3875
2791.31335	9300.0875
2793.87041	9274.2875
2796.42589	9260.9875
2798.97979	9262.0875
2801.53212	9254.0875
2804.08288	9244.1875
2806.63206	9241.8875
2809.17967	9227.0875
2811.72571	9242.4875
2814.27018	9230.6875
2816.81308	9230.5875
2819.35442	9244.7875
2821.89419	9264.9875
2824.43239	9268.6875
2826.96904	9262.2875
2829.50412	9254.7875
2832.03763	9238.1875
2834.56959	9245.1875
2837.1	9253.4875
2839.62884	9229.3875
2842.15613	9217.7875
2844.68186	9250.8875
2847.20604	9219.5875
2849.72867	9257.9875
2852.24974	9249.7875
2854.76927	9253.2875
2857.28724	9228.1875
2859.80367	9254.7875
2862.31855	9251.6875
2864.83189	9256.2875
2867.34368	9270.2875
2869.85393	9270.4875
2872.36264	9282.4875
2874.8698	9275.3875
2877.37543	9276.8875
2879.87952	9261.0875
2882.38207	9262.6875
2884.88308	9259.4875
2887.38256	9261.4875
2889.88051	9269.8875
2892.37692	9269.7875
2894.8718	9271.5875
2897.36515	9277.8875
2899.85698	9309.6875
2902.34727	9306.8875
2904.83604	9295.0875
2907.32328	9331.5875
2909.809	9320.8875
2912.29319	9347.1875
2914.77587	9353.4875
2917.25702	9338.8875
2919.73665	9315.1875
2922.21476	9272.7875
2924.69136	9259.4875
2927.16644	9268.0875
2929.64	9253.7875
2932.11205	9210.1875
2934.58258	9192.4875
2937.05161	9193.1875
2939.51912	9213.6875
2941.98513	9204.3875
2944.44962	9188.0875
2946.91261	9169.8875
2949.37409	9173.8875
2951.83407	9179.4875
2954.29254	9141.0875
2956.74951	9126.3875
2959.20498	9111.0875
2961.65895	9091.9875
2964.11142	9088.4875
2966.56239	9055.3875
2969.01186	9049.5875
2971.45984	9051.1875
2973.90632	9011.7875
2976.35131	8998.0875
2978.7948	8976.4875
2981.23681	8944.6875
2983.67732	8932.8875
2986.11635	8921.4875
2988.55388	8894.1875
2990.98993	8875.0875
2993.4245	8864.1875
2995.85758	8898.3875
2998.28917	8860.1875
3000.71928	8866.3875
3003.14791	8820.7875
3005.57506	8825.4875
3008.00073	8800.5875
3010.42493	8777.4875
3012.84764	8787.6875
3015.26888	8766.1875
3017.68865	8765.4875
3020.10694	8734.9875
3022.52376	8730.3875
3024.9391	8709.9875
3027.35298	8692.0875
3029.76539	8692.9875
3032.17632	8664.0875
3034.5858	8630.8875
3036.9938	8652.8875
3039.40034	8615.9875
3041.80542	8608.7875
3044.20903	8599.8875
3046.61118	8603.5875
3049.01187	8614.3875
3051.4111	8592.7875
3053.80888	8551.7875
3056.20519	8549.4875
