Data from AgNPs_FTO_APTES_UA_50uM_CRN_1uM_R6G_10uM_NaF_0.1M_Addition_RamanShift__0__11-15-34-702.txt Node

Date: Mon Feb 21 11:15:34 GMT 2022
User: TCL
Spectrometer: QEP01345
Trigger mode: 4
Integration Time (sec): 7.000000E0
Scans to average: 10
Electric dark correction enabled: true
Nonlinearity correction enabled: false
Boxcar width: 0
XAxis mode: Raman Shifts
Number of Pixels in Spectrum: 1044
>>>>>Begin Spectral Data<<<<<
46.04893	0.575
50.45542	-0.025
54.85868	-0.625
59.25871	-3.525
63.6555	60.475
68.04907	66.075
72.43941	68.675
76.82654	73.475
81.21044	69.375
85.59113	77.875
89.96862	77.175
94.34289	84.375
98.71396	80.375
103.08183	87.475
107.4465	91.775
111.80798	88.675
116.16626	89.875
120.52136	91.975
124.87327	101.375
129.222	97.575
133.56755	106.775
137.90993	116.075
142.24913	122.675
146.58517	136.875
150.91804	153.075
155.24774	182.375
159.57429	230.075
163.89768	291.175
168.21792	387.975
172.53501	518.375
176.84895	733.275
181.15975	1025.175
185.46741	1436.275
189.77193	1990.375
194.07331	2651.575
198.37157	3411.675
202.6667	4233.275
206.9587	5033.075
211.24758	5826.075
215.53334	6619.075
219.81599	7461.775
224.09553	8374.775
228.37195	9409.775
232.64527	10561.375
236.91549	11748.175
241.18261	12935.775
245.44663	14055.875
249.70755	15033.675
253.96539	15901.375
258.22014	16628.175
262.4718	17205.975
266.72039	17596.375
270.96589	17770.975
275.20832	17796.975
279.44768	17618.875
283.68397	17349.675
287.91719	17125.775
292.14735	16984.475
296.37445	16914.875
300.59849	17003.475
304.81948	17074.975
309.03742	17218.475
313.25231	17187.575
317.46415	17046.775
321.67296	16751.775
325.87872	16557.775
330.08145	16475.175
334.28114	16488.775
338.47781	16600.975
342.67145	16791.575
346.86207	17078.575
351.04966	17429.475
355.23424	17801.475
359.4158	18091.175
363.59435	18362.175
367.76989	18542.675
371.94243	18653.175
376.11196	18710.775
380.27849	18807.075
384.44203	18854.875
388.60257	18962.975
392.76012	19130.575
396.91468	19354.075
401.06626	19609.275
405.21485	19787.475
409.36047	19743.275
413.50311	19525.175
417.64277	19372.775
421.77947	19363.975
425.9132	19378.575
430.04396	19463.775
434.17176	19555.775
438.2966	19741.875
442.41849	20115.275
446.53742	20722.275
450.6534	21344.975
454.76644	21758.775
458.87653	21762.075
462.98368	21563.375
467.08789	21295.975
471.18916	20895.975
475.2875	20545.975
479.38291	20187.475
483.4754	19966.575
487.56496	19831.875
491.6516	19681.975
495.73531	19567.975
499.81612	19506.075
503.89401	19636.175
507.96899	19686.075
512.04106	19630.575
516.11023	19534.175
520.1765	19515.375
524.23987	19559.975
528.30034	19500.375
532.35792	19398.775
536.41261	19213.075
540.46441	18939.175
544.51333	18819.075
548.55936	18938.675
552.60252	19246.275
556.64279	19676.675
560.6802	20018.175
564.71473	20204.975
568.7464	20355.975
572.7752	20775.475
576.80114	21144.375
580.82422	21558.975
584.84444	22266.575
588.86181	23447.375
592.87633	24720.675
596.888	25184.375
600.89682	24207.775
604.9028	23626.075
608.90594	24914.475
612.90624	26807.875
616.90371	25625.675
620.89834	21932.275
624.89015	20158.175
628.87913	19898.175
632.86528	19927.175
636.84862	19909.575
640.82913	19605.875
644.80683	19159.775
648.78172	18922.875
652.75379	18900.575
656.72306	19214.075
660.68952	19576.275
664.65319	19542.775
668.61405	19184.475
672.57211	19149.475
676.52738	19285.475
680.47986	19297.375
684.42955	19085.875
688.37646	18996.975
692.32058	19134.375
696.26192	19455.375
700.20048	19750.575
704.13626	19820.275
708.06928	19767.075
711.99952	19630.875
715.927	19689.275
719.85171	19837.775
723.77365	19816.375
727.69284	19551.475
731.60928	19308.375
735.52295	19219.075
739.43388	19269.975
743.34206	19333.775
747.24749	19399.175
751.15017	19529.475
755.05012	19784.175
758.94733	20150.775
762.8418	20935.375
766.73354	22186.275
770.62254	23407.175
774.50882	23833.275
778.39237	23183.275
782.27321	21887.175
786.15132	20788.975
790.02671	20023.675
793.89938	19627.575
797.76935	19449.075
801.6366	19363.175
805.50115	19335.575
809.36299	19264.375
813.22213	19166.975
817.07857	19055.675
820.93231	19017.175
824.78336	18956.175
828.63172	18933.875
832.47738	18973.375
836.32036	18986.575
840.16066	19048.075
843.99827	19070.175
847.8332	19053.775
851.66546	19067.675
855.49504	19052.775
859.32195	19083.875
863.1462	19025.975
866.96777	18963.275
870.78668	18928.675
874.60293	19026.075
878.41652	19052.275
882.22745	19121.275
886.03573	19188.475
889.84136	19193.375
893.64433	19081.775
897.44466	19037.675
901.24235	18961.375
905.0374	18902.675
908.8298	18831.575
912.61957	18836.675
916.40671	18904.875
920.19121	19051.475
923.97308	19255.775
927.75233	19428.275
931.52895	19397.875
935.30295	19181.575
939.07433	18927.375
942.84309	18692.975
946.60924	18593.075
950.37278	18593.075
954.13371	18589.275
957.89203	18510.775
961.64774	18461.475
965.40086	18443.075
969.15137	18501.275
972.89929	18486.075
976.64461	18500.975
980.38733	18540.875
984.12747	18610.075
987.86502	18764.775
991.59999	18904.175
995.33237	19137.075
999.06217	19463.575
1002.78939	19909.575
1006.51404	20294.775
1010.23611	20557.275
1013.95561	20755.975
1017.67255	20826.275
1021.38692	20612.875
1025.09872	20299.675
1028.80796	20140.375
1032.51465	20292.475
1036.21877	20471.975
1039.92035	20570.075
1043.61937	20555.175
1047.31584	20378.775
1051.00976	20158.875
1054.70114	20080.675
1058.38998	20042.875
1062.07627	20105.975
1065.76003	20219.375
1069.44126	20388.275
1073.11995	20702.375
1076.79611	21046.375
1080.46974	21273.875
1084.14085	21449.075
1087.80943	21689.875
1091.47549	21786.675
1095.13903	21783.675
1098.80005	21436.275
1102.45857	21059.775
1106.11456	20807.275
1109.76805	20680.775
1113.41903	20714.375
1117.06751	20815.475
1120.71348	21005.975
1124.35696	21199.075
1127.99793	21383.575
1131.63641	21509.975
1135.2724	21454.875
1138.90589	21297.975
1142.5369	21200.475
1146.16542	21252.875
1149.79145	21332.575
1153.415	21462.675
1157.03607	21584.475
1160.65467	21923.375
1164.27079	22673.475
1167.88443	23623.775
1171.49561	24733.075
1175.10432	26195.075
1178.71056	28213.275
1182.31434	30081.175
1185.91565	30819.675
1189.51451	30509.975
1193.11091	29584.475
1196.70485	28481.875
1200.29634	27493.975
1203.88538	26773.075
1207.47197	26202.875
1211.05612	25728.075
1214.63782	25310.975
1218.21708	25012.475
1221.79391	24746.675
1225.36829	24639.075
1228.94024	24532.575
1232.50976	24259.375
1236.07685	23834.175
1239.6415	23482.075
1243.20374	23454.975
1246.76355	23544.975
1250.32093	23797.575
1253.8759	24235.075
1257.42845	24777.875
1260.97859	25440.975
1264.52631	26194.375
1268.07163	27001.175
1271.61453	27708.175
1275.15503	28301.775
1278.69312	28937.575
1282.22882	29639.775
1285.76211	30482.375
1289.29301	31461.775
1292.82151	32579.875
1296.34761	33954.875
1299.87133	35620.375
1303.39266	37457.675
1306.9116	39432.575
1310.42815	41120.475
1313.94233	42192.075
1317.45412	41922.675
1320.96354	40732.975
1324.47058	39250.875
1327.97525	37967.675
1331.47754	37205.275
1334.97747	36696.975
1338.47502	36203.375
1341.97022	35603.975
1345.46305	35029.875
1348.95352	34963.975
1352.44163	35699.375
1355.92738	37438.075
1359.41078	39881.575
1362.89183	42028.675
1366.37053	42073.275
1369.84688	38915.875
1373.32088	34552.275
1376.79254	31436.775
1380.26186	30182.475
1383.72883	29968.075
1387.19347	29742.275
1390.65578	29177.475
1394.11575	28879.875
1397.57339	28937.375
1401.0287	29262.275
1404.48168	29600.075
1407.93234	29630.375
1411.38068	29402.775
1414.82669	28928.075
1418.27039	28259.075
1421.71177	27516.175
1425.15083	26839.775
1428.58758	26558.775
1432.02203	26794.575
1435.45416	27398.775
1438.88399	27970.575
1442.31151	28277.175
1445.73673	28448.575
1449.15965	28428.675
1452.58027	28242.575
1455.9986	28049.175
1459.41463	28016.575
1462.82837	28286.875
1466.23982	28916.175
1469.64898	29505.875
1473.05586	29941.975
1476.46045	30165.375
1479.86276	30294.375
1483.26279	30325.375
1486.66054	30417.075
1490.05602	30693.875
1493.44922	31029.975
1496.84016	31364.275
1500.22882	31783.375
1503.61521	32373.675
1506.99934	33209.975
1510.38121	33958.275
1513.76081	34134.275
1517.13816	33469.775
1520.51324	32170.575
1523.88607	31077.575
1527.25665	30393.775
1530.62498	30141.975
1533.99105	29914.675
1537.35488	29453.375
1540.71647	28883.875
1544.07581	28286.375
1547.4329	27726.675
1550.78776	27215.875
1554.14038	26894.975
1557.49077	26752.975
1560.83892	26674.575
1564.18484	26749.175
1567.52853	26903.975
1570.86999	27168.675
1574.20922	27560.875
1577.54624	27845.775
1580.88103	27794.275
1584.2136	27838.875
1587.54395	28538.775
1590.87208	29916.575
1594.19801	31960.175
1597.52172	33820.275
1600.84321	34513.375
1604.16251	33276.275
1607.47959	30771.675
1610.79447	28030.275
1614.10715	25668.975
1617.41763	24006.175
1620.7259	22952.775
1624.03199	22482.275
1627.33587	22644.075
1630.63757	23213.475
1633.93707	24446.075
1637.23439	26552.875
1640.52951	29763.475
1643.82246	33715.275
1647.11321	36989.275
1650.40179	37549.375
1653.68819	34826.075
1656.97241	30191.675
1660.25446	25967.375
1663.53433	23115.375
1666.81203	21334.375
1670.08756	20338.175
1673.36092	19754.275
1676.63211	19384.575
1679.90115	19091.875
1683.16801	18899.275
1686.43272	18711.775
1689.69527	18592.775
1692.95567	18417.975
1696.2139	18254.875
1699.46999	18143.275
1702.72392	18079.775
1705.97571	18138.375
1709.22535	18215.375
1712.47284	18279.875
1715.71819	18332.975
1718.96139	18300.375
1722.20246	18239.375
1725.44139	18177.375
1728.67818	18088.275
1731.91284	18029.075
1735.14537	17924.775
1738.37576	17872.175
1741.60403	17819.575
1744.83017	17729.575
1748.05418	17704.075
1751.27607	17644.575
1754.49584	17584.675
1757.71349	17470.875
1760.92903	17436.375
1764.14244	17434.975
1767.35375	17417.875
1770.56294	17403.975
1773.77002	17409.675
1776.97499	17457.175
1780.17785	17462.075
1783.37861	17477.275
1786.57727	17493.975
1789.77382	17487.275
1792.96828	17493.275
1796.16064	17484.175
1799.3509	17462.575
1802.53907	17388.975
1805.72514	17352.475
1808.90913	17335.875
1812.09102	17336.975
1815.27083	17282.975
1818.44856	17280.875
1821.6242	17292.475
1824.79776	17253.875
1827.96924	17284.975
1831.13864	17263.575
1834.30597	17262.975
1837.47122	17268.575
1840.6344	17264.675
1843.7955	17225.175
1846.95454	17213.575
1850.11151	17209.275
1853.26642	17177.275
1856.41926	17169.575
1859.57004	17188.375
1862.71876	17144.375
1865.86542	17156.575
1869.01003	17156.975
1872.15258	17184.675
1875.29308	17129.175
1878.43152	17102.075
1881.56792	17128.675
1884.70227	17104.275
1887.83457	17102.175
1890.96482	17062.075
1894.09304	17061.875
1897.21921	17032.075
1900.34335	17000.475
1903.46544	16998.475
1906.58551	17014.875
1909.70353	17015.675
1912.81953	16953.775
1915.93349	16939.975
1919.04543	16929.975
1922.15534	16914.375
1925.26322	16874.675
1928.36908	16839.075
1931.47292	16776.875
1934.57473	16733.275
1937.67453	16702.375
1940.77232	16691.375
1943.86808	16657.975
1946.96184	16622.275
1950.05358	16572.575
1953.14331	16508.775
1956.23103	16478.075
1959.31675	16446.875
1962.40046	16399.275
1965.48217	16381.475
1968.56188	16363.975
1971.63959	16359.275
1974.7153	16308.775
1977.78901	16227.075
1980.86073	16174.975
1983.93046	16119.475
1986.99819	16087.975
1990.06394	16029.475
1993.1277	15998.775
1996.18947	15984.275
1999.24925	15934.875
2002.30706	15882.275
2005.36288	15837.075
2008.41672	15807.175
2011.46859	15776.975
2014.51848	15711.775
2017.56639	15691.075
2020.61233	15651.475
2023.6563	15623.375
2026.6983	15570.275
2029.73833	15571.575
2032.7764	15535.575
2035.8125	15517.875
2038.84664	15479.975
2041.87881	15516.975
2044.90903	15451.675
2047.93729	15424.275
2050.96359	15378.075
2053.98794	15389.775
2057.01034	15384.175
2060.03078	15407.975
2063.04927	15359.375
2066.06582	15362.075
2069.08042	15348.875
2072.09307	15352.975
2075.10378	15348.675
2078.11255	15365.575
2081.11938	15343.475
2084.12426	15331.975
2087.12722	15373.475
2090.12824	15334.375
2093.12732	15364.775
2096.12447	15375.175
2099.11969	15360.775
2102.11299	15350.975
2105.10435	15385.475
2108.09379	15350.375
2111.08131	15387.075
2114.0669	15399.375
2117.05057	15440.275
2120.03233	15436.075
2123.01216	15463.275
2125.99008	15462.975
2128.96609	15498.475
2131.94018	15486.375
2134.91236	15517.175
2137.88263	15532.175
2140.851	15534.575
2143.81746	15577.175
2146.78201	15548.775
2149.74466	15596.075
2152.7054	15591.475
2155.66425	15597.975
2158.6212	15593.675
2161.57625	15575.675
2164.52941	15584.175
2167.48067	15602.175
2170.43004	15581.975
2173.37752	15547.275
2176.32311	15563.975
2179.26681	15579.375
2182.20863	15584.675
2185.14856	15610.975
2188.08661	15598.775
2191.02278	15564.975
2193.95707	15594.175
2196.88948	15590.875
2199.82001	15572.675
2202.74867	15556.375
2205.67545	15559.375
2208.60037	15524.475
2211.52341	15523.375
2214.44458	15528.375
2217.36388	15490.275
2220.28132	15492.575
2223.1969	15430.275
2226.11061	15404.375
2229.02246	15403.175
2231.93245	15382.675
2234.84058	15351.675
2237.74686	15340.075
2240.65128	15308.675
2243.55385	15321.875
2246.45456	15339.075
2249.35343	15272.175
2252.25044	15266.775
2255.14561	15248.975
2258.03893	15257.275
2260.93041	15159.375
2263.82004	15148.175
2266.70783	15159.375
2269.59378	15121.775
2272.4779	15134.875
2275.36017	15080.175
2278.24061	15060.075
2281.11922	15058.975
2283.996	14999.575
2286.87094	14994.675
2289.74405	14981.875
2292.61534	14980.175
2295.4848	14970.975
2298.35243	14965.275
2301.21824	14942.975
2304.08223	14960.275
2306.94439	14964.775
2309.80474	14958.675
2312.66327	14950.675
2315.51999	14899.075
2318.37489	14923.575
2321.22797	14935.875
2324.07925	14909.375
2326.92871	14851.475
2329.77637	14888.175
2332.62222	14859.575
2335.46626	14854.275
2338.3085	14830.375
2341.14893	14829.275
2343.98756	14841.175
2346.8244	14842.875
2349.65943	14812.375
2352.49267	14813.675
2355.32411	14799.575
2358.15376	14789.075
2360.98161	14804.075
2363.80768	14771.875
2366.63195	14774.075
2369.45444	14776.875
2372.27514	14732.575
2375.09405	14710.675
2377.91118	14705.475
2380.72652	14690.175
2383.54009	14636.375
2386.35187	14644.375
2389.16188	14609.275
2391.97011	14632.475
2394.77657	14616.475
2397.58125	14605.475
2400.38416	14577.875
2403.18529	14519.375
2405.98466	14570.875
2408.78226	14534.775
2411.57809	14498.575
2414.37216	14477.975
2417.16446	14470.675
2419.955	14471.075
2422.74378	14450.275
2425.5308	14415.375
2428.31606	14423.175
2431.09956	14429.975
2433.88131	14422.975
2436.6613	14439.375
2439.43954	14433.275
2442.21603	14438.475
2444.99077	14386.275
2447.76377	14432.175
2450.53501	14423.575
2453.30451	14410.475
2456.07226	14416.575
2458.83827	14397.375
2461.60254	14394.275
2464.36507	14373.475
2467.12586	14323.575
2469.88492	14313.375
2472.64224	14346.975
2475.39782	14328.875
2478.15167	14331.075
2480.90379	14357.875
2483.65417	14380.875
2486.40283	14404.775
2489.14976	14415.675
2491.89497	14378.175
2494.63845	14366.775
2497.3802	14351.275
2500.12024	14374.075
2502.85855	14362.475
2505.59514	14343.775
2508.33002	14347.175
2511.06318	14333.775
2513.79462	14332.575
2516.52435	14281.875
2519.25237	14292.675
2521.97867	14263.275
2524.70327	14255.675
2527.42616	14289.775
2530.14734	14277.175
2532.86681	14263.075
2535.58458	14264.975
2538.30065	14268.175
2541.01501	14251.775
2543.72768	14213.075
2546.43864	14215.175
2549.14791	14190.175
2551.85548	14239.975
2554.56136	14179.075
2557.26554	14147.675
2559.96803	14118.975
2562.66883	14104.775
2565.36794	14077.775
2568.06536	14076.775
2570.7611	14064.175
2573.45514	14047.375
2576.14751	14074.075
2578.83819	14067.675
2581.52719	14020.475
2584.21451	14016.875
2586.90015	14028.375
2589.58411	13976.475
2592.2664	13998.875
2594.94701	14023.875
2597.62594	14001.575
2600.30321	13966.075
2602.9788	13963.075
2605.65273	13938.375
2608.32498	13932.275
2610.99557	13936.175
2613.66449	13939.175
2616.33175	13918.275
2618.99734	13910.675
2621.66128	13881.975
2624.32355	13873.575
2626.98416	13875.175
2629.64311	13850.675
2632.30041	13847.475
2634.95605	13806.975
2637.61004	13800.975
2640.26238	13790.175
2642.91306	13789.975
2645.56209	13792.075
2648.20948	13781.175
2650.85521	13756.675
2653.4993	13775.075
2656.14175	13774.375
2658.78255	13810.875
2661.42171	13832.775
2664.05923	13835.775
2666.6951	13851.575
2669.32934	13861.875
2671.96194	13863.375
2674.59291	13858.175
2677.22224	13837.775
2679.84993	13829.775
2682.476	13807.675
2685.10043	13859.075
2687.72324	13814.775
2690.34441	13830.475
2692.96396	13834.175
2695.58188	13831.775
2698.19818	13826.975
2700.81285	13824.575
2703.4259	13782.675
2706.03733	13697.775
2708.64714	13777.675
2711.25533	13838.575
2713.86191	13870.375
2716.46687	13899.475
2719.07021	13941.375
2721.67194	13949.975
2724.27206	13935.575
2726.87057	13938.275
2729.46747	13919.675
2732.06276	13967.875
2734.65644	13964.475
2737.24852	13945.975
2739.83899	13933.075
2742.42786	13971.175
2745.01513	13950.575
2747.60079	13934.075
2750.18486	13912.075
2752.76733	13874.775
2755.3482	13852.875
2757.92747	13863.975
2760.50515	13857.875
2763.08123	13805.175
2765.65573	13810.875
2768.22863	13798.675
2770.79994	13783.575
2773.36967	13771.475
2775.9378	13762.275
2778.50435	13772.475
2781.06932	13768.675
2783.6327	13805.775
2786.1945	13784.575
2788.75471	13769.075
2791.31335	13750.675
2793.87041	13738.675
2796.42589	13695.075
2798.97979	13671.975
2801.53212	13668.075
2804.08288	13619.075
2806.63206	13611.475
2809.17967	13607.975
2811.72571	13584.075
2814.27018	13557.075
2816.81308	13514.175
2819.35442	13509.275
2821.89419	13470.675
2824.43239	13457.175
2826.96904	13445.375
2829.50412	13440.675
2832.03763	13424.475
2834.56959	13427.675
2837.1	13423.775
2839.62884	13438.275
2842.15613	13407.175
2844.68186	13426.275
2847.20604	13394.475
2849.72867	13415.275
2852.24974	13380.375
2854.76927	13365.175
2857.28724	13322.675
2859.80367	13326.875
2862.31855	13313.575
2864.83189	13309.775
2867.34368	13296.675
2869.85393	13317.375
2872.36264	13315.075
2874.8698	13293.675
2877.37543	13311.575
2879.87952	13316.275
2882.38207	13328.975
2884.88308	13313.675
2887.38256	13356.175
2889.88051	13327.075
2892.37692	13339.775
2894.8718	13351.175
2897.36515	13362.775
2899.85698	13337.375
2902.34727	13374.575
2904.83604	13370.775
2907.32328	13373.175
2909.809	13370.675
2912.29319	13430.675
2914.77587	13422.075
2917.25702	13417.875
2919.73665	13397.275
2922.21476	13378.275
2924.69136	13356.475
2927.16644	13368.975
2929.64	13371.175
2932.11205	13349.875
2934.58258	13286.175
2937.05161	13314.375
2939.51912	13332.375
2941.98513	13323.475
2944.44962	13298.975
2946.91261	13262.275
2949.37409	13329.275
2951.83407	13292.875
2954.29254	13297.875
2956.74951	13288.575
2959.20498	13269.975
2961.65895	13267.775
2964.11142	13266.775
2966.56239	13251.875
2969.01186	13229.175
2971.45984	13232.575
2973.90632	13220.075
2976.35131	13179.075
2978.7948	13176.875
2981.23681	13154.375
2983.67732	13136.875
2986.11635	13111.475
2988.55388	13085.975
2990.98993	13043.275
2993.4245	13047.375
2995.85758	13020.175
2998.28917	13018.275
3000.71928	12981.775
3003.14791	12950.975
3005.57506	12946.375
3008.00073	12907.075
3010.42493	12892.775
3012.84764	12872.375
3015.26888	12899.075
3017.68865	12861.075
3020.10694	12828.975
3022.52376	12828.175
3024.9391	12809.075
3027.35298	12795.675
3029.76539	12793.775
3032.17632	12800.475
3034.5858	12781.275
3036.9938	12756.475
3039.40034	12738.475
3041.80542	12724.275
3044.20903	12693.275
3046.61118	12689.975
3049.01187	12658.675
3051.4111	12673.275
3053.80888	12628.975
3056.20519	12625.175
3058.60005	12628.175
3060.99345	12598.775
3063.3854	12564.475
3065.7759	12535.975
3068.16494	12530.175
3070.55254	12516.875
3072.93868	12497.175
3075.32338	12402.875
3077.70662	12399.175
3080.08842	12358.275
3082.46878	12351.575
3084.84769	12334.475
3087.22515	12325.375
3089.60118	12338.975
3091.97576	12361.275
3094.3489	12349.875
3096.72061	12379.275
3099.09087	12371.475
3101.4597	12363.675
3103.82709	12355.875
3106.19305	12371.575
3108.55757	12349.575
3110.92066	12315.175
3113.28232	12315.575
3115.64255	12275.375
3118.00134	12257.575
3120.35871	12249.075
3122.71466	12190.175
3125.06917	12157.775
3127.42226	12149.475
3129.77393	12150.675
