Data from AgNPs_FTO_APTES_UA_50uM_CRN_10uM_R6G_10uM_NaF_0.1M_Addition_RamanShift__30__13-48-24-901.txt Node

Date: Mon Feb 21 13:48:24 GMT 2022
User: TCL
Spectrometer: QEP01345
Trigger mode: 4
Integration Time (sec): 7.000000E0
Scans to average: 10
Electric dark correction enabled: true
Nonlinearity correction enabled: false
Boxcar width: 0
XAxis mode: Raman Shifts
Number of Pixels in Spectrum: 1044
>>>>>Begin Spectral Data<<<<<
46.04893	0.575
50.45542	-0.625
54.85868	-0.425
59.25871	-1.125
63.6555	46.775
68.04907	55.275
72.43941	55.175
76.82654	61.675
81.21044	66.075
85.59113	68.475
89.96862	68.175
94.34289	75.375
98.71396	74.775
103.08183	80.575
107.4465	80.675
111.80798	76.175
116.16626	80.775
120.52136	80.875
124.87327	86.775
129.222	87.975
133.56755	93.775
137.90993	98.275
142.24913	107.175
146.58517	117.975
150.91804	137.775
155.24774	154.875
159.57429	192.375
163.89768	246.775
168.21792	333.875
172.53501	451.075
176.84895	622.375
181.15975	863.275
185.46741	1223.975
189.77193	1681.975
194.07331	2268.375
198.37157	2923.675
202.6667	3636.075
206.9587	4323.175
211.24758	5083.175
215.53334	5859.375
219.81599	6809.375
224.09553	7876.575
228.37195	9088.675
232.64527	10367.675
236.91549	11615.475
241.18261	12671.875
245.44663	13435.775
249.70755	13975.975
253.96539	14382.775
258.22014	14649.175
262.4718	14790.475
266.72039	14854.475
270.96589	14749.175
275.20832	14438.375
279.44768	14014.275
283.68397	13619.075
287.91719	13452.775
292.14735	13641.775
296.37445	14317.075
300.59849	15508.175
304.81948	16988.175
309.03742	18118.175
313.25231	18266.075
317.46415	16990.475
321.67296	14869.075
325.87872	13137.075
330.08145	12365.775
334.28114	12370.875
338.47781	12767.275
342.67145	13351.375
346.86207	14380.275
351.04966	15969.375
355.23424	17718.575
359.4158	18947.175
363.59435	19396.675
367.76989	19323.975
371.94243	18959.775
376.11196	18561.075
380.27849	18122.175
384.44203	17609.375
388.60257	17052.175
392.76012	16666.275
396.91468	16737.075
401.06626	17343.475
405.21485	17746.175
409.36047	17036.675
413.50311	15370.175
417.64277	13802.975
421.77947	12868.375
425.9132	12450.475
430.04396	12295.175
434.17176	12341.475
438.2966	12616.375
442.41849	13118.975
446.53742	13714.675
450.6534	14190.775
454.76644	14380.775
458.87653	14296.675
462.98368	13981.575
467.08789	13566.675
471.18916	13032.775
475.2875	12469.075
479.38291	11977.275
483.4754	11691.475
487.56496	11476.175
491.6516	11342.275
495.73531	11331.975
499.81612	11447.475
503.89401	11754.875
507.96899	12109.475
512.04106	12583.575
516.11023	13117.375
520.1765	13459.975
524.23987	13410.675
528.30034	13017.575
532.35792	12560.175
536.41261	12075.275
540.46441	11531.675
544.51333	11240.675
548.55936	11308.475
552.60252	11720.675
556.64279	12268.375
560.6802	12510.975
564.71473	13071.875
568.7464	14293.475
572.7752	14743.875
576.80114	13573.175
580.82422	12355.475
584.84444	11841.175
588.86181	11742.575
592.87633	11788.275
596.888	12059.775
600.89682	12970.375
604.9028	16221.175
608.90594	25108.575
612.90624	36778.475
616.90371	34533.675
620.89834	20149.575
624.89015	13512.475
628.87913	12343.375
632.86528	12667.675
636.84862	13200.075
640.82913	12729.375
644.80683	11544.375
648.78172	10730.875
652.75379	10868.975
656.72306	11916.975
660.68952	13125.875
664.65319	12658.575
668.61405	11275.675
672.57211	10628.975
676.52738	10602.075
680.47986	10589.775
684.42955	10346.375
688.37646	10251.375
692.32058	10282.875
696.26192	10479.975
700.20048	10743.975
704.13626	10928.575
708.06928	10851.475
711.99952	10664.075
715.927	10640.075
719.85171	10799.875
723.77365	10884.975
727.69284	10707.975
731.60928	10516.975
735.52295	10505.275
739.43388	10591.875
743.34206	10676.375
747.24749	10730.175
751.15017	10840.975
755.05012	11207.575
758.94733	12480.375
762.8418	15537.075
766.73354	20433.675
770.62254	25056.475
774.50882	27549.075
778.39237	26458.475
782.27321	21282.075
786.15132	15880.275
790.02671	12843.875
793.89938	11525.775
797.76935	11002.475
801.6366	10766.675
805.50115	10626.275
809.36299	10563.475
813.22213	10463.475
817.07857	10414.875
820.93231	10412.575
824.78336	10491.075
828.63172	10603.575
832.47738	10672.775
836.32036	10558.375
840.16066	10390.675
843.99827	10264.875
847.8332	10219.675
851.66546	10198.575
855.49504	10242.375
859.32195	10181.875
863.1462	10123.175
866.96777	10047.375
870.78668	10038.275
874.60293	10107.375
878.41652	10193.575
882.22745	10399.275
886.03573	10521.575
889.84136	10445.475
893.64433	10394.075
897.44466	10389.375
901.24235	10426.975
905.0374	10320.375
908.8298	10144.475
912.61957	10029.175
916.40671	10056.575
920.19121	10172.775
923.97308	10357.575
927.75233	10730.075
931.52895	11084.675
935.30295	10842.075
939.07433	10198.675
942.84309	9668.375
946.60924	9382.475
950.37278	9240.575
954.13371	9176.975
957.89203	9151.775
961.64774	9129.975
965.40086	9097.475
969.15137	9035.975
972.89929	9006.575
976.64461	8999.175
980.38733	9031.375
984.12747	9035.475
987.86502	9119.275
991.59999	9205.075
995.33237	9412.275
999.06217	9730.475
1002.78939	10142.175
1006.51404	10527.575
1010.23611	10915.175
1013.95561	11105.275
1017.67255	11021.975
1021.38692	10782.175
1025.09872	10503.675
1028.80796	10357.675
1032.51465	10494.775
1036.21877	10710.075
1039.92035	10916.175
1043.61937	10973.775
1047.31584	10887.875
1051.00976	10770.575
1054.70114	10621.875
1058.38998	10553.975
1062.07627	10587.975
1065.76003	10635.275
1069.44126	10726.475
1073.11995	10949.675
1076.79611	11313.175
1080.46974	11886.675
1084.14085	12685.875
1087.80943	13362.275
1091.47549	13526.575
1095.13903	12996.375
1098.80005	12099.475
1102.45857	11492.875
1106.11456	11371.675
1109.76805	11674.975
1113.41903	12402.875
1117.06751	13510.175
1120.71348	15019.375
1124.35696	16758.875
1127.99793	17723.575
1131.63641	16841.275
1135.2724	14944.775
1138.90589	13489.875
1142.5369	12606.275
1146.16542	12013.475
1149.79145	11685.775
1153.415	11651.975
1157.03607	11815.875
1160.65467	12229.975
1164.27079	12999.375
1167.88443	14196.475
1171.49561	16169.475
1175.10432	19550.575
1178.71056	24042.575
1182.31434	27250.575
1185.91565	27632.775
1189.51451	26055.175
1193.11091	23420.875
1196.70485	20752.875
1200.29634	18935.175
1203.88538	17527.075
1207.47197	15715.775
1211.05612	14137.875
1214.63782	13184.775
1218.21708	12835.575
1221.79391	12742.075
1225.36829	12797.475
1228.94024	12836.475
1232.50976	12866.775
1236.07685	12925.875
1239.6415	13015.975
1243.20374	13113.275
1246.76355	13223.275
1250.32093	13474.875
1253.8759	13913.975
1257.42845	14601.475
1260.97859	15426.475
1264.52631	16319.075
1268.07163	17161.675
1271.61453	17794.075
1275.15503	18188.975
1278.69312	18313.375
1282.22882	18662.075
1285.76211	19468.175
1289.29301	20518.975
1292.82151	21504.775
1296.34761	22597.475
1299.87133	24668.475
1303.39266	28341.575
1306.9116	34031.475
1310.42815	39672.675
1313.94233	41111.375
1317.45412	37630.075
1320.96354	32309.675
1324.47058	27489.875
1327.97525	23972.475
1331.47754	22163.175
1334.97747	21644.775
1338.47502	22286.375
1341.97022	23849.975
1345.46305	26448.575
1348.95352	29828.675
1352.44163	33934.575
1355.92738	40263.275
1359.41078	49504.075
1362.89183	55920.375
1366.37053	50915.175
1369.84688	39615.075
1373.32088	30472.975
1376.79254	24955.775
1380.26186	21906.675
1383.72883	19958.575
1387.19347	18417.475
1390.65578	17029.675
1394.11575	16018.575
1397.57339	15576.475
1401.0287	15527.875
1404.48168	15663.475
1407.93234	15912.775
1411.38068	16268.475
1414.82669	16509.975
1418.27039	16461.375
1421.71177	16210.575
1425.15083	15874.675
1428.58758	15869.375
1432.02203	16165.375
1435.45416	16342.275
1438.88399	16250.475
1442.31151	16145.775
1445.73673	16198.775
1449.15965	16319.075
1452.58027	16164.075
1455.9986	15922.875
1459.41463	15858.475
1462.82837	16176.875
1466.23982	16784.975
1469.64898	17341.075
1473.05586	17609.575
1476.46045	17831.475
1479.86276	18324.975
1483.26279	19100.075
1486.66054	20146.375
1490.05602	21683.875
1493.44922	23915.275
1496.84016	27488.075
1500.22882	33030.475
1503.61521	40488.075
1506.99934	48588.475
1510.38121	54467.775
1513.76081	54479.475
1517.13816	47819.775
1520.51324	38235.975
1523.88607	30269.575
1527.25665	25329.075
1530.62498	22691.475
1533.99105	21151.275
1537.35488	20149.175
1540.71647	19647.175
1544.07581	19580.275
1547.4329	19692.075
1550.78776	19816.275
1554.14038	19971.675
1557.49077	20259.575
1560.83892	20858.175
1564.18484	22092.775
1567.52853	23626.175
1570.86999	24772.775
1574.20922	25317.475
1577.54624	24639.275
1580.88103	22193.775
1584.2136	19400.975
1587.54395	17849.875
1590.87208	17946.875
1594.19801	19360.675
1597.52172	21426.375
1600.84321	22117.975
1604.16251	21073.475
1607.47959	19251.775
1610.79447	17323.075
1614.10715	15512.875
1617.41763	14206.575
1620.7259	13456.175
1624.03199	13171.175
1627.33587	13331.875
1630.63757	13969.475
1633.93707	15160.675
1637.23439	17049.375
1640.52951	20041.675
1643.82246	24467.275
1647.11321	29723.575
1650.40179	32927.375
1653.68819	30871.575
1656.97241	24865.175
1660.25446	18951.275
1663.53433	15039.475
1666.81203	12834.575
1670.08756	11661.475
1673.36092	10956.475
1676.63211	10488.575
1679.90115	10207.475
1683.16801	9939.175
1686.43272	9799.975
1689.69527	9653.875
1692.95567	9516.475
1696.2139	9388.775
1699.46999	9278.975
1702.72392	9259.675
1705.97571	9312.575
1709.22535	9380.375
1712.47284	9432.575
1715.71819	9499.775
1718.96139	9482.975
1722.20246	9465.475
1725.44139	9352.175
1728.67818	9227.475
1731.91284	9087.575
1735.14537	8986.575
1738.37576	8930.575
1741.60403	8865.175
1744.83017	8823.275
1748.05418	8742.475
1751.27607	8681.575
1754.49584	8599.775
1757.71349	8552.375
1760.92903	8492.775
1764.14244	8462.975
1767.35375	8425.675
1770.56294	8393.375
1773.77002	8359.275
1776.97499	8335.975
1780.17785	8336.875
1783.37861	8309.375
1786.57727	8328.175
1789.77382	8318.275
1792.96828	8319.775
1796.16064	8314.575
1799.3509	8289.975
1802.53907	8295.675
1805.72514	8238.975
1808.90913	8224.875
1812.09102	8168.075
1815.27083	8145.475
1818.44856	8104.075
1821.6242	8088.475
1824.79776	8100.275
1827.96924	8091.075
1831.13864	8077.975
1834.30597	8047.675
1837.47122	8055.075
1840.6344	8021.875
1843.7955	8003.075
1846.95454	8008.875
1850.11151	7970.675
1853.26642	7988.675
1856.41926	7992.375
1859.57004	8012.875
1862.71876	8025.975
1865.86542	8018.375
1869.01003	8035.075
1872.15258	8035.475
1875.29308	8048.675
1878.43152	8048.275
1881.56792	8052.175
1884.70227	8050.075
1887.83457	8060.575
1890.96482	8080.175
1894.09304	8073.675
1897.21921	8075.175
1900.34335	8093.375
1903.46544	8079.875
1906.58551	8114.775
1909.70353	8095.375
1912.81953	8100.475
1915.93349	8085.975
1919.04543	8082.175
1922.15534	8055.775
1925.26322	8031.875
1928.36908	7997.475
1931.47292	7957.775
1934.57473	7899.175
1937.67453	7833.775
1940.77232	7805.375
1943.86808	7764.575
1946.96184	7750.175
1950.05358	7706.475
1953.14331	7689.375
1956.23103	7655.975
1959.31675	7620.275
1962.40046	7621.575
1965.48217	7598.675
1968.56188	7591.275
1971.63959	7588.475
1974.7153	7553.975
1977.78901	7544.275
1980.86073	7487.175
1983.93046	7446.575
1986.99819	7400.375
1990.06394	7368.375
1993.1277	7345.275
1996.18947	7318.175
1999.24925	7291.175
2002.30706	7250.175
2005.36288	7224.275
2008.41672	7223.575
2011.46859	7217.475
2014.51848	7180.275
2017.56639	7147.575
2020.61233	7125.175
2023.6563	7100.875
2026.6983	7079.775
2029.73833	7076.275
2032.7764	7057.875
2035.8125	7030.775
2038.84664	7017.775
2041.87881	7037.475
2044.90903	7016.375
2047.93729	6987.075
2050.96359	6989.675
2053.98794	6974.475
2057.01034	6944.775
2060.03078	6960.975
2063.04927	6931.275
2066.06582	6913.675
2069.08042	6913.075
2072.09307	6903.775
2075.10378	6902.075
2078.11255	6893.275
2081.11938	6888.775
2084.12426	6891.375
2087.12722	6889.475
2090.12824	6877.475
2093.12732	6866.375
2096.12447	6888.075
2099.11969	6875.775
2102.11299	6894.075
2105.10435	6871.675
2108.09379	6916.175
2111.08131	6903.975
2114.0669	6924.175
2117.05057	6939.875
2120.03233	6934.975
2123.01216	6946.375
2125.99008	6991.475
2128.96609	6961.075
2131.94018	6962.875
2134.91236	6944.175
2137.88263	6947.775
2140.851	6941.575
2143.81746	6928.275
2146.78201	6929.575
2149.74466	6925.175
2152.7054	6903.275
2155.66425	6904.675
2158.6212	6891.375
2161.57625	6888.775
2164.52941	6873.675
2167.48067	6874.375
2170.43004	6869.175
2173.37752	6877.975
2176.32311	6879.875
2179.26681	6884.475
2182.20863	6876.375
2185.14856	6885.175
2188.08661	6883.675
2191.02278	6890.875
2193.95707	6872.175
2196.88948	6854.775
2199.82001	6845.275
2202.74867	6854.675
2205.67545	6842.775
2208.60037	6857.675
2211.52341	6831.675
2214.44458	6807.975
2217.36388	6823.575
2220.28132	6792.675
2223.1969	6763.775
2226.11061	6743.475
2229.02246	6715.875
2231.93245	6720.975
2234.84058	6692.675
2237.74686	6677.275
2240.65128	6685.675
2243.55385	6678.575
2246.45456	6681.975
2249.35343	6694.875
2252.25044	6701.275
2255.14561	6713.175
2258.03893	6743.675
2260.93041	6711.675
2263.82004	6719.575
2266.70783	6702.975
2269.59378	6696.075
2272.4779	6674.275
2275.36017	6664.175
2278.24061	6633.575
2281.11922	6640.475
2283.996	6602.575
2286.87094	6597.775
2289.74405	6554.075
2292.61534	6530.875
2295.4848	6505.075
2298.35243	6515.475
2301.21824	6518.475
2304.08223	6510.575
2306.94439	6523.975
2309.80474	6535.875
2312.66327	6545.775
2315.51999	6534.675
2318.37489	6528.675
2321.22797	6502.775
2324.07925	6498.375
2326.92871	6461.975
2329.77637	6473.775
2332.62222	6450.975
2335.46626	6476.675
2338.3085	6469.375
2341.14893	6474.275
2343.98756	6476.275
2346.8244	6501.275
2349.65943	6513.075
2352.49267	6533.075
2355.32411	6555.175
2358.15376	6600.475
2360.98161	6615.275
2363.80768	6651.175
2366.63195	6651.075
2369.45444	6655.575
2372.27514	6659.575
2375.09405	6647.275
2377.91118	6624.775
2380.72652	6583.675
2383.54009	6554.075
2386.35187	6508.975
2389.16188	6463.675
2391.97011	6439.975
2394.77657	6406.975
2397.58125	6365.675
2400.38416	6358.275
2403.18529	6355.675
2405.98466	6318.875
2408.78226	6316.175
2411.57809	6277.975
2414.37216	6270.675
2417.16446	6275.075
2419.955	6251.775
2422.74378	6283.575
2425.5308	6277.875
2428.31606	6270.675
2431.09956	6267.875
2433.88131	6272.775
2436.6613	6307.675
2439.43954	6301.675
2442.21603	6298.775
2444.99077	6311.675
2447.76377	6312.575
2450.53501	6329.575
2453.30451	6354.775
2456.07226	6327.475
2458.83827	6353.775
2461.60254	6342.975
2464.36507	6325.875
2467.12586	6348.075
2469.88492	6329.675
2472.64224	6344.575
2475.39782	6337.975
2478.15167	6359.075
2480.90379	6394.875
2483.65417	6461.575
2486.40283	6481.375
2489.14976	6496.275
2491.89497	6524.875
2494.63845	6528.875
2497.3802	6512.975
2500.12024	6496.475
2502.85855	6481.375
2505.59514	6445.075
2508.33002	6382.775
2511.06318	6346.575
2513.79462	6300.975
2516.52435	6257.475
2519.25237	6234.675
2521.97867	6186.875
2524.70327	6183.875
2527.42616	6180.675
2530.14734	6156.875
2532.86681	6163.575
2535.58458	6156.575
2538.30065	6155.275
2541.01501	6175.175
2543.72768	6167.975
2546.43864	6174.975
2549.14791	6176.775
2551.85548	6179.775
2554.56136	6188.475
2557.26554	6185.775
2559.96803	6152.475
2562.66883	6179.475
2565.36794	6167.075
2568.06536	6150.275
2570.7611	6143.875
2573.45514	6141.975
2576.14751	6140.375
2578.83819	6129.075
2581.52719	6131.975
2584.21451	6089.575
2586.90015	6090.975
2589.58411	6078.375
2592.2664	6073.975
2594.94701	6069.575
2597.62594	6071.875
2600.30321	6070.175
2602.9788	6080.975
2605.65273	6074.575
2608.32498	6063.475
2610.99557	6078.875
2613.66449	6089.475
2616.33175	6096.975
2618.99734	6114.175
2621.66128	6087.675
2624.32355	6073.675
2626.98416	6082.975
2629.64311	6056.875
2632.30041	6055.275
2634.95605	6011.775
2637.61004	6032.175
2640.26238	5999.775
2642.91306	5998.675
2645.56209	5979.975
2648.20948	5967.875
2650.85521	5968.675
2653.4993	5969.275
2656.14175	5982.575
2658.78255	5982.275
2661.42171	6005.375
2664.05923	5996.675
2666.6951	6038.675
2669.32934	6054.575
2671.96194	6064.775
2674.59291	6082.775
2677.22224	6066.475
2679.84993	6055.575
2682.476	6054.575
2685.10043	6043.175
2687.72324	6061.775
2690.34441	6047.475
2692.96396	6034.075
2695.58188	6043.375
2698.19818	6023.175
2700.81285	6016.275
2703.4259	6008.675
2706.03733	5954.775
2708.64714	5992.075
2711.25533	6029.575
2713.86191	6045.775
2716.46687	6086.575
2719.07021	6088.875
2721.67194	6115.675
2724.27206	6080.775
2726.87057	6098.375
2729.46747	6093.875
2732.06276	6095.875
2734.65644	6087.575
2737.24852	6078.675
2739.83899	6050.175
2742.42786	6034.975
2745.01513	6009.875
2747.60079	6019.575
2750.18486	6006.475
2752.76733	6010.875
2755.3482	5994.375
2757.92747	5996.175
2760.50515	5959.575
2763.08123	5958.175
2765.65573	5937.375
2768.22863	5957.375
2770.79994	5945.075
2773.36967	5941.275
2775.9378	5953.675
2778.50435	5962.175
2781.06932	5957.675
2783.6327	5967.175
2786.1945	5969.375
2788.75471	5974.175
2791.31335	5966.375
2793.87041	5975.675
2796.42589	5980.075
2798.97979	5980.975
2801.53212	5971.575
2804.08288	5998.575
2806.63206	5990.575
2809.17967	5989.375
2811.72571	6007.575
2814.27018	6019.975
2816.81308	6033.875
2819.35442	6047.175
2821.89419	6049.475
2824.43239	6082.275
2826.96904	6075.175
2829.50412	6082.975
2832.03763	6090.275
2834.56959	6088.875
2837.1	6094.275
2839.62884	6089.875
2842.15613	6102.575
2844.68186	6138.775
2847.20604	6156.875
2849.72867	6190.575
2852.24974	6200.475
2854.76927	6204.875
2857.28724	6201.775
2859.80367	6211.775
2862.31855	6218.675
2864.83189	6233.175
2867.34368	6242.875
2869.85393	6257.175
2872.36264	6252.175
2874.8698	6238.975
2877.37543	6238.775
2879.87952	6224.975
2882.38207	6199.875
2884.88308	6186.575
2887.38256	6175.175
2889.88051	6186.075
2892.37692	6182.275
2894.8718	6149.775
2897.36515	6183.475
2899.85698	6178.975
2902.34727	6195.075
2904.83604	6190.675
2907.32328	6194.375
2909.809	6166.575
2912.29319	6183.475
2914.77587	6178.175
2917.25702	6152.475
2919.73665	6145.875
2922.21476	6123.975
2924.69136	6112.875
2927.16644	6117.575
2929.64	6090.775
2932.11205	6070.675
2934.58258	6049.975
2937.05161	6040.975
2939.51912	6022.275
2941.98513	6004.475
2944.44962	5975.575
2946.91261	5939.675
2949.37409	5942.975
2951.83407	5943.675
2954.29254	5914.375
2956.74951	5919.375
2959.20498	5889.975
2961.65895	5874.975
2964.11142	5876.175
2966.56239	5859.275
2969.01186	5849.575
2971.45984	5814.475
2973.90632	5812.475
2976.35131	5780.475
2978.7948	5788.575
2981.23681	5769.875
2983.67732	5746.175
2986.11635	5747.575
2988.55388	5715.675
2990.98993	5708.775
2993.4245	5709.275
2995.85758	5702.575
2998.28917	5675.675
3000.71928	5667.075
3003.14791	5677.875
3005.57506	5652.375
3008.00073	5643.075
3010.42493	5635.775
3012.84764	5634.975
3015.26888	5646.775
3017.68865	5611.575
3020.10694	5606.075
3022.52376	5594.075
3024.9391	5568.675
3027.35298	5557.575
3029.76539	5545.175
3032.17632	5539.275
3034.5858	5518.475
3036.9938	5512.475
3039.40034	5491.275
3041.80542	5480.975
3044.20903	5462.775
3046.61118	5455.775
3049.01187	5437.475
3051.4111	5437.775
3053.80888	5421.275
3056.20519	5429.975
3058.60005	5400.475
3060.99345	5399.275
3063.3854	5371.475
3065.7759	5348.875
3068.16494	5338.575
3070.55254	5315.675
3072.93868	5287.175
3075.32338	5268.175
3077.70662	5253.475
3080.08842	5230.275
3082.46878	5217.975
3084.84769	5204.175
3087.22515	5210.475
3089.60118	5198.275
3091.97576	5197.775
3094.3489	5205.575
3096.72061	5196.375
3099.09087	5180.075
3101.4597	5182.075
3103.82709	5183.375
3106.19305	5171.775
3108.55757	5180.475
3110.92066	5165.875
3113.28232	5157.175
3115.64255	5150.875
3118.00134	5138.975
3120.35871	5130.475
3122.71466	5112.275
3125.06917	5108.075
3127.42226	5108.275
3129.77393	5111.675
3132.12417	5127.575
3134.47299	5117.575
3136.82039	5113.475
3139.16636	5121.575
3141.51092	5126.275
3143.85406	5129.775
3146.19579	5113.375
3148.53609	5125.075
3150.87499	5138.175
3153.21246	5149.275
3155.54853	5159.875
3157.88318	5170.075
3160.21642	5178.275
3162.54826	5174.475
3164.87868	5157.975
3167.2077	5174.975
3169.5353	5173.375
3171.86151	5188.075
3174.18631	5175.275
3176.5097	5159.975
3178.83169	5151.275
3181.15228	5174.975
3183.47147	5150.775
3185.78926	5154.675
3188.10565	5178.575
3190.42065	5162.175
3192.73424	5170.675
