Data from AgNPs_FTO_APTES_UA_50uM_CRN_20uM_R6G_10uM_NaF_0.1M_Addition_RamanShift__5__14-00-04-916.txt Node

Date: Mon Feb 21 14:00:04 GMT 2022
User: TCL
Spectrometer: QEP01345
Trigger mode: 4
Integration Time (sec): 7.000000E0
Scans to average: 10
Electric dark correction enabled: true
Nonlinearity correction enabled: false
Boxcar width: 0
XAxis mode: Raman Shifts
Number of Pixels in Spectrum: 1044
>>>>>Begin Spectral Data<<<<<
46.04893	1.325
50.45542	-2.075
54.85868	-1.075
59.25871	-1.275
63.6555	54.525
68.04907	58.725
72.43941	59.825
76.82654	63.325
81.21044	71.125
85.59113	67.125
89.96862	70.125
94.34289	73.825
98.71396	73.625
103.08183	81.125
107.4465	79.425
111.80798	83.425
116.16626	78.725
120.52136	81.025
124.87327	90.025
129.222	86.125
133.56755	91.025
137.90993	94.625
142.24913	103.125
146.58517	111.925
150.91804	125.625
155.24774	149.125
159.57429	180.525
163.89768	223.025
168.21792	292.825
172.53501	393.525
176.84895	552.025
181.15975	763.125
185.46741	1064.725
189.77193	1462.425
194.07331	1958.625
198.37157	2538.725
202.6667	3124.525
206.9587	3720.625
211.24758	4310.025
215.53334	4905.825
219.81599	5540.125
224.09553	6251.225
228.37195	7039.525
232.64527	7920.125
236.91549	8808.125
241.18261	9657.525
245.44663	10458.725
249.70755	11118.925
253.96539	11653.925
258.22014	12101.925
262.4718	12484.625
266.72039	12730.825
270.96589	12853.025
275.20832	12751.725
279.44768	12596.925
283.68397	12390.825
287.91719	12196.725
292.14735	12086.225
296.37445	12059.925
300.59849	12194.025
304.81948	12371.825
309.03742	12487.125
313.25231	12492.025
317.46415	12295.825
321.67296	12001.825
325.87872	11741.925
330.08145	11657.625
334.28114	11668.425
338.47781	11765.525
342.67145	11917.725
346.86207	12136.225
351.04966	12447.625
355.23424	12768.025
359.4158	13053.525
363.59435	13256.925
367.76989	13365.725
371.94243	13388.225
376.11196	13435.925
380.27849	13459.625
384.44203	13515.525
388.60257	13549.125
392.76012	13628.525
396.91468	13731.925
401.06626	13965.925
405.21485	14082.525
409.36047	13970.625
413.50311	13681.725
417.64277	13438.025
421.77947	13364.125
425.9132	13339.425
430.04396	13339.925
434.17176	13432.025
438.2966	13568.425
442.41849	13883.125
446.53742	14315.525
450.6534	14774.725
454.76644	15017.725
458.87653	15020.525
462.98368	14825.125
467.08789	14575.825
471.18916	14303.525
475.2875	13993.425
479.38291	13695.825
483.4754	13493.225
487.56496	13351.325
491.6516	13310.925
495.73531	13270.925
499.81612	13269.725
503.89401	13439.025
507.96899	13480.425
512.04106	13474.325
516.11023	13459.525
520.1765	13465.525
524.23987	13437.225
528.30034	13451.625
532.35792	13387.825
536.41261	13224.825
540.46441	13007.025
544.51333	12892.625
548.55936	12932.925
552.60252	13115.625
556.64279	13457.325
560.6802	13639.225
564.71473	13658.025
568.7464	13763.125
572.7752	14047.425
576.80114	14208.225
580.82422	14458.225
584.84444	15051.625
588.86181	15970.625
592.87633	17027.025
596.888	17422.125
600.89682	16738.125
604.9028	16545.525
608.90594	18066.925
612.90624	20194.425
616.90371	19054.125
620.89834	15511.025
624.89015	13882.325
628.87913	13657.925
632.86528	13732.025
636.84862	13772.025
640.82913	13550.125
644.80683	13157.725
648.78172	12877.925
652.75379	12855.125
656.72306	13125.725
660.68952	13446.325
664.65319	13334.825
668.61405	13015.525
672.57211	12967.625
676.52738	13060.325
680.47986	13062.425
684.42955	12946.725
688.37646	12866.425
692.32058	12929.825
696.26192	13109.825
700.20048	13273.125
704.13626	13377.825
708.06928	13267.925
711.99952	13184.025
715.927	13183.225
719.85171	13281.525
723.77365	13247.925
727.69284	13095.925
731.60928	12937.425
735.52295	12907.325
739.43388	12966.225
743.34206	13009.425
747.24749	13061.325
751.15017	13133.225
755.05012	13266.725
758.94733	13628.025
762.8418	14338.725
766.73354	15633.125
770.62254	16894.825
774.50882	17378.525
778.39237	16785.725
782.27321	15586.425
786.15132	14407.025
790.02671	13603.725
793.89938	13248.025
797.76935	13058.925
801.6366	13001.425
805.50115	12939.725
809.36299	12890.525
813.22213	12785.925
817.07857	12696.625
820.93231	12667.225
824.78336	12620.825
828.63172	12606.825
832.47738	12638.825
836.32036	12690.825
840.16066	12713.725
843.99827	12735.525
847.8332	12707.525
851.66546	12655.925
855.49504	12657.525
859.32195	12659.625
863.1462	12652.625
866.96777	12612.525
870.78668	12596.225
874.60293	12617.625
878.41652	12635.125
882.22745	12751.125
886.03573	12786.525
889.84136	12783.525
893.64433	12742.125
897.44466	12663.925
901.24235	12624.825
905.0374	12598.525
908.8298	12532.825
912.61957	12507.825
916.40671	12549.525
920.19121	12650.325
923.97308	12855.225
927.75233	13000.825
931.52895	13004.425
935.30295	12863.825
939.07433	12624.925
942.84309	12410.025
946.60924	12320.425
950.37278	12277.725
954.13371	12235.725
957.89203	12207.125
961.64774	12213.225
965.40086	12205.425
969.15137	12200.925
972.89929	12240.525
976.64461	12236.225
980.38733	12269.425
984.12747	12331.725
987.86502	12392.325
991.59999	12523.225
995.33237	12719.125
999.06217	13022.925
1002.78939	13340.425
1006.51404	13707.425
1010.23611	13910.025
1013.95561	14037.825
1017.67255	14065.325
1021.38692	13890.925
1025.09872	13663.825
1028.80796	13627.825
1032.51465	13852.625
1036.21877	14095.425
1039.92035	14177.825
1043.61937	14095.525
1047.31584	13884.925
1051.00976	13622.625
1054.70114	13469.425
1058.38998	13425.725
1062.07627	13469.225
1065.76003	13522.525
1069.44126	13648.125
1073.11995	13907.325
1076.79611	14172.825
1080.46974	14378.725
1084.14085	14516.725
1087.80943	14702.425
1091.47549	14822.025
1095.13903	14723.025
1098.80005	14438.825
1102.45857	14111.425
1106.11456	13914.025
1109.76805	13864.125
1113.41903	13917.625
1117.06751	14084.925
1120.71348	14288.625
1124.35696	14541.125
1127.99793	14789.425
1131.63641	14873.625
1135.2724	14719.425
1138.90589	14507.125
1142.5369	14397.525
1146.16542	14387.525
1149.79145	14368.225
1153.415	14378.325
1157.03607	14488.325
1160.65467	14755.025
1164.27079	15268.325
1167.88443	15994.625
1171.49561	16962.925
1175.10432	18320.225
1178.71056	20091.225
1182.31434	21661.325
1185.91565	22280.925
1189.51451	21897.925
1193.11091	21016.325
1196.70485	20014.625
1200.29634	19109.925
1203.88538	18365.325
1207.47197	17801.425
1211.05612	17284.025
1214.63782	16885.625
1218.21708	16667.825
1221.79391	16613.825
1225.36829	16673.725
1228.94024	16638.925
1232.50976	16370.625
1236.07685	16041.825
1239.6415	15830.625
1243.20374	15797.125
1246.76355	15881.225
1250.32093	16070.025
1253.8759	16372.225
1257.42845	16838.925
1260.97859	17367.325
1264.52631	17944.225
1268.07163	18549.325
1271.61453	19179.125
1275.15503	19692.825
1278.69312	20123.625
1282.22882	20609.025
1285.76211	21223.825
1289.29301	22011.925
1292.82151	22862.625
1296.34761	23881.925
1299.87133	25165.625
1303.39266	26774.125
1306.9116	28630.625
1310.42815	30270.225
1313.94233	31065.725
1317.45412	30560.025
1320.96354	29058.925
1324.47058	27467.825
1327.97525	26123.225
1331.47754	25179.925
1334.97747	24622.025
1338.47502	24273.125
1341.97022	24104.525
1345.46305	24089.025
1348.95352	24484.725
1352.44163	25519.625
1355.92738	27345.725
1359.41078	29790.725
1362.89183	31984.025
1366.37053	31810.225
1369.84688	28745.625
1373.32088	24878.425
1376.79254	22206.825
1380.26186	21053.625
1383.72883	20572.925
1387.19347	20182.725
1390.65578	19658.825
1394.11575	19326.725
1397.57339	19324.525
1401.0287	19433.225
1404.48168	19555.725
1407.93234	19561.925
1411.38068	19396.225
1414.82669	19174.825
1418.27039	18810.125
1421.71177	18443.625
1425.15083	18097.025
1428.58758	17983.825
1432.02203	18210.625
1435.45416	18598.925
1438.88399	18936.025
1442.31151	19054.725
1445.73673	19076.925
1449.15965	19071.225
1452.58027	18996.125
1455.9986	18806.725
1459.41463	18725.525
1462.82837	18974.025
1466.23982	19441.025
1469.64898	19992.325
1473.05586	20305.825
1476.46045	20583.525
1479.86276	20735.625
1483.26279	20816.525
1486.66054	20960.125
1490.05602	21349.625
1493.44922	21835.125
1496.84016	22384.925
1500.22882	23099.825
1503.61521	24121.225
1506.99934	25307.825
1510.38121	26281.425
1513.76081	26403.425
1517.13816	25437.225
1520.51324	23828.225
1523.88607	22451.125
1527.25665	21559.325
1530.62498	21105.725
1533.99105	20759.425
1537.35488	20303.325
1540.71647	19801.225
1544.07581	19387.225
1547.4329	18967.325
1550.78776	18709.725
1554.14038	18502.225
1557.49077	18424.325
1560.83892	18451.625
1564.18484	18578.525
1567.52853	18858.125
1570.86999	19164.025
1574.20922	19518.825
1577.54624	19579.725
1580.88103	19292.225
1584.2136	19012.625
1587.54395	19302.225
1590.87208	20245.925
1594.19801	21649.225
1597.52172	23026.625
1600.84321	23555.625
1604.16251	22595.925
1607.47959	20795.625
1610.79447	18857.525
1614.10715	17233.825
1617.41763	16083.025
1620.7259	15372.925
1624.03199	15047.725
1627.33587	15157.625
1630.63757	15604.425
1633.93707	16533.825
1637.23439	18086.425
1640.52951	20504.225
1643.82246	23513.525
1647.11321	26065.225
1650.40179	26622.725
1653.68819	24593.425
1656.97241	21080.525
1660.25446	17817.825
1663.53433	15598.925
1666.81203	14316.625
1670.08756	13556.825
1673.36092	13145.125
1676.63211	12838.025
1679.90115	12692.725
1683.16801	12512.125
1686.43272	12373.125
1689.69527	12266.025
1692.95567	12139.125
1696.2139	11993.325
1699.46999	11840.125
1702.72392	11789.725
1705.97571	11833.525
1709.22535	11903.925
1712.47284	11967.925
1715.71819	11979.425
1718.96139	11952.225
1722.20246	11919.225
1725.44139	11895.025
1728.67818	11832.925
1731.91284	11770.425
1735.14537	11701.325
1738.37576	11672.025
1741.60403	11613.925
1744.83017	11566.525
1748.05418	11509.125
1751.27607	11476.325
1754.49584	11443.125
1757.71349	11375.125
1760.92903	11301.425
1764.14244	11356.225
1767.35375	11310.225
1770.56294	11280.225
1773.77002	11274.825
1776.97499	11304.125
1780.17785	11321.825
1783.37861	11378.425
1786.57727	11386.225
1789.77382	11350.225
1792.96828	11338.025
1796.16064	11311.425
1799.3509	11309.625
1802.53907	11283.625
1805.72514	11288.325
1808.90913	11256.525
1812.09102	11230.725
1815.27083	11222.825
1818.44856	11227.125
1821.6242	11185.225
1824.79776	11202.825
1827.96924	11197.125
1831.13864	11171.225
1834.30597	11188.425
1837.47122	11195.725
1840.6344	11157.925
1843.7955	11162.425
1846.95454	11183.825
1850.11151	11164.325
1853.26642	11174.825
1856.41926	11171.425
1859.57004	11151.425
1862.71876	11124.425
1865.86542	11123.825
1869.01003	11107.325
1872.15258	11114.125
1875.29308	11081.425
1878.43152	11099.325
1881.56792	11058.225
1884.70227	11076.225
1887.83457	11052.325
1890.96482	11063.525
1894.09304	11034.525
1897.21921	11020.825
1900.34335	11039.025
1903.46544	11008.825
1906.58551	11014.625
1909.70353	10995.425
1912.81953	10987.825
1915.93349	10984.825
1919.04543	10945.625
1922.15534	10924.225
1925.26322	10917.725
1928.36908	10892.625
1931.47292	10876.025
1934.57473	10859.225
1937.67453	10830.025
1940.77232	10815.025
1943.86808	10764.325
1946.96184	10745.225
1950.05358	10723.325
1953.14331	10698.225
1956.23103	10688.625
1959.31675	10672.125
1962.40046	10603.825
1965.48217	10597.425
1968.56188	10568.525
1971.63959	10540.825
1974.7153	10523.925
1977.78901	10488.425
1980.86073	10470.825
1983.93046	10441.325
1986.99819	10387.125
1990.06394	10404.225
1993.1277	10354.025
1996.18947	10334.925
1999.24925	10324.825
2002.30706	10243.325
2005.36288	10215.425
2008.41672	10196.825
2011.46859	10172.525
2014.51848	10155.525
2017.56639	10156.825
2020.61233	10136.625
2023.6563	10131.325
2026.6983	10070.625
2029.73833	10069.425
2032.7764	10031.025
2035.8125	9995.925
2038.84664	10018.325
2041.87881	10009.425
2044.90903	9997.625
2047.93729	9985.425
2050.96359	9970.625
2053.98794	9968.425
2057.01034	9972.525
2060.03078	9984.425
2063.04927	9965.025
2066.06582	9942.125
2069.08042	9922.225
2072.09307	9925.725
2075.10378	9911.125
2078.11255	9908.825
2081.11938	9901.125
2084.12426	9891.125
2087.12722	9933.125
2090.12824	9916.825
2093.12732	9903.325
2096.12447	9927.325
2099.11969	9900.925
2102.11299	9919.325
2105.10435	9937.225
2108.09379	9947.625
2111.08131	9936.625
2114.0669	9938.025
2117.05057	9958.025
2120.03233	9979.425
2123.01216	10016.825
2125.99008	9992.125
2128.96609	10010.425
2131.94018	10016.825
2134.91236	10030.725
2137.88263	10031.825
2140.851	10055.425
2143.81746	10036.025
2146.78201	10054.425
2149.74466	10059.625
2152.7054	10047.625
2155.66425	10042.325
2158.6212	10060.025
2161.57625	10053.425
2164.52941	10049.425
2167.48067	10018.525
2170.43004	10031.825
2173.37752	10048.525
2176.32311	10026.225
2179.26681	10061.525
2182.20863	10048.025
2185.14856	10067.325
2188.08661	10085.825
2191.02278	10078.425
2193.95707	10086.525
2196.88948	10072.825
2199.82001	10071.725
2202.74867	10050.225
2205.67545	10064.125
2208.60037	10041.925
2211.52341	10020.425
2214.44458	10015.025
2217.36388	9996.325
2220.28132	9986.725
2223.1969	9959.925
2226.11061	9956.225
2229.02246	9930.725
2231.93245	9960.225
2234.84058	9928.625
2237.74686	9919.325
2240.65128	9930.425
2243.55385	9923.725
2246.45456	9931.425
2249.35343	9905.325
2252.25044	9878.625
2255.14561	9871.525
2258.03893	9883.725
2260.93041	9842.625
2263.82004	9843.325
2266.70783	9821.825
2269.59378	9790.325
2272.4779	9750.325
2275.36017	9735.525
2278.24061	9745.425
2281.11922	9727.525
2283.996	9703.525
2286.87094	9711.625
2289.74405	9702.725
2292.61534	9683.725
2295.4848	9711.625
2298.35243	9690.825
2301.21824	9726.125
2304.08223	9725.225
2306.94439	9707.425
2309.80474	9717.025
2312.66327	9725.325
2315.51999	9690.925
2318.37489	9662.325
2321.22797	9670.725
2324.07925	9687.725
2326.92871	9672.125
2329.77637	9677.325
2332.62222	9640.125
2335.46626	9653.025
2338.3085	9620.925
2341.14893	9644.625
2343.98756	9657.925
2346.8244	9638.625
2349.65943	9662.525
2352.49267	9653.225
2355.32411	9649.025
2358.15376	9647.925
2360.98161	9641.425
2363.80768	9637.025
2366.63195	9624.225
2369.45444	9600.625
2372.27514	9617.825
2375.09405	9608.825
2377.91118	9590.625
2380.72652	9572.425
2383.54009	9538.125
2386.35187	9520.425
2389.16188	9510.625
2391.97011	9508.725
2394.77657	9475.625
2397.58125	9488.025
2400.38416	9485.825
2403.18529	9453.225
2405.98466	9463.025
2408.78226	9432.225
2411.57809	9413.325
2414.37216	9387.225
2417.16446	9394.325
2419.955	9392.125
2422.74378	9409.425
2425.5308	9388.225
2428.31606	9399.525
2431.09956	9399.125
2433.88131	9393.525
2436.6613	9377.625
2439.43954	9371.325
2442.21603	9383.825
2444.99077	9375.125
2447.76377	9402.725
2450.53501	9391.925
2453.30451	9408.025
2456.07226	9396.925
2458.83827	9393.725
2461.60254	9405.125
2464.36507	9384.225
2467.12586	9393.425
2469.88492	9397.325
2472.64224	9414.925
2475.39782	9393.525
2478.15167	9380.225
2480.90379	9406.525
2483.65417	9413.425
2486.40283	9411.625
2489.14976	9423.625
2491.89497	9426.825
2494.63845	9423.925
2497.3802	9422.925
2500.12024	9423.525
2502.85855	9419.725
2505.59514	9395.425
2508.33002	9380.725
2511.06318	9390.225
2513.79462	9364.225
2516.52435	9378.525
2519.25237	9352.825
2521.97867	9314.425
2524.70327	9361.025
2527.42616	9327.725
2530.14734	9335.125
2532.86681	9319.425
2535.58458	9347.725
2538.30065	9310.725
2541.01501	9323.725
2543.72768	9329.525
2546.43864	9317.225
2549.14791	9306.725
2551.85548	9297.625
2554.56136	9293.825
2557.26554	9274.525
2559.96803	9284.725
2562.66883	9297.925
2565.36794	9292.525
2568.06536	9290.525
2570.7611	9255.025
2573.45514	9256.425
2576.14751	9267.125
2578.83819	9240.625
2581.52719	9229.025
2584.21451	9220.425
2586.90015	9229.225
2589.58411	9196.625
2592.2664	9181.625
2594.94701	9212.125
2597.62594	9199.825
2600.30321	9185.325
2602.9788	9189.625
2605.65273	9198.425
2608.32498	9177.025
2610.99557	9182.325
2613.66449	9188.025
2616.33175	9176.825
2618.99734	9208.325
2621.66128	9161.825
2624.32355	9180.925
2626.98416	9165.425
2629.64311	9152.525
2632.30041	9138.325
2634.95605	9115.325
2637.61004	9126.325
2640.26238	9091.925
2642.91306	9097.225
2645.56209	9102.925
2648.20948	9092.925
2650.85521	9104.525
2653.4993	9108.825
2656.14175	9089.425
2658.78255	9132.425
2661.42171	9115.925
2664.05923	9156.525
2666.6951	9170.625
2669.32934	9185.025
2671.96194	9176.425
2674.59291	9175.625
2677.22224	9157.925
2679.84993	9165.025
2682.476	9142.125
2685.10043	9120.425
2687.72324	9131.725
2690.34441	9134.725
2692.96396	9143.425
2695.58188	9146.125
2698.19818	9139.625
2700.81285	9137.925
2703.4259	9085.325
2706.03733	9048.625
2708.64714	9096.725
2711.25533	9138.125
2713.86191	9141.225
2716.46687	9172.825
2719.07021	9161.925
2721.67194	9186.125
2724.27206	9170.225
2726.87057	9191.625
2729.46747	9203.025
2732.06276	9221.125
2734.65644	9211.525
2737.24852	9205.625
2739.83899	9220.425
2742.42786	9220.125
2745.01513	9203.225
2747.60079	9190.725
2750.18486	9191.825
2752.76733	9191.025
2755.3482	9172.025
2757.92747	9169.525
2760.50515	9153.225
2763.08123	9155.125
2765.65573	9150.825
2768.22863	9136.225
2770.79994	9132.725
2773.36967	9112.625
2775.9378	9106.825
2778.50435	9108.125
2781.06932	9101.525
2783.6327	9131.725
2786.1945	9122.725
2788.75471	9130.825
2791.31335	9069.625
2793.87041	9090.225
2796.42589	9080.825
2798.97979	9071.125
2801.53212	9075.025
2804.08288	9036.525
2806.63206	9064.525
2809.17967	9029.725
2811.72571	9009.325
2814.27018	8982.525
2816.81308	9003.225
2819.35442	8986.925
2821.89419	8974.825
2824.43239	8967.125
2826.96904	8957.225
2829.50412	8996.925
2832.03763	8963.225
2834.56959	8989.225
2837.1	8980.525
2839.62884	8976.225
2842.15613	8951.025
2844.68186	8967.025
2847.20604	8980.525
2849.72867	8998.125
2852.24974	8976.525
2854.76927	8959.325
2857.28724	8959.825
2859.80367	8956.525
2862.31855	8939.525
2864.83189	8931.525
2867.34368	8953.725
2869.85393	8966.625
2872.36264	8956.025
2874.8698	8973.425
2877.37543	8955.225
2879.87952	8973.525
2882.38207	8987.525
2884.88308	8981.325
2887.38256	8986.325
2889.88051	8984.725
2892.37692	9001.425
2894.8718	8996.825
2897.36515	8992.025
2899.85698	9010.325
2902.34727	9032.925
2904.83604	9052.825
2907.32328	9058.025
2909.809	9059.725
2912.29319	9078.025
2914.77587	9059.725
2917.25702	9063.325
2919.73665	9083.225
2922.21476	9047.925
2924.69136	9045.825
2927.16644	9054.225
2929.64	9051.225
2932.11205	9028.525
2934.58258	8998.625
2937.05161	9034.625
2939.51912	9007.625
2941.98513	9037.725
2944.44962	8990.725
2946.91261	8977.925
2949.37409	8994.925
2951.83407	8974.725
2954.29254	8962.025
2956.74951	8946.825
2959.20498	8955.725
2961.65895	8924.325
2964.11142	8927.925
2966.56239	8904.025
2969.01186	8922.125
2971.45984	8901.825
2973.90632	8862.825
2976.35131	8871.725
2978.7948	8844.225
2981.23681	8842.425
2983.67732	8829.725
2986.11635	8805.225
2988.55388	8776.225
2990.98993	8773.325
2993.4245	8757.025
2995.85758	8742.125
2998.28917	8723.525
3000.71928	8732.325
3003.14791	8699.825
3005.57506	8731.325
3008.00073	8663.925
3010.42493	8682.425
3012.84764	8679.525
3015.26888	8679.425
3017.68865	8655.025
3020.10694	8658.325
3022.52376	8643.025
3024.9391	8620.625
3027.35298	8613.325
3029.76539	8615.825
3032.17632	8583.025
3034.5858	8590.525
3036.9938	8564.425
3039.40034	8583.125
3041.80542	8583.025
3044.20903	8545.425
3046.61118	8567.825
3049.01187	8550.825
3051.4111	8542.025
3053.80888	8535.325
3056.20519	8510.125
3058.60005	8504.625
3060.99345	8508.725
3063.3854	8479.325
3065.7759	8510.025
3068.16494	8462.025
3070.55254	8420.225
3072.93868	8404.825
3075.32338	8369.625
3077.70662	8374.425
3080.08842	8380.325
3082.46878	8363.225
3084.84769	8349.225
3087.22515	8361.725
3089.60118	8351.425
3091.97576	8359.225
3094.3489	8338.025
3096.72061	8363.925
3099.09087	8364.825
3101.4597	8366.925
3103.82709	8335.925
3106.19305	8351.225
3108.55757	8358.825
3110.92066	8318.725
3113.28232	8324.025
3115.64255	8290.325
3118.00134	8286.725
3120.35871	8317.225
3122.71466	8289.625
3125.06917	8286.825
3127.42226	8275.725
3129.77393	8260.325
3132.12417	8268.025
3134.47299	8244.825
3136.82039	8259.925
3139.16636	8263.525
3141.51092	8250.625
3143.85406	8265.525
3146.19579	8289.425
3148.53609	8281.925
3150.87499	8296.425
3153.21246	8290.225
3155.54853	8334.225
3157.88318	8322.725
3160.21642	8328.625
3162.54826	8328.925
3164.87868	8328.025
3167.2077	8305.325
3169.5353	8342.625
3171.86151	8321.425
3174.18631	8349.425
