Data from AgNPs_FTO_APTES_UA_50uM_CRN_5uM_R6G_10uM_NaF_0.1M_Addition_RamanShift__15__12-50-04-827.txt Node

Date: Mon Feb 21 12:50:04 GMT 2022
User: TCL
Spectrometer: QEP01345
Trigger mode: 4
Integration Time (sec): 7.000000E0
Scans to average: 10
Electric dark correction enabled: true
Nonlinearity correction enabled: false
Boxcar width: 0
XAxis mode: Raman Shifts
Number of Pixels in Spectrum: 1044
>>>>>Begin Spectral Data<<<<<
46.04893	0.925
50.45542	0.225
54.85868	0.125
59.25871	-0.875
63.6555	45.425
68.04907	52.025
72.43941	53.625
76.82654	57.125
81.21044	61.225
85.59113	59.325
89.96862	64.325
94.34289	67.825
98.71396	67.825
103.08183	75.925
107.4465	73.725
111.80798	70.525
116.16626	72.425
120.52136	76.825
124.87327	81.425
129.222	78.325
133.56755	84.225
137.90993	92.925
142.24913	98.125
146.58517	107.325
150.91804	122.825
155.24774	144.825
159.57429	173.525
163.89768	220.125
168.21792	290.125
172.53501	390.525
176.84895	539.825
181.15975	755.825
185.46741	1060.325
189.77193	1462.025
194.07331	1954.425
198.37157	2534.325
202.6667	3113.325
206.9587	3727.325
211.24758	4316.725
215.53334	4910.125
219.81599	5553.725
224.09553	6278.625
228.37195	7055.725
232.64527	7947.125
236.91549	8826.725
241.18261	9687.825
245.44663	10485.825
249.70755	11156.525
253.96539	11715.025
258.22014	12157.025
262.4718	12478.925
266.72039	12720.425
270.96589	12780.425
275.20832	12717.925
279.44768	12546.925
283.68397	12302.525
287.91719	12103.725
292.14735	11973.025
296.37445	11940.525
300.59849	11985.425
304.81948	12100.125
309.03742	12113.525
313.25231	11988.325
317.46415	11683.025
321.67296	11277.025
325.87872	10931.425
330.08145	10763.325
334.28114	10730.525
338.47781	10832.625
342.67145	10980.925
346.86207	11209.425
351.04966	11483.025
355.23424	11796.625
359.4158	12098.225
363.59435	12285.625
367.76989	12419.225
371.94243	12464.925
376.11196	12482.425
380.27849	12506.425
384.44203	12529.625
388.60257	12555.425
392.76012	12625.025
396.91468	12722.025
401.06626	12872.025
405.21485	12990.425
409.36047	12886.725
413.50311	12587.325
417.64277	12312.325
421.77947	12177.925
425.9132	12176.125
430.04396	12187.625
434.17176	12260.325
438.2966	12352.625
442.41849	12566.525
446.53742	12897.525
450.6534	13202.825
454.76644	13391.725
458.87653	13500.825
462.98368	13492.225
467.08789	13445.525
471.18916	13270.925
475.2875	13156.625
479.38291	13015.925
483.4754	12897.125
487.56496	12827.825
491.6516	12694.125
495.73531	12553.425
499.81612	12514.925
503.89401	12613.225
507.96899	12647.225
512.04106	12638.925
516.11023	12654.825
520.1765	12592.925
524.23987	12509.825
528.30034	12433.125
532.35792	12332.125
536.41261	12216.025
540.46441	12068.525
544.51333	12028.825
548.55936	12099.525
552.60252	12341.625
556.64279	12591.325
560.6802	12781.825
564.71473	12931.325
568.7464	13237.125
572.7752	13594.725
576.80114	13790.725
580.82422	13856.925
584.84444	13986.025
588.86181	14199.725
592.87633	14391.625
596.888	14403.725
600.89682	14274.525
604.9028	14730.325
608.90594	16441.825
612.90624	18387.125
616.90371	17319.625
620.89834	14119.625
624.89015	12646.625
628.87913	12403.925
632.86528	12538.025
636.84862	12693.025
640.82913	12530.525
644.80683	12203.525
648.78172	11919.725
652.75379	11898.625
656.72306	12110.825
660.68952	12399.325
664.65319	12364.825
668.61405	12096.725
672.57211	12085.025
676.52738	12174.725
680.47986	12259.725
684.42955	12265.425
688.37646	12308.525
692.32058	12325.625
696.26192	12366.425
700.20048	12411.725
704.13626	12411.625
708.06928	12333.125
711.99952	12231.325
715.927	12187.725
719.85171	12173.025
723.77365	12171.025
727.69284	12012.425
731.60928	11862.425
735.52295	11802.925
739.43388	11814.325
743.34206	11834.725
747.24749	11931.625
751.15017	12017.525
755.05012	12171.225
758.94733	12531.525
762.8418	13234.525
766.73354	14460.125
770.62254	15695.725
774.50882	16198.925
778.39237	15620.225
782.27321	14430.725
786.15132	13293.025
790.02671	12560.125
793.89938	12180.525
797.76935	11993.925
801.6366	11871.825
805.50115	11799.925
809.36299	11702.925
813.22213	11634.925
817.07857	11586.725
820.93231	11560.925
824.78336	11506.025
828.63172	11504.825
832.47738	11468.025
836.32036	11463.025
840.16066	11421.725
843.99827	11411.525
847.8332	11386.925
851.66546	11424.725
855.49504	11388.825
859.32195	11434.125
863.1462	11421.125
866.96777	11406.725
870.78668	11387.425
874.60293	11405.525
878.41652	11432.525
882.22745	11500.825
886.03573	11549.325
889.84136	11595.125
893.64433	11557.625
897.44466	11538.325
901.24235	11537.725
905.0374	11472.725
908.8298	11395.925
912.61957	11380.225
916.40671	11409.325
920.19121	11503.625
923.97308	11565.025
927.75233	11618.825
931.52895	11602.925
935.30295	11490.125
939.07433	11257.025
942.84309	11090.325
946.60924	10965.225
950.37278	10914.025
954.13371	10921.525
957.89203	10911.325
961.64774	10895.825
965.40086	10872.125
969.15137	10856.125
972.89929	10824.725
976.64461	10801.425
980.38733	10794.525
984.12747	10788.925
987.86502	10836.025
991.59999	10895.125
995.33237	10976.325
999.06217	11128.825
1002.78939	11310.925
1006.51404	11563.025
1010.23611	11759.525
1013.95561	11900.625
1017.67255	11954.625
1021.38692	11843.025
1025.09872	11653.825
1028.80796	11496.225
1032.51465	11443.425
1036.21877	11424.025
1039.92035	11457.025
1043.61937	11520.625
1047.31584	11542.725
1051.00976	11567.825
1054.70114	11581.325
1058.38998	11640.725
1062.07627	11690.525
1065.76003	11798.225
1069.44126	11924.225
1073.11995	12149.925
1076.79611	12350.825
1080.46974	12491.225
1084.14085	12608.525
1087.80943	12767.025
1091.47549	12890.625
1095.13903	12934.325
1098.80005	12749.425
1102.45857	12487.225
1106.11456	12292.825
1109.76805	12164.325
1113.41903	12190.725
1117.06751	12324.625
1120.71348	12526.725
1124.35696	12707.925
1127.99793	12968.125
1131.63641	13095.225
1135.2724	12970.725
1138.90589	12809.025
1142.5369	12695.325
1146.16542	12642.625
1149.79145	12645.725
1153.415	12690.525
1157.03607	12817.425
1160.65467	13032.025
1164.27079	13475.025
1167.88443	14131.425
1171.49561	15007.725
1175.10432	16192.125
1178.71056	17664.625
1182.31434	19048.225
1185.91565	19727.625
1189.51451	19693.825
1193.11091	19203.625
1196.70485	18423.925
1200.29634	17567.625
1203.88538	16806.925
1207.47197	16086.125
1211.05612	15573.925
1214.63782	15158.825
1218.21708	14902.425
1221.79391	14758.225
1225.36829	14737.425
1228.94024	14647.125
1232.50976	14485.725
1236.07685	14290.125
1239.6415	14125.325
1243.20374	14078.125
1246.76355	14084.725
1250.32093	14191.725
1253.8759	14436.625
1257.42845	14795.725
1260.97859	15265.225
1264.52631	15814.725
1268.07163	16284.725
1271.61453	16761.925
1275.15503	17172.325
1278.69312	17546.125
1282.22882	17899.425
1285.76211	18373.025
1289.29301	18938.125
1292.82151	19673.725
1296.34761	20526.325
1299.87133	21538.225
1303.39266	22697.125
1306.9116	24028.725
1310.42815	25345.925
1313.94233	26041.725
1317.45412	25848.825
1320.96354	25242.925
1324.47058	24503.725
1327.97525	23789.125
1331.47754	23318.525
1334.97747	22976.025
1338.47502	22839.625
1341.97022	22904.725
1345.46305	23032.725
1348.95352	23328.225
1352.44163	23672.025
1355.92738	24402.625
1359.41078	25715.925
1362.89183	27058.725
1366.37053	26780.925
1369.84688	24398.125
1373.32088	21563.125
1376.79254	19660.625
1380.26186	18757.125
1383.72883	18276.725
1387.19347	17976.625
1390.65578	17698.125
1394.11575	17517.325
1397.57339	17495.625
1401.0287	17549.525
1404.48168	17555.025
1407.93234	17424.725
1411.38068	17211.325
1414.82669	16851.725
1418.27039	16369.525
1421.71177	15940.325
1425.15083	15544.225
1428.58758	15333.725
1432.02203	15379.525
1435.45416	15632.125
1438.88399	15925.225
1442.31151	16095.625
1445.73673	16269.925
1449.15965	16449.725
1452.58027	16574.925
1455.9986	16702.325
1459.41463	16841.325
1462.82837	17086.825
1466.23982	17355.625
1469.64898	17546.125
1473.05586	17648.125
1476.46045	17629.225
1479.86276	17599.125
1483.26279	17636.925
1486.66054	17758.525
1490.05602	18028.225
1493.44922	18502.325
1496.84016	19157.425
1500.22882	20105.825
1503.61521	21390.225
1506.99934	22808.525
1510.38121	23907.225
1513.76081	24055.925
1517.13816	23119.425
1520.51324	21596.825
1523.88607	20175.325
1527.25665	19305.525
1530.62498	18760.625
1533.99105	18403.525
1537.35488	18067.425
1540.71647	17665.125
1544.07581	17231.625
1547.4329	16874.225
1550.78776	16606.225
1554.14038	16485.525
1557.49077	16486.725
1560.83892	16636.625
1564.18484	16843.925
1567.52853	17128.625
1570.86999	17419.625
1574.20922	17745.325
1577.54624	17859.525
1580.88103	17628.225
1584.2136	17296.325
1587.54395	17269.925
1590.87208	17747.625
1594.19801	18421.925
1597.52172	19252.025
1600.84321	19404.525
1604.16251	18672.525
1607.47959	17482.525
1610.79447	16274.825
1614.10715	15106.125
1617.41763	14109.925
1620.7259	13428.725
1624.03199	13037.425
1627.33587	13011.725
1630.63757	13330.925
1633.93707	14085.725
1637.23439	15337.825
1640.52951	17107.225
1643.82246	19347.825
1647.11321	21263.625
1650.40179	22071.425
1653.68819	20906.425
1656.97241	18325.225
1660.25446	15667.625
1663.53433	13632.025
1666.81203	12376.825
1670.08756	11617.925
1673.36092	11144.925
1676.63211	10854.425
1679.90115	10635.825
1683.16801	10483.525
1686.43272	10333.725
1689.69527	10200.925
1692.95567	10106.925
1696.2139	9940.425
1699.46999	9817.725
1702.72392	9774.025
1705.97571	9814.525
1709.22535	9859.425
1712.47284	9907.525
1715.71819	9906.625
1718.96139	9889.125
1722.20246	9832.325
1725.44139	9805.225
1728.67818	9725.425
1731.91284	9656.425
1735.14537	9600.925
1738.37576	9536.225
1741.60403	9473.925
1744.83017	9447.925
1748.05418	9403.125
1751.27607	9329.725
1754.49584	9284.725
1757.71349	9205.425
1760.92903	9192.125
1764.14244	9143.925
1767.35375	9155.525
1770.56294	9080.725
1773.77002	9078.425
1776.97499	9119.825
1780.17785	9134.525
1783.37861	9154.325
1786.57727	9173.025
1789.77382	9125.725
1792.96828	9121.725
1796.16064	9120.425
1799.3509	9092.825
1802.53907	9063.925
1805.72514	9048.225
1808.90913	9027.725
1812.09102	9016.925
1815.27083	8988.725
1818.44856	8977.825
1821.6242	8960.325
1824.79776	8973.825
1827.96924	8979.625
1831.13864	8945.025
1834.30597	8969.625
1837.47122	8961.625
1840.6344	8955.225
1843.7955	8963.325
1846.95454	8931.025
1850.11151	8910.325
1853.26642	8927.625
1856.41926	8904.825
1859.57004	8907.025
1862.71876	8888.725
1865.86542	8890.325
1869.01003	8866.525
1872.15258	8852.225
1875.29308	8829.425
1878.43152	8816.125
1881.56792	8810.625
1884.70227	8783.825
1887.83457	8791.825
1890.96482	8788.725
1894.09304	8740.625
1897.21921	8736.425
1900.34335	8745.025
1903.46544	8750.525
1906.58551	8716.125
1909.70353	8704.325
1912.81953	8706.325
1915.93349	8670.325
1919.04543	8649.825
1922.15534	8598.625
1925.26322	8583.225
1928.36908	8571.725
1931.47292	8549.925
1934.57473	8505.325
1937.67453	8496.725
1940.77232	8469.625
1943.86808	8442.825
1946.96184	8434.725
1950.05358	8417.625
1953.14331	8388.425
1956.23103	8345.525
1959.31675	8322.625
1962.40046	8303.325
1965.48217	8265.125
1968.56188	8286.325
1971.63959	8245.425
1974.7153	8193.325
1977.78901	8187.025
1980.86073	8143.025
1983.93046	8128.325
1986.99819	8090.125
1990.06394	8076.425
1993.1277	8037.425
1996.18947	8026.425
1999.24925	7993.825
2002.30706	7964.825
2005.36288	7956.525
2008.41672	7915.625
2011.46859	7895.525
2014.51848	7902.325
2017.56639	7868.825
2020.61233	7842.625
2023.6563	7818.125
2026.6983	7803.025
2029.73833	7785.425
2032.7764	7775.025
2035.8125	7741.425
2038.84664	7731.925
2041.87881	7705.525
2044.90903	7696.025
2047.93729	7680.525
2050.96359	7665.725
2053.98794	7674.725
2057.01034	7684.025
2060.03078	7672.325
2063.04927	7637.225
2066.06582	7650.725
2069.08042	7651.625
2072.09307	7651.225
2075.10378	7655.025
2078.11255	7633.725
2081.11938	7639.125
2084.12426	7620.025
2087.12722	7641.325
2090.12824	7624.725
2093.12732	7630.725
2096.12447	7642.425
2099.11969	7633.025
2102.11299	7642.125
2105.10435	7673.525
2108.09379	7655.225
2111.08131	7654.525
2114.0669	7693.425
2117.05057	7700.125
2120.03233	7684.225
2123.01216	7714.425
2125.99008	7712.025
2128.96609	7722.125
2131.94018	7708.025
2134.91236	7714.125
2137.88263	7696.125
2140.851	7702.525
2143.81746	7686.625
2146.78201	7687.525
2149.74466	7698.325
2152.7054	7657.325
2155.66425	7663.625
2158.6212	7649.325
2161.57625	7645.025
2164.52941	7646.225
2167.48067	7629.425
2170.43004	7626.625
2173.37752	7613.625
2176.32311	7633.525
2179.26681	7618.925
2182.20863	7642.425
2185.14856	7624.425
2188.08661	7620.425
2191.02278	7616.025
2193.95707	7589.725
2196.88948	7586.625
2199.82001	7584.025
2202.74867	7570.625
2205.67545	7569.125
2208.60037	7542.125
2211.52341	7543.625
2214.44458	7520.125
2217.36388	7523.525
2220.28132	7495.125
2223.1969	7484.325
2226.11061	7474.925
2229.02246	7467.825
2231.93245	7440.625
2234.84058	7431.725
2237.74686	7416.425
2240.65128	7399.825
2243.55385	7385.425
2246.45456	7385.625
2249.35343	7407.725
2252.25044	7358.025
2255.14561	7350.525
2258.03893	7354.525
2260.93041	7324.925
2263.82004	7328.125
2266.70783	7320.825
2269.59378	7276.725
2272.4779	7254.925
2275.36017	7259.525
2278.24061	7260.325
2281.11922	7225.525
2283.996	7227.125
2286.87094	7187.325
2289.74405	7179.125
2292.61534	7177.425
2295.4848	7154.225
2298.35243	7170.125
2301.21824	7151.225
2304.08223	7142.325
2306.94439	7122.225
2309.80474	7137.725
2312.66327	7140.525
2315.51999	7107.425
2318.37489	7124.425
2321.22797	7110.225
2324.07925	7093.525
2326.92871	7082.225
2329.77637	7080.225
2332.62222	7046.125
2335.46626	7039.725
2338.3085	7028.125
2341.14893	7029.425
2343.98756	7049.525
2346.8244	7026.625
2349.65943	7029.225
2352.49267	7031.025
2355.32411	7062.525
2358.15376	7054.225
2360.98161	7018.125
2363.80768	7010.025
2366.63195	7031.025
2369.45444	7021.625
2372.27514	7013.825
2375.09405	7006.825
2377.91118	7004.325
2380.72652	6986.125
2383.54009	6950.625
2386.35187	6967.325
2389.16188	6927.025
2391.97011	6939.225
2394.77657	6904.125
2397.58125	6889.925
2400.38416	6866.225
2403.18529	6869.425
2405.98466	6851.825
2408.78226	6868.025
2411.57809	6844.725
2414.37216	6835.125
2417.16446	6829.925
2419.955	6798.325
2422.74378	6810.425
2425.5308	6802.025
2428.31606	6796.525
2431.09956	6807.525
2433.88131	6790.225
2436.6613	6781.925
2439.43954	6796.925
2442.21603	6769.925
2444.99077	6790.725
2447.76377	6773.225
2450.53501	6784.125
2453.30451	6771.625
2456.07226	6765.725
2458.83827	6759.225
2461.60254	6757.525
2464.36507	6744.925
2467.12586	6767.125
2469.88492	6749.225
2472.64224	6743.825
2475.39782	6725.225
2478.15167	6715.225
2480.90379	6711.925
2483.65417	6718.825
2486.40283	6727.125
2489.14976	6744.225
2491.89497	6748.525
2494.63845	6745.025
2497.3802	6718.625
2500.12024	6720.325
2502.85855	6712.925
2505.59514	6695.925
2508.33002	6693.025
2511.06318	6674.425
2513.79462	6683.825
2516.52435	6672.125
2519.25237	6655.425
2521.97867	6634.925
2524.70327	6639.425
2527.42616	6613.725
2530.14734	6624.625
2532.86681	6616.425
2535.58458	6596.125
2538.30065	6597.625
2541.01501	6591.025
2543.72768	6585.725
2546.43864	6572.825
2549.14791	6572.425
2551.85548	6590.325
2554.56136	6561.425
2557.26554	6540.025
2559.96803	6536.725
2562.66883	6546.625
2565.36794	6526.925
2568.06536	6529.525
2570.7611	6522.625
2573.45514	6499.625
2576.14751	6501.925
2578.83819	6492.525
2581.52719	6466.925
2584.21451	6462.325
2586.90015	6451.925
2589.58411	6454.125
2592.2664	6437.125
2594.94701	6440.825
2597.62594	6443.725
2600.30321	6442.125
2602.9788	6415.525
2605.65273	6409.825
2608.32498	6418.625
2610.99557	6403.525
2613.66449	6404.025
2616.33175	6404.725
2618.99734	6401.525
2621.66128	6393.725
2624.32355	6399.625
2626.98416	6367.225
2629.64311	6355.625
2632.30041	6347.925
2634.95605	6340.725
2637.61004	6327.025
2640.26238	6330.325
2642.91306	6335.425
2645.56209	6316.225
2648.20948	6311.025
2650.85521	6317.325
2653.4993	6311.825
2656.14175	6306.225
2658.78255	6338.225
2661.42171	6342.225
2664.05923	6347.925
2666.6951	6374.725
2669.32934	6360.425
2671.96194	6325.725
2674.59291	6343.725
2677.22224	6365.925
2679.84993	6347.825
2682.476	6338.125
2685.10043	6341.225
2687.72324	6332.725
2690.34441	6335.425
2692.96396	6323.225
2695.58188	6334.325
2698.19818	6319.125
2700.81285	6318.225
2703.4259	6312.725
2706.03733	6227.125
2708.64714	6274.725
2711.25533	6303.925
2713.86191	6302.825
2716.46687	6316.325
2719.07021	6335.125
2721.67194	6331.125
2724.27206	6338.425
2726.87057	6347.025
2729.46747	6354.825
2732.06276	6358.125
2734.65644	6341.225
2737.24852	6332.125
2739.83899	6324.025
2742.42786	6344.525
2745.01513	6311.625
2747.60079	6334.925
2750.18486	6312.925
2752.76733	6276.825
2755.3482	6286.925
2757.92747	6276.725
2760.50515	6267.125
2763.08123	6288.525
2765.65573	6278.125
2768.22863	6279.725
2770.79994	6252.725
2773.36967	6273.525
2775.9378	6244.625
2778.50435	6247.325
2781.06932	6231.225
2783.6327	6252.925
2786.1945	6252.625
2788.75471	6219.625
2791.31335	6235.725
2793.87041	6221.825
2796.42589	6171.925
2798.97979	6178.925
2801.53212	6171.425
2804.08288	6174.425
2806.63206	6182.725
2809.17967	6133.925
2811.72571	6136.725
2814.27018	6117.325
2816.81308	6111.225
2819.35442	6117.525
2821.89419	6096.925
2824.43239	6089.225
2826.96904	6116.125
2829.50412	6097.925
2832.03763	6075.925
2834.56959	6083.325
2837.1	6064.325
2839.62884	6066.425
2842.15613	6060.025
2844.68186	6076.825
2847.20604	6073.025
2849.72867	6076.025
2852.24974	6066.825
2854.76927	6075.825
2857.28724	6051.125
2859.80367	6056.425
2862.31855	6070.225
2864.83189	6047.425
2867.34368	6066.125
2869.85393	6087.725
2872.36264	6080.225
2874.8698	6080.025
2877.37543	6074.525
2879.87952	6093.925
2882.38207	6093.225
2884.88308	6067.325
2887.38256	6084.225
2889.88051	6094.725
2892.37692	6080.725
2894.8718	6105.225
2897.36515	6117.725
2899.85698	6114.425
2902.34727	6122.325
2904.83604	6120.225
2907.32328	6129.525
2909.809	6127.825
2912.29319	6133.825
2914.77587	6125.825
2917.25702	6120.625
2919.73665	6127.325
2922.21476	6122.625
2924.69136	6139.725
2927.16644	6102.325
2929.64	6106.825
2932.11205	6102.725
2934.58258	6082.225
2937.05161	6043.325
2939.51912	6060.425
2941.98513	6059.725
2944.44962	6043.825
2946.91261	6016.825
2949.37409	6032.625
2951.83407	6009.025
2954.29254	5993.825
2956.74951	6004.925
2959.20498	6000.525
2961.65895	5985.625
2964.11142	5978.825
2966.56239	5965.725
2969.01186	5968.725
2971.45984	5933.625
2973.90632	5924.525
2976.35131	5924.125
2978.7948	5917.625
2981.23681	5886.325
2983.67732	5885.325
2986.11635	5849.525
2988.55388	5843.725
2990.98993	5846.225
2993.4245	5839.725
2995.85758	5821.925
2998.28917	5805.525
3000.71928	5803.325
3003.14791	5783.625
3005.57506	5778.825
3008.00073	5760.625
3010.42493	5743.325
3012.84764	5743.025
3015.26888	5753.525
3017.68865	5742.325
3020.10694	5744.325
3022.52376	5708.925
3024.9391	5713.625
3027.35298	5712.325
3029.76539	5702.525
3032.17632	5695.025
3034.5858	5704.725
3036.9938	5689.725
3039.40034	5674.325
3041.80542	5646.825
3044.20903	5661.425
3046.61118	5653.125
3049.01187	5643.225
3051.4111	5645.925
3053.80888	5636.125
3056.20519	5618.825
3058.60005	5613.325
3060.99345	5597.425
3063.3854	5580.625
3065.7759	5591.525
3068.16494	5573.625
3070.55254	5551.025
3072.93868	5538.125
3075.32338	5531.225
3077.70662	5516.825
3080.08842	5494.625
3082.46878	5495.125
3084.84769	5494.725
3087.22515	5498.525
3089.60118	5495.825
3091.97576	5491.725
3094.3489	5499.125
3096.72061	5482.325
3099.09087	5502.325
3101.4597	5511.025
3103.82709	5503.025
3106.19305	5491.025
3108.55757	5499.825
3110.92066	5492.925
3113.28232	5475.625
3115.64255	5479.025
3118.00134	5454.625
3120.35871	5471.425
3122.71466	5447.325
3125.06917	5442.325
3127.42226	5434.525
3129.77393	5435.125
3132.12417	5428.525
3134.47299	5449.025
3136.82039	5432.525
3139.16636	5435.425
3141.51092	5436.625
3143.85406	5436.525
3146.19579	5440.925
3148.53609	5447.025
3150.87499	5439.925
3153.21246	5475.125
3155.54853	5463.325
3157.88318	5466.125
3160.21642	5471.125
3162.54826	5484.125
3164.87868	5485.825
3167.2077	5489.625
3169.5353	5502.925
3171.86151	5485.925
3174.18631	5498.225
3176.5097	5504.225
3178.83169	5482.825
3181.15228	5497.925
3183.47147	5468.125
3185.78926	5451.425
3188.10565	5469.125
3190.42065	5484.425
