Data from AgNPs_FTO_APTES_UA_50uM_CRN_5uM_R6G_10uM_NaF_0.1M_Addition_RamanShift__4__12-37-14-810.txt Node

Date: Mon Feb 21 12:37:14 GMT 2022
User: TCL
Spectrometer: QEP01345
Trigger mode: 4
Integration Time (sec): 7.000000E0
Scans to average: 10
Electric dark correction enabled: true
Nonlinearity correction enabled: false
Boxcar width: 0
XAxis mode: Raman Shifts
Number of Pixels in Spectrum: 1044
>>>>>Begin Spectral Data<<<<<
46.04893	0.325
50.45542	-0.275
54.85868	-1.175
59.25871	-0.475
63.6555	48.425
68.04907	55.525
72.43941	55.425
76.82654	58.125
81.21044	64.025
85.59113	66.125
89.96862	69.025
94.34289	69.825
98.71396	69.925
103.08183	76.125
107.4465	75.825
111.80798	75.625
116.16626	75.425
120.52136	77.525
124.87327	84.025
129.222	80.525
133.56755	86.925
137.90993	91.225
142.24913	98.725
146.58517	107.625
150.91804	121.825
155.24774	142.025
159.57429	172.225
163.89768	215.625
168.21792	280.825
172.53501	376.225
176.84895	523.425
181.15975	722.925
185.46741	1007.125
189.77193	1390.025
194.07331	1853.425
198.37157	2387.025
202.6667	2941.925
206.9587	3498.225
211.24758	4048.425
215.53334	4606.825
219.81599	5224.125
224.09553	5923.025
228.37195	6671.125
232.64527	7535.225
236.91549	8368.925
241.18261	9203.225
245.44663	9936.125
249.70755	10550.125
253.96539	11037.925
258.22014	11486.825
262.4718	11815.025
266.72039	12015.025
270.96589	12063.425
275.20832	11973.825
279.44768	11797.125
283.68397	11560.325
287.91719	11383.025
292.14735	11270.525
296.37445	11259.525
300.59849	11397.925
304.81948	11564.025
309.03742	11680.825
313.25231	11658.725
317.46415	11501.325
321.67296	11219.025
325.87872	10989.125
330.08145	10907.225
334.28114	10882.125
338.47781	10936.325
342.67145	11079.625
346.86207	11281.925
351.04966	11576.725
355.23424	11885.125
359.4158	12150.625
363.59435	12346.925
367.76989	12431.125
371.94243	12476.025
376.11196	12499.825
380.27849	12527.725
384.44203	12592.225
388.60257	12612.325
392.76012	12667.425
396.91468	12768.125
401.06626	12940.525
405.21485	13070.525
409.36047	12977.525
413.50311	12716.625
417.64277	12483.725
421.77947	12388.425
425.9132	12411.325
430.04396	12431.725
434.17176	12495.925
438.2966	12670.625
442.41849	13008.725
446.53742	13513.025
450.6534	13969.125
454.76644	14213.325
458.87653	14229.725
462.98368	14047.225
467.08789	13809.125
471.18916	13513.525
475.2875	13195.625
479.38291	12907.625
483.4754	12726.325
487.56496	12579.325
491.6516	12523.325
495.73531	12451.425
499.81612	12481.425
503.89401	12609.125
507.96899	12622.425
512.04106	12579.725
516.11023	12570.625
520.1765	12550.325
524.23987	12547.225
528.30034	12565.925
532.35792	12501.025
536.41261	12348.425
540.46441	12108.225
544.51333	11987.325
548.55936	12063.625
552.60252	12289.925
556.64279	12617.125
560.6802	12863.725
564.71473	12902.025
568.7464	13038.925
572.7752	13276.225
576.80114	13451.025
580.82422	13664.225
584.84444	14164.925
588.86181	15052.025
592.87633	16088.825
596.888	16604.025
600.89682	16074.825
604.9028	15878.725
608.90594	17364.225
612.90624	19346.725
616.90371	18163.925
620.89834	14676.825
624.89015	13121.025
628.87913	12891.525
632.86528	12969.425
636.84862	12956.125
640.82913	12678.725
644.80683	12275.525
648.78172	11998.825
652.75379	12007.025
656.72306	12223.225
660.68952	12539.525
664.65319	12472.525
668.61405	12134.025
672.57211	12107.725
676.52738	12214.625
680.47986	12239.925
684.42955	12138.125
688.37646	12095.025
692.32058	12176.725
696.26192	12363.725
700.20048	12517.225
704.13626	12559.425
708.06928	12443.925
711.99952	12320.325
715.927	12341.825
719.85171	12436.125
723.77365	12421.425
727.69284	12261.525
731.60928	12111.725
735.52295	12080.325
739.43388	12126.425
743.34206	12190.425
747.24749	12238.525
751.15017	12303.525
755.05012	12475.925
758.94733	12816.825
762.8418	13579.725
766.73354	14822.525
770.62254	16089.225
774.50882	16558.425
778.39237	15971.725
782.27321	14722.925
786.15132	13582.325
790.02671	12833.625
793.89938	12457.625
797.76935	12278.625
801.6366	12197.225
805.50115	12129.225
809.36299	12084.225
813.22213	12016.025
817.07857	11949.325
820.93231	11852.425
824.78336	11811.525
828.63172	11824.925
832.47738	11833.825
836.32036	11890.925
840.16066	11936.425
843.99827	11986.225
847.8332	11933.025
851.66546	11869.725
855.49504	11863.625
859.32195	11867.725
863.1462	11829.525
866.96777	11794.925
870.78668	11751.725
874.60293	11781.425
878.41652	11811.625
882.22745	11905.825
886.03573	11982.225
889.84136	12006.225
893.64433	11992.225
897.44466	11909.225
901.24235	11854.925
905.0374	11774.725
908.8298	11713.025
912.61957	11716.425
916.40671	11752.125
920.19121	11879.725
923.97308	12062.225
927.75233	12244.625
931.52895	12263.525
935.30295	12066.725
939.07433	11845.725
942.84309	11628.825
946.60924	11561.225
950.37278	11516.125
954.13371	11457.525
957.89203	11408.125
961.64774	11381.425
965.40086	11367.425
969.15137	11399.125
972.89929	11385.725
976.64461	11415.425
980.38733	11437.725
984.12747	11515.025
987.86502	11595.625
991.59999	11760.025
995.33237	11986.725
999.06217	12394.825
1002.78939	12849.825
1006.51404	13196.725
1010.23611	13433.625
1013.95561	13537.525
1017.67255	13549.825
1021.38692	13356.325
1025.09872	13177.425
1028.80796	13200.325
1032.51465	13509.225
1036.21877	13872.325
1039.92035	13977.925
1043.61937	13854.225
1047.31584	13506.725
1051.00976	13146.625
1054.70114	12942.525
1058.38998	12810.025
1062.07627	12795.825
1065.76003	12818.825
1069.44126	12903.025
1073.11995	13139.825
1076.79611	13415.625
1080.46974	13581.725
1084.14085	13802.625
1087.80943	13974.925
1091.47549	14067.425
1095.13903	13968.825
1098.80005	13663.625
1102.45857	13348.725
1106.11456	13166.125
1109.76805	13186.025
1113.41903	13246.125
1117.06751	13400.025
1120.71348	13654.325
1124.35696	13834.825
1127.99793	14132.625
1131.63641	14198.925
1135.2724	14058.425
1138.90589	13886.225
1142.5369	13721.725
1146.16542	13691.025
1149.79145	13688.525
1153.415	13723.025
1157.03607	13797.625
1160.65467	14064.925
1164.27079	14650.825
1167.88443	15426.525
1171.49561	16483.725
1175.10432	17983.825
1178.71056	19943.725
1182.31434	21790.825
1185.91565	22496.225
1189.51451	22101.025
1193.11091	21101.825
1196.70485	19945.925
1200.29634	18901.225
1203.88538	18060.125
1207.47197	17382.725
1211.05612	16841.725
1214.63782	16476.025
1218.21708	16307.425
1221.79391	16394.225
1225.36829	16514.125
1228.94024	16445.725
1232.50976	16044.425
1236.07685	15627.225
1239.6415	15372.325
1243.20374	15331.025
1246.76355	15407.625
1250.32093	15532.225
1253.8759	15877.125
1257.42845	16374.125
1260.97859	16979.125
1264.52631	17615.225
1268.07163	18280.425
1271.61453	18949.025
1275.15503	19606.525
1278.69312	20160.425
1282.22882	20704.925
1285.76211	21311.225
1289.29301	22073.725
1292.82151	23073.525
1296.34761	24222.525
1299.87133	25680.925
1303.39266	27521.325
1306.9116	29616.925
1310.42815	31533.125
1313.94233	32362.225
1317.45412	31707.425
1320.96354	30042.925
1324.47058	28289.825
1327.97525	26720.925
1331.47754	25718.225
1334.97747	25118.525
1338.47502	24740.125
1341.97022	24445.225
1345.46305	24388.625
1348.95352	24694.325
1352.44163	25637.825
1355.92738	27453.825
1359.41078	30073.025
1362.89183	32397.925
1366.37053	32182.825
1369.84688	29050.625
1373.32088	25134.825
1376.79254	22447.325
1380.26186	21282.825
1383.72883	20784.725
1387.19347	20376.025
1390.65578	19843.025
1394.11575	19549.825
1397.57339	19559.025
1401.0287	19723.525
1404.48168	19800.225
1407.93234	19785.425
1411.38068	19622.225
1414.82669	19348.225
1418.27039	18971.425
1421.71177	18509.825
1425.15083	18074.025
1428.58758	17974.725
1432.02203	18207.125
1435.45416	18618.425
1438.88399	18947.125
1442.31151	19105.325
1445.73673	19092.925
1449.15965	19109.325
1452.58027	18996.525
1455.9986	18753.725
1459.41463	18730.325
1462.82837	19019.625
1466.23982	19489.925
1469.64898	20010.525
1473.05586	20346.425
1476.46045	20658.925
1479.86276	20785.925
1483.26279	20888.525
1486.66054	21099.225
1490.05602	21463.825
1493.44922	21887.725
1496.84016	22286.825
1500.22882	22864.525
1503.61521	23725.925
1506.99934	24885.625
1510.38121	25796.225
1513.76081	25863.525
1517.13816	24886.125
1520.51324	23332.125
1523.88607	21978.725
1527.25665	21224.425
1530.62498	20860.825
1533.99105	20632.925
1537.35488	20237.725
1540.71647	19778.325
1544.07581	19248.825
1547.4329	18847.625
1550.78776	18525.625
1554.14038	18309.225
1557.49077	18185.725
1560.83892	18180.925
1564.18484	18297.825
1567.52853	18562.425
1570.86999	18922.825
1574.20922	19214.925
1577.54624	19322.825
1580.88103	19164.825
1584.2136	18974.825
1587.54395	19386.625
1590.87208	20449.425
1594.19801	22045.725
1597.52172	23634.825
1600.84321	24124.625
1604.16251	22984.725
1607.47959	20981.125
1610.79447	18841.425
1614.10715	17056.125
1617.41763	15787.025
1620.7259	15012.725
1624.03199	14731.325
1627.33587	14849.025
1630.63757	15400.825
1633.93707	16447.025
1637.23439	18142.425
1640.52951	20671.625
1643.82246	23797.125
1647.11321	26339.025
1650.40179	26713.525
1653.68819	24476.725
1656.97241	20800.325
1660.25446	17479.325
1663.53433	15203.625
1666.81203	13886.825
1670.08756	13102.525
1673.36092	12625.525
1676.63211	12378.325
1679.90115	12154.025
1683.16801	11992.725
1686.43272	11896.125
1689.69527	11757.525
1692.95567	11632.025
1696.2139	11499.025
1699.46999	11358.825
1702.72392	11258.525
1705.97571	11334.225
1709.22535	11363.025
1712.47284	11416.525
1715.71819	11433.225
1718.96139	11409.925
1722.20246	11375.825
1725.44139	11289.725
1728.67818	11262.025
1731.91284	11187.925
1735.14537	11094.525
1738.37576	11062.625
1741.60403	11019.525
1744.83017	10948.025
1748.05418	10928.925
1751.27607	10854.125
1754.49584	10844.325
1757.71349	10769.425
1760.92903	10708.325
1764.14244	10711.825
1767.35375	10721.225
1770.56294	10707.825
1773.77002	10709.825
1776.97499	10738.125
1780.17785	10755.825
1783.37861	10792.025
1786.57727	10779.125
1789.77382	10758.425
1792.96828	10767.725
1796.16064	10769.125
1799.3509	10749.625
1802.53907	10706.525
1805.72514	10693.225
1808.90913	10668.425
1812.09102	10656.525
1815.27083	10635.225
1818.44856	10646.825
1821.6242	10647.425
1824.79776	10650.825
1827.96924	10625.725
1831.13864	10631.525
1834.30597	10651.125
1837.47122	10644.125
1840.6344	10588.725
1843.7955	10617.025
1846.95454	10611.725
1850.11151	10607.725
1853.26642	10595.225
1856.41926	10611.125
1859.57004	10588.225
1862.71876	10585.925
1865.86542	10574.125
1869.01003	10568.625
1872.15258	10582.425
1875.29308	10570.125
1878.43152	10566.625
1881.56792	10584.225
1884.70227	10564.225
1887.83457	10545.325
1890.96482	10560.625
1894.09304	10565.225
1897.21921	10536.525
1900.34335	10535.725
1903.46544	10534.325
1906.58551	10502.825
1909.70353	10502.225
1912.81953	10472.425
1915.93349	10490.325
1919.04543	10454.625
1922.15534	10438.225
1925.26322	10421.925
1928.36908	10394.225
1931.47292	10394.525
1934.57473	10349.525
1937.67453	10328.925
1940.77232	10284.125
1943.86808	10261.025
1946.96184	10270.725
1950.05358	10233.525
1953.14331	10224.225
1956.23103	10170.625
1959.31675	10162.325
1962.40046	10122.125
1965.48217	10109.525
1968.56188	10107.925
1971.63959	10075.525
1974.7153	10079.025
1977.78901	10028.025
1980.86073	9964.825
1983.93046	9971.325
1986.99819	9931.025
1990.06394	9894.425
1993.1277	9890.325
1996.18947	9835.725
1999.24925	9826.125
2002.30706	9810.425
2005.36288	9773.525
2008.41672	9738.025
2011.46859	9730.925
2014.51848	9711.825
2017.56639	9702.725
2020.61233	9677.625
2023.6563	9657.525
2026.6983	9613.925
2029.73833	9621.525
2032.7764	9602.025
2035.8125	9592.825
2038.84664	9590.825
2041.87881	9578.025
2044.90903	9565.525
2047.93729	9563.025
2050.96359	9557.725
2053.98794	9533.425
2057.01034	9564.125
2060.03078	9502.025
2063.04927	9518.925
2066.06582	9506.225
2069.08042	9525.325
2072.09307	9524.425
2075.10378	9531.525
2078.11255	9514.825
2081.11938	9523.425
2084.12426	9512.025
2087.12722	9512.225
2090.12824	9510.825
2093.12732	9519.225
2096.12447	9502.025
2099.11969	9526.725
2102.11299	9555.425
2105.10435	9512.525
2108.09379	9560.525
2111.08131	9563.725
2114.0669	9532.825
2117.05057	9573.625
2120.03233	9566.125
2123.01216	9600.825
2125.99008	9601.725
2128.96609	9602.825
2131.94018	9611.525
2134.91236	9620.225
2137.88263	9643.625
2140.851	9642.625
2143.81746	9663.125
2146.78201	9640.725
2149.74466	9664.925
2152.7054	9674.225
2155.66425	9653.125
2158.6212	9661.325
2161.57625	9658.525
2164.52941	9666.625
2167.48067	9650.825
2170.43004	9633.225
2173.37752	9615.525
2176.32311	9651.425
2179.26681	9655.425
2182.20863	9666.525
2185.14856	9673.725
2188.08661	9688.225
2191.02278	9691.025
2193.95707	9700.325
2196.88948	9695.725
2199.82001	9716.725
2202.74867	9670.525
2205.67545	9663.825
2208.60037	9689.425
2211.52341	9670.625
2214.44458	9671.025
2217.36388	9640.825
2220.28132	9629.625
2223.1969	9615.325
2226.11061	9618.525
2229.02246	9590.025
2231.93245	9587.325
2234.84058	9579.625
2237.74686	9547.325
2240.65128	9580.425
2243.55385	9555.025
2246.45456	9532.925
2249.35343	9542.125
2252.25044	9519.025
2255.14561	9475.025
2258.03893	9509.725
2260.93041	9477.425
2263.82004	9448.125
2266.70783	9466.225
2269.59378	9430.725
2272.4779	9431.725
2275.36017	9391.625
2278.24061	9402.025
2281.11922	9381.725
2283.996	9383.625
2286.87094	9365.625
2289.74405	9345.725
2292.61534	9340.525
2295.4848	9341.525
2298.35243	9351.625
2301.21824	9341.825
2304.08223	9354.325
2306.94439	9364.725
2309.80474	9378.925
2312.66327	9373.825
2315.51999	9378.325
2318.37489	9393.925
2321.22797	9370.125
2324.07925	9363.025
2326.92871	9359.925
2329.77637	9376.625
2332.62222	9353.625
2335.46626	9324.825
2338.3085	9342.325
2341.14893	9373.325
2343.98756	9357.525
2346.8244	9349.925
2349.65943	9352.525
2352.49267	9332.625
2355.32411	9349.125
2358.15376	9338.725
2360.98161	9351.625
2363.80768	9340.525
2366.63195	9337.225
2369.45444	9325.825
2372.27514	9315.125
2375.09405	9292.525
2377.91118	9300.425
2380.72652	9264.025
2383.54009	9282.525
2386.35187	9279.425
2389.16188	9243.525
2391.97011	9240.225
2394.77657	9225.825
2397.58125	9188.725
2400.38416	9181.025
2403.18529	9174.325
2405.98466	9162.425
2408.78226	9147.825
2411.57809	9106.625
2414.37216	9120.525
2417.16446	9119.025
2419.955	9097.425
2422.74378	9114.125
2425.5308	9095.325
2428.31606	9107.025
2431.09956	9110.725
2433.88131	9101.325
2436.6613	9109.225
2439.43954	9125.525
2442.21603	9119.825
2444.99077	9110.025
2447.76377	9129.425
2450.53501	9104.425
2453.30451	9121.925
2456.07226	9110.425
2458.83827	9110.825
2461.60254	9132.525
2464.36507	9098.125
2467.12586	9099.825
2469.88492	9117.325
2472.64224	9123.425
2475.39782	9120.825
2478.15167	9130.425
2480.90379	9142.325
2483.65417	9163.525
2486.40283	9159.925
2489.14976	9155.725
2491.89497	9184.325
2494.63845	9187.825
2497.3802	9119.525
2500.12024	9171.725
2502.85855	9175.825
2505.59514	9167.125
2508.33002	9154.825
2511.06318	9123.725
2513.79462	9140.125
2516.52435	9157.125
2519.25237	9105.025
2521.97867	9114.425
2524.70327	9090.125
2527.42616	9134.925
2530.14734	9121.725
2532.86681	9089.825
2535.58458	9107.325
2538.30065	9106.525
2541.01501	9114.525
2543.72768	9088.125
2546.43864	9105.325
2549.14791	9082.925
2551.85548	9095.625
2554.56136	9092.525
2557.26554	9070.325
2559.96803	9078.825
2562.66883	9097.525
2565.36794	9079.925
2568.06536	9089.325
2570.7611	9091.425
2573.45514	9066.725
2576.14751	9075.725
2578.83819	9065.125
2581.52719	9037.525
2584.21451	9033.825
2586.90015	9041.525
2589.58411	9031.925
2592.2664	9039.625
2594.94701	9032.625
2597.62594	9025.025
2600.30321	9031.725
2602.9788	9033.125
2605.65273	9034.825
2608.32498	9023.525
2610.99557	9016.625
2613.66449	9020.125
2616.33175	9026.625
2618.99734	9041.625
2621.66128	9034.425
2624.32355	9019.925
2626.98416	8991.225
2629.64311	8999.825
2632.30041	8985.125
2634.95605	8974.125
2637.61004	8949.125
2640.26238	8950.525
2642.91306	8952.425
2645.56209	8918.425
2648.20948	8924.225
2650.85521	8917.825
2653.4993	8926.825
2656.14175	8950.825
2658.78255	8967.325
2661.42171	8996.225
2664.05923	8987.525
2666.6951	9026.825
2669.32934	9022.225
2671.96194	9011.625
2674.59291	9020.025
2677.22224	9016.925
2679.84993	9026.025
2682.476	9028.225
2685.10043	9021.925
2687.72324	8985.625
2690.34441	8984.925
2692.96396	8966.825
2695.58188	9015.125
2698.19818	8989.925
2700.81285	8981.725
2703.4259	8940.725
2706.03733	8896.725
2708.64714	8921.725
2711.25533	8987.225
2713.86191	8985.125
2716.46687	9034.025
2719.07021	9051.225
2721.67194	9081.625
2724.27206	9042.125
2726.87057	9072.925
2729.46747	9081.725
2732.06276	9084.425
2734.65644	9101.525
2737.24852	9101.825
2739.83899	9090.825
2742.42786	9111.825
2745.01513	9091.925
2747.60079	9080.525
2750.18486	9094.525
2752.76733	9063.925
2755.3482	9065.125
2757.92747	9059.325
2760.50515	9045.925
2763.08123	9054.325
2765.65573	9037.125
2768.22863	9046.925
2770.79994	9055.625
2773.36967	9042.525
2775.9378	9059.525
2778.50435	9065.325
2781.06932	9056.925
2783.6327	9076.025
2786.1945	9051.025
2788.75471	9068.825
2791.31335	9045.225
2793.87041	9050.225
2796.42589	9023.125
2798.97979	9021.325
2801.53212	9005.725
2804.08288	8991.725
2806.63206	8978.525
2809.17967	8927.425
2811.72571	8932.725
2814.27018	8942.825
2816.81308	8926.325
2819.35442	8937.825
2821.89419	8930.325
2824.43239	8931.925
2826.96904	8948.825
2829.50412	8935.625
2832.03763	8923.425
2834.56959	8932.225
2837.1	8919.825
2839.62884	8921.525
2842.15613	8925.725
2844.68186	8920.325
2847.20604	8929.525
2849.72867	8931.025
2852.24974	8932.425
2854.76927	8930.425
2857.28724	8905.725
2859.80367	8935.725
2862.31855	8932.525
2864.83189	8931.225
2867.34368	8955.925
2869.85393	8953.225
2872.36264	8955.625
2874.8698	8980.325
2877.37543	9012.125
2879.87952	9003.025
2882.38207	9008.725
2884.88308	8988.125
2887.38256	9029.425
2889.88051	9017.025
2892.37692	9044.225
2894.8718	9039.125
2897.36515	9064.025
2899.85698	9044.225
2902.34727	9087.225
2904.83604	9083.425
2907.32328	9100.025
2909.809	9085.225
2912.29319	9107.425
2914.77587	9114.825
2917.25702	9100.125
2919.73665	9071.125
2922.21476	9096.625
2924.69136	9115.625
2927.16644	9091.425
2929.64	9059.925
2932.11205	9086.225
2934.58258	9035.225
2937.05161	9045.525
2939.51912	9042.425
2941.98513	9038.025
2944.44962	8997.125
2946.91261	8991.925
2949.37409	9010.325
2951.83407	8991.625
2954.29254	8971.825
2956.74951	8968.825
2959.20498	8985.725
2961.65895	8965.325
2964.11142	8946.825
2966.56239	8936.125
2969.01186	8925.025
2971.45984	8909.425
2973.90632	8903.825
2976.35131	8908.825
2978.7948	8867.125
2981.23681	8862.625
2983.67732	8838.725
2986.11635	8810.225
2988.55388	8813.525
2990.98993	8791.025
2993.4245	8770.825
2995.85758	8731.125
2998.28917	8730.125
3000.71928	8732.525
3003.14791	8715.225
3005.57506	8696.225
3008.00073	8688.525
3010.42493	8689.225
3012.84764	8651.725
3015.26888	8660.825
3017.68865	8663.225
3020.10694	8657.125
3022.52376	8642.825
3024.9391	8647.925
3027.35298	8606.225
3029.76539	8631.525
3032.17632	8617.825
3034.5858	8608.525
3036.9938	8609.425
3039.40034	8634.525
3041.80542	8614.425
3044.20903	8605.025
3046.61118	8594.825
3049.01187	8577.025
3051.4111	8594.425
3053.80888	8580.325
3056.20519	8578.225
3058.60005	8551.525
3060.99345	8534.525
3063.3854	8523.225
3065.7759	8489.625
3068.16494	8497.725
3070.55254	8469.825
3072.93868	8446.025
3075.32338	8422.625
3077.70662	8409.825
3080.08842	8392.325
3082.46878	8406.425
3084.84769	8420.725
3087.22515	8416.925
3089.60118	8415.325
3091.97576	8411.225
3094.3489	8432.325
3096.72061	8420.325
3099.09087	8426.225
3101.4597	8424.825
3103.82709	8435.325
3106.19305	8425.125
3108.55757	8424.125
3110.92066	8426.625
3113.28232	8400.925
3115.64255	8419.025
3118.00134	8396.125
3120.35871	8388.425
3122.71466	8378.625
3125.06917	8393.625
3127.42226	8374.725
3129.77393	8391.425
3132.12417	8373.225
3134.47299	8395.925
3136.82039	8365.225
3139.16636	8380.525
3141.51092	8388.925
3143.85406	8385.325
3146.19579	8385.125
3148.53609	8400.425
3150.87499	8418.725
3153.21246	8434.225
3155.54853	8431.325
3157.88318	8413.625
3160.21642	8422.825
3162.54826	8449.725
3164.87868	8444.025
3167.2077	8451.025
3169.5353	8472.525
3171.86151	8465.725
3174.18631	8483.825
3176.5097	8493.825
3178.83169	8456.125
3181.15228	8480.025
