Data from AgNPs_FTO_APTES_UA_50uM_CRN_200uM_R6G_10uM_NaF_0.1M_Addition_RamanShift__18__16-15-25-085.txt Node

Date: Mon Feb 21 16:15:25 GMT 2022
User: TCL
Spectrometer: QEP01345
Trigger mode: 4
Integration Time (sec): 7.000000E0
Scans to average: 10
Electric dark correction enabled: true
Nonlinearity correction enabled: false
Boxcar width: 0
XAxis mode: Raman Shifts
Number of Pixels in Spectrum: 1044
>>>>>Begin Spectral Data<<<<<
46.04893	-0.1125
50.45542	-0.2125
54.85868	-0.6125
59.25871	-2.5125
63.6555	48.3875
68.04907	55.2875
72.43941	54.9875
76.82654	58.0875
81.21044	59.1875
85.59113	65.6875
89.96862	62.9875
94.34289	70.8875
98.71396	73.4875
103.08183	74.4875
107.4465	76.1875
111.80798	74.1875
116.16626	75.1875
120.52136	78.9875
124.87327	81.8875
129.222	79.0875
133.56755	87.7875
137.90993	94.8875
142.24913	99.3875
146.58517	110.9875
150.91804	125.2875
155.24774	145.9875
159.57429	178.7875
163.89768	225.2875
168.21792	294.6875
172.53501	399.8875
176.84895	554.5875
181.15975	775.9875
185.46741	1081.3875
189.77193	1508.5875
194.07331	2005.1875
198.37157	2599.9875
202.6667	3205.7875
206.9587	3822.5875
211.24758	4417.9875
215.53334	5023.7875
219.81599	5673.5875
224.09553	6368.7875
228.37195	7139.8875
232.64527	8021.0875
236.91549	8914.5875
241.18261	9845.5875
245.44663	10672.2875
249.70755	11381.1875
253.96539	11996.9875
258.22014	12500.2875
262.4718	12915.5875
266.72039	13191.0875
270.96589	13328.4875
275.20832	13338.9875
279.44768	13218.9875
283.68397	13000.3875
287.91719	12843.8875
292.14735	12717.1875
296.37445	12732.4875
300.59849	12804.4875
304.81948	12903.3875
309.03742	12948.0875
313.25231	12856.9875
317.46415	12590.0875
321.67296	12263.7875
325.87872	11967.7875
330.08145	11864.4875
334.28114	11905.1875
338.47781	11986.5875
342.67145	12172.3875
346.86207	12434.0875
351.04966	12659.8875
355.23424	12998.8875
359.4158	13254.3875
363.59435	13450.1875
367.76989	13603.0875
371.94243	13693.5875
376.11196	13784.6875
380.27849	13824.1875
384.44203	13876.3875
388.60257	13928.3875
392.76012	14007.5875
396.91468	14120.6875
401.06626	14247.8875
405.21485	14351.0875
409.36047	14327.9875
413.50311	14034.7875
417.64277	13768.9875
421.77947	13629.9875
425.9132	13623.9875
430.04396	13670.2875
434.17176	13737.3875
438.2966	13868.4875
442.41849	14139.8875
446.53742	14431.6875
450.6534	14771.2875
454.76644	15016.9875
458.87653	15066.1875
462.98368	15032.2875
467.08789	14904.1875
471.18916	14707.8875
475.2875	14543.4875
479.38291	14403.9875
483.4754	14325.5875
487.56496	14153.8875
491.6516	14044.6875
495.73531	13972.5875
499.81612	13955.1875
503.89401	14089.1875
507.96899	14161.6875
512.04106	14184.6875
516.11023	14207.3875
520.1765	14233.3875
524.23987	14197.3875
528.30034	14158.4875
532.35792	14096.7875
536.41261	13998.2875
540.46441	13878.4875
544.51333	13816.2875
548.55936	13856.6875
552.60252	13975.7875
556.64279	14159.9875
560.6802	14263.3875
564.71473	14292.3875
568.7464	14389.8875
572.7752	14593.8875
576.80114	14647.6875
580.82422	14677.4875
584.84444	14806.3875
588.86181	15054.6875
592.87633	15347.0875
596.888	15490.0875
600.89682	15479.6875
604.9028	15991.8875
608.90594	17603.6875
612.90624	19466.1875
616.90371	18587.4875
620.89834	15643.4875
624.89015	14364.7875
628.87913	14207.8875
632.86528	14279.6875
636.84862	14335.4875
640.82913	14219.5875
644.80683	13943.9875
648.78172	13712.5875
652.75379	13682.1875
656.72306	13878.3875
660.68952	14121.0875
664.65319	14043.3875
668.61405	13869.2875
672.57211	13882.3875
676.52738	13972.7875
680.47986	14025.4875
684.42955	13950.5875
688.37646	13810.6875
692.32058	13742.9875
696.26192	13738.5875
700.20048	13808.4875
704.13626	13852.4875
708.06928	13775.6875
711.99952	13692.8875
715.927	13683.1875
719.85171	13717.9875
723.77365	13752.3875
727.69284	13707.3875
731.60928	13698.7875
735.52295	13658.7875
739.43388	13695.4875
743.34206	13678.4875
747.24749	13698.5875
751.15017	13703.4875
755.05012	13815.5875
758.94733	14041.7875
762.8418	14627.1875
766.73354	15660.2875
770.62254	16846.4875
774.50882	17415.0875
778.39237	16918.1875
782.27321	15706.7875
786.15132	14601.1875
790.02671	13915.9875
793.89938	13583.0875
797.76935	13438.7875
801.6366	13412.3875
805.50115	13346.0875
809.36299	13298.3875
813.22213	13213.7875
817.07857	13171.1875
820.93231	13107.1875
824.78336	13090.1875
828.63172	13055.7875
832.47738	13072.8875
836.32036	13081.0875
840.16066	13093.0875
843.99827	13121.9875
847.8332	13091.0875
851.66546	13050.8875
855.49504	13030.8875
859.32195	13111.5875
863.1462	13156.4875
866.96777	13158.2875
870.78668	13125.6875
874.60293	13136.1875
878.41652	13155.3875
882.22745	13152.4875
886.03573	13192.1875
889.84136	13181.5875
893.64433	13112.6875
897.44466	13047.8875
901.24235	12983.9875
905.0374	12889.7875
908.8298	12874.5875
912.61957	12800.8875
916.40671	12849.9875
920.19121	12953.7875
923.97308	13050.5875
927.75233	13092.2875
931.52895	13087.8875
935.30295	13019.5875
939.07433	12846.7875
942.84309	12700.4875
946.60924	12612.1875
950.37278	12562.5875
954.13371	12506.3875
957.89203	12453.0875
961.64774	12384.3875
965.40086	12362.6875
969.15137	12328.1875
972.89929	12282.9875
976.64461	12256.5875
980.38733	12264.4875
984.12747	12308.2875
987.86502	12380.9875
991.59999	12448.9875
995.33237	12564.0875
999.06217	12771.4875
1002.78939	13028.3875
1006.51404	13174.7875
1010.23611	13278.5875
1013.95561	13368.9875
1017.67255	13430.2875
1021.38692	13336.6875
1025.09872	13224.1875
1028.80796	13168.0875
1032.51465	13302.8875
1036.21877	13477.5875
1039.92035	13569.1875
1043.61937	13510.7875
1047.31584	13327.7875
1051.00976	13191.4875
1054.70114	13115.4875
1058.38998	13114.9875
1062.07627	13150.6875
1065.76003	13154.6875
1069.44126	13173.2875
1073.11995	13284.5875
1076.79611	13322.3875
1080.46974	13396.5875
1084.14085	13473.8875
1087.80943	13627.4875
1091.47549	13700.9875
1095.13903	13673.0875
1098.80005	13517.1875
1102.45857	13365.2875
1106.11456	13263.5875
1109.76805	13298.7875
1113.41903	13378.4875
1117.06751	13508.9875
1120.71348	13720.1875
1124.35696	13906.3875
1127.99793	14106.2875
1131.63641	14226.9875
1135.2724	14068.8875
1138.90589	13866.6875
1142.5369	13700.7875
1146.16542	13593.0875
1149.79145	13525.5875
1153.415	13480.5875
1157.03607	13544.6875
1160.65467	13768.0875
1164.27079	14155.6875
1167.88443	14658.6875
1171.49561	15347.0875
1175.10432	16308.1875
1178.71056	17540.2875
1182.31434	18697.8875
1185.91565	19264.9875
1189.51451	19053.9875
1193.11091	18431.9875
1196.70485	17644.3875
1200.29634	16921.1875
1203.88538	16358.4875
1207.47197	15799.6875
1211.05612	15331.6875
1214.63782	14971.4875
1218.21708	14865.7875
1221.79391	14835.9875
1225.36829	14882.3875
1228.94024	14840.2875
1232.50976	14616.2875
1236.07685	14470.7875
1239.6415	14377.1875
1243.20374	14363.9875
1246.76355	14458.1875
1250.32093	14596.1875
1253.8759	14783.2875
1257.42845	15040.2875
1260.97859	15332.3875
1264.52631	15634.0875
1268.07163	15982.5875
1271.61453	16314.1875
1275.15503	16677.6875
1278.69312	17034.6875
1282.22882	17315.5875
1285.76211	17573.2875
1289.29301	17900.5875
1292.82151	18293.1875
1296.34761	18888.8875
1299.87133	19677.6875
1303.39266	20694.4875
1306.9116	22005.8875
1310.42815	23397.9875
1313.94233	24176.2875
1317.45412	24029.7875
1320.96354	23188.4875
1324.47058	22224.9875
1327.97525	21296.6875
1331.47754	20696.3875
1334.97747	20411.7875
1338.47502	20391.1875
1341.97022	20492.6875
1345.46305	20787.0875
1348.95352	21244.1875
1352.44163	21934.0875
1355.92738	23005.1875
1359.41078	24443.0875
1362.89183	25713.7875
1366.37053	25190.1875
1369.84688	22713.1875
1373.32088	19998.1875
1376.79254	18211.9875
1380.26186	17338.9875
1383.72883	16986.0875
1387.19347	16701.8875
1390.65578	16400.7875
1394.11575	16176.1875
1397.57339	16186.0875
1401.0287	16379.3875
1404.48168	16516.2875
1407.93234	16536.4875
1411.38068	16448.7875
1414.82669	16281.7875
1418.27039	15991.5875
1421.71177	15709.7875
1425.15083	15349.4875
1428.58758	15174.3875
1432.02203	15196.0875
1435.45416	15356.1875
1438.88399	15578.3875
1442.31151	15797.9875
1445.73673	15861.8875
1449.15965	15992.3875
1452.58027	16066.8875
1455.9986	16116.4875
1459.41463	16172.1875
1462.82837	16382.8875
1466.23982	16634.2875
1469.64898	16904.7875
1473.05586	17089.7875
1476.46045	17185.8875
1479.86276	17233.4875
1483.26279	17188.4875
1486.66054	17187.4875
1490.05602	17297.7875
1493.44922	17534.2875
1496.84016	17852.0875
1500.22882	18538.0875
1503.61521	19552.4875
1506.99934	20721.3875
1510.38121	21686.9875
1513.76081	21943.2875
1517.13816	21171.8875
1520.51324	19814.6875
1523.88607	18528.4875
1527.25665	17711.6875
1530.62498	17304.9875
1533.99105	17051.9875
1537.35488	16856.4875
1540.71647	16658.2875
1544.07581	16484.0875
1547.4329	16302.6875
1550.78776	16204.2875
1554.14038	16148.5875
1557.49077	16109.5875
1560.83892	16206.1875
1564.18484	16277.9875
1567.52853	16420.3875
1570.86999	16591.5875
1574.20922	16746.1875
1577.54624	16761.1875
1580.88103	16474.7875
1584.2136	16123.1875
1587.54395	16011.7875
1590.87208	16350.5875
1594.19801	17131.6875
1597.52172	17986.3875
1600.84321	18492.9875
1604.16251	18114.4875
1607.47959	17239.1875
1610.79447	16225.0875
1614.10715	15245.8875
1617.41763	14399.2875
1620.7259	13789.6875
1624.03199	13450.1875
1627.33587	13392.3875
1630.63757	13570.3875
1633.93707	14085.3875
1637.23439	14960.8875
1640.52951	16176.0875
1643.82246	17771.0875
1647.11321	19141.7875
1650.40179	19696.7875
1653.68819	18825.2875
1656.97241	16888.6875
1660.25446	14903.0875
1663.53433	13509.4875
1666.81203	12645.9875
1670.08756	12108.1875
1673.36092	11794.6875
1676.63211	11574.5875
1679.90115	11422.6875
1683.16801	11273.8875
1686.43272	11161.1875
1689.69527	11076.6875
1692.95567	10964.2875
1696.2139	10813.1875
1699.46999	10681.6875
1702.72392	10627.9875
1705.97571	10715.5875
1709.22535	10761.1875
1712.47284	10802.2875
1715.71819	10821.3875
1718.96139	10839.2875
1722.20246	10807.6875
1725.44139	10757.6875
1728.67818	10717.7875
1731.91284	10664.4875
1735.14537	10627.7875
1738.37576	10584.1875
1741.60403	10556.1875
1744.83017	10518.1875
1748.05418	10497.5875
1751.27607	10445.0875
1754.49584	10418.8875
1757.71349	10367.0875
1760.92903	10295.4875
1764.14244	10308.4875
1767.35375	10258.2875
1770.56294	10211.2875
1773.77002	10204.4875
1776.97499	10234.5875
1780.17785	10242.4875
1783.37861	10239.0875
1786.57727	10257.6875
1789.77382	10224.9875
1792.96828	10213.6875
1796.16064	10175.0875
1799.3509	10166.9875
1802.53907	10133.1875
1805.72514	10106.3875
1808.90913	10104.1875
1812.09102	10069.2875
1815.27083	10065.1875
1818.44856	10068.3875
1821.6242	10027.2875
1824.79776	9989.1875
1827.96924	9952.1875
1831.13864	9966.7875
1834.30597	9957.8875
1837.47122	9973.9875
1840.6344	9953.7875
1843.7955	9944.7875
1846.95454	9948.0875
1850.11151	9945.0875
1853.26642	9916.2875
1856.41926	9904.0875
1859.57004	9904.0875
1862.71876	9891.2875
1865.86542	9877.5875
1869.01003	9903.9875
1872.15258	9874.9875
1875.29308	9866.6875
1878.43152	9835.6875
1881.56792	9826.9875
1884.70227	9843.1875
1887.83457	9815.1875
1890.96482	9810.2875
1894.09304	9829.3875
1897.21921	9812.1875
1900.34335	9769.4875
1903.46544	9768.7875
1906.58551	9750.3875
1909.70353	9746.6875
1912.81953	9764.5875
1915.93349	9733.6875
1919.04543	9672.4875
1922.15534	9681.2875
1925.26322	9680.6875
1928.36908	9630.9875
1931.47292	9628.8875
1934.57473	9580.1875
1937.67453	9597.1875
1940.77232	9553.8875
1943.86808	9519.0875
1946.96184	9516.5875
1950.05358	9480.5875
1953.14331	9445.4875
1956.23103	9422.4875
1959.31675	9417.4875
1962.40046	9341.8875
1965.48217	9346.3875
1968.56188	9315.4875
1971.63959	9299.1875
1974.7153	9273.0875
1977.78901	9254.6875
1980.86073	9206.0875
1983.93046	9156.5875
1986.99819	9146.0875
1990.06394	9108.2875
1993.1277	9106.8875
1996.18947	9066.7875
1999.24925	9042.3875
2002.30706	9009.5875
2005.36288	8995.3875
2008.41672	8968.2875
2011.46859	8933.5875
2014.51848	8911.5875
2017.56639	8888.0875
2020.61233	8859.9875
2023.6563	8836.0875
2026.6983	8817.0875
2029.73833	8827.4875
2032.7764	8767.1875
2035.8125	8772.9875
2038.84664	8724.6875
2041.87881	8721.3875
2044.90903	8701.4875
2047.93729	8699.4875
2050.96359	8666.9875
2053.98794	8650.4875
2057.01034	8704.4875
2060.03078	8668.2875
2063.04927	8659.8875
2066.06582	8679.9875
2069.08042	8654.3875
2072.09307	8655.6875
2075.10378	8636.2875
2078.11255	8628.7875
2081.11938	8618.8875
2084.12426	8593.3875
2087.12722	8617.2875
2090.12824	8595.7875
2093.12732	8621.7875
2096.12447	8610.1875
2099.11969	8612.9875
2102.11299	8621.5875
2105.10435	8622.7875
2108.09379	8611.6875
2111.08131	8615.5875
2114.0669	8617.5875
2117.05057	8626.3875
2120.03233	8650.0875
2123.01216	8628.6875
2125.99008	8640.0875
2128.96609	8658.3875
2131.94018	8659.5875
2134.91236	8665.4875
2137.88263	8673.9875
2140.851	8667.4875
2143.81746	8708.9875
2146.78201	8679.3875
2149.74466	8685.1875
2152.7054	8702.5875
2155.66425	8674.1875
2158.6212	8696.2875
2161.57625	8693.0875
2164.52941	8659.4875
2167.48067	8661.1875
2170.43004	8664.8875
2173.37752	8649.0875
2176.32311	8655.0875
2179.26681	8658.9875
2182.20863	8645.3875
2185.14856	8665.8875
2188.08661	8673.8875
2191.02278	8664.9875
2193.95707	8665.3875
2196.88948	8649.3875
2199.82001	8666.9875
2202.74867	8631.0875
2205.67545	8629.0875
2208.60037	8628.3875
2211.52341	8611.0875
2214.44458	8599.0875
2217.36388	8563.5875
2220.28132	8558.0875
2223.1969	8542.4875
2226.11061	8502.7875
2229.02246	8486.4875
2231.93245	8471.0875
2234.84058	8481.9875
2237.74686	8444.5875
2240.65128	8430.8875
2243.55385	8434.0875
2246.45456	8422.9875
2249.35343	8394.5875
2252.25044	8413.2875
2255.14561	8401.6875
2258.03893	8384.5875
2260.93041	8369.3875
2263.82004	8334.1875
2266.70783	8321.4875
2269.59378	8305.4875
2272.4779	8317.6875
2275.36017	8277.1875
2278.24061	8270.2875
2281.11922	8229.5875
2283.996	8208.5875
2286.87094	8197.9875
2289.74405	8206.8875
2292.61534	8212.8875
2295.4848	8200.1875
2298.35243	8212.1875
2301.21824	8188.0875
2304.08223	8204.4875
2306.94439	8207.9875
2309.80474	8179.6875
2312.66327	8201.8875
2315.51999	8175.9875
2318.37489	8184.6875
2321.22797	8155.3875
2324.07925	8165.9875
2326.92871	8142.5875
2329.77637	8111.8875
2332.62222	8112.1875
2335.46626	8093.3875
2338.3085	8100.7875
2341.14893	8092.6875
2343.98756	8093.9875
2346.8244	8086.2875
2349.65943	8073.0875
2352.49267	8091.4875
2355.32411	8077.3875
2358.15376	8071.5875
2360.98161	8083.4875
2363.80768	8063.2875
2366.63195	8054.8875
2369.45444	8016.8875
2372.27514	8018.6875
2375.09405	8024.4875
2377.91118	7998.7875
2380.72652	7993.2875
2383.54009	7964.4875
2386.35187	7960.2875
2389.16188	7911.4875
2391.97011	7948.4875
2394.77657	7893.2875
2397.58125	7886.0875
2400.38416	7897.8875
2403.18529	7876.7875
2405.98466	7873.6875
2408.78226	7835.2875
2411.57809	7794.2875
2414.37216	7807.5875
2417.16446	7796.8875
2419.955	7779.3875
2422.74378	7776.1875
2425.5308	7776.4875
2428.31606	7774.7875
2431.09956	7777.2875
2433.88131	7761.5875
2436.6613	7774.2875
2439.43954	7756.1875
2442.21603	7754.4875
2444.99077	7737.4875
2447.76377	7741.7875
2450.53501	7744.5875
2453.30451	7735.7875
2456.07226	7722.8875
2458.83827	7722.6875
2461.60254	7706.3875
2464.36507	7704.8875
2467.12586	7692.4875
2469.88492	7708.0875
2472.64224	7693.8875
2475.39782	7674.4875
2478.15167	7688.6875
2480.90379	7679.2875
2483.65417	7721.7875
2486.40283	7695.4875
2489.14976	7702.8875
2491.89497	7699.8875
2494.63845	7693.2875
2497.3802	7684.9875
2500.12024	7682.5875
2502.85855	7678.9875
2505.59514	7646.3875
2508.33002	7657.9875
2511.06318	7625.3875
2513.79462	7632.5875
2516.52435	7605.4875
2519.25237	7588.5875
2521.97867	7595.6875
2524.70327	7605.3875
2527.42616	7588.3875
2530.14734	7584.7875
2532.86681	7574.4875
2535.58458	7564.5875
2538.30065	7576.6875
2541.01501	7545.8875
2543.72768	7527.8875
2546.43864	7532.8875
2549.14791	7538.6875
2551.85548	7502.5875
2554.56136	7496.4875
2557.26554	7491.1875
2559.96803	7475.1875
2562.66883	7475.5875
2565.36794	7469.2875
2568.06536	7460.4875
2570.7611	7466.1875
2573.45514	7456.6875
2576.14751	7432.7875
2578.83819	7423.1875
2581.52719	7431.6875
2584.21451	7415.9875
2586.90015	7413.7875
2589.58411	7376.1875
2592.2664	7382.7875
2594.94701	7372.5875
2597.62594	7364.2875
2600.30321	7331.7875
2602.9788	7342.4875
2605.65273	7330.7875
2608.32498	7321.1875
2610.99557	7312.6875
2613.66449	7332.3875
2616.33175	7312.5875
2618.99734	7320.3875
2621.66128	7298.2875
2624.32355	7300.1875
2626.98416	7268.7875
2629.64311	7295.1875
2632.30041	7304.3875
2634.95605	7256.1875
2637.61004	7273.6875
2640.26238	7254.1875
2642.91306	7233.0875
2645.56209	7237.7875
2648.20948	7218.7875
2650.85521	7212.4875
2653.4993	7208.1875
2656.14175	7231.2875
2658.78255	7227.8875
2661.42171	7226.3875
2664.05923	7243.9875
2666.6951	7237.2875
2669.32934	7252.7875
2671.96194	7251.3875
2674.59291	7247.5875
2677.22224	7235.0875
2679.84993	7244.3875
2682.476	7207.9875
2685.10043	7212.4875
2687.72324	7219.3875
2690.34441	7204.2875
2692.96396	7201.5875
2695.58188	7206.3875
2698.19818	7182.6875
2700.81285	7185.6875
2703.4259	7178.8875
2706.03733	7110.5875
2708.64714	7144.6875
2711.25533	7182.2875
2713.86191	7203.0875
2716.46687	7214.3875
2719.07021	7195.1875
2721.67194	7227.1875
2724.27206	7231.6875
2726.87057	7215.8875
2729.46747	7237.7875
2732.06276	7228.6875
2734.65644	7220.2875
2737.24852	7211.9875
2739.83899	7210.9875
2742.42786	7178.7875
2745.01513	7195.1875
2747.60079	7194.4875
2750.18486	7182.1875
2752.76733	7162.0875
2755.3482	7167.1875
2757.92747	7170.4875
2760.50515	7161.4875
2763.08123	7158.1875
2765.65573	7120.3875
2768.22863	7137.6875
2770.79994	7112.2875
2773.36967	7115.7875
2775.9378	7095.6875
2778.50435	7085.8875
2781.06932	7100.8875
2783.6327	7084.9875
2786.1945	7090.0875
2788.75471	7102.1875
2791.31335	7065.7875
2793.87041	7080.8875
2796.42589	7055.4875
2798.97979	7055.6875
2801.53212	7033.7875
2804.08288	7031.9875
2806.63206	7021.6875
2809.17967	7008.7875
2811.72571	6996.2875
2814.27018	6990.3875
2816.81308	6981.3875
2819.35442	6962.1875
2821.89419	6956.4875
2824.43239	6949.0875
2826.96904	6943.5875
2829.50412	6944.4875
2832.03763	6924.0875
2834.56959	6943.8875
2837.1	6945.4875
2839.62884	6942.1875
2842.15613	6923.4875
2844.68186	6960.9875
2847.20604	6960.7875
2849.72867	6930.8875
2852.24974	6934.9875
2854.76927	6920.1875
2857.28724	6890.2875
2859.80367	6906.2875
2862.31855	6909.1875
2864.83189	6878.2875
2867.34368	6913.8875
2869.85393	6904.7875
2872.36264	6891.1875
2874.8698	6894.6875
2877.37543	6898.2875
2879.87952	6888.3875
2882.38207	6882.6875
2884.88308	6877.1875
2887.38256	6889.0875
2889.88051	6896.8875
2892.37692	6903.6875
2894.8718	6892.3875
2897.36515	6927.8875
2899.85698	6912.8875
2902.34727	6932.5875
2904.83604	6916.4875
2907.32328	6953.7875
2909.809	6956.6875
2912.29319	6973.7875
2914.77587	6972.0875
2917.25702	6956.9875
2919.73665	6975.8875
2922.21476	6981.4875
2924.69136	6961.6875
2927.16644	6991.9875
2929.64	6971.2875
2932.11205	6958.7875
2934.58258	6929.8875
2937.05161	6956.1875
2939.51912	6950.1875
2941.98513	6925.9875
2944.44962	6918.4875
2946.91261	6898.2875
2949.37409	6903.1875
2951.83407	6893.4875
2954.29254	6892.4875
2956.74951	6904.8875
2959.20498	6871.1875
2961.65895	6873.3875
2964.11142	6857.3875
2966.56239	6849.0875
2969.01186	6834.0875
2971.45984	6805.1875
2973.90632	6790.6875
2976.35131	6764.7875
2978.7948	6769.6875
2981.23681	6770.2875
2983.67732	6745.1875
2986.11635	6714.1875
2988.55388	6707.3875
2990.98993	6717.9875
2993.4245	6695.0875
2995.85758	6688.1875
2998.28917	6651.4875
3000.71928	6640.3875
3003.14791	6630.0875
3005.57506	6630.1875
3008.00073	6619.0875
3010.42493	6611.3875
3012.84764	6599.3875
3015.26888	6595.5875
3017.68865	6584.7875
3020.10694	6588.9875
3022.52376	6577.0875
3024.9391	6554.6875
3027.35298	6566.4875
3029.76539	6542.3875
3032.17632	6513.4875
3034.5858	6521.5875
3036.9938	6501.0875
3039.40034	6515.6875
3041.80542	6497.1875
3044.20903	6485.3875
3046.61118	6487.9875
3049.01187	6471.4875
3051.4111	6467.1875
3053.80888	6465.2875
3056.20519	6462.4875
3058.60005	6441.0875
3060.99345	6422.7875
3063.3854	6434.7875
3065.7759	6430.3875
3068.16494	6401.3875
3070.55254	6363.1875
3072.93868	6355.5875
3075.32338	6350.5875
