Data from AgNPs_FTO_APTES_UA_50uM_CRN_0uM_R6G_10uM_NaF_0.1M_Addition_RamanShift__6__10-17-14-623.txt Node

Date: Mon Feb 21 10:17:14 GMT 2022
User: TCL
Spectrometer: QEP01345
Trigger mode: 4
Integration Time (sec): 7.000000E0
Scans to average: 10
Electric dark correction enabled: true
Nonlinearity correction enabled: false
Boxcar width: 0
XAxis mode: Raman Shifts
Number of Pixels in Spectrum: 1044
>>>>>Begin Spectral Data<<<<<
46.04893	0.0875
50.45542	-1.1125
54.85868	0.3875
59.25871	-0.0125
63.6555	23.4875
68.04907	29.7875
72.43941	30.2875
76.82654	34.6875
81.21044	33.5875
85.59113	36.2875
89.96862	35.6875
94.34289	41.6875
98.71396	39.3875
103.08183	44.1875
107.4465	41.9875
111.80798	41.4875
116.16626	42.8875
120.52136	40.5875
124.87327	48.4875
129.222	46.6875
133.56755	45.2875
137.90993	51.8875
142.24913	50.4875
146.58517	55.6875
150.91804	59.8875
155.24774	73.4875
159.57429	85.1875
163.89768	103.7875
168.21792	141.2875
172.53501	184.1875
176.84895	260.5875
181.15975	351.3875
185.46741	489.7875
189.77193	676.5875
194.07331	901.1875
198.37157	1173.4875
202.6667	1442.9875
206.9587	1721.0875
211.24758	1993.6875
215.53334	2283.8875
219.81599	2605.8875
224.09553	2952.3875
228.37195	3337.8875
232.64527	3775.7875
236.91549	4203.9875
241.18261	4580.7875
245.44663	4895.6875
249.70755	5148.6875
253.96539	5352.4875
258.22014	5535.6875
262.4718	5675.3875
266.72039	5784.0875
270.96589	5833.5875
275.20832	5808.2875
279.44768	5717.4875
283.68397	5574.9875
287.91719	5481.0875
292.14735	5437.2875
296.37445	5498.0875
300.59849	5659.7875
304.81948	5904.8875
309.03742	6124.4875
313.25231	6191.8875
317.46415	6039.6875
321.67296	5717.4875
325.87872	5406.0875
330.08145	5219.3875
334.28114	5192.0875
338.47781	5230.1875
342.67145	5345.9875
346.86207	5510.7875
351.04966	5757.1875
355.23424	6040.2875
359.4158	6254.1875
363.59435	6331.9875
367.76989	6341.7875
371.94243	6325.7875
376.11196	6279.0875
380.27849	6237.8875
384.44203	6185.9875
388.60257	6114.2875
392.76012	6085.9875
396.91468	6106.1875
401.06626	6216.3875
405.21485	6278.6875
409.36047	6180.7875
413.50311	5881.6875
417.64277	5559.9875
421.77947	5390.8875
425.9132	5301.0875
430.04396	5284.7875
434.17176	5320.2875
438.2966	5426.3875
442.41849	5614.7875
446.53742	5843.9875
450.6534	6062.3875
454.76644	6163.2875
458.87653	6093.8875
462.98368	5914.1875
467.08789	5724.0875
471.18916	5567.2875
475.2875	5404.2875
479.38291	5276.5875
483.4754	5182.8875
487.56496	5118.3875
491.6516	5092.9875
495.73531	5082.3875
499.81612	5140.0875
503.89401	5205.5875
507.96899	5302.5875
512.04106	5382.4875
516.11023	5480.8875
520.1765	5543.5875
524.23987	5576.0875
528.30034	5535.3875
532.35792	5466.3875
536.41261	5333.5875
540.46441	5183.8875
544.51333	5090.4875
548.55936	5110.2875
552.60252	5178.9875
556.64279	5376.1875
560.6802	5520.1875
564.71473	5572.0875
568.7464	5715.5875
572.7752	5838.6875
576.80114	5701.9875
580.82422	5516.0875
584.84444	5530.8875
588.86181	5782.4875
592.87633	6274.6875
596.888	6575.2875
600.89682	6339.8875
604.9028	6357.4875
608.90594	7725.9875
612.90624	9992.0875
616.90371	10015.5875
620.89834	7144.1875
624.89015	5547.9875
628.87913	5211.6875
632.86528	5213.9875
636.84862	5314.2875
640.82913	5269.5875
644.80683	5088.2875
648.78172	4908.9875
652.75379	4904.7875
656.72306	5090.2875
660.68952	5341.3875
664.65319	5302.0875
668.61405	5024.3875
672.57211	4889.9875
676.52738	4896.8875
680.47986	4914.8875
684.42955	4871.3875
688.37646	4820.9875
692.32058	4814.8875
696.26192	4828.1875
700.20048	4890.3875
704.13626	4918.2875
708.06928	4887.4875
711.99952	4883.3875
715.927	4893.7875
719.85171	4942.4875
723.77365	4993.5875
727.69284	4942.0875
731.60928	4887.8875
735.52295	4876.0875
739.43388	4908.4875
743.34206	4918.2875
747.24749	4933.5875
751.15017	4917.8875
755.05012	4978.8875
758.94733	5173.4875
762.8418	5673.0875
766.73354	6653.6875
770.62254	7765.0875
774.50882	8322.0875
778.39237	7981.7875
782.27321	6986.4875
786.15132	5965.0875
790.02671	5322.9875
793.89938	5020.3875
797.76935	4894.7875
801.6366	4828.8875
805.50115	4800.8875
809.36299	4772.8875
813.22213	4752.0875
817.07857	4720.2875
820.93231	4695.7875
824.78336	4692.4875
828.63172	4709.2875
832.47738	4705.8875
836.32036	4694.2875
840.16066	4659.4875
843.99827	4655.2875
847.8332	4654.1875
851.66546	4653.0875
855.49504	4655.2875
859.32195	4642.6875
863.1462	4622.8875
866.96777	4592.1875
870.78668	4613.1875
874.60293	4580.9875
878.41652	4592.2875
882.22745	4639.3875
886.03573	4670.7875
889.84136	4674.6875
893.64433	4634.7875
897.44466	4628.3875
901.24235	4620.7875
905.0374	4609.5875
908.8298	4579.9875
912.61957	4565.8875
916.40671	4576.3875
920.19121	4620.8875
923.97308	4682.6875
927.75233	4781.0875
931.52895	4812.1875
935.30295	4766.4875
939.07433	4619.5875
942.84309	4482.2875
946.60924	4389.7875
950.37278	4345.3875
954.13371	4315.5875
957.89203	4270.0875
961.64774	4241.8875
965.40086	4217.9875
969.15137	4198.8875
972.89929	4194.8875
976.64461	4174.1875
980.38733	4159.2875
984.12747	4153.9875
987.86502	4166.5875
991.59999	4195.0875
995.33237	4234.8875
999.06217	4333.4875
1002.78939	4428.4875
1006.51404	4494.0875
1010.23611	4583.4875
1013.95561	4631.8875
1017.67255	4626.3875
1021.38692	4564.1875
1025.09872	4438.5875
1028.80796	4337.2875
1032.51465	4290.1875
1036.21877	4289.7875
1039.92035	4294.1875
1043.61937	4335.1875
1047.31584	4375.6875
1051.00976	4412.2875
1054.70114	4426.8875
1058.38998	4407.1875
1062.07627	4440.1875
1065.76003	4424.7875
1069.44126	4424.9875
1073.11995	4428.2875
1076.79611	4489.0875
1080.46974	4574.9875
1084.14085	4721.4875
1087.80943	4866.0875
1091.47549	4945.6875
1095.13903	4840.4875
1098.80005	4668.7875
1102.45857	4505.1875
1106.11456	4434.9875
1109.76805	4458.5875
1113.41903	4576.6875
1117.06751	4718.0875
1120.71348	4929.9875
1124.35696	5148.0875
1127.99793	5385.8875
1131.63641	5418.3875
1135.2724	5163.7875
1138.90589	4882.5875
1142.5369	4695.8875
1146.16542	4602.6875
1149.79145	4530.5875
1153.415	4499.6875
1157.03607	4500.4875
1160.65467	4572.8875
1164.27079	4753.8875
1167.88443	5065.2875
1171.49561	5593.1875
1175.10432	6404.7875
1178.71056	7557.8875
1182.31434	8479.8875
1185.91565	8646.0875
1189.51451	8193.7875
1193.11091	7472.9875
1196.70485	6802.2875
1200.29634	6280.7875
1203.88538	5878.9875
1207.47197	5444.5875
1211.05612	5091.3875
1214.63782	4898.5875
1218.21708	4909.5875
1221.79391	4993.6875
1225.36829	5114.8875
1228.94024	5086.7875
1232.50976	4950.1875
1236.07685	4790.7875
1239.6415	4687.4875
1243.20374	4645.8875
1246.76355	4638.5875
1250.32093	4662.1875
1253.8759	4735.7875
1257.42845	4880.6875
1260.97859	5036.5875
1264.52631	5280.3875
1268.07163	5499.0875
1271.61453	5683.2875
1275.15503	5843.8875
1278.69312	5916.6875
1282.22882	6001.4875
1285.76211	6177.6875
1289.29301	6518.0875
1292.82151	6901.5875
1296.34761	7274.8875
1299.87133	7773.1875
1303.39266	8454.4875
1306.9116	9508.9875
1310.42815	10855.5875
1313.94233	11839.6875
1317.45412	11715.2875
1320.96354	10658.8875
1324.47058	9353.8875
1327.97525	8214.4875
1331.47754	7454.8875
1334.97747	7119.1875
1338.47502	6981.8875
1341.97022	7007.3875
1345.46305	7192.1875
1348.95352	7747.1875
1352.44163	8698.7875
1355.92738	10074.6875
1359.41078	11973.1875
1362.89183	13980.1875
1366.37053	14165.2875
1369.84688	11916.8875
1373.32088	9218.3875
1376.79254	7448.8875
1380.26186	6678.7875
1383.72883	6308.8875
1387.19347	6031.8875
1390.65578	5746.1875
1394.11575	5595.3875
1397.57339	5584.9875
1401.0287	5636.1875
1404.48168	5701.9875
1407.93234	5665.3875
1411.38068	5591.1875
1414.82669	5492.8875
1418.27039	5418.6875
1421.71177	5331.1875
1425.15083	5199.1875
1428.58758	5125.4875
1432.02203	5172.8875
1435.45416	5302.8875
1438.88399	5376.1875
1442.31151	5394.3875
1445.73673	5373.9875
1449.15965	5372.9875
1452.58027	5345.2875
1455.9986	5243.4875
1459.41463	5169.8875
1462.82837	5180.1875
1466.23982	5309.0875
1469.64898	5490.1875
1473.05586	5622.3875
1476.46045	5669.7875
1479.86276	5746.4875
1483.26279	5845.4875
1486.66054	5958.8875
1490.05602	6155.4875
1493.44922	6438.5875
1496.84016	6833.9875
1500.22882	7547.4875
1503.61521	8616.1875
1506.99934	9920.3875
1510.38121	11235.1875
1513.76081	11975.7875
1517.13816	11430.2875
1520.51324	9877.3875
1523.88607	8187.0875
1527.25665	7103.0875
1530.62498	6498.9875
1533.99105	6170.6875
1537.35488	5911.0875
1540.71647	5684.6875
1544.07581	5521.9875
1547.4329	5396.9875
1550.78776	5328.0875
1554.14038	5311.4875
1557.49077	5348.2875
1560.83892	5480.1875
1564.18484	5697.8875
1567.52853	5951.4875
1570.86999	6203.5875
1574.20922	6384.6875
1577.54624	6398.4875
1580.88103	6043.9875
1584.2136	5520.1875
1587.54395	5185.6875
1590.87208	5226.3875
1594.19801	5579.3875
1597.52172	6204.3875
1600.84321	6573.8875
1604.16251	6380.0875
1607.47959	5801.0875
1610.79447	5156.9875
1614.10715	4624.0875
1617.41763	4230.6875
1620.7259	3989.7875
1624.03199	3904.7875
1627.33587	3885.4875
1630.63757	3996.2875
1633.93707	4248.0875
1637.23439	4705.3875
1640.52951	5506.2875
1643.82246	6713.7875
1647.11321	8054.7875
1650.40179	8827.0875
1653.68819	8412.1875
1656.97241	6930.8875
1660.25446	5368.1875
1663.53433	4273.3875
1666.81203	3687.2875
1670.08756	3368.8875
1673.36092	3212.9875
1676.63211	3114.3875
1679.90115	3053.0875
1683.16801	2996.3875
1686.43272	2942.5875
1689.69527	2889.7875
1692.95567	2800.8875
1696.2139	2680.3875
1699.46999	2568.1875
1702.72392	2536.5875
1705.97571	2613.4875
1709.22535	2696.1875
1712.47284	2773.4875
1715.71819	2817.9875
1718.96139	2825.1875
1722.20246	2841.3875
1725.44139	2814.4875
1728.67818	2790.0875
1731.91284	2750.9875
1735.14537	2728.9875
1738.37576	2706.6875
1741.60403	2682.5875
1744.83017	2652.4875
1748.05418	2630.0875
1751.27607	2575.5875
1754.49584	2531.7875
1757.71349	2475.5875
1760.92903	2418.6875
1764.14244	2398.6875
1767.35375	2415.2875
1770.56294	2409.2875
1773.77002	2418.2875
1776.97499	2471.0875
1780.17785	2527.3875
1783.37861	2548.2875
1786.57727	2567.5875
1789.77382	2567.9875
1792.96828	2588.4875
1796.16064	2591.2875
1799.3509	2579.1875
1802.53907	2561.0875
1805.72514	2568.5875
1808.90913	2551.5875
1812.09102	2542.0875
1815.27083	2528.2875
1818.44856	2522.2875
1821.6242	2514.6875
1824.79776	2512.1875
1827.96924	2494.2875
1831.13864	2492.0875
1834.30597	2485.2875
1837.47122	2478.2875
1840.6344	2463.1875
1843.7955	2456.7875
1846.95454	2443.6875
1850.11151	2440.5875
1853.26642	2419.8875
1856.41926	2418.1875
1859.57004	2411.4875
1862.71876	2404.1875
1865.86542	2404.6875
1869.01003	2405.0875
1872.15258	2386.1875
1875.29308	2372.1875
1878.43152	2378.5875
1881.56792	2373.2875
1884.70227	2366.2875
1887.83457	2367.6875
1890.96482	2366.4875
1894.09304	2355.7875
1897.21921	2344.5875
1900.34335	2344.7875
1903.46544	2350.7875
1906.58551	2353.2875
1909.70353	2335.0875
1912.81953	2343.4875
1915.93349	2304.8875
1919.04543	2305.0875
1922.15534	2297.3875
1925.26322	2300.8875
1928.36908	2278.3875
1931.47292	2270.4875
1934.57473	2252.2875
1937.67453	2251.3875
1940.77232	2229.5875
1943.86808	2226.9875
1946.96184	2223.2875
1950.05358	2216.9875
1953.14331	2204.4875
1956.23103	2187.9875
1959.31675	2179.0875
1962.40046	2176.0875
1965.48217	2175.3875
1968.56188	2171.7875
1971.63959	2175.9875
1974.7153	2157.2875
1977.78901	2146.0875
1980.86073	2147.7875
1983.93046	2128.6875
1986.99819	2119.0875
1990.06394	2107.2875
1993.1277	2100.4875
1996.18947	2094.6875
1999.24925	2085.4875
2002.30706	2082.7875
2005.36288	2065.1875
2008.41672	2058.3875
2011.46859	2053.9875
2014.51848	2041.8875
2017.56639	2026.6875
2020.61233	2025.4875
2023.6563	2016.1875
2026.6983	1999.7875
2029.73833	1992.9875
2032.7764	1983.9875
2035.8125	1977.2875
2038.84664	1976.1875
2041.87881	1972.0875
2044.90903	1960.6875
2047.93729	1949.7875
2050.96359	1943.4875
2053.98794	1949.6875
2057.01034	1939.0875
2060.03078	1938.5875
2063.04927	1924.5875
2066.06582	1939.8875
2069.08042	1926.9875
2072.09307	1922.4875
2075.10378	1907.8875
2078.11255	1914.9875
2081.11938	1913.4875
2084.12426	1926.0875
2087.12722	1917.6875
2090.12824	1915.3875
2093.12732	1912.6875
2096.12447	1910.8875
2099.11969	1908.0875
2102.11299	1907.1875
2105.10435	1916.0875
2108.09379	1911.1875
2111.08131	1914.8875
2114.0669	1905.1875
2117.05057	1909.3875
2120.03233	1894.6875
2123.01216	1899.3875
2125.99008	1900.2875
2128.96609	1896.8875
2131.94018	1898.9875
2134.91236	1895.1875
2137.88263	1884.5875
2140.851	1891.3875
2143.81746	1889.4875
2146.78201	1870.4875
2149.74466	1883.1875
2152.7054	1861.0875
2155.66425	1866.5875
2158.6212	1865.5875
2161.57625	1868.6875
2164.52941	1862.2875
2167.48067	1857.5875
2170.43004	1859.3875
2173.37752	1838.2875
2176.32311	1853.7875
2179.26681	1847.9875
2182.20863	1834.3875
2185.14856	1840.7875
2188.08661	1834.5875
2191.02278	1836.9875
2193.95707	1836.7875
2196.88948	1824.5875
2199.82001	1828.8875
2202.74867	1827.9875
2205.67545	1820.8875
2208.60037	1801.8875
2211.52341	1804.6875
2214.44458	1799.1875
2217.36388	1790.0875
2220.28132	1795.9875
2223.1969	1783.0875
2226.11061	1769.9875
2229.02246	1759.7875
2231.93245	1748.0875
2234.84058	1750.7875
2237.74686	1761.0875
2240.65128	1740.6875
2243.55385	1748.7875
2246.45456	1750.1875
2249.35343	1749.9875
2252.25044	1740.7875
2255.14561	1735.6875
2258.03893	1728.3875
2260.93041	1689.0875
2263.82004	1702.4875
2266.70783	1725.0875
2269.59378	1719.0875
2272.4779	1724.6875
2275.36017	1715.1875
2278.24061	1706.5875
2281.11922	1704.8875
2283.996	1687.2875
2286.87094	1688.3875
2289.74405	1679.2875
2292.61534	1662.8875
2295.4848	1665.3875
2298.35243	1666.7875
2301.21824	1649.7875
2304.08223	1650.9875
2306.94439	1664.9875
2309.80474	1652.8875
2312.66327	1655.5875
2315.51999	1640.2875
2318.37489	1633.4875
2321.22797	1632.0875
2324.07925	1624.3875
2326.92871	1626.6875
2329.77637	1631.4875
2332.62222	1626.8875
2335.46626	1617.0875
2338.3085	1600.3875
2341.14893	1609.4875
2343.98756	1608.5875
2346.8244	1609.5875
2349.65943	1607.0875
2352.49267	1610.2875
2355.32411	1620.9875
2358.15376	1613.9875
2360.98161	1621.6875
2363.80768	1625.4875
2366.63195	1621.9875
2369.45444	1630.0875
2372.27514	1624.5875
2375.09405	1621.1875
2377.91118	1622.3875
2380.72652	1611.2875
2383.54009	1599.2875
2386.35187	1583.5875
2389.16188	1575.8875
2391.97011	1571.5875
2394.77657	1561.8875
2397.58125	1553.0875
2400.38416	1553.4875
2403.18529	1543.4875
2405.98466	1541.4875
2408.78226	1530.9875
2411.57809	1528.6875
2414.37216	1532.1875
2417.16446	1521.8875
2419.955	1524.3875
2422.74378	1525.9875
2425.5308	1520.0875
2428.31606	1517.3875
2431.09956	1521.1875
2433.88131	1527.8875
2436.6613	1522.1875
2439.43954	1519.5875
2442.21603	1512.4875
2444.99077	1523.2875
2447.76377	1527.6875
2450.53501	1515.8875
2453.30451	1523.5875
2456.07226	1519.4875
2458.83827	1512.0875
2461.60254	1513.7875
2464.36507	1511.9875
2467.12586	1506.3875
2469.88492	1505.3875
2472.64224	1503.8875
2475.39782	1484.3875
2478.15167	1478.4875
2480.90379	1496.2875
2483.65417	1504.0875
2486.40283	1511.1875
2489.14976	1519.3875
2491.89497	1522.3875
2494.63845	1503.5875
2497.3802	1478.3875
2500.12024	1498.5875
2502.85855	1491.2875
2505.59514	1500.0875
2508.33002	1483.3875
2511.06318	1468.4875
2513.79462	1458.7875
2516.52435	1458.0875
2519.25237	1458.5875
2521.97867	1450.3875
2524.70327	1437.3875
2527.42616	1423.2875
2530.14734	1420.7875
2532.86681	1428.8875
2535.58458	1432.7875
2538.30065	1428.8875
2541.01501	1422.5875
2543.72768	1421.5875
2546.43864	1417.0875
2549.14791	1413.7875
2551.85548	1418.0875
2554.56136	1422.8875
2557.26554	1414.0875
2559.96803	1398.0875
2562.66883	1404.1875
2565.36794	1412.1875
2568.06536	1416.8875
2570.7611	1402.0875
2573.45514	1398.5875
2576.14751	1396.5875
2578.83819	1396.2875
2581.52719	1384.6875
2584.21451	1391.1875
2586.90015	1373.5875
2589.58411	1370.6875
2592.2664	1376.2875
2594.94701	1372.6875
2597.62594	1372.7875
2600.30321	1362.5875
2602.9788	1359.0875
2605.65273	1356.9875
2608.32498	1357.7875
2610.99557	1364.4875
2613.66449	1356.7875
2616.33175	1353.4875
2618.99734	1355.8875
2621.66128	1351.9875
2624.32355	1340.4875
2626.98416	1347.5875
2629.64311	1338.1875
2632.30041	1338.9875
2634.95605	1332.5875
2637.61004	1329.8875
2640.26238	1329.2875
2642.91306	1331.5875
2645.56209	1317.1875
2648.20948	1310.5875
2650.85521	1301.4875
2653.4993	1311.5875
2656.14175	1307.5875
2658.78255	1320.6875
2661.42171	1319.4875
2664.05923	1317.6875
2666.6951	1323.7875
2669.32934	1327.5875
2671.96194	1322.7875
2674.59291	1331.1875
2677.22224	1325.1875
2679.84993	1330.6875
2682.476	1325.0875
2685.10043	1322.2875
2687.72324	1311.8875
2690.34441	1312.1875
2692.96396	1307.3875
2695.58188	1309.1875
2698.19818	1308.2875
2700.81285	1309.5875
2703.4259	1269.6875
2706.03733	1177.1875
2708.64714	1217.2875
2711.25533	1272.7875
2713.86191	1286.7875
2716.46687	1284.9875
2719.07021	1309.3875
2721.67194	1319.0875
2724.27206	1317.7875
2726.87057	1310.4875
2729.46747	1317.9875
2732.06276	1319.2875
2734.65644	1303.2875
2737.24852	1309.1875
2739.83899	1305.0875
2742.42786	1307.4875
2745.01513	1302.2875
2747.60079	1296.4875
2750.18486	1296.5875
2752.76733	1298.2875
2755.3482	1287.8875
2757.92747	1289.0875
2760.50515	1286.6875
2763.08123	1292.5875
2765.65573	1292.2875
2768.22863	1277.4875
2770.79994	1279.7875
2773.36967	1279.4875
2775.9378	1280.8875
2778.50435	1279.6875
2781.06932	1276.9875
2783.6327	1284.3875
2786.1945	1280.6875
2788.75471	1278.8875
2791.31335	1271.7875
2793.87041	1265.3875
2796.42589	1274.1875
2798.97979	1282.2875
2801.53212	1273.4875
2804.08288	1262.1875
2806.63206	1275.2875
2809.17967	1274.1875
2811.72571	1273.2875
2814.27018	1266.6875
2816.81308	1267.5875
2819.35442	1265.2875
2821.89419	1272.8875
2824.43239	1279.5875
2826.96904	1278.7875
2829.50412	1282.0875
2832.03763	1278.3875
2834.56959	1277.0875
2837.1	1283.8875
2839.62884	1287.4875
2842.15613	1290.0875
2844.68186	1308.2875
2847.20604	1334.1875
2849.72867	1338.3875
2852.24974	1343.6875
2854.76927	1330.0875
2857.28724	1314.7875
2859.80367	1336.0875
2862.31855	1345.1875
2864.83189	1353.4875
2867.34368	1360.2875
2869.85393	1368.9875
2872.36264	1373.0875
2874.8698	1378.8875
2877.37543	1383.0875
2879.87952	1386.2875
2882.38207	1388.5875
2884.88308	1383.4875
2887.38256	1392.2875
2889.88051	1393.2875
2892.37692	1384.7875
2894.8718	1387.4875
2897.36515	1396.8875
2899.85698	1402.5875
2902.34727	1403.9875
2904.83604	1407.9875
2907.32328	1408.8875
2909.809	1395.0875
2912.29319	1417.1875
2914.77587	1406.4875
2917.25702	1394.7875
2919.73665	1395.6875
2922.21476	1402.7875
2924.69136	1394.5875
2927.16644	1407.8875
2929.64	1391.3875
2932.11205	1382.5875
2934.58258	1368.0875
2937.05161	1362.1875
2939.51912	1351.9875
2941.98513	1341.1875
2944.44962	1326.0875
2946.91261	1312.1875
2949.37409	1305.3875
2951.83407	1296.2875
2954.29254	1297.9875
2956.74951	1282.0875
2959.20498	1279.1875
2961.65895	1269.7875
2964.11142	1264.6875
2966.56239	1256.9875
2969.01186	1248.6875
2971.45984	1243.7875
2973.90632	1229.3875
2976.35131	1220.5875
2978.7948	1219.2875
2981.23681	1210.3875
2983.67732	1202.0875
2986.11635	1189.0875
2988.55388	1190.0875
2990.98993	1190.0875
2993.4245	1180.0875
2995.85758	1174.3875
2998.28917	1175.1875
3000.71928	1170.1875
3003.14791	1169.7875
3005.57506	1176.8875
3008.00073	1171.9875
3010.42493	1173.3875
3012.84764	1170.4875
3015.26888	1167.4875
3017.68865	1161.7875
3020.10694	1159.9875
3022.52376	1151.2875
3024.9391	1150.7875
3027.35298	1154.2875
3029.76539	1153.3875
3032.17632	1163.4875
3034.5858	1143.0875
3036.9938	1147.0875
3039.40034	1144.3875
3041.80542	1146.8875
3044.20903	1141.9875
3046.61118	1138.7875
3049.01187	1136.5875
3051.4111	1134.7875
3053.80888	1141.0875
3056.20519	1141.6875
3058.60005	1139.2875
3060.99345	1139.2875
3063.3854	1140.0875
3065.7759	1138.7875
3068.16494	1134.4875
3070.55254	1136.0875
3072.93868	1124.5875
3075.32338	1126.6875
3077.70662	1125.6875
3080.08842	1129.0875
3082.46878	1131.3875
3084.84769	1129.0875
3087.22515	1122.5875
3089.60118	1129.2875
3091.97576	1134.3875
3094.3489	1137.1875
3096.72061	1146.2875
3099.09087	1141.8875
3101.4597	1144.3875
3103.82709	1142.7875
3106.19305	1143.3875
3108.55757	1148.2875
3110.92066	1153.0875
3113.28232	1141.4875
3115.64255	1149.6875
3118.00134	1153.2875
3120.35871	1152.6875
3122.71466	1152.0875
3125.06917	1159.2875
