Data from AgNPs_FTO_APTES_UA_50uM_CRN_1uM_R6G_10uM_NaF_0.1M_Addition_RamanShift__7__11-23-44-712.txt Node

Date: Mon Feb 21 11:23:44 GMT 2022
User: TCL
Spectrometer: QEP01345
Trigger mode: 4
Integration Time (sec): 7.000000E0
Scans to average: 10
Electric dark correction enabled: true
Nonlinearity correction enabled: false
Boxcar width: 0
XAxis mode: Raman Shifts
Number of Pixels in Spectrum: 1044
>>>>>Begin Spectral Data<<<<<
46.04893	0.125
50.45542	-1.275
54.85868	-1.675
59.25871	-0.975
63.6555	63.925
68.04907	69.425
72.43941	71.325
76.82654	70.725
81.21044	80.725
85.59113	81.325
89.96862	83.425
94.34289	86.025
98.71396	87.325
103.08183	93.125
107.4465	90.925
111.80798	89.725
116.16626	92.325
120.52136	94.125
124.87327	107.525
129.222	106.025
133.56755	108.325
137.90993	119.325
142.24913	129.125
146.58517	140.725
150.91804	162.425
155.24774	194.725
159.57429	240.625
163.89768	305.825
168.21792	404.325
172.53501	547.225
176.84895	765.025
181.15975	1073.925
185.46741	1500.525
189.77193	2079.825
194.07331	2766.225
198.37157	3568.725
202.6667	4422.625
206.9587	5254.425
211.24758	6072.825
215.53334	6879.925
219.81599	7757.525
224.09553	8722.325
228.37195	9781.525
232.64527	10959.525
236.91549	12175.325
241.18261	13425.925
245.44663	14558.725
249.70755	15617.325
253.96539	16537.625
258.22014	17287.125
262.4718	17852.925
266.72039	18286.725
270.96589	18468.625
275.20832	18483.625
279.44768	18274.325
283.68397	18049.125
287.91719	17851.725
292.14735	17789.025
296.37445	17709.725
300.59849	17728.125
304.81948	17822.725
309.03742	17854.225
313.25231	17801.825
317.46415	17622.025
321.67296	17322.525
325.87872	17036.525
330.08145	16912.525
334.28114	16881.325
338.47781	16978.225
342.67145	17172.425
346.86207	17433.725
351.04966	17789.525
355.23424	18156.025
359.4158	18463.125
363.59435	18734.825
367.76989	18917.425
371.94243	18985.725
376.11196	19009.725
380.27849	19072.125
384.44203	19138.825
388.60257	19282.125
392.76012	19471.425
396.91468	19739.925
401.06626	20044.025
405.21485	20280.625
409.36047	20202.425
413.50311	19975.225
417.64277	19886.625
421.77947	19933.625
425.9132	20007.225
430.04396	20073.225
434.17176	20164.925
438.2966	20260.825
442.41849	20533.025
446.53742	20999.625
450.6534	21529.725
454.76644	21950.325
458.87653	22072.925
462.98368	22015.225
467.08789	21772.525
471.18916	21502.625
475.2875	21149.025
479.38291	20937.025
483.4754	20823.625
487.56496	20663.225
491.6516	20458.425
495.73531	20216.725
499.81612	20112.725
503.89401	20238.225
507.96899	20316.725
512.04106	20306.625
516.11023	20179.925
520.1765	20021.925
524.23987	19896.325
528.30034	19759.325
532.35792	19640.525
536.41261	19414.525
540.46441	19237.925
544.51333	19167.625
548.55936	19305.025
552.60252	19645.525
556.64279	20112.425
560.6802	20474.925
564.71473	20695.225
568.7464	21038.525
572.7752	21624.425
576.80114	22295.025
580.82422	23033.325
584.84444	23920.925
588.86181	25149.725
592.87633	26250.825
596.888	26250.325
600.89682	25012.825
604.9028	24295.825
608.90594	25346.625
612.90624	26773.925
616.90371	25317.625
620.89834	21871.025
624.89015	20292.625
628.87913	20111.225
632.86528	20281.425
636.84862	20287.825
640.82913	19975.025
644.80683	19509.625
648.78172	19198.325
652.75379	19210.125
656.72306	19443.425
660.68952	19723.825
664.65319	19667.825
668.61405	19411.425
672.57211	19368.925
676.52738	19493.325
680.47986	19484.325
684.42955	19301.825
688.37646	19246.625
692.32058	19394.925
696.26192	19684.025
700.20048	19941.225
704.13626	20094.425
708.06928	20060.225
711.99952	20004.125
715.927	20027.225
719.85171	20134.925
723.77365	20042.825
727.69284	19738.025
731.60928	19430.725
735.52295	19333.725
739.43388	19298.625
743.34206	19353.125
747.24749	19484.325
751.15017	19680.425
755.05012	19988.325
758.94733	20486.525
762.8418	21322.225
766.73354	22535.525
770.62254	23749.725
774.50882	23906.425
778.39237	23069.425
782.27321	21786.525
786.15132	20756.525
790.02671	20044.625
793.89938	19649.325
797.76935	19451.325
801.6366	19390.825
805.50115	19339.225
809.36299	19291.025
813.22213	19166.625
817.07857	19100.225
820.93231	19046.625
824.78336	18941.725
828.63172	18849.525
832.47738	18813.625
836.32036	18821.825
840.16066	18827.525
843.99827	18870.425
847.8332	18842.225
851.66546	18866.625
855.49504	18903.425
859.32195	18923.925
863.1462	18882.725
866.96777	18866.325
870.78668	18808.825
874.60293	18865.425
878.41652	18900.125
882.22745	19001.025
886.03573	19053.825
889.84136	19005.825
893.64433	18973.925
897.44466	18921.125
901.24235	18830.525
905.0374	18763.925
908.8298	18726.125
912.61957	18729.825
916.40671	18837.325
920.19121	19056.025
923.97308	19279.725
927.75233	19355.725
931.52895	19251.625
935.30295	18959.325
939.07433	18663.325
942.84309	18403.325
946.60924	18320.425
950.37278	18309.225
954.13371	18291.025
957.89203	18319.925
961.64774	18246.925
965.40086	18291.625
969.15137	18219.925
972.89929	18232.225
976.64461	18146.325
980.38733	18168.325
984.12747	18171.925
987.86502	18323.925
991.59999	18399.525
995.33237	18631.725
999.06217	18903.725
1002.78939	19305.125
1006.51404	19685.025
1010.23611	20046.125
1013.95561	20302.225
1017.67255	20341.925
1021.38692	20143.325
1025.09872	19787.225
1028.80796	19588.225
1032.51465	19567.325
1036.21877	19646.225
1039.92035	19756.125
1043.61937	19782.225
1047.31584	19704.425
1051.00976	19658.525
1054.70114	19632.425
1058.38998	19683.225
1062.07627	19849.225
1065.76003	20034.125
1069.44126	20273.925
1073.11995	20672.725
1076.79611	21027.225
1080.46974	21200.625
1084.14085	21362.525
1087.80943	21596.325
1091.47549	21759.125
1095.13903	21869.525
1098.80005	21545.225
1102.45857	21056.525
1106.11456	20654.325
1109.76805	20459.625
1113.41903	20415.625
1117.06751	20484.025
1120.71348	20649.625
1124.35696	20798.625
1127.99793	21065.325
1131.63641	21214.825
1135.2724	21181.925
1138.90589	21144.525
1142.5369	21117.825
1146.16542	21272.525
1149.79145	21432.725
1153.415	21643.125
1157.03607	21869.825
1160.65467	22384.825
1164.27079	23199.925
1167.88443	24285.025
1171.49561	25440.325
1175.10432	26839.025
1178.71056	28708.625
1182.31434	30436.325
1185.91565	31276.325
1189.51451	31227.025
1193.11091	30540.025
1196.70485	29555.125
1200.29634	28614.825
1203.88538	27840.625
1207.47197	27511.025
1211.05612	27236.425
1214.63782	26846.225
1218.21708	26254.925
1221.79391	25606.525
1225.36829	25147.725
1228.94024	24886.625
1232.50976	24629.325
1236.07685	24277.925
1239.6415	24005.825
1243.20374	23916.825
1246.76355	24035.425
1250.32093	24331.225
1253.8759	24814.625
1257.42845	25466.225
1260.97859	26197.925
1264.52631	27042.025
1268.07163	27923.625
1271.61453	28672.625
1275.15503	29359.325
1278.69312	30172.325
1282.22882	31025.125
1285.76211	32047.325
1289.29301	33293.025
1292.82151	34613.925
1296.34761	36250.025
1299.87133	38117.825
1303.39266	40039.925
1306.9116	41783.625
1310.42815	43032.325
1313.94233	43596.125
1317.45412	43247.725
1320.96354	42411.525
1324.47058	41584.925
1327.97525	41043.925
1331.47754	40750.425
1334.97747	40458.825
1338.47502	40034.025
1341.97022	39492.025
1345.46305	38885.325
1348.95352	38505.025
1352.44163	38561.525
1355.92738	39481.325
1359.41078	41185.425
1362.89183	42822.525
1366.37053	42606.025
1369.84688	39831.925
1373.32088	35792.625
1376.79254	32743.125
1380.26186	31588.125
1383.72883	31464.525
1387.19347	31436.425
1390.65578	31048.825
1394.11575	30799.025
1397.57339	30960.725
1401.0287	31426.325
1404.48168	31792.525
1407.93234	31736.525
1411.38068	31314.425
1414.82669	30424.525
1418.27039	29418.225
1421.71177	28451.225
1425.15083	27645.125
1428.58758	27374.725
1432.02203	27639.925
1435.45416	28308.025
1438.88399	29068.325
1442.31151	29541.025
1445.73673	29741.325
1449.15965	29868.325
1452.58027	29809.425
1455.9986	29718.525
1459.41463	29852.825
1462.82837	30286.525
1466.23982	30838.725
1469.64898	31385.925
1473.05586	31680.925
1476.46045	31749.725
1479.86276	31659.625
1483.26279	31567.525
1486.66054	31575.625
1490.05602	31807.125
1493.44922	32172.925
1496.84016	32619.425
1500.22882	33175.525
1503.61521	33795.925
1506.99934	34561.125
1510.38121	35127.725
1513.76081	35167.825
1517.13816	34536.525
1520.51324	33664.725
1523.88607	32999.225
1527.25665	32777.725
1530.62498	32729.925
1533.99105	32473.225
1537.35488	31977.025
1540.71647	31156.625
1544.07581	30298.425
1547.4329	29456.325
1550.78776	28775.725
1554.14038	28383.925
1557.49077	28146.725
1560.83892	28051.725
1564.18484	28038.025
1567.52853	28132.825
1570.86999	28369.125
1574.20922	28845.725
1577.54624	29305.525
1580.88103	29462.625
1584.2136	29798.925
1587.54395	30677.525
1590.87208	32285.725
1594.19801	34291.825
1597.52172	35941.125
1600.84321	36239.425
1604.16251	34552.925
1607.47959	31866.725
1610.79447	29088.325
1614.10715	26629.925
1617.41763	24734.725
1620.7259	23512.125
1624.03199	22946.525
1627.33587	23010.725
1630.63757	23676.025
1633.93707	25212.525
1637.23439	27693.425
1640.52951	31411.025
1643.82246	35910.025
1647.11321	39411.725
1650.40179	39848.125
1653.68819	36753.425
1656.97241	31737.625
1660.25446	27019.325
1663.53433	23615.725
1666.81203	21561.525
1670.08756	20350.625
1673.36092	19611.325
1676.63211	19154.525
1679.90115	18812.825
1683.16801	18512.625
1686.43272	18341.625
1689.69527	18100.825
1692.95567	17946.125
1696.2139	17798.025
1699.46999	17622.525
1702.72392	17553.625
1705.97571	17630.625
1709.22535	17683.425
1712.47284	17750.825
1715.71819	17737.525
1718.96139	17737.225
1722.20246	17657.125
1725.44139	17574.925
1728.67818	17510.425
1731.91284	17430.925
1735.14537	17322.125
1738.37576	17268.825
1741.60403	17181.825
1744.83017	17131.325
1748.05418	17046.325
1751.27607	16981.925
1754.49584	16896.725
1757.71349	16848.825
1760.92903	16773.325
1764.14244	16755.525
1767.35375	16761.525
1770.56294	16745.125
1773.77002	16748.825
1776.97499	16786.025
1780.17785	16763.825
1783.37861	16816.625
1786.57727	16782.425
1789.77382	16787.925
1792.96828	16762.425
1796.16064	16755.325
1799.3509	16702.825
1802.53907	16701.025
1805.72514	16634.025
1808.90913	16610.825
1812.09102	16591.125
1815.27083	16557.625
1818.44856	16570.925
1821.6242	16545.325
1824.79776	16543.125
1827.96924	16533.025
1831.13864	16547.025
1834.30597	16560.125
1837.47122	16524.125
1840.6344	16516.125
1843.7955	16528.225
1846.95454	16514.125
1850.11151	16493.825
1853.26642	16469.525
1856.41926	16453.125
1859.57004	16451.825
1862.71876	16444.825
1865.86542	16454.925
1869.01003	16435.425
1872.15258	16392.725
1875.29308	16426.925
1878.43152	16335.225
1881.56792	16347.825
1884.70227	16356.625
1887.83457	16329.325
1890.96482	16335.025
1894.09304	16234.025
1897.21921	16279.525
1900.34335	16217.325
1903.46544	16192.925
1906.58551	16200.225
1909.70353	16177.725
1912.81953	16167.625
1915.93349	16149.425
1919.04543	16119.725
1922.15534	16099.125
1925.26322	16062.925
1928.36908	15990.625
1931.47292	15962.725
1934.57473	15910.625
1937.67453	15887.825
1940.77232	15846.825
1943.86808	15831.825
1946.96184	15784.325
1950.05358	15752.025
1953.14331	15745.825
1956.23103	15664.425
1959.31675	15619.225
1962.40046	15576.825
1965.48217	15528.925
1968.56188	15517.525
1971.63959	15462.125
1974.7153	15457.025
1977.78901	15388.425
1980.86073	15337.725
1983.93046	15291.625
1986.99819	15231.925
1990.06394	15192.425
1993.1277	15166.925
1996.18947	15145.525
1999.24925	15087.025
2002.30706	15025.625
2005.36288	14989.225
2008.41672	14960.225
2011.46859	14912.425
2014.51848	14875.225
2017.56639	14836.825
2020.61233	14809.825
2023.6563	14789.725
2026.6983	14765.225
2029.73833	14698.425
2032.7764	14688.025
2035.8125	14642.025
2038.84664	14636.425
2041.87881	14666.625
2044.90903	14583.925
2047.93729	14584.825
2050.96359	14566.425
2053.98794	14541.025
2057.01034	14542.425
2060.03078	14516.525
2063.04927	14512.425
2066.06582	14514.925
2069.08042	14497.425
2072.09307	14495.625
2075.10378	14486.525
2078.11255	14476.225
2081.11938	14482.725
2084.12426	14480.825
2087.12722	14504.225
2090.12824	14483.925
2093.12732	14495.025
2096.12447	14477.325
2099.11969	14483.125
2102.11299	14498.125
2105.10435	14471.825
2108.09379	14489.725
2111.08131	14500.125
2114.0669	14526.425
2117.05057	14576.725
2120.03233	14544.025
2123.01216	14585.825
2125.99008	14607.225
2128.96609	14594.225
2131.94018	14633.125
2134.91236	14595.225
2137.88263	14655.225
2140.851	14656.025
2143.81746	14662.625
2146.78201	14652.225
2149.74466	14666.625
2152.7054	14683.425
2155.66425	14656.725
2158.6212	14654.325
2161.57625	14637.925
2164.52941	14637.025
2167.48067	14644.525
2170.43004	14629.525
2173.37752	14624.725
2176.32311	14606.025
2179.26681	14601.225
2182.20863	14620.825
2185.14856	14628.625
2188.08661	14647.125
2191.02278	14606.225
2193.95707	14625.125
2196.88948	14595.725
2199.82001	14614.925
2202.74867	14595.825
2205.67545	14573.225
2208.60037	14565.025
2211.52341	14553.125
2214.44458	14497.225
2217.36388	14469.725
2220.28132	14480.925
2223.1969	14459.925
2226.11061	14439.025
2229.02246	14431.325
2231.93245	14398.025
2234.84058	14385.425
2237.74686	14376.725
2240.65128	14358.625
2243.55385	14321.625
2246.45456	14331.225
2249.35343	14288.225
2252.25044	14263.825
2255.14561	14273.525
2258.03893	14264.625
2260.93041	14168.025
2263.82004	14168.625
2266.70783	14161.725
2269.59378	14117.325
2272.4779	14109.025
2275.36017	14089.525
2278.24061	14056.525
2281.11922	14020.925
2283.996	14013.125
2286.87094	13987.525
2289.74405	13957.325
2292.61534	13958.825
2295.4848	13963.125
2298.35243	13942.925
2301.21824	13913.925
2304.08223	13928.425
2306.94439	13920.325
2309.80474	13930.625
2312.66327	13922.125
2315.51999	13895.525
2318.37489	13909.325
2321.22797	13867.225
2324.07925	13878.025
2326.92871	13831.525
2329.77637	13852.125
2332.62222	13824.425
2335.46626	13774.125
2338.3085	13802.225
2341.14893	13772.525
2343.98756	13793.825
2346.8244	13785.825
2349.65943	13769.825
2352.49267	13773.725
2355.32411	13783.125
2358.15376	13773.925
2360.98161	13768.525
2363.80768	13750.125
2366.63195	13756.325
2369.45444	13707.425
2372.27514	13708.925
2375.09405	13705.525
2377.91118	13684.425
2380.72652	13645.125
2383.54009	13617.625
2386.35187	13623.525
2389.16188	13554.625
2391.97011	13565.525
2394.77657	13558.825
2397.58125	13535.725
2400.38416	13523.525
2403.18529	13538.525
2405.98466	13533.225
2408.78226	13496.625
2411.57809	13455.425
2414.37216	13450.025
2417.16446	13451.525
2419.955	13434.925
2422.74378	13439.925
2425.5308	13417.425
2428.31606	13386.425
2431.09956	13399.425
2433.88131	13399.125
2436.6613	13411.125
2439.43954	13414.225
2442.21603	13413.525
2444.99077	13375.625
2447.76377	13409.025
2450.53501	13372.925
2453.30451	13357.325
2456.07226	13345.225
2458.83827	13373.625
2461.60254	13361.325
2464.36507	13372.725
2467.12586	13339.225
2469.88492	13333.625
2472.64224	13346.625
2475.39782	13315.425
2478.15167	13315.225
2480.90379	13333.725
2483.65417	13368.025
2486.40283	13350.025
2489.14976	13369.225
2491.89497	13336.125
2494.63845	13328.525
2497.3802	13317.525
2500.12024	13336.425
2502.85855	13336.425
2505.59514	13322.125
2508.33002	13325.225
2511.06318	13303.125
2513.79462	13289.125
2516.52435	13282.625
2519.25237	13254.825
2521.97867	13245.625
2524.70327	13234.325
2527.42616	13234.925
2530.14734	13261.525
2532.86681	13237.025
2535.58458	13243.825
2538.30065	13238.225
2541.01501	13196.725
2543.72768	13202.125
2546.43864	13174.625
2549.14791	13179.725
2551.85548	13172.625
2554.56136	13185.225
2557.26554	13152.325
2559.96803	13123.125
2562.66883	13078.525
2565.36794	13053.125
2568.06536	13075.325
2570.7611	13053.325
2573.45514	13048.625
2576.14751	13076.925
2578.83819	13059.925
2581.52719	13052.425
2584.21451	13017.325
2586.90015	13012.725
2589.58411	13013.025
2592.2664	12983.925
2594.94701	13012.025
2597.62594	12969.625
2600.30321	12965.625
2602.9788	12980.525
2605.65273	12945.425
2608.32498	12943.625
2610.99557	12944.325
2613.66449	12951.025
2616.33175	12926.625
2618.99734	12938.625
2621.66128	12902.625
2624.32355	12879.525
2626.98416	12884.425
2629.64311	12861.525
2632.30041	12858.425
2634.95605	12842.625
2637.61004	12810.325
2640.26238	12823.225
2642.91306	12809.025
2645.56209	12831.825
2648.20948	12811.425
2650.85521	12808.625
2653.4993	12778.425
2656.14175	12827.925
2658.78255	12853.825
2661.42171	12845.625
2664.05923	12862.225
2666.6951	12881.025
2669.32934	12892.825
2671.96194	12902.425
2674.59291	12858.125
2677.22224	12842.625
2679.84993	12868.925
2682.476	12874.125
2685.10043	12891.625
2687.72324	12889.025
2690.34441	12876.125
2692.96396	12874.625
2695.58188	12867.625
2698.19818	12883.925
2700.81285	12862.725
2703.4259	12818.125
2706.03733	12737.625
2708.64714	12798.125
2711.25533	12880.425
2713.86191	12889.225
2716.46687	12918.225
2719.07021	12954.025
2721.67194	12993.425
2724.27206	12949.825
2726.87057	12959.625
2729.46747	12964.225
2732.06276	12997.925
2734.65644	12948.125
2737.24852	12993.725
2739.83899	12973.625
2742.42786	12974.525
2745.01513	12945.925
2747.60079	12968.425
2750.18486	12955.325
2752.76733	12939.125
2755.3482	12873.125
2757.92747	12899.325
2760.50515	12884.125
2763.08123	12863.525
2765.65573	12860.525
2768.22863	12836.925
2770.79994	12842.625
2773.36967	12842.625
2775.9378	12838.525
2778.50435	12830.725
2781.06932	12844.225
2783.6327	12854.425
2786.1945	12837.425
2788.75471	12822.825
2791.31335	12796.225
2793.87041	12784.425
2796.42589	12758.525
2798.97979	12742.725
2801.53212	12695.225
2804.08288	12688.125
2806.63206	12667.925
2809.17967	12665.825
2811.72571	12644.825
2814.27018	12612.625
2816.81308	12570.025
2819.35442	12563.625
2821.89419	12548.725
2824.43239	12517.025
2826.96904	12515.225
2829.50412	12512.825
2832.03763	12478.225
2834.56959	12478.925
2837.1	12455.425
2839.62884	12454.625
2842.15613	12469.325
2844.68186	12461.625
2847.20604	12446.825
2849.72867	12451.625
2852.24974	12422.125
2854.76927	12402.125
2857.28724	12365.125
2859.80367	12391.925
2862.31855	12336.225
2864.83189	12328.925
2867.34368	12322.225
2869.85393	12382.625
2872.36264	12354.725
2874.8698	12352.025
2877.37543	12354.825
2879.87952	12339.225
2882.38207	12314.825
2884.88308	12345.925
2887.38256	12344.825
2889.88051	12321.025
2892.37692	12378.025
2894.8718	12341.425
2897.36515	12362.225
2899.85698	12320.725
2902.34727	12376.325
2904.83604	12390.325
2907.32328	12402.825
2909.809	12389.425
2912.29319	12386.125
2914.77587	12410.025
2917.25702	12406.525
2919.73665	12382.625
2922.21476	12389.925
2924.69136	12364.925
2927.16644	12392.525
2929.64	12351.925
2932.11205	12361.825
2934.58258	12331.125
2937.05161	12326.825
2939.51912	12345.425
2941.98513	12332.525
2944.44962	12298.225
2946.91261	12286.725
2949.37409	12302.725
2951.83407	12283.725
2954.29254	12293.025
2956.74951	12281.125
2959.20498	12258.025
2961.65895	12258.825
2964.11142	12237.925
2966.56239	12208.825
2969.01186	12252.925
2971.45984	12221.525
2973.90632	12215.425
2976.35131	12180.825
2978.7948	12176.025
2981.23681	12186.325
2983.67732	12150.725
2986.11635	12100.225
2988.55388	12070.025
2990.98993	12061.425
2993.4245	12028.325
2995.85758	12006.925
2998.28917	11973.125
3000.71928	11977.425
3003.14791	11952.725
3005.57506	11920.525
3008.00073	11893.125
3010.42493	11878.225
3012.84764	11861.325
3015.26888	11852.825
3017.68865	11813.625
3020.10694	11811.725
3022.52376	11772.625
3024.9391	11775.725
3027.35298	11775.525
3029.76539	11780.825
3032.17632	11760.925
3034.5858	11770.325
3036.9938	11734.025
3039.40034	11737.425
3041.80542	11690.325
3044.20903	11676.225
3046.61118	11686.625
3049.01187	11685.925
3051.4111	11635.625
3053.80888	11611.825
3056.20519	11594.025
3058.60005	11557.825
3060.99345	11568.625
3063.3854	11535.625
3065.7759	11504.925
3068.16494	11483.525
3070.55254	11436.325
3072.93868	11415.625
3075.32338	11381.225
3077.70662	11335.325
3080.08842	11300.525
3082.46878	11322.725
3084.84769	11288.125
3087.22515	11287.025
3089.60118	11306.725
3091.97576	11312.425
3094.3489	11287.525
3096.72061	11331.525
3099.09087	11289.325
3101.4597	11284.725
3103.82709	11280.625
3106.19305	11254.425
3108.55757	11284.525
3110.92066	11230.825
3113.28232	11224.025
3115.64255	11213.725
3118.00134	11202.325
3120.35871	11150.425
3122.71466	11127.625
3125.06917	11089.025
3127.42226	11084.625
3129.77393	11076.825
