Data from AgNPs_FTO_APTES_UA_50uM_CRN_50uM_R6G_10uM_NaF_0.1M_Addition_RamanShift__30__15-07-45-001.txt Node

Date: Mon Feb 21 15:07:45 GMT 2022
User: TCL
Spectrometer: QEP01345
Trigger mode: 4
Integration Time (sec): 7.000000E0
Scans to average: 10
Electric dark correction enabled: true
Nonlinearity correction enabled: false
Boxcar width: 0
XAxis mode: Raman Shifts
Number of Pixels in Spectrum: 1044
>>>>>Begin Spectral Data<<<<<
46.04893	-0.7125
50.45542	-0.5125
54.85868	-0.3125
59.25871	-0.8125
63.6555	39.9875
68.04907	48.8875
72.43941	49.3875
76.82654	57.4875
81.21044	55.7875
85.59113	61.6875
89.96862	58.8875
94.34289	67.6875
98.71396	63.8875
103.08183	71.5875
107.4465	69.6875
111.80798	68.1875
116.16626	68.4875
120.52136	71.0875
124.87327	75.0875
129.222	72.9875
133.56755	74.7875
137.90993	80.2875
142.24913	81.2875
146.58517	87.6875
150.91804	98.6875
155.24774	114.5875
159.57429	133.4875
163.89768	168.3875
168.21792	220.4875
172.53501	289.4875
176.84895	397.9875
181.15975	547.8875
185.46741	763.6875
189.77193	1041.4875
194.07331	1395.5875
198.37157	1801.4875
202.6667	2225.6875
206.9587	2653.6875
211.24758	3077.2875
215.53334	3535.2875
219.81599	4061.0875
224.09553	4681.0875
228.37195	5395.5875
232.64527	6127.6875
236.91549	6888.5875
241.18261	7540.6875
245.44663	8017.4875
249.70755	8382.5875
253.96539	8641.5875
258.22014	8828.4875
262.4718	8984.9875
266.72039	9064.4875
270.96589	9101.8875
275.20832	8981.2875
279.44768	8777.6875
283.68397	8553.2875
287.91719	8461.3875
292.14735	8556.9875
296.37445	8896.1875
300.59849	9548.3875
304.81948	10311.0875
309.03742	10849.9875
313.25231	10926.6875
317.46415	10166.7875
321.67296	9027.1875
325.87872	8061.9875
330.08145	7652.7875
334.28114	7629.7875
338.47781	7874.9875
342.67145	8197.2875
346.86207	8770.8875
351.04966	9606.8875
355.23424	10565.9875
359.4158	11265.2875
363.59435	11556.7875
367.76989	11593.3875
371.94243	11507.0875
376.11196	11364.1875
380.27849	11223.9875
384.44203	10935.1875
388.60257	10631.8875
392.76012	10404.1875
396.91468	10444.0875
401.06626	10769.4875
405.21485	11017.1875
409.36047	10619.6875
413.50311	9676.4875
417.64277	8780.0875
421.77947	8241.9875
425.9132	7982.7875
430.04396	7916.7875
434.17176	7939.1875
438.2966	8091.6875
442.41849	8349.0875
446.53742	8691.5875
450.6534	8951.6875
454.76644	9104.2875
458.87653	9082.3875
462.98368	8923.4875
467.08789	8745.4875
471.18916	8444.3875
475.2875	8128.5875
479.38291	7886.4875
483.4754	7721.0875
487.56496	7592.2875
491.6516	7543.6875
495.73531	7526.5875
499.81612	7601.5875
503.89401	7741.2875
507.96899	8001.5875
512.04106	8308.3875
516.11023	8607.6875
520.1765	8854.4875
524.23987	8811.3875
528.30034	8530.2875
532.35792	8228.2875
536.41261	7922.9875
540.46441	7596.0875
544.51333	7424.6875
548.55936	7459.7875
552.60252	7673.8875
556.64279	7967.0875
560.6802	8130.3875
564.71473	8377.2875
568.7464	8985.2875
572.7752	9270.2875
576.80114	8697.3875
580.82422	8064.0875
584.84444	7776.5875
588.86181	7690.8875
592.87633	7715.7875
596.888	7849.8875
600.89682	8349.5875
604.9028	10136.3875
608.90594	14959.1875
612.90624	21559.0875
616.90371	20587.0875
620.89834	12505.0875
624.89015	8794.9875
628.87913	8053.6875
632.86528	8221.9875
636.84862	8493.0875
640.82913	8321.0875
644.80683	7724.4875
648.78172	7313.8875
652.75379	7347.6875
656.72306	7912.4875
660.68952	8585.4875
664.65319	8367.9875
668.61405	7614.9875
672.57211	7247.3875
676.52738	7218.6875
680.47986	7209.3875
684.42955	7140.9875
688.37646	7042.4875
692.32058	7054.4875
696.26192	7148.8875
700.20048	7261.7875
704.13626	7369.6875
708.06928	7329.0875
711.99952	7213.4875
715.927	7218.9875
719.85171	7284.3875
723.77365	7348.5875
727.69284	7273.3875
731.60928	7188.1875
735.52295	7210.7875
739.43388	7238.1875
743.34206	7304.5875
747.24749	7306.2875
751.15017	7362.4875
755.05012	7569.9875
758.94733	8199.2875
762.8418	9688.1875
766.73354	12231.2875
770.62254	14977.4875
774.50882	16634.2875
778.39237	16016.4875
782.27321	13108.2875
786.15132	10120.9875
790.02671	8466.1875
793.89938	7756.0875
797.76935	7471.0875
801.6366	7350.7875
805.50115	7285.1875
809.36299	7258.8875
813.22213	7233.1875
817.07857	7216.0875
820.93231	7179.6875
824.78336	7205.8875
828.63172	7263.2875
832.47738	7274.4875
836.32036	7217.8875
840.16066	7144.2875
843.99827	7097.4875
847.8332	7086.3875
851.66546	7075.1875
855.49504	7073.9875
859.32195	7072.7875
863.1462	7013.9875
866.96777	6974.5875
870.78668	6966.2875
874.60293	7013.4875
878.41652	7085.5875
882.22745	7172.3875
886.03573	7263.6875
889.84136	7253.8875
893.64433	7151.3875
897.44466	7158.2875
901.24235	7153.1875
905.0374	7117.0875
908.8298	7027.4875
912.61957	6962.7875
916.40671	6983.5875
920.19121	7028.6875
923.97308	7117.3875
927.75233	7303.2875
931.52895	7478.7875
935.30295	7418.3875
939.07433	7099.5875
942.84309	6778.3875
946.60924	6590.9875
950.37278	6511.0875
954.13371	6474.5875
957.89203	6464.4875
961.64774	6428.8875
965.40086	6430.1875
969.15137	6385.4875
972.89929	6381.4875
976.64461	6374.3875
980.38733	6361.4875
984.12747	6407.5875
987.86502	6426.5875
991.59999	6466.9875
995.33237	6568.7875
999.06217	6742.5875
1002.78939	6924.1875
1006.51404	7147.5875
1010.23611	7358.0875
1013.95561	7512.2875
1017.67255	7480.2875
1021.38692	7372.1875
1025.09872	7223.2875
1028.80796	7125.6875
1032.51465	7176.2875
1036.21877	7315.8875
1039.92035	7423.1875
1043.61937	7450.5875
1047.31584	7410.6875
1051.00976	7344.6875
1054.70114	7271.6875
1058.38998	7231.2875
1062.07627	7263.2875
1065.76003	7293.6875
1069.44126	7315.6875
1073.11995	7422.0875
1076.79611	7579.8875
1080.46974	7866.1875
1084.14085	8287.6875
1087.80943	8670.3875
1091.47549	8771.1875
1095.13903	8483.3875
1098.80005	8001.3875
1102.45857	7676.2875
1106.11456	7617.1875
1109.76805	7774.2875
1113.41903	8146.5875
1117.06751	8730.4875
1120.71348	9441.5875
1124.35696	10233.3875
1127.99793	10818.3875
1131.63641	10518.9875
1135.2724	9581.2875
1138.90589	8784.4875
1142.5369	8319.1875
1146.16542	7966.8875
1149.79145	7800.1875
1153.415	7740.1875
1157.03607	7817.6875
1160.65467	8042.0875
1164.27079	8446.9875
1167.88443	9042.5875
1171.49561	10112.9875
1175.10432	11986.5875
1178.71056	14473.7875
1182.31434	16285.8875
1185.91565	16490.7875
1189.51451	15576.4875
1193.11091	14040.8875
1196.70485	12429.5875
1200.29634	11467.4875
1203.88538	10739.2875
1207.47197	9824.3875
1211.05612	8961.2875
1214.63782	8466.4875
1218.21708	8281.3875
1221.79391	8249.2875
1225.36829	8272.3875
1228.94024	8301.4875
1232.50976	8333.3875
1236.07685	8336.9875
1239.6415	8411.5875
1243.20374	8496.5875
1246.76355	8603.1875
1250.32093	8712.6875
1253.8759	8960.8875
1257.42845	9301.6875
1260.97859	9687.9875
1264.52631	10146.6875
1268.07163	10565.4875
1271.61453	10950.7875
1275.15503	11180.9875
1278.69312	11265.5875
1282.22882	11323.6875
1285.76211	11630.5875
1289.29301	12124.1875
1292.82151	12654.9875
1296.34761	13228.3875
1299.87133	14206.7875
1303.39266	16055.9875
1306.9116	18953.3875
1310.42815	21914.4875
1313.94233	23026.8875
1317.45412	21502.3875
1320.96354	18843.0875
1324.47058	16198.2875
1327.97525	14214.2875
1331.47754	13136.0875
1334.97747	12813.2875
1338.47502	13078.5875
1341.97022	13851.9875
1345.46305	15194.3875
1348.95352	17012.6875
1352.44163	19302.8875
1355.92738	22640.1875
1359.41078	27525.5875
1362.89183	31311.6875
1366.37053	29185.6875
1369.84688	23288.2875
1373.32088	18126.5875
1376.79254	14799.3875
1380.26186	12987.5875
1383.72883	11956.7875
1387.19347	11160.4875
1390.65578	10437.6875
1394.11575	9867.4875
1397.57339	9607.7875
1401.0287	9533.2875
1404.48168	9582.3875
1407.93234	9707.9875
1411.38068	9893.5875
1414.82669	10072.0875
1418.27039	10108.6875
1421.71177	9993.3875
1425.15083	9835.2875
1428.58758	9808.9875
1432.02203	9912.4875
1435.45416	9991.5875
1438.88399	9985.9875
1442.31151	9955.4875
1445.73673	9970.7875
1449.15965	10050.5875
1452.58027	9983.7875
1455.9986	9855.6875
1459.41463	9815.4875
1462.82837	9941.5875
1466.23982	10217.0875
1469.64898	10513.7875
1473.05586	10702.6875
1476.46045	10848.9875
1479.86276	11139.6875
1483.26279	11582.9875
1486.66054	12121.6875
1490.05602	12877.9875
1493.44922	14036.0875
1496.84016	15856.2875
1500.22882	18729.6875
1503.61521	22555.5875
1506.99934	26745.7875
1510.38121	30055.1875
1513.76081	30639.1875
1517.13816	27582.6875
1520.51324	22562.5875
1523.88607	18044.8875
1527.25665	15157.9875
1530.62498	13568.5875
1533.99105	12667.0875
1537.35488	12091.7875
1540.71647	11821.6875
1544.07581	11814.4875
1547.4329	11902.1875
1550.78776	12015.8875
1554.14038	12128.7875
1557.49077	12318.9875
1560.83892	12666.0875
1564.18484	13287.9875
1567.52853	14045.6875
1570.86999	14693.8875
1574.20922	15005.6875
1577.54624	14748.6875
1580.88103	13537.4875
1584.2136	11951.2875
1587.54395	11032.8875
1590.87208	10936.2875
1594.19801	11654.8875
1597.52172	12693.1875
1600.84321	13157.4875
1604.16251	12639.2875
1607.47959	11744.7875
1610.79447	10777.4875
1614.10715	9824.9875
1617.41763	9120.4875
1620.7259	8673.6875
1624.03199	8489.9875
1627.33587	8538.0875
1630.63757	8794.8875
1633.93707	9336.1875
1637.23439	10200.4875
1640.52951	11550.8875
1643.82246	13612.9875
1647.11321	16277.5875
1650.40179	18291.3875
1653.68819	17710.1875
1656.97241	14698.1875
1660.25446	11565.9875
1663.53433	9466.9875
1666.81203	8282.0875
1670.08756	7677.9875
1673.36092	7304.1875
1676.63211	7053.8875
1679.90115	6897.2875
1683.16801	6763.2875
1686.43272	6657.1875
1689.69527	6562.6875
1692.95567	6479.3875
1696.2139	6370.2875
1699.46999	6258.8875
1702.72392	6211.8875
1705.97571	6291.8875
1709.22535	6363.0875
1712.47284	6440.3875
1715.71819	6466.4875
1718.96139	6499.3875
1722.20246	6477.9875
1725.44139	6431.5875
1728.67818	6379.6875
1731.91284	6311.9875
1735.14537	6240.6875
1738.37576	6205.8875
1741.60403	6166.6875
1744.83017	6131.2875
1748.05418	6108.6875
1751.27607	6056.2875
1754.49584	6014.9875
1757.71349	5930.0875
1760.92903	5894.2875
1764.14244	5880.0875
1767.35375	5860.9875
1770.56294	5828.9875
1773.77002	5827.7875
1776.97499	5845.6875
1780.17785	5859.0875
1783.37861	5876.8875
1786.57727	5887.2875
1789.77382	5884.2875
1792.96828	5873.5875
1796.16064	5871.7875
1799.3509	5863.0875
1802.53907	5863.9875
1805.72514	5841.5875
1808.90913	5806.2875
1812.09102	5802.0875
1815.27083	5797.0875
1818.44856	5760.2875
1821.6242	5740.7875
1824.79776	5740.7875
1827.96924	5730.7875
1831.13864	5703.9875
1834.30597	5710.0875
1837.47122	5707.7875
1840.6344	5691.5875
1843.7955	5694.5875
1846.95454	5674.3875
1850.11151	5662.4875
1853.26642	5670.4875
1856.41926	5672.4875
1859.57004	5685.4875
1862.71876	5677.8875
1865.86542	5666.9875
1869.01003	5687.5875
1872.15258	5686.2875
1875.29308	5687.2875
1878.43152	5699.8875
1881.56792	5688.3875
1884.70227	5686.6875
1887.83457	5683.1875
1890.96482	5670.9875
1894.09304	5672.1875
1897.21921	5664.3875
1900.34335	5664.9875
1903.46544	5674.6875
1906.58551	5656.5875
1909.70353	5667.9875
1912.81953	5663.2875
1915.93349	5671.0875
1919.04543	5660.6875
1922.15534	5634.5875
1925.26322	5645.5875
1928.36908	5613.9875
1931.47292	5594.6875
1934.57473	5570.3875
1937.67453	5550.8875
1940.77232	5529.5875
1943.86808	5505.1875
1946.96184	5492.3875
1950.05358	5472.0875
1953.14331	5447.0875
1956.23103	5441.9875
1959.31675	5411.5875
1962.40046	5398.7875
1965.48217	5397.1875
1968.56188	5399.3875
1971.63959	5405.4875
1974.7153	5362.0875
1977.78901	5353.5875
1980.86073	5320.2875
1983.93046	5300.6875
1986.99819	5282.8875
1990.06394	5271.2875
1993.1277	5257.8875
1996.18947	5235.8875
1999.24925	5208.1875
2002.30706	5179.4875
2005.36288	5165.2875
2008.41672	5157.3875
2011.46859	5135.3875
2014.51848	5107.8875
2017.56639	5108.5875
2020.61233	5085.4875
2023.6563	5081.6875
2026.6983	5069.1875
2029.73833	5049.7875
2032.7764	5044.3875
2035.8125	5014.7875
2038.84664	5015.0875
2041.87881	5016.6875
2044.90903	5018.4875
2047.93729	5004.3875
2050.96359	5009.6875
2053.98794	4989.9875
2057.01034	4983.5875
2060.03078	4969.0875
2063.04927	4947.1875
2066.06582	4937.5875
2069.08042	4951.2875
2072.09307	4935.1875
2075.10378	4939.2875
2078.11255	4941.9875
2081.11938	4937.6875
2084.12426	4930.2875
2087.12722	4913.9875
2090.12824	4919.7875
2093.12732	4919.8875
2096.12447	4906.7875
2099.11969	4921.2875
2102.11299	4932.8875
2105.10435	4931.7875
2108.09379	4917.4875
2111.08131	4918.9875
2114.0669	4928.6875
2117.05057	4921.2875
2120.03233	4947.7875
2123.01216	4966.8875
2125.99008	4969.6875
2128.96609	4963.6875
2131.94018	4972.8875
2134.91236	4963.3875
2137.88263	4964.5875
2140.851	4960.4875
2143.81746	4956.1875
2146.78201	4944.1875
2149.74466	4958.3875
2152.7054	4945.4875
2155.66425	4935.2875
2158.6212	4936.6875
2161.57625	4932.1875
2164.52941	4927.1875
2167.48067	4911.6875
2170.43004	4912.2875
2173.37752	4924.2875
2176.32311	4918.2875
2179.26681	4913.0875
2182.20863	4926.5875
2185.14856	4930.9875
2188.08661	4915.7875
2191.02278	4919.7875
2193.95707	4927.8875
2196.88948	4892.9875
2199.82001	4898.2875
2202.74867	4888.8875
2205.67545	4892.2875
2208.60037	4880.8875
2211.52341	4878.3875
2214.44458	4877.3875
2217.36388	4870.1875
2220.28132	4856.5875
2223.1969	4838.1875
2226.11061	4834.9875
2229.02246	4809.8875
2231.93245	4822.8875
2234.84058	4802.2875
2237.74686	4793.3875
2240.65128	4785.7875
2243.55385	4794.0875
2246.45456	4791.8875
2249.35343	4780.3875
2252.25044	4794.3875
2255.14561	4784.4875
2258.03893	4797.0875
2260.93041	4777.6875
2263.82004	4781.7875
2266.70783	4774.4875
2269.59378	4767.1875
2272.4779	4763.0875
2275.36017	4761.1875
2278.24061	4737.9875
2281.11922	4710.6875
2283.996	4704.3875
2286.87094	4690.0875
2289.74405	4686.4875
2292.61534	4679.0875
2295.4848	4652.3875
2298.35243	4651.6875
2301.21824	4650.7875
2304.08223	4649.1875
2306.94439	4646.1875
2309.80474	4640.2875
2312.66327	4648.6875
2315.51999	4640.7875
2318.37489	4631.4875
2321.22797	4638.0875
2324.07925	4632.1875
2326.92871	4624.8875
2329.77637	4620.5875
2332.62222	4612.0875
2335.46626	4595.9875
2338.3085	4597.6875
2341.14893	4595.8875
2343.98756	4615.8875
2346.8244	4625.9875
2349.65943	4624.6875
2352.49267	4625.2875
2355.32411	4660.2875
2358.15376	4669.9875
2360.98161	4670.2875
2363.80768	4689.1875
2366.63195	4696.1875
2369.45444	4703.9875
2372.27514	4698.2875
2375.09405	4696.2875
2377.91118	4676.5875
2380.72652	4646.9875
2383.54009	4643.8875
2386.35187	4602.0875
2389.16188	4574.5875
2391.97011	4557.2875
2394.77657	4522.2875
2397.58125	4505.7875
2400.38416	4499.3875
2403.18529	4494.3875
2405.98466	4489.0875
2408.78226	4467.4875
2411.57809	4443.7875
2414.37216	4432.5875
2417.16446	4452.5875
2419.955	4436.5875
2422.74378	4457.2875
2425.5308	4444.9875
2428.31606	4432.0875
2431.09956	4441.5875
2433.88131	4441.3875
2436.6613	4450.8875
2439.43954	4452.2875
2442.21603	4455.9875
2444.99077	4435.7875
2447.76377	4474.1875
2450.53501	4459.1875
2453.30451	4463.3875
2456.07226	4446.8875
2458.83827	4439.5875
2461.60254	4451.4875
2464.36507	4457.8875
2467.12586	4439.8875
2469.88492	4446.4875
2472.64224	4457.0875
2475.39782	4462.4875
2478.15167	4447.7875
2480.90379	4473.0875
2483.65417	4506.1875
2486.40283	4508.6875
2489.14976	4532.9875
2491.89497	4547.4875
2494.63845	4545.8875
2497.3802	4522.1875
2500.12024	4512.9875
2502.85855	4498.9875
2505.59514	4480.4875
2508.33002	4457.8875
2511.06318	4426.5875
2513.79462	4420.2875
2516.52435	4380.6875
2519.25237	4349.8875
2521.97867	4340.7875
2524.70327	4316.4875
2527.42616	4333.3875
2530.14734	4328.1875
2532.86681	4309.7875
2535.58458	4328.2875
2538.30065	4325.1875
2541.01501	4311.1875
2543.72768	4322.9875
2546.43864	4323.5875
2549.14791	4301.7875
2551.85548	4313.7875
2554.56136	4314.4875
2557.26554	4291.3875
2559.96803	4298.9875
2562.66883	4297.0875
2565.36794	4289.7875
2568.06536	4299.7875
2570.7611	4276.1875
2573.45514	4265.6875
2576.14751	4271.6875
2578.83819	4258.6875
2581.52719	4246.4875
2584.21451	4245.4875
2586.90015	4228.5875
2589.58411	4229.2875
2592.2664	4209.2875
2594.94701	4215.6875
2597.62594	4207.7875
2600.30321	4214.0875
2602.9788	4224.7875
2605.65273	4227.8875
2608.32498	4218.8875
2610.99557	4211.2875
2613.66449	4216.4875
2616.33175	4216.5875
2618.99734	4228.9875
2621.66128	4234.9875
2624.32355	4209.7875
2626.98416	4206.6875
2629.64311	4199.0875
2632.30041	4180.3875
2634.95605	4163.6875
2637.61004	4141.3875
2640.26238	4154.1875
2642.91306	4144.8875
2645.56209	4141.7875
2648.20948	4122.0875
2650.85521	4110.0875
2653.4993	4116.0875
2656.14175	4127.4875
2658.78255	4131.7875
2661.42171	4140.7875
2664.05923	4162.7875
2666.6951	4158.6875
2669.32934	4181.9875
2671.96194	4192.0875
2674.59291	4168.4875
2677.22224	4185.7875
2679.84993	4182.6875
2682.476	4161.7875
2685.10043	4184.6875
2687.72324	4182.3875
2690.34441	4178.2875
2692.96396	4185.4875
2695.58188	4175.9875
2698.19818	4162.1875
2700.81285	4152.9875
2703.4259	4137.0875
2706.03733	4071.9875
2708.64714	4114.0875
2711.25533	4144.4875
2713.86191	4151.4875
2716.46687	4164.0875
2719.07021	4187.8875
2721.67194	4193.0875
2724.27206	4177.5875
2726.87057	4183.4875
2729.46747	4164.6875
2732.06276	4190.6875
2734.65644	4181.6875
2737.24852	4170.4875
2739.83899	4164.9875
2742.42786	4148.1875
2745.01513	4130.2875
2747.60079	4137.7875
2750.18486	4131.8875
2752.76733	4137.8875
2755.3482	4114.8875
2757.92747	4117.2875
2760.50515	4111.1875
2763.08123	4105.1875
2765.65573	4102.8875
2768.22863	4091.3875
2770.79994	4074.4875
2773.36967	4101.2875
2775.9378	4066.4875
2778.50435	4088.3875
2781.06932	4089.3875
2783.6327	4082.9875
2786.1945	4091.2875
2788.75471	4098.7875
2791.31335	4077.7875
2793.87041	4077.8875
2796.42589	4070.7875
2798.97979	4092.9875
2801.53212	4082.8875
2804.08288	4080.7875
2806.63206	4082.8875
2809.17967	4096.9875
2811.72571	4070.8875
2814.27018	4073.9875
2816.81308	4094.2875
2819.35442	4104.9875
2821.89419	4116.0875
2824.43239	4113.9875
2826.96904	4138.0875
2829.50412	4131.3875
2832.03763	4136.3875
2834.56959	4135.5875
2837.1	4150.4875
2839.62884	4152.1875
2842.15613	4173.4875
2844.68186	4196.6875
2847.20604	4229.7875
2849.72867	4240.0875
2852.24974	4267.5875
2854.76927	4250.5875
2857.28724	4238.7875
2859.80367	4239.9875
2862.31855	4250.1875
2864.83189	4243.3875
2867.34368	4257.6875
2869.85393	4260.4875
2872.36264	4262.4875
2874.8698	4241.5875
2877.37543	4243.4875
2879.87952	4230.3875
2882.38207	4236.0875
2884.88308	4231.7875
2887.38256	4218.9875
2889.88051	4217.7875
2892.37692	4207.9875
2894.8718	4200.3875
2897.36515	4225.6875
2899.85698	4211.2875
2902.34727	4227.9875
2904.83604	4217.8875
2907.32328	4227.0875
2909.809	4227.8875
2912.29319	4230.9875
2914.77587	4224.5875
2917.25702	4214.5875
2919.73665	4203.5875
2922.21476	4200.3875
2924.69136	4193.8875
2927.16644	4191.9875
2929.64	4181.6875
2932.11205	4166.9875
2934.58258	4144.2875
2937.05161	4152.6875
2939.51912	4155.0875
2941.98513	4143.2875
2944.44962	4095.7875
2946.91261	4079.1875
2949.37409	4070.3875
2951.83407	4058.4875
2954.29254	4043.2875
2956.74951	4033.7875
2959.20498	4024.7875
2961.65895	4013.6875
2964.11142	4004.0875
2966.56239	3990.6875
2969.01186	3986.9875
2971.45984	3964.1875
2973.90632	3930.9875
2976.35131	3942.6875
2978.7948	3937.6875
2981.23681	3921.3875
2983.67732	3919.5875
2986.11635	3911.3875
2988.55388	3891.9875
2990.98993	3901.4875
2993.4245	3877.7875
2995.85758	3890.4875
2998.28917	3865.7875
3000.71928	3866.6875
3003.14791	3865.1875
3005.57506	3868.2875
3008.00073	3871.1875
3010.42493	3840.1875
3012.84764	3844.0875
3015.26888	3828.0875
3017.68865	3820.9875
3020.10694	3827.1875
3022.52376	3806.9875
3024.9391	3814.5875
3027.35298	3802.6875
3029.76539	3799.8875
3032.17632	3792.9875
3034.5858	3782.9875
3036.9938	3770.8875
3039.40034	3778.2875
3041.80542	3768.6875
3044.20903	3750.9875
3046.61118	3749.5875
3049.01187	3741.5875
3051.4111	3751.8875
3053.80888	3731.6875
3056.20519	3727.5875
3058.60005	3707.2875
3060.99345	3719.4875
3063.3854	3710.2875
3065.7759	3704.6875
3068.16494	3687.7875
3070.55254	3677.6875
3072.93868	3661.1875
3075.32338	3646.4875
3077.70662	3631.1875
3080.08842	3634.5875
3082.46878	3633.7875
3084.84769	3610.7875
3087.22515	3603.9875
3089.60118	3604.3875
3091.97576	3593.6875
3094.3489	3596.0875
3096.72061	3599.5875
3099.09087	3602.8875
3101.4597	3608.2875
3103.82709	3616.3875
3106.19305	3604.4875
3108.55757	3616.0875
