Data from AgNPs_FTO_APTES_UA_50uM_CRN_0uM_R6G_10uM_NaF_0.1M_Addition_RamanShift__45__11-02-44-685.txt Node

Date: Mon Feb 21 11:02:44 GMT 2022
User: TCL
Spectrometer: QEP01345
Trigger mode: 4
Integration Time (sec): 7.000000E0
Scans to average: 10
Electric dark correction enabled: true
Nonlinearity correction enabled: false
Boxcar width: 0
XAxis mode: Raman Shifts
Number of Pixels in Spectrum: 1044
>>>>>Begin Spectral Data<<<<<
46.04893	0.8625
50.45542	-0.8375
54.85868	-0.3375
59.25871	-1.6375
63.6555	53.5625
68.04907	60.1625
72.43941	60.3625
76.82654	65.9625
81.21044	68.6625
85.59113	69.5625
89.96862	71.3625
94.34289	76.9625
98.71396	76.0625
103.08183	83.8625
107.4465	82.9625
111.80798	81.9625
116.16626	81.5625
120.52136	83.7625
124.87327	92.5625
129.222	88.8625
133.56755	95.4625
137.90993	103.7625
142.24913	110.6625
146.58517	118.4625
150.91804	131.8625
155.24774	160.1625
159.57429	196.7625
163.89768	247.2625
168.21792	331.6625
172.53501	438.6625
176.84895	620.5625
181.15975	861.5625
185.46741	1212.5625
189.77193	1658.5625
194.07331	2232.3625
198.37157	2864.3625
202.6667	3550.8625
206.9587	4215.9625
211.24758	4891.9625
215.53334	5580.2625
219.81599	6317.9625
224.09553	7139.2625
228.37195	8051.3625
232.64527	9066.3625
236.91549	10076.3625
241.18261	11076.1625
245.44663	11976.4625
249.70755	12774.3625
253.96539	13504.8625
258.22014	14097.9625
262.4718	14578.2625
266.72039	14867.1625
270.96589	15019.7625
275.20832	14993.4625
279.44768	14856.5625
283.68397	14658.1625
287.91719	14543.6625
292.14735	14459.0625
296.37445	14567.4625
300.59849	14780.0625
304.81948	15065.5625
309.03742	15276.6625
313.25231	15238.2625
317.46415	14833.5625
321.67296	14163.3625
325.87872	13614.2625
330.08145	13342.4625
334.28114	13344.1625
338.47781	13521.1625
342.67145	13819.5625
346.86207	14165.1625
351.04966	14727.0625
355.23424	15352.0625
359.4158	15857.9625
363.59435	16171.2625
367.76989	16258.1625
371.94243	16278.4625
376.11196	16271.1625
380.27849	16277.0625
384.44203	16252.2625
388.60257	16221.6625
392.76012	16206.4625
396.91468	16390.7625
401.06626	16745.9625
405.21485	17015.9625
409.36047	16956.5625
413.50311	16545.8625
417.64277	16148.3625
421.77947	15969.2625
425.9132	15883.1625
430.04396	15937.8625
434.17176	16003.9625
438.2966	16240.7625
442.41849	16623.3625
446.53742	17141.2625
450.6534	17702.4625
454.76644	18159.1625
458.87653	18237.1625
462.98368	18089.0625
467.08789	17743.9625
471.18916	17353.7625
475.2875	16974.9625
479.38291	16738.5625
483.4754	16548.5625
487.56496	16354.6625
491.6516	16149.3625
495.73531	16022.3625
499.81612	15976.8625
503.89401	16083.3625
507.96899	16159.8625
512.04106	16181.3625
516.11023	16260.6625
520.1765	16295.2625
524.23987	16305.3625
528.30034	16146.3625
532.35792	16001.0625
536.41261	15797.0625
540.46441	15537.6625
544.51333	15419.7625
548.55936	15521.6625
552.60252	15803.8625
556.64279	16129.2625
560.6802	16347.4625
564.71473	16534.6625
568.7464	17000.6625
572.7752	17448.0625
576.80114	17362.2625
580.82422	17213.9625
584.84444	17236.2625
588.86181	17419.8625
592.87633	17819.6625
596.888	18035.9625
600.89682	18187.1625
604.9028	19197.6625
608.90594	22246.0625
612.90624	26074.1625
616.90371	25105.4625
620.89834	19851.1625
624.89015	17314.8625
628.87913	16952.6625
632.86528	16932.3625
636.84862	16760.8625
640.82913	16447.1625
644.80683	15852.1625
648.78172	15433.5625
652.75379	15385.6625
656.72306	15793.0625
660.68952	16276.0625
664.65319	16271.5625
668.61405	15847.3625
672.57211	15647.2625
676.52738	15644.8625
680.47986	15608.8625
684.42955	15520.7625
688.37646	15505.9625
692.32058	15577.4625
696.26192	15695.0625
700.20048	15878.6625
704.13626	15953.1625
708.06928	15890.9625
711.99952	15778.8625
715.927	15730.0625
719.85171	15778.9625
723.77365	15766.0625
727.69284	15579.2625
731.60928	15437.3625
735.52295	15422.7625
739.43388	15488.8625
743.34206	15590.5625
747.24749	15664.4625
751.15017	15806.8625
755.05012	16063.6625
758.94733	16580.7625
762.8418	17666.0625
766.73354	19524.7625
770.62254	21341.3625
774.50882	22152.8625
778.39237	21427.1625
782.27321	19481.6625
786.15132	17581.4625
790.02671	16441.3625
793.89938	15918.5625
797.76935	15710.4625
801.6366	15631.8625
805.50115	15574.7625
809.36299	15563.6625
813.22213	15503.4625
817.07857	15455.9625
820.93231	15441.6625
824.78336	15418.4625
828.63172	15459.4625
832.47738	15472.4625
836.32036	15493.8625
840.16066	15542.7625
843.99827	15621.3625
847.8332	15578.4625
851.66546	15498.6625
855.49504	15405.2625
859.32195	15406.3625
863.1462	15315.1625
866.96777	15261.6625
870.78668	15223.6625
874.60293	15229.7625
878.41652	15274.7625
882.22745	15358.3625
886.03573	15426.5625
889.84136	15397.8625
893.64433	15309.7625
897.44466	15263.3625
901.24235	15188.6625
905.0374	15119.6625
908.8298	15052.7625
912.61957	15036.2625
916.40671	15127.6625
920.19121	15280.1625
923.97308	15486.8625
927.75233	15707.2625
931.52895	15782.4625
935.30295	15623.5625
939.07433	15273.8625
942.84309	14968.4625
946.60924	14849.2625
950.37278	14789.4625
954.13371	14676.0625
957.89203	14549.0625
961.64774	14455.7625
965.40086	14460.1625
969.15137	14436.9625
972.89929	14378.4625
976.64461	14379.7625
980.38733	14369.7625
984.12747	14423.1625
987.86502	14575.8625
991.59999	14751.9625
995.33237	15078.9625
999.06217	15657.3625
1002.78939	16350.7625
1006.51404	16735.9625
1010.23611	16996.7625
1013.95561	17171.1625
1017.67255	17222.9625
1021.38692	17047.1625
1025.09872	16901.0625
1028.80796	17114.6625
1032.51465	17676.2625
1036.21877	18135.6625
1039.92035	18141.1625
1043.61937	17817.9625
1047.31584	17261.5625
1051.00976	16681.5625
1054.70114	16320.6625
1058.38998	16249.9625
1062.07627	16240.3625
1065.76003	16271.3625
1069.44126	16300.6625
1073.11995	16455.5625
1076.79611	16615.8625
1080.46974	16771.3625
1084.14085	17016.9625
1087.80943	17276.7625
1091.47549	17343.5625
1095.13903	17176.4625
1098.80005	16757.7625
1102.45857	16380.6625
1106.11456	16202.1625
1109.76805	16257.7625
1113.41903	16470.2625
1117.06751	16721.6625
1120.71348	17166.6625
1124.35696	17608.1625
1127.99793	17992.2625
1131.63641	18002.4625
1135.2724	17618.5625
1138.90589	17168.1625
1142.5369	16901.7625
1146.16542	16690.7625
1149.79145	16564.4625
1153.415	16593.1625
1157.03607	16746.6625
1160.65467	17061.0625
1164.27079	17563.2625
1167.88443	18368.9625
1171.49561	19583.2625
1175.10432	21442.2625
1178.71056	23847.9625
1182.31434	25994.5625
1185.91565	27017.0625
1189.51451	26842.5625
1193.11091	25773.1625
1196.70485	24286.7625
1200.29634	22976.5625
1203.88538	21851.4625
1207.47197	20811.2625
1211.05612	19986.1625
1214.63782	19557.1625
1218.21708	19569.9625
1221.79391	19742.1625
1225.36829	19920.4625
1228.94024	19806.2625
1232.50976	19521.6625
1236.07685	19265.2625
1239.6415	19149.4625
1243.20374	19052.2625
1246.76355	19130.7625
1250.32093	19325.7625
1253.8759	19804.8625
1257.42845	20434.1625
1260.97859	21068.4625
1264.52631	21579.2625
1268.07163	22121.5625
1271.61453	22699.7625
1275.15503	23377.3625
1278.69312	24050.1625
1282.22882	24674.3625
1285.76211	25259.0625
1289.29301	25822.1625
1292.82151	26508.9625
1296.34761	27378.8625
1299.87133	28668.7625
1303.39266	30710.1625
1306.9116	33425.1625
1310.42815	36474.8625
1313.94233	38339.1625
1317.45412	37964.6625
1320.96354	36098.4625
1324.47058	33954.8625
1327.97525	32131.3625
1331.47754	31059.1625
1334.97747	30709.2625
1338.47502	30922.6625
1341.97022	31386.1625
1345.46305	31738.3625
1348.95352	31980.4625
1352.44163	32594.8625
1355.92738	34120.6625
1359.41078	37006.6625
1362.89183	39746.2625
1366.37053	38878.1625
1369.84688	34585.4625
1373.32088	30061.9625
1376.79254	27048.2625
1380.26186	25461.5625
1383.72883	24712.5625
1387.19347	24180.4625
1390.65578	23639.6625
1394.11575	23403.8625
1397.57339	23617.1625
1401.0287	24091.9625
1404.48168	24596.5625
1407.93234	25044.1625
1411.38068	25352.5625
1414.82669	25214.5625
1418.27039	24532.1625
1421.71177	23703.2625
1425.15083	22970.5625
1428.58758	22622.6625
1432.02203	22656.1625
1435.45416	22900.0625
1438.88399	23081.1625
1442.31151	23178.3625
1445.73673	23309.9625
1449.15965	23558.8625
1452.58027	23606.1625
1455.9986	23530.6625
1459.41463	23604.7625
1462.82837	23796.2625
1466.23982	24170.4625
1469.64898	24672.3625
1473.05586	24918.4625
1476.46045	25121.2625
1479.86276	25348.5625
1483.26279	25631.3625
1486.66054	26004.1625
1490.05602	26536.5625
1493.44922	27115.0625
1496.84016	27896.0625
1500.22882	29043.3625
1503.61521	30678.7625
1506.99934	32618.7625
1510.38121	34348.1625
1513.76081	34796.4625
1517.13816	33342.6625
1520.51324	30726.9625
1523.88607	28237.0625
1527.25665	26585.7625
1530.62498	25682.0625
1533.99105	25197.5625
1537.35488	24921.7625
1540.71647	24750.2625
1544.07581	24598.4625
1547.4329	24376.3625
1550.78776	24113.0625
1554.14038	23861.7625
1557.49077	23763.1625
1560.83892	23850.8625
1564.18484	23995.0625
1567.52853	24148.0625
1570.86999	24335.1625
1574.20922	24515.5625
1577.54624	24458.6625
1580.88103	24046.8625
1584.2136	23495.8625
1587.54395	23612.9625
1590.87208	24714.2625
1594.19801	26546.5625
1597.52172	28772.9625
1600.84321	29873.0625
1604.16251	29073.2625
1607.47959	26923.9625
1610.79447	24386.8625
1614.10715	22102.5625
1617.41763	20446.5625
1620.7259	19400.0625
1624.03199	18920.7625
1627.33587	19010.9625
1630.63757	19587.3625
1633.93707	20646.3625
1637.23439	22245.6625
1640.52951	24348.3625
1643.82246	26672.3625
1647.11321	28736.2625
1650.40179	29498.9625
1653.68819	27913.3625
1656.97241	24547.3625
1660.25446	21111.1625
1663.53433	18642.7625
1666.81203	17135.3625
1670.08756	16273.7625
1673.36092	15742.1625
1676.63211	15396.8625
1679.90115	15124.0625
1683.16801	14954.6625
1686.43272	14791.7625
1689.69527	14690.5625
1692.95567	14526.7625
1696.2139	14363.0625
1699.46999	14280.7625
1702.72392	14189.3625
1705.97571	14286.3625
1709.22535	14351.9625
1712.47284	14424.5625
1715.71819	14446.2625
1718.96139	14430.6625
1722.20246	14383.1625
1725.44139	14358.8625
1728.67818	14266.5625
1731.91284	14208.5625
1735.14537	14140.5625
1738.37576	14067.2625
1741.60403	14051.6625
1744.83017	13981.3625
1748.05418	13935.8625
1751.27607	13858.2625
1754.49584	13790.6625
1757.71349	13753.4625
1760.92903	13667.4625
1764.14244	13679.9625
1767.35375	13694.9625
1770.56294	13654.3625
1773.77002	13676.5625
1776.97499	13722.1625
1780.17785	13758.0625
1783.37861	13762.1625
1786.57727	13783.0625
1789.77382	13758.9625
1792.96828	13798.9625
1796.16064	13773.8625
1799.3509	13759.3625
1802.53907	13736.4625
1805.72514	13726.0625
1808.90913	13694.2625
1812.09102	13633.4625
1815.27083	13670.4625
1818.44856	13623.4625
1821.6242	13606.9625
1824.79776	13590.9625
1827.96924	13594.1625
1831.13864	13577.9625
1834.30597	13605.5625
1837.47122	13568.4625
1840.6344	13560.1625
1843.7955	13556.5625
1846.95454	13560.4625
1850.11151	13543.6625
1853.26642	13523.0625
1856.41926	13547.0625
1859.57004	13559.0625
1862.71876	13562.6625
1865.86542	13580.0625
1869.01003	13546.9625
1872.15258	13562.7625
1875.29308	13582.5625
1878.43152	13594.3625
1881.56792	13598.2625
1884.70227	13595.3625
1887.83457	13584.2625
1890.96482	13565.2625
1894.09304	13554.8625
1897.21921	13572.0625
1900.34335	13551.5625
1903.46544	13563.9625
1906.58551	13562.8625
1909.70353	13557.9625
1912.81953	13589.0625
1915.93349	13591.0625
1919.04543	13560.1625
1922.15534	13561.4625
1925.26322	13504.4625
1928.36908	13473.6625
1931.47292	13420.2625
1934.57473	13405.5625
1937.67453	13363.0625
1940.77232	13327.2625
1943.86808	13311.1625
1946.96184	13261.1625
1950.05358	13191.1625
1953.14331	13134.6625
1956.23103	13083.4625
1959.31675	13039.5625
1962.40046	13003.8625
1965.48217	12996.5625
1968.56188	12969.1625
1971.63959	12944.6625
1974.7153	12925.9625
1977.78901	12879.3625
1980.86073	12819.1625
1983.93046	12765.6625
1986.99819	12707.2625
1990.06394	12675.1625
1993.1277	12669.2625
1996.18947	12621.6625
1999.24925	12593.5625
2002.30706	12559.5625
2005.36288	12523.3625
2008.41672	12477.8625
2011.46859	12457.0625
2014.51848	12411.9625
2017.56639	12389.1625
2020.61233	12391.5625
2023.6563	12348.3625
2026.6983	12313.3625
2029.73833	12286.8625
2032.7764	12273.1625
2035.8125	12260.0625
2038.84664	12241.5625
2041.87881	12235.2625
2044.90903	12224.0625
2047.93729	12182.7625
2050.96359	12179.7625
2053.98794	12172.2625
2057.01034	12149.5625
2060.03078	12150.2625
2063.04927	12127.6625
2066.06582	12113.0625
2069.08042	12098.7625
2072.09307	12082.4625
2075.10378	12084.2625
2078.11255	12067.7625
2081.11938	12081.4625
2084.12426	12051.9625
2087.12722	12058.2625
2090.12824	12067.4625
2093.12732	12062.3625
2096.12447	12054.6625
2099.11969	12053.3625
2102.11299	12047.7625
2105.10435	12077.2625
2108.09379	12055.2625
2111.08131	12064.3625
2114.0669	12063.4625
2117.05057	12088.1625
2120.03233	12094.2625
2123.01216	12120.1625
2125.99008	12119.6625
2128.96609	12161.8625
2131.94018	12149.3625
2134.91236	12140.5625
2137.88263	12148.7625
2140.851	12175.3625
2143.81746	12200.5625
2146.78201	12176.9625
2149.74466	12180.9625
2152.7054	12205.6625
2155.66425	12193.1625
2158.6212	12194.2625
2161.57625	12190.9625
2164.52941	12185.3625
2167.48067	12178.3625
2170.43004	12138.0625
2173.37752	12161.8625
2176.32311	12147.9625
2179.26681	12175.9625
2182.20863	12157.3625
2185.14856	12204.2625
2188.08661	12180.7625
2191.02278	12180.9625
2193.95707	12172.7625
2196.88948	12213.9625
2199.82001	12176.0625
2202.74867	12173.4625
2205.67545	12164.9625
2208.60037	12166.9625
2211.52341	12177.7625
2214.44458	12155.0625
2217.36388	12165.0625
2220.28132	12140.6625
2223.1969	12123.9625
2226.11061	12091.9625
2229.02246	12088.4625
2231.93245	12066.6625
2234.84058	12017.9625
2237.74686	11985.4625
2240.65128	11970.6625
2243.55385	11967.5625
2246.45456	11958.1625
2249.35343	11957.8625
2252.25044	11913.5625
2255.14561	11956.6625
2258.03893	11913.3625
2260.93041	11849.8625
2263.82004	11859.3625
2266.70783	11834.0625
2269.59378	11843.4625
2272.4779	11799.0625
2275.36017	11770.9625
2278.24061	11742.9625
2281.11922	11725.4625
2283.996	11711.5625
2286.87094	11685.9625
2289.74405	11704.6625
2292.61534	11682.3625
2295.4848	11685.4625
2298.35243	11670.8625
2301.21824	11663.5625
2304.08223	11691.1625
2306.94439	11709.2625
2309.80474	11709.4625
2312.66327	11733.8625
2315.51999	11723.0625
2318.37489	11741.9625
2321.22797	11732.1625
2324.07925	11709.5625
2326.92871	11705.4625
2329.77637	11692.6625
2332.62222	11667.7625
2335.46626	11683.1625
2338.3085	11659.1625
2341.14893	11668.4625
2343.98756	11717.4625
2346.8244	11714.4625
2349.65943	11720.5625
2352.49267	11736.0625
2355.32411	11744.5625
2358.15376	11753.2625
2360.98161	11731.4625
2363.80768	11684.5625
2366.63195	11695.2625
2369.45444	11652.5625
2372.27514	11605.5625
2375.09405	11605.1625
2377.91118	11607.3625
2380.72652	11538.2625
2383.54009	11523.2625
2386.35187	11513.2625
2389.16188	11461.6625
2391.97011	11462.2625
2394.77657	11461.8625
2397.58125	11439.5625
2400.38416	11432.2625
2403.18529	11407.4625
2405.98466	11382.1625
2408.78226	11368.8625
2411.57809	11336.0625
2414.37216	11290.3625
2417.16446	11319.2625
2419.955	11280.2625
2422.74378	11277.0625
2425.5308	11239.9625
2428.31606	11229.5625
2431.09956	11231.4625
2433.88131	11236.9625
2436.6613	11254.9625
2439.43954	11241.1625
2442.21603	11234.0625
2444.99077	11208.2625
2447.76377	11231.5625
2450.53501	11218.7625
2453.30451	11195.5625
2456.07226	11196.7625
2458.83827	11219.9625
2461.60254	11173.8625
2464.36507	11185.1625
2467.12586	11137.3625
2469.88492	11215.8625
2472.64224	11190.6625
2475.39782	11173.5625
2478.15167	11198.2625
2480.90379	11233.7625
2483.65417	11244.0625
2486.40283	11241.4625
2489.14976	11297.7625
2491.89497	11289.2625
2494.63845	11302.7625
2497.3802	11265.0625
2500.12024	11306.5625
2502.85855	11284.9625
2505.59514	11265.4625
2508.33002	11244.1625
2511.06318	11227.2625
2513.79462	11193.9625
2516.52435	11174.6625
2519.25237	11186.7625
2521.97867	11116.3625
2524.70327	11135.3625
2527.42616	11122.8625
2530.14734	11140.5625
2532.86681	11135.8625
2535.58458	11154.1625
2538.30065	11134.9625
2541.01501	11138.5625
2543.72768	11106.2625
2546.43864	11102.6625
2549.14791	11098.4625
2551.85548	11108.1625
2554.56136	11095.1625
2557.26554	11053.3625
2559.96803	11033.8625
2562.66883	11025.8625
2565.36794	11029.9625
2568.06536	11047.4625
2570.7611	11023.7625
2573.45514	11030.9625
2576.14751	11020.2625
2578.83819	11004.4625
2581.52719	11010.0625
2584.21451	10984.0625
2586.90015	10964.0625
2589.58411	10977.1625
2592.2664	10968.9625
2594.94701	11007.7625
2597.62594	10992.3625
2600.30321	10998.1625
2602.9788	10981.3625
2605.65273	10993.8625
2608.32498	11008.7625
2610.99557	11006.2625
2613.66449	11013.1625
2616.33175	10991.0625
2618.99734	11014.4625
2621.66128	11017.0625
2624.32355	11007.5625
2626.98416	11026.1625
2629.64311	11011.5625
2632.30041	11008.6625
2634.95605	10983.7625
2637.61004	10967.6625
2640.26238	10970.2625
2642.91306	10956.3625
2645.56209	10933.4625
2648.20948	10910.8625
2650.85521	10864.6625
2653.4993	10894.7625
2656.14175	10892.2625
2658.78255	10905.7625
2661.42171	10919.9625
2664.05923	10932.0625
2666.6951	10928.3625
2669.32934	10990.8625
2671.96194	10978.9625
2674.59291	10955.8625
2677.22224	10989.2625
2679.84993	10983.3625
2682.476	10954.8625
2685.10043	10976.9625
2687.72324	10954.6625
2690.34441	10976.7625
2692.96396	10949.1625
2695.58188	10956.0625
2698.19818	10917.2625
2700.81285	10929.1625
2703.4259	10875.5625
2706.03733	10793.0625
2708.64714	10842.2625
2711.25533	10894.2625
2713.86191	10901.5625
2716.46687	10942.0625
2719.07021	10942.0625
2721.67194	10984.1625
2724.27206	10963.2625
2726.87057	10968.6625
2729.46747	10974.9625
2732.06276	10976.4625
2734.65644	10974.9625
2737.24852	10983.5625
2739.83899	10960.7625
2742.42786	10985.8625
2745.01513	10946.7625
2747.60079	10953.5625
2750.18486	10941.2625
2752.76733	10941.6625
2755.3482	10942.3625
2757.92747	10922.1625
2760.50515	10933.7625
2763.08123	10934.7625
2765.65573	10900.3625
2768.22863	10882.3625
2770.79994	10886.2625
2773.36967	10901.1625
2775.9378	10897.7625
2778.50435	10914.3625
2781.06932	10939.5625
2783.6327	10916.3625
2786.1945	10901.2625
2788.75471	10885.1625
2791.31335	10861.7625
2793.87041	10858.3625
2796.42589	10818.3625
2798.97979	10824.7625
2801.53212	10807.9625
2804.08288	10805.5625
2806.63206	10770.9625
2809.17967	10761.2625
2811.72571	10758.4625
2814.27018	10744.8625
2816.81308	10719.3625
2819.35442	10729.3625
2821.89419	10720.9625
2824.43239	10725.2625
2826.96904	10720.4625
2829.50412	10736.8625
2832.03763	10737.9625
2834.56959	10703.1625
2837.1	10710.9625
2839.62884	10709.4625
2842.15613	10694.3625
2844.68186	10725.6625
2847.20604	10713.0625
2849.72867	10693.1625
2852.24974	10707.5625
2854.76927	10698.5625
2857.28724	10673.0625
2859.80367	10661.5625
2862.31855	10675.8625
2864.83189	10650.2625
2867.34368	10662.3625
2869.85393	10681.0625
2872.36264	10646.4625
2874.8698	10646.9625
2877.37543	10668.9625
2879.87952	10646.4625
2882.38207	10657.8625
2884.88308	10691.1625
2887.38256	10679.7625
2889.88051	10659.6625
2892.37692	10648.8625
2894.8718	10646.0625
2897.36515	10693.6625
2899.85698	10698.4625
2902.34727	10728.0625
2904.83604	10693.1625
2907.32328	10725.7625
2909.809	10724.8625
2912.29319	10750.3625
2914.77587	10766.5625
2917.25702	10726.4625
2919.73665	10716.4625
2922.21476	10714.7625
2924.69136	10697.3625
2927.16644	10715.1625
2929.64	10676.3625
2932.11205	10644.1625
2934.58258	10611.3625
2937.05161	10628.0625
2939.51912	10625.7625
2941.98513	10623.8625
2944.44962	10582.2625
2946.91261	10546.1625
2949.37409	10611.1625
2951.83407	10594.5625
2954.29254	10578.1625
2956.74951	10547.1625
2959.20498	10552.9625
2961.65895	10549.1625
2964.11142	10552.3625
2966.56239	10532.3625
2969.01186	10507.7625
2971.45984	10479.4625
2973.90632	10473.4625
2976.35131	10455.9625
2978.7948	10441.0625
2981.23681	10397.4625
2983.67732	10410.7625
2986.11635	10355.7625
2988.55388	10328.6625
2990.98993	10312.4625
2993.4245	10300.5625
2995.85758	10287.8625
2998.28917	10245.1625
3000.71928	10261.9625
3003.14791	10222.6625
3005.57506	10217.2625
3008.00073	10188.7625
3010.42493	10190.1625
3012.84764	10143.7625
3015.26888	10157.5625
3017.68865	10136.6625
3020.10694	10120.4625
3022.52376	10075.0625
3024.9391	10066.3625
