Data from AgNPs_FTO_APTES_UA_50uM_CRN_1uM_R6G_10uM_NaF_0.1M_Addition_RamanShift__14__11-31-54-709.txt Node

Date: Mon Feb 21 11:31:54 GMT 2022
User: TCL
Spectrometer: QEP01345
Trigger mode: 4
Integration Time (sec): 7.000000E0
Scans to average: 10
Electric dark correction enabled: true
Nonlinearity correction enabled: false
Boxcar width: 0
XAxis mode: Raman Shifts
Number of Pixels in Spectrum: 1044
>>>>>Begin Spectral Data<<<<<
46.04893	0.9125
50.45542	-0.7875
54.85868	0.0125
59.25871	-3.2875
63.6555	58.0125
68.04907	67.0125
72.43941	69.1125
76.82654	74.2125
81.21044	72.8125
85.59113	77.7125
89.96862	82.2125
94.34289	83.8125
98.71396	84.4125
103.08183	92.8125
107.4465	90.5125
111.80798	90.2125
116.16626	91.2125
120.52136	94.0125
124.87327	104.3125
129.222	102.7125
133.56755	106.3125
137.90993	115.4125
142.24913	126.8125
146.58517	139.5125
150.91804	160.3125
155.24774	188.5125
159.57429	236.3125
163.89768	297.8125
168.21792	405.7125
172.53501	540.4125
176.84895	756.7125
181.15975	1066.4125
185.46741	1497.7125
189.77193	2074.8125
194.07331	2781.5125
198.37157	3577.2125
202.6667	4429.8125
206.9587	5261.3125
211.24758	6092.1125
215.53334	6919.3125
219.81599	7791.3125
224.09553	8771.4125
228.37195	9837.3125
232.64527	10979.9125
236.91549	12237.8125
241.18261	13462.5125
245.44663	14609.1125
249.70755	15662.4125
253.96539	16531.0125
258.22014	17287.7125
262.4718	17893.9125
266.72039	18251.9125
270.96589	18469.1125
275.20832	18489.4125
279.44768	18355.7125
283.68397	18140.6125
287.91719	17974.8125
292.14735	17871.9125
296.37445	17870.3125
300.59849	17935.9125
304.81948	18023.5125
309.03742	18089.1125
313.25231	17968.0125
317.46415	17623.8125
321.67296	17166.3125
325.87872	16739.2125
330.08145	16567.7125
334.28114	16518.4125
338.47781	16637.4125
342.67145	16852.4125
346.86207	17135.2125
351.04966	17533.5125
355.23424	17916.5125
359.4158	18245.4125
363.59435	18584.1125
367.76989	18708.3125
371.94243	18838.9125
376.11196	18849.6125
380.27849	18859.4125
384.44203	18949.6125
388.60257	19048.1125
392.76012	19215.1125
396.91468	19475.7125
401.06626	19752.7125
405.21485	19927.0125
409.36047	19847.7125
413.50311	19539.3125
417.64277	19281.0125
421.77947	19214.6125
425.9132	19227.1125
430.04396	19269.0125
434.17176	19340.0125
438.2966	19463.2125
442.41849	19683.9125
446.53742	20070.5125
450.6534	20544.3125
454.76644	20923.3125
458.87653	21080.1125
462.98368	21122.9125
467.08789	21015.7125
471.18916	20835.6125
475.2875	20610.3125
479.38291	20499.6125
483.4754	20439.2125
487.56496	20274.1125
491.6516	19986.5125
495.73531	19768.8125
499.81612	19586.0125
503.89401	19685.6125
507.96899	19759.9125
512.04106	19786.2125
516.11023	19725.9125
520.1765	19605.5125
524.23987	19460.2125
528.30034	19272.8125
532.35792	19118.9125
536.41261	18965.3125
540.46441	18793.0125
544.51333	18759.3125
548.55936	18884.6125
552.60252	19249.8125
556.64279	19633.8125
560.6802	20023.0125
564.71473	20246.6125
568.7464	20674.4125
572.7752	21211.5125
576.80114	21669.7125
580.82422	22009.3125
584.84444	22395.9125
588.86181	22701.1125
592.87633	22966.5125
596.888	22792.8125
600.89682	22339.5125
604.9028	22645.1125
608.90594	24545.3125
612.90624	26686.4125
616.90371	25398.4125
620.89834	21475.8125
624.89015	19663.0125
628.87913	19315.6125
632.86528	19507.2125
636.84862	19634.2125
640.82913	19441.7125
644.80683	18993.8125
648.78172	18667.1125
652.75379	18621.2125
656.72306	18877.7125
660.68952	19205.7125
664.65319	19137.8125
668.61405	18825.2125
672.57211	18773.2125
676.52738	18859.9125
680.47986	18855.6125
684.42955	18772.4125
688.37646	18718.8125
692.32058	18815.8125
696.26192	18983.2125
700.20048	19174.4125
704.13626	19296.2125
708.06928	19324.4125
711.99952	19198.0125
715.927	19209.4125
719.85171	19247.5125
723.77365	19219.7125
727.69284	18985.1125
731.60928	18725.0125
735.52295	18622.2125
739.43388	18620.8125
743.34206	18643.6125
747.24749	18732.1125
751.15017	18868.9125
755.05012	19146.4125
758.94733	19606.3125
762.8418	20529.9125
766.73354	22018.8125
770.62254	23376.7125
774.50882	23745.9125
778.39237	22925.8125
782.27321	21499.8125
786.15132	20256.4125
790.02671	19396.1125
793.89938	18963.7125
797.76935	18770.3125
801.6366	18669.5125
805.50115	18584.5125
809.36299	18513.5125
813.22213	18414.7125
817.07857	18363.1125
820.93231	18322.2125
824.78336	18241.4125
828.63172	18159.6125
832.47738	18120.2125
836.32036	18122.4125
840.16066	18075.9125
843.99827	18070.7125
847.8332	18082.5125
851.66546	18058.2125
855.49504	18116.9125
859.32195	18123.3125
863.1462	18134.9125
866.96777	18083.7125
870.78668	18081.3125
874.60293	18090.7125
878.41652	18103.2125
882.22745	18190.6125
886.03573	18233.0125
889.84136	18242.1125
893.64433	18184.4125
897.44466	18183.7125
901.24235	18116.5125
905.0374	18026.7125
908.8298	17954.0125
912.61957	17925.9125
916.40671	18048.0125
920.19121	18165.8125
923.97308	18355.5125
927.75233	18351.3125
931.52895	18259.6125
935.30295	18043.3125
939.07433	17799.0125
942.84309	17537.9125
946.60924	17483.2125
950.37278	17391.2125
954.13371	17385.2125
957.89203	17396.2125
961.64774	17342.7125
965.40086	17333.0125
969.15137	17304.9125
972.89929	17252.5125
976.64461	17226.5125
980.38733	17195.6125
984.12747	17187.3125
987.86502	17290.7125
991.59999	17392.8125
995.33237	17567.2125
999.06217	17799.3125
1002.78939	18053.8125
1006.51404	18356.2125
1010.23611	18641.7125
1013.95561	18839.2125
1017.67255	18915.0125
1021.38692	18730.5125
1025.09872	18460.2125
1028.80796	18232.6125
1032.51465	18146.3125
1036.21877	18175.6125
1039.92035	18231.9125
1043.61937	18314.3125
1047.31584	18363.4125
1051.00976	18353.9125
1054.70114	18407.1125
1058.38998	18479.8125
1062.07627	18614.2125
1065.76003	18805.4125
1069.44126	19053.2125
1073.11995	19402.3125
1076.79611	19678.9125
1080.46974	19829.2125
1084.14085	20022.1125
1087.80943	20210.3125
1091.47549	20408.5125
1095.13903	20475.2125
1098.80005	20278.0125
1102.45857	19878.3125
1106.11456	19539.3125
1109.76805	19351.8125
1113.41903	19320.1125
1117.06751	19401.9125
1120.71348	19553.6125
1124.35696	19789.1125
1127.99793	20042.7125
1131.63641	20167.2125
1135.2724	20066.5125
1138.90589	19944.3125
1142.5369	19858.8125
1146.16542	19891.9125
1149.79145	19969.2125
1153.415	20157.2125
1157.03607	20322.2125
1160.65467	20732.4125
1164.27079	21453.2125
1167.88443	22382.9125
1171.49561	23533.7125
1175.10432	24921.4125
1178.71056	26813.7125
1182.31434	28495.9125
1185.91565	29380.6125
1189.51451	29473.5125
1193.11091	28969.4125
1196.70485	28085.0125
1200.29634	27041.4125
1203.88538	26214.6125
1207.47197	25590.2125
1211.05612	25071.4125
1214.63782	24621.9125
1218.21708	24107.9125
1221.79391	23596.7125
1225.36829	23283.4125
1228.94024	23066.8125
1232.50976	22871.6125
1236.07685	22633.0125
1239.6415	22472.8125
1243.20374	22441.9125
1246.76355	22484.4125
1250.32093	22691.2125
1253.8759	23077.6125
1257.42845	23619.4125
1260.97859	24287.5125
1264.52631	25014.2125
1268.07163	25712.6125
1271.61453	26407.8125
1275.15503	26901.9125
1278.69312	27514.1125
1282.22882	28115.4125
1285.76211	28838.1125
1289.29301	29713.5125
1292.82151	30782.5125
1296.34761	32067.4125
1299.87133	33529.7125
1303.39266	35175.8125
1306.9116	36829.5125
1310.42815	38252.0125
1313.94233	39101.6125
1317.45412	39042.1125
1320.96354	38431.8125
1324.47058	37796.0125
1327.97525	37320.1125
1331.47754	37104.4125
1334.97747	36887.7125
1338.47502	36786.8125
1341.97022	36728.8125
1345.46305	36579.1125
1348.95352	36413.3125
1352.44163	36354.9125
1355.92738	36736.0125
1359.41078	37891.9125
1362.89183	39174.0125
1366.37053	38764.9125
1369.84688	35863.3125
1373.32088	32375.2125
1376.79254	29903.4125
1380.26186	28811.4125
1383.72883	28543.9125
1387.19347	28406.5125
1390.65578	28144.5125
1394.11575	27949.5125
1397.57339	27983.0125
1401.0287	28261.8125
1404.48168	28474.3125
1407.93234	28409.7125
1411.38068	28113.4125
1414.82669	27424.5125
1418.27039	26529.5125
1421.71177	25671.1125
1425.15083	25016.1125
1428.58758	24687.3125
1432.02203	24853.5125
1435.45416	25340.1125
1438.88399	25853.9125
1442.31151	26288.7125
1445.73673	26591.5125
1449.15965	26858.9125
1452.58027	27019.6125
1455.9986	27087.9125
1459.41463	27293.2125
1462.82837	27575.4125
1466.23982	27935.2125
1469.64898	28262.2125
1473.05586	28377.5125
1476.46045	28331.0125
1479.86276	28216.1125
1483.26279	28152.5125
1486.66054	28187.2125
1490.05602	28438.7125
1493.44922	28905.7125
1496.84016	29557.8125
1500.22882	30603.5125
1503.61521	31969.5125
1506.99934	33433.0125
1510.38121	34562.5125
1513.76081	34702.7125
1517.13816	33750.3125
1520.51324	32129.2125
1523.88607	30763.4125
1527.25665	29889.4125
1530.62498	29503.3125
1533.99105	29211.4125
1537.35488	28783.8125
1540.71647	28223.9125
1544.07581	27573.4125
1547.4329	26943.2125
1550.78776	26473.3125
1554.14038	26177.1125
1557.49077	26044.5125
1560.83892	26145.9125
1564.18484	26250.6125
1567.52853	26498.3125
1570.86999	26780.4125
1574.20922	27205.2125
1577.54624	27536.8125
1580.88103	27474.5125
1584.2136	27437.8125
1587.54395	27813.5125
1590.87208	28735.3125
1594.19801	30047.1125
1597.52172	31225.5125
1600.84321	31449.7125
1604.16251	30236.6125
1607.47959	28346.5125
1610.79447	26366.0125
1614.10715	24438.3125
1617.41763	22857.1125
1620.7259	21663.7125
1624.03199	21012.4125
1627.33587	20979.0125
1630.63757	21478.8125
1633.93707	22630.7125
1637.23439	24621.0125
1640.52951	27506.1125
1643.82246	30839.5125
1647.11321	33564.6125
1650.40179	34345.5125
1653.68819	32319.4125
1656.97241	28483.9125
1660.25446	24550.2125
1663.53433	21561.2125
1666.81203	19674.7125
1670.08756	18502.8125
1673.36092	17823.1125
1676.63211	17365.7125
1679.90115	17069.6125
1683.16801	16793.6125
1686.43272	16619.2125
1689.69527	16439.9125
1692.95567	16242.3125
1696.2139	16115.4125
1699.46999	15958.8125
1702.72392	15902.7125
1705.97571	15930.9125
1709.22535	15990.1125
1712.47284	16040.7125
1715.71819	16053.6125
1718.96139	15991.9125
1722.20246	15974.8125
1725.44139	15921.1125
1728.67818	15817.1125
1731.91284	15715.3125
1735.14537	15665.3125
1738.37576	15574.0125
1741.60403	15532.6125
1744.83017	15432.9125
1748.05418	15362.7125
1751.27607	15310.8125
1754.49584	15241.8125
1757.71349	15137.4125
1760.92903	15086.5125
1764.14244	15053.5125
1767.35375	15050.9125
1770.56294	15018.1125
1773.77002	15037.8125
1776.97499	15046.7125
1780.17785	15107.4125
1783.37861	15109.9125
1786.57727	15098.8125
1789.77382	15070.7125
1792.96828	15105.1125
1796.16064	15051.8125
1799.3509	14999.3125
1802.53907	14988.0125
1805.72514	14917.3125
1808.90913	14912.4125
1812.09102	14876.1125
1815.27083	14871.4125
1818.44856	14857.8125
1821.6242	14818.8125
1824.79776	14836.3125
1827.96924	14831.0125
1831.13864	14826.3125
1834.30597	14831.6125
1837.47122	14828.9125
1840.6344	14827.0125
1843.7955	14787.8125
1846.95454	14775.4125
1850.11151	14794.5125
1853.26642	14727.5125
1856.41926	14729.6125
1859.57004	14698.6125
1862.71876	14688.0125
1865.86542	14674.0125
1869.01003	14688.8125
1872.15258	14661.4125
1875.29308	14625.0125
1878.43152	14589.3125
1881.56792	14588.4125
1884.70227	14566.1125
1887.83457	14560.2125
1890.96482	14509.0125
1894.09304	14472.0125
1897.21921	14456.4125
1900.34335	14439.4125
1903.46544	14407.4125
1906.58551	14441.1125
1909.70353	14361.0125
1912.81953	14347.3125
1915.93349	14359.0125
1919.04543	14307.2125
1922.15534	14281.2125
1925.26322	14262.2125
1928.36908	14220.0125
1931.47292	14186.2125
1934.57473	14135.2125
1937.67453	14115.7125
1940.77232	14080.5125
1943.86808	14038.6125
1946.96184	14011.6125
1950.05358	13968.4125
1953.14331	13925.1125
1956.23103	13842.0125
1959.31675	13814.2125
1962.40046	13765.5125
1965.48217	13750.5125
1968.56188	13720.7125
1971.63959	13733.5125
1974.7153	13657.7125
1977.78901	13629.0125
1980.86073	13560.8125
1983.93046	13523.7125
1986.99819	13480.9125
1990.06394	13421.5125
1993.1277	13392.1125
1996.18947	13392.7125
1999.24925	13341.8125
2002.30706	13288.4125
2005.36288	13254.1125
2008.41672	13228.0125
2011.46859	13193.9125
2014.51848	13132.4125
2017.56639	13086.6125
2020.61233	13048.8125
2023.6563	13069.7125
2026.6983	13010.7125
2029.73833	12968.9125
2032.7764	12914.3125
2035.8125	12886.2125
2038.84664	12880.9125
2041.87881	12877.3125
2044.90903	12854.4125
2047.93729	12803.7125
2050.96359	12800.6125
2053.98794	12769.8125
2057.01034	12760.7125
2060.03078	12752.2125
2063.04927	12744.5125
2066.06582	12718.7125
2069.08042	12705.3125
2072.09307	12751.3125
2075.10378	12709.2125
2078.11255	12695.5125
2081.11938	12699.1125
2084.12426	12702.9125
2087.12722	12676.9125
2090.12824	12708.8125
2093.12732	12683.6125
2096.12447	12701.8125
2099.11969	12674.2125
2102.11299	12701.1125
2105.10435	12679.2125
2108.09379	12692.7125
2111.08131	12701.4125
2114.0669	12723.8125
2117.05057	12738.5125
2120.03233	12738.9125
2123.01216	12749.7125
2125.99008	12759.1125
2128.96609	12779.5125
2131.94018	12772.0125
2134.91236	12776.8125
2137.88263	12779.3125
2140.851	12777.4125
2143.81746	12785.4125
2146.78201	12785.7125
2149.74466	12796.1125
2152.7054	12791.3125
2155.66425	12798.4125
2158.6212	12776.5125
2161.57625	12758.4125
2164.52941	12778.7125
2167.48067	12744.1125
2170.43004	12733.8125
2173.37752	12714.8125
2176.32311	12714.3125
2179.26681	12713.8125
2182.20863	12735.2125
2185.14856	12737.1125
2188.08661	12707.9125
2191.02278	12737.9125
2193.95707	12681.1125
2196.88948	12696.9125
2199.82001	12703.5125
2202.74867	12655.6125
2205.67545	12657.4125
2208.60037	12611.2125
2211.52341	12603.9125
2214.44458	12601.6125
2217.36388	12572.0125
2220.28132	12576.6125
2223.1969	12542.7125
2226.11061	12493.0125
2229.02246	12477.6125
2231.93245	12460.7125
2234.84058	12438.5125
2237.74686	12393.8125
2240.65128	12403.1125
2243.55385	12405.5125
2246.45456	12405.9125
2249.35343	12326.7125
2252.25044	12330.5125
2255.14561	12323.2125
2258.03893	12310.3125
2260.93041	12257.8125
2263.82004	12220.4125
2266.70783	12253.0125
2269.59378	12217.2125
2272.4779	12204.7125
2275.36017	12168.3125
2278.24061	12119.0125
2281.11922	12112.3125
2283.996	12093.6125
2286.87094	12051.6125
2289.74405	12042.7125
2292.61534	12029.7125
2295.4848	12017.3125
2298.35243	11997.3125
2301.21824	11973.0125
2304.08223	11980.4125
2306.94439	11966.0125
2309.80474	11974.4125
2312.66327	11963.3125
2315.51999	11929.7125
2318.37489	11930.7125
2321.22797	11921.1125
2324.07925	11909.6125
2326.92871	11871.4125
2329.77637	11872.0125
2332.62222	11840.8125
2335.46626	11820.2125
2338.3085	11815.4125
2341.14893	11827.2125
2343.98756	11802.5125
2346.8244	11818.7125
2349.65943	11806.7125
2352.49267	11795.3125
2355.32411	11787.6125
2358.15376	11813.7125
2360.98161	11779.0125
2363.80768	11774.9125
2366.63195	11783.0125
2369.45444	11776.3125
2372.27514	11724.5125
2375.09405	11742.4125
2377.91118	11694.0125
2380.72652	11661.0125
2383.54009	11640.9125
2386.35187	11665.9125
2389.16188	11603.5125
2391.97011	11585.4125
2394.77657	11573.4125
2397.58125	11570.4125
2400.38416	11555.3125
2403.18529	11509.1125
2405.98466	11524.8125
2408.78226	11524.3125
2411.57809	11473.2125
2414.37216	11456.9125
2417.16446	11490.3125
2419.955	11442.4125
2422.74378	11462.7125
2425.5308	11431.6125
2428.31606	11424.3125
2431.09956	11406.9125
2433.88131	11403.3125
2436.6613	11408.2125
2439.43954	11383.9125
2442.21603	11415.0125
2444.99077	11375.8125
2447.76377	11403.1125
2450.53501	11379.8125
2453.30451	11356.5125
2456.07226	11386.8125
2458.83827	11369.8125
2461.60254	11341.4125
2464.36507	11359.0125
2467.12586	11291.8125
2469.88492	11321.5125
2472.64224	11320.2125
2475.39782	11318.0125
2478.15167	11285.3125
2480.90379	11289.2125
2483.65417	11334.1125
2486.40283	11323.6125
2489.14976	11318.9125
2491.89497	11308.0125
2494.63845	11301.2125
2497.3802	11292.0125
2500.12024	11290.0125
2502.85855	11291.9125
2505.59514	11247.7125
2508.33002	11248.3125
2511.06318	11225.2125
2513.79462	11247.6125
2516.52435	11196.4125
2519.25237	11209.8125
2521.97867	11205.5125
2524.70327	11180.3125
2527.42616	11163.3125
2530.14734	11168.6125
2532.86681	11146.9125
2535.58458	11180.3125
2538.30065	11140.8125
2541.01501	11161.0125
2543.72768	11092.9125
2546.43864	11093.0125
2549.14791	11082.7125
2551.85548	11099.3125
2554.56136	11067.4125
2557.26554	11045.2125
2559.96803	11036.1125
2562.66883	11003.5125
2565.36794	10967.8125
2568.06536	10974.2125
2570.7611	10946.6125
2573.45514	10931.6125
2576.14751	10956.9125
2578.83819	10928.3125
2581.52719	10910.0125
2584.21451	10880.9125
2586.90015	10884.7125
2589.58411	10852.9125
2592.2664	10883.4125
2594.94701	10873.2125
2597.62594	10875.9125
2600.30321	10836.5125
2602.9788	10826.0125
2605.65273	10799.8125
2608.32498	10800.1125
2610.99557	10805.7125
2613.66449	10801.1125
2616.33175	10775.9125
2618.99734	10778.0125
2621.66128	10755.0125
2624.32355	10745.3125
2626.98416	10738.3125
2629.64311	10758.5125
2632.30041	10716.0125
2634.95605	10692.7125
2637.61004	10681.4125
2640.26238	10674.4125
2642.91306	10681.8125
2645.56209	10689.0125
2648.20948	10676.2125
2650.85521	10658.1125
2653.4993	10681.5125
2656.14175	10676.0125
2658.78255	10694.3125
2661.42171	10694.3125
2664.05923	10680.5125
2666.6951	10723.3125
2669.32934	10707.7125
2671.96194	10712.3125
2674.59291	10702.9125
2677.22224	10692.7125
2679.84993	10698.1125
2682.476	10705.6125
2685.10043	10714.5125
2687.72324	10711.3125
2690.34441	10699.6125
2692.96396	10682.1125
2695.58188	10690.5125
2698.19818	10678.0125
2700.81285	10665.0125
2703.4259	10627.7125
2706.03733	10554.9125
2708.64714	10599.1125
2711.25533	10646.5125
2713.86191	10693.5125
2716.46687	10696.1125
2719.07021	10742.2125
2721.67194	10747.6125
2724.27206	10718.1125
2726.87057	10733.5125
2729.46747	10718.4125
2732.06276	10750.5125
2734.65644	10725.9125
2737.24852	10741.7125
2739.83899	10728.8125
2742.42786	10725.8125
2745.01513	10700.5125
2747.60079	10708.7125
2750.18486	10694.7125
2752.76733	10656.6125
2755.3482	10641.6125
2757.92747	10634.4125
2760.50515	10633.6125
2763.08123	10605.3125
2765.65573	10603.8125
2768.22863	10599.1125
2770.79994	10559.4125
2773.36967	10574.1125
2775.9378	10553.3125
2778.50435	10563.7125
2781.06932	10533.0125
2783.6327	10560.0125
2786.1945	10539.9125
2788.75471	10535.8125
2791.31335	10493.7125
2793.87041	10508.8125
2796.42589	10483.3125
2798.97979	10456.1125
2801.53212	10444.5125
2804.08288	10427.6125
2806.63206	10409.3125
2809.17967	10399.7125
2811.72571	10376.7125
2814.27018	10349.4125
2816.81308	10321.8125
2819.35442	10322.8125
2821.89419	10291.6125
2824.43239	10275.3125
2826.96904	10264.7125
2829.50412	10251.2125
2832.03763	10221.5125
2834.56959	10241.6125
2837.1	10205.1125
2839.62884	10218.2125
2842.15613	10228.3125
2844.68186	10236.1125
2847.20604	10219.7125
2849.72867	10187.4125
2852.24974	10173.1125
2854.76927	10170.3125
2857.28724	10125.9125
2859.80367	10117.3125
2862.31855	10119.3125
2864.83189	10097.1125
2867.34368	10110.7125
2869.85393	10133.8125
2872.36264	10132.3125
2874.8698	10104.3125
2877.37543	10120.0125
2879.87952	10098.2125
2882.38207	10115.0125
2884.88308	10086.8125
2887.38256	10129.7125
2889.88051	10105.0125
2892.37692	10102.9125
2894.8718	10093.9125
2897.36515	10080.3125
2899.85698	10102.7125
2902.34727	10123.4125
2904.83604	10121.9125
2907.32328	10113.4125
2909.809	10104.9125
2912.29319	10145.3125
2914.77587	10142.3125
2917.25702	10127.1125
2919.73665	10109.4125
2922.21476	10115.4125
2924.69136	10084.0125
2927.16644	10128.5125
2929.64	10089.0125
2932.11205	10100.2125
2934.58258	10044.4125
2937.05161	10069.7125
2939.51912	10044.3125
2941.98513	10012.0125
2944.44962	10008.3125
2946.91261	10012.3125
2949.37409	10021.0125
2951.83407	9991.5125
2954.29254	9981.2125
2956.74951	9966.4125
2959.20498	9949.0125
2961.65895	9956.7125
2964.11142	9941.3125
2966.56239	9942.9125
2969.01186	9946.7125
2971.45984	9933.1125
2973.90632	9933.8125
2976.35131	9885.9125
2978.7948	9856.0125
2981.23681	9878.0125
2983.67732	9854.2125
2986.11635	9819.0125
2988.55388	9763.8125
2990.98993	9783.2125
2993.4245	9747.7125
2995.85758	9743.7125
2998.28917	9716.1125
3000.71928	9706.7125
3003.14791	9676.2125
3005.57506	9648.8125
3008.00073	9612.6125
3010.42493	9607.5125
3012.84764	9589.5125
3015.26888	9609.5125
3017.68865	9593.6125
3020.10694	9566.6125
3022.52376	9538.5125
3024.9391	9526.1125
3027.35298	9524.1125
