Data from AgNPs_FTO_APTES_UA_50uM_CRN_1uM_R6G_10uM_NaF_0.1M_Addition_RamanShift__9__11-26-04-716.txt Node

Date: Mon Feb 21 11:26:04 GMT 2022
User: TCL
Spectrometer: QEP01345
Trigger mode: 4
Integration Time (sec): 7.000000E0
Scans to average: 10
Electric dark correction enabled: true
Nonlinearity correction enabled: false
Boxcar width: 0
XAxis mode: Raman Shifts
Number of Pixels in Spectrum: 1044
>>>>>Begin Spectral Data<<<<<
46.04893	-0.475
50.45542	-0.275
54.85868	-0.475
59.25871	-1.575
63.6555	59.625
68.04907	66.825
72.43941	67.625
76.82654	72.325
81.21044	74.425
85.59113	77.325
89.96862	82.325
94.34289	83.925
98.71396	87.725
103.08183	87.125
107.4465	88.725
111.80798	92.925
116.16626	90.025
120.52136	93.025
124.87327	103.125
129.222	101.625
133.56755	108.425
137.90993	118.925
142.24913	125.925
146.58517	139.425
150.91804	161.525
155.24774	187.425
159.57429	232.625
163.89768	293.125
168.21792	392.825
172.53501	536.625
176.84895	747.425
181.15975	1040.425
185.46741	1457.425
189.77193	2018.925
194.07331	2687.725
198.37157	3479.625
202.6667	4306.025
206.9587	5114.625
211.24758	5904.625
215.53334	6685.425
219.81599	7557.025
224.09553	8464.125
228.37195	9495.525
232.64527	10643.825
236.91549	11838.925
241.18261	13054.025
245.44663	14176.325
249.70755	15182.125
253.96539	16059.925
258.22014	16807.425
262.4718	17356.325
266.72039	17802.225
270.96589	17933.225
275.20832	17953.225
279.44768	17793.325
283.68397	17589.325
287.91719	17391.725
292.14735	17277.425
296.37445	17233.525
300.59849	17208.725
304.81948	17283.825
309.03742	17353.325
313.25231	17290.925
317.46415	17082.225
321.67296	16808.825
325.87872	16557.725
330.08145	16401.025
334.28114	16417.825
338.47781	16457.025
342.67145	16644.325
346.86207	16937.625
351.04966	17223.725
355.23424	17555.425
359.4158	17846.525
363.59435	18092.725
367.76989	18278.425
371.94243	18338.525
376.11196	18364.925
380.27849	18414.025
384.44203	18448.625
388.60257	18563.725
392.76012	18786.425
396.91468	19071.625
401.06626	19338.525
405.21485	19550.725
409.36047	19502.625
413.50311	19267.025
417.64277	19177.825
421.77947	19232.725
425.9132	19297.725
430.04396	19403.525
434.17176	19438.225
438.2966	19549.825
442.41849	19779.225
446.53742	20229.925
450.6534	20673.425
454.76644	21034.025
458.87653	21168.625
462.98368	21178.525
467.08789	20992.825
471.18916	20754.225
475.2875	20441.425
479.38291	20281.925
483.4754	20200.125
487.56496	20089.425
491.6516	19909.225
495.73531	19667.625
499.81612	19530.925
503.89401	19653.825
507.96899	19685.125
512.04106	19735.625
516.11023	19607.625
520.1765	19453.725
524.23987	19316.725
528.30034	19173.925
532.35792	19007.325
536.41261	18842.925
540.46441	18666.925
544.51333	18628.525
548.55936	18776.725
552.60252	19120.525
556.64279	19538.325
560.6802	19834.725
564.71473	20080.225
568.7464	20417.825
572.7752	20981.125
576.80114	21728.625
580.82422	22416.325
584.84444	23204.325
588.86181	24272.125
592.87633	25259.725
596.888	25263.125
600.89682	24083.025
604.9028	23467.125
608.90594	24413.125
612.90624	25666.625
616.90371	24279.125
620.89834	21090.925
624.89015	19678.025
628.87913	19515.825
632.86528	19711.225
636.84862	19781.625
640.82913	19460.425
644.80683	18999.325
648.78172	18723.425
652.75379	18697.925
656.72306	18905.325
660.68952	19202.025
664.65319	19122.325
668.61405	18882.625
672.57211	18870.125
676.52738	18986.025
680.47986	18999.325
684.42955	18794.125
688.37646	18748.525
692.32058	18887.425
696.26192	19110.025
700.20048	19385.525
704.13626	19497.125
708.06928	19509.125
711.99952	19477.225
715.927	19488.025
719.85171	19523.025
723.77365	19458.725
727.69284	19135.225
731.60928	18912.025
735.52295	18772.525
739.43388	18765.225
743.34206	18818.525
747.24749	18932.525
751.15017	19138.025
755.05012	19408.025
758.94733	19882.625
762.8418	20671.725
766.73354	21872.125
770.62254	22960.625
774.50882	23138.825
778.39237	22287.725
782.27321	21122.025
786.15132	20105.425
790.02671	19495.125
793.89938	19093.425
797.76935	18928.325
801.6366	18835.225
805.50115	18806.225
809.36299	18711.625
813.22213	18631.225
817.07857	18573.225
820.93231	18504.725
824.78336	18423.825
828.63172	18332.925
832.47738	18304.225
836.32036	18266.925
840.16066	18290.625
843.99827	18330.925
847.8332	18318.725
851.66546	18358.925
855.49504	18399.825
859.32195	18405.125
863.1462	18364.425
866.96777	18346.825
870.78668	18304.825
874.60293	18369.325
878.41652	18382.425
882.22745	18469.125
886.03573	18495.125
889.84136	18502.125
893.64433	18444.025
897.44466	18420.925
901.24235	18374.625
905.0374	18304.925
908.8298	18256.625
912.61957	18241.425
916.40671	18367.925
920.19121	18580.125
923.97308	18776.925
927.75233	18850.525
931.52895	18691.825
935.30295	18405.725
939.07433	18126.025
942.84309	17903.625
946.60924	17773.225
950.37278	17804.125
954.13371	17795.825
957.89203	17742.825
961.64774	17751.725
965.40086	17760.625
969.15137	17725.125
972.89929	17680.725
976.64461	17645.225
980.38733	17626.525
984.12747	17621.025
987.86502	17730.925
991.59999	17822.425
995.33237	17965.425
999.06217	18235.225
1002.78939	18563.625
1006.51404	18923.625
1010.23611	19278.825
1013.95561	19474.525
1017.67255	19497.025
1021.38692	19378.125
1025.09872	19097.125
1028.80796	18830.925
1032.51465	18780.425
1036.21877	18768.825
1039.92035	18871.225
1043.61937	18958.325
1047.31584	18927.925
1051.00976	18920.625
1054.70114	18949.525
1058.38998	19017.125
1062.07627	19198.225
1065.76003	19409.525
1069.44126	19663.525
1073.11995	20027.725
1076.79611	20379.725
1080.46974	20541.625
1084.14085	20668.725
1087.80943	20887.125
1091.47549	21073.125
1095.13903	21141.725
1098.80005	20908.725
1102.45857	20394.925
1106.11456	20032.725
1109.76805	19804.225
1113.41903	19743.025
1117.06751	19804.325
1120.71348	19923.625
1124.35696	20102.825
1127.99793	20327.425
1131.63641	20461.925
1135.2724	20451.725
1138.90589	20433.025
1142.5369	20460.225
1146.16542	20539.825
1149.79145	20753.625
1153.415	20922.125
1157.03607	21160.725
1160.65467	21560.425
1164.27079	22372.025
1167.88443	23357.225
1171.49561	24370.625
1175.10432	25683.525
1178.71056	27336.125
1182.31434	28923.325
1185.91565	29753.225
1189.51451	29797.625
1193.11091	29269.525
1196.70485	28463.925
1200.29634	27531.625
1203.88538	26825.225
1207.47197	26474.425
1211.05612	26232.325
1214.63782	25862.325
1218.21708	25279.225
1221.79391	24634.025
1225.36829	24132.225
1228.94024	23910.625
1232.50976	23684.725
1236.07685	23393.925
1239.6415	23153.725
1243.20374	23102.125
1246.76355	23153.825
1250.32093	23415.825
1253.8759	23907.025
1257.42845	24504.625
1260.97859	25203.525
1264.52631	25972.225
1268.07163	26744.925
1271.61453	27463.025
1275.15503	28085.925
1278.69312	28849.925
1282.22882	29626.925
1285.76211	30638.425
1289.29301	31768.225
1292.82151	32963.225
1296.34761	34433.325
1299.87133	36118.725
1303.39266	37844.025
1306.9116	39294.125
1310.42815	40344.125
1313.94233	40804.825
1317.45412	40510.025
1320.96354	39906.425
1324.47058	39263.925
1327.97525	38899.625
1331.47754	38709.725
1334.97747	38555.225
1338.47502	38234.125
1341.97022	37887.325
1345.46305	37467.925
1348.95352	37112.325
1352.44163	37072.725
1355.92738	37654.225
1359.41078	38905.825
1362.89183	40153.725
1366.37053	39961.625
1369.84688	37526.025
1373.32088	33879.425
1376.79254	31262.125
1380.26186	30167.925
1383.72883	30035.825
1387.19347	29979.325
1390.65578	29630.625
1394.11575	29388.025
1397.57339	29544.425
1401.0287	29887.325
1404.48168	30172.525
1407.93234	30105.425
1411.38068	29660.725
1414.82669	28863.025
1418.27039	27858.525
1421.71177	26971.425
1425.15083	26236.125
1428.58758	25946.725
1432.02203	26218.925
1435.45416	26814.125
1438.88399	27497.525
1442.31151	27906.525
1445.73673	28084.425
1449.15965	28238.025
1452.58027	28275.325
1455.9986	28259.025
1459.41463	28467.225
1462.82837	28889.025
1466.23982	29366.925
1469.64898	29841.625
1473.05586	30054.225
1476.46045	30120.525
1479.86276	30031.525
1483.26279	29890.425
1486.66054	29949.925
1490.05602	30164.825
1493.44922	30566.325
1496.84016	31025.825
1500.22882	31634.325
1503.61521	32338.925
1506.99934	33124.225
1510.38121	33588.025
1513.76081	33636.325
1517.13816	33138.725
1520.51324	32345.525
1523.88607	31771.425
1527.25665	31573.925
1530.62498	31481.425
1533.99105	31216.825
1537.35488	30758.025
1540.71647	29952.725
1544.07581	29096.725
1547.4329	28327.425
1550.78776	27668.525
1554.14038	27281.125
1557.49077	27076.625
1560.83892	26987.725
1564.18484	26967.125
1567.52853	27040.125
1570.86999	27311.825
1574.20922	27714.525
1577.54624	28156.025
1580.88103	28255.025
1584.2136	28527.225
1587.54395	29286.625
1590.87208	30659.125
1594.19801	32354.125
1597.52172	33833.925
1600.84321	33965.425
1604.16251	32492.525
1607.47959	30153.325
1610.79447	27735.325
1614.10715	25536.425
1617.41763	23820.525
1620.7259	22650.425
1624.03199	22064.525
1627.33587	22102.025
1630.63757	22662.425
1633.93707	24027.025
1637.23439	26337.025
1640.52951	29727.425
1643.82246	33778.225
1647.11321	37025.625
1650.40179	37552.225
1653.68819	34783.825
1656.97241	30205.325
1660.25446	25905.225
1663.53433	22732.925
1666.81203	20759.525
1670.08756	19580.125
1673.36092	18895.525
1676.63211	18437.625
1679.90115	18087.725
1683.16801	17831.125
1686.43272	17661.425
1689.69527	17441.825
1692.95567	17291.725
1696.2139	17127.725
1699.46999	16949.325
1702.72392	16930.425
1705.97571	16962.925
1709.22535	16990.225
1712.47284	17041.825
1715.71819	17109.525
1718.96139	17011.425
1722.20246	17024.425
1725.44139	16937.625
1728.67818	16841.225
1731.91284	16730.625
1735.14537	16669.125
1738.37576	16599.525
1741.60403	16526.825
1744.83017	16452.325
1748.05418	16422.625
1751.27607	16343.925
1754.49584	16256.725
1757.71349	16169.125
1760.92903	16112.225
1764.14244	16085.925
1767.35375	16076.125
1770.56294	16072.625
1773.77002	16080.125
1776.97499	16109.925
1780.17785	16117.325
1783.37861	16156.125
1786.57727	16131.225
1789.77382	16126.625
1792.96828	16120.725
1796.16064	16103.725
1799.3509	16099.725
1802.53907	16031.725
1805.72514	15998.125
1808.90913	15970.325
1812.09102	15924.825
1815.27083	15910.325
1818.44856	15899.025
1821.6242	15910.025
1824.79776	15884.725
1827.96924	15877.225
1831.13864	15886.625
1834.30597	15903.325
1837.47122	15895.025
1840.6344	15876.325
1843.7955	15872.025
1846.95454	15848.325
1850.11151	15836.225
1853.26642	15803.625
1856.41926	15785.325
1859.57004	15796.625
1862.71876	15764.325
1865.86542	15767.525
1869.01003	15714.525
1872.15258	15745.725
1875.29308	15732.225
1878.43152	15668.925
1881.56792	15681.125
1884.70227	15651.425
1887.83457	15631.025
1890.96482	15622.525
1894.09304	15562.625
1897.21921	15551.825
1900.34335	15526.525
1903.46544	15506.525
1906.58551	15538.825
1909.70353	15476.525
1912.81953	15478.825
1915.93349	15471.325
1919.04543	15406.325
1922.15534	15392.025
1925.26322	15363.025
1928.36908	15316.825
1931.47292	15251.625
1934.57473	15243.625
1937.67453	15198.125
1940.77232	15180.925
1943.86808	15129.125
1946.96184	15098.125
1950.05358	15103.325
1953.14331	15054.925
1956.23103	14999.625
1959.31675	14942.125
1962.40046	14898.125
1965.48217	14882.625
1968.56188	14829.525
1971.63959	14803.625
1974.7153	14769.525
1977.78901	14722.425
1980.86073	14663.125
1983.93046	14595.325
1986.99819	14552.225
1990.06394	14523.725
1993.1277	14510.725
1996.18947	14461.525
1999.24925	14425.625
2002.30706	14377.925
2005.36288	14349.925
2008.41672	14292.825
2011.46859	14251.725
2014.51848	14214.225
2017.56639	14177.225
2020.61233	14144.525
2023.6563	14110.625
2026.6983	14073.425
2029.73833	14041.425
2032.7764	14018.225
2035.8125	13982.425
2038.84664	13971.925
2041.87881	13961.925
2044.90903	13943.325
2047.93729	13897.925
2050.96359	13880.225
2053.98794	13829.725
2057.01034	13870.525
2060.03078	13866.425
2063.04927	13832.425
2066.06582	13834.625
2069.08042	13814.125
2072.09307	13845.425
2075.10378	13840.525
2078.11255	13819.725
2081.11938	13820.425
2084.12426	13837.325
2087.12722	13834.025
2090.12824	13797.925
2093.12732	13818.425
2096.12447	13814.425
2099.11969	13775.525
2102.11299	13800.425
2105.10435	13820.125
2108.09379	13812.825
2111.08131	13845.225
2114.0669	13831.325
2117.05057	13891.325
2120.03233	13859.625
2123.01216	13878.625
2125.99008	13918.225
2128.96609	13909.025
2131.94018	13919.725
2134.91236	13945.925
2137.88263	13940.725
2140.851	13975.325
2143.81746	13940.725
2146.78201	13938.325
2149.74466	13921.525
2152.7054	13948.725
2155.66425	13943.925
2158.6212	13948.325
2161.57625	13925.525
2164.52941	13936.025
2167.48067	13930.325
2170.43004	13900.925
2173.37752	13880.625
2176.32311	13876.625
2179.26681	13881.625
2182.20863	13914.325
2185.14856	13910.925
2188.08661	13908.025
2191.02278	13910.325
2193.95707	13859.725
2196.88948	13867.725
2199.82001	13860.125
2202.74867	13858.625
2205.67545	13830.825
2208.60037	13831.125
2211.52341	13833.325
2214.44458	13775.825
2217.36388	13770.825
2220.28132	13765.525
2223.1969	13720.525
2226.11061	13725.125
2229.02246	13669.925
2231.93245	13692.625
2234.84058	13624.725
2237.74686	13655.325
2240.65128	13636.625
2243.55385	13593.325
2246.45456	13588.725
2249.35343	13558.725
2252.25044	13538.425
2255.14561	13527.625
2258.03893	13521.225
2260.93041	13447.125
2263.82004	13450.525
2266.70783	13411.325
2269.59378	13403.825
2272.4779	13368.025
2275.36017	13344.925
2278.24061	13325.525
2281.11922	13284.725
2283.996	13276.225
2286.87094	13251.225
2289.74405	13245.725
2292.61534	13231.625
2295.4848	13181.225
2298.35243	13207.425
2301.21824	13191.225
2304.08223	13195.525
2306.94439	13195.825
2309.80474	13172.925
2312.66327	13176.325
2315.51999	13145.125
2318.37489	13174.425
2321.22797	13140.625
2324.07925	13112.525
2326.92871	13084.625
2329.77637	13079.225
2332.62222	13041.125
2335.46626	13044.625
2338.3085	13038.525
2341.14893	13017.925
2343.98756	13016.425
2346.8244	13019.125
2349.65943	13022.525
2352.49267	13049.825
2355.32411	13010.225
2358.15376	13047.625
2360.98161	13008.625
2363.80768	12976.725
2366.63195	12968.525
2369.45444	12969.725
2372.27514	12971.625
2375.09405	12956.725
2377.91118	12920.625
2380.72652	12882.325
2383.54009	12853.525
2386.35187	12872.025
2389.16188	12837.125
2391.97011	12830.625
2394.77657	12793.025
2397.58125	12762.425
2400.38416	12786.325
2403.18529	12762.025
2405.98466	12759.625
2408.78226	12737.725
2411.57809	12720.225
2414.37216	12678.425
2417.16446	12688.725
2419.955	12675.125
2422.74378	12697.825
2425.5308	12642.025
2428.31606	12650.625
2431.09956	12635.025
2433.88131	12634.825
2436.6613	12651.525
2439.43954	12654.225
2442.21603	12634.625
2444.99077	12602.225
2447.76377	12629.725
2450.53501	12602.125
2453.30451	12616.825
2456.07226	12603.825
2458.83827	12619.325
2461.60254	12603.225
2464.36507	12566.125
2467.12586	12531.125
2469.88492	12553.625
2472.64224	12558.025
2475.39782	12557.025
2478.15167	12537.225
2480.90379	12550.525
2483.65417	12568.125
2486.40283	12575.625
2489.14976	12594.325
2491.89497	12558.325
2494.63845	12558.825
2497.3802	12530.125
2500.12024	12549.825
2502.85855	12553.525
2505.59514	12545.125
2508.33002	12503.325
2511.06318	12523.825
2513.79462	12524.925
2516.52435	12499.125
2519.25237	12461.025
2521.97867	12456.025
2524.70327	12442.425
2527.42616	12422.925
2530.14734	12439.325
2532.86681	12431.025
2535.58458	12447.625
2538.30065	12451.025
2541.01501	12420.025
2543.72768	12415.625
2546.43864	12386.525
2549.14791	12395.225
2551.85548	12385.925
2554.56136	12386.025
2557.26554	12335.025
2559.96803	12337.525
2562.66883	12324.525
2565.36794	12279.825
2568.06536	12256.225
2570.7611	12261.825
2573.45514	12247.425
2576.14751	12260.225
2578.83819	12242.525
2581.52719	12205.125
2584.21451	12212.425
2586.90015	12198.225
2589.58411	12171.825
2592.2664	12171.625
2594.94701	12176.325
2597.62594	12183.725
2600.30321	12142.625
2602.9788	12163.625
2605.65273	12121.325
2608.32498	12146.425
2610.99557	12114.025
2613.66449	12128.625
2616.33175	12082.825
2618.99734	12112.325
2621.66128	12069.725
2624.32355	12051.325
2626.98416	12051.325
2629.64311	12055.325
2632.30041	12056.725
2634.95605	11995.825
2637.61004	12011.125
2640.26238	12021.425
2642.91306	11981.925
2645.56209	12003.125
2648.20948	12002.525
2650.85521	11970.025
2653.4993	11945.025
2656.14175	11974.825
2658.78255	12049.625
2661.42171	12007.225
2664.05923	12037.125
2666.6951	12033.325
2669.32934	12050.425
2671.96194	12040.225
2674.59291	12050.225
2677.22224	12033.925
2679.84993	12043.725
2682.476	12020.325
2685.10043	12058.025
2687.72324	12053.825
2690.34441	12053.325
2692.96396	12023.525
2695.58188	12024.025
2698.19818	12019.425
2700.81285	12008.025
2703.4259	11993.525
2706.03733	11879.125
2708.64714	11934.825
2711.25533	12043.025
2713.86191	12052.525
2716.46687	12068.025
2719.07021	12103.725
2721.67194	12107.425
2724.27206	12120.325
2726.87057	12104.225
2729.46747	12125.925
2732.06276	12118.825
2734.65644	12145.925
2737.24852	12118.325
2739.83899	12110.025
2742.42786	12127.725
2745.01513	12119.825
2747.60079	12116.825
2750.18486	12081.025
2752.76733	12042.525
2755.3482	12044.525
2757.92747	12042.325
2760.50515	12027.525
2763.08123	12014.325
2765.65573	11972.825
2768.22863	11988.525
2770.79994	11969.025
2773.36967	11975.225
2775.9378	11979.325
2778.50435	11970.125
2781.06932	11954.225
2783.6327	11987.125
2786.1945	11961.325
2788.75471	11961.025
2791.31335	11932.225
2793.87041	11903.525
2796.42589	11866.625
2798.97979	11837.625
2801.53212	11822.325
2804.08288	11824.325
2806.63206	11812.825
2809.17967	11799.425
2811.72571	11776.325
2814.27018	11756.725
2816.81308	11705.925
2819.35442	11704.025
2821.89419	11692.225
2824.43239	11648.725
2826.96904	11632.725
2829.50412	11646.225
2832.03763	11603.625
2834.56959	11600.025
2837.1	11615.925
2839.62884	11598.425
2842.15613	11592.325
2844.68186	11600.525
2847.20604	11599.125
2849.72867	11589.725
2852.24974	11559.125
2854.76927	11516.725
2857.28724	11506.625
2859.80367	11486.525
2862.31855	11467.325
2864.83189	11479.625
2867.34368	11490.125
2869.85393	11502.625
2872.36264	11492.225
2874.8698	11485.025
2877.37543	11488.125
2879.87952	11477.625
2882.38207	11476.125
2884.88308	11441.125
2887.38256	11468.825
2889.88051	11468.825
2892.37692	11481.625
2894.8718	11491.425
2897.36515	11462.125
2899.85698	11466.925
2902.34727	11522.425
2904.83604	11492.925
2907.32328	11497.625
2909.809	11500.025
2912.29319	11523.525
2914.77587	11535.925
2917.25702	11508.425
2919.73665	11503.525
2922.21476	11509.525
2924.69136	11480.025
2927.16644	11488.325
2929.64	11482.725
2932.11205	11468.525
2934.58258	11432.825
2937.05161	11455.425
2939.51912	11465.725
2941.98513	11443.625
2944.44962	11434.525
2946.91261	11408.325
2949.37409	11414.225
2951.83407	11424.525
2954.29254	11411.625
2956.74951	11395.925
2959.20498	11406.325
2961.65895	11375.825
2964.11142	11374.225
2966.56239	11324.725
2969.01186	11362.525
2971.45984	11328.025
2973.90632	11313.525
2976.35131	11310.125
2978.7948	11306.825
2981.23681	11285.625
2983.67732	11267.125
2986.11635	11225.125
2988.55388	11199.325
2990.98993	11177.325
2993.4245	11167.025
2995.85758	11125.825
2998.28917	11118.325
3000.71928	11097.225
3003.14791	11050.925
3005.57506	11049.725
3008.00073	11010.625
3010.42493	11006.425
3012.84764	10982.025
3015.26888	10979.925
3017.68865	10959.925
3020.10694	10938.825
3022.52376	10907.925
3024.9391	10891.425
3027.35298	10881.325
3029.76539	10893.425
3032.17632	10903.825
3034.5858	10861.025
3036.9938	10847.825
3039.40034	10850.825
3041.80542	10829.425
3044.20903	10797.825
3046.61118	10798.225
3049.01187	10777.925
3051.4111	10759.925
3053.80888	10741.925
3056.20519	10752.125
3058.60005	10708.425
3060.99345	10690.125
3063.3854	10650.125
3065.7759	10645.825
3068.16494	10657.125
3070.55254	10591.425
3072.93868	10560.025
3075.32338	10529.325
3077.70662	10494.925
3080.08842	10456.025
3082.46878	10461.225
3084.84769	10433.125
3087.22515	10441.225
3089.60118	10423.725
3091.97576	10417.525
3094.3489	10451.525
3096.72061	10457.225
3099.09087	10443.725
3101.4597	10438.125
3103.82709	10439.725
3106.19305	10413.925
3108.55757	10423.525
3110.92066	10406.825
3113.28232	10386.325
3115.64255	10344.825
3118.00134	10332.025
3120.35871	10338.525
3122.71466	10266.825
3125.06917	10278.725
3127.42226	10256.825
