Data from AgNPs_FTO_APTES_UA_50uM_CRN_50uM_R6G_10uM_NaF_0.1M_Addition_RamanShift__10__14-44-24-972.txt Node

Date: Mon Feb 21 14:44:24 GMT 2022
User: TCL
Spectrometer: QEP01345
Trigger mode: 4
Integration Time (sec): 7.000000E0
Scans to average: 10
Electric dark correction enabled: true
Nonlinearity correction enabled: false
Boxcar width: 0
XAxis mode: Raman Shifts
Number of Pixels in Spectrum: 1044
>>>>>Begin Spectral Data<<<<<
46.04893	0.575
50.45542	0.675
54.85868	-1.625
59.25871	-2.625
63.6555	58.075
68.04907	63.175
72.43941	64.575
76.82654	68.175
81.21044	71.375
85.59113	72.575
89.96862	79.175
94.34289	83.275
98.71396	79.475
103.08183	88.075
107.4465	83.775
111.80798	88.675
116.16626	89.475
120.52136	90.875
124.87327	96.675
129.222	94.875
133.56755	95.275
137.90993	105.075
142.24913	114.675
146.58517	132.675
150.91804	142.175
155.24774	165.075
159.57429	202.875
163.89768	248.475
168.21792	330.675
172.53501	447.975
176.84895	620.575
181.15975	865.575
185.46741	1216.975
189.77193	1670.575
194.07331	2230.975
198.37157	2872.575
202.6667	3555.875
206.9587	4254.575
211.24758	4889.275
215.53334	5544.675
219.81599	6266.175
224.09553	7033.975
228.37195	7871.075
232.64527	8832.175
236.91549	9833.475
241.18261	10807.075
245.44663	11734.875
249.70755	12521.575
253.96539	13236.075
258.22014	13805.175
262.4718	14259.275
266.72039	14554.575
270.96589	14679.575
275.20832	14665.175
279.44768	14580.475
283.68397	14386.375
287.91719	14257.575
292.14735	14144.975
296.37445	14155.375
300.59849	14194.875
304.81948	14219.075
309.03742	14270.975
313.25231	14244.575
317.46415	13990.275
321.67296	13704.875
325.87872	13429.475
330.08145	13346.575
334.28114	13324.775
338.47781	13410.575
342.67145	13534.675
346.86207	13742.475
351.04966	14024.175
355.23424	14266.675
359.4158	14514.275
363.59435	14711.475
367.76989	14809.175
371.94243	14855.975
376.11196	14888.675
380.27849	14977.575
384.44203	15015.775
388.60257	15100.575
392.76012	15245.275
396.91468	15441.075
401.06626	15714.075
405.21485	15851.275
409.36047	15773.175
413.50311	15531.275
417.64277	15335.775
421.77947	15297.575
425.9132	15344.775
430.04396	15382.875
434.17176	15456.175
438.2966	15531.875
442.41849	15768.575
446.53742	16078.675
450.6534	16405.675
454.76644	16622.975
458.87653	16726.175
462.98368	16734.075
467.08789	16615.475
471.18916	16474.275
475.2875	16250.675
479.38291	16063.075
483.4754	15911.475
487.56496	15793.075
491.6516	15712.175
495.73531	15621.875
499.81612	15594.375
503.89401	15708.975
507.96899	15756.375
512.04106	15733.275
516.11023	15727.775
520.1765	15629.375
524.23987	15539.175
528.30034	15448.675
532.35792	15351.975
536.41261	15253.275
540.46441	15129.675
544.51333	15081.575
548.55936	15213.875
552.60252	15444.575
556.64279	15725.775
560.6802	15878.875
564.71473	15960.275
568.7464	16133.175
572.7752	16496.575
576.80114	16914.575
580.82422	17293.875
584.84444	17777.875
588.86181	18313.275
592.87633	18852.575
596.888	18927.175
600.89682	18564.375
604.9028	18596.575
608.90594	19814.875
612.90624	21157.675
616.90371	19970.775
620.89834	17081.775
624.89015	15797.975
628.87913	15673.075
632.86528	15839.475
636.84862	15945.275
640.82913	15767.175
644.80683	15400.175
648.78172	15128.775
652.75379	15089.475
656.72306	15267.475
660.68952	15524.275
664.65319	15473.575
668.61405	15253.675
672.57211	15243.375
676.52738	15350.475
680.47986	15358.075
684.42955	15255.075
688.37646	15149.575
692.32058	15181.375
696.26192	15316.875
700.20048	15461.275
704.13626	15575.775
708.06928	15562.775
711.99952	15530.275
715.927	15447.875
719.85171	15467.975
723.77365	15450.275
727.69284	15291.775
731.60928	15098.575
735.52295	15040.175
739.43388	15059.575
743.34206	15105.675
747.24749	15169.175
751.15017	15293.975
755.05012	15494.075
758.94733	15872.575
762.8418	16568.575
766.73354	17705.275
770.62254	18853.175
774.50882	19116.975
778.39237	18404.875
782.27321	17228.475
786.15132	16274.975
790.02671	15637.775
793.89938	15296.575
797.76935	15099.075
801.6366	15031.675
805.50115	14979.275
809.36299	14903.075
813.22213	14809.275
817.07857	14788.075
820.93231	14723.375
824.78336	14680.075
828.63172	14646.975
832.47738	14613.275
836.32036	14596.275
840.16066	14600.675
843.99827	14596.275
847.8332	14604.275
851.66546	14608.975
855.49504	14639.275
859.32195	14624.675
863.1462	14603.775
866.96777	14611.975
870.78668	14604.075
874.60293	14616.975
878.41652	14653.575
882.22745	14742.275
886.03573	14805.075
889.84136	14793.875
893.64433	14729.075
897.44466	14712.575
901.24235	14688.075
905.0374	14647.675
908.8298	14588.175
912.61957	14564.675
916.40671	14652.475
920.19121	14814.875
923.97308	14919.875
927.75233	14981.675
931.52895	14921.775
935.30295	14717.075
939.07433	14513.275
942.84309	14288.475
946.60924	14205.375
950.37278	14156.275
954.13371	14145.075
957.89203	14148.575
961.64774	14132.275
965.40086	14140.175
969.15137	14108.075
972.89929	14053.775
976.64461	14045.775
980.38733	14047.375
984.12747	14070.075
987.86502	14113.075
991.59999	14193.275
995.33237	14275.575
999.06217	14486.575
1002.78939	14722.375
1006.51404	14991.875
1010.23611	15247.975
1013.95561	15435.875
1017.67255	15456.175
1021.38692	15343.975
1025.09872	15145.875
1028.80796	14976.775
1032.51465	14942.675
1036.21877	14999.175
1039.92035	15050.175
1043.61937	15116.775
1047.31584	15108.375
1051.00976	15104.575
1054.70114	15127.275
1058.38998	15156.375
1062.07627	15293.475
1065.76003	15476.375
1069.44126	15666.875
1073.11995	15897.375
1076.79611	16118.275
1080.46974	16274.775
1084.14085	16361.475
1087.80943	16510.775
1091.47549	16639.875
1095.13903	16638.275
1098.80005	16416.875
1102.45857	16088.375
1106.11456	15791.175
1109.76805	15656.375
1113.41903	15622.575
1117.06751	15739.675
1120.71348	15853.775
1124.35696	16079.075
1127.99793	16274.975
1131.63641	16398.075
1135.2724	16370.775
1138.90589	16288.775
1142.5369	16242.275
1146.16542	16242.175
1149.79145	16317.475
1153.415	16371.875
1157.03607	16533.875
1160.65467	16849.975
1164.27079	17345.775
1167.88443	18056.275
1171.49561	18930.175
1175.10432	20005.575
1178.71056	21439.575
1182.31434	22740.775
1185.91565	23514.775
1189.51451	23647.075
1193.11091	23310.475
1196.70485	22542.075
1200.29634	21690.275
1203.88538	20897.275
1207.47197	20288.175
1211.05612	19775.275
1214.63782	19304.075
1218.21708	18902.575
1221.79391	18610.575
1225.36829	18467.975
1228.94024	18376.375
1232.50976	18265.075
1236.07685	18133.875
1239.6415	18050.075
1243.20374	17995.175
1246.76355	18099.475
1250.32093	18247.375
1253.8759	18509.775
1257.42845	18916.675
1260.97859	19433.875
1264.52631	19990.475
1268.07163	20483.075
1271.61453	20998.375
1275.15503	21458.075
1278.69312	21847.675
1282.22882	22357.975
1285.76211	22930.875
1289.29301	23609.175
1292.82151	24343.775
1296.34761	25235.075
1299.87133	26328.775
1303.39266	27459.375
1306.9116	28635.275
1310.42815	29620.275
1313.94233	30124.475
1317.45412	29937.675
1320.96354	29354.975
1324.47058	28798.075
1327.97525	28342.875
1331.47754	28110.175
1334.97747	28029.675
1338.47502	27959.275
1341.97022	28050.075
1345.46305	28133.975
1348.95352	28329.875
1352.44163	28584.775
1355.92738	29227.075
1359.41078	30204.975
1362.89183	31199.975
1366.37053	30854.875
1369.84688	28670.875
1373.32088	25922.575
1376.79254	23844.175
1380.26186	22833.375
1383.72883	22477.175
1387.19347	22150.075
1390.65578	21754.175
1394.11575	21508.675
1397.57339	21438.375
1401.0287	21496.875
1404.48168	21650.175
1407.93234	21593.275
1411.38068	21403.975
1414.82669	20973.975
1418.27039	20484.575
1421.71177	19998.275
1425.15083	19595.975
1428.58758	19387.675
1432.02203	19495.775
1435.45416	19759.875
1438.88399	20053.175
1442.31151	20263.875
1445.73673	20430.775
1449.15965	20561.875
1452.58027	20682.475
1455.9986	20688.575
1459.41463	20826.375
1462.82837	21133.975
1466.23982	21533.275
1469.64898	21928.475
1473.05586	22223.675
1476.46045	22401.475
1479.86276	22518.675
1483.26279	22558.875
1486.66054	22682.075
1490.05602	22949.775
1493.44922	23438.175
1496.84016	24066.975
1500.22882	24924.575
1503.61521	25911.475
1506.99934	26908.375
1510.38121	27556.575
1513.76081	27416.975
1517.13816	26595.375
1520.51324	25504.575
1523.88607	24576.075
1527.25665	24077.575
1530.62498	23727.175
1533.99105	23410.375
1537.35488	22968.875
1540.71647	22490.975
1544.07581	21998.275
1547.4329	21485.475
1550.78776	21081.175
1554.14038	20854.075
1557.49077	20795.475
1560.83892	20863.775
1564.18484	20963.475
1567.52853	21093.675
1570.86999	21324.075
1574.20922	21588.475
1577.54624	21728.775
1580.88103	21563.875
1584.2136	21330.275
1587.54395	21499.375
1590.87208	22064.875
1594.19801	23038.275
1597.52172	24000.075
1600.84321	24282.175
1604.16251	23469.175
1607.47959	22196.675
1610.79447	20835.775
1614.10715	19487.375
1617.41763	18351.675
1620.7259	17517.975
1624.03199	17055.075
1627.33587	16999.675
1630.63757	17295.375
1633.93707	18132.975
1637.23439	19573.675
1640.52951	21677.275
1643.82246	24185.075
1647.11321	26280.275
1650.40179	26849.275
1653.68819	25318.475
1656.97241	22436.775
1660.25446	19606.975
1663.53433	17442.975
1666.81203	16025.975
1670.08756	15191.675
1673.36092	14705.375
1676.63211	14380.475
1679.90115	14127.775
1683.16801	13954.675
1686.43272	13780.075
1689.69527	13666.175
1692.95567	13537.675
1696.2139	13360.675
1699.46999	13176.575
1702.72392	13123.075
1705.97571	13165.075
1709.22535	13224.175
1712.47284	13309.175
1715.71819	13297.775
1718.96139	13268.475
1722.20246	13226.275
1725.44139	13202.975
1728.67818	13118.975
1731.91284	13038.275
1735.14537	12981.875
1738.37576	12928.075
1741.60403	12873.775
1744.83017	12851.975
1748.05418	12790.775
1751.27607	12762.175
1754.49584	12702.275
1757.71349	12659.175
1760.92903	12590.475
1764.14244	12606.275
1767.35375	12577.475
1770.56294	12554.775
1773.77002	12508.875
1776.97499	12529.575
1780.17785	12540.775
1783.37861	12547.275
1786.57727	12570.275
1789.77382	12534.775
1792.96828	12507.775
1796.16064	12503.575
1799.3509	12467.875
1802.53907	12454.675
1805.72514	12421.975
1808.90913	12411.475
1812.09102	12351.575
1815.27083	12370.175
1818.44856	12365.375
1821.6242	12346.475
1824.79776	12334.275
1827.96924	12357.275
1831.13864	12335.875
1834.30597	12323.275
1837.47122	12344.375
1840.6344	12316.575
1843.7955	12314.875
1846.95454	12326.075
1850.11151	12314.175
1853.26642	12322.575
1856.41926	12297.075
1859.57004	12291.675
1862.71876	12256.375
1865.86542	12238.675
1869.01003	12236.175
1872.15258	12195.875
1875.29308	12210.575
1878.43152	12183.475
1881.56792	12169.375
1884.70227	12148.575
1887.83457	12121.475
1890.96482	12104.775
1894.09304	12043.675
1897.21921	12067.775
1900.34335	12031.375
1903.46544	12062.975
1906.58551	12020.475
1909.70353	11995.275
1912.81953	11994.575
1915.93349	11970.675
1919.04543	11971.475
1922.15534	11932.275
1925.26322	11881.275
1928.36908	11876.375
1931.47292	11849.275
1934.57473	11804.375
1937.67453	11804.075
1940.77232	11776.775
1943.86808	11760.775
1946.96184	11701.175
1950.05358	11667.375
1953.14331	11661.075
1956.23103	11604.875
1959.31675	11583.475
1962.40046	11555.175
1965.48217	11534.475
1968.56188	11495.675
1971.63959	11423.275
1974.7153	11421.375
1977.78901	11395.275
1980.86073	11342.675
1983.93046	11321.275
1986.99819	11281.275
1990.06394	11248.175
1993.1277	11213.175
1996.18947	11197.075
1999.24925	11140.075
2002.30706	11099.575
2005.36288	11086.275
2008.41672	11056.275
2011.46859	11027.075
2014.51848	10972.375
2017.56639	10961.375
2020.61233	10934.475
2023.6563	10900.775
2026.6983	10887.275
2029.73833	10860.075
2032.7764	10827.075
2035.8125	10800.775
2038.84664	10805.575
2041.87881	10786.075
2044.90903	10770.975
2047.93729	10718.375
2050.96359	10752.775
2053.98794	10721.575
2057.01034	10705.275
2060.03078	10719.275
2063.04927	10695.775
2066.06582	10674.475
2069.08042	10676.875
2072.09307	10666.575
2075.10378	10658.875
2078.11255	10644.275
2081.11938	10662.975
2084.12426	10635.175
2087.12722	10656.475
2090.12824	10628.475
2093.12732	10626.075
2096.12447	10641.275
2099.11969	10656.875
2102.11299	10670.875
2105.10435	10648.175
2108.09379	10653.075
2111.08131	10678.575
2114.0669	10657.875
2117.05057	10686.875
2120.03233	10702.975
2123.01216	10716.675
2125.99008	10727.975
2128.96609	10723.375
2131.94018	10730.475
2134.91236	10756.175
2137.88263	10753.275
2140.851	10750.975
2143.81746	10775.975
2146.78201	10755.775
2149.74466	10753.275
2152.7054	10757.575
2155.66425	10743.375
2158.6212	10738.575
2161.57625	10763.975
2164.52941	10754.375
2167.48067	10736.675
2170.43004	10717.075
2173.37752	10716.075
2176.32311	10713.175
2179.26681	10718.275
2182.20863	10709.175
2185.14856	10750.775
2188.08661	10735.875
2191.02278	10719.875
2193.95707	10703.475
2196.88948	10688.775
2199.82001	10685.375
2202.74867	10686.775
2205.67545	10646.275
2208.60037	10643.875
2211.52341	10659.875
2214.44458	10638.075
2217.36388	10617.875
2220.28132	10580.775
2223.1969	10572.775
2226.11061	10563.275
2229.02246	10534.075
2231.93245	10532.975
2234.84058	10515.175
2237.74686	10500.475
2240.65128	10482.775
2243.55385	10479.175
2246.45456	10479.175
2249.35343	10470.975
2252.25044	10444.075
2255.14561	10427.475
2258.03893	10403.475
2260.93041	10400.475
2263.82004	10368.575
2266.70783	10341.775
2269.59378	10319.275
2272.4779	10319.075
2275.36017	10277.075
2278.24061	10266.475
2281.11922	10219.275
2283.996	10200.275
2286.87094	10229.675
2289.74405	10199.075
2292.61534	10167.875
2295.4848	10162.375
2298.35243	10177.675
2301.21824	10146.775
2304.08223	10143.275
2306.94439	10160.275
2309.80474	10130.175
2312.66327	10149.975
2315.51999	10130.975
2318.37489	10122.775
2321.22797	10115.075
2324.07925	10103.975
2326.92871	10076.275
2329.77637	10096.575
2332.62222	10053.175
2335.46626	10039.875
2338.3085	10044.275
2341.14893	10042.375
2343.98756	10043.575
2346.8244	10044.575
2349.65943	10032.575
2352.49267	10018.375
2355.32411	10015.975
2358.15376	10017.675
2360.98161	10023.675
2363.80768	9970.175
2366.63195	10010.175
2369.45444	9981.875
2372.27514	9971.475
2375.09405	9967.775
2377.91118	9974.875
2380.72652	9926.875
2383.54009	9917.575
2386.35187	9894.975
2389.16188	9852.875
2391.97011	9875.675
2394.77657	9849.975
2397.58125	9827.775
2400.38416	9807.775
2403.18529	9805.175
2405.98466	9778.375
2408.78226	9770.875
2411.57809	9747.475
2414.37216	9740.475
2417.16446	9755.975
2419.955	9732.675
2422.74378	9729.375
2425.5308	9725.775
2428.31606	9700.175
2431.09956	9714.375
2433.88131	9705.375
2436.6613	9703.475
2439.43954	9695.875
2442.21603	9690.475
2444.99077	9701.075
2447.76377	9708.975
2450.53501	9697.575
2453.30451	9682.875
2456.07226	9657.675
2458.83827	9652.875
2461.60254	9644.775
2464.36507	9660.875
2467.12586	9667.275
2469.88492	9663.575
2472.64224	9662.375
2475.39782	9645.675
2478.15167	9669.975
2480.90379	9659.375
2483.65417	9656.775
2486.40283	9635.075
2489.14976	9648.875
2491.89497	9633.075
2494.63845	9629.175
2497.3802	9617.575
2500.12024	9630.375
2502.85855	9615.375
2505.59514	9635.275
2508.33002	9604.475
2511.06318	9601.275
2513.79462	9582.775
2516.52435	9569.575
2519.25237	9574.575
2521.97867	9553.175
2524.70327	9546.775
2527.42616	9551.075
2530.14734	9541.075
2532.86681	9522.275
2535.58458	9540.475
2538.30065	9523.675
2541.01501	9514.975
2543.72768	9519.275
2546.43864	9480.875
2549.14791	9446.775
2551.85548	9457.075
2554.56136	9432.875
2557.26554	9427.075
2559.96803	9434.375
2562.66883	9415.075
2565.36794	9429.475
2568.06536	9423.375
2570.7611	9403.275
2573.45514	9396.075
2576.14751	9377.975
2578.83819	9349.775
2581.52719	9329.575
2584.21451	9334.475
2586.90015	9320.375
2589.58411	9285.575
2592.2664	9308.775
2594.94701	9280.075
2597.62594	9278.975
2600.30321	9269.775
2602.9788	9263.775
2605.65273	9263.875
2608.32498	9238.075
2610.99557	9245.175
2613.66449	9240.575
2616.33175	9259.175
2618.99734	9254.375
2621.66128	9239.475
2624.32355	9243.575
2626.98416	9218.775
2629.64311	9187.775
2632.30041	9186.775
2634.95605	9165.675
2637.61004	9148.775
2640.26238	9147.375
2642.91306	9155.475
2645.56209	9133.175
2648.20948	9141.375
2650.85521	9151.175
2653.4993	9133.575
2656.14175	9134.875
2658.78255	9141.875
2661.42171	9139.175
2664.05923	9148.275
2666.6951	9187.375
2669.32934	9185.775
2671.96194	9189.475
2674.59291	9180.775
2677.22224	9191.875
2679.84993	9177.275
2682.476	9152.575
2685.10043	9159.775
2687.72324	9159.975
2690.34441	9173.775
2692.96396	9154.875
2695.58188	9165.175
2698.19818	9139.375
2700.81285	9158.375
2703.4259	9137.075
2706.03733	9073.575
2708.64714	9096.675
2711.25533	9127.575
2713.86191	9148.075
2716.46687	9179.575
2719.07021	9174.675
2721.67194	9194.275
2724.27206	9187.775
2726.87057	9198.275
2729.46747	9197.975
2732.06276	9208.075
2734.65644	9205.375
2737.24852	9169.375
2739.83899	9164.475
2742.42786	9178.175
2745.01513	9142.975
2747.60079	9183.975
2750.18486	9146.175
2752.76733	9157.275
2755.3482	9138.075
2757.92747	9148.075
2760.50515	9124.275
2763.08123	9131.075
2765.65573	9103.875
2768.22863	9087.775
2770.79994	9092.575
2773.36967	9073.475
2775.9378	9064.475
2778.50435	9059.675
2781.06932	9053.575
2783.6327	9067.975
2786.1945	9061.875
2788.75471	9058.175
2791.31335	9029.875
2793.87041	9024.275
2796.42589	8990.275
2798.97979	8996.475
2801.53212	8967.475
2804.08288	8969.775
2806.63206	8936.775
2809.17967	8949.475
2811.72571	8893.975
2814.27018	8921.475
2816.81308	8879.475
2819.35442	8882.275
2821.89419	8865.475
2824.43239	8879.175
2826.96904	8853.775
2829.50412	8857.275
2832.03763	8835.475
2834.56959	8859.575
2837.1	8834.075
2839.62884	8819.475
2842.15613	8810.875
2844.68186	8820.775
2847.20604	8815.775
2849.72867	8827.875
2852.24974	8822.275
2854.76927	8808.575
2857.28724	8764.775
2859.80367	8762.575
2862.31855	8786.175
2864.83189	8751.175
2867.34368	8753.975
2869.85393	8763.375
2872.36264	8755.075
2874.8698	8736.475
2877.37543	8737.275
2879.87952	8746.075
2882.38207	8745.875
2884.88308	8739.875
2887.38256	8742.475
2889.88051	8768.475
2892.37692	8716.775
2894.8718	8732.675
2897.36515	8774.875
2899.85698	8770.575
2902.34727	8769.375
2904.83604	8760.975
2907.32328	8782.275
2909.809	8778.475
2912.29319	8802.275
2914.77587	8795.175
2917.25702	8803.875
2919.73665	8801.275
2922.21476	8775.775
2924.69136	8799.775
2927.16644	8795.675
2929.64	8794.475
2932.11205	8768.975
2934.58258	8736.275
2937.05161	8766.975
2939.51912	8764.575
2941.98513	8739.575
2944.44962	8732.175
2946.91261	8699.775
2949.37409	8724.275
2951.83407	8706.575
2954.29254	8706.875
2956.74951	8689.375
2959.20498	8686.875
2961.65895	8668.475
2964.11142	8655.675
2966.56239	8629.575
2969.01186	8634.675
2971.45984	8622.475
2973.90632	8630.175
2976.35131	8603.675
2978.7948	8591.575
2981.23681	8554.375
2983.67732	8555.475
2986.11635	8533.775
2988.55388	8500.975
2990.98993	8499.575
2993.4245	8493.775
2995.85758	8457.275
2998.28917	8450.875
3000.71928	8462.275
3003.14791	8421.175
3005.57506	8405.175
3008.00073	8380.475
3010.42493	8369.875
3012.84764	8387.275
3015.26888	8395.175
3017.68865	8339.475
3020.10694	8355.575
3022.52376	8325.475
3024.9391	8307.875
3027.35298	8303.475
3029.76539	8306.075
3032.17632	8276.475
3034.5858	8269.775
3036.9938	8263.375
3039.40034	8264.175
3041.80542	8271.975
3044.20903	8234.975
3046.61118	8232.575
3049.01187	8226.575
3051.4111	8232.275
3053.80888	8205.975
3056.20519	8205.475
3058.60005	8177.575
3060.99345	8158.575
3063.3854	8152.475
3065.7759	8134.075
3068.16494	8116.475
3070.55254	8079.275
3072.93868	8059.475
3075.32338	8055.275
3077.70662	8036.575
3080.08842	8023.975
3082.46878	8005.875
3084.84769	7999.075
3087.22515	8011.975
3089.60118	7999.575
3091.97576	7983.075
3094.3489	7987.875
3096.72061	7975.075
3099.09087	7976.675
3101.4597	7966.275
3103.82709	7978.175
3106.19305	7960.475
3108.55757	7986.175
3110.92066	7976.075
3113.28232	7944.575
3115.64255	7906.075
3118.00134	7913.775
3120.35871	7893.575
3122.71466	7898.475
3125.06917	7896.075
3127.42226	7880.175
3129.77393	7886.075
3132.12417	7870.175
3134.47299	7862.875
3136.82039	7866.175
3139.16636	7865.675
3141.51092	7855.875
3143.85406	7854.475
3146.19579	7858.175
3148.53609	7843.075
3150.87499	7832.275
3153.21246	7861.475
3155.54853	7888.375
3157.88318	7889.775
3160.21642	7874.275
3162.54826	7858.275
3164.87868	7855.775
