Data from AgNPs_FTO_APTES_UA_50uM_CRN_0uM_R6G_10uM_NaF_0.1M_Addition_RamanShift__15__10-27-44-637.txt Node

Date: Mon Feb 21 10:27:44 GMT 2022
User: TCL
Spectrometer: QEP01345
Trigger mode: 4
Integration Time (sec): 7.000000E0
Scans to average: 10
Electric dark correction enabled: true
Nonlinearity correction enabled: false
Boxcar width: 0
XAxis mode: Raman Shifts
Number of Pixels in Spectrum: 1044
>>>>>Begin Spectral Data<<<<<
46.04893	0.2375
50.45542	0.8375
54.85868	0.7375
59.25871	-0.4625
63.6555	26.0375
68.04907	27.8375
72.43941	30.5375
76.82654	32.2375
81.21044	33.6375
85.59113	37.0375
89.96862	38.1375
94.34289	42.9375
98.71396	42.1375
103.08183	43.3375
107.4465	43.7375
111.80798	39.0375
116.16626	41.4375
120.52136	36.7375
124.87327	47.1375
129.222	43.8375
133.56755	42.9375
137.90993	47.4375
142.24913	45.5375
146.58517	50.9375
150.91804	58.6375
155.24774	63.9375
159.57429	78.5375
163.89768	91.5375
168.21792	117.0375
172.53501	154.7375
176.84895	216.5375
181.15975	287.8375
185.46741	401.7375
189.77193	553.1375
194.07331	736.7375
198.37157	946.3375
202.6667	1174.5375
206.9587	1385.3375
211.24758	1610.5375
215.53334	1821.1375
219.81599	2064.6375
224.09553	2333.1375
228.37195	2635.7375
232.64527	2952.0375
236.91549	3288.0375
241.18261	3618.3375
245.44663	3897.4375
249.70755	4156.6375
253.96539	4377.7375
258.22014	4554.1375
262.4718	4658.2375
266.72039	4725.5375
270.96589	4724.1375
275.20832	4688.3375
279.44768	4602.9375
283.68397	4495.2375
287.91719	4415.5375
292.14735	4370.4375
296.37445	4377.3375
300.59849	4476.5375
304.81948	4612.6375
309.03742	4752.7375
313.25231	4795.4375
317.46415	4671.8375
321.67296	4421.9375
325.87872	4203.8375
330.08145	4093.5375
334.28114	4081.1375
338.47781	4137.5375
342.67145	4217.3375
346.86207	4359.8375
351.04966	4567.7375
355.23424	4802.7375
359.4158	4992.2375
363.59435	5117.1375
367.76989	5139.1375
371.94243	5126.9375
376.11196	5106.9375
380.27849	5093.5375
384.44203	5041.6375
388.60257	4996.9375
392.76012	4954.2375
396.91468	4971.2375
401.06626	5061.1375
405.21485	5137.4375
409.36047	5092.7375
413.50311	4964.5375
417.64277	4861.4375
421.77947	4772.3375
425.9132	4581.7375
430.04396	4487.8375
434.17176	4520.7375
438.2966	4652.9375
442.41849	4827.0375
446.53742	5016.7375
450.6534	5197.9375
454.76644	5270.4375
458.87653	5247.1375
462.98368	5149.4375
467.08789	5047.2375
471.18916	4945.0375
475.2875	4826.3375
479.38291	4693.0375
483.4754	4598.2375
487.56496	4519.0375
491.6516	4479.5375
495.73531	4471.0375
499.81612	4450.9375
503.89401	4497.2375
507.96899	4514.6375
512.04106	4570.1375
516.11023	4658.6375
520.1765	4736.7375
524.23987	4763.3375
528.30034	4734.0375
532.35792	4699.6375
536.41261	4613.3375
540.46441	4526.6375
544.51333	4470.6375
548.55936	4453.2375
552.60252	4485.0375
556.64279	4591.0375
560.6802	4618.4375
564.71473	4654.3375
568.7464	4766.6375
572.7752	4838.2375
576.80114	4731.9375
580.82422	4604.9375
584.84444	4579.4375
588.86181	4676.9375
592.87633	4908.4375
596.888	5023.5375
600.89682	5008.7375
604.9028	5283.3375
608.90594	6391.6375
612.90624	7970.6375
616.90371	7905.2375
620.89834	5933.7375
624.89015	4872.3375
628.87913	4640.6375
632.86528	4656.2375
636.84862	4687.5375
640.82913	4612.1375
644.80683	4424.7375
648.78172	4307.3375
652.75379	4276.3375
656.72306	4386.7375
660.68952	4548.5375
664.65319	4511.6375
668.61405	4320.2375
672.57211	4231.9375
676.52738	4221.5375
680.47986	4191.7375
684.42955	4160.6375
688.37646	4137.8375
692.32058	4150.2375
696.26192	4188.7375
700.20048	4232.2375
704.13626	4233.4375
708.06928	4195.9375
711.99952	4170.9375
715.927	4172.7375
719.85171	4234.8375
723.77365	4260.8375
727.69284	4210.1375
731.60928	4207.7375
735.52295	4211.0375
739.43388	4217.4375
743.34206	4221.9375
747.24749	4233.2375
751.15017	4215.1375
755.05012	4277.0375
758.94733	4396.7375
762.8418	4755.6375
766.73354	5344.2375
770.62254	6013.3375
774.50882	6433.6375
778.39237	6361.9375
782.27321	5711.5375
786.15132	4947.8375
790.02671	4477.3375
793.89938	4259.5375
797.76935	4192.6375
801.6366	4164.7375
805.50115	4187.1375
809.36299	4185.4375
813.22213	4186.5375
817.07857	4188.4375
820.93231	4148.1375
824.78336	4105.1375
828.63172	4094.6375
832.47738	4097.6375
836.32036	4081.2375
840.16066	4080.0375
843.99827	4080.0375
847.8332	4067.3375
851.66546	4073.8375
855.49504	4044.8375
859.32195	4018.8375
863.1462	4005.6375
866.96777	4005.3375
870.78668	3991.4375
874.60293	4011.8375
878.41652	4046.5375
882.22745	4081.0375
886.03573	4080.1375
889.84136	4067.5375
893.64433	4006.7375
897.44466	3990.0375
901.24235	3964.7375
905.0374	3943.6375
908.8298	3908.2375
912.61957	3872.8375
916.40671	3888.2375
920.19121	3891.0375
923.97308	3933.0375
927.75233	3978.7375
931.52895	3986.5375
935.30295	3952.1375
939.07433	3872.3375
942.84309	3774.8375
946.60924	3715.3375
950.37278	3700.7375
954.13371	3667.4375
957.89203	3633.8375
961.64774	3627.3375
965.40086	3605.5375
969.15137	3606.2375
972.89929	3600.9375
976.64461	3598.3375
980.38733	3579.9375
984.12747	3555.3375
987.86502	3594.8375
991.59999	3602.9375
995.33237	3643.8375
999.06217	3735.5375
1002.78939	3812.8375
1006.51404	3862.8375
1010.23611	3925.4375
1013.95561	3951.8375
1017.67255	3944.5375
1021.38692	3870.6375
1025.09872	3783.0375
1028.80796	3718.6375
1032.51465	3691.7375
1036.21877	3706.8375
1039.92035	3729.8375
1043.61937	3766.7375
1047.31584	3757.7375
1051.00976	3769.6375
1054.70114	3750.8375
1058.38998	3730.7375
1062.07627	3730.4375
1065.76003	3731.8375
1069.44126	3739.0375
1073.11995	3751.4375
1076.79611	3804.8375
1080.46974	3889.5375
1084.14085	3982.4375
1087.80943	4052.4375
1091.47549	4074.9375
1095.13903	4007.4375
1098.80005	3877.1375
1102.45857	3757.2375
1106.11456	3720.4375
1109.76805	3772.1375
1113.41903	3857.4375
1117.06751	3990.0375
1120.71348	4183.5375
1124.35696	4387.7375
1127.99793	4568.5375
1131.63641	4566.2375
1135.2724	4381.2375
1138.90589	4170.7375
1142.5369	4017.2375
1146.16542	3920.1375
1149.79145	3832.8375
1153.415	3806.7375
1157.03607	3785.0375
1160.65467	3847.1375
1164.27079	3968.0375
1167.88443	4159.0375
1171.49561	4490.4375
1175.10432	5028.3375
1178.71056	5720.1375
1182.31434	6298.0375
1185.91565	6491.7375
1189.51451	6376.8375
1193.11091	6101.9375
1196.70485	5747.1375
1200.29634	5437.6375
1203.88538	5081.7375
1207.47197	4692.4375
1211.05612	4388.7375
1214.63782	4241.2375
1218.21708	4235.9375
1221.79391	4226.1375
1225.36829	4219.1375
1228.94024	4161.9375
1232.50976	4105.8375
1236.07685	4070.6375
1239.6415	4088.3375
1243.20374	4104.5375
1246.76355	4107.7375
1250.32093	4104.8375
1253.8759	4173.0375
1257.42845	4270.6375
1260.97859	4440.2375
1264.52631	4592.5375
1268.07163	4738.9375
1271.61453	4855.0375
1275.15503	4896.3375
1278.69312	4918.4375
1282.22882	4958.8375
1285.76211	5098.1375
1289.29301	5294.9375
1292.82151	5528.0375
1296.34761	5763.4375
1299.87133	6033.0375
1303.39266	6440.6375
1306.9116	7102.7375
1310.42815	7858.5375
1313.94233	8282.6375
1317.45412	8077.0375
1320.96354	7405.0375
1324.47058	6660.1375
1327.97525	6031.7375
1331.47754	5749.9375
1334.97747	5740.3375
1338.47502	5924.5375
1341.97022	6116.2375
1345.46305	6333.7375
1348.95352	6668.4375
1352.44163	7271.5375
1355.92738	8150.5375
1359.41078	9300.8375
1362.89183	10197.2375
1366.37053	9952.3375
1369.84688	8598.4375
1373.32088	7214.4375
1376.79254	6261.0375
1380.26186	5753.9375
1383.72883	5420.0375
1387.19347	5107.9375
1390.65578	4797.0375
1394.11575	4602.3375
1397.57339	4500.3375
1401.0287	4494.9375
1404.48168	4534.2375
1407.93234	4547.5375
1411.38068	4590.1375
1414.82669	4598.4375
1418.27039	4544.6375
1421.71177	4446.4375
1425.15083	4372.3375
1428.58758	4374.6375
1432.02203	4451.5375
1435.45416	4553.8375
1438.88399	4597.5375
1442.31151	4608.4375
1445.73673	4563.2375
1449.15965	4565.0375
1452.58027	4532.1375
1455.9986	4402.0375
1459.41463	4339.7375
1462.82837	4404.0375
1466.23982	4519.1375
1469.64898	4696.0375
1473.05586	4809.1375
1476.46045	4904.5375
1479.86276	4993.2375
1483.26279	5103.8375
1486.66054	5199.9375
1490.05602	5312.0375
1493.44922	5432.8375
1496.84016	5639.8375
1500.22882	6069.8375
1503.61521	6709.0375
1506.99934	7472.5375
1510.38121	8124.3375
1513.76081	8349.1375
1517.13816	7845.6375
1520.51324	6849.3375
1523.88607	5891.8375
1527.25665	5322.5375
1530.62498	5076.1375
1533.99105	4952.6375
1537.35488	4903.5375
1540.71647	4843.8375
1544.07581	4806.9375
1547.4329	4739.9375
1550.78776	4689.6375
1554.14038	4621.1375
1557.49077	4539.8375
1560.83892	4536.6375
1564.18484	4631.7375
1567.52853	4777.5375
1570.86999	4971.9375
1574.20922	5124.3375
1577.54624	5144.9375
1580.88103	4908.9375
1584.2136	4556.6375
1587.54395	4350.4375
1590.87208	4381.6375
1594.19801	4688.0375
1597.52172	5150.1375
1600.84321	5500.6375
1604.16251	5481.7375
1607.47959	5121.3375
1610.79447	4586.9375
1614.10715	4102.3375
1617.41763	3743.6375
1620.7259	3575.6375
1624.03199	3485.9375
1627.33587	3464.7375
1630.63757	3538.2375
1633.93707	3702.1375
1637.23439	3985.9375
1640.52951	4445.8375
1643.82246	5141.1375
1647.11321	5911.5375
1650.40179	6273.8375
1653.68819	5912.1375
1656.97241	5011.9375
1660.25446	4101.7375
1663.53433	3452.4375
1666.81203	3115.1375
1670.08756	2923.9375
1673.36092	2819.3375
1676.63211	2779.1375
1679.90115	2731.2375
1683.16801	2686.2375
1686.43272	2646.0375
1689.69527	2602.9375
1692.95567	2510.3375
1696.2139	2412.8375
1699.46999	2297.2375
1702.72392	2278.2375
1705.97571	2340.4375
1709.22535	2414.6375
1712.47284	2479.0375
1715.71819	2528.7375
1718.96139	2534.3375
1722.20246	2540.3375
1725.44139	2529.9375
1728.67818	2516.8375
1731.91284	2486.0375
1735.14537	2469.7375
1738.37576	2451.2375
1741.60403	2430.6375
1744.83017	2400.4375
1748.05418	2377.7375
1751.27607	2344.1375
1754.49584	2294.2375
1757.71349	2222.8375
1760.92903	2174.5375
1764.14244	2170.1375
1767.35375	2168.9375
1770.56294	2162.6375
1773.77002	2179.8375
1776.97499	2219.7375
1780.17785	2267.1375
1783.37861	2287.9375
1786.57727	2306.5375
1789.77382	2310.6375
1792.96828	2318.0375
1796.16064	2315.0375
1799.3509	2305.4375
1802.53907	2295.8375
1805.72514	2304.1375
1808.90913	2292.2375
1812.09102	2283.8375
1815.27083	2279.9375
1818.44856	2268.4375
1821.6242	2268.3375
1824.79776	2256.5375
1827.96924	2261.6375
1831.13864	2250.1375
1834.30597	2243.2375
1837.47122	2230.6375
1840.6344	2241.4375
1843.7955	2224.7375
1846.95454	2215.8375
1850.11151	2214.7375
1853.26642	2199.6375
1856.41926	2208.2375
1859.57004	2214.2375
1862.71876	2205.4375
1865.86542	2203.8375
1869.01003	2184.2375
1872.15258	2186.3375
1875.29308	2180.3375
1878.43152	2172.5375
1881.56792	2175.6375
1884.70227	2174.6375
1887.83457	2161.9375
1890.96482	2157.7375
1894.09304	2151.4375
1897.21921	2145.3375
1900.34335	2139.5375
1903.46544	2150.2375
1906.58551	2139.6375
1909.70353	2132.2375
1912.81953	2124.9375
1915.93349	2118.9375
1919.04543	2133.1375
1922.15534	2111.2375
1925.26322	2112.4375
1928.36908	2101.9375
1931.47292	2084.9375
1934.57473	2075.0375
1937.67453	2067.0375
1940.77232	2062.4375
1943.86808	2053.5375
1946.96184	2056.9375
1950.05358	2047.5375
1953.14331	2039.2375
1956.23103	2021.8375
1959.31675	2012.1375
1962.40046	2007.6375
1965.48217	2011.5375
1968.56188	2012.9375
1971.63959	1996.1375
1974.7153	1997.2375
1977.78901	1987.1375
1980.86073	1975.1375
1983.93046	1957.8375
1986.99819	1946.6375
1990.06394	1944.8375
1993.1277	1940.1375
1996.18947	1929.1375
1999.24925	1920.3375
2002.30706	1900.6375
2005.36288	1904.3375
2008.41672	1908.0375
2011.46859	1886.7375
2014.51848	1879.0375
2017.56639	1875.5375
2020.61233	1862.6375
2023.6563	1866.6375
2026.6983	1846.6375
2029.73833	1840.5375
2032.7764	1830.9375
2035.8125	1830.8375
2038.84664	1827.3375
2041.87881	1823.6375
2044.90903	1811.4375
2047.93729	1802.4375
2050.96359	1811.3375
2053.98794	1791.3375
2057.01034	1787.3375
2060.03078	1788.6375
2063.04927	1782.0375
2066.06582	1788.5375
2069.08042	1775.0375
2072.09307	1778.6375
2075.10378	1776.8375
2078.11255	1772.7375
2081.11938	1770.9375
2084.12426	1765.8375
2087.12722	1770.4375
2090.12824	1770.1375
2093.12732	1759.1375
2096.12447	1763.4375
2099.11969	1759.3375
2102.11299	1760.7375
2105.10435	1750.5375
2108.09379	1748.5375
2111.08131	1750.2375
2114.0669	1752.7375
2117.05057	1752.6375
2120.03233	1742.4375
2123.01216	1746.0375
2125.99008	1757.3375
2128.96609	1746.5375
2131.94018	1742.2375
2134.91236	1738.1375
2137.88263	1735.6375
2140.851	1741.6375
2143.81746	1736.6375
2146.78201	1729.8375
2149.74466	1729.1375
2152.7054	1723.9375
2155.66425	1717.1375
2158.6212	1719.2375
2161.57625	1713.2375
2164.52941	1714.3375
2167.48067	1716.7375
2170.43004	1707.2375
2173.37752	1705.5375
2176.32311	1710.0375
2179.26681	1696.2375
2182.20863	1700.8375
2185.14856	1710.9375
2188.08661	1699.4375
2191.02278	1694.9375
2193.95707	1691.8375
2196.88948	1690.4375
2199.82001	1680.8375
2202.74867	1685.0375
2205.67545	1670.4375
2208.60037	1671.2375
2211.52341	1664.6375
2214.44458	1648.6375
2217.36388	1659.2375
2220.28132	1648.1375
2223.1969	1648.8375
2226.11061	1639.5375
2229.02246	1630.5375
2231.93245	1631.0375
2234.84058	1621.8375
2237.74686	1622.7375
2240.65128	1616.4375
2243.55385	1625.0375
2246.45456	1610.0375
2249.35343	1612.4375
2252.25044	1605.9375
2255.14561	1603.4375
2258.03893	1593.0375
2260.93041	1566.1375
2263.82004	1581.8375
2266.70783	1579.2375
2269.59378	1569.9375
2272.4779	1578.3375
2275.36017	1574.0375
2278.24061	1565.6375
2281.11922	1564.9375
2283.996	1557.7375
2286.87094	1550.8375
2289.74405	1550.4375
2292.61534	1544.2375
2295.4848	1528.5375
2298.35243	1524.2375
2301.21824	1519.1375
2304.08223	1524.9375
2306.94439	1518.5375
2309.80474	1526.0375
2312.66327	1520.9375
2315.51999	1519.3375
2318.37489	1511.3375
2321.22797	1502.7375
2324.07925	1506.3375
2326.92871	1493.7375
2329.77637	1502.6375
2332.62222	1494.1375
2335.46626	1496.3375
2338.3085	1484.0375
2341.14893	1478.4375
2343.98756	1483.6375
2346.8244	1482.0375
2349.65943	1475.5375
2352.49267	1481.2375
2355.32411	1474.9375
2358.15376	1478.0375
2360.98161	1477.9375
2363.80768	1481.2375
2366.63195	1490.0375
2369.45444	1486.9375
2372.27514	1494.2375
2375.09405	1478.3375
2377.91118	1486.6375
2380.72652	1465.6375
2383.54009	1463.8375
2386.35187	1451.0375
2389.16188	1448.2375
2391.97011	1444.1375
2394.77657	1440.7375
2397.58125	1428.6375
2400.38416	1424.0375
2403.18529	1424.1375
2405.98466	1414.5375
2408.78226	1418.5375
2411.57809	1411.9375
2414.37216	1410.5375
2417.16446	1399.2375
2419.955	1397.9375
2422.74378	1399.0375
2425.5308	1385.8375
2428.31606	1395.6375
2431.09956	1388.4375
2433.88131	1398.2375
2436.6613	1394.2375
2439.43954	1402.0375
2442.21603	1396.5375
2444.99077	1395.3375
2447.76377	1390.9375
2450.53501	1396.2375
2453.30451	1385.1375
2456.07226	1391.3375
2458.83827	1379.6375
2461.60254	1379.6375
2464.36507	1378.3375
2467.12586	1373.0375
2469.88492	1373.9375
2472.64224	1365.5375
2475.39782	1351.3375
2478.15167	1347.5375
2480.90379	1365.2375
2483.65417	1372.9375
2486.40283	1372.8375
2489.14976	1379.1375
2491.89497	1379.0375
2494.63845	1361.6375
2497.3802	1351.6375
2500.12024	1366.8375
2502.85855	1371.4375
2505.59514	1362.5375
2508.33002	1366.9375
2511.06318	1351.5375
2513.79462	1343.3375
2516.52435	1346.4375
2519.25237	1341.5375
2521.97867	1328.8375
2524.70327	1328.8375
2527.42616	1324.3375
2530.14734	1319.6375
2532.86681	1316.3375
2535.58458	1321.8375
2538.30065	1320.9375
2541.01501	1313.0375
2543.72768	1310.3375
2546.43864	1311.0375
2549.14791	1309.6375
2551.85548	1308.1375
2554.56136	1314.4375
2557.26554	1308.4375
2559.96803	1295.5375
2562.66883	1299.6375
2565.36794	1302.0375
2568.06536	1297.1375
2570.7611	1294.3375
2573.45514	1291.6375
2576.14751	1298.9375
2578.83819	1287.0375
2581.52719	1279.8375
2584.21451	1277.4375
2586.90015	1271.9375
2589.58411	1269.6375
2592.2664	1278.8375
2594.94701	1268.4375
2597.62594	1264.9375
2600.30321	1271.3375
2602.9788	1262.6375
2605.65273	1257.2375
2608.32498	1267.2375
2610.99557	1257.8375
2613.66449	1260.0375
2616.33175	1253.8375
2618.99734	1254.7375
2621.66128	1249.5375
2624.32355	1243.6375
2626.98416	1243.3375
2629.64311	1243.0375
2632.30041	1239.5375
2634.95605	1234.2375
2637.61004	1233.6375
2640.26238	1235.8375
2642.91306	1233.9375
2645.56209	1222.7375
2648.20948	1219.0375
2650.85521	1221.4375
2653.4993	1230.1375
2656.14175	1227.1375
2658.78255	1225.2375
2661.42171	1232.8375
2664.05923	1232.2375
2666.6951	1235.9375
2669.32934	1233.5375
2671.96194	1242.4375
2674.59291	1237.7375
2677.22224	1240.7375
2679.84993	1241.0375
2682.476	1239.9375
2685.10043	1239.3375
2687.72324	1240.5375
2690.34441	1232.3375
2692.96396	1228.7375
2695.58188	1231.2375
2698.19818	1234.9375
2700.81285	1228.5375
2703.4259	1195.4375
2706.03733	1108.9375
2708.64714	1159.4375
2711.25533	1196.6375
2713.86191	1222.3375
2716.46687	1231.4375
2719.07021	1242.2375
2721.67194	1251.5375
2724.27206	1243.2375
2726.87057	1249.7375
2729.46747	1254.7375
2732.06276	1252.4375
2734.65644	1247.6375
2737.24852	1253.5375
2739.83899	1244.3375
2742.42786	1241.8375
2745.01513	1241.6375
2747.60079	1247.8375
2750.18486	1236.7375
2752.76733	1242.7375
2755.3482	1241.2375
2757.92747	1233.7375
2760.50515	1237.9375
2763.08123	1241.2375
2765.65573	1239.8375
2768.22863	1233.8375
2770.79994	1238.7375
2773.36967	1249.7375
2775.9378	1250.6375
2778.50435	1256.5375
2781.06932	1250.8375
2783.6327	1252.7375
2786.1945	1253.5375
2788.75471	1255.2375
2791.31335	1260.4375
2793.87041	1260.5375
2796.42589	1266.5375
2798.97979	1265.2375
2801.53212	1271.4375
2804.08288	1268.1375
2806.63206	1268.2375
2809.17967	1284.5375
2811.72571	1281.1375
2814.27018	1283.1375
2816.81308	1288.9375
2819.35442	1295.4375
2821.89419	1301.3375
2824.43239	1297.0375
2826.96904	1298.0375
2829.50412	1307.7375
2832.03763	1290.4375
2834.56959	1308.3375
2837.1	1312.6375
2839.62884	1315.8375
2842.15613	1327.1375
2844.68186	1354.0375
2847.20604	1371.8375
2849.72867	1377.7375
2852.24974	1385.1375
2854.76927	1380.4375
2857.28724	1350.2375
2859.80367	1365.2375
2862.31855	1371.8375
2864.83189	1371.7375
2867.34368	1377.2375
2869.85393	1367.3375
2872.36264	1384.3375
2874.8698	1382.3375
2877.37543	1364.3375
2879.87952	1372.3375
2882.38207	1372.1375
2884.88308	1358.0375
2887.38256	1361.2375
2889.88051	1361.4375
2892.37692	1367.4375
2894.8718	1360.1375
2897.36515	1369.5375
2899.85698	1366.9375
2902.34727	1368.4375
2904.83604	1356.2375
2907.32328	1364.5375
2909.809	1349.3375
2912.29319	1360.5375
2914.77587	1354.3375
2917.25702	1343.7375
2919.73665	1357.8375
2922.21476	1348.3375
2924.69136	1339.5375
2927.16644	1338.8375
2929.64	1333.5375
2932.11205	1330.9375
2934.58258	1309.5375
2937.05161	1299.2375
2939.51912	1286.1375
2941.98513	1268.2375
2944.44962	1247.9375
2946.91261	1241.2375
2949.37409	1230.9375
2951.83407	1219.3375
2954.29254	1206.0375
2956.74951	1189.4375
2959.20498	1185.5375
2961.65895	1182.4375
2964.11142	1176.2375
2966.56239	1175.4375
2969.01186	1161.4375
2971.45984	1156.0375
2973.90632	1150.6375
2976.35131	1142.1375
2978.7948	1131.2375
2981.23681	1129.6375
2983.67732	1128.5375
2986.11635	1121.1375
2988.55388	1110.5375
2990.98993	1108.9375
2993.4245	1107.5375
2995.85758	1106.3375
2998.28917	1090.0375
3000.71928	1092.7375
3003.14791	1088.1375
3005.57506	1097.4375
3008.00073	1086.6375
3010.42493	1089.9375
3012.84764	1086.1375
3015.26888	1090.4375
3017.68865	1085.6375
3020.10694	1089.5375
3022.52376	1087.6375
3024.9391	1089.7375
3027.35298	1078.2375
3029.76539	1075.2375
3032.17632	1083.1375
3034.5858	1076.4375
3036.9938	1073.6375
3039.40034	1068.7375
3041.80542	1075.3375
3044.20903	1071.1375
3046.61118	1074.5375
3049.01187	1076.6375
3051.4111	1067.9375
3053.80888	1072.1375
3056.20519	1076.4375
3058.60005	1075.5375
3060.99345	1076.1375
3063.3854	1068.6375
3065.7759	1076.1375
3068.16494	1081.3375
3070.55254	1070.5375
3072.93868	1065.1375
3075.32338	1066.9375
3077.70662	1061.9375
3080.08842	1069.1375
3082.46878	1062.8375
3084.84769	1062.3375
3087.22515	1069.1375
3089.60118	1068.2375
3091.97576	1062.9375
3094.3489	1079.2375
3096.72061	1080.0375
3099.09087	1076.9375
3101.4597	1073.8375
3103.82709	1078.3375
3106.19305	1076.6375
3108.55757	1074.7375
3110.92066	1076.9375
3113.28232	1080.6375
3115.64255	1077.7375
3118.00134	1084.2375
3120.35871	1079.9375
3122.71466	1089.6375
3125.06917	1090.8375
