Data from AgNPs_FTO_APTES_UA_50uM_CRN_20uM_R6G_10uM_NaF_0.1M_Addition_RamanShift__2__13-56-34-911.txt Node

Date: Mon Feb 21 13:56:34 GMT 2022
User: TCL
Spectrometer: QEP01345
Trigger mode: 4
Integration Time (sec): 7.000000E0
Scans to average: 10
Electric dark correction enabled: true
Nonlinearity correction enabled: false
Boxcar width: 0
XAxis mode: Raman Shifts
Number of Pixels in Spectrum: 1044
>>>>>Begin Spectral Data<<<<<
46.04893	0.2625
50.45542	-0.3375
54.85868	-1.4375
59.25871	-2.5375
63.6555	61.7625
68.04907	69.8625
72.43941	70.3625
76.82654	77.7625
81.21044	79.6625
85.59113	81.3625
89.96862	83.4625
94.34289	90.3625
98.71396	87.0625
103.08183	97.6625
107.4465	96.9625
111.80798	98.5625
116.16626	96.4625
120.52136	100.5625
124.87327	108.3625
129.222	107.5625
133.56755	109.4625
137.90993	123.9625
142.24913	127.4625
146.58517	144.9625
150.91804	163.5625
155.24774	194.5625
159.57429	237.9625
163.89768	300.0625
168.21792	394.4625
172.53501	536.3625
176.84895	745.1625
181.15975	1037.2625
185.46741	1440.7625
189.77193	2000.6625
194.07331	2666.5625
198.37157	3437.1625
202.6667	4240.9625
206.9587	5014.1625
211.24758	5789.4625
215.53334	6626.4625
219.81599	7493.9625
224.09553	8418.2625
228.37195	9472.7625
232.64527	10672.3625
236.91549	11861.7625
241.18261	13012.5625
245.44663	14077.5625
249.70755	14989.6625
253.96539	15739.8625
258.22014	16378.7625
262.4718	16911.2625
266.72039	17269.0625
270.96589	17405.8625
275.20832	17364.9625
279.44768	17180.8625
283.68397	16931.0625
287.91719	16686.7625
292.14735	16550.7625
296.37445	16566.7625
300.59849	16727.5625
304.81948	16946.0625
309.03742	17039.9625
313.25231	17038.1625
317.46415	16763.0625
321.67296	16391.3625
325.87872	16065.4625
330.08145	15932.6625
334.28114	15901.7625
338.47781	16034.9625
342.67145	16237.5625
346.86207	16579.3625
351.04966	16958.4625
355.23424	17392.1625
359.4158	17754.2625
363.59435	18043.4625
367.76989	18231.6625
371.94243	18302.3625
376.11196	18390.1625
380.27849	18436.1625
384.44203	18551.6625
388.60257	18611.4625
392.76012	18709.1625
396.91468	18897.5625
401.06626	19196.9625
405.21485	19378.5625
409.36047	19312.9625
413.50311	18949.2625
417.64277	18679.9625
421.77947	18627.2625
425.9132	18631.3625
430.04396	18673.0625
434.17176	18757.2625
438.2966	18994.2625
442.41849	19440.4625
446.53742	20149.6625
450.6534	20903.3625
454.76644	21283.3625
458.87653	21293.1625
462.98368	21025.8625
467.08789	20619.1625
471.18916	20141.5625
475.2875	19631.1625
479.38291	19234.5625
483.4754	18945.8625
487.56496	18687.8625
491.6516	18549.0625
495.73531	18498.8625
499.81612	18459.6625
503.89401	18600.4625
507.96899	18647.7625
512.04106	18618.6625
516.11023	18559.0625
520.1765	18520.3625
524.23987	18495.9625
528.30034	18453.6625
532.35792	18388.0625
536.41261	18109.2625
540.46441	17792.1625
544.51333	17684.8625
548.55936	17787.7625
552.60252	18138.9625
556.64279	18640.3625
560.6802	18952.2625
564.71473	19047.7625
568.7464	19257.6625
572.7752	19661.3625
576.80114	19959.4625
580.82422	20453.9625
584.84444	21342.8625
588.86181	22701.1625
592.87633	24139.5625
596.888	24549.9625
600.89682	23539.4625
604.9028	23198.6625
608.90594	25273.1625
612.90624	27834.5625
616.90371	26065.0625
620.89834	21341.4625
624.89015	19225.0625
628.87913	18944.1625
632.86528	19002.7625
636.84862	18944.3625
640.82913	18478.4625
644.80683	17944.2625
648.78172	17625.7625
652.75379	17595.9625
656.72306	17911.1625
660.68952	18356.7625
664.65319	18208.7625
668.61405	17764.3625
672.57211	17740.5625
676.52738	17850.2625
680.47986	17806.5625
684.42955	17588.3625
688.37646	17547.2625
692.32058	17673.0625
696.26192	17962.4625
700.20048	18278.4625
704.13626	18380.8625
708.06928	18239.6625
711.99952	18096.1625
715.927	18160.3625
719.85171	18334.4625
723.77365	18286.0625
727.69284	18036.1625
731.60928	17768.8625
735.52295	17690.9625
739.43388	17774.3625
743.34206	17872.1625
747.24749	17958.9625
751.15017	18038.8625
755.05012	18306.7625
758.94733	18771.6625
762.8418	19807.9625
766.73354	21459.3625
770.62254	23131.3625
774.50882	23708.2625
778.39237	22738.5625
782.27321	21019.2625
786.15132	19508.7625
790.02671	18549.0625
793.89938	18071.4625
797.76935	17875.5625
801.6366	17809.4625
805.50115	17744.1625
809.36299	17668.5625
813.22213	17518.9625
817.07857	17379.4625
820.93231	17285.5625
824.78336	17266.8625
828.63172	17253.9625
832.47738	17304.5625
836.32036	17359.3625
840.16066	17480.7625
843.99827	17520.9625
847.8332	17431.4625
851.66546	17378.4625
855.49504	17360.2625
859.32195	17355.6625
863.1462	17262.2625
866.96777	17235.6625
870.78668	17184.3625
874.60293	17215.0625
878.41652	17266.6625
882.22745	17368.6625
886.03573	17450.3625
889.84136	17423.3625
893.64433	17348.2625
897.44466	17252.5625
901.24235	17192.3625
905.0374	17113.3625
908.8298	17067.4625
912.61957	17067.2625
916.40671	17172.4625
920.19121	17368.5625
923.97308	17614.0625
927.75233	17824.5625
931.52895	17852.7625
935.30295	17613.6625
939.07433	17266.6625
942.84309	16995.1625
946.60924	16870.7625
950.37278	16825.0625
954.13371	16785.8625
957.89203	16706.3625
961.64774	16678.3625
965.40086	16657.5625
969.15137	16688.1625
972.89929	16615.0625
976.64461	16645.1625
980.38733	16669.5625
984.12747	16807.5625
987.86502	16971.3625
991.59999	17223.2625
995.33237	17557.5625
999.06217	18143.5625
1002.78939	18831.9625
1006.51404	19309.6625
1010.23611	19607.8625
1013.95561	19790.6625
1017.67255	19759.5625
1021.38692	19499.9625
1025.09872	19196.5625
1028.80796	19254.5625
1032.51465	19799.8625
1036.21877	20355.9625
1039.92035	20539.9625
1043.61937	20298.1625
1047.31584	19775.1625
1051.00976	19170.8625
1054.70114	18832.4625
1058.38998	18694.7625
1062.07627	18693.4625
1065.76003	18730.6625
1069.44126	18885.4625
1073.11995	19241.7625
1076.79611	19578.4625
1080.46974	19867.0625
1084.14085	20140.6625
1087.80943	20375.8625
1091.47549	20493.4625
1095.13903	20359.4625
1098.80005	20002.5625
1102.45857	19548.6625
1106.11456	19318.8625
1109.76805	19263.5625
1113.41903	19366.2625
1117.06751	19555.4625
1120.71348	19798.3625
1124.35696	20085.3625
1127.99793	20360.2625
1131.63641	20508.0625
1135.2724	20360.5625
1138.90589	20159.5625
1142.5369	20068.7625
1146.16542	20052.3625
1149.79145	20118.4625
1153.415	20223.7625
1157.03607	20432.4625
1160.65467	20955.2625
1164.27079	21902.3625
1167.88443	23061.3625
1171.49561	24574.6625
1175.10432	26552.6625
1178.71056	29204.9625
1182.31434	31640.1625
1185.91565	32606.3625
1189.51451	32071.5625
1193.11091	30676.3625
1196.70485	29033.9625
1200.29634	27626.7625
1203.88538	26695.7625
1207.47197	25911.9625
1211.05612	25296.0625
1214.63782	24745.5625
1218.21708	24453.4625
1221.79391	24395.0625
1225.36829	24419.4625
1228.94024	24280.8625
1232.50976	23732.2625
1236.07685	23130.1625
1239.6415	22826.6625
1243.20374	22848.5625
1246.76355	22962.2625
1250.32093	23332.3625
1253.8759	23888.4625
1257.42845	24590.6625
1260.97859	25437.4625
1264.52631	26377.6625
1268.07163	27284.1625
1271.61453	28191.8625
1275.15503	29128.4625
1278.69312	29926.3625
1282.22882	30772.6625
1285.76211	31812.0625
1289.29301	32944.4625
1292.82151	34352.9625
1296.34761	36054.3625
1299.87133	38285.6625
1303.39266	40977.9625
1306.9116	43858.5625
1310.42815	46397.5625
1313.94233	47639.4625
1317.45412	46709.5625
1320.96354	44626.6625
1324.47058	42327.8625
1327.97525	40496.6625
1331.47754	39217.1625
1334.97747	38468.0625
1338.47502	37887.1625
1341.97022	37278.7625
1345.46305	36765.5625
1348.95352	36918.0625
1352.44163	38149.0625
1355.92738	40626.7625
1359.41078	44178.7625
1362.89183	47208.9625
1366.37053	46893.2625
1369.84688	42449.3625
1373.32088	36717.6625
1376.79254	32814.3625
1380.26186	31270.5625
1383.72883	30886.7625
1387.19347	30518.3625
1390.65578	29736.1625
1394.11575	29339.0625
1397.57339	29492.5625
1401.0287	29917.3625
1404.48168	30292.1625
1407.93234	30381.7625
1411.38068	30177.1625
1414.82669	29579.2625
1418.27039	28833.6625
1421.71177	27990.3625
1425.15083	27280.1625
1428.58758	26971.3625
1432.02203	27368.4625
1435.45416	28119.1625
1438.88399	28804.9625
1442.31151	29142.9625
1445.73673	29264.5625
1449.15965	29277.1625
1452.58027	29083.9625
1455.9986	28762.6625
1459.41463	28636.6625
1462.82837	29087.9625
1466.23982	29837.6625
1469.64898	30589.7625
1473.05586	31222.7625
1476.46045	31477.6625
1479.86276	31660.3625
1483.26279	31697.0625
1486.66054	31746.6625
1490.05602	32108.3625
1493.44922	32595.1625
1496.84016	33033.7625
1500.22882	33603.9625
1503.61521	34618.1625
1506.99934	35937.7625
1510.38121	37091.4625
1513.76081	37300.0625
1517.13816	36042.5625
1520.51324	34155.0625
1523.88607	32563.4625
1527.25665	31682.6625
1530.62498	31297.4625
1533.99105	30988.1625
1537.35488	30444.1625
1540.71647	29785.6625
1544.07581	29050.4625
1547.4329	28405.3625
1550.78776	27872.9625
1554.14038	27439.7625
1557.49077	27277.3625
1560.83892	27089.9625
1564.18484	27211.5625
1567.52853	27447.8625
1570.86999	27785.5625
1574.20922	28275.6625
1577.54624	28568.8625
1580.88103	28503.7625
1584.2136	28440.5625
1587.54395	29299.3625
1590.87208	31198.0625
1594.19801	33805.7625
1597.52172	36253.3625
1600.84321	36970.6625
1604.16251	35138.7625
1607.47959	31876.9625
1610.79447	28460.5625
1614.10715	25654.9625
1617.41763	23671.2625
1620.7259	22448.7625
1624.03199	22035.3625
1627.33587	22257.1625
1630.63757	23060.5625
1633.93707	24685.8625
1637.23439	27279.7625
1640.52951	31180.1625
1643.82246	35925.3625
1647.11321	39637.0625
1650.40179	40063.5625
1653.68819	36391.1625
1656.97241	30834.9625
1660.25446	25786.6625
1663.53433	22450.7625
1666.81203	20396.5625
1670.08756	19232.4625
1673.36092	18573.2625
1676.63211	18097.0625
1679.90115	17808.1625
1683.16801	17549.1625
1686.43272	17346.6625
1689.69527	17146.3625
1692.95567	16973.4625
1696.2139	16835.6625
1699.46999	16661.6625
1702.72392	16629.2625
1705.97571	16655.5625
1709.22535	16716.8625
1712.47284	16753.9625
1715.71819	16772.0625
1718.96139	16751.9625
1722.20246	16703.1625
1725.44139	16642.9625
1728.67818	16533.1625
1731.91284	16423.5625
1735.14537	16365.7625
1738.37576	16296.2625
1741.60403	16278.2625
1744.83017	16171.4625
1748.05418	16094.8625
1751.27607	16054.4625
1754.49584	15991.1625
1757.71349	15929.4625
1760.92903	15877.6625
1764.14244	15886.3625
1767.35375	15852.3625
1770.56294	15821.6625
1773.77002	15847.1625
1776.97499	15838.1625
1780.17785	15866.7625
1783.37861	15888.4625
1786.57727	15875.9625
1789.77382	15873.2625
1792.96828	15874.0625
1796.16064	15813.0625
1799.3509	15793.3625
1802.53907	15790.6625
1805.72514	15761.2625
1808.90913	15721.1625
1812.09102	15694.1625
1815.27083	15650.6625
1818.44856	15657.7625
1821.6242	15646.6625
1824.79776	15615.6625
1827.96924	15597.9625
1831.13864	15598.2625
1834.30597	15599.3625
1837.47122	15648.8625
1840.6344	15638.3625
1843.7955	15625.8625
1846.95454	15621.3625
1850.11151	15635.6625
1853.26642	15604.0625
1856.41926	15601.2625
1859.57004	15601.6625
1862.71876	15582.6625
1865.86542	15563.7625
1869.01003	15547.6625
1872.15258	15557.2625
1875.29308	15540.6625
1878.43152	15563.4625
1881.56792	15503.8625
1884.70227	15537.7625
1887.83457	15537.9625
1890.96482	15503.7625
1894.09304	15492.9625
1897.21921	15453.0625
1900.34335	15486.1625
1903.46544	15487.9625
1906.58551	15477.9625
1909.70353	15416.8625
1912.81953	15430.2625
1915.93349	15368.9625
1919.04543	15363.7625
1922.15534	15351.3625
1925.26322	15304.6625
1928.36908	15283.4625
1931.47292	15247.9625
1934.57473	15192.5625
1937.67453	15150.1625
1940.77232	15110.3625
1943.86808	15060.1625
1946.96184	15081.5625
1950.05358	15023.0625
1953.14331	14970.3625
1956.23103	14926.0625
1959.31675	14898.5625
1962.40046	14872.9625
1965.48217	14818.3625
1968.56188	14812.6625
1971.63959	14762.6625
1974.7153	14727.8625
1977.78901	14667.4625
1980.86073	14659.7625
1983.93046	14608.4625
1986.99819	14576.7625
1990.06394	14528.5625
1993.1277	14476.3625
1996.18947	14440.3625
1999.24925	14400.3625
2002.30706	14355.4625
2005.36288	14325.5625
2008.41672	14321.3625
2011.46859	14289.3625
2014.51848	14256.2625
2017.56639	14211.9625
2020.61233	14176.4625
2023.6563	14158.3625
2026.6983	14124.3625
2029.73833	14136.5625
2032.7764	14114.1625
2035.8125	14087.7625
2038.84664	14076.8625
2041.87881	14042.6625
2044.90903	14038.9625
2047.93729	14012.2625
2050.96359	14044.4625
2053.98794	14030.8625
2057.01034	14026.5625
2060.03078	14011.7625
2063.04927	14011.2625
2066.06582	14006.0625
2069.08042	13972.1625
2072.09307	13985.4625
2075.10378	13966.4625
2078.11255	13940.6625
2081.11938	13934.9625
2084.12426	13941.1625
2087.12722	13929.9625
2090.12824	13930.0625
2093.12732	13925.6625
2096.12447	13948.1625
2099.11969	13949.4625
2102.11299	13937.8625
2105.10435	13975.0625
2108.09379	13972.3625
2111.08131	13964.8625
2114.0669	13974.6625
2117.05057	13983.3625
2120.03233	13985.3625
2123.01216	14010.4625
2125.99008	14003.5625
2128.96609	14041.9625
2131.94018	14084.7625
2134.91236	14093.4625
2137.88263	14106.6625
2140.851	14083.2625
2143.81746	14082.5625
2146.78201	14105.7625
2149.74466	14122.0625
2152.7054	14125.0625
2155.66425	14119.5625
2158.6212	14111.6625
2161.57625	14114.6625
2164.52941	14115.2625
2167.48067	14086.5625
2170.43004	14119.5625
2173.37752	14101.4625
2176.32311	14083.2625
2179.26681	14117.1625
2182.20863	14103.8625
2185.14856	14137.9625
2188.08661	14138.2625
2191.02278	14142.7625
2193.95707	14133.4625
2196.88948	14158.4625
2199.82001	14175.7625
2202.74867	14145.9625
2205.67545	14198.3625
2208.60037	14153.3625
2211.52341	14181.2625
2214.44458	14085.4625
2217.36388	14082.8625
2220.28132	14055.4625
2223.1969	14022.0625
2226.11061	14033.4625
2229.02246	14026.5625
2231.93245	14010.3625
2234.84058	14011.3625
2237.74686	14015.5625
2240.65128	13993.3625
2243.55385	13990.8625
2246.45456	13963.2625
2249.35343	13954.0625
2252.25044	13933.9625
2255.14561	13900.3625
2258.03893	13881.7625
2260.93041	13818.7625
2263.82004	13790.3625
2266.70783	13770.8625
2269.59378	13721.9625
2272.4779	13739.9625
2275.36017	13709.1625
2278.24061	13701.1625
2281.11922	13668.9625
2283.996	13651.0625
2286.87094	13633.6625
2289.74405	13659.3625
2292.61534	13657.0625
2295.4848	13638.0625
2298.35243	13662.6625
2301.21824	13673.9625
2304.08223	13683.9625
2306.94439	13672.4625
2309.80474	13648.6625
2312.66327	13669.9625
2315.51999	13676.9625
2318.37489	13675.9625
2321.22797	13668.1625
2324.07925	13645.5625
2326.92871	13651.2625
2329.77637	13635.2625
2332.62222	13627.2625
2335.46626	13636.2625
2338.3085	13632.6625
2341.14893	13625.2625
2343.98756	13592.4625
2346.8244	13658.0625
2349.65943	13608.9625
2352.49267	13625.1625
2355.32411	13635.9625
2358.15376	13629.0625
2360.98161	13600.3625
2363.80768	13574.0625
2366.63195	13569.1625
2369.45444	13556.0625
2372.27514	13551.3625
2375.09405	13518.8625
2377.91118	13534.8625
2380.72652	13511.6625
2383.54009	13460.9625
2386.35187	13456.6625
2389.16188	13434.6625
2391.97011	13408.8625
2394.77657	13398.7625
2397.58125	13383.5625
2400.38416	13386.1625
2403.18529	13346.6625
2405.98466	13330.5625
2408.78226	13345.5625
2411.57809	13298.3625
2414.37216	13271.4625
2417.16446	13259.7625
2419.955	13245.3625
2422.74378	13261.6625
2425.5308	13218.8625
2428.31606	13249.4625
2431.09956	13271.0625
2433.88131	13218.8625
2436.6613	13242.9625
2439.43954	13234.9625
2442.21603	13263.9625
2444.99077	13268.5625
2447.76377	13247.7625
2450.53501	13233.0625
2453.30451	13265.4625
2456.07226	13259.4625
2458.83827	13285.0625
2461.60254	13288.8625
2464.36507	13298.9625
2467.12586	13281.3625
2469.88492	13297.7625
2472.64224	13303.6625
2475.39782	13266.3625
2478.15167	13275.4625
2480.90379	13325.0625
2483.65417	13336.7625
2486.40283	13338.1625
2489.14976	13383.6625
2491.89497	13388.8625
2494.63845	13370.2625
2497.3802	13351.4625
2500.12024	13373.1625
2502.85855	13339.5625
2505.59514	13346.4625
2508.33002	13316.3625
2511.06318	13336.4625
2513.79462	13349.5625
2516.52435	13311.8625
2519.25237	13286.1625
2521.97867	13296.2625
2524.70327	13274.1625
2527.42616	13270.9625
2530.14734	13280.1625
2532.86681	13279.6625
2535.58458	13283.5625
2538.30065	13268.9625
2541.01501	13253.5625
2543.72768	13250.2625
2546.43864	13240.6625
2549.14791	13235.3625
2551.85548	13293.9625
2554.56136	13248.0625
2557.26554	13220.7625
2559.96803	13195.8625
2562.66883	13198.0625
2565.36794	13214.3625
2568.06536	13194.6625
2570.7611	13192.6625
2573.45514	13199.8625
2576.14751	13171.4625
2578.83819	13169.1625
2581.52719	13206.0625
2584.21451	13181.3625
2586.90015	13174.3625
2589.58411	13179.0625
2592.2664	13147.5625
2594.94701	13149.8625
2597.62594	13165.5625
2600.30321	13169.1625
2602.9788	13185.4625
2605.65273	13128.3625
2608.32498	13161.2625
2610.99557	13147.2625
2613.66449	13193.5625
2616.33175	13140.3625
2618.99734	13179.6625
2621.66128	13156.7625
2624.32355	13121.0625
2626.98416	13106.1625
2629.64311	13122.2625
2632.30041	13140.7625
2634.95605	13110.4625
2637.61004	13071.4625
2640.26238	13089.2625
2642.91306	13063.5625
2645.56209	13043.1625
2648.20948	13041.6625
2650.85521	13040.2625
2653.4993	13064.5625
2656.14175	13077.1625
2658.78255	13095.2625
2661.42171	13127.6625
2664.05923	13109.0625
2666.6951	13132.1625
2669.32934	13181.1625
2671.96194	13147.8625
2674.59291	13154.2625
2677.22224	13155.2625
2679.84993	13165.2625
2682.476	13139.1625
2685.10043	13159.7625
2687.72324	13132.7625
2690.34441	13114.7625
2692.96396	13101.3625
2695.58188	13136.7625
2698.19818	13096.5625
2700.81285	13126.9625
2703.4259	13088.3625
2706.03733	13048.6625
2708.64714	13129.5625
2711.25533	13150.6625
2713.86191	13122.7625
2716.46687	13199.8625
2719.07021	13202.9625
2721.67194	13210.8625
2724.27206	13249.2625
2726.87057	13244.6625
2729.46747	13244.0625
2732.06276	13276.6625
2734.65644	13305.2625
2737.24852	13297.1625
2739.83899	13277.6625
2742.42786	13285.7625
2745.01513	13241.4625
2747.60079	13244.3625
2750.18486	13246.6625
2752.76733	13204.4625
2755.3482	13194.6625
2757.92747	13216.3625
2760.50515	13233.3625
2763.08123	13239.3625
2765.65573	13215.4625
2768.22863	13242.7625
2770.79994	13202.7625
2773.36967	13238.3625
2775.9378	13222.5625
2778.50435	13239.2625
2781.06932	13221.5625
2783.6327	13221.2625
2786.1945	13209.1625
2788.75471	13216.5625
2791.31335	13198.7625
2793.87041	13172.6625
2796.42589	13160.0625
2798.97979	13139.3625
2801.53212	13122.9625
2804.08288	13126.6625
2806.63206	13088.4625
2809.17967	13061.7625
2811.72571	13026.9625
2814.27018	13006.9625
2816.81308	13040.7625
2819.35442	13007.7625
2821.89419	12982.9625
2824.43239	12996.6625
2826.96904	12969.6625
2829.50412	12960.6625
2832.03763	12979.8625
2834.56959	12961.1625
2837.1	12942.2625
2839.62884	12950.1625
2842.15613	12959.3625
2844.68186	12977.2625
2847.20604	12992.0625
2849.72867	12988.9625
2852.24974	12976.0625
2854.76927	12975.1625
2857.28724	12931.8625
2859.80367	12968.8625
2862.31855	12955.0625
2864.83189	12948.2625
2867.34368	12938.1625
2869.85393	12953.8625
2872.36264	12936.7625
2874.8698	12935.2625
2877.37543	12943.2625
2879.87952	12932.5625
2882.38207	12922.0625
2884.88308	12946.3625
2887.38256	12975.0625
2889.88051	12980.5625
2892.37692	12976.0625
2894.8718	12961.5625
2897.36515	13003.6625
2899.85698	13025.6625
2902.34727	13051.8625
2904.83604	13041.5625
2907.32328	13071.8625
2909.809	13049.7625
2912.29319	13093.5625
2914.77587	13097.5625
2917.25702	13121.5625
2919.73665	13064.9625
2922.21476	13079.7625
2924.69136	13067.7625
2927.16644	13076.9625
2929.64	13073.1625
2932.11205	13024.1625
2934.58258	12985.8625
2937.05161	12999.3625
2939.51912	13006.3625
2941.98513	12991.5625
2944.44962	12979.1625
2946.91261	12959.8625
2949.37409	13020.9625
2951.83407	13007.9625
2954.29254	12958.9625
2956.74951	12960.5625
2959.20498	12963.3625
2961.65895	12895.0625
2964.11142	12903.8625
2966.56239	12905.0625
2969.01186	12902.4625
2971.45984	12916.2625
2973.90632	12868.9625
2976.35131	12843.7625
2978.7948	12803.4625
2981.23681	12799.1625
2983.67732	12774.4625
2986.11635	12746.4625
2988.55388	12719.0625
2990.98993	12693.6625
2993.4245	12692.8625
2995.85758	12674.8625
2998.28917	12630.4625
3000.71928	12616.2625
3003.14791	12593.0625
3005.57506	12621.8625
3008.00073	12563.7625
3010.42493	12556.3625
3012.84764	12550.3625
3015.26888	12555.0625
3017.68865	12492.0625
3020.10694	12488.1625
3022.52376	12470.4625
3024.9391	12432.1625
