Data from AgNPs_FTO_APTES_UA_50uM_CRN_100uM_R6G_10uM_NaF_0.1M_Addition_RamanShift__8__15-25-15-024.txt Node

Date: Mon Feb 21 15:25:15 GMT 2022
User: TCL
Spectrometer: QEP01345
Trigger mode: 4
Integration Time (sec): 7.000000E0
Scans to average: 10
Electric dark correction enabled: true
Nonlinearity correction enabled: false
Boxcar width: 0
XAxis mode: Raman Shifts
Number of Pixels in Spectrum: 1044
>>>>>Begin Spectral Data<<<<<
46.04893	0.9375
50.45542	-0.7625
54.85868	-1.2625
59.25871	-1.9625
63.6555	52.2375
68.04907	59.5375
72.43941	60.2375
76.82654	64.4375
81.21044	68.1375
85.59113	71.6375
89.96862	72.5375
94.34289	76.8375
98.71396	77.1375
103.08183	81.8375
107.4465	82.8375
111.80798	83.7375
116.16626	82.9375
120.52136	82.8375
124.87327	91.9375
129.222	88.1375
133.56755	91.1375
137.90993	101.4375
142.24913	105.2375
146.58517	114.0375
150.91804	132.3375
155.24774	153.2375
159.57429	182.5375
163.89768	229.2375
168.21792	306.3375
172.53501	407.7375
176.84895	564.3375
181.15975	786.3375
185.46741	1103.1375
189.77193	1522.6375
194.07331	2037.3375
198.37157	2615.8375
202.6667	3229.3375
206.9587	3849.7375
211.24758	4439.1375
215.53334	5027.9375
219.81599	5677.0375
224.09553	6392.0375
228.37195	7140.7375
232.64527	8014.4375
236.91549	8919.4375
241.18261	9822.5375
245.44663	10635.8375
249.70755	11368.3375
253.96539	12012.2375
258.22014	12516.9375
262.4718	12939.8375
266.72039	13257.4375
270.96589	13402.0375
275.20832	13382.3375
279.44768	13289.5375
283.68397	13147.9375
287.91719	12982.7375
292.14735	12922.1375
296.37445	12891.9375
300.59849	12955.1375
304.81948	13004.8375
309.03742	13048.8375
313.25231	12948.6375
317.46415	12813.0375
321.67296	12528.6375
325.87872	12309.1375
330.08145	12199.6375
334.28114	12196.5375
338.47781	12310.2375
342.67145	12452.2375
346.86207	12682.6375
351.04966	12930.0375
355.23424	13180.8375
359.4158	13427.9375
363.59435	13582.1375
367.76989	13695.3375
371.94243	13802.3375
376.11196	13823.3375
380.27849	13903.1375
384.44203	13945.9375
388.60257	14023.3375
392.76012	14118.4375
396.91468	14282.1375
401.06626	14463.1375
405.21485	14594.4375
409.36047	14513.4375
413.50311	14280.2375
417.64277	14087.9375
421.77947	13992.3375
425.9132	14042.8375
430.04396	14071.2375
434.17176	14134.3375
438.2966	14268.2375
442.41849	14438.8375
446.53742	14747.6375
450.6534	15054.6375
454.76644	15282.2375
458.87653	15361.2375
462.98368	15338.5375
467.08789	15238.2375
471.18916	15075.4375
475.2875	14879.0375
479.38291	14686.1375
483.4754	14533.5375
487.56496	14426.5375
491.6516	14293.6375
495.73531	14248.0375
499.81612	14256.5375
503.89401	14376.7375
507.96899	14458.8375
512.04106	14452.6375
516.11023	14430.7375
520.1765	14394.7375
524.23987	14351.2375
528.30034	14277.9375
532.35792	14221.9375
536.41261	14084.3375
540.46441	13999.2375
544.51333	13954.1375
548.55936	14006.2375
552.60252	14231.9375
556.64279	14476.6375
560.6802	14661.8375
564.71473	14687.4375
568.7464	14790.7375
572.7752	15034.2375
576.80114	15224.2375
580.82422	15501.9375
584.84444	15832.1375
588.86181	16298.5375
592.87633	16763.6375
596.888	16895.9375
600.89682	16683.2375
604.9028	16802.7375
608.90594	18002.0375
612.90624	19464.9375
616.90371	18500.3375
620.89834	15827.0375
624.89015	14580.7375
628.87913	14412.6375
632.86528	14554.7375
636.84862	14659.4375
640.82913	14567.4375
644.80683	14236.2375
648.78172	14044.7375
652.75379	14009.8375
656.72306	14169.7375
660.68952	14370.6375
664.65319	14330.0375
668.61405	14099.6375
672.57211	14085.3375
676.52738	14144.2375
680.47986	14194.6375
684.42955	14107.9375
688.37646	14022.9375
692.32058	14012.6375
696.26192	14101.0375
700.20048	14244.5375
704.13626	14300.4375
708.06928	14286.4375
711.99952	14256.3375
715.927	14220.8375
719.85171	14227.5375
723.77365	14226.8375
727.69284	14135.3375
731.60928	14009.0375
735.52295	14005.7375
739.43388	13981.3375
743.34206	14045.1375
747.24749	14084.7375
751.15017	14138.2375
755.05012	14314.3375
758.94733	14628.7375
762.8418	15208.7375
766.73354	16246.3375
770.62254	17315.5375
774.50882	17700.5375
778.39237	17104.0375
782.27321	16023.2375
786.15132	15113.6375
790.02671	14479.0375
793.89938	14151.9375
797.76935	13989.5375
801.6366	13948.8375
805.50115	13900.3375
809.36299	13810.9375
813.22213	13746.1375
817.07857	13732.1375
820.93231	13674.1375
824.78336	13639.0375
828.63172	13637.4375
832.47738	13612.4375
836.32036	13601.3375
840.16066	13619.6375
843.99827	13598.5375
847.8332	13564.3375
851.66546	13612.8375
855.49504	13601.1375
859.32195	13641.0375
863.1462	13618.8375
866.96777	13609.1375
870.78668	13599.8375
874.60293	13606.5375
878.41652	13653.8375
882.22745	13758.3375
886.03573	13777.1375
889.84136	13774.8375
893.64433	13724.6375
897.44466	13661.7375
901.24235	13636.2375
905.0374	13594.4375
908.8298	13533.8375
912.61957	13534.4375
916.40671	13558.5375
920.19121	13664.2375
923.97308	13788.4375
927.75233	13828.0375
931.52895	13808.4375
935.30295	13673.8375
939.07433	13511.8375
942.84309	13314.7375
946.60924	13240.4375
950.37278	13182.0375
954.13371	13141.5375
957.89203	13162.6375
961.64774	13130.1375
965.40086	13138.8375
969.15137	13110.8375
972.89929	13085.2375
976.64461	13055.3375
980.38733	13041.1375
984.12747	13084.2375
987.86502	13121.9375
991.59999	13205.2375
995.33237	13321.4375
999.06217	13491.6375
1002.78939	13676.1375
1006.51404	13854.5375
1010.23611	14084.4375
1013.95561	14240.4375
1017.67255	14247.3375
1021.38692	14181.3375
1025.09872	14025.9375
1028.80796	13892.2375
1032.51465	13875.1375
1036.21877	13936.9375
1039.92035	13965.9375
1043.61937	13986.3375
1047.31584	13970.4375
1051.00976	13972.5375
1054.70114	13972.8375
1058.38998	14002.3375
1062.07627	14057.7375
1065.76003	14158.3375
1069.44126	14312.5375
1073.11995	14476.3375
1076.79611	14660.8375
1080.46974	14804.0375
1084.14085	14911.2375
1087.80943	15023.6375
1091.47549	15104.2375
1095.13903	15079.7375
1098.80005	14948.5375
1102.45857	14678.2375
1106.11456	14476.9375
1109.76805	14393.9375
1113.41903	14410.0375
1117.06751	14503.9375
1120.71348	14694.7375
1124.35696	14897.6375
1127.99793	15106.7375
1131.63641	15195.7375
1135.2724	15097.6375
1138.90589	14984.2375
1142.5369	14898.4375
1146.16542	14850.5375
1149.79145	14862.0375
1153.415	14873.8375
1157.03607	14966.9375
1160.65467	15232.2375
1164.27079	15682.2375
1167.88443	16252.0375
1171.49561	17005.7375
1175.10432	17987.8375
1178.71056	19249.4375
1182.31434	20454.4375
1185.91565	21057.9375
1189.51451	21087.1375
1193.11091	20672.7375
1196.70485	19979.4375
1200.29634	19233.8375
1203.88538	18614.0375
1207.47197	18050.6375
1211.05612	17518.2375
1214.63782	17122.0375
1218.21708	16830.3375
1221.79391	16622.5375
1225.36829	16569.4375
1228.94024	16517.6375
1232.50976	16431.9375
1236.07685	16286.9375
1239.6415	16168.4375
1243.20374	16145.2375
1246.76355	16244.7375
1250.32093	16318.5375
1253.8759	16565.2375
1257.42845	16853.3375
1260.97859	17261.4375
1264.52631	17662.4375
1268.07163	18062.8375
1271.61453	18440.1375
1275.15503	18783.7375
1278.69312	19108.2375
1282.22882	19401.6375
1285.76211	19871.0375
1289.29301	20403.3375
1292.82151	21081.6375
1296.34761	21850.5375
1299.87133	22790.3375
1303.39266	23868.8375
1306.9116	25006.5375
1310.42815	25986.5375
1313.94233	26543.6375
1317.45412	26370.4375
1320.96354	25747.2375
1324.47058	25041.2375
1327.97525	24340.9375
1331.47754	23972.6375
1334.97747	23747.9375
1338.47502	23666.5375
1341.97022	23762.5375
1345.46305	24023.4375
1348.95352	24389.5375
1352.44163	24845.2375
1355.92738	25688.5375
1359.41078	26875.2375
1362.89183	27957.5375
1366.37053	27584.0375
1369.84688	25425.0375
1373.32088	22728.8375
1376.79254	20844.3375
1380.26186	19909.8375
1383.72883	19605.7375
1387.19347	19329.0375
1390.65578	19007.5375
1394.11575	18766.3375
1397.57339	18754.8375
1401.0287	18817.6375
1404.48168	18848.1375
1407.93234	18824.9375
1411.38068	18720.2375
1414.82669	18428.4375
1418.27039	18087.6375
1421.71177	17716.0375
1425.15083	17326.0375
1428.58758	17158.1375
1432.02203	17223.8375
1435.45416	17471.0375
1438.88399	17701.6375
1442.31151	17908.2375
1445.73673	17995.2375
1449.15965	18096.8375
1452.58027	18083.6375
1455.9986	18093.0375
1459.41463	18173.1375
1462.82837	18403.0375
1466.23982	18698.8375
1469.64898	19053.0375
1473.05586	19297.8375
1476.46045	19499.8375
1479.86276	19562.0375
1483.26279	19587.0375
1486.66054	19655.0375
1490.05602	19893.2375
1493.44922	20245.0375
1496.84016	20814.5375
1500.22882	21576.0375
1503.61521	22571.4375
1506.99934	23609.6375
1510.38121	24331.9375
1513.76081	24332.5375
1517.13816	23506.0375
1520.51324	22348.1375
1523.88607	21362.9375
1527.25665	20753.4375
1530.62498	20442.2375
1533.99105	20169.7375
1537.35488	19912.1375
1540.71647	19562.8375
1544.07581	19157.0375
1547.4329	18831.8375
1550.78776	18517.8375
1554.14038	18310.9375
1557.49077	18242.3375
1560.83892	18283.5375
1564.18484	18408.7375
1567.52853	18570.8375
1570.86999	18769.7375
1574.20922	19012.9375
1577.54624	19119.2375
1580.88103	18861.3375
1584.2136	18567.2375
1587.54395	18578.3375
1590.87208	19065.3375
1594.19801	19822.8375
1597.52172	20687.9375
1600.84321	21097.6375
1604.16251	20601.9375
1607.47959	19600.7375
1610.79447	18409.9375
1614.10715	17280.5375
1617.41763	16305.2375
1620.7259	15582.1375
1624.03199	15160.8375
1627.33587	15124.6375
1630.63757	15351.5375
1633.93707	15981.4375
1637.23439	17111.1375
1640.52951	18779.8375
1643.82246	20852.7375
1647.11321	22642.5375
1650.40179	23157.8375
1653.68819	21921.5375
1656.97241	19531.1375
1660.25446	17125.7375
1663.53433	15388.2375
1666.81203	14299.9375
1670.08756	13644.6375
1673.36092	13247.3375
1676.63211	13010.0375
1679.90115	12821.8375
1683.16801	12640.2375
1686.43272	12568.0375
1689.69527	12436.0375
1692.95567	12270.3375
1696.2139	12131.0375
1699.46999	11971.5375
1702.72392	11923.1375
1705.97571	11982.0375
1709.22535	12036.5375
1712.47284	12110.1375
1715.71819	12121.1375
1718.96139	12095.3375
1722.20246	12083.6375
1725.44139	12047.3375
1728.67818	11996.6375
1731.91284	11950.8375
1735.14537	11854.3375
1738.37576	11820.1375
1741.60403	11775.0375
1744.83017	11722.7375
1748.05418	11726.3375
1751.27607	11689.8375
1754.49584	11625.2375
1757.71349	11554.7375
1760.92903	11524.5375
1764.14244	11503.9375
1767.35375	11515.1375
1770.56294	11462.3375
1773.77002	11415.2375
1776.97499	11450.7375
1780.17785	11486.4375
1783.37861	11480.2375
1786.57727	11511.4375
1789.77382	11468.6375
1792.96828	11457.4375
1796.16064	11443.8375
1799.3509	11431.7375
1802.53907	11407.7375
1805.72514	11396.1375
1808.90913	11340.0375
1812.09102	11316.8375
1815.27083	11334.9375
1818.44856	11304.4375
1821.6242	11288.0375
1824.79776	11271.8375
1827.96924	11299.8375
1831.13864	11236.8375
1834.30597	11244.0375
1837.47122	11258.9375
1840.6344	11245.8375
1843.7955	11226.5375
1846.95454	11229.2375
1850.11151	11208.2375
1853.26642	11215.4375
1856.41926	11203.7375
1859.57004	11175.0375
1862.71876	11171.7375
1865.86542	11127.6375
1869.01003	11162.8375
1872.15258	11122.5375
1875.29308	11136.1375
1878.43152	11115.5375
1881.56792	11101.9375
1884.70227	11078.7375
1887.83457	11060.0375
1890.96482	11052.7375
1894.09304	11026.2375
1897.21921	11016.0375
1900.34335	10999.4375
1903.46544	10990.8375
1906.58551	10984.2375
1909.70353	10970.7375
1912.81953	10947.2375
1915.93349	10930.9375
1919.04543	10939.8375
1922.15534	10915.3375
1925.26322	10877.5375
1928.36908	10842.8375
1931.47292	10853.1375
1934.57473	10804.4375
1937.67453	10800.7375
1940.77232	10779.0375
1943.86808	10752.8375
1946.96184	10723.0375
1950.05358	10674.2375
1953.14331	10656.3375
1956.23103	10629.7375
1959.31675	10593.0375
1962.40046	10580.3375
1965.48217	10553.4375
1968.56188	10510.8375
1971.63959	10472.3375
1974.7153	10458.5375
1977.78901	10448.8375
1980.86073	10393.1375
1983.93046	10322.8375
1986.99819	10312.0375
1990.06394	10303.4375
1993.1277	10274.9375
1996.18947	10234.5375
1999.24925	10227.2375
2002.30706	10155.5375
2005.36288	10141.0375
2008.41672	10123.5375
2011.46859	10069.6375
2014.51848	10054.8375
2017.56639	10029.8375
2020.61233	10021.8375
2023.6563	9984.8375
2026.6983	9968.1375
2029.73833	9938.1375
2032.7764	9889.8375
2035.8125	9869.7375
2038.84664	9858.5375
2041.87881	9865.5375
2044.90903	9841.0375
2047.93729	9809.0375
2050.96359	9838.9375
2053.98794	9847.2375
2057.01034	9832.7375
2060.03078	9807.0375
2063.04927	9792.1375
2066.06582	9770.8375
2069.08042	9777.7375
2072.09307	9751.6375
2075.10378	9765.6375
2078.11255	9743.1375
2081.11938	9738.9375
2084.12426	9725.4375
2087.12722	9742.7375
2090.12824	9740.6375
2093.12732	9727.0375
2096.12447	9724.5375
2099.11969	9731.7375
2102.11299	9751.0375
2105.10435	9761.5375
2108.09379	9728.0375
2111.08131	9765.3375
2114.0669	9731.4375
2117.05057	9737.9375
2120.03233	9777.3375
2123.01216	9789.4375
2125.99008	9813.6375
2128.96609	9781.0375
2131.94018	9796.2375
2134.91236	9806.5375
2137.88263	9819.2375
2140.851	9817.7375
2143.81746	9851.6375
2146.78201	9841.1375
2149.74466	9829.9375
2152.7054	9820.6375
2155.66425	9806.5375
2158.6212	9827.8375
2161.57625	9805.2375
2164.52941	9811.2375
2167.48067	9812.7375
2170.43004	9765.3375
2173.37752	9773.6375
2176.32311	9799.3375
2179.26681	9787.8375
2182.20863	9788.4375
2185.14856	9784.2375
2188.08661	9792.8375
2191.02278	9811.6375
2193.95707	9772.1375
2196.88948	9773.4375
2199.82001	9783.1375
2202.74867	9777.0375
2205.67545	9756.3375
2208.60037	9726.8375
2211.52341	9720.5375
2214.44458	9708.6375
2217.36388	9674.4375
2220.28132	9677.3375
2223.1969	9639.5375
2226.11061	9645.4375
2229.02246	9619.5375
2231.93245	9603.8375
2234.84058	9576.6375
2237.74686	9595.4375
2240.65128	9571.2375
2243.55385	9555.0375
2246.45456	9576.2375
2249.35343	9530.1375
2252.25044	9533.3375
2255.14561	9494.4375
2258.03893	9509.6375
2260.93041	9468.0375
2263.82004	9460.0375
2266.70783	9456.0375
2269.59378	9407.1375
2272.4779	9398.7375
2275.36017	9396.9375
2278.24061	9369.5375
2281.11922	9351.5375
2283.996	9336.5375
2286.87094	9306.8375
2289.74405	9295.0375
2292.61534	9278.7375
2295.4848	9285.1375
2298.35243	9274.7375
2301.21824	9299.9375
2304.08223	9277.8375
2306.94439	9265.0375
2309.80474	9274.6375
2312.66327	9280.7375
2315.51999	9249.7375
2318.37489	9236.2375
2321.22797	9187.5375
2324.07925	9218.8375
2326.92871	9227.8375
2329.77637	9208.1375
2332.62222	9181.0375
2335.46626	9178.1375
2338.3085	9155.5375
2341.14893	9144.9375
2343.98756	9146.6375
2346.8244	9130.8375
2349.65943	9160.4375
2352.49267	9142.5375
2355.32411	9136.3375
2358.15376	9132.7375
2360.98161	9137.2375
2363.80768	9119.4375
2366.63195	9099.3375
2369.45444	9118.3375
2372.27514	9099.1375
2375.09405	9080.5375
2377.91118	9072.9375
2380.72652	9059.6375
2383.54009	9034.5375
2386.35187	9027.9375
2389.16188	9005.8375
2391.97011	8988.2375
2394.77657	8950.2375
2397.58125	8967.7375
2400.38416	8945.3375
2403.18529	8939.5375
2405.98466	8934.2375
2408.78226	8911.8375
2411.57809	8869.6375
2414.37216	8867.0375
2417.16446	8867.7375
2419.955	8851.1375
2422.74378	8846.2375
2425.5308	8852.0375
2428.31606	8836.7375
2431.09956	8842.6375
2433.88131	8832.0375
2436.6613	8846.8375
2439.43954	8823.9375
2442.21603	8822.6375
2444.99077	8830.9375
2447.76377	8837.7375
2450.53501	8845.7375
2453.30451	8810.7375
2456.07226	8781.5375
2458.83827	8806.0375
2461.60254	8776.9375
2464.36507	8786.4375
2467.12586	8795.9375
2469.88492	8797.0375
2472.64224	8809.9375
2475.39782	8774.0375
2478.15167	8766.2375
2480.90379	8789.2375
2483.65417	8790.2375
2486.40283	8771.4375
2489.14976	8771.9375
2491.89497	8757.1375
2494.63845	8755.0375
2497.3802	8744.6375
2500.12024	8752.2375
2502.85855	8742.8375
2505.59514	8753.9375
2508.33002	8723.7375
2511.06318	8713.0375
2513.79462	8704.5375
2516.52435	8700.1375
2519.25237	8692.8375
2521.97867	8678.9375
2524.70327	8673.7375
2527.42616	8667.3375
2530.14734	8662.1375
2532.86681	8661.2375
2535.58458	8654.9375
2538.30065	8641.8375
2541.01501	8641.2375
2543.72768	8605.6375
2546.43864	8636.6375
2549.14791	8594.7375
2551.85548	8578.5375
2554.56136	8585.7375
2557.26554	8563.5375
2559.96803	8556.4375
2562.66883	8533.8375
2565.36794	8531.5375
2568.06536	8515.9375
2570.7611	8509.3375
2573.45514	8491.5375
2576.14751	8500.2375
2578.83819	8495.0375
2581.52719	8470.5375
2584.21451	8455.2375
2586.90015	8445.2375
2589.58411	8430.7375
2592.2664	8426.6375
2594.94701	8395.6375
2597.62594	8412.9375
2600.30321	8392.3375
2602.9788	8386.2375
2605.65273	8401.5375
2608.32498	8403.4375
2610.99557	8386.6375
2613.66449	8365.1375
2616.33175	8363.3375
2618.99734	8349.0375
2621.66128	8351.4375
2624.32355	8354.2375
2626.98416	8351.5375
2629.64311	8333.6375
2632.30041	8320.8375
2634.95605	8290.4375
2637.61004	8284.2375
2640.26238	8255.0375
2642.91306	8287.2375
2645.56209	8287.6375
2648.20948	8249.3375
2650.85521	8275.0375
2653.4993	8252.0375
2656.14175	8250.5375
2658.78255	8270.4375
2661.42171	8265.8375
2664.05923	8283.8375
2666.6951	8267.6375
2669.32934	8299.9375
2671.96194	8298.5375
2674.59291	8284.1375
2677.22224	8286.7375
2679.84993	8299.0375
2682.476	8261.7375
2685.10043	8274.7375
2687.72324	8279.1375
2690.34441	8288.5375
2692.96396	8291.8375
2695.58188	8274.8375
2698.19818	8250.8375
2700.81285	8255.3375
2703.4259	8226.7375
2706.03733	8178.4375
2708.64714	8200.7375
2711.25533	8233.4375
2713.86191	8248.9375
2716.46687	8274.8375
2719.07021	8268.2375
2721.67194	8295.7375
2724.27206	8271.1375
2726.87057	8295.3375
2729.46747	8274.0375
2732.06276	8297.2375
2734.65644	8299.5375
2737.24852	8298.3375
2739.83899	8294.1375
2742.42786	8267.8375
2745.01513	8267.2375
2747.60079	8276.5375
2750.18486	8255.0375
2752.76733	8239.0375
2755.3482	8253.6375
2757.92747	8229.1375
2760.50515	8220.6375
2763.08123	8223.0375
2765.65573	8203.2375
2768.22863	8203.7375
2770.79994	8160.7375
2773.36967	8180.2375
2775.9378	8167.9375
2778.50435	8169.0375
2781.06932	8155.9375
2783.6327	8178.5375
2786.1945	8169.3375
2788.75471	8149.9375
2791.31335	8145.2375
2793.87041	8116.0375
2796.42589	8098.2375
2798.97979	8099.7375
2801.53212	8100.3375
2804.08288	8078.3375
2806.63206	8041.7375
2809.17967	8031.2375
2811.72571	8001.2375
2814.27018	8005.8375
2816.81308	7982.9375
2819.35442	8000.9375
2821.89419	7982.4375
2824.43239	7995.7375
2826.96904	7998.5375
2829.50412	8003.1375
2832.03763	7970.9375
2834.56959	7973.4375
2837.1	7951.4375
2839.62884	7962.9375
2842.15613	7946.3375
2844.68186	7960.0375
2847.20604	7975.2375
2849.72867	7957.6375
2852.24974	7937.6375
2854.76927	7937.1375
2857.28724	7919.4375
2859.80367	7942.6375
2862.31855	7910.5375
2864.83189	7904.8375
2867.34368	7889.9375
2869.85393	7917.7375
2872.36264	7910.1375
2874.8698	7910.1375
2877.37543	7899.2375
2879.87952	7884.3375
2882.38207	7869.3375
2884.88308	7869.4375
2887.38256	7884.7375
2889.88051	7870.2375
2892.37692	7892.9375
2894.8718	7901.1375
2897.36515	7892.0375
2899.85698	7900.9375
2902.34727	7912.5375
2904.83604	7914.9375
2907.32328	7930.7375
2909.809	7935.9375
2912.29319	7937.5375
2914.77587	7940.3375
2917.25702	7947.4375
2919.73665	7942.8375
2922.21476	7925.6375
2924.69136	7928.5375
2927.16644	7947.9375
2929.64	7936.2375
2932.11205	7923.0375
2934.58258	7886.4375
2937.05161	7898.7375
2939.51912	7914.1375
2941.98513	7883.0375
2944.44962	7877.6375
2946.91261	7841.4375
2949.37409	7868.1375
2951.83407	7856.5375
2954.29254	7863.7375
2956.74951	7843.3375
2959.20498	7829.2375
2961.65895	7820.2375
2964.11142	7813.5375
2966.56239	7799.0375
2969.01186	7777.8375
2971.45984	7775.7375
2973.90632	7747.5375
2976.35131	7738.4375
2978.7948	7749.8375
2981.23681	7735.7375
2983.67732	7711.9375
2986.11635	7683.1375
2988.55388	7671.8375
2990.98993	7646.4375
2993.4245	7644.2375
2995.85758	7628.4375
2998.28917	7615.5375
3000.71928	7605.0375
3003.14791	7588.5375
3005.57506	7581.7375
3008.00073	7561.5375
3010.42493	7571.5375
3012.84764	7552.0375
3015.26888	7560.8375
3017.68865	7523.3375
3020.10694	7526.6375
3022.52376	7492.0375
3024.9391	7487.7375
3027.35298	7483.5375
3029.76539	7487.7375
3032.17632	7465.5375
3034.5858	7457.4375
3036.9938	7435.5375
3039.40034	7455.2375
3041.80542	7432.0375
3044.20903	7419.1375
3046.61118	7438.3375
3049.01187	7412.2375
3051.4111	7410.6375
3053.80888	7389.8375
3056.20519	7396.8375
3058.60005	7371.5375
3060.99345	7355.0375
3063.3854	7358.0375
3065.7759	7340.3375
3068.16494	7330.0375
