Data from AgNPs_FTO_APTES_UA_50uM_CRN_0uM_R6G_10uM_NaF_0.1M_Addition_RamanShift__27__10-41-44-656.txt Node

Date: Mon Feb 21 10:41:44 GMT 2022
User: TCL
Spectrometer: QEP01345
Trigger mode: 4
Integration Time (sec): 7.000000E0
Scans to average: 10
Electric dark correction enabled: true
Nonlinearity correction enabled: false
Boxcar width: 0
XAxis mode: Raman Shifts
Number of Pixels in Spectrum: 1044
>>>>>Begin Spectral Data<<<<<
46.04893	-0.0125
50.45542	-0.2125
54.85868	-0.2125
59.25871	-2.2125
63.6555	46.8875
68.04907	48.4875
72.43941	47.1875
76.82654	53.9875
81.21044	58.5875
85.59113	57.1875
89.96862	59.0875
94.34289	66.1875
98.71396	62.0875
103.08183	70.7875
107.4465	67.3875
111.80798	68.0875
116.16626	70.0875
120.52136	71.4875
124.87327	76.0875
129.222	72.6875
133.56755	80.2875
137.90993	87.3875
142.24913	92.2875
146.58517	99.5875
150.91804	116.1875
155.24774	138.5875
159.57429	161.7875
163.89768	211.6875
168.21792	275.8875
172.53501	376.1875
176.84895	523.6875
181.15975	725.9875
185.46741	1022.1875
189.77193	1410.7875
194.07331	1880.1875
198.37157	2423.5875
202.6667	2985.0875
206.9587	3559.5875
211.24758	4116.0875
215.53334	4671.2875
219.81599	5268.1875
224.09553	5922.7875
228.37195	6638.5875
232.64527	7435.2875
236.91549	8262.5875
241.18261	9083.1875
245.44663	9881.9875
249.70755	10569.3875
253.96539	11146.2875
258.22014	11620.7875
262.4718	11982.7875
266.72039	12221.3875
270.96589	12345.7875
275.20832	12324.6875
279.44768	12194.4875
283.68397	12020.5875
287.91719	11863.4875
292.14735	11752.6875
296.37445	11737.1875
300.59849	11766.9875
304.81948	11845.5875
309.03742	11927.8875
313.25231	11904.7875
317.46415	11787.9875
321.67296	11658.0875
325.87872	11493.9875
330.08145	11404.0875
334.28114	11365.0875
338.47781	11418.2875
342.67145	11535.8875
346.86207	11738.0875
351.04966	11978.8875
355.23424	12216.5875
359.4158	12406.0875
363.59435	12555.8875
367.76989	12643.6875
371.94243	12702.7875
376.11196	12676.0875
380.27849	12739.6875
384.44203	12774.6875
388.60257	12841.6875
392.76012	12959.3875
396.91468	13094.4875
401.06626	13296.7875
405.21485	13421.2875
409.36047	13375.3875
413.50311	13252.6875
417.64277	13200.4875
421.77947	13241.4875
425.9132	13266.3875
430.04396	13319.5875
434.17176	13367.0875
438.2966	13448.3875
442.41849	13654.0875
446.53742	13996.5875
450.6534	14375.6875
454.76644	14659.5875
458.87653	14676.4875
462.98368	14563.9875
467.08789	14390.7875
471.18916	14129.4875
475.2875	13847.3875
479.38291	13621.9875
483.4754	13495.4875
487.56496	13410.8875
491.6516	13327.9875
495.73531	13230.5875
499.81612	13199.4875
503.89401	13302.8875
507.96899	13381.4875
512.04106	13357.4875
516.11023	13257.1875
520.1765	13160.8875
524.23987	13082.2875
528.30034	13010.6875
532.35792	12938.6875
536.41261	12780.4875
540.46441	12612.7875
544.51333	12560.8875
548.55936	12633.0875
552.60252	12839.5875
556.64279	13137.9875
560.6802	13428.8875
564.71473	13547.2875
568.7464	13716.0875
572.7752	14074.3875
576.80114	14522.8875
580.82422	15005.1875
584.84444	15770.4875
588.86181	16903.5875
592.87633	17960.3875
596.888	18063.7875
600.89682	16899.0875
604.9028	16122.3875
608.90594	16735.7875
612.90624	17810.8875
616.90371	16893.3875
620.89834	14479.8875
624.89015	13314.6875
628.87913	13167.4875
632.86528	13275.6875
636.84862	13247.6875
640.82913	13015.3875
644.80683	12710.3875
648.78172	12537.9875
652.75379	12564.2875
656.72306	12736.7875
660.68952	12936.6875
664.65319	12874.8875
668.61405	12649.2875
672.57211	12623.5875
676.52738	12719.4875
680.47986	12732.3875
684.42955	12592.3875
688.37646	12520.8875
692.32058	12595.5875
696.26192	12826.0875
700.20048	13046.7875
704.13626	13128.8875
708.06928	13121.7875
711.99952	13083.2875
715.927	13145.1875
719.85171	13217.9875
723.77365	13149.6875
727.69284	12917.7875
731.60928	12689.8875
735.52295	12612.3875
739.43388	12625.5875
743.34206	12677.7875
747.24749	12783.0875
751.15017	12889.0875
755.05012	13061.6875
758.94733	13417.1875
762.8418	13957.2875
766.73354	14849.4875
770.62254	15677.6875
774.50882	15885.0875
778.39237	15279.2875
782.27321	14407.7875
786.15132	13640.7875
790.02671	13143.8875
793.89938	12884.1875
797.76935	12727.7875
801.6366	12721.2875
805.50115	12690.0875
809.36299	12655.0875
813.22213	12567.1875
817.07857	12514.6875
820.93231	12428.0875
824.78336	12375.1875
828.63172	12321.5875
832.47738	12312.5875
836.32036	12315.1875
840.16066	12315.3875
843.99827	12357.9875
847.8332	12361.5875
851.66546	12351.8875
855.49504	12364.2875
859.32195	12373.2875
863.1462	12343.8875
866.96777	12324.1875
870.78668	12272.4875
874.60293	12330.9875
878.41652	12328.9875
882.22745	12401.1875
886.03573	12486.1875
889.84136	12471.6875
893.64433	12413.8875
897.44466	12368.9875
901.24235	12349.7875
905.0374	12301.9875
908.8298	12265.4875
912.61957	12243.4875
916.40671	12313.9875
920.19121	12463.9875
923.97308	12600.7875
927.75233	12724.4875
931.52895	12646.2875
935.30295	12432.1875
939.07433	12176.6875
942.84309	12027.4875
946.60924	11922.4875
950.37278	11918.2875
954.13371	11929.3875
957.89203	11891.9875
961.64774	11877.6875
965.40086	11892.6875
969.15137	11880.1875
972.89929	11828.3875
976.64461	11856.6875
980.38733	11841.3875
984.12747	11871.7875
987.86502	11912.0875
991.59999	11985.1875
995.33237	12090.9875
999.06217	12247.5875
1002.78939	12520.6875
1006.51404	12743.0875
1010.23611	12984.5875
1013.95561	13164.7875
1017.67255	13233.0875
1021.38692	13091.3875
1025.09872	12844.9875
1028.80796	12709.5875
1032.51465	12673.1875
1036.21877	12740.9875
1039.92035	12805.5875
1043.61937	12795.5875
1047.31584	12793.7875
1051.00976	12750.0875
1054.70114	12732.1875
1058.38998	12762.7875
1062.07627	12846.9875
1065.76003	12971.2875
1069.44126	13089.2875
1073.11995	13351.5875
1076.79611	13615.6875
1080.46974	13751.0875
1084.14085	13844.2875
1087.80943	13994.8875
1091.47549	14113.6875
1095.13903	14116.2875
1098.80005	13884.0875
1102.45857	13526.5875
1106.11456	13266.4875
1109.76805	13179.1875
1113.41903	13159.3875
1117.06751	13224.7875
1120.71348	13361.8875
1124.35696	13446.0875
1127.99793	13603.8875
1131.63641	13723.3875
1135.2724	13710.4875
1138.90589	13610.2875
1142.5369	13645.5875
1146.16542	13733.6875
1149.79145	13829.3875
1153.415	13925.1875
1157.03607	14070.5875
1160.65467	14368.3875
1164.27079	14925.2875
1167.88443	15623.6875
1171.49561	16347.0875
1175.10432	17379.9875
1178.71056	18675.2875
1182.31434	19842.1875
1185.91565	20339.0875
1189.51451	20114.7875
1193.11091	19526.0875
1196.70485	18819.5875
1200.29634	18198.3875
1203.88538	17749.2875
1207.47197	17430.6875
1211.05612	17255.3875
1214.63782	17007.6875
1218.21708	16627.1875
1221.79391	16260.1875
1225.36829	16038.0875
1228.94024	15941.7875
1232.50976	15768.4875
1236.07685	15468.8875
1239.6415	15247.8875
1243.20374	15121.9875
1246.76355	15187.4875
1250.32093	15327.9875
1253.8759	15635.1875
1257.42845	16040.7875
1260.97859	16518.1875
1264.52631	17044.4875
1268.07163	17586.0875
1271.61453	18041.4875
1275.15503	18556.5875
1278.69312	19083.1875
1282.22882	19709.1875
1285.76211	20511.2875
1289.29301	21424.4875
1292.82151	22368.6875
1296.34761	23536.0875
1299.87133	24859.7875
1303.39266	26297.1875
1306.9116	27446.9875
1310.42815	28303.0875
1313.94233	28654.2875
1317.45412	28265.4875
1320.96354	27428.9875
1324.47058	26621.3875
1327.97525	26059.7875
1331.47754	25670.7875
1334.97747	25276.3875
1338.47502	24774.0875
1341.97022	24246.4875
1345.46305	23851.3875
1348.95352	23690.2875
1352.44163	24108.2875
1355.92738	25143.0875
1359.41078	26799.3875
1362.89183	28349.1875
1366.37053	28558.9875
1369.84688	26534.2875
1373.32088	23458.9875
1376.79254	21164.3875
1380.26186	20226.3875
1383.72883	20053.4875
1387.19347	19901.7875
1390.65578	19520.2875
1394.11575	19310.2875
1397.57339	19442.4875
1401.0287	19754.0875
1404.48168	20046.4875
1407.93234	20009.5875
1411.38068	19672.7875
1414.82669	19180.0875
1418.27039	18514.9875
1421.71177	17914.1875
1425.15083	17434.3875
1428.58758	17261.7875
1432.02203	17489.5875
1435.45416	17955.0875
1438.88399	18399.6875
1442.31151	18633.7875
1445.73673	18673.1875
1449.15965	18664.8875
1452.58027	18579.1875
1455.9986	18427.1875
1459.41463	18437.6875
1462.82837	18643.2875
1466.23982	19072.6875
1469.64898	19484.9875
1473.05586	19746.3875
1476.46045	19867.1875
1479.86276	19865.6875
1483.26279	19842.2875
1486.66054	19896.6875
1490.05602	20105.6875
1493.44922	20406.5875
1496.84016	20658.7875
1500.22882	20994.6875
1503.61521	21449.6875
1506.99934	21946.9875
1510.38121	22369.3875
1513.76081	22475.3875
1517.13816	22095.9875
1520.51324	21474.2875
1523.88607	21009.8875
1527.25665	20840.2875
1530.62498	20771.9875
1533.99105	20586.0875
1537.35488	20191.4875
1540.71647	19614.6875
1544.07581	18994.2875
1547.4329	18428.7875
1550.78776	17981.4875
1554.14038	17672.5875
1557.49077	17526.4875
1560.83892	17449.7875
1564.18484	17476.4875
1567.52853	17588.3875
1570.86999	17778.7875
1574.20922	18061.8875
1577.54624	18337.3875
1580.88103	18410.7875
1584.2136	18518.3875
1587.54395	19164.3875
1590.87208	20274.0875
1594.19801	21660.7875
1597.52172	22871.5875
1600.84321	23093.8875
1604.16251	21952.9875
1607.47959	20089.0875
1610.79447	18153.4875
1614.10715	16548.1875
1617.41763	15407.5875
1620.7259	14692.2875
1624.03199	14365.6875
1627.33587	14423.3875
1630.63757	14845.5875
1633.93707	15726.0875
1637.23439	17343.5875
1640.52951	19804.0875
1643.82246	22868.4875
1647.11321	25447.3875
1650.40179	25861.3875
1653.68819	23703.7875
1656.97241	20196.0875
1660.25446	17027.0875
1663.53433	14828.4875
1666.81203	13552.1875
1670.08756	12826.7875
1673.36092	12377.2875
1676.63211	12124.4875
1679.90115	11920.4875
1683.16801	11731.9875
1686.43272	11641.2875
1689.69527	11511.9875
1692.95567	11376.9875
1696.2139	11236.8875
1699.46999	11082.6875
1702.72392	11049.2875
1705.97571	11117.0875
1709.22535	11186.2875
1712.47284	11263.6875
1715.71819	11287.0875
1718.96139	11263.3875
1722.20246	11244.5875
1725.44139	11204.3875
1728.67818	11131.4875
1731.91284	11070.5875
1735.14537	11024.1875
1738.37576	10987.7875
1741.60403	10916.8875
1744.83017	10862.7875
1748.05418	10839.0875
1751.27607	10805.2875
1754.49584	10741.7875
1757.71349	10656.7875
1760.92903	10594.1875
1764.14244	10583.4875
1767.35375	10592.2875
1770.56294	10554.2875
1773.77002	10593.9875
1776.97499	10631.3875
1780.17785	10668.9875
1783.37861	10677.0875
1786.57727	10670.6875
1789.77382	10705.8875
1792.96828	10684.4875
1796.16064	10674.8875
1799.3509	10641.0875
1802.53907	10648.4875
1805.72514	10606.1875
1808.90913	10578.0875
1812.09102	10563.5875
1815.27083	10547.8875
1818.44856	10535.8875
1821.6242	10533.7875
1824.79776	10525.6875
1827.96924	10517.8875
1831.13864	10507.3875
1834.30597	10520.9875
1837.47122	10500.1875
1840.6344	10506.9875
1843.7955	10490.9875
1846.95454	10486.1875
1850.11151	10476.5875
1853.26642	10450.2875
1856.41926	10444.3875
1859.57004	10449.8875
1862.71876	10435.6875
1865.86542	10451.5875
1869.01003	10428.9875
1872.15258	10413.7875
1875.29308	10408.0875
1878.43152	10380.5875
1881.56792	10396.0875
1884.70227	10379.9875
1887.83457	10371.9875
1890.96482	10370.2875
1894.09304	10338.5875
1897.21921	10337.8875
1900.34335	10302.0875
1903.46544	10314.2875
1906.58551	10313.4875
1909.70353	10293.4875
1912.81953	10281.6875
1915.93349	10275.8875
1919.04543	10219.2875
1922.15534	10210.5875
1925.26322	10194.3875
1928.36908	10189.6875
1931.47292	10165.1875
1934.57473	10131.5875
1937.67453	10114.2875
1940.77232	10111.1875
1943.86808	10086.2875
1946.96184	10078.7875
1950.05358	10041.6875
1953.14331	9991.8875
1956.23103	9995.6875
1959.31675	9923.7875
1962.40046	9916.7875
1965.48217	9921.8875
1968.56188	9907.1875
1971.63959	9862.5875
1974.7153	9851.2875
1977.78901	9815.8875
1980.86073	9770.3875
1983.93046	9735.3875
1986.99819	9720.6875
1990.06394	9678.0875
1993.1277	9669.4875
1996.18947	9645.9875
1999.24925	9602.3875
2002.30706	9582.3875
2005.36288	9581.2875
2008.41672	9531.1875
2011.46859	9523.8875
2014.51848	9492.9875
2017.56639	9414.3875
2020.61233	9439.2875
2023.6563	9431.2875
2026.6983	9416.9875
2029.73833	9382.3875
2032.7764	9355.7875
2035.8125	9334.7875
2038.84664	9331.7875
2041.87881	9325.9875
2044.90903	9271.0875
2047.93729	9260.1875
2050.96359	9272.0875
2053.98794	9260.1875
2057.01034	9264.0875
2060.03078	9255.6875
2063.04927	9238.8875
2066.06582	9235.4875
2069.08042	9232.8875
2072.09307	9248.4875
2075.10378	9216.1875
2078.11255	9222.9875
2081.11938	9227.9875
2084.12426	9220.7875
2087.12722	9223.4875
2090.12824	9227.0875
2093.12732	9231.3875
2096.12447	9230.6875
2099.11969	9237.6875
2102.11299	9232.5875
2105.10435	9252.4875
2108.09379	9233.8875
2111.08131	9258.9875
2114.0669	9257.1875
2117.05057	9271.7875
2120.03233	9255.8875
2123.01216	9281.4875
2125.99008	9305.7875
2128.96609	9337.7875
2131.94018	9328.8875
2134.91236	9333.0875
2137.88263	9324.5875
2140.851	9334.2875
2143.81746	9339.7875
2146.78201	9325.0875
2149.74466	9314.6875
2152.7054	9309.0875
2155.66425	9341.0875
2158.6212	9326.9875
2161.57625	9320.7875
2164.52941	9335.9875
2167.48067	9320.5875
2170.43004	9296.9875
2173.37752	9309.9875
2176.32311	9292.1875
2179.26681	9302.2875
2182.20863	9317.7875
2185.14856	9342.3875
2188.08661	9330.6875
2191.02278	9336.1875
2193.95707	9326.2875
2196.88948	9320.3875
2199.82001	9318.5875
2202.74867	9291.4875
2205.67545	9293.0875
2208.60037	9282.1875
2211.52341	9267.1875
2214.44458	9243.6875
2217.36388	9250.3875
2220.28132	9229.3875
2223.1969	9218.3875
2226.11061	9210.0875
2229.02246	9162.1875
2231.93245	9173.0875
2234.84058	9165.7875
2237.74686	9148.2875
2240.65128	9136.1875
2243.55385	9149.3875
2246.45456	9127.6875
2249.35343	9123.8875
2252.25044	9111.2875
2255.14561	9099.2875
2258.03893	9040.3875
2260.93041	9022.7875
2263.82004	8993.9875
2266.70783	9005.5875
2269.59378	8985.8875
2272.4779	8965.6875
2275.36017	8956.2875
2278.24061	8951.3875
2281.11922	8931.8875
2283.996	8929.1875
2286.87094	8916.8875
2289.74405	8916.2875
2292.61534	8917.6875
2295.4848	8868.8875
2298.35243	8893.5875
2301.21824	8859.9875
2304.08223	8866.4875
2306.94439	8894.1875
2309.80474	8884.1875
2312.66327	8873.3875
2315.51999	8864.8875
2318.37489	8864.6875
2321.22797	8851.7875
2324.07925	8823.0875
2326.92871	8832.7875
2329.77637	8822.6875
2332.62222	8796.3875
2335.46626	8799.1875
2338.3085	8757.9875
2341.14893	8780.0875
2343.98756	8775.4875
2346.8244	8788.6875
2349.65943	8779.9875
2352.49267	8783.0875
2355.32411	8790.6875
2358.15376	8769.4875
2360.98161	8773.5875
2363.80768	8778.1875
2366.63195	8771.6875
2369.45444	8759.2875
2372.27514	8715.2875
2375.09405	8730.1875
2377.91118	8707.3875
2380.72652	8710.0875
2383.54009	8675.9875
2386.35187	8690.8875
2389.16188	8659.8875
2391.97011	8636.5875
2394.77657	8652.8875
2397.58125	8652.9875
2400.38416	8624.1875
2403.18529	8617.2875
2405.98466	8598.6875
2408.78226	8594.5875
2411.57809	8564.2875
2414.37216	8572.4875
2417.16446	8570.9875
2419.955	8572.7875
2422.74378	8552.2875
2425.5308	8531.8875
2428.31606	8544.4875
2431.09956	8550.6875
2433.88131	8532.8875
2436.6613	8548.9875
2439.43954	8564.3875
2442.21603	8548.6875
2444.99077	8548.1875
2447.76377	8537.4875
2450.53501	8524.4875
2453.30451	8520.0875
2456.07226	8502.0875
2458.83827	8527.1875
2461.60254	8513.2875
2464.36507	8490.3875
2467.12586	8457.3875
2469.88492	8478.3875
2472.64224	8484.4875
2475.39782	8475.9875
2478.15167	8482.5875
2480.90379	8494.9875
2483.65417	8519.7875
2486.40283	8505.4875
2489.14976	8489.0875
2491.89497	8490.7875
2494.63845	8492.6875
2497.3802	8465.7875
2500.12024	8503.4875
2502.85855	8493.2875
2505.59514	8475.3875
2508.33002	8485.1875
2511.06318	8448.3875
2513.79462	8465.0875
2516.52435	8456.2875
2519.25237	8429.7875
2521.97867	8421.1875
2524.70327	8405.6875
2527.42616	8422.8875
2530.14734	8418.3875
2532.86681	8417.7875
2535.58458	8436.0875
2538.30065	8428.4875
2541.01501	8406.7875
2543.72768	8393.3875
2546.43864	8375.6875
2549.14791	8376.3875
2551.85548	8358.5875
2554.56136	8355.7875
2557.26554	8349.8875
2559.96803	8324.2875
2562.66883	8326.9875
2565.36794	8321.6875
2568.06536	8314.2875
2570.7611	8292.2875
2573.45514	8310.4875
2576.14751	8301.2875
2578.83819	8281.4875
2581.52719	8266.5875
2584.21451	8260.1875
2586.90015	8241.3875
2589.58411	8239.1875
2592.2664	8234.3875
2594.94701	8245.3875
2597.62594	8241.5875
2600.30321	8242.6875
2602.9788	8217.4875
2605.65273	8228.4875
2608.32498	8236.6875
2610.99557	8235.2875
2613.66449	8241.6875
2616.33175	8212.0875
2618.99734	8200.0875
2621.66128	8182.0875
2624.32355	8190.2875
2626.98416	8191.2875
2629.64311	8159.8875
2632.30041	8152.9875
2634.95605	8144.1875
2637.61004	8147.6875
2640.26238	8117.3875
2642.91306	8120.1875
2645.56209	8116.8875
2648.20948	8110.6875
2650.85521	8106.5875
2653.4993	8130.6875
2656.14175	8107.3875
2658.78255	8152.4875
2661.42171	8170.4875
2664.05923	8153.8875
2666.6951	8156.8875
2669.32934	8175.6875
2671.96194	8160.7875
2674.59291	8179.8875
2677.22224	8187.5875
2679.84993	8209.5875
2682.476	8178.7875
2685.10043	8180.3875
2687.72324	8171.8875
2690.34441	8174.7875
2692.96396	8160.1875
2695.58188	8174.3875
2698.19818	8165.5875
2700.81285	8157.5875
2703.4259	8117.5875
2706.03733	8017.6875
2708.64714	8084.5875
2711.25533	8146.5875
2713.86191	8179.1875
2716.46687	8190.1875
2719.07021	8212.2875
2721.67194	8236.7875
2724.27206	8220.2875
2726.87057	8244.3875
2729.46747	8217.4875
2732.06276	8217.2875
2734.65644	8235.0875
2737.24852	8249.6875
2739.83899	8237.3875
2742.42786	8236.1875
2745.01513	8223.5875
2747.60079	8203.9875
2750.18486	8192.1875
2752.76733	8180.2875
2755.3482	8176.7875
2757.92747	8165.7875
2760.50515	8151.0875
2763.08123	8171.2875
2765.65573	8149.9875
2768.22863	8150.7875
2770.79994	8151.2875
2773.36967	8171.7875
2775.9378	8140.1875
2778.50435	8141.7875
2781.06932	8142.8875
2783.6327	8142.6875
2786.1945	8138.1875
2788.75471	8139.2875
2791.31335	8094.4875
2793.87041	8087.6875
2796.42589	8083.9875
2798.97979	8077.6875
2801.53212	8027.6875
2804.08288	8055.4875
2806.63206	8037.5875
2809.17967	8018.2875
2811.72571	7996.5875
2814.27018	7970.1875
2816.81308	7959.6875
2819.35442	7965.3875
2821.89419	7960.2875
2824.43239	7949.9875
2826.96904	7931.0875
2829.50412	7936.9875
2832.03763	7908.4875
2834.56959	7926.3875
2837.1	7920.3875
2839.62884	7922.8875
2842.15613	7919.5875
2844.68186	7946.1875
2847.20604	7949.8875
2849.72867	7943.6875
2852.24974	7939.3875
2854.76927	7931.1875
2857.28724	7876.2875
2859.80367	7894.4875
2862.31855	7880.1875
2864.83189	7891.2875
2867.34368	7875.3875
2869.85393	7881.5875
2872.36264	7899.2875
2874.8698	7903.8875
2877.37543	7901.5875
2879.87952	7904.5875
2882.38207	7905.0875
2884.88308	7885.4875
2887.38256	7912.6875
2889.88051	7918.0875
2892.37692	7912.3875
2894.8718	7918.9875
2897.36515	7931.7875
2899.85698	7934.5875
2902.34727	7951.2875
2904.83604	7939.1875
2907.32328	7950.5875
2909.809	7945.8875
2912.29319	7971.2875
2914.77587	7984.5875
2917.25702	7960.1875
2919.73665	7955.1875
2922.21476	7957.2875
2924.69136	7967.2875
2927.16644	7953.7875
2929.64	7937.7875
2932.11205	7923.4875
2934.58258	7900.6875
2937.05161	7918.6875
2939.51912	7933.0875
2941.98513	7894.7875
2944.44962	7873.0875
2946.91261	7863.4875
2949.37409	7883.0875
2951.83407	7867.7875
2954.29254	7862.8875
2956.74951	7859.8875
2959.20498	7838.9875
2961.65895	7852.9875
2964.11142	7826.2875
2966.56239	7831.2875
2969.01186	7828.5875
2971.45984	7798.6875
2973.90632	7802.3875
2976.35131	7757.7875
2978.7948	7764.4875
2981.23681	7762.0875
2983.67732	7740.5875
2986.11635	7751.7875
2988.55388	7701.5875
2990.98993	7693.7875
2993.4245	7687.5875
2995.85758	7655.1875
2998.28917	7654.0875
3000.71928	7626.4875
3003.14791	7606.9875
3005.57506	7611.3875
3008.00073	7572.0875
3010.42493	7579.9875
3012.84764	7555.1875
3015.26888	7551.3875
3017.68865	7568.5875
3020.10694	7554.0875
3022.52376	7532.5875
3024.9391	7520.9875
3027.35298	7490.3875
3029.76539	7509.3875
3032.17632	7505.3875
3034.5858	7498.5875
3036.9938	7492.1875
3039.40034	7479.2875
3041.80542	7459.3875
3044.20903	7452.7875
3046.61118	7459.8875
3049.01187	7450.0875
3051.4111	7428.7875
3053.80888	7440.9875
3056.20519	7430.7875
3058.60005	7417.2875
3060.99345	7413.4875
3063.3854	7380.7875
3065.7759	7358.8875
3068.16494	7370.0875
3070.55254	7335.0875
