Data from AgNPs_FTO_APTES_UA_50uM_CRN_2uM_R6G_10uM_NaF_0.1M_Addition_RamanShift__31__12-30-14-801.txt Node

Date: Mon Feb 21 12:30:14 GMT 2022
User: TCL
Spectrometer: QEP01345
Trigger mode: 4
Integration Time (sec): 7.000000E0
Scans to average: 10
Electric dark correction enabled: true
Nonlinearity correction enabled: false
Boxcar width: 0
XAxis mode: Raman Shifts
Number of Pixels in Spectrum: 1044
>>>>>Begin Spectral Data<<<<<
46.04893	1.425
50.45542	-0.675
54.85868	-0.175
59.25871	-1.775
63.6555	50.025
68.04907	53.725
72.43941	52.625
76.82654	56.325
81.21044	60.025
85.59113	66.325
89.96862	68.325
94.34289	73.225
98.71396	70.325
103.08183	77.025
107.4465	77.125
111.80798	76.925
116.16626	75.725
120.52136	75.125
124.87327	83.525
129.222	80.025
133.56755	83.425
137.90993	92.225
142.24913	93.825
146.58517	100.325
150.91804	112.725
155.24774	132.525
159.57429	157.725
163.89768	193.625
168.21792	256.525
172.53501	342.825
176.84895	472.525
181.15975	653.525
185.46741	909.125
189.77193	1262.925
194.07331	1670.725
198.37157	2151.125
202.6667	2671.725
206.9587	3158.725
211.24758	3666.025
215.53334	4204.125
219.81599	4818.825
224.09553	5521.325
228.37195	6306.225
232.64527	7160.125
236.91549	8014.425
241.18261	8799.425
245.44663	9417.725
249.70755	9891.725
253.96539	10258.225
258.22014	10547.225
262.4718	10774.125
266.72039	11001.925
270.96589	11055.225
275.20832	11002.125
279.44768	10812.525
283.68397	10630.325
287.91719	10491.625
292.14735	10559.125
296.37445	10859.125
300.59849	11416.125
304.81948	12079.825
309.03742	12544.025
313.25231	12570.425
317.46415	11868.325
321.67296	10793.325
325.87872	9881.825
330.08145	9422.025
334.28114	9388.325
338.47781	9589.825
342.67145	9910.425
346.86207	10471.525
351.04966	11244.025
355.23424	12166.125
359.4158	12897.025
363.59435	13192.925
367.76989	13324.325
371.94243	13238.925
376.11196	13149.425
380.27849	13015.525
384.44203	12801.025
388.60257	12524.125
392.76012	12370.025
396.91468	12458.225
401.06626	12781.525
405.21485	13039.225
409.36047	12746.725
413.50311	11869.625
417.64277	11013.025
421.77947	10543.225
425.9132	10317.625
430.04396	10223.725
434.17176	10275.125
438.2966	10458.425
442.41849	10726.325
446.53742	11120.025
450.6534	11475.625
454.76644	11677.125
458.87653	11717.225
462.98368	11564.325
467.08789	11325.525
471.18916	10992.125
475.2875	10632.925
479.38291	10342.525
483.4754	10144.325
487.56496	9962.925
491.6516	9914.525
495.73531	9877.825
499.81612	9911.925
503.89401	10079.225
507.96899	10280.025
512.04106	10511.925
516.11023	10788.625
520.1765	10977.825
524.23987	10922.025
528.30034	10708.125
532.35792	10390.625
536.41261	10093.025
540.46441	9774.825
544.51333	9626.825
548.55936	9659.325
552.60252	9910.025
556.64279	10225.925
560.6802	10381.225
564.71473	10584.925
568.7464	11166.125
572.7752	11530.825
576.80114	11128.025
580.82422	10608.625
584.84444	10413.725
588.86181	10312.325
592.87633	10350.825
596.888	10494.325
600.89682	10969.225
604.9028	12737.425
608.90594	17469.525
612.90624	23754.525
616.90371	22680.625
620.89834	14853.225
624.89015	11108.425
628.87913	10418.825
632.86528	10552.425
636.84862	10821.825
640.82913	10634.525
644.80683	9992.525
648.78172	9535.725
652.75379	9558.925
656.72306	10125.525
660.68952	10823.725
664.65319	10635.625
668.61405	9882.725
672.57211	9496.325
676.52738	9467.125
680.47986	9444.325
684.42955	9337.525
688.37646	9279.125
692.32058	9331.425
696.26192	9427.025
700.20048	9602.225
704.13626	9732.225
708.06928	9700.325
711.99952	9585.825
715.927	9552.125
719.85171	9618.725
723.77365	9639.325
727.69284	9518.325
731.60928	9420.325
735.52295	9403.825
739.43388	9441.225
743.34206	9530.525
747.24749	9606.925
751.15017	9697.425
755.05012	9928.125
758.94733	10588.425
762.8418	12129.025
766.73354	14775.325
770.62254	17505.025
774.50882	19046.425
778.39237	18191.125
782.27321	15318.725
786.15132	12413.125
790.02671	10731.625
793.89938	10038.825
797.76935	9732.325
801.6366	9597.225
805.50115	9557.025
809.36299	9506.025
813.22213	9469.625
817.07857	9425.725
820.93231	9419.325
824.78336	9419.925
828.63172	9473.025
832.47738	9512.425
836.32036	9475.925
840.16066	9391.925
843.99827	9343.825
847.8332	9314.225
851.66546	9303.125
855.49504	9307.525
859.32195	9303.125
863.1462	9220.025
866.96777	9184.125
870.78668	9175.225
874.60293	9212.425
878.41652	9259.425
882.22745	9360.025
886.03573	9420.925
889.84136	9396.725
893.64433	9342.425
897.44466	9330.225
901.24235	9322.025
905.0374	9258.925
908.8298	9188.125
912.61957	9150.425
916.40671	9192.625
920.19121	9254.925
923.97308	9380.625
927.75233	9529.625
931.52895	9679.425
935.30295	9546.325
939.07433	9227.525
942.84309	8891.125
946.60924	8754.325
950.37278	8650.825
954.13371	8607.525
957.89203	8555.125
961.64774	8558.425
965.40086	8525.325
969.15137	8506.925
972.89929	8486.925
976.64461	8462.625
980.38733	8496.825
984.12747	8500.725
987.86502	8526.925
991.59999	8621.425
995.33237	8746.925
999.06217	9006.125
1002.78939	9287.325
1006.51404	9567.125
1010.23611	9872.325
1013.95561	10017.625
1017.67255	9992.825
1021.38692	9816.225
1025.09872	9666.325
1028.80796	9584.225
1032.51465	9699.725
1036.21877	9868.425
1039.92035	10009.725
1043.61937	10030.125
1047.31584	9946.425
1051.00976	9788.825
1054.70114	9696.625
1058.38998	9642.325
1062.07627	9683.925
1065.76003	9738.625
1069.44126	9819.625
1073.11995	9968.025
1076.79611	10129.325
1080.46974	10402.225
1084.14085	10777.625
1087.80943	11131.925
1091.47549	11252.525
1095.13903	11007.425
1098.80005	10508.925
1102.45857	10148.725
1106.11456	10002.025
1109.76805	10121.525
1113.41903	10436.925
1117.06751	10966.225
1120.71348	11644.525
1124.35696	12374.825
1127.99793	12908.025
1131.63641	12725.225
1135.2724	11929.725
1138.90589	11180.225
1142.5369	10708.025
1146.16542	10409.825
1149.79145	10247.825
1153.415	10213.625
1157.03607	10316.425
1160.65467	10566.425
1164.27079	11009.425
1167.88443	11711.125
1171.49561	12883.725
1175.10432	14797.125
1178.71056	17459.225
1182.31434	19525.125
1185.91565	19943.525
1189.51451	19207.925
1193.11091	17675.525
1196.70485	15998.325
1200.29634	14800.925
1203.88538	13977.025
1207.47197	12944.525
1211.05612	12071.225
1214.63782	11560.725
1218.21708	11367.725
1221.79391	11314.225
1225.36829	11375.025
1228.94024	11423.725
1232.50976	11438.625
1236.07685	11512.125
1239.6415	11565.025
1243.20374	11674.125
1246.76355	11719.225
1250.32093	11861.425
1253.8759	12182.225
1257.42845	12586.625
1260.97859	13048.725
1264.52631	13540.625
1268.07163	14009.625
1271.61453	14455.625
1275.15503	14794.825
1278.69312	14949.625
1282.22882	15109.125
1285.76211	15539.725
1289.29301	16150.625
1292.82151	16732.825
1296.34761	17421.825
1299.87133	18506.025
1303.39266	20360.525
1306.9116	23188.925
1310.42815	26160.225
1313.94233	27388.125
1317.45412	26177.025
1320.96354	23808.725
1324.47058	21391.625
1327.97525	19451.325
1331.47754	18417.925
1334.97747	18153.125
1338.47502	18441.025
1341.97022	19191.525
1345.46305	20275.325
1348.95352	21772.725
1352.44163	23808.025
1355.92738	26835.725
1359.41078	31375.325
1362.89183	35174.725
1366.37053	33558.825
1369.84688	27792.225
1373.32088	22382.925
1376.79254	18932.325
1380.26186	17028.725
1383.72883	15968.025
1387.19347	15207.625
1390.65578	14427.425
1394.11575	13838.525
1397.57339	13602.325
1401.0287	13625.125
1404.48168	13829.425
1407.93234	14117.425
1411.38068	14446.825
1414.82669	14549.825
1418.27039	14429.125
1421.71177	14109.325
1425.15083	13751.025
1428.58758	13570.625
1432.02203	13650.425
1435.45416	13781.725
1438.88399	13814.425
1442.31151	13808.625
1445.73673	13885.425
1449.15965	13973.025
1452.58027	13982.325
1455.9986	13803.425
1459.41463	13752.325
1462.82837	13901.425
1466.23982	14254.325
1469.64898	14643.125
1473.05586	14895.625
1476.46045	15124.225
1479.86276	15467.025
1483.26279	15938.725
1486.66054	16589.825
1490.05602	17435.625
1493.44922	18646.525
1496.84016	20362.225
1500.22882	23093.225
1503.61521	26695.125
1506.99934	30675.025
1510.38121	33653.225
1513.76081	34035.125
1517.13816	31149.525
1520.51324	26413.225
1523.88607	22166.425
1527.25665	19434.725
1530.62498	17906.025
1533.99105	17032.025
1537.35488	16456.725
1540.71647	16149.225
1544.07581	16071.025
1547.4329	16045.725
1550.78776	15978.025
1554.14038	16007.925
1557.49077	16087.925
1560.83892	16398.225
1564.18484	16959.925
1567.52853	17660.925
1570.86999	18278.625
1574.20922	18625.725
1577.54624	18404.125
1580.88103	17197.525
1584.2136	15718.825
1587.54395	14991.925
1590.87208	15191.325
1594.19801	16226.925
1597.52172	17566.625
1600.84321	18123.725
1604.16251	17451.825
1607.47959	16186.525
1610.79447	14798.225
1614.10715	13493.925
1617.41763	12505.525
1620.7259	11907.825
1624.03199	11666.225
1627.33587	11702.725
1630.63757	12023.525
1633.93707	12734.125
1637.23439	13790.325
1640.52951	15382.925
1643.82246	17616.525
1647.11321	20261.225
1650.40179	22093.925
1653.68819	21290.525
1656.97241	18092.925
1660.25446	14645.125
1663.53433	12310.525
1666.81203	10939.225
1670.08756	10186.825
1673.36092	9709.725
1676.63211	9441.625
1679.90115	9230.725
1683.16801	9052.725
1686.43272	8941.825
1689.69527	8837.725
1692.95567	8725.825
1696.2139	8609.825
1699.46999	8511.925
1702.72392	8467.925
1705.97571	8542.725
1709.22535	8601.425
1712.47284	8672.125
1715.71819	8726.225
1718.96139	8722.725
1722.20246	8714.625
1725.44139	8631.325
1728.67818	8556.225
1731.91284	8501.225
1735.14537	8438.525
1738.37576	8361.425
1741.60403	8328.425
1744.83017	8276.625
1748.05418	8241.125
1751.27607	8185.825
1754.49584	8104.425
1757.71349	8034.025
1760.92903	8021.225
1764.14244	8011.425
1767.35375	8017.425
1770.56294	7995.625
1773.77002	7968.325
1776.97499	8002.425
1780.17785	8033.025
1783.37861	8030.725
1786.57727	7998.525
1789.77382	8032.625
1792.96828	8027.125
1796.16064	8028.925
1799.3509	8036.325
1802.53907	7988.225
1805.72514	7995.125
1808.90913	7972.325
1812.09102	7940.625
1815.27083	7905.525
1818.44856	7903.125
1821.6242	7894.725
1824.79776	7877.725
1827.96924	7884.325
1831.13864	7845.825
1834.30597	7844.325
1837.47122	7847.125
1840.6344	7827.325
1843.7955	7810.425
1846.95454	7824.225
1850.11151	7824.525
1853.26642	7816.525
1856.41926	7849.125
1859.57004	7841.325
1862.71876	7828.725
1865.86542	7829.225
1869.01003	7824.625
1872.15258	7839.125
1875.29308	7834.925
1878.43152	7848.625
1881.56792	7851.725
1884.70227	7857.425
1887.83457	7844.025
1890.96482	7850.025
1894.09304	7863.025
1897.21921	7842.925
1900.34335	7843.625
1903.46544	7844.525
1906.58551	7859.225
1909.70353	7866.125
1912.81953	7871.625
1915.93349	7872.825
1919.04543	7830.425
1922.15534	7836.325
1925.26322	7830.825
1928.36908	7774.025
1931.47292	7757.425
1934.57473	7725.025
1937.67453	7682.025
1940.77232	7673.325
1943.86808	7629.325
1946.96184	7598.025
1950.05358	7558.125
1953.14331	7535.425
1956.23103	7546.025
1959.31675	7514.525
1962.40046	7481.725
1965.48217	7467.225
1968.56188	7453.125
1971.63959	7452.325
1974.7153	7408.925
1977.78901	7376.125
1980.86073	7378.025
1983.93046	7341.925
1986.99819	7294.925
1990.06394	7287.325
1993.1277	7258.925
1996.18947	7225.525
1999.24925	7201.125
2002.30706	7180.925
2005.36288	7169.125
2008.41672	7137.225
2011.46859	7109.825
2014.51848	7088.425
2017.56639	7057.725
2020.61233	7059.225
2023.6563	7030.225
2026.6983	7014.625
2029.73833	7008.825
2032.7764	6989.425
2035.8125	6965.425
2038.84664	6971.325
2041.87881	6946.725
2044.90903	6944.325
2047.93729	6926.025
2050.96359	6918.025
2053.98794	6904.625
2057.01034	6911.825
2060.03078	6882.225
2063.04927	6899.125
2066.06582	6872.025
2069.08042	6851.125
2072.09307	6881.225
2075.10378	6865.425
2078.11255	6859.425
2081.11938	6878.425
2084.12426	6849.125
2087.12722	6828.325
2090.12824	6837.825
2093.12732	6837.325
2096.12447	6839.625
2099.11969	6849.225
2102.11299	6844.825
2105.10435	6841.525
2108.09379	6831.825
2111.08131	6854.725
2114.0669	6847.125
2117.05057	6855.825
2120.03233	6856.725
2123.01216	6862.625
2125.99008	6863.225
2128.96609	6881.325
2131.94018	6872.825
2134.91236	6875.925
2137.88263	6890.425
2140.851	6891.725
2143.81746	6899.325
2146.78201	6883.025
2149.74466	6866.925
2152.7054	6861.025
2155.66425	6862.825
2158.6212	6862.925
2161.57625	6866.225
2164.52941	6856.025
2167.48067	6854.025
2170.43004	6838.925
2173.37752	6851.825
2176.32311	6854.425
2179.26681	6847.625
2182.20863	6852.625
2185.14856	6857.925
2188.08661	6847.625
2191.02278	6859.825
2193.95707	6842.325
2196.88948	6815.325
2199.82001	6827.225
2202.74867	6824.525
2205.67545	6832.025
2208.60037	6829.325
2211.52341	6826.825
2214.44458	6858.025
2217.36388	6780.225
2220.28132	6768.125
2223.1969	6759.625
2226.11061	6717.225
2229.02246	6726.825
2231.93245	6711.425
2234.84058	6691.125
2237.74686	6686.825
2240.65128	6668.725
2243.55385	6663.825
2246.45456	6672.125
2249.35343	6668.225
2252.25044	6674.925
2255.14561	6669.425
2258.03893	6667.125
2260.93041	6647.825
2263.82004	6620.525
2266.70783	6646.625
2269.59378	6617.725
2272.4779	6606.725
2275.36017	6580.725
2278.24061	6566.725
2281.11922	6553.625
2283.996	6532.125
2286.87094	6536.325
2289.74405	6519.225
2292.61534	6520.125
2295.4848	6497.325
2298.35243	6480.525
2301.21824	6470.525
2304.08223	6483.625
2306.94439	6481.625
2309.80474	6472.325
2312.66327	6487.225
2315.51999	6489.225
2318.37489	6470.725
2321.22797	6485.725
2324.07925	6465.225
2326.92871	6460.625
2329.77637	6460.025
2332.62222	6456.125
2335.46626	6429.125
2338.3085	6434.025
2341.14893	6444.925
2343.98756	6443.125
2346.8244	6471.125
2349.65943	6477.325
2352.49267	6475.225
2355.32411	6478.325
2358.15376	6506.225
2360.98161	6499.625
2363.80768	6501.925
2366.63195	6516.225
2369.45444	6519.025
2372.27514	6517.425
2375.09405	6497.725
2377.91118	6484.725
2380.72652	6460.125
2383.54009	6418.925
2386.35187	6386.025
2389.16188	6360.325
2391.97011	6357.425
2394.77657	6330.525
2397.58125	6309.525
2400.38416	6300.625
2403.18529	6270.825
2405.98466	6258.025
2408.78226	6262.825
2411.57809	6241.025
2414.37216	6216.125
2417.16446	6220.525
2419.955	6214.125
2422.74378	6211.225
2425.5308	6210.325
2428.31606	6206.825
2431.09956	6216.125
2433.88131	6210.725
2436.6613	6202.825
2439.43954	6210.225
2442.21603	6210.625
2444.99077	6225.625
2447.76377	6218.725
2450.53501	6236.325
2453.30451	6227.025
2456.07226	6195.825
2458.83827	6221.425
2461.60254	6215.425
2464.36507	6213.725
2467.12586	6196.525
2469.88492	6193.525
2472.64224	6206.525
2475.39782	6198.725
2478.15167	6190.025
2480.90379	6235.525
2483.65417	6254.325
2486.40283	6274.925
2489.14976	6289.525
2491.89497	6293.025
2494.63845	6302.525
2497.3802	6274.925
2500.12024	6296.225
2502.85855	6271.925
2505.59514	6256.425
2508.33002	6226.125
2511.06318	6195.325
2513.79462	6192.725
2516.52435	6148.825
2519.25237	6125.425
2521.97867	6093.525
2524.70327	6099.925
2527.42616	6099.425
2530.14734	6103.125
2532.86681	6076.725
2535.58458	6090.225
2538.30065	6075.225
2541.01501	6077.725
2543.72768	6101.925
2546.43864	6102.125
2549.14791	6080.125
2551.85548	6065.225
2554.56136	6083.625
2557.26554	6069.225
2559.96803	6072.225
2562.66883	6045.125
2565.36794	6035.625
2568.06536	6042.325
2570.7611	6038.025
2573.45514	6012.825
2576.14751	6011.525
2578.83819	6011.925
2581.52719	5986.925
2584.21451	5995.925
2586.90015	5994.525
2589.58411	5989.325
2592.2664	5974.025
2594.94701	5979.825
2597.62594	5975.425
2600.30321	5968.725
2602.9788	5967.225
2605.65273	5959.625
2608.32498	5963.425
2610.99557	5964.525
2613.66449	5962.125
2616.33175	5947.825
2618.99734	5985.725
2621.66128	5968.925
2624.32355	5950.125
2626.98416	5944.625
2629.64311	5954.225
2632.30041	5925.325
2634.95605	5939.125
2637.61004	5914.425
2640.26238	5916.325
2642.91306	5894.525
2645.56209	5882.925
2648.20948	5862.125
2650.85521	5855.425
2653.4993	5859.325
2656.14175	5874.225
2658.78255	5894.725
2661.42171	5895.125
2664.05923	5896.825
2666.6951	5917.225
2669.32934	5930.925
2671.96194	5928.825
2674.59291	5950.325
2677.22224	5943.425
2679.84993	5956.125
2682.476	5945.025
2685.10043	5952.125
2687.72324	5953.725
2690.34441	5954.225
2692.96396	5954.225
2695.58188	5944.325
2698.19818	5929.425
2700.81285	5928.825
2703.4259	5892.925
2706.03733	5837.125
2708.64714	5869.325
2711.25533	5889.425
2713.86191	5925.725
2716.46687	5954.925
2719.07021	5952.925
2721.67194	5967.425
2724.27206	5959.925
2726.87057	5980.825
2729.46747	5968.325
2732.06276	5964.825
2734.65644	5945.825
2737.24852	5961.125
2739.83899	5940.525
2742.42786	5947.425
2745.01513	5933.825
2747.60079	5927.725
2750.18486	5920.225
2752.76733	5918.525
2755.3482	5908.725
2757.92747	5895.125
2760.50515	5897.525
2763.08123	5878.425
2765.65573	5891.725
2768.22863	5882.825
2770.79994	5874.625
2773.36967	5872.325
2775.9378	5860.425
2778.50435	5872.325
2781.06932	5882.625
2783.6327	5855.725
2786.1945	5868.625
2788.75471	5871.225
2791.31335	5859.525
2793.87041	5853.325
2796.42589	5847.325
2798.97979	5851.625
2801.53212	5849.425
2804.08288	5852.625
2806.63206	5846.025
2809.17967	5845.525
2811.72571	5824.225
2814.27018	5854.225
2816.81308	5839.025
2819.35442	5845.025
2821.89419	5853.925
2824.43239	5870.125
2826.96904	5853.725
2829.50412	5865.325
2832.03763	5853.625
2834.56959	5867.725
2837.1	5877.725
2839.62884	5865.525
2842.15613	5861.325
2844.68186	5895.325
2847.20604	5899.525
2849.72867	5907.625
2852.24974	5929.125
2854.76927	5906.125
2857.28724	5888.125
2859.80367	5899.825
2862.31855	5893.525
2864.83189	5888.925
2867.34368	5890.125
2869.85393	5907.025
2872.36264	5890.425
2874.8698	5904.525
2877.37543	5902.525
2879.87952	5888.925
2882.38207	5875.925
2884.88308	5872.925
2887.38256	5882.125
2889.88051	5867.525
2892.37692	5845.825
2894.8718	5858.425
2897.36515	5875.125
2899.85698	5866.525
2902.34727	5858.525
2904.83604	5878.125
2907.32328	5905.925
2909.809	5881.225
2912.29319	5882.225
2914.77587	5877.925
2917.25702	5840.625
2919.73665	5843.525
2922.21476	5854.825
2924.69136	5847.525
2927.16644	5830.025
2929.64	5840.825
2932.11205	5815.125
2934.58258	5798.125
2937.05161	5815.725
2939.51912	5787.225
2941.98513	5776.325
2944.44962	5739.025
2946.91261	5720.425
2949.37409	5732.825
2951.83407	5723.325
2954.29254	5712.625
2956.74951	5694.025
2959.20498	5697.525
2961.65895	5703.525
2964.11142	5702.325
2966.56239	5673.625
2969.01186	5678.225
2971.45984	5650.025
2973.90632	5647.325
2976.35131	5612.325
2978.7948	5599.025
2981.23681	5604.125
2983.67732	5595.125
2986.11635	5577.825
2988.55388	5549.725
2990.98993	5545.325
2993.4245	5537.125
2995.85758	5513.125
2998.28917	5518.925
3000.71928	5510.725
3003.14791	5499.725
3005.57506	5495.525
3008.00073	5455.625
3010.42493	5447.925
3012.84764	5469.425
3015.26888	5465.325
3017.68865	5430.625
3020.10694	5447.925
3022.52376	5413.425
3024.9391	5428.225
3027.35298	5404.725
3029.76539	5395.325
3032.17632	5384.325
3034.5858	5381.125
3036.9938	5363.725
3039.40034	5347.625
3041.80542	5350.425
3044.20903	5329.425
3046.61118	5329.525
3049.01187	5331.725
3051.4111	5312.525
3053.80888	5309.425
3056.20519	5288.325
3058.60005	5268.625
3060.99345	5271.925
3063.3854	5267.125
3065.7759	5247.925
3068.16494	5254.325
3070.55254	5210.625
3072.93868	5198.225
3075.32338	5176.125
3077.70662	5157.425
3080.08842	5146.325
3082.46878	5114.725
3084.84769	5134.225
3087.22515	5106.425
3089.60118	5110.425
3091.97576	5097.925
3094.3489	5113.125
3096.72061	5098.625
3099.09087	5122.325
3101.4597	5092.425
3103.82709	5096.825
3106.19305	5080.325
3108.55757	5068.625
3110.92066	5059.325
3113.28232	5051.525
3115.64255	5041.425
3118.00134	5031.425
3120.35871	5024.725
3122.71466	5013.125
3125.06917	5016.825
3127.42226	5022.025
3129.77393	5020.025
3132.12417	5013.725
3134.47299	5009.125
3136.82039	5013.425
3139.16636	5015.725
3141.51092	5007.625
3143.85406	4993.025
3146.19579	5022.225
3148.53609	5022.225
3150.87499	5007.625
3153.21246	5031.625
3155.54853	5010.025
3157.88318	5045.925
3160.21642	5022.925
3162.54826	5037.925
3164.87868	5030.025
3167.2077	5039.425
3169.5353	5036.425
3171.86151	5032.225
3174.18631	5024.625
3176.5097	5013.025
3178.83169	5019.225
3181.15228	5018.325
3183.47147	4998.825
3185.78926	5010.025
3188.10565	5009.525
3190.42065	5015.125
3192.73424	5003.525
3195.04645	5018.925
3197.35725	5002.525
3199.66667	5018.525
3201.97469	5007.225
3204.28132	5026.325
