Data from AgNPs_FTO_APTES_UA_50uM_CRN_20uM_R6G_10uM_NaF_0.1M_Addition_RamanShift__13__14-09-24-930.txt Node

Date: Mon Feb 21 14:09:24 GMT 2022
User: TCL
Spectrometer: QEP01345
Trigger mode: 4
Integration Time (sec): 7.000000E0
Scans to average: 10
Electric dark correction enabled: true
Nonlinearity correction enabled: false
Boxcar width: 0
XAxis mode: Raman Shifts
Number of Pixels in Spectrum: 1044
>>>>>Begin Spectral Data<<<<<
46.04893	0.225
50.45542	-0.875
54.85868	0.125
59.25871	-0.575
63.6555	48.625
68.04907	53.125
72.43941	53.725
76.82654	57.825
81.21044	59.825
85.59113	64.025
89.96862	64.225
94.34289	69.425
98.71396	70.425
103.08183	73.425
107.4465	76.625
111.80798	76.225
116.16626	72.425
120.52136	74.825
124.87327	79.825
129.222	77.425
133.56755	82.425
137.90993	90.225
142.24913	92.625
146.58517	102.925
150.91804	112.225
155.24774	133.925
159.57429	155.725
163.89768	198.225
168.21792	260.525
172.53501	344.125
176.84895	469.125
181.15975	655.225
185.46741	920.825
189.77193	1274.225
194.07331	1704.025
198.37157	2216.625
202.6667	2730.325
206.9587	3247.325
211.24758	3759.525
215.53334	4269.525
219.81599	4820.325
224.09553	5405.525
228.37195	6077.525
232.64527	6818.825
236.91549	7584.825
241.18261	8361.025
245.44663	9085.025
249.70755	9705.825
253.96539	10217.525
258.22014	10661.525
262.4718	10950.825
266.72039	11169.825
270.96589	11243.125
275.20832	11168.125
279.44768	11039.425
283.68397	10886.125
287.91719	10687.825
292.14735	10559.225
296.37445	10516.625
300.59849	10519.325
304.81948	10577.325
309.03742	10593.225
313.25231	10542.625
317.46415	10347.925
321.67296	10072.925
325.87872	9841.625
330.08145	9742.425
334.28114	9733.625
338.47781	9802.525
342.67145	9904.125
346.86207	10068.825
351.04966	10285.925
355.23424	10511.725
359.4158	10685.525
363.59435	10845.225
367.76989	10949.225
371.94243	10994.025
376.11196	11016.325
380.27849	11033.225
384.44203	11087.625
388.60257	11119.225
392.76012	11176.125
396.91468	11290.925
401.06626	11472.825
405.21485	11601.125
409.36047	11526.225
413.50311	11331.825
417.64277	11145.225
421.77947	11035.325
425.9132	11032.225
430.04396	11059.425
434.17176	11088.925
438.2966	11162.925
442.41849	11289.125
446.53742	11482.925
450.6534	11648.725
454.76644	11781.225
458.87653	11844.625
462.98368	11848.625
467.08789	11821.625
471.18916	11729.125
475.2875	11586.425
479.38291	11470.125
483.4754	11400.425
487.56496	11331.225
491.6516	11292.325
495.73531	11234.525
499.81612	11242.425
503.89401	11293.125
507.96899	11362.225
512.04106	11389.725
516.11023	11409.225
520.1765	11380.125
524.23987	11306.725
528.30034	11252.725
532.35792	11171.625
536.41261	11066.525
540.46441	10968.325
544.51333	10946.125
548.55936	11014.925
552.60252	11162.825
556.64279	11307.925
560.6802	11377.625
564.71473	11402.725
568.7464	11572.025
572.7752	11757.325
576.80114	11946.525
580.82422	12174.525
584.84444	12439.225
588.86181	12690.425
592.87633	12862.225
596.888	12937.825
600.89682	12866.125
604.9028	13095.125
608.90594	14224.025
612.90624	15603.825
616.90371	14818.125
620.89834	12491.325
624.89015	11433.525
628.87913	11286.325
632.86528	11399.525
636.84862	11499.925
640.82913	11431.425
644.80683	11158.725
648.78172	10930.725
652.75379	10908.525
656.72306	11073.925
660.68952	11292.125
664.65319	11297.325
668.61405	11097.225
672.57211	11068.125
676.52738	11104.725
680.47986	11124.625
684.42955	11082.025
688.37646	11031.525
692.32058	11067.125
696.26192	11089.425
700.20048	11158.925
704.13626	11222.925
708.06928	11199.925
711.99952	11159.925
715.927	11117.025
719.85171	11098.625
723.77365	11043.025
727.69284	10934.925
731.60928	10832.325
735.52295	10792.025
739.43388	10802.725
743.34206	10875.525
747.24749	10891.825
751.15017	10948.025
755.05012	11088.925
758.94733	11336.625
762.8418	11855.825
766.73354	12771.325
770.62254	13670.525
774.50882	14027.425
778.39237	13518.325
782.27321	12663.125
786.15132	11817.825
790.02671	11323.825
793.89938	11032.025
797.76935	10886.025
801.6366	10804.025
805.50115	10756.625
809.36299	10703.425
813.22213	10617.025
817.07857	10615.925
820.93231	10591.225
824.78336	10582.625
828.63172	10558.525
832.47738	10552.225
836.32036	10548.825
840.16066	10525.025
843.99827	10522.125
847.8332	10502.025
851.66546	10507.825
855.49504	10516.925
859.32195	10541.125
863.1462	10506.425
866.96777	10505.125
870.78668	10510.125
874.60293	10501.025
878.41652	10554.325
882.22745	10577.825
886.03573	10610.725
889.84136	10633.525
893.64433	10611.925
897.44466	10597.625
901.24235	10599.025
905.0374	10576.225
908.8298	10532.325
912.61957	10500.725
916.40671	10557.525
920.19121	10604.325
923.97308	10724.925
927.75233	10786.825
931.52895	10737.125
935.30295	10620.225
939.07433	10461.525
942.84309	10307.525
946.60924	10227.825
950.37278	10164.125
954.13371	10153.925
957.89203	10106.025
961.64774	10114.525
965.40086	10118.025
969.15137	10098.625
972.89929	10091.625
976.64461	10048.525
980.38733	10034.925
984.12747	10059.325
987.86502	10059.825
991.59999	10101.525
995.33237	10160.025
999.06217	10260.525
1002.78939	10367.825
1006.51404	10531.425
1010.23611	10689.025
1013.95561	10805.825
1017.67255	10822.725
1021.38692	10729.525
1025.09872	10631.825
1028.80796	10511.325
1032.51465	10455.225
1036.21877	10461.125
1039.92035	10504.825
1043.61937	10554.525
1047.31584	10591.925
1051.00976	10651.925
1054.70114	10685.525
1058.38998	10713.525
1062.07627	10770.425
1065.76003	10855.025
1069.44126	10984.025
1073.11995	11174.325
1076.79611	11342.425
1080.46974	11411.325
1084.14085	11485.525
1087.80943	11561.325
1091.47549	11664.725
1095.13903	11646.525
1098.80005	11519.325
1102.45857	11301.525
1106.11456	11135.725
1109.76805	11012.525
1113.41903	11006.925
1117.06751	11095.025
1120.71348	11222.325
1124.35696	11400.625
1127.99793	11576.825
1131.63641	11643.425
1135.2724	11574.925
1138.90589	11442.625
1142.5369	11383.225
1146.16542	11343.025
1149.79145	11335.025
1153.415	11347.625
1157.03607	11421.425
1160.65467	11624.925
1164.27079	11914.325
1167.88443	12330.125
1171.49561	12909.925
1175.10432	13716.325
1178.71056	14716.525
1182.31434	15613.425
1185.91565	16092.325
1189.51451	16168.825
1193.11091	15906.125
1196.70485	15290.625
1200.29634	14649.825
1203.88538	14078.825
1207.47197	13583.125
1211.05612	13163.725
1214.63782	12849.125
1218.21708	12651.625
1221.79391	12496.625
1225.36829	12428.425
1228.94024	12381.625
1232.50976	12376.625
1236.07685	12328.125
1239.6415	12294.125
1243.20374	12288.425
1246.76355	12328.725
1250.32093	12366.525
1253.8759	12514.925
1257.42845	12715.725
1260.97859	13066.525
1264.52631	13373.925
1268.07163	13725.425
1271.61453	14019.325
1275.15503	14326.525
1278.69312	14512.225
1282.22882	14788.525
1285.76211	15099.425
1289.29301	15464.325
1292.82151	15890.825
1296.34761	16309.425
1299.87133	16944.125
1303.39266	17633.525
1306.9116	18483.725
1310.42815	19275.325
1313.94233	19704.725
1317.45412	19514.525
1320.96354	19080.825
1324.47058	18622.925
1327.97525	18232.025
1331.47754	18042.225
1334.97747	17952.825
1338.47502	17970.025
1341.97022	18117.525
1345.46305	18357.925
1348.95352	18646.425
1352.44163	19013.925
1355.92738	19573.325
1359.41078	20340.025
1362.89183	21164.325
1366.37053	20944.825
1369.84688	19392.725
1373.32088	17370.825
1376.79254	15933.025
1380.26186	15121.625
1383.72883	14701.625
1387.19347	14353.825
1390.65578	14037.225
1394.11575	13848.325
1397.57339	13729.725
1401.0287	13658.925
1404.48168	13693.825
1407.93234	13693.125
1411.38068	13567.325
1414.82669	13430.325
1418.27039	13171.325
1421.71177	12964.625
1425.15083	12762.025
1428.58758	12633.025
1432.02203	12657.625
1435.45416	12746.925
1438.88399	12880.325
1442.31151	12929.425
1445.73673	13042.625
1449.15965	13175.425
1452.58027	13298.825
1455.9986	13336.125
1459.41463	13446.225
1462.82837	13638.125
1466.23982	13898.325
1469.64898	14109.825
1473.05586	14334.325
1476.46045	14426.225
1479.86276	14538.125
1483.26279	14648.025
1486.66054	14845.125
1490.05602	15118.325
1493.44922	15567.525
1496.84016	16239.225
1500.22882	17157.225
1503.61521	18245.225
1506.99934	19313.525
1510.38121	19974.725
1513.76081	19853.525
1517.13816	18955.025
1520.51324	17753.125
1523.88607	16685.625
1527.25665	15974.125
1530.62498	15554.325
1533.99105	15247.325
1537.35488	14903.125
1540.71647	14650.325
1544.07581	14337.925
1547.4329	14085.325
1550.78776	13923.125
1554.14038	13818.225
1557.49077	13842.425
1560.83892	13971.025
1564.18484	14096.525
1567.52853	14321.825
1570.86999	14523.725
1574.20922	14701.825
1577.54624	14703.425
1580.88103	14415.825
1584.2136	14059.425
1587.54395	13911.525
1590.87208	14100.025
1594.19801	14554.025
1597.52172	15083.325
1600.84321	15233.325
1604.16251	14870.225
1607.47959	14253.325
1610.79447	13558.925
1614.10715	12824.625
1617.41763	12171.425
1620.7259	11707.425
1624.03199	11407.325
1627.33587	11355.125
1630.63757	11502.225
1633.93707	11943.825
1637.23439	12708.425
1640.52951	13876.325
1643.82246	15282.625
1647.11321	16641.525
1650.40179	17243.425
1653.68819	16591.025
1656.97241	14918.025
1660.25446	13103.225
1663.53433	11691.225
1666.81203	10807.525
1670.08756	10297.025
1673.36092	9980.525
1676.63211	9792.525
1679.90115	9650.525
1683.16801	9509.425
1686.43272	9425.925
1689.69527	9314.525
1692.95567	9230.625
1696.2139	9092.025
1699.46999	8956.325
1702.72392	8920.825
1705.97571	8972.225
1709.22535	9058.325
1712.47284	9081.725
1715.71819	9103.125
1718.96139	9105.125
1722.20246	9095.025
1725.44139	9066.525
1728.67818	9019.325
1731.91284	8957.725
1735.14537	8897.325
1738.37576	8867.325
1741.60403	8833.925
1744.83017	8754.825
1748.05418	8761.025
1751.27607	8718.725
1754.49584	8629.425
1757.71349	8589.325
1760.92903	8551.725
1764.14244	8559.125
1767.35375	8543.225
1770.56294	8525.125
1773.77002	8513.925
1776.97499	8508.225
1780.17785	8562.325
1783.37861	8576.025
1786.57727	8565.025
1789.77382	8560.425
1792.96828	8522.025
1796.16064	8544.025
1799.3509	8520.425
1802.53907	8500.025
1805.72514	8488.525
1808.90913	8441.025
1812.09102	8429.525
1815.27083	8431.425
1818.44856	8420.925
1821.6242	8405.825
1824.79776	8415.325
1827.96924	8366.725
1831.13864	8379.225
1834.30597	8376.625
1837.47122	8398.425
1840.6344	8387.125
1843.7955	8381.625
1846.95454	8384.025
1850.11151	8392.725
1853.26642	8364.625
1856.41926	8339.325
1859.57004	8343.325
1862.71876	8327.825
1865.86542	8335.025
1869.01003	8331.125
1872.15258	8299.725
1875.29308	8302.325
1878.43152	8293.925
1881.56792	8273.225
1884.70227	8233.625
1887.83457	8216.225
1890.96482	8216.225
1894.09304	8190.825
1897.21921	8192.825
1900.34335	8188.225
1903.46544	8170.725
1906.58551	8159.325
1909.70353	8133.525
1912.81953	8123.325
1915.93349	8126.325
1919.04543	8117.525
1922.15534	8084.725
1925.26322	8042.425
1928.36908	8023.725
1931.47292	8015.725
1934.57473	8009.825
1937.67453	7986.625
1940.77232	7954.925
1943.86808	7942.725
1946.96184	7901.725
1950.05358	7895.225
1953.14331	7853.125
1956.23103	7836.625
1959.31675	7807.925
1962.40046	7814.125
1965.48217	7809.325
1968.56188	7758.425
1971.63959	7751.525
1974.7153	7711.525
1977.78901	7686.425
1980.86073	7653.925
1983.93046	7637.925
1986.99819	7588.325
1990.06394	7590.925
1993.1277	7568.125
1996.18947	7541.025
1999.24925	7513.525
2002.30706	7471.625
2005.36288	7462.625
2008.41672	7426.425
2011.46859	7390.925
2014.51848	7378.825
2017.56639	7376.225
2020.61233	7357.325
2023.6563	7340.725
2026.6983	7304.825
2029.73833	7288.725
2032.7764	7279.025
2035.8125	7250.825
2038.84664	7240.525
2041.87881	7238.225
2044.90903	7216.025
2047.93729	7189.925
2050.96359	7198.925
2053.98794	7205.425
2057.01034	7174.125
2060.03078	7196.925
2063.04927	7163.425
2066.06582	7152.925
2069.08042	7140.825
2072.09307	7142.325
2075.10378	7146.825
2078.11255	7150.225
2081.11938	7124.225
2084.12426	7131.625
2087.12722	7140.525
2090.12824	7131.925
2093.12732	7130.325
2096.12447	7124.925
2099.11969	7117.525
2102.11299	7129.625
2105.10435	7133.425
2108.09379	7148.425
2111.08131	7149.625
2114.0669	7153.625
2117.05057	7159.425
2120.03233	7168.725
2123.01216	7179.425
2125.99008	7166.925
2128.96609	7166.625
2131.94018	7172.125
2134.91236	7169.825
2137.88263	7178.925
2140.851	7197.025
2143.81746	7177.825
2146.78201	7164.125
2149.74466	7192.925
2152.7054	7166.425
2155.66425	7171.225
2158.6212	7181.425
2161.57625	7158.925
2164.52941	7163.625
2167.48067	7154.225
2170.43004	7142.025
2173.37752	7145.825
2176.32311	7139.625
2179.26681	7137.825
2182.20863	7133.025
2185.14856	7140.325
2188.08661	7122.725
2191.02278	7134.125
2193.95707	7102.425
2196.88948	7105.925
2199.82001	7105.025
2202.74867	7091.525
2205.67545	7091.025
2208.60037	7075.225
2211.52341	7053.925
2214.44458	7033.725
2217.36388	7031.725
2220.28132	7024.925
2223.1969	7003.425
2226.11061	7003.425
2229.02246	6965.425
2231.93245	6978.225
2234.84058	6975.125
2237.74686	6945.825
2240.65128	6950.225
2243.55385	6946.225
2246.45456	6942.725
2249.35343	6930.425
2252.25044	6911.925
2255.14561	6879.725
2258.03893	6897.025
2260.93041	6857.925
2263.82004	6852.825
2266.70783	6847.825
2269.59378	6827.725
2272.4779	6819.025
2275.36017	6783.325
2278.24061	6772.525
2281.11922	6758.825
2283.996	6755.725
2286.87094	6762.625
2289.74405	6744.525
2292.61534	6700.825
2295.4848	6684.925
2298.35243	6713.825
2301.21824	6709.125
2304.08223	6699.425
2306.94439	6688.825
2309.80474	6680.125
2312.66327	6680.925
2315.51999	6674.425
2318.37489	6681.325
2321.22797	6644.725
2324.07925	6640.325
2326.92871	6633.625
2329.77637	6627.325
2332.62222	6612.025
2335.46626	6585.025
2338.3085	6586.625
2341.14893	6583.225
2343.98756	6575.225
2346.8244	6572.225
2349.65943	6575.225
2352.49267	6566.425
2355.32411	6578.425
2358.15376	6584.625
2360.98161	6565.525
2363.80768	6575.525
2366.63195	6557.225
2369.45444	6569.125
2372.27514	6552.625
2375.09405	6543.525
2377.91118	6545.425
2380.72652	6520.725
2383.54009	6493.225
2386.35187	6491.525
2389.16188	6461.925
2391.97011	6453.625
2394.77657	6446.425
2397.58125	6439.425
2400.38416	6422.625
2403.18529	6401.625
2405.98466	6396.525
2408.78226	6397.125
2411.57809	6378.125
2414.37216	6376.925
2417.16446	6363.525
2419.955	6360.925
2422.74378	6358.425
2425.5308	6347.725
2428.31606	6350.625
2431.09956	6345.925
2433.88131	6339.125
2436.6613	6328.025
2439.43954	6316.525
2442.21603	6324.625
2444.99077	6328.425
2447.76377	6335.125
2450.53501	6330.125
2453.30451	6324.025
2456.07226	6296.925
2458.83827	6304.125
2461.60254	6304.525
2464.36507	6286.725
2467.12586	6299.025
2469.88492	6290.925
2472.64224	6294.025
2475.39782	6267.425
2478.15167	6268.825
2480.90379	6283.225
2483.65417	6277.125
2486.40283	6278.125
2489.14976	6280.825
2491.89497	6266.725
2494.63845	6241.625
2497.3802	6246.725
2500.12024	6255.125
2502.85855	6263.325
2505.59514	6243.825
2508.33002	6212.325
2511.06318	6209.425
2513.79462	6217.425
2516.52435	6219.225
2519.25237	6201.225
2521.97867	6191.525
2524.70327	6180.025
2527.42616	6166.225
2530.14734	6173.325
2532.86681	6161.625
2535.58458	6161.825
2538.30065	6156.325
2541.01501	6162.625
2543.72768	6135.825
2546.43864	6132.825
2549.14791	6117.525
2551.85548	6108.425
2554.56136	6091.825
2557.26554	6082.525
2559.96803	6081.325
2562.66883	6077.525
2565.36794	6065.725
2568.06536	6057.525
2570.7611	6036.925
2573.45514	6025.925
2576.14751	6036.025
2578.83819	6010.225
2581.52719	6031.925
2584.21451	6005.025
2586.90015	5966.925
2589.58411	5967.125
2592.2664	5950.825
2594.94701	5944.325
2597.62594	5969.325
2600.30321	5939.225
2602.9788	5933.325
2605.65273	5918.125
2608.32498	5925.325
2610.99557	5926.525
2613.66449	5943.425
2616.33175	5916.425
2618.99734	5911.325
2621.66128	5894.525
2624.32355	5907.425
2626.98416	5903.225
2629.64311	5886.525
2632.30041	5872.825
2634.95605	5877.325
2637.61004	5844.725
2640.26238	5845.225
2642.91306	5842.425
2645.56209	5840.025
2648.20948	5821.825
2650.85521	5828.025
2653.4993	5836.725
2656.14175	5818.425
2658.78255	5838.825
2661.42171	5823.825
2664.05923	5835.325
2666.6951	5845.425
2669.32934	5859.125
2671.96194	5843.325
2674.59291	5837.125
2677.22224	5867.025
2679.84993	5848.825
2682.476	5830.225
2685.10043	5841.225
2687.72324	5817.825
2690.34441	5835.525
2692.96396	5845.525
2695.58188	5842.625
2698.19818	5835.625
2700.81285	5814.025
2703.4259	5819.825
2706.03733	5752.225
2708.64714	5777.025
2711.25533	5803.025
2713.86191	5797.725
2716.46687	5811.125
2719.07021	5842.925
2721.67194	5846.325
2724.27206	5835.925
2726.87057	5830.225
2729.46747	5839.925
2732.06276	5835.125
2734.65644	5818.725
2737.24852	5821.325
2739.83899	5822.225
2742.42786	5806.525
2745.01513	5808.725
2747.60079	5822.325
2750.18486	5800.225
2752.76733	5814.525
2755.3482	5787.025
2757.92747	5775.725
2760.50515	5774.525
2763.08123	5765.425
2765.65573	5762.125
2768.22863	5728.025
2770.79994	5725.825
2773.36967	5718.825
2775.9378	5701.325
2778.50435	5706.325
2781.06932	5713.925
2783.6327	5723.925
2786.1945	5726.925
2788.75471	5714.525
2791.31335	5678.325
2793.87041	5681.125
2796.42589	5675.725
2798.97979	5651.325
2801.53212	5654.725
2804.08288	5650.525
2806.63206	5620.125
2809.17967	5623.725
2811.72571	5617.225
2814.27018	5602.625
2816.81308	5576.925
2819.35442	5602.125
2821.89419	5591.225
2824.43239	5584.225
2826.96904	5585.625
2829.50412	5568.025
2832.03763	5541.525
2834.56959	5569.325
2837.1	5559.425
2839.62884	5557.725
2842.15613	5539.425
2844.68186	5554.525
2847.20604	5548.025
2849.72867	5552.725
2852.24974	5550.725
2854.76927	5542.225
2857.28724	5506.425
2859.80367	5539.725
2862.31855	5532.325
2864.83189	5518.925
2867.34368	5511.625
2869.85393	5536.025
2872.36264	5518.125
2874.8698	5526.825
2877.37543	5525.025
2879.87952	5521.825
2882.38207	5512.925
2884.88308	5505.625
2887.38256	5520.125
2889.88051	5509.925
2892.37692	5520.025
2894.8718	5520.225
2897.36515	5524.425
2899.85698	5529.825
2902.34727	5543.825
2904.83604	5519.325
2907.32328	5539.825
2909.809	5555.325
2912.29319	5551.725
2914.77587	5561.125
2917.25702	5543.225
2919.73665	5536.025
2922.21476	5549.225
2924.69136	5531.625
2927.16644	5529.925
2929.64	5537.325
2932.11205	5518.025
2934.58258	5494.225
2937.05161	5504.225
2939.51912	5509.425
2941.98513	5521.325
2944.44962	5495.825
2946.91261	5484.225
2949.37409	5487.125
2951.83407	5474.225
2954.29254	5471.625
2956.74951	5468.925
2959.20498	5450.925
2961.65895	5439.025
2964.11142	5434.125
2966.56239	5423.425
2969.01186	5424.425
2971.45984	5417.825
2973.90632	5412.625
2976.35131	5385.925
2978.7948	5406.425
2981.23681	5366.125
2983.67732	5384.725
2986.11635	5353.725
2988.55388	5333.225
2990.98993	5322.325
2993.4245	5324.525
2995.85758	5300.225
2998.28917	5291.525
3000.71928	5289.225
3003.14791	5284.225
3005.57506	5281.525
3008.00073	5259.325
3010.42493	5251.125
3012.84764	5247.025
3015.26888	5257.025
3017.68865	5238.925
3020.10694	5235.225
3022.52376	5215.725
3024.9391	5211.725
3027.35298	5199.325
3029.76539	5204.325
3032.17632	5181.025
3034.5858	5164.825
3036.9938	5174.225
3039.40034	5160.125
3041.80542	5153.925
3044.20903	5159.025
3046.61118	5165.925
3049.01187	5151.925
3051.4111	5153.825
3053.80888	5135.625
3056.20519	5134.825
3058.60005	5141.125
3060.99345	5112.325
3063.3854	5124.725
3065.7759	5104.025
3068.16494	5083.525
3070.55254	5080.025
3072.93868	5053.725
3075.32338	5046.225
3077.70662	5041.525
3080.08842	5036.725
3082.46878	5025.925
3084.84769	5028.725
3087.22515	5024.725
3089.60118	5026.825
3091.97576	5030.625
3094.3489	5022.425
3096.72061	5012.225
3099.09087	5024.525
3101.4597	5028.725
3103.82709	5015.225
3106.19305	5014.425
3108.55757	5030.625
3110.92066	5009.925
3113.28232	5014.725
3115.64255	5005.525
3118.00134	5006.425
3120.35871	4987.025
3122.71466	4997.625
3125.06917	4988.225
3127.42226	4963.025
3129.77393	4969.525
3132.12417	4963.325
3134.47299	4952.925
3136.82039	4952.125
3139.16636	4952.925
3141.51092	4970.025
3143.85406	4967.425
3146.19579	4974.725
3148.53609	4972.925
3150.87499	4984.925
3153.21246	4984.825
3155.54853	4998.225
3157.88318	4992.725
3160.21642	5019.625
3162.54826	5013.525
3164.87868	5009.425
3167.2077	5018.825
3169.5353	5023.725
3171.86151	5010.425
3174.18631	5029.025
3176.5097	5009.925
3178.83169	5030.625
3181.15228	5001.425
3183.47147	4985.025
3185.78926	5009.725
3188.10565	4992.625
3190.42065	5001.325
3192.73424	4984.325
