Data from AgNPs_FTO_APTES_UA_50uM_CRN_100uM_R6G_10uM_NaF_0.1M_Addition_RamanShift__4__15-20-35-018.txt Node

Date: Mon Feb 21 15:20:35 GMT 2022
User: TCL
Spectrometer: QEP01345
Trigger mode: 4
Integration Time (sec): 7.000000E0
Scans to average: 10
Electric dark correction enabled: true
Nonlinearity correction enabled: false
Boxcar width: 0
XAxis mode: Raman Shifts
Number of Pixels in Spectrum: 1044
>>>>>Begin Spectral Data<<<<<
46.04893	-0.3875
50.45542	-0.7875
54.85868	-1.3875
59.25871	-0.4875
63.6555	57.0125
68.04907	63.3125
72.43941	64.7125
76.82654	72.2125
81.21044	73.1125
85.59113	75.9125
89.96862	78.5125
94.34289	81.2125
98.71396	79.5125
103.08183	89.9125
107.4465	88.9125
111.80798	88.7125
116.16626	88.0125
120.52136	93.4125
124.87327	101.9125
129.222	98.2125
133.56755	103.4125
137.90993	107.4125
142.24913	114.1125
146.58517	126.8125
150.91804	140.6125
155.24774	164.8125
159.57429	202.4125
163.89768	255.8125
168.21792	331.9125
172.53501	450.3125
176.84895	632.8125
181.15975	877.3125
185.46741	1227.2125
189.77193	1700.3125
194.07331	2264.0125
198.37157	2908.2125
202.6667	3591.5125
206.9587	4247.5125
211.24758	4912.2125
215.53334	5585.0125
219.81599	6294.9125
224.09553	7095.8125
228.37195	7955.0125
232.64527	8938.4125
236.91549	9949.6125
241.18261	10971.2125
245.44663	11847.4125
249.70755	12645.6125
253.96539	13282.4125
258.22014	13870.0125
262.4718	14310.7125
266.72039	14640.6125
270.96589	14799.7125
275.20832	14776.3125
279.44768	14638.3125
283.68397	14428.8125
287.91719	14259.7125
292.14735	14168.0125
296.37445	14182.1125
300.59849	14298.0125
304.81948	14431.1125
309.03742	14515.4125
313.25231	14453.5125
317.46415	14228.3125
321.67296	13852.3125
325.87872	13593.6125
330.08145	13439.1125
334.28114	13432.3125
338.47781	13534.4125
342.67145	13701.4125
346.86207	13981.1125
351.04966	14324.3125
355.23424	14650.5125
359.4158	14929.1125
363.59435	15152.4125
367.76989	15280.6125
371.94243	15363.6125
376.11196	15428.0125
380.27849	15482.6125
384.44203	15579.9125
388.60257	15651.8125
392.76012	15738.2125
396.91468	15899.7125
401.06626	16114.7125
405.21485	16235.0125
409.36047	16114.1125
413.50311	15805.0125
417.64277	15585.0125
421.77947	15469.7125
425.9132	15444.3125
430.04396	15483.8125
434.17176	15593.0125
438.2966	15739.3125
442.41849	16042.1125
446.53742	16494.4125
450.6534	16962.5125
454.76644	17236.8125
458.87653	17326.4125
462.98368	17161.5125
467.08789	16938.0125
471.18916	16654.3125
475.2875	16319.7125
479.38291	16060.1125
483.4754	15865.1125
487.56496	15726.7125
491.6516	15603.8125
495.73531	15545.3125
499.81612	15571.8125
503.89401	15700.4125
507.96899	15749.7125
512.04106	15743.4125
516.11023	15747.3125
520.1765	15714.2125
524.23987	15661.8125
528.30034	15585.5125
532.35792	15486.6125
536.41261	15324.2125
540.46441	15157.7125
544.51333	15077.2125
548.55936	15168.6125
552.60252	15425.3125
556.64279	15776.9125
560.6802	15969.2125
564.71473	16040.4125
568.7464	16136.8125
572.7752	16445.8125
576.80114	16632.1125
580.82422	16906.1125
584.84444	17399.3125
588.86181	18124.1125
592.87633	18875.8125
596.888	19149.5125
600.89682	18719.6125
604.9028	18850.6125
608.90594	20504.5125
612.90624	22519.6125
616.90371	21268.9125
620.89834	17652.7125
624.89015	16038.7125
628.87913	15853.0125
632.86528	15940.8125
636.84862	15932.8125
640.82913	15726.9125
644.80683	15346.6125
648.78172	15035.5125
652.75379	15007.9125
656.72306	15231.0125
660.68952	15533.0125
664.65319	15402.7125
668.61405	15104.4125
672.57211	15093.4125
676.52738	15186.2125
680.47986	15218.3125
684.42955	15082.9125
688.37646	14942.7125
692.32058	15017.6125
696.26192	15166.9125
700.20048	15365.4125
704.13626	15433.3125
708.06928	15356.2125
711.99952	15225.9125
715.927	15218.0125
719.85171	15329.5125
723.77365	15299.0125
727.69284	15153.5125
731.60928	14997.1125
735.52295	14963.8125
739.43388	14993.3125
743.34206	15042.5125
747.24749	15110.5125
751.15017	15223.0125
755.05012	15387.7125
758.94733	15795.8125
762.8418	16556.2125
766.73354	17868.7125
770.62254	19256.3125
774.50882	19764.0125
778.39237	19028.6125
782.27321	17632.2125
786.15132	16404.8125
790.02671	15660.0125
793.89938	15258.4125
797.76935	15095.0125
801.6366	15038.9125
805.50115	14976.6125
809.36299	14853.1125
813.22213	14758.8125
817.07857	14688.4125
820.93231	14647.3125
824.78336	14593.4125
828.63172	14574.8125
832.47738	14584.1125
836.32036	14615.2125
840.16066	14693.4125
843.99827	14735.1125
847.8332	14675.6125
851.66546	14641.7125
855.49504	14619.0125
859.32195	14617.3125
863.1462	14591.3125
866.96777	14557.4125
870.78668	14546.5125
874.60293	14568.7125
878.41652	14628.2125
882.22745	14688.6125
886.03573	14799.9125
889.84136	14749.2125
893.64433	14668.3125
897.44466	14604.1125
901.24235	14529.6125
905.0374	14504.6125
908.8298	14431.3125
912.61957	14418.4125
916.40671	14493.4125
920.19121	14680.0125
923.97308	14842.1125
927.75233	14934.7125
931.52895	14946.0125
935.30295	14780.9125
939.07433	14523.2125
942.84309	14335.8125
946.60924	14203.6125
950.37278	14144.0125
954.13371	14119.0125
957.89203	14054.1125
961.64774	14030.5125
965.40086	14032.3125
969.15137	13976.7125
972.89929	13949.3125
976.64461	13936.8125
980.38733	13936.0125
984.12747	14021.9125
987.86502	14154.8125
991.59999	14307.1125
995.33237	14547.2125
999.06217	14919.1125
1002.78939	15391.4125
1006.51404	15667.1125
1010.23611	15855.4125
1013.95561	15988.5125
1017.67255	16036.7125
1021.38692	15888.4125
1025.09872	15722.4125
1028.80796	15733.1125
1032.51465	16083.9125
1036.21877	16466.9125
1039.92035	16582.1125
1043.61937	16464.3125
1047.31584	16120.6125
1051.00976	15768.8125
1054.70114	15501.5125
1058.38998	15390.3125
1062.07627	15395.8125
1065.76003	15457.8125
1069.44126	15562.4125
1073.11995	15756.1125
1076.79611	16005.7125
1080.46974	16160.2125
1084.14085	16368.7125
1087.80943	16517.3125
1091.47549	16622.8125
1095.13903	16559.9125
1098.80005	16316.5125
1102.45857	15995.2125
1106.11456	15823.7125
1109.76805	15801.3125
1113.41903	15882.4125
1117.06751	16011.9125
1120.71348	16238.1125
1124.35696	16455.5125
1127.99793	16703.6125
1131.63641	16800.2125
1135.2724	16649.8125
1138.90589	16492.6125
1142.5369	16360.3125
1146.16542	16320.3125
1149.79145	16312.2125
1153.415	16303.4125
1157.03607	16487.0125
1160.65467	16875.3125
1164.27079	17496.1125
1167.88443	18345.6125
1171.49561	19397.3125
1175.10432	20780.3125
1178.71056	22671.1125
1182.31434	24386.2125
1185.91565	25260.4125
1189.51451	25028.9125
1193.11091	24114.8125
1196.70485	23027.1125
1200.29634	21961.1125
1203.88538	21166.8125
1207.47197	20461.3125
1211.05612	19849.7125
1214.63782	19363.6125
1218.21708	19081.0125
1221.79391	18992.7125
1225.36829	19014.1125
1228.94024	18886.5125
1232.50976	18596.3125
1236.07685	18267.8125
1239.6415	18053.3125
1243.20374	17999.0125
1246.76355	18142.1125
1250.32093	18386.7125
1253.8759	18729.1125
1257.42845	19196.5125
1260.97859	19723.7125
1264.52631	20316.6125
1268.07163	20942.3125
1271.61453	21614.4125
1275.15503	22223.1125
1278.69312	22760.5125
1282.22882	23162.5125
1285.76211	23715.3125
1289.29301	24448.3125
1292.82151	25341.7125
1296.34761	26515.1125
1299.87133	28048.2125
1303.39266	29861.1125
1306.9116	31861.8125
1310.42815	33652.0125
1313.94233	34490.5125
1317.45412	33954.2125
1320.96354	32542.4125
1324.47058	31136.9125
1327.97525	29833.0125
1331.47754	29006.6125
1334.97747	28511.3125
1338.47502	28215.5125
1341.97022	28156.0125
1345.46305	28183.5125
1348.95352	28560.0125
1352.44163	29318.5125
1355.92738	30782.1125
1359.41078	32980.8125
1362.89183	34771.9125
1366.37053	34282.6125
1369.84688	31066.7125
1373.32088	27271.5125
1376.79254	24607.8125
1380.26186	23467.5125
1383.72883	23043.3125
1387.19347	22818.9125
1390.65578	22386.6125
1394.11575	22128.1125
1397.57339	22194.3125
1401.0287	22383.4125
1404.48168	22516.9125
1407.93234	22561.9125
1411.38068	22374.7125
1414.82669	21967.4125
1418.27039	21506.4125
1421.71177	20956.1125
1425.15083	20429.9125
1428.58758	20216.6125
1432.02203	20419.0125
1435.45416	20822.3125
1438.88399	21249.4125
1442.31151	21489.4125
1445.73673	21575.8125
1449.15965	21648.1125
1452.58027	21597.7125
1455.9986	21483.6125
1459.41463	21532.2125
1462.82837	21824.8125
1466.23982	22300.0125
1469.64898	22781.9125
1473.05586	23156.7125
1476.46045	23368.7125
1479.86276	23453.7125
1483.26279	23418.7125
1486.66054	23510.6125
1490.05602	23730.4125
1493.44922	24181.3125
1496.84016	24658.9125
1500.22882	25412.3125
1503.61521	26474.6125
1506.99934	27772.3125
1510.38121	28724.8125
1513.76081	28806.8125
1517.13816	27873.9125
1520.51324	26280.4125
1523.88607	24895.3125
1527.25665	24124.7125
1530.62498	23760.3125
1533.99105	23481.1125
1537.35488	23195.2125
1540.71647	22767.3125
1544.07581	22293.8125
1547.4329	21869.2125
1550.78776	21515.5125
1554.14038	21326.2125
1557.49077	21205.9125
1560.83892	21219.2125
1564.18484	21282.2125
1567.52853	21519.0125
1570.86999	21755.1125
1574.20922	22041.0125
1577.54624	22202.4125
1580.88103	21960.8125
1584.2136	21643.2125
1587.54395	21992.9125
1590.87208	22923.0125
1594.19801	24353.9125
1597.52172	25821.4125
1600.84321	26367.1125
1604.16251	25542.6125
1607.47959	23743.7125
1610.79447	21829.1125
1614.10715	20056.2125
1617.41763	18652.0125
1620.7259	17797.1125
1624.03199	17315.6125
1627.33587	17396.1125
1630.63757	17826.6125
1633.93707	18795.1125
1637.23439	20393.5125
1640.52951	22776.3125
1643.82246	25707.3125
1647.11321	28105.4125
1650.40179	28643.9125
1653.68819	26715.6125
1656.97241	23239.0125
1660.25446	19938.0125
1663.53433	17594.7125
1666.81203	16207.2125
1670.08756	15342.3125
1673.36092	14835.2125
1676.63211	14487.1125
1679.90115	14268.6125
1683.16801	14079.3125
1686.43272	13907.7125
1689.69527	13774.8125
1692.95567	13652.7125
1696.2139	13484.3125
1699.46999	13360.8125
1702.72392	13319.4125
1705.97571	13326.8125
1709.22535	13406.5125
1712.47284	13465.3125
1715.71819	13467.0125
1718.96139	13445.4125
1722.20246	13431.8125
1725.44139	13357.6125
1728.67818	13324.7125
1731.91284	13261.0125
1735.14537	13155.5125
1738.37576	13135.2125
1741.60403	13080.6125
1744.83017	13042.2125
1748.05418	13005.9125
1751.27607	12973.1125
1754.49584	12937.1125
1757.71349	12834.5125
1760.92903	12812.2125
1764.14244	12795.1125
1767.35375	12777.1125
1770.56294	12742.5125
1773.77002	12709.8125
1776.97499	12759.1125
1780.17785	12781.6125
1783.37861	12791.6125
1786.57727	12774.8125
1789.77382	12785.8125
1792.96828	12760.4125
1796.16064	12748.6125
1799.3509	12721.3125
1802.53907	12695.0125
1805.72514	12677.2125
1808.90913	12649.0125
1812.09102	12610.7125
1815.27083	12599.7125
1818.44856	12600.2125
1821.6242	12570.7125
1824.79776	12543.8125
1827.96924	12574.2125
1831.13864	12576.7125
1834.30597	12539.5125
1837.47122	12520.7125
1840.6344	12559.5125
1843.7955	12548.5125
1846.95454	12541.9125
1850.11151	12525.2125
1853.26642	12485.2125
1856.41926	12490.2125
1859.57004	12498.2125
1862.71876	12475.2125
1865.86542	12472.9125
1869.01003	12449.5125
1872.15258	12466.0125
1875.29308	12434.2125
1878.43152	12445.0125
1881.56792	12437.0125
1884.70227	12420.3125
1887.83457	12408.1125
1890.96482	12392.6125
1894.09304	12378.9125
1897.21921	12385.3125
1900.34335	12334.7125
1903.46544	12337.8125
1906.58551	12324.3125
1909.70353	12293.9125
1912.81953	12297.8125
1915.93349	12308.6125
1919.04543	12253.0125
1922.15534	12253.8125
1925.26322	12238.0125
1928.36908	12189.9125
1931.47292	12188.4125
1934.57473	12162.1125
1937.67453	12121.3125
1940.77232	12095.2125
1943.86808	12097.0125
1946.96184	12062.2125
1950.05358	12016.2125
1953.14331	11994.7125
1956.23103	11947.5125
1959.31675	11941.0125
1962.40046	11910.0125
1965.48217	11873.4125
1968.56188	11855.8125
1971.63959	11827.5125
1974.7153	11774.0125
1977.78901	11775.3125
1980.86073	11727.8125
1983.93046	11692.7125
1986.99819	11613.1125
1990.06394	11604.6125
1993.1277	11602.9125
1996.18947	11549.5125
1999.24925	11526.8125
2002.30706	11506.8125
2005.36288	11441.5125
2008.41672	11442.3125
2011.46859	11390.0125
2014.51848	11370.7125
2017.56639	11335.0125
2020.61233	11313.9125
2023.6563	11316.8125
2026.6983	11266.8125
2029.73833	11255.6125
2032.7764	11254.6125
2035.8125	11231.3125
2038.84664	11215.2125
2041.87881	11230.3125
2044.90903	11181.3125
2047.93729	11165.1125
2050.96359	11182.3125
2053.98794	11179.2125
2057.01034	11152.7125
2060.03078	11158.9125
2063.04927	11128.4125
2066.06582	11100.4125
2069.08042	11139.5125
2072.09307	11087.8125
2075.10378	11107.9125
2078.11255	11100.1125
2081.11938	11096.4125
2084.12426	11087.4125
2087.12722	11089.0125
2090.12824	11077.5125
2093.12732	11097.0125
2096.12447	11082.8125
2099.11969	11102.4125
2102.11299	11123.2125
2105.10435	11124.7125
2108.09379	11111.4125
2111.08131	11138.4125
2114.0669	11125.8125
2117.05057	11116.3125
2120.03233	11122.1125
2123.01216	11172.8125
2125.99008	11176.2125
2128.96609	11188.5125
2131.94018	11206.6125
2134.91236	11201.1125
2137.88263	11188.4125
2140.851	11231.1125
2143.81746	11225.3125
2146.78201	11247.7125
2149.74466	11245.1125
2152.7054	11232.0125
2155.66425	11220.2125
2158.6212	11236.7125
2161.57625	11224.5125
2164.52941	11243.5125
2167.48067	11223.9125
2170.43004	11190.4125
2173.37752	11247.6125
2176.32311	11234.8125
2179.26681	11258.2125
2182.20863	11231.9125
2185.14856	11244.8125
2188.08661	11250.4125
2191.02278	11267.1125
2193.95707	11233.8125
2196.88948	11240.9125
2199.82001	11239.4125
2202.74867	11259.9125
2205.67545	11264.1125
2208.60037	11239.5125
2211.52341	11189.3125
2214.44458	11195.4125
2217.36388	11189.1125
2220.28132	11175.4125
2223.1969	11145.1125
2226.11061	11147.4125
2229.02246	11117.8125
2231.93245	11098.8125
2234.84058	11094.7125
2237.74686	11099.3125
2240.65128	11073.1125
2243.55385	11067.0125
2246.45456	11075.6125
2249.35343	11042.5125
2252.25044	11029.5125
2255.14561	11007.4125
2258.03893	10979.2125
2260.93041	10964.9125
2263.82004	10958.8125
2266.70783	10947.0125
2269.59378	10910.4125
2272.4779	10920.0125
2275.36017	10855.5125
2278.24061	10853.6125
2281.11922	10834.0125
2283.996	10809.9125
2286.87094	10822.0125
2289.74405	10801.8125
2292.61534	10778.8125
2295.4848	10786.2125
2298.35243	10816.5125
2301.21824	10817.6125
2304.08223	10808.1125
2306.94439	10820.3125
2309.80474	10831.6125
2312.66327	10841.3125
2315.51999	10816.7125
2318.37489	10834.6125
2321.22797	10810.6125
2324.07925	10808.5125
2326.92871	10797.1125
2329.77637	10794.4125
2332.62222	10764.7125
2335.46626	10746.7125
2338.3085	10766.7125
2341.14893	10758.1125
2343.98756	10764.9125
2346.8244	10760.3125
2349.65943	10791.8125
2352.49267	10753.1125
2355.32411	10773.8125
2358.15376	10755.4125
2360.98161	10736.8125
2363.80768	10737.9125
2366.63195	10714.3125
2369.45444	10707.2125
2372.27514	10683.8125
2375.09405	10682.1125
2377.91118	10668.1125
2380.72652	10647.5125
2383.54009	10604.6125
2386.35187	10616.9125
2389.16188	10586.3125
2391.97011	10570.4125
2394.77657	10551.0125
2397.58125	10555.2125
2400.38416	10539.6125
2403.18529	10533.1125
2405.98466	10520.1125
2408.78226	10498.4125
2411.57809	10467.1125
2414.37216	10449.3125
2417.16446	10441.6125
2419.955	10445.5125
2422.74378	10461.2125
2425.5308	10435.2125
2428.31606	10435.2125
2431.09956	10426.1125
2433.88131	10415.7125
2436.6613	10443.8125
2439.43954	10440.3125
2442.21603	10440.6125
2444.99077	10429.1125
2447.76377	10464.0125
2450.53501	10437.3125
2453.30451	10444.8125
2456.07226	10431.8125
2458.83827	10416.3125
2461.60254	10412.7125
2464.36507	10445.2125
2467.12586	10441.2125
2469.88492	10466.4125
2472.64224	10464.2125
2475.39782	10456.1125
2478.15167	10432.7125
2480.90379	10451.3125
2483.65417	10442.4125
2486.40283	10459.3125
2489.14976	10464.3125
2491.89497	10463.1125
2494.63845	10448.4125
2497.3802	10434.2125
2500.12024	10440.1125
2502.85855	10471.8125
2505.59514	10444.7125
2508.33002	10412.3125
2511.06318	10421.9125
2513.79462	10387.5125
2516.52435	10405.9125
2519.25237	10374.0125
2521.97867	10363.7125
2524.70327	10359.0125
2527.42616	10346.0125
2530.14734	10374.0125
2532.86681	10368.2125
2535.58458	10383.7125
2538.30065	10392.0125
2541.01501	10368.9125
2543.72768	10349.1125
2546.43864	10332.4125
2549.14791	10350.3125
2551.85548	10316.2125
2554.56136	10307.9125
2557.26554	10302.6125
2559.96803	10306.1125
2562.66883	10304.8125
2565.36794	10306.1125
2568.06536	10299.9125
2570.7611	10284.4125
2573.45514	10276.2125
2576.14751	10281.9125
2578.83819	10252.1125
2581.52719	10241.5125
2584.21451	10230.9125
2586.90015	10241.4125
2589.58411	10221.7125
2592.2664	10215.1125
2594.94701	10182.3125
2597.62594	10223.0125
2600.30321	10229.9125
2602.9788	10222.7125
2605.65273	10229.7125
2608.32498	10219.5125
2610.99557	10210.8125
2613.66449	10206.0125
2616.33175	10196.9125
2618.99734	10229.4125
2621.66128	10209.5125
2624.32355	10201.9125
2626.98416	10219.9125
2629.64311	10162.9125
2632.30041	10171.2125
2634.95605	10156.3125
2637.61004	10116.6125
2640.26238	10114.8125
2642.91306	10123.2125
2645.56209	10138.8125
2648.20948	10106.2125
2650.85521	10111.1125
2653.4993	10132.4125
2656.14175	10098.9125
2658.78255	10115.5125
2661.42171	10097.5125
2664.05923	10150.0125
2666.6951	10174.2125
2669.32934	10182.3125
2671.96194	10194.4125
2674.59291	10164.3125
2677.22224	10151.3125
2679.84993	10186.3125
2682.476	10148.9125
2685.10043	10158.4125
2687.72324	10126.5125
2690.34441	10146.2125
2692.96396	10152.1125
2695.58188	10160.5125
2698.19818	10105.8125
2700.81285	10116.7125
2703.4259	10101.4125
2706.03733	10078.7125
2708.64714	10068.4125
2711.25533	10111.4125
2713.86191	10147.8125
2716.46687	10175.8125
2719.07021	10157.5125
2721.67194	10217.3125
2724.27206	10190.1125
2726.87057	10214.2125
2729.46747	10200.1125
2732.06276	10214.0125
2734.65644	10200.6125
2737.24852	10207.1125
2739.83899	10176.8125
2742.42786	10200.1125
2745.01513	10182.4125
2747.60079	10193.9125
2750.18486	10200.0125
2752.76733	10193.9125
2755.3482	10175.9125
2757.92747	10175.8125
2760.50515	10180.2125
2763.08123	10177.6125
2765.65573	10164.5125
2768.22863	10150.6125
2770.79994	10139.4125
2773.36967	10137.4125
2775.9378	10126.4125
2778.50435	10141.8125
2781.06932	10123.3125
2783.6327	10150.4125
2786.1945	10139.1125
2788.75471	10140.9125
2791.31335	10126.0125
2793.87041	10101.5125
2796.42589	10080.0125
2798.97979	10064.3125
2801.53212	10088.0125
2804.08288	10064.9125
2806.63206	10027.3125
2809.17967	10018.5125
2811.72571	9990.3125
2814.27018	9984.8125
2816.81308	9979.7125
2819.35442	9987.9125
2821.89419	9978.0125
2824.43239	9988.1125
2826.96904	9958.5125
2829.50412	9994.0125
2832.03763	9942.9125
2834.56959	9966.4125
2837.1	9966.9125
2839.62884	9945.2125
2842.15613	9940.0125
2844.68186	9974.9125
2847.20604	9969.2125
2849.72867	9995.0125
2852.24974	9974.6125
2854.76927	9953.7125
2857.28724	9934.8125
2859.80367	9940.2125
2862.31855	9919.7125
2864.83189	9894.1125
2867.34368	9891.5125
2869.85393	9925.6125
2872.36264	9929.9125
2874.8698	9919.6125
2877.37543	9933.3125
2879.87952	9930.6125
2882.38207	9921.8125
2884.88308	9912.9125
2887.38256	9937.9125
2889.88051	9921.6125
2892.37692	9943.3125
2894.8718	9943.4125
2897.36515	9961.1125
2899.85698	9976.9125
2902.34727	9984.1125
2904.83604	10000.2125
2907.32328	10022.5125
2909.809	10040.5125
2912.29319	10041.6125
2914.77587	10036.1125
2917.25702	10049.0125
2919.73665	10035.1125
2922.21476	10040.5125
2924.69136	10020.9125
2927.16644	10040.1125
2929.64	10002.1125
2932.11205	10014.6125
2934.58258	9991.6125
2937.05161	9992.8125
2939.51912	9981.0125
2941.98513	10017.4125
2944.44962	9978.2125
2946.91261	9923.3125
2949.37409	9956.5125
2951.83407	9951.9125
2954.29254	9939.0125
2956.74951	9944.8125
2959.20498	9932.8125
2961.65895	9910.3125
2964.11142	9890.7125
2966.56239	9882.6125
2969.01186	9881.6125
2971.45984	9878.8125
2973.90632	9863.8125
2976.35131	9825.9125
2978.7948	9826.2125
2981.23681	9821.0125
2983.67732	9787.5125
2986.11635	9778.6125
2988.55388	9758.2125
2990.98993	9733.5125
2993.4245	9712.6125
2995.85758	9715.5125
2998.28917	9696.1125
3000.71928	9683.3125
3003.14791	9675.8125
3005.57506	9655.8125
3008.00073	9621.5125
3010.42493	9654.1125
3012.84764	9598.2125
3015.26888	9633.3125
3017.68865	9604.7125
3020.10694	9597.3125
3022.52376	9567.8125
3024.9391	9550.7125
3027.35298	9541.0125
3029.76539	9524.3125
3032.17632	9523.9125
3034.5858	9512.7125
