Data from AgNPs_FTO_APTES_UA_50uM_CRN_2uM_R6G_10uM_NaF_0.1M_Addition_RamanShift__9__12-04-34-768.txt Node

Date: Mon Feb 21 12:04:34 GMT 2022
User: TCL
Spectrometer: QEP01345
Trigger mode: 4
Integration Time (sec): 7.000000E0
Scans to average: 10
Electric dark correction enabled: true
Nonlinearity correction enabled: false
Boxcar width: 0
XAxis mode: Raman Shifts
Number of Pixels in Spectrum: 1044
>>>>>Begin Spectral Data<<<<<
46.04893	0.525
50.45542	-0.875
54.85868	-0.475
59.25871	-2.975
63.6555	70.725
68.04907	77.725
72.43941	78.525
76.82654	83.625
81.21044	88.625
85.59113	89.525
89.96862	90.025
94.34289	95.625
98.71396	96.225
103.08183	104.225
107.4465	106.325
111.80798	108.025
116.16626	105.725
120.52136	107.525
124.87327	118.525
129.222	117.625
133.56755	123.725
137.90993	137.225
142.24913	146.425
146.58517	166.025
150.91804	189.725
155.24774	226.525
159.57429	279.125
163.89768	356.325
168.21792	469.825
172.53501	639.025
176.84895	898.925
181.15975	1266.425
185.46741	1777.825
189.77193	2463.125
194.07331	3284.525
198.37157	4254.625
202.6667	5245.725
206.9587	6240.325
211.24758	7210.025
215.53334	8183.225
219.81599	9184.925
224.09553	10328.125
228.37195	11587.025
232.64527	12967.925
236.91549	14416.425
241.18261	15866.625
245.44663	17273.825
249.70755	18513.725
253.96539	19616.125
258.22014	20532.925
262.4718	21234.825
266.72039	21714.525
270.96589	21946.925
275.20832	21997.025
279.44768	21830.725
283.68397	21569.325
287.91719	21361.525
292.14735	21203.925
296.37445	21133.525
300.59849	21126.925
304.81948	21239.825
309.03742	21273.925
313.25231	21209.125
317.46415	20968.125
321.67296	20597.625
325.87872	20308.325
330.08145	20154.525
334.28114	20159.025
338.47781	20316.025
342.67145	20539.325
346.86207	20817.825
351.04966	21199.425
355.23424	21646.425
359.4158	22031.025
363.59435	22356.125
367.76989	22557.425
371.94243	22649.625
376.11196	22739.625
380.27849	22783.725
384.44203	22880.725
388.60257	23047.025
392.76012	23266.625
396.91468	23578.025
401.06626	23903.925
405.21485	24132.425
409.36047	24029.525
413.50311	23767.925
417.64277	23586.225
421.77947	23619.025
425.9132	23644.325
430.04396	23790.225
434.17176	23910.525
438.2966	24005.025
442.41849	24344.925
446.53742	24889.325
450.6534	25396.725
454.76644	25844.225
458.87653	25988.225
462.98368	25969.125
467.08789	25850.625
471.18916	25496.325
475.2875	25191.325
479.38291	24960.025
483.4754	24821.525
487.56496	24641.725
491.6516	24444.925
495.73531	24230.125
499.81612	24094.225
503.89401	24240.425
507.96899	24325.825
512.04106	24316.625
516.11023	24236.825
520.1765	24113.725
524.23987	23943.625
528.30034	23810.125
532.35792	23680.425
536.41261	23478.625
540.46441	23283.925
544.51333	23245.925
548.55936	23404.025
552.60252	23760.625
556.64279	24224.525
560.6802	24560.325
564.71473	24811.925
568.7464	25189.525
572.7752	25768.825
576.80114	26427.025
580.82422	27096.625
584.84444	27827.725
588.86181	28889.825
592.87633	29861.825
596.888	29886.825
600.89682	28934.525
604.9028	28606.925
608.90594	30108.425
612.90624	31847.225
616.90371	30202.025
620.89834	26271.225
624.89015	24518.625
628.87913	24318.125
632.86528	24513.725
636.84862	24589.125
640.82913	24293.625
644.80683	23754.525
648.78172	23409.625
652.75379	23414.125
656.72306	23654.225
660.68952	24001.525
664.65319	23939.425
668.61405	23653.325
672.57211	23598.225
676.52738	23805.625
680.47986	23736.825
684.42955	23581.525
688.37646	23510.825
692.32058	23647.625
696.26192	23948.425
700.20048	24208.425
704.13626	24410.925
708.06928	24393.125
711.99952	24319.225
715.927	24305.925
719.85171	24319.325
723.77365	24258.925
727.69284	23957.525
731.60928	23671.025
735.52295	23528.025
739.43388	23525.825
743.34206	23643.125
747.24749	23757.125
751.15017	23943.425
755.05012	24246.325
758.94733	24762.625
762.8418	25742.625
766.73354	27187.625
770.62254	28596.325
774.50882	28895.125
778.39237	27881.225
782.27321	26435.725
786.15132	25194.625
790.02671	24352.425
793.89938	23941.225
797.76935	23701.225
801.6366	23634.025
805.50115	23580.025
809.36299	23497.825
813.22213	23354.025
817.07857	23326.725
820.93231	23251.325
824.78336	23132.525
828.63172	23076.625
832.47738	23040.725
836.32036	23043.825
840.16066	23060.225
843.99827	23091.425
847.8332	23115.825
851.66546	23086.325
855.49504	23152.325
859.32195	23201.725
863.1462	23145.425
866.96777	23094.525
870.78668	23056.725
874.60293	23117.825
878.41652	23152.625
882.22745	23243.625
886.03573	23315.625
889.84136	23314.925
893.64433	23254.925
897.44466	23162.025
901.24235	23109.625
905.0374	23047.425
908.8298	22989.325
912.61957	22999.025
916.40671	23135.925
920.19121	23366.725
923.97308	23605.525
927.75233	23679.625
931.52895	23506.525
935.30295	23211.625
939.07433	22835.725
942.84309	22638.725
946.60924	22513.225
950.37278	22492.625
954.13371	22485.525
957.89203	22446.025
961.64774	22462.225
965.40086	22455.025
969.15137	22481.325
972.89929	22377.125
976.64461	22328.125
980.38733	22316.325
984.12747	22402.225
987.86502	22501.125
991.59999	22588.825
995.33237	22800.225
999.06217	23138.625
1002.78939	23474.725
1006.51404	23957.225
1010.23611	24324.725
1013.95561	24564.925
1017.67255	24608.825
1021.38692	24416.725
1025.09872	24071.525
1028.80796	23829.925
1032.51465	23819.025
1036.21877	23904.225
1039.92035	24047.525
1043.61937	24059.425
1047.31584	24036.225
1051.00976	23961.725
1054.70114	23965.025
1058.38998	23999.525
1062.07627	24204.925
1065.76003	24457.625
1069.44126	24774.125
1073.11995	25160.425
1076.79611	25574.625
1080.46974	25773.025
1084.14085	25938.025
1087.80943	26191.025
1091.47549	26336.825
1095.13903	26410.125
1098.80005	26096.525
1102.45857	25593.525
1106.11456	25223.025
1109.76805	24976.025
1113.41903	24881.925
1117.06751	24984.025
1120.71348	25173.625
1124.35696	25416.925
1127.99793	25645.625
1131.63641	25813.825
1135.2724	25729.025
1138.90589	25658.025
1142.5369	25663.225
1146.16542	25796.325
1149.79145	25924.525
1153.415	26074.425
1157.03607	26311.225
1160.65467	26763.725
1164.27079	27647.925
1167.88443	28734.625
1171.49561	29963.525
1175.10432	31557.925
1178.71056	33522.125
1182.31434	35363.525
1185.91565	36368.025
1189.51451	36394.525
1193.11091	35768.825
1196.70485	34770.125
1200.29634	33680.825
1203.88538	32841.325
1207.47197	32304.325
1211.05612	31885.325
1214.63782	31374.425
1218.21708	30761.125
1221.79391	30088.525
1225.36829	29678.925
1228.94024	29411.825
1232.50976	29164.325
1236.07685	28810.225
1239.6415	28649.125
1243.20374	28597.625
1246.76355	28773.825
1250.32093	29139.925
1253.8759	29595.725
1257.42845	30209.825
1260.97859	31024.025
1264.52631	31897.825
1268.07163	32721.925
1271.61453	33484.825
1275.15503	34222.025
1278.69312	34994.925
1282.22882	35854.525
1285.76211	36886.125
1289.29301	37987.725
1292.82151	39269.425
1296.34761	40837.025
1299.87133	42685.225
1303.39266	44629.525
1306.9116	46336.125
1310.42815	47801.025
1313.94233	48492.125
1317.45412	48252.025
1320.96354	47434.525
1324.47058	46691.825
1327.97525	46038.425
1331.47754	45716.725
1334.97747	45451.825
1338.47502	45233.925
1341.97022	44974.725
1345.46305	44613.725
1348.95352	44433.925
1352.44163	44542.025
1355.92738	45383.825
1359.41078	46917.425
1362.89183	48450.025
1366.37053	48156.825
1369.84688	45009.225
1373.32088	40772.725
1376.79254	37778.925
1380.26186	36419.225
1383.72883	36189.925
1387.19347	36071.225
1390.65578	35569.525
1394.11575	35259.125
1397.57339	35317.125
1401.0287	35618.325
1404.48168	35846.725
1407.93234	35904.925
1411.38068	35508.525
1414.82669	34743.125
1418.27039	33760.425
1421.71177	32784.925
1425.15083	32021.525
1428.58758	31695.125
1432.02203	31892.025
1435.45416	32535.125
1438.88399	33180.425
1442.31151	33698.225
1445.73673	33882.325
1449.15965	34034.825
1452.58027	34145.125
1455.9986	34096.325
1459.41463	34271.725
1462.82837	34684.025
1466.23982	35316.225
1469.64898	35917.925
1473.05586	36317.925
1476.46045	36454.625
1479.86276	36383.525
1483.26279	36371.925
1486.66054	36427.525
1490.05602	36691.325
1493.44922	37160.525
1496.84016	37773.125
1500.22882	38611.725
1503.61521	39578.625
1506.99934	40666.625
1510.38121	41459.025
1513.76081	41491.325
1517.13816	40636.125
1520.51324	39494.325
1523.88607	38436.925
1527.25665	37935.325
1530.62498	37724.225
1533.99105	37303.725
1537.35488	36802.625
1540.71647	36050.225
1544.07581	35211.825
1547.4329	34442.825
1550.78776	33764.125
1554.14038	33329.925
1557.49077	33137.125
1560.83892	33042.525
1564.18484	33097.925
1567.52853	33261.325
1570.86999	33537.425
1574.20922	33981.925
1577.54624	34389.225
1580.88103	34409.825
1584.2136	34483.425
1587.54395	35246.825
1590.87208	36646.625
1594.19801	38526.625
1597.52172	40289.525
1600.84321	40625.825
1604.16251	39070.625
1607.47959	36615.525
1610.79447	34010.025
1614.10715	31556.525
1617.41763	29529.425
1620.7259	28182.425
1624.03199	27486.425
1627.33587	27489.125
1630.63757	28123.925
1633.93707	29579.625
1637.23439	32084.025
1640.52951	35757.825
1643.82246	40195.225
1647.11321	43674.425
1650.40179	44400.925
1653.68819	41527.125
1656.97241	36603.725
1660.25446	31794.925
1663.53433	28207.925
1666.81203	26040.625
1670.08756	24697.725
1673.36092	23854.825
1676.63211	23349.725
1679.90115	22947.625
1683.16801	22655.725
1686.43272	22444.925
1689.69527	22248.725
1692.95567	22028.625
1696.2139	21856.125
1699.46999	21677.425
1702.72392	21585.525
1705.97571	21636.325
1709.22535	21729.725
1712.47284	21767.525
1715.71819	21766.525
1718.96139	21746.125
1722.20246	21715.425
1725.44139	21604.925
1728.67818	21506.825
1731.91284	21377.225
1735.14537	21306.125
1738.37576	21221.025
1741.60403	21126.825
1744.83017	21018.925
1748.05418	20975.825
1751.27607	20923.625
1754.49584	20841.725
1757.71349	20756.725
1760.92903	20728.525
1764.14244	20713.325
1767.35375	20684.725
1770.56294	20689.125
1773.77002	20671.725
1776.97499	20673.825
1780.17785	20705.425
1783.37861	20719.125
1786.57727	20675.625
1789.77382	20702.725
1792.96828	20657.825
1796.16064	20651.325
1799.3509	20613.125
1802.53907	20576.925
1805.72514	20524.525
1808.90913	20484.225
1812.09102	20427.225
1815.27083	20384.525
1818.44856	20374.625
1821.6242	20400.425
1824.79776	20385.925
1827.96924	20379.525
1831.13864	20323.825
1834.30597	20355.125
1837.47122	20369.425
1840.6344	20338.325
1843.7955	20312.625
1846.95454	20298.525
1850.11151	20275.625
1853.26642	20309.325
1856.41926	20267.725
1859.57004	20259.025
1862.71876	20212.625
1865.86542	20218.325
1869.01003	20201.625
1872.15258	20180.525
1875.29308	20149.825
1878.43152	20156.325
1881.56792	20117.525
1884.70227	20116.325
1887.83457	20095.825
1890.96482	20039.225
1894.09304	20029.425
1897.21921	20022.725
1900.34335	19967.725
1903.46544	19946.025
1906.58551	19931.725
1909.70353	19889.025
1912.81953	19895.125
1915.93349	19842.125
1919.04543	19820.825
1922.15534	19789.425
1925.26322	19782.525
1928.36908	19741.525
1931.47292	19663.325
1934.57473	19644.325
1937.67453	19626.425
1940.77232	19524.625
1943.86808	19504.725
1946.96184	19461.125
1950.05358	19405.525
1953.14331	19372.525
1956.23103	19307.825
1959.31675	19228.925
1962.40046	19204.525
1965.48217	19126.925
1968.56188	19114.125
1971.63959	19058.325
1974.7153	18981.825
1977.78901	18953.225
1980.86073	18878.625
1983.93046	18845.125
1986.99819	18773.825
1990.06394	18731.825
1993.1277	18705.125
1996.18947	18652.425
1999.24925	18594.125
2002.30706	18504.125
2005.36288	18479.525
2008.41672	18444.025
2011.46859	18364.525
2014.51848	18333.625
2017.56639	18281.125
2020.61233	18227.525
2023.6563	18221.825
2026.6983	18184.525
2029.73833	18136.325
2032.7764	18098.525
2035.8125	18046.525
2038.84664	18038.825
2041.87881	18020.725
2044.90903	17991.325
2047.93729	17923.125
2050.96359	17911.625
2053.98794	17892.925
2057.01034	17890.225
2060.03078	17855.825
2063.04927	17879.325
2066.06582	17860.125
2069.08042	17833.925
2072.09307	17802.425
2075.10378	17810.425
2078.11255	17850.425
2081.11938	17852.025
2084.12426	17804.825
2087.12722	17814.225
2090.12824	17787.925
2093.12732	17777.025
2096.12447	17793.425
2099.11969	17799.125
2102.11299	17818.225
2105.10435	17843.725
2108.09379	17843.325
2111.08131	17854.725
2114.0669	17839.525
2117.05057	17897.125
2120.03233	17866.125
2123.01216	17908.625
2125.99008	17911.325
2128.96609	17950.725
2131.94018	17976.325
2134.91236	17993.425
2137.88263	17988.725
2140.851	18007.125
2143.81746	18024.825
2146.78201	18019.925
2149.74466	18017.925
2152.7054	17999.025
2155.66425	18001.225
2158.6212	17985.025
2161.57625	18015.125
2164.52941	18017.525
2167.48067	17996.825
2170.43004	17993.125
2173.37752	17973.525
2176.32311	17975.325
2179.26681	17981.525
2182.20863	17979.325
2185.14856	17988.625
2188.08661	17978.025
2191.02278	17990.825
2193.95707	17948.625
2196.88948	17963.125
2199.82001	17970.425
2202.74867	17936.825
2205.67545	17920.725
2208.60037	17922.425
2211.52341	17885.625
2214.44458	17850.325
2217.36388	17789.725
2220.28132	17750.825
2223.1969	17717.325
2226.11061	17697.525
2229.02246	17681.525
2231.93245	17688.625
2234.84058	17667.225
2237.74686	17656.225
2240.65128	17626.825
2243.55385	17593.125
2246.45456	17589.425
2249.35343	17573.325
2252.25044	17519.825
2255.14561	17510.025
2258.03893	17521.725
2260.93041	17460.025
2263.82004	17416.825
2266.70783	17406.025
2269.59378	17393.425
2272.4779	17321.925
2275.36017	17275.125
2278.24061	17268.325
2281.11922	17230.725
2283.996	17209.825
2286.87094	17183.225
2289.74405	17160.225
2292.61534	17153.425
2295.4848	17144.025
2298.35243	17133.725
2301.21824	17110.625
2304.08223	17107.325
2306.94439	17096.025
2309.80474	17076.125
2312.66327	17096.325
2315.51999	17039.125
2318.37489	17046.825
2321.22797	17047.025
2324.07925	17024.525
2326.92871	17014.325
2329.77637	17007.425
2332.62222	16979.025
2335.46626	16990.625
2338.3085	16904.325
2341.14893	16917.425
2343.98756	16971.225
2346.8244	16913.225
2349.65943	16923.225
2352.49267	16868.825
2355.32411	16921.025
2358.15376	16859.025
2360.98161	16881.525
2363.80768	16879.825
2366.63195	16883.425
2369.45444	16851.925
2372.27514	16813.325
2375.09405	16832.625
2377.91118	16798.725
2380.72652	16716.825
2383.54009	16724.525
2386.35187	16705.225
2389.16188	16647.025
2391.97011	16652.225
2394.77657	16616.125
2397.58125	16603.625
2400.38416	16612.825
2403.18529	16586.025
2405.98466	16552.725
2408.78226	16556.025
2411.57809	16481.725
2414.37216	16485.325
2417.16446	16494.725
2419.955	16493.725
2422.74378	16494.625
2425.5308	16404.925
2428.31606	16406.125
2431.09956	16439.525
2433.88131	16410.625
2436.6613	16444.625
2439.43954	16417.225
2442.21603	16420.525
2444.99077	16409.725
2447.76377	16413.425
2450.53501	16398.325
2453.30451	16397.225
2456.07226	16325.525
2458.83827	16340.325
2461.60254	16365.425
2464.36507	16301.525
2467.12586	16323.725
2469.88492	16311.525
2472.64224	16296.325
2475.39782	16285.225
2478.15167	16316.225
2480.90379	16286.925
2483.65417	16315.825
2486.40283	16344.225
2489.14976	16315.125
2491.89497	16323.125
2494.63845	16294.125
2497.3802	16273.025
2500.12024	16316.425
2502.85855	16319.525
2505.59514	16282.925
2508.33002	16281.125
2511.06318	16246.225
2513.79462	16237.325
2516.52435	16198.025
2519.25237	16212.125
2521.97867	16162.125
2524.70327	16160.025
2527.42616	16174.925
2530.14734	16171.225
2532.86681	16167.425
2535.58458	16146.825
2538.30065	16148.325
2541.01501	16140.525
2543.72768	16123.425
2546.43864	16102.225
2549.14791	16087.425
2551.85548	16079.325
2554.56136	16045.525
2557.26554	16012.925
2559.96803	15974.125
2562.66883	15966.025
2565.36794	15969.725
2568.06536	15951.725
2570.7611	15927.425
2573.45514	15897.025
2576.14751	15887.725
2578.83819	15868.325
2581.52719	15854.625
2584.21451	15859.125
2586.90015	15803.225
2589.58411	15800.325
2592.2664	15791.825
2594.94701	15808.725
2597.62594	15774.625
2600.30321	15746.525
2602.9788	15742.925
2605.65273	15724.825
2608.32498	15754.925
2610.99557	15701.125
2613.66449	15727.025
2616.33175	15719.925
2618.99734	15691.625
2621.66128	15651.525
2624.32355	15649.025
2626.98416	15612.225
2629.64311	15614.125
2632.30041	15637.225
2634.95605	15591.925
2637.61004	15567.725
2640.26238	15573.525
2642.91306	15547.925
2645.56209	15554.825
2648.20948	15573.425
2650.85521	15542.125
2653.4993	15547.225
2656.14175	15561.525
2658.78255	15591.925
2661.42171	15579.725
2664.05923	15591.625
2666.6951	15595.325
2669.32934	15634.425
2671.96194	15627.125
2674.59291	15633.725
2677.22224	15624.025
2679.84993	15633.725
2682.476	15625.425
2685.10043	15676.225
2687.72324	15612.925
2690.34441	15636.925
2692.96396	15616.025
2695.58188	15623.725
2698.19818	15593.225
2700.81285	15607.725
2703.4259	15564.525
2706.03733	15524.625
2708.64714	15533.125
2711.25533	15612.725
2713.86191	15614.525
2716.46687	15662.025
2719.07021	15656.525
2721.67194	15690.525
2724.27206	15673.025
2726.87057	15692.925
2729.46747	15694.825
2732.06276	15701.725
2734.65644	15671.825
2737.24852	15671.525
2739.83899	15673.325
2742.42786	15698.025
2745.01513	15651.925
2747.60079	15675.125
2750.18486	15618.825
2752.76733	15602.525
2755.3482	15589.625
2757.92747	15590.625
2760.50515	15572.525
2763.08123	15570.825
2765.65573	15568.125
2768.22863	15546.525
2770.79994	15530.725
2773.36967	15518.325
2775.9378	15503.025
2778.50435	15528.425
2781.06932	15518.825
2783.6327	15499.525
2786.1945	15483.425
2788.75471	15480.825
2791.31335	15433.525
2793.87041	15421.425
2796.42589	15387.625
2798.97979	15348.625
2801.53212	15345.325
2804.08288	15348.525
2806.63206	15316.425
2809.17967	15299.825
2811.72571	15239.725
2814.27018	15190.825
2816.81308	15158.225
2819.35442	15179.725
2821.89419	15130.725
2824.43239	15113.425
2826.96904	15122.225
2829.50412	15081.625
2832.03763	15071.225
2834.56959	15059.925
2837.1	15040.625
2839.62884	15041.825
2842.15613	15018.325
2844.68186	15015.825
2847.20604	14986.225
2849.72867	14998.525
2852.24974	14963.425
2854.76927	14922.825
2857.28724	14911.225
2859.80367	14924.725
2862.31855	14878.125
2864.83189	14861.325
2867.34368	14858.925
2869.85393	14835.025
2872.36264	14855.625
2874.8698	14845.525
2877.37543	14848.025
2879.87952	14829.625
2882.38207	14835.125
2884.88308	14816.125
2887.38256	14835.025
2889.88051	14840.925
2892.37692	14857.925
2894.8718	14838.725
2897.36515	14849.325
2899.85698	14831.725
2902.34727	14837.025
2904.83604	14816.925
2907.32328	14869.925
2909.809	14856.625
2912.29319	14899.725
2914.77587	14885.225
2917.25702	14907.825
2919.73665	14883.425
2922.21476	14898.525
2924.69136	14879.425
2927.16644	14874.725
2929.64	14844.825
2932.11205	14840.325
2934.58258	14785.725
2937.05161	14806.425
2939.51912	14781.725
2941.98513	14800.125
2944.44962	14761.525
2946.91261	14752.525
2949.37409	14786.225
2951.83407	14754.525
2954.29254	14752.525
2956.74951	14741.425
2959.20498	14743.425
2961.65895	14745.825
2964.11142	14749.525
2966.56239	14693.225
2969.01186	14721.625
2971.45984	14688.425
2973.90632	14645.925
2976.35131	14642.725
2978.7948	14591.825
2981.23681	14589.425
2983.67732	14577.725
2986.11635	14536.625
2988.55388	14527.925
2990.98993	14498.825
2993.4245	14465.525
2995.85758	14441.925
2998.28917	14414.325
3000.71928	14406.025
3003.14791	14339.725
3005.57506	14334.325
3008.00073	14282.725
3010.42493	14263.125
3012.84764	14241.225
3015.26888	14270.825
3017.68865	14239.825
3020.10694	14215.825
3022.52376	14160.825
3024.9391	14157.925
3027.35298	14132.525
3029.76539	14122.325
3032.17632	14117.825
3034.5858	14088.625
3036.9938	14077.325
3039.40034	14078.225
3041.80542	14067.425
3044.20903	14009.125
3046.61118	14020.225
3049.01187	13989.925
3051.4111	14007.525
3053.80888	13985.325
3056.20519	13944.725
3058.60005	13895.125
3060.99345	13888.325
3063.3854	13851.325
3065.7759	13829.425
3068.16494	13798.925
3070.55254	13752.225
3072.93868	13684.925
3075.32338	13646.125
3077.70662	13621.825
3080.08842	13563.525
3082.46878	13598.025
3084.84769	13592.125
3087.22515	13574.225
3089.60118	13572.525
3091.97576	13567.425
3094.3489	13587.925
3096.72061	13589.125
3099.09087	13595.925
3101.4597	13578.225
3103.82709	13539.725
3106.19305	13505.425
3108.55757	13516.925
3110.92066	13471.625
3113.28232	13471.625
3115.64255	13424.125
3118.00134	13391.625
3120.35871	13363.625
3122.71466	13329.525
3125.06917	13331.525
3127.42226	13311.925
