Data from AgNPs_FTO_APTES_UA_50uM_CRN_5uM_R6G_10uM_NaF_0.1M_Addition_RamanShift__2__12-34-54-807.txt Node

Date: Mon Feb 21 12:34:54 GMT 2022
User: TCL
Spectrometer: QEP01345
Trigger mode: 4
Integration Time (sec): 7.000000E0
Scans to average: 10
Electric dark correction enabled: true
Nonlinearity correction enabled: false
Boxcar width: 0
XAxis mode: Raman Shifts
Number of Pixels in Spectrum: 1044
>>>>>Begin Spectral Data<<<<<
46.04893	0.3375
50.45542	0.1375
54.85868	-0.3625
59.25871	-1.3625
63.6555	50.6375
68.04907	53.3375
72.43941	53.3375
76.82654	59.2375
81.21044	62.1375
85.59113	64.9375
89.96862	66.7375
94.34289	69.7375
98.71396	69.4375
103.08183	75.0375
107.4465	75.8375
111.80798	71.6375
116.16626	74.2375
120.52136	76.0375
124.87327	80.7375
129.222	81.6375
133.56755	82.3375
137.90993	90.9375
142.24913	95.8375
146.58517	104.2375
150.91804	119.1375
155.24774	136.4375
159.57429	169.2375
163.89768	209.2375
168.21792	274.2375
172.53501	367.8375
176.84895	506.0375
181.15975	701.5375
185.46741	985.7375
189.77193	1354.3375
194.07331	1817.3375
198.37157	2349.8375
202.6667	2900.7375
206.9587	3451.3375
211.24758	3971.9375
215.53334	4541.0375
219.81599	5143.4375
224.09553	5851.6375
228.37195	6582.2375
232.64527	7418.2375
236.91549	8257.3375
241.18261	9066.5375
245.44663	9774.2375
249.70755	10375.0375
253.96539	10875.8375
258.22014	11253.3375
262.4718	11624.0375
266.72039	11828.3375
270.96589	11901.0375
275.20832	11812.9375
279.44768	11628.5375
283.68397	11374.8375
287.91719	11181.4375
292.14735	11096.6375
296.37445	11083.9375
300.59849	11236.0375
304.81948	11413.8375
309.03742	11606.5375
313.25231	11580.5375
317.46415	11394.3375
321.67296	11093.4375
325.87872	10833.2375
330.08145	10719.3375
334.28114	10728.3375
338.47781	10805.5375
342.67145	10933.3375
346.86207	11143.4375
351.04966	11424.7375
355.23424	11765.0375
359.4158	12038.5375
363.59435	12220.0375
367.76989	12333.7375
371.94243	12366.3375
376.11196	12396.0375
380.27849	12417.9375
384.44203	12454.7375
388.60257	12500.7375
392.76012	12529.9375
396.91468	12614.5375
401.06626	12809.0375
405.21485	12931.8375
409.36047	12809.2375
413.50311	12495.1375
417.64277	12251.1375
421.77947	12175.0375
425.9132	12132.5375
430.04396	12183.1375
434.17176	12228.6375
438.2966	12428.4375
442.41849	12753.8375
446.53742	13217.0375
450.6534	13676.9375
454.76644	13954.3375
458.87653	13932.9375
462.98368	13721.4375
467.08789	13495.9375
471.18916	13216.5375
475.2875	12868.0375
479.38291	12608.2375
483.4754	12425.0375
487.56496	12287.9375
491.6516	12217.9375
495.73531	12252.2375
499.81612	12241.7375
503.89401	12391.8375
507.96899	12399.9375
512.04106	12348.0375
516.11023	12362.9375
520.1765	12377.7375
524.23987	12404.6375
528.30034	12425.1375
532.35792	12403.5375
536.41261	12218.6375
540.46441	11958.9375
544.51333	11861.3375
548.55936	11910.6375
552.60252	12099.7375
556.64279	12410.7375
560.6802	12596.4375
564.71473	12650.3375
568.7464	12780.9375
572.7752	12999.7375
576.80114	13047.8375
580.82422	13211.3375
584.84444	13642.6375
588.86181	14419.8375
592.87633	15426.0375
596.888	15964.5375
600.89682	15576.9375
604.9028	15582.5375
608.90594	17250.5375
612.90624	19425.8375
616.90371	18372.7375
620.89834	14711.5375
624.89015	13054.2375
628.87913	12837.5375
632.86528	12890.3375
636.84862	12930.6375
640.82913	12659.2375
644.80683	12264.6375
648.78172	11964.9375
652.75379	11927.4375
656.72306	12166.3375
660.68952	12536.8375
664.65319	12427.9375
668.61405	12122.8375
672.57211	12057.5375
676.52738	12207.2375
680.47986	12195.9375
684.42955	12048.4375
688.37646	12031.6375
692.32058	12133.4375
696.26192	12311.1375
700.20048	12468.3375
704.13626	12495.2375
708.06928	12359.9375
711.99952	12241.6375
715.927	12250.8375
719.85171	12365.9375
723.77365	12387.1375
727.69284	12188.9375
731.60928	12040.2375
735.52295	12017.1375
739.43388	12077.1375
743.34206	12129.8375
747.24749	12161.3375
751.15017	12208.4375
755.05012	12336.2375
758.94733	12680.8375
762.8418	13474.6375
766.73354	14775.0375
770.62254	16121.8375
774.50882	16680.8375
778.39237	16097.7375
782.27321	14824.4375
786.15132	13633.4375
790.02671	12840.1375
793.89938	12429.7375
797.76935	12255.0375
801.6366	12164.4375
805.50115	12100.0375
809.36299	12058.9375
813.22213	11973.8375
817.07857	11892.3375
820.93231	11876.9375
824.78336	11793.2375
828.63172	11819.8375
832.47738	11852.8375
836.32036	11919.3375
840.16066	11976.0375
843.99827	12013.6375
847.8332	11951.8375
851.66546	11926.0375
855.49504	11876.5375
859.32195	11902.4375
863.1462	11875.1375
866.96777	11805.9375
870.78668	11791.4375
874.60293	11817.7375
878.41652	11856.9375
882.22745	11976.3375
886.03573	12047.8375
889.84136	12068.4375
893.64433	12027.3375
897.44466	11936.8375
901.24235	11888.5375
905.0374	11829.9375
908.8298	11785.7375
912.61957	11734.9375
916.40671	11772.5375
920.19121	11886.9375
923.97308	12059.5375
927.75233	12252.5375
931.52895	12287.3375
935.30295	12177.7375
939.07433	11935.8375
942.84309	11726.9375
946.60924	11655.3375
950.37278	11572.5375
954.13371	11559.5375
957.89203	11488.1375
961.64774	11454.9375
965.40086	11448.3375
969.15137	11433.9375
972.89929	11449.4375
976.64461	11489.0375
980.38733	11531.0375
984.12747	11600.5375
987.86502	11689.5375
991.59999	11845.9375
995.33237	12079.0375
999.06217	12476.0375
1002.78939	12933.6375
1006.51404	13246.4375
1010.23611	13429.6375
1013.95561	13536.6375
1017.67255	13550.3375
1021.38692	13392.0375
1025.09872	13228.0375
1028.80796	13288.7375
1032.51465	13648.3375
1036.21877	14020.3375
1039.92035	14144.6375
1043.61937	13998.9375
1047.31584	13675.6375
1051.00976	13278.9375
1054.70114	13014.1375
1058.38998	12896.6375
1062.07627	12880.7375
1065.76003	12891.5375
1069.44126	12964.1375
1073.11995	13156.9375
1076.79611	13429.5375
1080.46974	13627.1375
1084.14085	13850.3375
1087.80943	14047.3375
1091.47549	14089.9375
1095.13903	13967.6375
1098.80005	13671.9375
1102.45857	13369.0375
1106.11456	13193.3375
1109.76805	13214.3375
1113.41903	13307.7375
1117.06751	13487.8375
1120.71348	13772.2375
1124.35696	14000.8375
1127.99793	14278.1375
1131.63641	14352.6375
1135.2724	14144.0375
1138.90589	13937.3375
1142.5369	13729.7375
1146.16542	13671.1375
1149.79145	13649.5375
1153.415	13648.2375
1157.03607	13721.4375
1160.65467	13935.5375
1164.27079	14429.7375
1167.88443	15154.4375
1171.49561	16168.5375
1175.10432	17671.2375
1178.71056	19623.8375
1182.31434	21392.8375
1185.91565	22126.3375
1189.51451	21796.9375
1193.11091	20809.6375
1196.70485	19670.6375
1200.29634	18624.4375
1203.88538	17767.3375
1207.47197	17027.6375
1211.05612	16427.6375
1214.63782	16078.5375
1218.21708	15958.6375
1221.79391	16048.6375
1225.36829	16168.1375
1228.94024	16111.4375
1232.50976	15798.1375
1236.07685	15412.9375
1239.6415	15214.9375
1243.20374	15162.7375
1246.76355	15215.3375
1250.32093	15392.6375
1253.8759	15662.0375
1257.42845	16134.4375
1260.97859	16712.6375
1264.52631	17357.3375
1268.07163	18019.0375
1271.61453	18658.1375
1275.15503	19210.4375
1278.69312	19734.4375
1282.22882	20174.9375
1285.76211	20725.1375
1289.29301	21405.0375
1292.82151	22267.0375
1296.34761	23310.5375
1299.87133	24610.4375
1303.39266	26375.0375
1306.9116	28465.9375
1310.42815	30440.4375
1313.94233	31393.5375
1317.45412	30682.4375
1320.96354	28955.0375
1324.47058	27101.7375
1327.97525	25430.6375
1331.47754	24341.7375
1334.97747	23738.9375
1338.47502	23450.2375
1341.97022	23269.8375
1345.46305	23350.7375
1348.95352	23792.6375
1352.44163	24902.5375
1355.92738	26819.1375
1359.41078	29584.0375
1362.89183	31994.3375
1366.37053	31803.5375
1369.84688	28523.0375
1373.32088	24591.0375
1376.79254	21903.8375
1380.26186	20688.9375
1383.72883	20192.1375
1387.19347	19731.0375
1390.65578	19155.0375
1394.11575	18837.1375
1397.57339	18770.3375
1401.0287	18827.9375
1404.48168	18896.1375
1407.93234	18873.9375
1411.38068	18775.3375
1414.82669	18580.4375
1418.27039	18329.0375
1421.71177	17948.8375
1425.15083	17560.4375
1428.58758	17476.7375
1432.02203	17663.8375
1435.45416	18055.1375
1438.88399	18338.1375
1442.31151	18435.9375
1445.73673	18416.6375
1449.15965	18414.9375
1452.58027	18283.1375
1455.9986	18073.2375
1459.41463	18017.4375
1462.82837	18278.3375
1466.23982	18724.3375
1469.64898	19212.7375
1473.05586	19585.0375
1476.46045	19878.6375
1479.86276	20093.5375
1483.26279	20235.3375
1486.66054	20421.1375
1490.05602	20858.2375
1493.44922	21346.6375
1496.84016	21790.7375
1500.22882	22515.9375
1503.61521	23541.5375
1506.99934	24874.4375
1510.38121	25921.5375
1513.76081	26064.7375
1517.13816	24982.4375
1520.51324	23215.1375
1523.88607	21695.7375
1527.25665	20772.2375
1530.62498	20267.3375
1533.99105	19919.3375
1537.35488	19536.9375
1540.71647	19120.6375
1544.07581	18732.0375
1547.4329	18295.5375
1550.78776	18003.1375
1554.14038	17841.3375
1557.49077	17734.9375
1560.83892	17765.5375
1564.18484	17965.5375
1567.52853	18249.5375
1570.86999	18608.4375
1574.20922	18917.1375
1577.54624	19015.7375
1580.88103	18775.6375
1584.2136	18426.3375
1587.54395	18671.9375
1590.87208	19651.6375
1594.19801	21123.1375
1597.52172	22615.2375
1600.84321	23143.9375
1604.16251	22189.0375
1607.47959	20327.4375
1610.79447	18354.2375
1614.10715	16683.8375
1617.41763	15518.3375
1620.7259	14844.8375
1624.03199	14607.0375
1627.33587	14732.7375
1630.63757	15169.8375
1633.93707	16108.5375
1637.23439	17636.2375
1640.52951	19903.8375
1643.82246	22773.2375
1647.11321	25154.2375
1650.40179	25722.2375
1653.68819	23739.2375
1656.97241	20340.1375
1660.25446	17197.3375
1663.53433	15078.4375
1666.81203	13849.2375
1670.08756	13136.8375
1673.36092	12736.4375
1676.63211	12447.7375
1679.90115	12257.2375
1683.16801	12119.0375
1686.43272	12012.9375
1689.69527	11895.0375
1692.95567	11764.8375
1696.2139	11627.8375
1699.46999	11479.4375
1702.72392	11415.5375
1705.97571	11458.7375
1709.22535	11540.6375
1712.47284	11571.8375
1715.71819	11585.3375
1718.96139	11557.3375
1722.20246	11534.2375
1725.44139	11451.6375
1728.67818	11394.3375
1731.91284	11352.1375
1735.14537	11279.4375
1738.37576	11219.7375
1741.60403	11184.1375
1744.83017	11143.1375
1748.05418	11091.0375
1751.27607	11017.1375
1754.49584	10959.6375
1757.71349	10919.8375
1760.92903	10871.8375
1764.14244	10870.1375
1767.35375	10866.7375
1770.56294	10846.0375
1773.77002	10877.6375
1776.97499	10904.1375
1780.17785	10942.8375
1783.37861	10942.4375
1786.57727	10954.7375
1789.77382	10943.9375
1792.96828	10953.6375
1796.16064	10945.3375
1799.3509	10941.4375
1802.53907	10915.4375
1805.72514	10895.8375
1808.90913	10860.0375
1812.09102	10812.3375
1815.27083	10823.0375
1818.44856	10830.5375
1821.6242	10815.0375
1824.79776	10814.7375
1827.96924	10800.3375
1831.13864	10796.5375
1834.30597	10801.7375
1837.47122	10805.3375
1840.6344	10794.7375
1843.7955	10773.7375
1846.95454	10762.6375
1850.11151	10732.6375
1853.26642	10764.7375
1856.41926	10784.2375
1859.57004	10791.8375
1862.71876	10763.6375
1865.86542	10737.6375
1869.01003	10748.2375
1872.15258	10745.7375
1875.29308	10725.9375
1878.43152	10739.5375
1881.56792	10727.9375
1884.70227	10717.2375
1887.83457	10710.2375
1890.96482	10709.9375
1894.09304	10668.1375
1897.21921	10705.7375
1900.34335	10672.2375
1903.46544	10685.0375
1906.58551	10679.5375
1909.70353	10668.4375
1912.81953	10651.8375
1915.93349	10632.5375
1919.04543	10653.6375
1922.15534	10627.3375
1925.26322	10579.6375
1928.36908	10579.3375
1931.47292	10549.8375
1934.57473	10524.7375
1937.67453	10514.0375
1940.77232	10501.4375
1943.86808	10444.3375
1946.96184	10432.4375
1950.05358	10411.6375
1953.14331	10340.5375
1956.23103	10364.1375
1959.31675	10326.0375
1962.40046	10328.1375
1965.48217	10300.9375
1968.56188	10284.1375
1971.63959	10234.2375
1974.7153	10222.7375
1977.78901	10174.5375
1980.86073	10177.3375
1983.93046	10159.1375
1986.99819	10089.4375
1990.06394	10107.7375
1993.1277	10061.6375
1996.18947	10043.1375
1999.24925	9996.7375
2002.30706	9988.3375
2005.36288	9954.2375
2008.41672	9943.9375
2011.46859	9915.1375
2014.51848	9877.7375
2017.56639	9867.9375
2020.61233	9843.5375
2023.6563	9839.4375
2026.6983	9818.8375
2029.73833	9814.7375
2032.7764	9799.6375
2035.8125	9807.8375
2038.84664	9776.4375
2041.87881	9760.3375
2044.90903	9730.3375
2047.93729	9712.8375
2050.96359	9729.6375
2053.98794	9735.5375
2057.01034	9743.1375
2060.03078	9719.8375
2063.04927	9690.5375
2066.06582	9716.9375
2069.08042	9690.4375
2072.09307	9691.6375
2075.10378	9711.6375
2078.11255	9698.6375
2081.11938	9725.4375
2084.12426	9673.2375
2087.12722	9694.8375
2090.12824	9707.6375
2093.12732	9709.1375
2096.12447	9721.8375
2099.11969	9705.2375
2102.11299	9735.0375
2105.10435	9739.7375
2108.09379	9726.3375
2111.08131	9764.9375
2114.0669	9761.4375
2117.05057	9756.4375
2120.03233	9772.4375
2123.01216	9781.8375
2125.99008	9795.7375
2128.96609	9816.0375
2131.94018	9825.6375
2134.91236	9806.7375
2137.88263	9808.5375
2140.851	9836.6375
2143.81746	9872.6375
2146.78201	9872.2375
2149.74466	9865.0375
2152.7054	9865.7375
2155.66425	9837.9375
2158.6212	9841.7375
2161.57625	9833.7375
2164.52941	9862.8375
2167.48067	9856.9375
2170.43004	9828.2375
2173.37752	9846.4375
2176.32311	9838.1375
2179.26681	9835.1375
2182.20863	9836.7375
2185.14856	9869.8375
2188.08661	9870.8375
2191.02278	9881.8375
2193.95707	9884.6375
2196.88948	9886.6375
2199.82001	9845.3375
2202.74867	9871.9375
2205.67545	9886.5375
2208.60037	9862.4375
2211.52341	9873.1375
2214.44458	9854.4375
2217.36388	9842.7375
2220.28132	9821.6375
2223.1969	9799.3375
2226.11061	9798.9375
2229.02246	9819.2375
2231.93245	9768.0375
2234.84058	9767.6375
2237.74686	9761.0375
2240.65128	9771.6375
2243.55385	9738.5375
2246.45456	9748.9375
2249.35343	9731.4375
2252.25044	9734.1375
2255.14561	9719.1375
2258.03893	9692.6375
2260.93041	9712.8375
2263.82004	9679.3375
2266.70783	9659.1375
2269.59378	9650.7375
2272.4779	9608.6375
2275.36017	9596.7375
2278.24061	9579.3375
2281.11922	9580.4375
2283.996	9586.7375
2286.87094	9576.6375
2289.74405	9551.0375
2292.61534	9546.9375
2295.4848	9536.2375
2298.35243	9536.6375
2301.21824	9527.4375
2304.08223	9538.0375
2306.94439	9566.8375
2309.80474	9587.9375
2312.66327	9589.4375
2315.51999	9589.9375
2318.37489	9546.4375
2321.22797	9554.4375
2324.07925	9572.9375
2326.92871	9546.9375
2329.77637	9530.6375
2332.62222	9536.1375
2335.46626	9523.5375
2338.3085	9541.3375
2341.14893	9550.8375
2343.98756	9540.0375
2346.8244	9574.6375
2349.65943	9570.1375
2352.49267	9561.4375
2355.32411	9567.0375
2358.15376	9560.0375
2360.98161	9536.8375
2363.80768	9528.8375
2366.63195	9536.5375
2369.45444	9541.4375
2372.27514	9515.9375
2375.09405	9492.1375
2377.91118	9502.9375
2380.72652	9470.5375
2383.54009	9434.5375
2386.35187	9443.0375
2389.16188	9424.8375
2391.97011	9417.8375
2394.77657	9391.7375
2397.58125	9394.0375
2400.38416	9415.2375
2403.18529	9381.0375
2405.98466	9372.4375
2408.78226	9354.7375
2411.57809	9339.7375
2414.37216	9317.7375
2417.16446	9331.9375
2419.955	9283.6375
2422.74378	9294.5375
2425.5308	9290.7375
2428.31606	9289.0375
2431.09956	9308.5375
2433.88131	9316.5375
2436.6613	9322.1375
2439.43954	9324.8375
2442.21603	9306.2375
2444.99077	9298.4375
2447.76377	9319.0375
2450.53501	9313.3375
2453.30451	9314.5375
2456.07226	9307.4375
2458.83827	9297.9375
2461.60254	9316.2375
2464.36507	9297.7375
2467.12586	9303.8375
2469.88492	9285.4375
2472.64224	9311.6375
2475.39782	9284.7375
2478.15167	9286.5375
2480.90379	9330.2375
2483.65417	9347.1375
2486.40283	9354.5375
2489.14976	9361.1375
2491.89497	9373.6375
2494.63845	9375.4375
2497.3802	9330.4375
2500.12024	9331.9375
2502.85855	9348.9375
2505.59514	9370.7375
2508.33002	9350.4375
2511.06318	9344.3375
2513.79462	9293.4375
2516.52435	9291.9375
2519.25237	9281.7375
2521.97867	9287.6375
2524.70327	9281.2375
2527.42616	9275.6375
2530.14734	9297.3375
2532.86681	9278.1375
2535.58458	9274.4375
2538.30065	9277.4375
2541.01501	9287.3375
2543.72768	9280.4375
2546.43864	9277.9375
2549.14791	9264.5375
2551.85548	9270.6375
2554.56136	9254.7375
2557.26554	9258.2375
2559.96803	9245.5375
2562.66883	9252.1375
2565.36794	9246.5375
2568.06536	9246.7375
2570.7611	9232.0375
2573.45514	9235.6375
2576.14751	9247.8375
2578.83819	9235.9375
2581.52719	9224.6375
2584.21451	9215.7375
2586.90015	9221.0375
2589.58411	9210.4375
2592.2664	9206.4375
2594.94701	9190.1375
2597.62594	9191.9375
2600.30321	9184.1375
2602.9788	9157.3375
2605.65273	9153.5375
2608.32498	9161.1375
2610.99557	9156.7375
2613.66449	9163.2375
2616.33175	9151.9375
2618.99734	9166.0375
2621.66128	9149.4375
2624.32355	9156.3375
2626.98416	9167.9375
2629.64311	9165.3375
2632.30041	9153.9375
2634.95605	9128.9375
2637.61004	9095.3375
2640.26238	9101.3375
2642.91306	9113.0375
2645.56209	9096.3375
2648.20948	9088.6375
2650.85521	9071.0375
2653.4993	9098.9375
2656.14175	9092.1375
2658.78255	9110.2375
2661.42171	9135.5375
2664.05923	9137.5375
2666.6951	9135.7375
2669.32934	9161.1375
2671.96194	9162.2375
2674.59291	9155.2375
2677.22224	9154.6375
2679.84993	9171.2375
2682.476	9163.7375
2685.10043	9190.3375
2687.72324	9141.4375
2690.34441	9159.8375
2692.96396	9174.2375
2695.58188	9149.5375
2698.19818	9130.8375
2700.81285	9134.8375
2703.4259	9135.3375
2706.03733	9061.7375
2708.64714	9080.1375
2711.25533	9145.7375
2713.86191	9148.4375
2716.46687	9192.5375
2719.07021	9211.8375
2721.67194	9192.6375
2724.27206	9211.0375
2726.87057	9230.4375
2729.46747	9220.4375
2732.06276	9245.1375
2734.65644	9239.0375
2737.24852	9244.4375
2739.83899	9230.8375
2742.42786	9231.5375
2745.01513	9226.1375
2747.60079	9218.6375
2750.18486	9191.7375
2752.76733	9211.2375
2755.3482	9192.9375
2757.92747	9209.1375
2760.50515	9218.6375
2763.08123	9217.1375
2765.65573	9183.3375
2768.22863	9187.2375
2770.79994	9167.7375
2773.36967	9187.2375
2775.9378	9180.4375
2778.50435	9182.4375
2781.06932	9186.0375
2783.6327	9163.9375
2786.1945	9168.7375
2788.75471	9188.8375
2791.31335	9157.4375
2793.87041	9157.7375
2796.42589	9147.2375
2798.97979	9143.4375
2801.53212	9113.6375
2804.08288	9121.6375
2806.63206	9133.4375
2809.17967	9127.0375
2811.72571	9074.0375
2814.27018	9074.7375
2816.81308	9065.0375
2819.35442	9053.9375
2821.89419	9054.0375
2824.43239	9042.1375
2826.96904	9026.1375
2829.50412	9062.6375
2832.03763	9040.8375
2834.56959	9041.0375
2837.1	9041.2375
2839.62884	9050.3375
2842.15613	9019.4375
2844.68186	9040.9375
2847.20604	9066.8375
2849.72867	9076.7375
2852.24974	9082.4375
2854.76927	9086.0375
2857.28724	9059.3375
2859.80367	9093.5375
2862.31855	9086.1375
2864.83189	9078.8375
2867.34368	9081.8375
2869.85393	9110.5375
2872.36264	9107.0375
2874.8698	9118.0375
2877.37543	9138.5375
2879.87952	9135.9375
2882.38207	9154.5375
2884.88308	9150.1375
2887.38256	9175.7375
2889.88051	9190.5375
2892.37692	9185.5375
2894.8718	9172.2375
2897.36515	9173.3375
2899.85698	9194.3375
2902.34727	9208.1375
2904.83604	9233.4375
2907.32328	9214.7375
2909.809	9205.7375
2912.29319	9239.9375
2914.77587	9222.8375
2917.25702	9210.3375
2919.73665	9227.7375
2922.21476	9211.9375
2924.69136	9198.6375
2927.16644	9205.4375
2929.64	9208.7375
2932.11205	9182.5375
2934.58258	9158.4375
2937.05161	9164.2375
2939.51912	9168.0375
2941.98513	9152.4375
2944.44962	9113.9375
2946.91261	9089.6375
2949.37409	9108.9375
2951.83407	9101.3375
2954.29254	9113.5375
2956.74951	9105.0375
2959.20498	9105.6375
2961.65895	9098.0375
2964.11142	9101.6375
2966.56239	9082.8375
2969.01186	9090.3375
2971.45984	9061.9375
2973.90632	9037.2375
2976.35131	9008.7375
2978.7948	9014.8375
2981.23681	8977.5375
2983.67732	8968.2375
2986.11635	8935.9375
2988.55388	8926.3375
2990.98993	8920.9375
2993.4245	8902.9375
2995.85758	8863.9375
2998.28917	8833.3375
3000.71928	8840.4375
3003.14791	8843.5375
3005.57506	8825.7375
3008.00073	8809.7375
3010.42493	8812.9375
3012.84764	8822.3375
3015.26888	8804.7375
3017.68865	8804.0375
3020.10694	8794.2375
3022.52376	8777.8375
3024.9391	8780.2375
3027.35298	8769.9375
3029.76539	8753.5375
3032.17632	8760.2375
3034.5858	8730.8375
3036.9938	8696.8375
3039.40034	8727.9375
3041.80542	8716.4375
3044.20903	8694.5375
3046.61118	8701.6375
3049.01187	8703.7375
3051.4111	8709.2375
3053.80888	8680.5375
3056.20519	8684.4375
3058.60005	8662.3375
3060.99345	8670.1375
3063.3854	8668.4375
3065.7759	8647.4375
3068.16494	8648.6375
3070.55254	8622.6375
