Data from AgNPs_FTO_APTES_UA_50uM_CRN_0uM_R6G_10uM_NaF_0.1M_Addition_RamanShift__20__10-33-34-645.txt Node

Date: Mon Feb 21 10:33:34 GMT 2022
User: TCL
Spectrometer: QEP01345
Trigger mode: 4
Integration Time (sec): 7.000000E0
Scans to average: 10
Electric dark correction enabled: true
Nonlinearity correction enabled: false
Boxcar width: 0
XAxis mode: Raman Shifts
Number of Pixels in Spectrum: 1044
>>>>>Begin Spectral Data<<<<<
46.04893	1.825
50.45542	-0.475
54.85868	0.725
59.25871	-1.175
63.6555	28.925
68.04907	33.325
72.43941	31.125
76.82654	36.325
81.21044	40.025
85.59113	41.725
89.96862	45.025
94.34289	45.125
98.71396	43.725
103.08183	47.225
107.4465	48.825
111.80798	46.925
116.16626	44.425
120.52136	45.025
124.87327	52.625
129.222	45.825
133.56755	49.625
137.90993	52.525
142.24913	54.425
146.58517	55.725
150.91804	61.025
155.24774	70.625
159.57429	79.225
163.89768	98.125
168.21792	127.525
172.53501	162.625
176.84895	224.925
181.15975	306.025
185.46741	417.025
189.77193	581.625
194.07331	772.525
198.37157	985.525
202.6667	1220.825
206.9587	1441.925
211.24758	1666.425
215.53334	1904.325
219.81599	2145.525
224.09553	2417.725
228.37195	2722.325
232.64527	3076.925
236.91549	3417.525
241.18261	3736.325
245.44663	4025.625
249.70755	4306.625
253.96539	4535.025
258.22014	4746.925
262.4718	4898.825
266.72039	4988.825
270.96589	5036.425
275.20832	4981.425
279.44768	4876.525
283.68397	4788.325
287.91719	4690.325
292.14735	4643.425
296.37445	4662.025
300.59849	4772.925
304.81948	4922.525
309.03742	5053.725
313.25231	5070.425
317.46415	4932.925
321.67296	4689.725
325.87872	4456.125
330.08145	4354.825
334.28114	4337.125
338.47781	4377.125
342.67145	4441.925
346.86207	4580.725
351.04966	4770.425
355.23424	5023.325
359.4158	5195.225
363.59435	5333.225
367.76989	5403.725
371.94243	5422.525
376.11196	5440.625
380.27849	5433.425
384.44203	5407.925
388.60257	5339.325
392.76012	5298.525
396.91468	5308.425
401.06626	5392.125
405.21485	5461.725
409.36047	5398.925
413.50311	5205.225
417.64277	4991.425
421.77947	4868.625
425.9132	4778.025
430.04396	4788.625
434.17176	4843.425
438.2966	4999.925
442.41849	5223.725
446.53742	5480.625
450.6534	5722.525
454.76644	5878.325
458.87653	5838.025
462.98368	5713.725
467.08789	5534.625
471.18916	5356.325
475.2875	5196.325
479.38291	5048.325
483.4754	4905.125
487.56496	4833.325
491.6516	4798.925
495.73531	4778.425
499.81612	4780.525
503.89401	4829.925
507.96899	4856.925
512.04106	4898.925
516.11023	4995.325
520.1765	5086.125
524.23987	5111.025
528.30034	5095.225
532.35792	5039.325
536.41261	4989.925
540.46441	4879.825
544.51333	4856.225
548.55936	4861.525
552.60252	4904.725
556.64279	4997.625
560.6802	5052.725
564.71473	5054.025
568.7464	5120.925
572.7752	5196.325
576.80114	5120.325
580.82422	5008.025
584.84444	4989.925
588.86181	5176.325
592.87633	5505.625
596.888	5683.825
600.89682	5637.225
604.9028	5881.625
608.90594	7053.125
612.90624	8700.225
616.90371	8504.025
620.89834	6387.225
624.89015	5254.725
628.87913	5024.825
632.86528	5030.225
636.84862	5076.625
640.82913	5018.325
644.80683	4837.725
648.78172	4695.025
652.75379	4669.625
656.72306	4828.525
660.68952	5017.825
664.65319	4974.325
668.61405	4761.325
672.57211	4642.125
676.52738	4643.425
680.47986	4627.725
684.42955	4564.025
688.37646	4553.225
692.32058	4579.825
696.26192	4644.425
700.20048	4716.025
704.13626	4705.325
708.06928	4666.125
711.99952	4613.925
715.927	4628.425
719.85171	4703.125
723.77365	4733.525
727.69284	4698.725
731.60928	4667.625
735.52295	4716.125
739.43388	4722.025
743.34206	4742.725
747.24749	4752.525
751.15017	4740.125
755.05012	4766.225
758.94733	4910.925
762.8418	5273.525
766.73354	5903.625
770.62254	6690.825
774.50882	7220.625
778.39237	7100.725
782.27321	6367.825
786.15132	5561.625
790.02671	5049.025
793.89938	4819.925
797.76935	4744.225
801.6366	4718.225
805.50115	4717.025
809.36299	4719.825
813.22213	4711.225
817.07857	4693.425
820.93231	4653.325
824.78336	4638.225
828.63172	4667.125
832.47738	4666.825
836.32036	4662.325
840.16066	4647.225
843.99827	4635.625
847.8332	4631.225
851.66546	4616.025
855.49504	4607.025
859.32195	4606.925
863.1462	4570.025
866.96777	4568.325
870.78668	4544.925
874.60293	4576.525
878.41652	4601.225
882.22745	4641.025
886.03573	4688.225
889.84136	4676.425
893.64433	4642.025
897.44466	4615.125
901.24235	4597.125
905.0374	4563.925
908.8298	4531.925
912.61957	4514.525
916.40671	4533.625
920.19121	4583.925
923.97308	4589.325
927.75233	4619.425
931.52895	4655.825
935.30295	4644.525
939.07433	4523.825
942.84309	4426.425
946.60924	4372.025
950.37278	4338.825
954.13371	4323.125
957.89203	4305.725
961.64774	4269.625
965.40086	4261.425
969.15137	4257.225
972.89929	4254.925
976.64461	4239.625
980.38733	4253.425
984.12747	4281.225
987.86502	4287.825
991.59999	4341.425
995.33237	4404.025
999.06217	4511.625
1002.78939	4598.725
1006.51404	4661.125
1010.23611	4705.125
1013.95561	4768.925
1017.67255	4784.925
1021.38692	4704.225
1025.09872	4577.325
1028.80796	4530.825
1032.51465	4527.925
1036.21877	4564.325
1039.92035	4609.025
1043.61937	4620.725
1047.31584	4622.025
1051.00976	4584.825
1054.70114	4552.825
1058.38998	4534.025
1062.07627	4525.425
1065.76003	4519.825
1069.44126	4520.025
1073.11995	4559.925
1076.79611	4647.125
1080.46974	4723.425
1084.14085	4836.825
1087.80943	4944.825
1091.47549	4981.225
1095.13903	4905.025
1098.80005	4740.925
1102.45857	4626.425
1106.11456	4609.625
1109.76805	4645.925
1113.41903	4756.625
1117.06751	4910.025
1120.71348	5087.325
1124.35696	5285.825
1127.99793	5456.125
1131.63641	5489.325
1135.2724	5303.925
1138.90589	5062.225
1142.5369	4919.825
1146.16542	4801.425
1149.79145	4736.925
1153.415	4686.925
1157.03607	4665.625
1160.65467	4741.025
1164.27079	4872.725
1167.88443	5095.325
1171.49561	5470.425
1175.10432	6081.925
1178.71056	6947.325
1182.31434	7781.225
1185.91565	8165.925
1189.51451	8067.425
1193.11091	7651.725
1196.70485	7106.025
1200.29634	6577.725
1203.88538	6140.725
1207.47197	5691.525
1211.05612	5378.425
1214.63782	5218.025
1218.21708	5195.825
1221.79391	5234.625
1225.36829	5238.325
1228.94024	5155.625
1232.50976	5073.025
1236.07685	5046.425
1239.6415	5089.225
1243.20374	5148.325
1246.76355	5143.125
1250.32093	5144.625
1253.8759	5231.625
1257.42845	5410.825
1260.97859	5629.725
1264.52631	5873.225
1268.07163	6082.725
1271.61453	6225.025
1275.15503	6258.925
1278.69312	6231.025
1282.22882	6269.225
1285.76211	6394.625
1289.29301	6681.725
1292.82151	6960.525
1296.34761	7254.125
1299.87133	7625.225
1303.39266	8122.725
1306.9116	8899.425
1310.42815	9846.825
1313.94233	10436.825
1317.45412	10298.425
1320.96354	9537.825
1324.47058	8654.625
1327.97525	7837.825
1331.47754	7398.025
1334.97747	7320.825
1338.47502	7473.025
1341.97022	7634.025
1345.46305	7758.125
1348.95352	8125.825
1352.44163	8846.125
1355.92738	9976.825
1359.41078	11394.825
1362.89183	12739.925
1366.37053	12705.825
1369.84688	11074.425
1373.32088	9114.425
1376.79254	7852.625
1380.26186	7236.525
1383.72883	6922.125
1387.19347	6542.425
1390.65578	6119.025
1394.11575	5792.525
1397.57339	5687.625
1401.0287	5672.425
1404.48168	5722.125
1407.93234	5812.625
1411.38068	5898.825
1414.82669	5910.825
1418.27039	5857.825
1421.71177	5745.225
1425.15083	5676.425
1428.58758	5695.125
1432.02203	5833.425
1435.45416	5977.425
1438.88399	6062.725
1442.31151	6041.125
1445.73673	6007.125
1449.15965	5995.525
1452.58027	5926.625
1455.9986	5739.025
1459.41463	5649.225
1462.82837	5667.325
1466.23982	5828.025
1469.64898	6083.425
1473.05586	6291.625
1476.46045	6434.525
1479.86276	6607.125
1483.26279	6746.325
1486.66054	6832.925
1490.05602	6919.825
1493.44922	6985.725
1496.84016	7106.825
1500.22882	7481.725
1503.61521	8196.625
1506.99934	9164.125
1510.38121	10029.425
1513.76081	10328.125
1517.13816	9735.925
1520.51324	8557.425
1523.88607	7447.125
1527.25665	6763.025
1530.62498	6459.125
1533.99105	6345.725
1537.35488	6274.725
1540.71647	6212.725
1544.07581	6144.725
1547.4329	6087.025
1550.78776	5980.925
1554.14038	5872.125
1557.49077	5769.525
1560.83892	5718.825
1564.18484	5819.925
1567.52853	6010.625
1570.86999	6261.725
1574.20922	6458.025
1577.54624	6478.025
1580.88103	6257.425
1584.2136	5862.225
1587.54395	5663.725
1590.87208	5739.525
1594.19801	6194.425
1597.52172	6896.925
1600.84321	7417.825
1604.16251	7436.125
1607.47959	6918.425
1610.79447	6150.725
1614.10715	5473.325
1617.41763	4994.125
1620.7259	4727.125
1624.03199	4609.325
1627.33587	4595.325
1630.63757	4692.925
1633.93707	4892.725
1637.23439	5275.525
1640.52951	5931.525
1643.82246	6863.725
1647.11321	7842.425
1650.40179	8359.125
1653.68819	7924.125
1656.97241	6739.325
1660.25446	5556.425
1663.53433	4759.425
1666.81203	4324.425
1670.08756	4090.525
1673.36092	3950.625
1676.63211	3891.425
1679.90115	3823.125
1683.16801	3751.725
1686.43272	3723.925
1689.69527	3645.725
1692.95567	3566.825
1696.2139	3460.925
1699.46999	3361.025
1702.72392	3304.925
1705.97571	3377.725
1709.22535	3477.925
1712.47284	3542.625
1715.71819	3574.225
1718.96139	3585.425
1722.20246	3586.025
1725.44139	3585.325
1728.67818	3544.525
1731.91284	3521.425
1735.14537	3494.625
1738.37576	3483.225
1741.60403	3461.625
1744.83017	3443.425
1748.05418	3403.825
1751.27607	3365.925
1754.49584	3316.025
1757.71349	3241.925
1760.92903	3212.825
1764.14244	3198.925
1767.35375	3202.125
1770.56294	3194.325
1773.77002	3211.225
1776.97499	3265.425
1780.17785	3303.125
1783.37861	3339.525
1786.57727	3350.325
1789.77382	3336.225
1792.96828	3364.625
1796.16064	3352.525
1799.3509	3344.225
1802.53907	3342.425
1805.72514	3333.025
1808.90913	3328.025
1812.09102	3311.825
1815.27083	3294.325
1818.44856	3298.025
1821.6242	3290.225
1824.79776	3282.625
1827.96924	3269.825
1831.13864	3265.125
1834.30597	3272.825
1837.47122	3252.625
1840.6344	3261.025
1843.7955	3251.125
1846.95454	3255.225
1850.11151	3251.525
1853.26642	3229.425
1856.41926	3236.025
1859.57004	3229.725
1862.71876	3228.025
1865.86542	3226.525
1869.01003	3220.925
1872.15258	3218.325
1875.29308	3204.325
1878.43152	3217.825
1881.56792	3210.125
1884.70227	3224.925
1887.83457	3200.625
1890.96482	3193.725
1894.09304	3196.725
1897.21921	3194.625
1900.34335	3187.125
1903.46544	3191.225
1906.58551	3174.825
1909.70353	3182.325
1912.81953	3178.825
1915.93349	3189.925
1919.04543	3159.925
1922.15534	3160.225
1925.26322	3152.325
1928.36908	3146.625
1931.47292	3144.125
1934.57473	3138.225
1937.67453	3133.925
1940.77232	3117.425
1943.86808	3098.725
1946.96184	3111.225
1950.05358	3087.625
1953.14331	3078.125
1956.23103	3063.025
1959.31675	3047.825
1962.40046	3050.425
1965.48217	3040.325
1968.56188	3051.725
1971.63959	3033.625
1974.7153	3022.225
1977.78901	3021.825
1980.86073	3006.625
1983.93046	2988.125
1986.99819	2974.525
1990.06394	2972.725
1993.1277	2969.125
1996.18947	2952.025
1999.24925	2934.825
2002.30706	2926.825
2005.36288	2916.625
2008.41672	2922.525
2011.46859	2902.525
2014.51848	2907.825
2017.56639	2868.425
2020.61233	2881.525
2023.6563	2872.825
2026.6983	2859.025
2029.73833	2862.725
2032.7764	2845.625
2035.8125	2834.325
2038.84664	2840.625
2041.87881	2837.825
2044.90903	2824.625
2047.93729	2831.925
2050.96359	2813.425
2053.98794	2812.325
2057.01034	2811.625
2060.03078	2803.525
2063.04927	2804.925
2066.06582	2800.825
2069.08042	2787.625
2072.09307	2812.625
2075.10378	2792.325
2078.11255	2787.125
2081.11938	2795.525
2084.12426	2789.925
2087.12722	2803.725
2090.12824	2781.325
2093.12732	2784.925
2096.12447	2778.825
2099.11969	2777.425
2102.11299	2791.625
2105.10435	2795.825
2108.09379	2786.925
2111.08131	2790.925
2114.0669	2769.125
2117.05057	2790.025
2120.03233	2776.825
2123.01216	2784.225
2125.99008	2796.025
2128.96609	2802.625
2131.94018	2787.825
2134.91236	2789.225
2137.88263	2783.525
2140.851	2783.625
2143.81746	2796.525
2146.78201	2786.825
2149.74466	2784.625
2152.7054	2777.325
2155.66425	2784.425
2158.6212	2787.925
2161.57625	2780.625
2164.52941	2770.225
2167.48067	2777.225
2170.43004	2771.725
2173.37752	2766.825
2176.32311	2759.425
2179.26681	2772.525
2182.20863	2768.425
2185.14856	2769.825
2188.08661	2773.225
2191.02278	2764.825
2193.95707	2770.625
2196.88948	2772.925
2199.82001	2757.825
2202.74867	2756.225
2205.67545	2755.325
2208.60037	2743.925
2211.52341	2741.925
2214.44458	2737.325
2217.36388	2729.325
2220.28132	2723.725
2223.1969	2718.925
2226.11061	2705.225
2229.02246	2691.525
2231.93245	2686.125
2234.84058	2690.225
2237.74686	2687.825
2240.65128	2671.725
2243.55385	2677.625
2246.45456	2678.125
2249.35343	2673.225
2252.25044	2672.025
2255.14561	2663.625
2258.03893	2648.525
2260.93041	2619.725
2263.82004	2639.325
2266.70783	2639.325
2269.59378	2645.125
2272.4779	2641.525
2275.36017	2628.825
2278.24061	2633.025
2281.11922	2614.625
2283.996	2609.025
2286.87094	2604.125
2289.74405	2600.025
2292.61534	2591.625
2295.4848	2595.425
2298.35243	2586.425
2301.21824	2571.825
2304.08223	2587.225
2306.94439	2577.125
2309.80474	2567.125
2312.66327	2582.025
2315.51999	2574.625
2318.37489	2570.025
2321.22797	2581.925
2324.07925	2568.425
2326.92871	2555.225
2329.77637	2551.025
2332.62222	2554.025
2335.46626	2545.625
2338.3085	2530.225
2341.14893	2529.525
2343.98756	2530.625
2346.8244	2534.025
2349.65943	2533.325
2352.49267	2532.525
2355.32411	2535.525
2358.15376	2542.125
2360.98161	2543.125
2363.80768	2537.025
2366.63195	2546.525
2369.45444	2546.725
2372.27514	2545.925
2375.09405	2529.325
2377.91118	2536.425
2380.72652	2521.225
2383.54009	2525.125
2386.35187	2499.625
2389.16188	2500.825
2391.97011	2504.125
2394.77657	2490.425
2397.58125	2468.525
2400.38416	2463.125
2403.18529	2474.525
2405.98466	2462.525
2408.78226	2458.625
2411.57809	2444.925
2414.37216	2440.425
2417.16446	2436.625
2419.955	2446.225
2422.74378	2446.725
2425.5308	2432.825
2428.31606	2440.625
2431.09956	2441.025
2433.88131	2445.925
2436.6613	2436.225
2439.43954	2439.025
2442.21603	2439.325
2444.99077	2431.725
2447.76377	2439.625
2450.53501	2425.525
2453.30451	2428.325
2456.07226	2427.825
2458.83827	2431.725
2461.60254	2418.425
2464.36507	2406.725
2467.12586	2404.925
2469.88492	2407.025
2472.64224	2409.225
2475.39782	2403.925
2478.15167	2402.625
2480.90379	2418.925
2483.65417	2408.525
2486.40283	2428.525
2489.14976	2432.025
2491.89497	2429.125
2494.63845	2407.325
2497.3802	2397.625
2500.12024	2420.625
2502.85855	2408.325
2505.59514	2396.725
2508.33002	2394.225
2511.06318	2397.625
2513.79462	2396.725
2516.52435	2378.025
2519.25237	2382.625
2521.97867	2358.625
2524.70327	2352.625
2527.42616	2360.725
2530.14734	2351.625
2532.86681	2352.725
2535.58458	2343.625
2538.30065	2359.725
2541.01501	2348.325
2543.72768	2333.325
2546.43864	2335.725
2549.14791	2344.525
2551.85548	2352.125
2554.56136	2329.325
2557.26554	2339.025
2559.96803	2327.525
2562.66883	2319.225
2565.36794	2326.325
2568.06536	2323.825
2570.7611	2331.625
2573.45514	2308.625
2576.14751	2311.125
2578.83819	2298.325
2581.52719	2301.925
2584.21451	2297.225
2586.90015	2293.225
2589.58411	2284.225
2592.2664	2282.525
2594.94701	2282.725
2597.62594	2280.125
2600.30321	2282.425
2602.9788	2267.225
2605.65273	2265.225
2608.32498	2278.625
2610.99557	2274.025
2613.66449	2276.125
2616.33175	2271.925
2618.99734	2269.725
2621.66128	2263.725
2624.32355	2257.325
2626.98416	2251.425
2629.64311	2252.125
2632.30041	2239.925
2634.95605	2257.425
2637.61004	2238.425
2640.26238	2235.025
2642.91306	2225.725
2645.56209	2228.325
2648.20948	2214.825
2650.85521	2219.825
2653.4993	2219.525
2656.14175	2231.225
2658.78255	2238.325
2661.42171	2221.525
2664.05923	2241.325
2666.6951	2248.125
2669.32934	2240.225
2671.96194	2245.525
2674.59291	2244.425
2677.22224	2264.025
2679.84993	2241.725
2682.476	2243.525
2685.10043	2245.025
2687.72324	2256.925
2690.34441	2253.625
2692.96396	2244.025
2695.58188	2252.425
2698.19818	2240.925
2700.81285	2235.825
2703.4259	2208.525
2706.03733	2135.325
2708.64714	2178.125
2711.25533	2221.425
2713.86191	2241.825
2716.46687	2247.325
2719.07021	2267.425
2721.67194	2273.125
2724.27206	2267.425
2726.87057	2266.925
2729.46747	2273.825
2732.06276	2276.725
2734.65644	2271.425
2737.24852	2279.325
2739.83899	2263.725
2742.42786	2270.425
2745.01513	2268.225
2747.60079	2262.925
2750.18486	2252.425
2752.76733	2251.525
2755.3482	2252.625
2757.92747	2235.625
2760.50515	2260.225
2763.08123	2248.925
2765.65573	2245.025
2768.22863	2249.825
2770.79994	2243.425
2773.36967	2252.325
2775.9378	2260.325
2778.50435	2259.025
2781.06932	2244.925
2783.6327	2260.625
2786.1945	2250.325
2788.75471	2265.625
2791.31335	2251.625
2793.87041	2258.525
2796.42589	2254.225
2798.97979	2264.725
2801.53212	2261.025
2804.08288	2250.925
2806.63206	2269.125
2809.17967	2264.925
2811.72571	2257.025
2814.27018	2261.325
2816.81308	2270.925
2819.35442	2254.525
2821.89419	2268.125
2824.43239	2267.125
2826.96904	2256.325
2829.50412	2273.825
2832.03763	2266.725
2834.56959	2274.725
2837.1	2280.125
2839.62884	2295.125
2842.15613	2295.525
2844.68186	2327.925
2847.20604	2366.225
2849.72867	2374.325
2852.24974	2387.325
2854.76927	2380.825
2857.28724	2357.825
2859.80367	2361.525
2862.31855	2374.525
2864.83189	2373.325
2867.34368	2377.525
2869.85393	2382.025
2872.36264	2378.725
2874.8698	2375.725
2877.37543	2372.925
2879.87952	2365.725
2882.38207	2368.625
2884.88308	2363.625
2887.38256	2367.125
2889.88051	2375.825
2892.37692	2363.725
2894.8718	2363.525
2897.36515	2364.425
2899.85698	2367.825
2902.34727	2371.125
2904.83604	2367.725
2907.32328	2369.625
2909.809	2375.025
2912.29319	2390.225
2914.77587	2370.625
2917.25702	2374.425
2919.73665	2378.725
2922.21476	2363.825
2924.69136	2375.925
2927.16644	2364.825
2929.64	2361.425
2932.11205	2351.725
2934.58258	2341.925
2937.05161	2332.525
2939.51912	2319.325
2941.98513	2295.825
2944.44962	2274.025
2946.91261	2246.225
2949.37409	2226.625
2951.83407	2217.825
2954.29254	2208.725
2956.74951	2204.125
2959.20498	2182.025
2961.65895	2174.625
2964.11142	2167.125
2966.56239	2176.325
2969.01186	2168.625
2971.45984	2165.225
2973.90632	2149.425
2976.35131	2130.225
2978.7948	2123.025
2981.23681	2112.725
2983.67732	2111.225
2986.11635	2108.825
2988.55388	2087.925
2990.98993	2087.825
2993.4245	2077.325
2995.85758	2070.325
2998.28917	2072.025
3000.71928	2064.325
3003.14791	2064.525
3005.57506	2057.525
3008.00073	2055.925
3010.42493	2063.025
3012.84764	2049.225
3015.26888	2051.525
3017.68865	2038.125
3020.10694	2048.625
3022.52376	2048.325
3024.9391	2034.725
3027.35298	2029.825
3029.76539	2029.325
3032.17632	2038.225
3034.5858	2032.225
3036.9938	2043.125
3039.40034	2030.825
3041.80542	2035.425
3044.20903	2023.725
3046.61118	2024.725
3049.01187	2031.625
3051.4111	2020.325
3053.80888	2031.025
3056.20519	2028.025
3058.60005	2027.925
3060.99345	2016.325
3063.3854	2016.025
3065.7759	2033.225
3068.16494	2023.025
3070.55254	2016.925
3072.93868	2023.825
3075.32338	2017.425
3077.70662	2012.025
3080.08842	2010.125
3082.46878	1999.925
3084.84769	1997.425
3087.22515	2002.225
3089.60118	2005.725
3091.97576	2002.325
3094.3489	2005.025
3096.72061	2003.725
3099.09087	2012.725
3101.4597	2016.725
3103.82709	2004.225
3106.19305	2006.725
3108.55757	2010.825
3110.92066	1998.725
3113.28232	2004.025
3115.64255	2020.925
3118.00134	2006.825
3120.35871	2010.025
3122.71466	2001.625
3125.06917	2007.625
3127.42226	2010.525
3129.77393	2014.125
3132.12417	2011.525
3134.47299	2028.625
3136.82039	2021.125
3139.16636	2029.525
3141.51092	2030.225
3143.85406	2036.025
3146.19579	2045.625
3148.53609	2041.525
3150.87499	2046.225
3153.21246	2052.725
3155.54853	2068.025
3157.88318	2064.225
3160.21642	2062.325
3162.54826	2067.425
3164.87868	2082.425
3167.2077	2084.125
3169.5353	2078.125
3171.86151	2080.325
3174.18631	2088.225
3176.5097	2079.225
3178.83169	2089.225
3181.15228	2103.225
3183.47147	2103.525
3185.78926	2099.925
3188.10565	2101.525
3190.42065	2109.325
3192.73424	2109.725
3195.04645	2108.825
3197.35725	2112.725
3199.66667	2126.125
3201.97469	2127.225
3204.28132	2129.425
3206.58656	2135.425
3208.8904	2139.525
3211.19287	2134.525
3213.49394	2156.225
3215.79363	2142.425
3218.09193	2147.725
3220.38884	2145.125
3222.68438	2111.225
3224.97853	2129.125
3227.2713	2145.125
3229.56269	2143.225
3231.8527	2157.725
3234.14133	2147.625
3236.42858	2155.325
