Data from AgNPs_FTO_APTES_UA_50uM_CRN_0uM_R6G_10uM_NaF_0.1M_Addition_RamanShift__44__11-01-34-683.txt Node

Date: Mon Feb 21 11:01:34 GMT 2022
User: TCL
Spectrometer: QEP01345
Trigger mode: 4
Integration Time (sec): 7.000000E0
Scans to average: 10
Electric dark correction enabled: true
Nonlinearity correction enabled: false
Boxcar width: 0
XAxis mode: Raman Shifts
Number of Pixels in Spectrum: 1044
>>>>>Begin Spectral Data<<<<<
46.04893	0.175
50.45542	-0.925
54.85868	0.375
59.25871	-2.025
63.6555	51.575
68.04907	59.275
72.43941	60.275
76.82654	63.975
81.21044	66.375
85.59113	69.975
89.96862	73.775
94.34289	76.175
98.71396	74.075
103.08183	80.175
107.4465	81.475
111.80798	80.275
116.16626	79.175
120.52136	81.275
124.87327	91.575
129.222	89.575
133.56755	95.575
137.90993	101.275
142.24913	107.775
146.58517	115.975
150.91804	136.575
155.24774	155.675
159.57429	195.975
163.89768	245.375
168.21792	322.775
172.53501	441.175
176.84895	610.575
181.15975	855.075
185.46741	1202.175
189.77193	1645.575
194.07331	2197.175
198.37157	2837.775
202.6667	3497.575
206.9587	4159.275
211.24758	4833.275
215.53334	5503.475
219.81599	6234.875
224.09553	7030.475
228.37195	7963.875
232.64527	8942.275
236.91549	9968.575
241.18261	10937.275
245.44663	11828.175
249.70755	12631.675
253.96539	13288.675
258.22014	13861.875
262.4718	14306.275
266.72039	14644.175
270.96589	14804.775
275.20832	14753.075
279.44768	14659.075
283.68397	14485.375
287.91719	14335.375
292.14735	14303.175
296.37445	14403.475
300.59849	14603.975
304.81948	14911.475
309.03742	15128.275
313.25231	15034.175
317.46415	14648.875
321.67296	13993.975
325.87872	13455.475
330.08145	13158.675
334.28114	13152.675
338.47781	13312.875
342.67145	13563.975
346.86207	13959.075
351.04966	14482.875
355.23424	15078.875
359.4158	15580.775
363.59435	15851.775
367.76989	15979.175
371.94243	16027.675
376.11196	16004.675
380.27849	16018.075
384.44203	15997.575
388.60257	15980.275
392.76012	15997.775
396.91468	16171.075
401.06626	16480.275
405.21485	16780.175
409.36047	16691.375
413.50311	16269.075
417.64277	15843.875
421.77947	15660.575
425.9132	15635.675
430.04396	15675.075
434.17176	15761.975
438.2966	15948.775
442.41849	16345.675
446.53742	16845.675
450.6534	17393.275
454.76644	17855.875
458.87653	17949.075
462.98368	17765.775
467.08789	17439.575
471.18916	17077.875
475.2875	16668.475
479.38291	16460.075
483.4754	16280.775
487.56496	16084.075
491.6516	15906.975
495.73531	15750.475
499.81612	15712.975
503.89401	15819.875
507.96899	15878.675
512.04106	15956.675
516.11023	15995.675
520.1765	16026.375
524.23987	15996.075
528.30034	15846.975
532.35792	15706.875
536.41261	15478.775
540.46441	15216.675
544.51333	15115.575
548.55936	15226.975
552.60252	15481.775
556.64279	15883.175
560.6802	16103.075
564.71473	16329.075
568.7464	16748.675
572.7752	17176.075
576.80114	17180.475
580.82422	17057.875
584.84444	17080.675
588.86181	17319.275
592.87633	17636.875
596.888	17878.775
600.89682	17987.075
604.9028	18906.075
608.90594	21835.875
612.90624	25632.475
616.90371	24558.675
620.89834	19336.775
624.89015	16906.175
628.87913	16551.575
632.86528	16529.875
636.84862	16415.875
640.82913	16073.175
644.80683	15517.275
648.78172	15118.175
652.75379	15049.175
656.72306	15425.375
660.68952	15922.675
664.65319	15888.575
668.61405	15520.375
672.57211	15303.775
676.52738	15301.475
680.47986	15291.475
684.42955	15194.775
688.37646	15187.975
692.32058	15259.875
696.26192	15389.275
700.20048	15547.375
704.13626	15662.375
708.06928	15618.075
711.99952	15472.675
715.927	15399.475
719.85171	15477.575
723.77365	15444.975
727.69284	15257.475
731.60928	15119.975
735.52295	15091.775
739.43388	15139.175
743.34206	15232.275
747.24749	15326.175
751.15017	15471.075
755.05012	15681.075
758.94733	16238.775
762.8418	17374.075
766.73354	19213.775
770.62254	21154.975
774.50882	21874.075
778.39237	21056.675
782.27321	19147.875
786.15132	17266.775
790.02671	16125.975
793.89938	15570.175
797.76935	15341.375
801.6366	15304.275
805.50115	15263.275
809.36299	15188.275
813.22213	15114.775
817.07857	15062.575
820.93231	15039.675
824.78336	15047.875
828.63172	15060.375
832.47738	15077.775
836.32036	15091.075
840.16066	15128.175
843.99827	15243.075
847.8332	15171.275
851.66546	15116.375
855.49504	15031.475
859.32195	15031.675
863.1462	14982.475
866.96777	14850.175
870.78668	14848.575
874.60293	14882.075
878.41652	14899.675
882.22745	15006.575
886.03573	15068.175
889.84136	15078.075
893.64433	14972.375
897.44466	14920.675
901.24235	14858.375
905.0374	14778.975
908.8298	14722.775
912.61957	14713.975
916.40671	14812.075
920.19121	14975.075
923.97308	15188.475
927.75233	15347.275
931.52895	15408.575
935.30295	15267.575
939.07433	14939.975
942.84309	14649.275
946.60924	14535.275
950.37278	14455.375
954.13371	14369.975
957.89203	14233.175
961.64774	14192.675
965.40086	14135.075
969.15137	14114.375
972.89929	14081.875
976.64461	14055.175
980.38733	14082.975
984.12747	14090.575
987.86502	14242.875
991.59999	14443.875
995.33237	14775.275
999.06217	15338.375
1002.78939	16016.875
1006.51404	16449.375
1010.23611	16639.675
1013.95561	16857.675
1017.67255	16905.075
1021.38692	16738.775
1025.09872	16614.475
1028.80796	16768.875
1032.51465	17292.275
1036.21877	17774.375
1039.92035	17827.675
1043.61937	17499.375
1047.31584	16966.975
1051.00976	16396.275
1054.70114	16020.575
1058.38998	15919.975
1062.07627	15926.175
1065.76003	16001.775
1069.44126	16013.975
1073.11995	16196.275
1076.79611	16352.175
1080.46974	16523.075
1084.14085	16750.675
1087.80943	17061.775
1091.47549	17166.175
1095.13903	16974.275
1098.80005	16579.375
1102.45857	16179.175
1106.11456	16018.375
1109.76805	16014.975
1113.41903	16244.475
1117.06751	16487.575
1120.71348	16904.275
1124.35696	17314.775
1127.99793	17724.375
1131.63641	17721.575
1135.2724	17363.875
1138.90589	16966.375
1142.5369	16677.575
1146.16542	16504.375
1149.79145	16405.675
1153.415	16413.275
1157.03607	16573.775
1160.65467	16876.375
1164.27079	17412.975
1167.88443	18268.275
1171.49561	19508.375
1175.10432	21406.175
1178.71056	23832.275
1182.31434	26004.575
1185.91565	27058.975
1189.51451	26926.275
1193.11091	25814.975
1196.70485	24346.875
1200.29634	22983.075
1203.88538	21836.575
1207.47197	20814.975
1211.05612	19945.775
1214.63782	19512.875
1218.21708	19515.875
1221.79391	19697.475
1225.36829	19864.375
1228.94024	19731.575
1232.50976	19413.375
1236.07685	19132.575
1239.6415	18943.375
1243.20374	18905.075
1246.76355	18954.875
1250.32093	19166.875
1253.8759	19657.075
1257.42845	20307.575
1260.97859	20898.775
1264.52631	21469.275
1268.07163	22058.275
1271.61453	22696.775
1275.15503	23384.675
1278.69312	24112.375
1282.22882	24712.075
1285.76211	25312.375
1289.29301	25876.175
1292.82151	26550.475
1296.34761	27453.175
1299.87133	28835.475
1303.39266	30879.475
1306.9116	33651.275
1310.42815	36721.075
1313.94233	38636.275
1317.45412	38332.475
1320.96354	36564.975
1324.47058	34399.475
1327.97525	32658.375
1331.47754	31572.975
1334.97747	31191.075
1338.47502	31367.375
1341.97022	31692.775
1345.46305	31921.775
1348.95352	32131.675
1352.44163	32670.675
1355.92738	34141.075
1359.41078	36980.275
1362.89183	39754.875
1366.37053	39008.875
1369.84688	34672.975
1373.32088	30134.475
1376.79254	27048.675
1380.26186	25462.575
1383.72883	24706.975
1387.19347	24215.775
1390.65578	23739.975
1394.11575	23528.175
1397.57339	23704.375
1401.0287	24225.175
1404.48168	24739.575
1407.93234	25152.675
1411.38068	25391.075
1414.82669	25169.775
1418.27039	24500.675
1421.71177	23656.975
1425.15083	22898.775
1428.58758	22519.875
1432.02203	22585.875
1435.45416	22817.275
1438.88399	23045.575
1442.31151	23200.575
1445.73673	23351.075
1449.15965	23590.075
1452.58027	23680.075
1455.9986	23649.175
1459.41463	23662.075
1462.82837	23958.675
1466.23982	24348.575
1469.64898	24768.675
1473.05586	25055.075
1476.46045	25214.275
1479.86276	25421.875
1483.26279	25641.275
1486.66054	25949.675
1490.05602	26461.275
1493.44922	27035.375
1496.84016	27758.275
1500.22882	28933.775
1503.61521	30547.075
1506.99934	32505.375
1510.38121	34229.175
1513.76081	34682.975
1517.13816	33376.175
1520.51324	30721.875
1523.88607	28276.275
1527.25665	26631.875
1530.62498	25725.675
1533.99105	25254.375
1537.35488	24941.075
1540.71647	24731.875
1544.07581	24549.175
1547.4329	24315.175
1550.78776	23983.575
1554.14038	23813.475
1557.49077	23738.375
1560.83892	23772.775
1564.18484	23904.675
1567.52853	24081.475
1570.86999	24262.075
1574.20922	24421.675
1577.54624	24439.775
1580.88103	24006.675
1584.2136	23534.375
1587.54395	23690.875
1590.87208	24777.075
1594.19801	26638.775
1597.52172	28790.875
1600.84321	29860.175
1604.16251	28970.275
1607.47959	26813.975
1610.79447	24289.675
1614.10715	22047.675
1617.41763	20332.375
1620.7259	19242.675
1624.03199	18746.675
1627.33587	18783.275
1630.63757	19383.475
1633.93707	20486.475
1637.23439	22141.975
1640.52951	24288.175
1643.82246	26781.875
1647.11321	28982.275
1650.40179	29773.875
1653.68819	28158.975
1656.97241	24689.475
1660.25446	21157.075
1663.53433	18535.375
1666.81203	17039.475
1670.08756	16096.575
1673.36092	15556.175
1676.63211	15200.975
1679.90115	14900.175
1683.16801	14704.875
1686.43272	14566.475
1689.69527	14442.075
1692.95567	14294.975
1696.2139	14162.275
1699.46999	14016.275
1702.72392	13982.375
1705.97571	14041.275
1709.22535	14116.975
1712.47284	14192.375
1715.71819	14208.475
1718.96139	14166.475
1722.20246	14142.675
1725.44139	14113.175
1728.67818	14038.875
1731.91284	13946.575
1735.14537	13861.575
1738.37576	13835.275
1741.60403	13769.375
1744.83017	13733.975
1748.05418	13657.475
1751.27607	13643.475
1754.49584	13578.975
1757.71349	13486.675
1760.92903	13424.075
1764.14244	13409.375
1767.35375	13421.675
1770.56294	13412.075
1773.77002	13452.975
1776.97499	13463.275
1780.17785	13503.875
1783.37861	13471.975
1786.57727	13513.875
1789.77382	13517.875
1792.96828	13516.775
1796.16064	13506.775
1799.3509	13467.575
1802.53907	13484.275
1805.72514	13432.975
1808.90913	13389.375
1812.09102	13376.975
1815.27083	13349.975
1818.44856	13350.275
1821.6242	13374.475
1824.79776	13337.475
1827.96924	13317.775
1831.13864	13317.275
1834.30597	13298.275
1837.47122	13311.375
1840.6344	13301.075
1843.7955	13284.175
1846.95454	13268.975
1850.11151	13272.975
1853.26642	13255.175
1856.41926	13302.375
1859.57004	13318.775
1862.71876	13299.675
1865.86542	13302.375
1869.01003	13323.775
1872.15258	13308.675
1875.29308	13314.875
1878.43152	13383.175
1881.56792	13357.775
1884.70227	13343.675
1887.83457	13339.675
1890.96482	13341.675
1894.09304	13291.075
1897.21921	13301.975
1900.34335	13318.875
1903.46544	13339.175
1906.58551	13318.475
1909.70353	13337.875
1912.81953	13318.975
1915.93349	13349.375
1919.04543	13324.075
1922.15534	13268.375
1925.26322	13239.675
1928.36908	13204.075
1931.47292	13151.875
1934.57473	13123.675
1937.67453	13100.975
1940.77232	13072.575
1943.86808	13041.175
1946.96184	12989.975
1950.05358	12944.575
1953.14331	12883.375
1956.23103	12838.975
1959.31675	12765.875
1962.40046	12766.975
1965.48217	12773.075
1968.56188	12720.375
1971.63959	12708.775
1974.7153	12657.675
1977.78901	12623.275
1980.86073	12563.475
1983.93046	12522.575
1986.99819	12469.075
1990.06394	12476.975
1993.1277	12435.975
1996.18947	12392.675
1999.24925	12368.975
2002.30706	12329.675
2005.36288	12313.775
2008.41672	12270.475
2011.46859	12222.775
2014.51848	12186.575
2017.56639	12175.975
2020.61233	12172.075
2023.6563	12136.375
2026.6983	12087.975
2029.73833	12076.175
2032.7764	12050.875
2035.8125	12016.775
2038.84664	12024.275
2041.87881	12005.875
2044.90903	12000.675
2047.93729	11956.175
2050.96359	11976.575
2053.98794	11949.475
2057.01034	11943.375
2060.03078	11927.675
2063.04927	11903.175
2066.06582	11931.175
2069.08042	11879.975
2072.09307	11874.575
2075.10378	11873.075
2078.11255	11873.275
2081.11938	11884.275
2084.12426	11867.075
2087.12722	11862.575
2090.12824	11862.975
2093.12732	11847.975
2096.12447	11859.575
2099.11969	11834.575
2102.11299	11861.175
2105.10435	11837.375
2108.09379	11847.175
2111.08131	11853.175
2114.0669	11878.875
2117.05057	11897.375
2120.03233	11895.775
2123.01216	11922.275
2125.99008	11917.075
2128.96609	11930.475
2131.94018	11955.675
2134.91236	11939.375
2137.88263	11942.175
2140.851	11963.075
2143.81746	11988.175
2146.78201	11984.375
2149.74466	11955.075
2152.7054	11959.775
2155.66425	11984.275
2158.6212	11989.575
2161.57625	11973.975
2164.52941	11991.875
2167.48067	11989.275
2170.43004	11934.275
2173.37752	11954.975
2176.32311	11942.075
2179.26681	11958.475
2182.20863	11969.375
2185.14856	12014.475
2188.08661	12006.375
2191.02278	11990.075
2193.95707	11987.575
2196.88948	11992.475
2199.82001	12003.775
2202.74867	12009.975
2205.67545	12000.075
2208.60037	11981.775
2211.52341	11971.975
2214.44458	11977.575
2217.36388	11966.175
2220.28132	11959.575
2223.1969	11924.175
2226.11061	11927.775
2229.02246	11858.275
2231.93245	11868.775
2234.84058	11832.475
2237.74686	11803.475
2240.65128	11813.675
2243.55385	11777.875
2246.45456	11785.775
2249.35343	11770.875
2252.25044	11772.175
2255.14561	11767.475
2258.03893	11738.275
2260.93041	11699.675
2263.82004	11696.875
2266.70783	11672.575
2269.59378	11647.275
2272.4779	11637.275
2275.36017	11613.375
2278.24061	11582.275
2281.11922	11568.775
2283.996	11577.575
2286.87094	11529.375
2289.74405	11509.175
2292.61534	11520.875
2295.4848	11543.375
2298.35243	11524.175
2301.21824	11498.775
2304.08223	11510.375
2306.94439	11548.375
2309.80474	11541.675
2312.66327	11546.975
2315.51999	11552.075
2318.37489	11574.175
2321.22797	11585.775
2324.07925	11544.475
2326.92871	11511.075
2329.77637	11506.475
2332.62222	11520.375
2335.46626	11527.375
2338.3085	11514.275
2341.14893	11520.375
2343.98756	11548.075
2346.8244	11565.575
2349.65943	11571.775
2352.49267	11577.775
2355.32411	11598.075
2358.15376	11579.075
2360.98161	11567.775
2363.80768	11551.075
2366.63195	11536.075
2369.45444	11500.475
2372.27514	11482.975
2375.09405	11463.275
2377.91118	11457.375
2380.72652	11381.975
2383.54009	11376.575
2386.35187	11360.575
2389.16188	11334.375
2391.97011	11332.275
2394.77657	11325.875
2397.58125	11303.975
2400.38416	11290.775
2403.18529	11291.675
2405.98466	11254.675
2408.78226	11238.675
2411.57809	11193.475
2414.37216	11185.875
2417.16446	11167.675
2419.955	11164.075
2422.74378	11149.775
2425.5308	11120.075
2428.31606	11113.975
2431.09956	11128.675
2433.88131	11115.675
2436.6613	11143.075
2439.43954	11164.275
2442.21603	11135.175
2444.99077	11117.075
2447.76377	11124.775
2450.53501	11094.675
2453.30451	11117.575
2456.07226	11088.175
2458.83827	11105.375
2461.60254	11083.975
2464.36507	11067.375
2467.12586	11043.975
2469.88492	11038.475
2472.64224	11064.875
2475.39782	11081.575
2478.15167	11102.375
2480.90379	11096.475
2483.65417	11148.675
2486.40283	11163.675
2489.14976	11178.375
2491.89497	11176.775
2494.63845	11175.775
2497.3802	11153.975
2500.12024	11191.375
2502.85855	11207.775
2505.59514	11152.575
2508.33002	11182.475
2511.06318	11106.375
2513.79462	11068.075
2516.52435	11069.575
2519.25237	11077.375
2521.97867	11044.075
2524.70327	11032.675
2527.42616	11028.275
2530.14734	11043.975
2532.86681	11033.875
2535.58458	11046.075
2538.30065	11039.375
2541.01501	11020.875
2543.72768	11015.975
2546.43864	11019.675
2549.14791	10998.875
2551.85548	11024.475
2554.56136	11013.475
2557.26554	10959.675
2559.96803	10950.075
2562.66883	10939.675
2565.36794	10937.275
2568.06536	10952.975
2570.7611	10938.675
2573.45514	10911.675
2576.14751	10953.475
2578.83819	10937.375
2581.52719	10925.175
2584.21451	10896.175
2586.90015	10897.675
2589.58411	10931.075
2592.2664	10922.475
2594.94701	10920.875
2597.62594	10912.875
2600.30321	10912.675
2602.9788	10885.275
2605.65273	10925.275
2608.32498	10918.575
2610.99557	10913.175
2613.66449	10923.875
2616.33175	10908.175
2618.99734	10958.675
2621.66128	10946.475
2624.32355	10943.575
2626.98416	10941.375
2629.64311	10943.375
2632.30041	10922.675
2634.95605	10933.075
2637.61004	10897.575
2640.26238	10896.175
2642.91306	10882.075
2645.56209	10869.075
2648.20948	10827.475
2650.85521	10801.275
2653.4993	10819.675
2656.14175	10813.675
2658.78255	10858.875
2661.42171	10853.575
2664.05923	10855.975
2666.6951	10874.475
2669.32934	10905.875
2671.96194	10899.475
2674.59291	10904.275
2677.22224	10892.775
2679.84993	10904.175
2682.476	10901.475
2685.10043	10910.675
2687.72324	10908.275
2690.34441	10887.375
2692.96396	10870.375
2695.58188	10853.875
2698.19818	10847.875
2700.81285	10856.675
2703.4259	10803.475
2706.03733	10743.075
2708.64714	10765.375
2711.25533	10830.275
2713.86191	10878.975
2716.46687	10879.075
2719.07021	10891.775
2721.67194	10929.575
2724.27206	10919.175
2726.87057	10913.775
2729.46747	10900.375
2732.06276	10938.875
2734.65644	10901.275
2737.24852	10901.575
2739.83899	10892.575
2742.42786	10898.975
2745.01513	10888.575
2747.60079	10885.375
2750.18486	10882.375
2752.76733	10887.675
2755.3482	10861.175
2757.92747	10852.175
2760.50515	10849.675
2763.08123	10823.275
2765.65573	10843.875
2768.22863	10829.475
2770.79994	10855.275
2773.36967	10858.975
2775.9378	10841.075
2778.50435	10844.375
2781.06932	10870.475
2783.6327	10854.075
2786.1945	10855.475
2788.75471	10814.575
2791.31335	10830.675
2793.87041	10789.175
2796.42589	10768.875
2798.97979	10775.675
2801.53212	10743.475
2804.08288	10744.675
2806.63206	10742.275
2809.17967	10729.875
2811.72571	10701.475
2814.27018	10700.275
2816.81308	10679.175
2819.35442	10667.275
2821.89419	10689.075
2824.43239	10673.275
2826.96904	10654.675
2829.50412	10662.475
2832.03763	10644.075
2834.56959	10662.575
2837.1	10629.175
2839.62884	10652.975
2842.15613	10633.575
2844.68186	10649.775
2847.20604	10670.575
2849.72867	10657.975
2852.24974	10666.675
2854.76927	10647.075
2857.28724	10614.275
2859.80367	10600.075
2862.31855	10616.875
2864.83189	10587.975
2867.34368	10600.875
2869.85393	10613.475
2872.36264	10606.475
2874.8698	10632.675
2877.37543	10605.075
2879.87952	10617.575
2882.38207	10629.775
2884.88308	10616.375
2887.38256	10616.575
2889.88051	10629.775
2892.37692	10658.575
2894.8718	10626.175
2897.36515	10629.575
2899.85698	10668.875
2902.34727	10649.875
2904.83604	10674.875
2907.32328	10684.775
2909.809	10680.075
2912.29319	10706.475
2914.77587	10728.275
2917.25702	10695.075
2919.73665	10680.775
2922.21476	10689.275
2924.69136	10658.375
2927.16644	10643.975
2929.64	10641.375
2932.11205	10628.875
2934.58258	10566.475
2937.05161	10603.975
2939.51912	10608.675
2941.98513	10576.375
2944.44962	10564.575
2946.91261	10530.175
2949.37409	10593.675
2951.83407	10550.475
2954.29254	10569.175
2956.74951	10558.275
2959.20498	10537.675
2961.65895	10527.875
2964.11142	10496.575
2966.56239	10498.175
2969.01186	10478.375
2971.45984	10467.975
2973.90632	10449.575
2976.35131	10423.375
2978.7948	10418.175
2981.23681	10407.275
2983.67732	10369.575
2986.11635	10346.375
2988.55388	10303.675
2990.98993	10320.375
2993.4245	10275.675
2995.85758	10292.775
2998.28917	10245.875
3000.71928	10228.775
3003.14791	10226.475
3005.57506	10206.975
3008.00073	10169.275
3010.42493	10183.275
3012.84764	10137.975
3015.26888	10130.075
3017.68865	10114.575
3020.10694	10116.575
3022.52376	10075.375
3024.9391	10085.775
3027.35298	10064.375
3029.76539	10046.675
3032.17632	10048.675
3034.5858	10039.575
3036.9938	10014.775
3039.40034	10008.575
3041.80542	9971.575
3044.20903	9983.375
3046.61118	9982.175
3049.01187	9974.475
3051.4111	9961.675
3053.80888	9961.075
3056.20519	9934.875
3058.60005	9921.375
3060.99345	9921.375
3063.3854	9888.475
3065.7759	9829.675
3068.16494	9794.975
3070.55254	9776.075
3072.93868	9775.275
3075.32338	9716.375
3077.70662	9697.575
3080.08842	9693.575
3082.46878	9691.475
3084.84769	9674.575
3087.22515	9678.675
3089.60118	9681.075
3091.97576	9684.975
3094.3489	9648.575
3096.72061	9680.975
3099.09087	9702.275
3101.4597	9685.975
3103.82709	9676.175
3106.19305	9654.975
3108.55757	9655.875
3110.92066	9633.175
3113.28232	9639.075
3115.64255	9594.375
3118.00134	9597.675
3120.35871	9565.975
3122.71466	9545.275
3125.06917	9545.975
3127.42226	9521.075
3129.77393	9548.975
3132.12417	9514.775
3134.47299	9501.475
