Data from AgNPs_FTO_APTES_UA_50uM_CRN_500uM_R6G_10uM_NaF_0.1M_Addition_RamanShift__12__16-55-53-532.txt Node

Date: Mon Feb 21 16:55:53 GMT 2022
User: TCL
Spectrometer: QEP01345
Trigger mode: 4
Integration Time (sec): 7.000000E0
Scans to average: 10
Electric dark correction enabled: true
Nonlinearity correction enabled: false
Boxcar width: 0
XAxis mode: Raman Shifts
Number of Pixels in Spectrum: 1044
>>>>>Begin Spectral Data<<<<<
46.04893	-1.4375
50.45542	-1.1375
54.85868	0.7625
59.25871	-1.1375
63.6555	41.1625
68.04907	46.7625
72.43941	50.7625
76.82654	52.5625
81.21044	54.0625
85.59113	53.9625
89.96862	58.1625
94.34289	60.0625
98.71396	63.5625
103.08183	65.1625
107.4465	67.2625
111.80798	69.7625
116.16626	67.5625
120.52136	69.2625
124.87327	70.3625
129.222	70.1625
133.56755	74.9625
137.90993	78.7625
142.24913	81.5625
146.58517	87.8625
150.91804	93.5625
155.24774	110.7625
159.57429	130.8625
163.89768	164.0625
168.21792	211.1625
172.53501	282.8625
176.84895	389.6625
181.15975	545.4625
185.46741	762.6625
189.77193	1056.6625
194.07331	1407.4625
198.37157	1815.1625
202.6667	2244.8625
206.9587	2672.5625
211.24758	3099.2625
215.53334	3512.2625
219.81599	3966.6625
224.09553	4445.6625
228.37195	4966.4625
232.64527	5551.8625
236.91549	6178.0625
241.18261	6825.7625
245.44663	7400.3625
249.70755	7916.7625
253.96539	8352.2625
258.22014	8738.5625
262.4718	8999.8625
266.72039	9193.1625
270.96589	9272.9625
275.20832	9251.2625
279.44768	9166.7625
283.68397	9044.8625
287.91719	8886.4625
292.14735	8816.6625
296.37445	8776.0625
300.59849	8782.5625
304.81948	8839.6625
309.03742	8833.9625
313.25231	8802.9625
317.46415	8692.3625
321.67296	8523.4625
325.87872	8369.7625
330.08145	8280.7625
334.28114	8298.0625
338.47781	8354.2625
342.67145	8459.6625
346.86207	8585.5625
351.04966	8761.3625
355.23424	8900.4625
359.4158	9046.6625
363.59435	9162.6625
367.76989	9263.3625
371.94243	9330.9625
376.11196	9367.8625
380.27849	9413.7625
384.44203	9424.8625
388.60257	9502.4625
392.76012	9574.8625
396.91468	9669.5625
401.06626	9777.6625
405.21485	9874.9625
409.36047	9851.6625
413.50311	9692.8625
417.64277	9546.3625
421.77947	9478.1625
425.9132	9461.1625
430.04396	9490.3625
434.17176	9550.0625
438.2966	9639.5625
442.41849	9721.5625
446.53742	9851.5625
450.6534	10005.7625
454.76644	10100.5625
458.87653	10175.3625
462.98368	10188.3625
467.08789	10135.2625
471.18916	10106.0625
475.2875	9990.5625
479.38291	9890.9625
483.4754	9836.8625
487.56496	9778.5625
491.6516	9758.4625
495.73531	9726.8625
499.81612	9718.5625
503.89401	9749.4625
507.96899	9801.3625
512.04106	9860.6625
516.11023	9877.5625
520.1765	9889.7625
524.23987	9865.2625
528.30034	9805.7625
532.35792	9745.3625
536.41261	9721.6625
540.46441	9638.5625
544.51333	9658.1625
548.55936	9687.9625
552.60252	9754.5625
556.64279	9900.4625
560.6802	9946.6625
564.71473	9960.3625
568.7464	10019.5625
572.7752	10103.8625
576.80114	10166.6625
580.82422	10235.2625
584.84444	10303.4625
588.86181	10412.3625
592.87633	10497.3625
596.888	10544.1625
600.89682	10638.9625
604.9028	10947.9625
608.90594	11822.1625
612.90624	12867.4625
616.90371	12430.6625
620.89834	10804.8625
624.89015	9999.6625
628.87913	9874.6625
632.86528	9954.8625
636.84862	10028.8625
640.82913	9993.3625
644.80683	9843.0625
648.78172	9717.1625
652.75379	9706.0625
656.72306	9811.6625
660.68952	9930.0625
664.65319	9936.7625
668.61405	9825.1625
672.57211	9829.9625
676.52738	9866.9625
680.47986	9897.3625
684.42955	9884.7625
688.37646	9862.4625
692.32058	9818.9625
696.26192	9860.6625
700.20048	9890.7625
704.13626	9898.3625
708.06928	9870.3625
711.99952	9839.3625
715.927	9819.1625
719.85171	9819.0625
723.77365	9807.2625
727.69284	9762.0625
731.60928	9730.0625
735.52295	9701.8625
739.43388	9679.6625
743.34206	9714.9625
747.24749	9734.0625
751.15017	9764.4625
755.05012	9845.5625
758.94733	10013.9625
762.8418	10377.6625
766.73354	10975.8625
770.62254	11640.4625
774.50882	11904.2625
778.39237	11611.2625
782.27321	10905.9625
786.15132	10323.8625
790.02671	9945.0625
793.89938	9777.0625
797.76935	9655.3625
801.6366	9606.1625
805.50115	9566.4625
809.36299	9540.6625
813.22213	9488.0625
817.07857	9482.5625
820.93231	9459.7625
824.78336	9463.1625
828.63172	9460.9625
832.47738	9436.4625
836.32036	9448.3625
840.16066	9413.7625
843.99827	9430.9625
847.8332	9410.4625
851.66546	9401.1625
855.49504	9408.4625
859.32195	9437.2625
863.1462	9456.8625
866.96777	9420.5625
870.78668	9434.7625
874.60293	9428.0625
878.41652	9451.8625
882.22745	9474.2625
886.03573	9502.8625
889.84136	9493.2625
893.64433	9487.0625
897.44466	9482.0625
901.24235	9451.8625
905.0374	9446.3625
908.8298	9391.8625
912.61957	9347.4625
916.40671	9392.9625
920.19121	9429.1625
923.97308	9455.6625
927.75233	9467.9625
931.52895	9450.6625
935.30295	9414.0625
939.07433	9306.6625
942.84309	9187.0625
946.60924	9155.5625
950.37278	9133.2625
954.13371	9082.1625
957.89203	9056.3625
961.64774	9040.4625
965.40086	9045.2625
969.15137	9011.6625
972.89929	8999.8625
976.64461	8960.8625
980.38733	8955.2625
984.12747	8943.0625
987.86502	8948.7625
991.59999	8963.9625
995.33237	8995.3625
999.06217	9054.6625
1002.78939	9112.8625
1006.51404	9191.6625
1010.23611	9284.6625
1013.95561	9349.8625
1017.67255	9398.4625
1021.38692	9375.5625
1025.09872	9313.1625
1028.80796	9228.5625
1032.51465	9164.3625
1036.21877	9184.2625
1039.92035	9201.8625
1043.61937	9244.5625
1047.31584	9283.3625
1051.00976	9326.1625
1054.70114	9340.5625
1058.38998	9342.9625
1062.07627	9367.8625
1065.76003	9435.4625
1069.44126	9451.0625
1073.11995	9512.1625
1076.79611	9566.4625
1080.46974	9596.4625
1084.14085	9663.0625
1087.80943	9732.3625
1091.47549	9774.7625
1095.13903	9746.6625
1098.80005	9692.9625
1102.45857	9602.9625
1106.11456	9491.6625
1109.76805	9488.4625
1113.41903	9507.4625
1117.06751	9588.0625
1120.71348	9710.1625
1124.35696	9836.3625
1127.99793	9959.1625
1131.63641	10002.4625
1135.2724	9897.2625
1138.90589	9753.5625
1142.5369	9700.6625
1146.16542	9644.2625
1149.79145	9609.8625
1153.415	9591.3625
1157.03607	9624.0625
1160.65467	9729.1625
1164.27079	9884.7625
1167.88443	10124.7625
1171.49561	10448.4625
1175.10432	10927.6625
1178.71056	11544.1625
1182.31434	12143.5625
1185.91565	12456.7625
1189.51451	12483.5625
1193.11091	12318.9625
1196.70485	12008.1625
1200.29634	11662.8625
1203.88538	11321.2625
1207.47197	10993.3625
1211.05612	10697.8625
1214.63782	10425.1625
1218.21708	10288.8625
1221.79391	10186.8625
1225.36829	10136.9625
1228.94024	10126.3625
1232.50976	10104.8625
1236.07685	10119.3625
1239.6415	10105.8625
1243.20374	10145.1625
1246.76355	10135.2625
1250.32093	10192.2625
1253.8759	10265.9625
1257.42845	10383.8625
1260.97859	10512.1625
1264.52631	10665.0625
1268.07163	10854.9625
1271.61453	10948.5625
1275.15503	11045.1625
1278.69312	11156.0625
1282.22882	11207.8625
1285.76211	11313.9625
1289.29301	11505.0625
1292.82151	11752.8625
1296.34761	12012.0625
1299.87133	12361.5625
1303.39266	12771.4625
1306.9116	13337.9625
1310.42815	13890.4625
1313.94233	14219.2625
1317.45412	14119.4625
1320.96354	13815.9625
1324.47058	13400.9625
1327.97525	13048.6625
1331.47754	12795.5625
1334.97747	12718.9625
1338.47502	12760.7625
1341.97022	12979.6625
1345.46305	13276.2625
1348.95352	13702.3625
1352.44163	14102.0625
1355.92738	14581.5625
1359.41078	15259.2625
1362.89183	15884.9625
1366.37053	15694.9625
1369.84688	14491.9625
1373.32088	13041.7625
1376.79254	12025.5625
1380.26186	11497.8625
1383.72883	11272.1625
1387.19347	11048.1625
1390.65578	10840.7625
1394.11575	10702.1625
1397.57339	10568.6625
1401.0287	10538.4625
1404.48168	10496.4625
1407.93234	10459.5625
1411.38068	10435.8625
1414.82669	10378.1625
1418.27039	10261.4625
1421.71177	10133.1625
1425.15083	9979.4625
1428.58758	9876.0625
1432.02203	9824.6625
1435.45416	9845.5625
1438.88399	9938.8625
1442.31151	9917.8625
1445.73673	10009.6625
1449.15965	10014.3625
1452.58027	10047.1625
1455.9986	10057.7625
1459.41463	10145.9625
1462.82837	10224.0625
1466.23982	10346.7625
1469.64898	10484.7625
1473.05586	10594.4625
1476.46045	10696.3625
1479.86276	10776.4625
1483.26279	10830.5625
1486.66054	10905.6625
1490.05602	11051.9625
1493.44922	11324.5625
1496.84016	11706.6625
1500.22882	12297.0625
1503.61521	13073.2625
1506.99934	13908.4625
1510.38121	14442.6625
1513.76081	14438.9625
1517.13816	13926.9625
1520.51324	13079.3625
1523.88607	12283.9625
1527.25665	11787.9625
1530.62498	11524.9625
1533.99105	11335.9625
1537.35488	11229.1625
1540.71647	11079.3625
1544.07581	10965.1625
1547.4329	10821.7625
1550.78776	10738.7625
1554.14038	10662.4625
1557.49077	10681.2625
1560.83892	10698.5625
1564.18484	10808.3625
1567.52853	10918.2625
1570.86999	11054.9625
1574.20922	11179.4625
1577.54624	11191.2625
1580.88103	10955.2625
1584.2136	10688.8625
1587.54395	10489.9625
1590.87208	10497.9625
1594.19801	10709.8625
1597.52172	11044.9625
1600.84321	11241.1625
1604.16251	11142.8625
1607.47959	10872.4625
1610.79447	10531.9625
1614.10715	10125.5625
1617.41763	9746.4625
1620.7259	9404.0625
1624.03199	9197.9625
1627.33587	9112.3625
1630.63757	9142.9625
1633.93707	9281.1625
1637.23439	9587.7625
1640.52951	10146.5625
1643.82246	10863.2625
1647.11321	11665.7625
1650.40179	12153.8625
1653.68819	11966.7625
1656.97241	11170.7625
1660.25446	10169.0625
1663.53433	9399.8625
1666.81203	8881.8625
1670.08756	8554.9625
1673.36092	8324.9625
1676.63211	8199.2625
1679.90115	8104.5625
1683.16801	8032.9625
1686.43272	7952.1625
1689.69527	7860.6625
1692.95567	7796.6625
1696.2139	7754.8625
1699.46999	7734.1625
1702.72392	7696.8625
1705.97571	7657.7625
1709.22535	7673.6625
1712.47284	7668.9625
1715.71819	7652.9625
1718.96139	7622.2625
1722.20246	7624.0625
1725.44139	7588.0625
1728.67818	7534.5625
1731.91284	7512.2625
1735.14537	7493.1625
1738.37576	7439.1625
1741.60403	7412.2625
1744.83017	7407.2625
1748.05418	7404.2625
1751.27607	7376.2625
1754.49584	7403.0625
1757.71349	7380.5625
1760.92903	7385.2625
1764.14244	7353.2625
1767.35375	7342.0625
1770.56294	7339.1625
1773.77002	7290.8625
1776.97499	7272.8625
1780.17785	7235.1625
1783.37861	7225.5625
1786.57727	7216.4625
1789.77382	7180.1625
1792.96828	7160.0625
1796.16064	7131.2625
1799.3509	7105.7625
1802.53907	7098.7625
1805.72514	7073.8625
1808.90913	7049.1625
1812.09102	7019.9625
1815.27083	7025.2625
1818.44856	7005.1625
1821.6242	6993.1625
1824.79776	6968.4625
1827.96924	6952.4625
1831.13864	6949.3625
1834.30597	6940.9625
1837.47122	6905.7625
1840.6344	6911.6625
1843.7955	6898.2625
1846.95454	6909.1625
1850.11151	6887.3625
1853.26642	6878.8625
1856.41926	6858.6625
1859.57004	6849.3625
1862.71876	6852.1625
1865.86542	6842.6625
1869.01003	6835.3625
1872.15258	6821.1625
1875.29308	6830.4625
1878.43152	6819.9625
1881.56792	6804.6625
1884.70227	6778.9625
1887.83457	6784.2625
1890.96482	6777.2625
1894.09304	6743.1625
1897.21921	6720.3625
1900.34335	6712.4625
1903.46544	6718.4625
1906.58551	6731.6625
1909.70353	6699.9625
1912.81953	6700.0625
1915.93349	6675.1625
1919.04543	6638.5625
1922.15534	6637.4625
1925.26322	6628.1625
1928.36908	6607.2625
1931.47292	6607.0625
1934.57473	6576.2625
1937.67453	6572.0625
1940.77232	6560.0625
1943.86808	6537.1625
1946.96184	6519.9625
1950.05358	6488.7625
1953.14331	6479.3625
1956.23103	6470.8625
1959.31675	6438.5625
1962.40046	6408.3625
1965.48217	6392.5625
1968.56188	6364.7625
1971.63959	6346.6625
1974.7153	6323.3625
1977.78901	6319.1625
1980.86073	6287.6625
1983.93046	6280.4625
1986.99819	6266.8625
1990.06394	6245.6625
1993.1277	6212.5625
1996.18947	6183.2625
1999.24925	6174.0625
2002.30706	6163.3625
2005.36288	6137.5625
2008.41672	6127.1625
2011.46859	6095.5625
2014.51848	6075.2625
2017.56639	6061.7625
2020.61233	6064.4625
2023.6563	6030.0625
2026.6983	5999.2625
2029.73833	5977.6625
2032.7764	5967.8625
2035.8125	5962.1625
2038.84664	5926.1625
2041.87881	5925.5625
2044.90903	5910.4625
2047.93729	5873.7625
2050.96359	5874.6625
2053.98794	5874.4625
2057.01034	5865.7625
2060.03078	5847.3625
2063.04927	5859.3625
2066.06582	5857.2625
2069.08042	5835.2625
2072.09307	5833.1625
2075.10378	5801.4625
2078.11255	5800.8625
2081.11938	5816.3625
2084.12426	5812.6625
2087.12722	5798.4625
2090.12824	5798.7625
2093.12732	5797.9625
2096.12447	5799.7625
2099.11969	5798.7625
2102.11299	5801.3625
2105.10435	5798.4625
2108.09379	5790.3625
2111.08131	5808.9625
2114.0669	5793.4625
2117.05057	5803.9625
2120.03233	5809.0625
2123.01216	5816.0625
2125.99008	5804.4625
2128.96609	5798.2625
2131.94018	5828.1625
2134.91236	5821.8625
2137.88263	5796.1625
2140.851	5798.2625
2143.81746	5806.0625
2146.78201	5814.3625
2149.74466	5807.7625
2152.7054	5810.7625
2155.66425	5801.9625
2158.6212	5802.1625
2161.57625	5793.5625
2164.52941	5792.2625
2167.48067	5782.7625
2170.43004	5763.7625
2173.37752	5774.3625
2176.32311	5760.1625
2179.26681	5748.8625
2182.20863	5769.5625
2185.14856	5762.8625
2188.08661	5751.6625
2191.02278	5761.3625
2193.95707	5757.4625
2196.88948	5737.0625
2199.82001	5720.4625
2202.74867	5733.9625
2205.67545	5705.0625
2208.60037	5714.2625
2211.52341	5693.3625
2214.44458	5689.4625
2217.36388	5677.3625
2220.28132	5661.6625
2223.1969	5632.8625
2226.11061	5624.1625
2229.02246	5608.7625
2231.93245	5599.3625
2234.84058	5588.4625
2237.74686	5575.2625
2240.65128	5589.2625
2243.55385	5561.6625
2246.45456	5542.4625
2249.35343	5554.0625
2252.25044	5530.1625
2255.14561	5522.4625
2258.03893	5521.8625
2260.93041	5497.5625
2263.82004	5481.4625
2266.70783	5481.0625
2269.59378	5473.0625
2272.4779	5446.1625
2275.36017	5453.6625
2278.24061	5423.3625
2281.11922	5413.7625
2283.996	5395.2625
2286.87094	5385.6625
2289.74405	5378.3625
2292.61534	5364.0625
2295.4848	5358.3625
2298.35243	5366.0625
2301.21824	5353.6625
2304.08223	5332.8625
2306.94439	5324.7625
2309.80474	5324.6625
2312.66327	5316.6625
2315.51999	5317.0625
2318.37489	5310.2625
2321.22797	5295.2625
2324.07925	5264.2625
2326.92871	5276.2625
2329.77637	5266.8625
2332.62222	5254.6625
2335.46626	5234.6625
2338.3085	5239.9625
2341.14893	5228.8625
2343.98756	5213.3625
2346.8244	5210.0625
2349.65943	5219.5625
2352.49267	5188.6625
2355.32411	5215.0625
2358.15376	5194.8625
2360.98161	5206.9625
2363.80768	5194.9625
2366.63195	5190.5625
2369.45444	5182.5625
2372.27514	5183.3625
2375.09405	5178.6625
2377.91118	5169.6625
2380.72652	5155.5625
2383.54009	5153.0625
2386.35187	5120.6625
2389.16188	5085.0625
2391.97011	5064.3625
2394.77657	5095.2625
2397.58125	5063.6625
2400.38416	5053.4625
2403.18529	5039.8625
2405.98466	5031.1625
2408.78226	5018.8625
2411.57809	5025.2625
2414.37216	5004.2625
2417.16446	5016.5625
2419.955	5010.1625
2422.74378	4978.1625
2425.5308	4983.4625
2428.31606	4990.8625
2431.09956	4990.2625
2433.88131	4961.0625
2436.6613	4963.7625
2439.43954	4956.4625
2442.21603	4954.8625
2444.99077	4943.2625
2447.76377	4934.9625
2450.53501	4931.8625
2453.30451	4929.3625
2456.07226	4929.3625
2458.83827	4929.6625
2461.60254	4915.4625
2464.36507	4915.8625
2467.12586	4897.8625
2469.88492	4888.6625
2472.64224	4897.6625
2475.39782	4890.3625
2478.15167	4894.4625
2480.90379	4880.2625
2483.65417	4892.3625
2486.40283	4870.0625
2489.14976	4901.2625
2491.89497	4865.2625
2494.63845	4873.2625
2497.3802	4875.1625
2500.12024	4865.2625
2502.85855	4855.4625
2505.59514	4852.1625
2508.33002	4837.0625
2511.06318	4825.9625
2513.79462	4798.1625
2516.52435	4794.1625
2519.25237	4786.4625
2521.97867	4777.2625
2524.70327	4775.3625
2527.42616	4784.0625
2530.14734	4758.4625
2532.86681	4755.8625
2535.58458	4733.3625
2538.30065	4736.0625
2541.01501	4736.4625
2543.72768	4718.7625
2546.43864	4710.0625
2549.14791	4701.5625
2551.85548	4691.8625
2554.56136	4684.9625
2557.26554	4685.1625
2559.96803	4676.6625
2562.66883	4659.6625
2565.36794	4664.9625
2568.06536	4649.6625
2570.7611	4624.5625
2573.45514	4622.6625
2576.14751	4621.9625
2578.83819	4592.5625
2581.52719	4599.8625
2584.21451	4585.6625
2586.90015	4568.4625
2589.58411	4566.4625
2592.2664	4560.3625
2594.94701	4534.8625
2597.62594	4524.8625
2600.30321	4527.2625
2602.9788	4516.9625
2605.65273	4498.6625
2608.32498	4514.1625
2610.99557	4501.0625
2613.66449	4498.3625
2616.33175	4482.6625
2618.99734	4472.3625
2621.66128	4473.2625
2624.32355	4463.4625
2626.98416	4440.4625
2629.64311	4421.8625
2632.30041	4434.8625
2634.95605	4432.1625
2637.61004	4436.2625
2640.26238	4428.3625
2642.91306	4416.2625
2645.56209	4413.9625
2648.20948	4414.9625
2650.85521	4393.2625
2653.4993	4386.8625
2656.14175	4392.6625
2658.78255	4391.1625
2661.42171	4388.2625
2664.05923	4398.3625
2666.6951	4390.9625
2669.32934	4383.3625
2671.96194	4396.1625
2674.59291	4381.8625
2677.22224	4400.9625
2679.84993	4393.3625
2682.476	4389.4625
2685.10043	4383.8625
2687.72324	4374.8625
2690.34441	4379.8625
2692.96396	4364.3625
2695.58188	4377.3625
2698.19818	4371.3625
2700.81285	4373.9625
2703.4259	4356.8625
2706.03733	4342.1625
2708.64714	4348.0625
2711.25533	4375.2625
2713.86191	4359.5625
2716.46687	4370.5625
2719.07021	4354.9625
2721.67194	4370.1625
2724.27206	4377.3625
2726.87057	4370.7625
2729.46747	4366.8625
2732.06276	4369.8625
2734.65644	4351.4625
2737.24852	4354.0625
2739.83899	4346.7625
2742.42786	4331.3625
2745.01513	4335.2625
2747.60079	4318.8625
2750.18486	4307.4625
2752.76733	4304.8625
2755.3482	4305.8625
2757.92747	4284.3625
2760.50515	4273.6625
2763.08123	4282.1625
2765.65573	4264.7625
2768.22863	4274.5625
2770.79994	4258.6625
2773.36967	4261.3625
2775.9378	4260.6625
2778.50435	4248.1625
2781.06932	4248.4625
2783.6327	4229.9625
2786.1945	4222.2625
2788.75471	4221.6625
2791.31335	4203.7625
2793.87041	4196.0625
2796.42589	4200.6625
2798.97979	4203.5625
2801.53212	4156.2625
2804.08288	4161.8625
2806.63206	4162.4625
2809.17967	4161.6625
2811.72571	4132.2625
2814.27018	4133.4625
2816.81308	4122.0625
2819.35442	4125.0625
2821.89419	4122.9625
2824.43239	4116.4625
2826.96904	4108.6625
2829.50412	4103.0625
2832.03763	4090.8625
2834.56959	4103.0625
2837.1	4087.4625
2839.62884	4102.1625
2842.15613	4102.9625
2844.68186	4119.7625
2847.20604	4119.8625
2849.72867	4142.1625
2852.24974	4124.4625
2854.76927	4136.0625
2857.28724	4112.7625
2859.80367	4106.8625
2862.31855	4094.8625
2864.83189	4093.2625
2867.34368	4099.0625
2869.85393	4083.1625
2872.36264	4082.6625
2874.8698	4076.6625
2877.37543	4064.6625
2879.87952	4063.3625
2882.38207	4041.9625
2884.88308	4067.9625
2887.38256	4076.5625
2889.88051	4067.8625
2892.37692	4061.7625
2894.8718	4072.8625
2897.36515	4067.9625
2899.85698	4070.9625
2902.34727	4069.4625
2904.83604	4078.8625
2907.32328	4082.6625
2909.809	4069.6625
2912.29319	4076.5625
2914.77587	4083.5625
2917.25702	4097.6625
2919.73665	4103.8625
2922.21476	4097.8625
2924.69136	4090.1625
2927.16644	4097.5625
2929.64	4072.6625
2932.11205	4078.6625
2934.58258	4077.2625
2937.05161	4069.4625
2939.51912	4071.3625
2941.98513	4069.2625
2944.44962	4059.4625
2946.91261	4036.9625
2949.37409	4042.9625
2951.83407	4032.5625
2954.29254	4025.6625
2956.74951	4014.5625
2959.20498	4013.6625
2961.65895	3991.1625
2964.11142	3997.4625
2966.56239	3983.5625
2969.01186	3979.3625
2971.45984	3964.2625
2973.90632	3962.0625
2976.35131	3940.2625
2978.7948	3939.5625
2981.23681	3930.4625
2983.67732	3926.5625
2986.11635	3894.8625
2988.55388	3894.9625
2990.98993	3885.1625
2993.4245	3859.4625
2995.85758	3876.9625
2998.28917	3863.6625
3000.71928	3853.5625
3003.14791	3852.7625
3005.57506	3829.9625
3008.00073	3833.5625
3010.42493	3832.1625
3012.84764	3803.9625
3015.26888	3823.7625
3017.68865	3814.0625
3020.10694	3814.0625
3022.52376	3796.8625
3024.9391	3804.3625
3027.35298	3793.5625
3029.76539	3771.5625
3032.17632	3777.8625
3034.5858	3758.0625
3036.9938	3760.8625
3039.40034	3750.4625
3041.80542	3756.8625
3044.20903	3744.3625
3046.61118	3745.3625
3049.01187	3732.1625
3051.4111	3731.8625
3053.80888	3728.9625
3056.20519	3716.7625
3058.60005	3717.6625
3060.99345	3716.8625
3063.3854	3717.0625
3065.7759	3702.8625
3068.16494	3698.6625
3070.55254	3676.3625
3072.93868	3682.3625
3075.32338	3665.9625
3077.70662	3666.1625
3080.08842	3649.7625
3082.46878	3651.2625
3084.84769	3652.7625
3087.22515	3652.6625
3089.60118	3653.3625
3091.97576	3666.9625
3094.3489	3651.3625
3096.72061	3660.0625
3099.09087	3661.6625
3101.4597	3653.1625
3103.82709	3653.1625
3106.19305	3650.8625
