Data from AgNPs_FTO_APTES_UA_50uM_CRN_100uM_R6G_10uM_NaF_0.1M_Addition_RamanShift__23__15-42-45-046.txt Node

Date: Mon Feb 21 15:42:45 GMT 2022
User: TCL
Spectrometer: QEP01345
Trigger mode: 4
Integration Time (sec): 7.000000E0
Scans to average: 10
Electric dark correction enabled: true
Nonlinearity correction enabled: false
Boxcar width: 0
XAxis mode: Raman Shifts
Number of Pixels in Spectrum: 1044
>>>>>Begin Spectral Data<<<<<
46.04893	0.575
50.45542	-1.325
54.85868	-0.425
59.25871	-1.525
63.6555	54.375
68.04907	57.975
72.43941	59.675
76.82654	67.675
81.21044	68.075
85.59113	69.275
89.96862	74.275
94.34289	72.175
98.71396	74.975
103.08183	81.475
107.4465	84.275
111.80798	83.075
116.16626	82.975
120.52136	84.175
124.87327	92.575
129.222	94.775
133.56755	97.675
137.90993	105.475
142.24913	113.175
146.58517	125.575
150.91804	142.675
155.24774	168.275
159.57429	206.975
163.89768	262.675
168.21792	349.575
172.53501	477.375
176.84895	667.875
181.15975	928.975
185.46741	1303.175
189.77193	1799.975
194.07331	2420.575
198.37157	3123.575
202.6667	3854.975
206.9587	4592.575
211.24758	5339.675
215.53334	6086.675
219.81599	6871.875
224.09553	7798.675
228.37195	8823.875
232.64527	9934.975
236.91549	11088.475
241.18261	12175.475
245.44663	13178.675
249.70755	13982.275
253.96539	14715.375
258.22014	15289.075
262.4718	15790.275
266.72039	16132.075
270.96589	16325.675
275.20832	16256.975
279.44768	16075.575
283.68397	15781.175
287.91719	15576.875
292.14735	15533.475
296.37445	15653.475
300.59849	15990.275
304.81948	16416.075
309.03742	16651.875
313.25231	16532.875
317.46415	15955.175
321.67296	15180.175
325.87872	14538.375
330.08145	14250.575
334.28114	14262.275
338.47781	14463.175
342.67145	14775.075
346.86207	15218.175
351.04966	15845.875
355.23424	16518.775
359.4158	17127.175
363.59435	17466.275
367.76989	17630.275
371.94243	17692.575
376.11196	17745.075
380.27849	17703.275
384.44203	17670.575
388.60257	17560.075
392.76012	17563.175
396.91468	17652.075
401.06626	17944.675
405.21485	18207.275
409.36047	17985.975
413.50311	17364.875
417.64277	16755.975
421.77947	16450.875
425.9132	16289.475
430.04396	16320.575
434.17176	16380.975
438.2966	16643.875
442.41849	16992.475
446.53742	17433.075
450.6534	17896.775
454.76644	18236.175
458.87653	18325.775
462.98368	18193.075
467.08789	17956.675
471.18916	17651.375
475.2875	17342.475
479.38291	17098.775
483.4754	16889.375
487.56496	16705.375
491.6516	16539.775
495.73531	16449.175
499.81612	16472.075
503.89401	16642.075
507.96899	16805.175
512.04106	16962.375
516.11023	17108.375
520.1765	17200.575
524.23987	17180.875
528.30034	17070.275
532.35792	16899.975
536.41261	16723.975
540.46441	16483.975
544.51333	16341.675
548.55936	16352.175
552.60252	16611.475
556.64279	16925.975
560.6802	17064.275
564.71473	17150.575
568.7464	17541.075
572.7752	17798.375
576.80114	17538.475
580.82422	17243.475
584.84444	17191.375
588.86181	17363.175
592.87633	17685.875
596.888	17931.475
600.89682	18281.675
604.9028	19563.975
608.90594	23236.375
612.90624	27695.175
616.90371	26355.375
620.89834	20290.175
624.89015	17599.175
628.87913	17195.975
632.86528	17229.875
636.84862	17340.675
640.82913	17124.375
644.80683	16535.275
648.78172	16115.875
652.75379	16110.575
656.72306	16505.175
660.68952	17010.675
664.65319	16922.875
668.61405	16456.575
672.57211	16296.275
676.52738	16340.875
680.47986	16394.875
684.42955	16265.875
688.37646	16111.775
692.32058	16059.075
696.26192	16120.875
700.20048	16265.975
704.13626	16327.975
708.06928	16257.975
711.99952	16119.875
715.927	16068.975
719.85171	16130.475
723.77365	16165.275
727.69284	16125.575
731.60928	16041.475
735.52295	16039.075
739.43388	16092.075
743.34206	16173.475
747.24749	16216.075
751.15017	16245.875
755.05012	16453.575
758.94733	16909.575
762.8418	18097.875
766.73354	20227.275
770.62254	22454.575
774.50882	23649.275
778.39237	22791.375
782.27321	20363.475
786.15132	18146.375
790.02671	16850.175
793.89938	16227.175
797.76935	16033.375
801.6366	15928.975
805.50115	15910.175
809.36299	15780.975
813.22213	15720.775
817.07857	15672.175
820.93231	15619.175
824.78336	15619.275
828.63172	15631.975
832.47738	15687.275
836.32036	15673.375
840.16066	15702.275
843.99827	15724.775
847.8332	15706.375
851.66546	15621.775
855.49504	15625.875
859.32195	15655.775
863.1462	15634.675
866.96777	15613.675
870.78668	15623.875
874.60293	15616.375
878.41652	15636.975
882.22745	15709.075
886.03573	15767.175
889.84136	15726.475
893.64433	15643.075
897.44466	15569.675
901.24235	15529.975
905.0374	15441.475
908.8298	15354.675
912.61957	15326.875
916.40671	15377.775
920.19121	15502.475
923.97308	15649.475
927.75233	15803.075
931.52895	15951.975
935.30295	15830.375
939.07433	15507.975
942.84309	15266.475
946.60924	15096.275
950.37278	14984.075
954.13371	14916.775
957.89203	14816.775
961.64774	14728.175
965.40086	14699.575
969.15137	14651.675
972.89929	14592.375
976.64461	14549.975
980.38733	14565.275
984.12747	14618.475
987.86502	14716.675
991.59999	14913.075
995.33237	15167.675
999.06217	15563.475
1002.78939	16029.475
1006.51404	16283.075
1010.23611	16464.775
1013.95561	16598.575
1017.67255	16633.075
1021.38692	16518.475
1025.09872	16344.775
1028.80796	16435.875
1032.51465	16832.075
1036.21877	17220.475
1039.92035	17321.575
1043.61937	17134.175
1047.31584	16784.575
1051.00976	16375.375
1054.70114	16130.675
1058.38998	15994.975
1062.07627	16004.375
1065.76003	15999.975
1069.44126	16003.775
1073.11995	16070.775
1076.79611	16170.075
1080.46974	16370.975
1084.14085	16667.675
1087.80943	16960.675
1091.47549	17071.175
1095.13903	16916.275
1098.80005	16585.175
1102.45857	16292.775
1106.11456	16214.175
1109.76805	16341.475
1113.41903	16637.175
1117.06751	17085.675
1120.71348	17594.875
1124.35696	18064.575
1127.99793	18488.275
1131.63641	18458.675
1135.2724	17902.775
1138.90589	17375.175
1142.5369	16982.575
1146.16542	16666.775
1149.79145	16488.675
1153.415	16442.975
1157.03607	16541.475
1160.65467	16819.175
1164.27079	17298.675
1167.88443	18061.775
1171.49561	19190.075
1175.10432	20837.075
1178.71056	23123.875
1182.31434	25157.875
1185.91565	25976.075
1189.51451	25513.375
1193.11091	24122.675
1196.70485	22568.875
1200.29634	21388.075
1203.88538	20558.475
1207.47197	19681.275
1211.05612	18883.775
1214.63782	18396.075
1218.21708	18232.675
1221.79391	18322.975
1225.36829	18418.375
1228.94024	18335.775
1232.50976	18082.675
1236.07685	17880.275
1239.6415	17827.475
1243.20374	17854.175
1246.76355	18007.475
1250.32093	18271.275
1253.8759	18607.575
1257.42845	19136.175
1260.97859	19601.975
1264.52631	20059.675
1268.07163	20549.275
1271.61453	21142.075
1275.15503	21679.175
1278.69312	22117.075
1282.22882	22452.875
1285.76211	22805.275
1289.29301	23323.675
1292.82151	23903.175
1296.34761	24694.675
1299.87133	26003.275
1303.39266	27942.175
1306.9116	30729.875
1310.42815	33452.675
1313.94233	34746.475
1317.45412	33796.475
1320.96354	31629.475
1324.47058	29436.975
1327.97525	27592.275
1331.47754	26470.275
1334.97747	26135.175
1338.47502	26372.075
1341.97022	27007.975
1345.46305	27878.075
1348.95352	28916.175
1352.44163	30368.275
1355.92738	32623.975
1359.41078	36250.775
1362.89183	39453.575
1366.37053	38019.175
1369.84688	32662.875
1373.32088	27588.675
1376.79254	24432.175
1380.26186	22811.575
1383.72883	22038.275
1387.19347	21486.275
1390.65578	20948.375
1394.11575	20623.975
1397.57339	20597.175
1401.0287	20815.675
1404.48168	21099.175
1407.93234	21328.775
1411.38068	21533.475
1414.82669	21505.375
1418.27039	21229.375
1421.71177	20781.675
1425.15083	20318.275
1428.58758	20063.075
1432.02203	20116.275
1435.45416	20310.875
1438.88399	20517.275
1442.31151	20610.475
1445.73673	20754.775
1449.15965	20957.775
1452.58027	20989.675
1455.9986	20924.575
1459.41463	20981.075
1462.82837	21195.275
1466.23982	21630.575
1469.64898	22109.775
1473.05586	22358.875
1476.46045	22538.275
1479.86276	22673.575
1483.26279	22828.375
1486.66054	23061.475
1490.05602	23516.075
1493.44922	24188.375
1496.84016	25195.575
1500.22882	26856.175
1503.61521	29326.175
1506.99934	32384.375
1510.38121	34755.475
1513.76081	35128.275
1517.13816	32907.075
1520.51324	29446.575
1523.88607	26328.875
1527.25665	24353.975
1530.62498	23239.575
1533.99105	22587.375
1537.35488	22173.975
1540.71647	21995.575
1544.07581	21889.375
1547.4329	21816.375
1550.78776	21791.175
1554.14038	21808.875
1557.49077	21961.575
1560.83892	22204.475
1564.18484	22482.075
1567.52853	22879.275
1570.86999	23172.375
1574.20922	23379.275
1577.54624	23236.975
1580.88103	22474.775
1584.2136	21484.275
1587.54395	21198.775
1590.87208	21735.275
1594.19801	22978.675
1597.52172	24557.975
1600.84321	25326.075
1604.16251	24612.175
1607.47959	23166.475
1610.79447	21526.275
1614.10715	19968.975
1617.41763	18685.175
1620.7259	17883.675
1624.03199	17494.975
1627.33587	17550.475
1630.63757	17930.075
1633.93707	18766.775
1637.23439	20050.875
1640.52951	21789.875
1643.82246	24089.975
1647.11321	26459.675
1650.40179	27649.575
1653.68819	26428.075
1656.97241	23180.575
1660.25446	19911.075
1663.53433	17642.775
1666.81203	16315.575
1670.08756	15531.375
1673.36092	15038.575
1676.63211	14741.475
1679.90115	14505.575
1683.16801	14313.775
1686.43272	14180.175
1689.69527	14087.075
1692.95567	13927.275
1696.2139	13816.975
1699.46999	13648.275
1702.72392	13608.175
1705.97571	13662.575
1709.22535	13751.975
1712.47284	13826.275
1715.71819	13833.675
1718.96139	13838.275
1722.20246	13769.275
1725.44139	13713.175
1728.67818	13644.575
1731.91284	13585.775
1735.14537	13519.975
1738.37576	13494.175
1741.60403	13463.375
1744.83017	13389.475
1748.05418	13365.775
1751.27607	13332.975
1754.49584	13243.875
1757.71349	13160.575
1760.92903	13120.175
1764.14244	13104.475
1767.35375	13087.975
1770.56294	13035.875
1773.77002	13025.875
1776.97499	13056.675
1780.17785	13099.475
1783.37861	13112.275
1786.57727	13101.375
1789.77382	13086.475
1792.96828	13063.675
1796.16064	13054.475
1799.3509	13030.575
1802.53907	13026.175
1805.72514	13007.975
1808.90913	12958.275
1812.09102	12936.075
1815.27083	12925.975
1818.44856	12895.375
1821.6242	12886.275
1824.79776	12869.275
1827.96924	12845.975
1831.13864	12838.175
1834.30597	12812.275
1837.47122	12800.175
1840.6344	12792.375
1843.7955	12784.975
1846.95454	12781.675
1850.11151	12785.775
1853.26642	12770.575
1856.41926	12779.475
1859.57004	12780.075
1862.71876	12753.075
1865.86542	12740.275
1869.01003	12734.475
1872.15258	12756.375
1875.29308	12759.675
1878.43152	12736.675
1881.56792	12723.175
1884.70227	12708.075
1887.83457	12714.075
1890.96482	12707.975
1894.09304	12701.675
1897.21921	12712.275
1900.34335	12667.675
1903.46544	12655.975
1906.58551	12649.875
1909.70353	12649.875
1912.81953	12651.075
1915.93349	12640.475
1919.04543	12607.075
1922.15534	12613.175
1925.26322	12568.975
1928.36908	12525.175
1931.47292	12509.575
1934.57473	12502.575
1937.67453	12456.075
1940.77232	12469.775
1943.86808	12402.475
1946.96184	12390.875
1950.05358	12308.175
1953.14331	12290.175
1956.23103	12250.575
1959.31675	12204.175
1962.40046	12237.275
1965.48217	12206.875
1968.56188	12166.575
1971.63959	12125.375
1974.7153	12087.275
1977.78901	12061.775
1980.86073	12035.675
1983.93046	11970.675
1986.99819	11909.275
1990.06394	11895.575
1993.1277	11844.775
1996.18947	11803.075
1999.24925	11796.075
2002.30706	11731.175
2005.36288	11723.775
2008.41672	11705.975
2011.46859	11650.775
2014.51848	11614.875
2017.56639	11632.475
2020.61233	11584.775
2023.6563	11568.075
2026.6983	11524.675
2029.73833	11484.775
2032.7764	11468.475
2035.8125	11445.775
2038.84664	11463.475
2041.87881	11445.075
2044.90903	11445.275
2047.93729	11398.275
2050.96359	11400.475
2053.98794	11387.875
2057.01034	11374.375
2060.03078	11390.475
2063.04927	11366.275
2066.06582	11331.975
2069.08042	11326.975
2072.09307	11314.675
2075.10378	11285.175
2078.11255	11297.275
2081.11938	11296.075
2084.12426	11290.275
2087.12722	11290.675
2090.12824	11276.175
2093.12732	11259.175
2096.12447	11280.375
2099.11969	11265.075
2102.11299	11312.975
2105.10435	11275.175
2108.09379	11259.175
2111.08131	11273.875
2114.0669	11281.675
2117.05057	11282.575
2120.03233	11311.675
2123.01216	11364.875
2125.99008	11352.475
2128.96609	11354.375
2131.94018	11364.675
2134.91236	11375.175
2137.88263	11370.675
2140.851	11376.375
2143.81746	11410.875
2146.78201	11379.475
2149.74466	11384.275
2152.7054	11383.075
2155.66425	11375.275
2158.6212	11364.475
2161.57625	11379.875
2164.52941	11371.575
2167.48067	11354.575
2170.43004	11368.375
2173.37752	11363.375
2176.32311	11346.375
2179.26681	11366.675
2182.20863	11345.475
2185.14856	11362.975
2188.08661	11373.275
2191.02278	11390.475
2193.95707	11392.775
2196.88948	11329.575
2199.82001	11368.175
2202.74867	11378.275
2205.67545	11357.975
2208.60037	11363.275
2211.52341	11328.175
2214.44458	11314.475
2217.36388	11324.375
2220.28132	11287.875
2223.1969	11278.475
2226.11061	11246.575
2229.02246	11236.675
2231.93245	11217.975
2234.84058	11198.575
2237.74686	11188.375
2240.65128	11160.575
2243.55385	11164.375
2246.45456	11163.375
2249.35343	11144.075
2252.25044	11137.875
2255.14561	11108.575
2258.03893	11098.375
2260.93041	11110.675
2263.82004	11077.575
2266.70783	11035.975
2269.59378	11011.175
2272.4779	11001.775
2275.36017	10957.275
2278.24061	10949.375
2281.11922	10924.175
2283.996	10906.875
2286.87094	10913.375
2289.74405	10904.975
2292.61534	10863.175
2295.4848	10855.275
2298.35243	10875.975
2301.21824	10861.575
2304.08223	10876.675
2306.94439	10890.875
2309.80474	10866.375
2312.66327	10855.375
2315.51999	10858.275
2318.37489	10860.175
2321.22797	10865.575
2324.07925	10881.375
2326.92871	10843.375
2329.77637	10833.075
2332.62222	10818.475
2335.46626	10845.275
2338.3085	10819.775
2341.14893	10817.975
2343.98756	10833.675
2346.8244	10839.975
2349.65943	10827.575
2352.49267	10837.575
2355.32411	10853.275
2358.15376	10815.975
2360.98161	10805.775
2363.80768	10813.475
2366.63195	10817.675
2369.45444	10806.975
2372.27514	10768.575
2375.09405	10773.475
2377.91118	10743.475
2380.72652	10710.675
2383.54009	10675.875
2386.35187	10667.275
2389.16188	10594.275
2391.97011	10591.275
2394.77657	10578.275
2397.58125	10563.775
2400.38416	10548.175
2403.18529	10532.375
2405.98466	10517.375
2408.78226	10486.175
2411.57809	10463.975
2414.37216	10441.775
2417.16446	10419.375
2419.955	10407.175
2422.74378	10422.475
2425.5308	10407.975
2428.31606	10417.475
2431.09956	10396.075
2433.88131	10396.575
2436.6613	10395.575
2439.43954	10383.275
2442.21603	10375.975
2444.99077	10391.175
2447.76377	10393.075
2450.53501	10403.975
2453.30451	10398.875
2456.07226	10363.175
2458.83827	10370.175
2461.60254	10350.275
2464.36507	10350.975
2467.12586	10361.675
2469.88492	10352.175
2472.64224	10370.075
2475.39782	10368.375
2478.15167	10376.675
2480.90379	10404.575
2483.65417	10394.875
2486.40283	10425.275
2489.14976	10450.975
2491.89497	10415.175
2494.63845	10400.875
2497.3802	10397.475
2500.12024	10411.475
2502.85855	10392.475
2505.59514	10376.875
2508.33002	10348.575
2511.06318	10351.175
2513.79462	10330.875
2516.52435	10284.675
2519.25237	10279.375
2521.97867	10259.875
2524.70327	10246.075
2527.42616	10223.275
2530.14734	10225.675
2532.86681	10232.875
2535.58458	10236.575
2538.30065	10231.575
2541.01501	10222.975
2543.72768	10203.775
2546.43864	10189.875
2549.14791	10198.375
2551.85548	10187.975
2554.56136	10175.875
2557.26554	10161.075
2559.96803	10139.275
2562.66883	10163.675
2565.36794	10129.175
2568.06536	10113.175
2570.7611	10096.775
2573.45514	10079.475
2576.14751	10101.375
2578.83819	10074.775
2581.52719	10079.475
2584.21451	10063.675
2586.90015	10050.075
2589.58411	10053.175
2592.2664	10030.675
2594.94701	10029.975
2597.62594	10009.775
2600.30321	10008.775
2602.9788	10007.775
2605.65273	10007.975
2608.32498	10022.775
2610.99557	10020.475
2613.66449	10032.475
2616.33175	10021.375
2618.99734	10020.875
2621.66128	10030.175
2624.32355	10034.475
2626.98416	10023.575
2629.64311	10032.175
2632.30041	10018.875
2634.95605	9975.875
2637.61004	9956.475
2640.26238	9953.975
2642.91306	9950.875
2645.56209	9926.575
2648.20948	9913.775
2650.85521	9895.375
2653.4993	9911.375
2656.14175	9879.475
2658.78255	9902.675
2661.42171	9908.775
2664.05923	9908.275
2666.6951	9932.675
2669.32934	9958.875
2671.96194	9936.275
2674.59291	9953.275
2677.22224	9941.475
2679.84993	9943.875
2682.476	9948.375
2685.10043	9918.875
2687.72324	9911.675
2690.34441	9900.775
2692.96396	9916.275
2695.58188	9900.275
2698.19818	9893.975
2700.81285	9892.675
2703.4259	9869.675
2706.03733	9821.175
2708.64714	9843.575
2711.25533	9866.075
2713.86191	9880.875
2716.46687	9915.075
2719.07021	9898.775
2721.67194	9925.975
2724.27206	9901.375
2726.87057	9905.875
2729.46747	9913.975
2732.06276	9941.975
2734.65644	9931.975
2737.24852	9914.675
2739.83899	9910.075
2742.42786	9902.375
2745.01513	9881.775
2747.60079	9869.075
2750.18486	9871.875
2752.76733	9875.175
2755.3482	9862.075
2757.92747	9869.975
2760.50515	9831.875
2763.08123	9845.775
2765.65573	9834.575
2768.22863	9810.275
2770.79994	9827.875
2773.36967	9779.575
2775.9378	9801.875
2778.50435	9787.375
2781.06932	9782.775
2783.6327	9847.475
2786.1945	9794.875
2788.75471	9789.675
2791.31335	9769.575
2793.87041	9756.775
2796.42589	9750.375
2798.97979	9746.375
2801.53212	9713.475
2804.08288	9736.675
2806.63206	9680.675
2809.17967	9675.575
2811.72571	9661.875
2814.27018	9651.575
2816.81308	9650.775
2819.35442	9661.375
2821.89419	9663.675
2824.43239	9664.075
2826.96904	9667.775
2829.50412	9658.475
2832.03763	9603.675
2834.56959	9658.675
2837.1	9637.775
2839.62884	9619.575
2842.15613	9620.575
2844.68186	9635.175
2847.20604	9630.075
2849.72867	9644.275
2852.24974	9634.275
2854.76927	9618.975
2857.28724	9591.275
2859.80367	9592.075
2862.31855	9597.175
2864.83189	9591.075
2867.34368	9605.675
2869.85393	9622.775
2872.36264	9596.675
2874.8698	9589.575
2877.37543	9596.975
2879.87952	9626.175
2882.38207	9615.275
2884.88308	9619.275
2887.38256	9618.175
2889.88051	9599.075
2892.37692	9624.475
2894.8718	9614.375
2897.36515	9665.175
2899.85698	9634.775
2902.34727	9658.375
2904.83604	9655.775
2907.32328	9680.175
2909.809	9663.175
2912.29319	9707.075
2914.77587	9712.375
2917.25702	9709.475
2919.73665	9681.275
2922.21476	9667.175
2924.69136	9677.675
2927.16644	9674.375
2929.64	9641.975
2932.11205	9630.375
2934.58258	9612.375
2937.05161	9597.575
2939.51912	9607.075
2941.98513	9592.175
2944.44962	9592.075
2946.91261	9531.675
2949.37409	9566.775
2951.83407	9558.875
2954.29254	9539.675
2956.74951	9510.875
2959.20498	9524.375
2961.65895	9507.775
2964.11142	9477.975
2966.56239	9464.475
2969.01186	9469.075
2971.45984	9410.275
2973.90632	9418.375
2976.35131	9375.875
2978.7948	9371.275
2981.23681	9361.275
2983.67732	9336.075
2986.11635	9334.175
2988.55388	9306.275
2990.98993	9292.575
2993.4245	9267.775
2995.85758	9267.675
2998.28917	9243.675
3000.71928	9251.175
3003.14791	9214.875
3005.57506	9219.375
3008.00073	9174.675
3010.42493	9202.575
3012.84764	9179.875
3015.26888	9185.275
3017.68865	9143.275
3020.10694	9133.775
3022.52376	9121.975
3024.9391	9121.375
3027.35298	9107.075
3029.76539	9088.875
3032.17632	9033.875
3034.5858	9060.375
3036.9938	9042.075
3039.40034	9045.375
3041.80542	9018.775
3044.20903	9018.475
3046.61118	9014.375
3049.01187	8996.775
3051.4111	9000.975
3053.80888	8974.775
3056.20519	8960.275
3058.60005	8913.975
3060.99345	8900.575
3063.3854	8903.375
3065.7759	8884.475
3068.16494	8869.375
3070.55254	8838.975
3072.93868	8797.575
3075.32338	8764.475
3077.70662	8745.175
3080.08842	8749.675
3082.46878	8754.375
3084.84769	8720.975
3087.22515	8720.875
3089.60118	8718.675
3091.97576	8714.275
3094.3489	8742.675
3096.72061	8704.675
3099.09087	8726.275
3101.4597	8707.775
3103.82709	8723.675
3106.19305	8720.975
3108.55757	8731.875
3110.92066	8692.175
3113.28232	8685.975
3115.64255	8649.975
3118.00134	8666.775
3120.35871	8663.475
3122.71466	8644.375
3125.06917	8653.775
3127.42226	8606.675
3129.77393	8605.575
3132.12417	8629.575
3134.47299	8590.375
3136.82039	8593.575
3139.16636	8582.775
3141.51092	8585.975
3143.85406	8590.175
3146.19579	8582.675
3148.53609	8586.675
3150.87499	8589.875
3153.21246	8606.375
