Data from AgNPs_FTO_APTES_UA_50uM_CRN_1uM_R6G_10uM_NaF_0.1M_Addition_RamanShift__25__11-44-44-741.txt Node

Date: Mon Feb 21 11:44:44 GMT 2022
User: TCL
Spectrometer: QEP01345
Trigger mode: 4
Integration Time (sec): 7.000000E0
Scans to average: 10
Electric dark correction enabled: true
Nonlinearity correction enabled: false
Boxcar width: 0
XAxis mode: Raman Shifts
Number of Pixels in Spectrum: 1044
>>>>>Begin Spectral Data<<<<<
46.04893	-0.5375
50.45542	-0.3375
54.85868	0.7625
59.25871	-2.7375
63.6555	67.7625
68.04907	72.0625
72.43941	73.4625
76.82654	77.8625
81.21044	82.5625
85.59113	84.9625
89.96862	84.7625
94.34289	90.0625
98.71396	90.1625
103.08183	99.5625
107.4465	97.9625
111.80798	100.2625
116.16626	100.3625
120.52136	103.3625
124.87327	112.2625
129.222	107.8625
133.56755	114.7625
137.90993	124.5625
142.24913	132.8625
146.58517	149.1625
150.91804	170.2625
155.24774	194.8625
159.57429	243.2625
163.89768	305.2625
168.21792	408.7625
172.53501	555.7625
176.84895	769.6625
181.15975	1085.2625
185.46741	1523.6625
189.77193	2096.6625
194.07331	2811.3625
198.37157	3636.4625
202.6667	4499.4625
206.9587	5355.2625
211.24758	6201.1625
215.53334	7053.6625
219.81599	7995.3625
224.09553	9051.7625
228.37195	10211.6625
232.64527	11526.0625
236.91549	12824.5625
241.18261	14127.6625
245.44663	15253.6625
249.70755	16243.1625
253.96539	17127.6625
258.22014	17892.2625
262.4718	18477.4625
266.72039	18858.1625
270.96589	19081.1625
275.20832	19043.4625
279.44768	18884.3625
283.68397	18640.1625
287.91719	18481.7625
292.14735	18460.0625
296.37445	18589.9625
300.59849	18900.2625
304.81948	19287.8625
309.03742	19581.7625
313.25231	19504.6625
317.46415	18907.9625
321.67296	17982.2625
325.87872	17223.7625
330.08145	16869.5625
334.28114	16886.0625
338.47781	17115.9625
342.67145	17500.1625
346.86207	17982.6625
351.04966	18746.1625
355.23424	19547.6625
359.4158	20217.0625
363.59435	20605.2625
367.76989	20803.5625
371.94243	20792.0625
376.11196	20747.6625
380.27849	20731.8625
384.44203	20714.4625
388.60257	20636.1625
392.76012	20690.2625
396.91468	20893.3625
401.06626	21361.6625
405.21485	21707.2625
409.36047	21569.3625
413.50311	20942.2625
417.64277	20404.9625
421.77947	20084.7625
425.9132	19982.3625
430.04396	20057.4625
434.17176	20140.1625
438.2966	20379.3625
442.41849	20828.3625
446.53742	21416.6625
450.6534	22064.9625
454.76644	22577.5625
458.87653	22770.6625
462.98368	22636.0625
467.08789	22318.3625
471.18916	21837.0625
475.2875	21384.6625
479.38291	21075.2625
483.4754	20806.0625
487.56496	20579.5625
491.6516	20347.3625
495.73531	20089.6625
499.81612	20043.1625
503.89401	20180.6625
507.96899	20293.7625
512.04106	20347.0625
516.11023	20454.4625
520.1765	20486.8625
524.23987	20476.6625
528.30034	20326.1625
532.35792	20023.6625
536.41261	19744.5625
540.46441	19483.5625
544.51333	19372.4625
548.55936	19540.7625
552.60252	19889.2625
556.64279	20329.1625
560.6802	20605.4625
564.71473	20868.3625
568.7464	21456.8625
572.7752	21933.8625
576.80114	21799.1625
580.82422	21622.0625
584.84444	21625.3625
588.86181	21788.4625
592.87633	22030.5625
596.888	22329.9625
600.89682	22653.3625
604.9028	24177.5625
608.90594	28320.4625
612.90624	33483.3625
616.90371	32059.5625
620.89834	24989.2625
624.89015	21643.4625
628.87913	21134.0625
632.86528	21161.2625
636.84862	21072.3625
640.82913	20677.0625
644.80683	19934.4625
648.78172	19406.3625
652.75379	19346.5625
656.72306	19841.6625
660.68952	20504.6625
664.65319	20446.3625
668.61405	19908.3625
672.57211	19606.3625
676.52738	19561.8625
680.47986	19547.0625
684.42955	19417.7625
688.37646	19435.0625
692.32058	19529.4625
696.26192	19732.5625
700.20048	19953.7625
704.13626	20082.7625
708.06928	19945.2625
711.99952	19789.8625
715.927	19766.0625
719.85171	19856.4625
723.77365	19794.1625
727.69284	19591.5625
731.60928	19402.5625
735.52295	19356.5625
739.43388	19414.3625
743.34206	19548.7625
747.24749	19711.1625
751.15017	19858.6625
755.05012	20216.8625
758.94733	20921.6625
762.8418	22434.4625
766.73354	24994.0625
770.62254	27410.5625
774.50882	28425.6625
778.39237	27332.8625
782.27321	24679.1625
786.15132	22129.0625
790.02671	20611.5625
793.89938	19924.7625
797.76935	19663.0625
801.6366	19557.0625
805.50115	19505.2625
809.36299	19461.0625
813.22213	19379.2625
817.07857	19346.6625
820.93231	19340.6625
824.78336	19300.7625
828.63172	19296.6625
832.47738	19408.8625
836.32036	19405.5625
840.16066	19464.1625
843.99827	19505.7625
847.8332	19467.2625
851.66546	19369.2625
855.49504	19310.5625
859.32195	19252.8625
863.1462	19180.5625
866.96777	19063.8625
870.78668	19044.9625
874.60293	19063.9625
878.41652	19137.6625
882.22745	19193.2625
886.03573	19280.5625
889.84136	19260.4625
893.64433	19182.3625
897.44466	19068.4625
901.24235	19044.8625
905.0374	18987.4625
908.8298	18893.2625
912.61957	18866.4625
916.40671	18986.6625
920.19121	19203.6625
923.97308	19479.5625
927.75233	19681.7625
931.52895	19771.5625
935.30295	19594.1625
939.07433	19160.0625
942.84309	18808.1625
946.60924	18634.6625
950.37278	18539.9625
954.13371	18432.7625
957.89203	18299.0625
961.64774	18207.9625
965.40086	18162.3625
969.15137	18130.9625
972.89929	18023.9625
976.64461	18053.3625
980.38733	18056.4625
984.12747	18147.1625
987.86502	18269.9625
991.59999	18525.0625
995.33237	18968.4625
999.06217	19706.1625
1002.78939	20488.6625
1006.51404	21128.8625
1010.23611	21404.7625
1013.95561	21660.0625
1017.67255	21711.0625
1021.38692	21532.8625
1025.09872	21373.1625
1028.80796	21583.0625
1032.51465	22237.2625
1036.21877	22838.7625
1039.92035	22929.8625
1043.61937	22557.9625
1047.31584	21839.8625
1051.00976	21094.4625
1054.70114	20644.8625
1058.38998	20506.7625
1062.07627	20531.5625
1065.76003	20554.5625
1069.44126	20685.6625
1073.11995	20845.4625
1076.79611	21067.0625
1080.46974	21281.3625
1084.14085	21613.7625
1087.80943	21940.4625
1091.47549	22096.6625
1095.13903	21851.6625
1098.80005	21347.6625
1102.45857	20879.5625
1106.11456	20653.9625
1109.76805	20709.2625
1113.41903	20990.8625
1117.06751	21383.1625
1120.71348	21978.9625
1124.35696	22552.2625
1127.99793	23038.2625
1131.63641	23018.9625
1135.2724	22454.9625
1138.90589	21893.5625
1142.5369	21482.2625
1146.16542	21237.3625
1149.79145	21144.7625
1153.415	21208.8625
1157.03607	21406.7625
1160.65467	21841.2625
1164.27079	22532.4625
1167.88443	23580.5625
1171.49561	25187.6625
1175.10432	27471.9625
1178.71056	30577.5625
1182.31434	33350.4625
1185.91565	34678.8625
1189.51451	34504.0625
1193.11091	33016.8625
1196.70485	31095.9625
1200.29634	29398.6625
1203.88538	28046.0625
1207.47197	26786.0625
1211.05612	25701.8625
1214.63782	25160.9625
1218.21708	25081.8625
1221.79391	25212.8625
1225.36829	25323.8625
1228.94024	25295.0625
1232.50976	24995.4625
1236.07685	24770.7625
1239.6415	24611.1625
1243.20374	24587.4625
1246.76355	24683.2625
1250.32093	25001.6625
1253.8759	25637.3625
1257.42845	26442.9625
1260.97859	27226.0625
1264.52631	27909.9625
1268.07163	28675.8625
1271.61453	29408.7625
1275.15503	30271.5625
1278.69312	31079.4625
1282.22882	31837.9625
1285.76211	32600.6625
1289.29301	33335.0625
1292.82151	34161.1625
1296.34761	35244.9625
1299.87133	37001.4625
1303.39266	39570.2625
1306.9116	43223.9625
1310.42815	47062.0625
1313.94233	49196.3625
1317.45412	48576.1625
1320.96354	46280.5625
1324.47058	43671.1625
1327.97525	41482.1625
1331.47754	40252.2625
1334.97747	39982.1625
1338.47502	40433.6625
1341.97022	41149.3625
1345.46305	41690.5625
1348.95352	42039.4625
1352.44163	42758.6625
1355.92738	44728.4625
1359.41078	48608.9625
1362.89183	52253.8625
1366.37053	50828.5625
1369.84688	44717.3625
1373.32088	38742.9625
1376.79254	34886.3625
1380.26186	32942.2625
1383.72883	31963.4625
1387.19347	31286.7625
1390.65578	30666.0625
1394.11575	30334.7625
1397.57339	30587.6625
1401.0287	31190.0625
1404.48168	31864.3625
1407.93234	32519.3625
1411.38068	32959.8625
1414.82669	32919.3625
1418.27039	32127.1625
1421.71177	31010.5625
1425.15083	30036.8625
1428.58758	29482.3625
1432.02203	29523.1625
1435.45416	29732.2625
1438.88399	29986.5625
1442.31151	30128.5625
1445.73673	30370.0625
1449.15965	30691.9625
1452.58027	30804.8625
1455.9986	30745.1625
1459.41463	30755.1625
1462.82837	31109.2625
1466.23982	31696.7625
1469.64898	32257.8625
1473.05586	32668.4625
1476.46045	32927.2625
1479.86276	33206.5625
1483.26279	33606.1625
1486.66054	34105.9625
1490.05602	34793.8625
1493.44922	35713.3625
1496.84016	36841.7625
1500.22882	38608.0625
1503.61521	41104.0625
1506.99934	44041.4625
1510.38121	46437.4625
1513.76081	46801.6625
1517.13816	44480.2625
1520.51324	40674.8625
1523.88607	37240.9625
1527.25665	34964.4625
1530.62498	33784.9625
1533.99105	32993.9625
1537.35488	32608.6625
1540.71647	32350.1625
1544.07581	32082.0625
1547.4329	31909.8625
1550.78776	31653.8625
1554.14038	31441.7625
1557.49077	31417.5625
1560.83892	31524.2625
1564.18484	31763.1625
1567.52853	32066.1625
1570.86999	32275.3625
1574.20922	32423.4625
1577.54624	32330.7625
1580.88103	31648.7625
1584.2136	30895.8625
1587.54395	31096.1625
1590.87208	32448.2625
1594.19801	34856.4625
1597.52172	37578.6625
1600.84321	38745.9625
1604.16251	37510.7625
1607.47959	34794.7625
1610.79447	31707.0625
1614.10715	28931.7625
1617.41763	26803.5625
1620.7259	25483.3625
1624.03199	24858.8625
1627.33587	24959.5625
1630.63757	25728.3625
1633.93707	27200.6625
1637.23439	29367.6625
1640.52951	32061.7625
1643.82246	35164.5625
1647.11321	37979.3625
1650.40179	38993.9625
1653.68819	36879.0625
1656.97241	32338.8625
1660.25446	27727.2625
1663.53433	24386.5625
1666.81203	22402.4625
1670.08756	21190.0625
1673.36092	20465.1625
1676.63211	20013.7625
1679.90115	19631.0625
1683.16801	19383.9625
1686.43272	19162.7625
1689.69527	19013.3625
1692.95567	18852.5625
1696.2139	18704.2625
1699.46999	18550.2625
1702.72392	18474.5625
1705.97571	18554.9625
1709.22535	18605.4625
1712.47284	18661.0625
1715.71819	18746.0625
1718.96139	18691.9625
1722.20246	18647.2625
1725.44139	18555.7625
1728.67818	18457.8625
1731.91284	18376.5625
1735.14537	18238.9625
1738.37576	18183.2625
1741.60403	18107.2625
1744.83017	18093.3625
1748.05418	18011.5625
1751.27607	17970.9625
1754.49584	17872.7625
1757.71349	17793.0625
1760.92903	17775.0625
1764.14244	17720.5625
1767.35375	17730.0625
1770.56294	17693.8625
1773.77002	17718.1625
1776.97499	17739.7625
1780.17785	17784.3625
1783.37861	17819.9625
1786.57727	17790.0625
1789.77382	17803.9625
1792.96828	17796.4625
1796.16064	17774.4625
1799.3509	17776.3625
1802.53907	17763.5625
1805.72514	17685.7625
1808.90913	17650.3625
1812.09102	17651.0625
1815.27083	17609.2625
1818.44856	17632.6625
1821.6242	17584.0625
1824.79776	17545.0625
1827.96924	17552.9625
1831.13864	17541.9625
1834.30597	17560.6625
1837.47122	17545.6625
1840.6344	17553.1625
1843.7955	17538.6625
1846.95454	17540.8625
1850.11151	17502.1625
1853.26642	17484.5625
1856.41926	17504.6625
1859.57004	17525.8625
1862.71876	17524.5625
1865.86542	17562.9625
1869.01003	17581.8625
1872.15258	17562.9625
1875.29308	17580.2625
1878.43152	17582.4625
1881.56792	17566.6625
1884.70227	17600.6625
1887.83457	17607.2625
1890.96482	17577.1625
1894.09304	17581.2625
1897.21921	17599.0625
1900.34335	17602.9625
1903.46544	17569.5625
1906.58551	17618.4625
1909.70353	17606.5625
1912.81953	17624.5625
1915.93349	17588.4625
1919.04543	17576.6625
1922.15534	17551.4625
1925.26322	17517.1625
1928.36908	17446.1625
1931.47292	17405.7625
1934.57473	17321.5625
1937.67453	17273.9625
1940.77232	17254.9625
1943.86808	17173.7625
1946.96184	17139.7625
1950.05358	17075.6625
1953.14331	16998.3625
1956.23103	16943.9625
1959.31675	16883.8625
1962.40046	16845.4625
1965.48217	16832.4625
1968.56188	16773.9625
1971.63959	16750.6625
1974.7153	16689.4625
1977.78901	16682.1625
1980.86073	16571.6625
1983.93046	16548.9625
1986.99819	16471.8625
1990.06394	16413.8625
1993.1277	16402.8625
1996.18947	16335.4625
1999.24925	16282.2625
2002.30706	16274.7625
2005.36288	16207.7625
2008.41672	16197.9625
2011.46859	16132.2625
2014.51848	16098.0625
2017.56639	16048.5625
2020.61233	16024.7625
2023.6563	15999.6625
2026.6983	15949.5625
2029.73833	15924.2625
2032.7764	15900.6625
2035.8125	15879.5625
2038.84664	15848.3625
2041.87881	15861.8625
2044.90903	15865.8625
2047.93729	15822.9625
2050.96359	15766.3625
2053.98794	15774.7625
2057.01034	15759.3625
2060.03078	15728.5625
2063.04927	15706.2625
2066.06582	15717.9625
2069.08042	15681.7625
2072.09307	15697.5625
2075.10378	15627.2625
2078.11255	15657.3625
2081.11938	15647.1625
2084.12426	15624.8625
2087.12722	15639.0625
2090.12824	15634.7625
2093.12732	15649.4625
2096.12447	15624.2625
2099.11969	15605.1625
2102.11299	15613.5625
2105.10435	15641.8625
2108.09379	15620.3625
2111.08131	15650.4625
2114.0669	15656.2625
2117.05057	15673.7625
2120.03233	15707.1625
2123.01216	15714.5625
2125.99008	15713.4625
2128.96609	15748.5625
2131.94018	15737.2625
2134.91236	15749.0625
2137.88263	15766.7625
2140.851	15789.6625
2143.81746	15794.4625
2146.78201	15748.3625
2149.74466	15790.6625
2152.7054	15812.7625
2155.66425	15777.2625
2158.6212	15805.5625
2161.57625	15763.1625
2164.52941	15779.1625
2167.48067	15802.2625
2170.43004	15786.7625
2173.37752	15733.3625
2176.32311	15759.7625
2179.26681	15789.4625
2182.20863	15781.7625
2185.14856	15785.4625
2188.08661	15798.9625
2191.02278	15798.1625
2193.95707	15806.2625
2196.88948	15786.8625
2199.82001	15776.3625
2202.74867	15763.9625
2205.67545	15775.2625
2208.60037	15756.8625
2211.52341	15776.4625
2214.44458	15765.9625
2217.36388	15743.3625
2220.28132	15767.2625
2223.1969	15755.5625
2226.11061	15699.7625
2229.02246	15680.9625
2231.93245	15637.7625
2234.84058	15587.6625
2237.74686	15547.7625
2240.65128	15515.3625
2243.55385	15516.4625
2246.45456	15518.7625
2249.35343	15485.1625
2252.25044	15489.2625
2255.14561	15465.2625
2258.03893	15477.0625
2260.93041	15446.7625
2263.82004	15413.0625
2266.70783	15422.7625
2269.59378	15366.0625
2272.4779	15341.3625
2275.36017	15276.6625
2278.24061	15261.4625
2281.11922	15226.9625
2283.996	15238.1625
2286.87094	15210.3625
2289.74405	15195.0625
2292.61534	15166.0625
2295.4848	15172.2625
2298.35243	15182.3625
2301.21824	15148.6625
2304.08223	15180.8625
2306.94439	15220.2625
2309.80474	15217.5625
2312.66327	15226.1625
2315.51999	15195.5625
2318.37489	15208.6625
2321.22797	15224.3625
2324.07925	15202.0625
2326.92871	15203.2625
2329.77637	15192.9625
2332.62222	15168.9625
2335.46626	15153.3625
2338.3085	15165.6625
2341.14893	15173.4625
2343.98756	15213.6625
2346.8244	15242.4625
2349.65943	15236.6625
2352.49267	15238.0625
2355.32411	15268.2625
2358.15376	15230.9625
2360.98161	15229.3625
2363.80768	15196.0625
2366.63195	15182.1625
2369.45444	15140.5625
2372.27514	15119.9625
2375.09405	15085.0625
2377.91118	15071.8625
2380.72652	15019.2625
2383.54009	14969.0625
2386.35187	14946.3625
2389.16188	14914.9625
2391.97011	14889.5625
2394.77657	14864.4625
2397.58125	14890.7625
2400.38416	14859.3625
2403.18529	14861.5625
2405.98466	14806.2625
2408.78226	14817.5625
2411.57809	14717.5625
2414.37216	14700.8625
2417.16446	14661.7625
2419.955	14674.2625
2422.74378	14674.9625
2425.5308	14626.0625
2428.31606	14665.5625
2431.09956	14632.8625
2433.88131	14648.5625
2436.6613	14632.3625
2439.43954	14626.9625
2442.21603	14625.1625
2444.99077	14628.5625
2447.76377	14627.5625
2450.53501	14605.4625
2453.30451	14630.5625
2456.07226	14614.9625
2458.83827	14591.8625
2461.60254	14605.5625
2464.36507	14582.0625
2467.12586	14538.7625
2469.88492	14544.5625
2472.64224	14598.7625
2475.39782	14580.6625
2478.15167	14586.5625
2480.90379	14635.2625
2483.65417	14697.5625
2486.40283	14692.3625
2489.14976	14706.2625
2491.89497	14729.1625
2494.63845	14744.5625
2497.3802	14731.0625
2500.12024	14717.5625
2502.85855	14734.0625
2505.59514	14711.6625
2508.33002	14689.6625
2511.06318	14643.0625
2513.79462	14634.2625
2516.52435	14598.5625
2519.25237	14593.8625
2521.97867	14567.5625
2524.70327	14527.8625
2527.42616	14531.6625
2530.14734	14550.2625
2532.86681	14555.2625
2535.58458	14550.3625
2538.30065	14554.3625
2541.01501	14561.1625
2543.72768	14506.3625
2546.43864	14507.7625
2549.14791	14522.6625
2551.85548	14546.9625
2554.56136	14501.9625
2557.26554	14490.6625
2559.96803	14463.1625
2562.66883	14406.9625
2565.36794	14426.1625
2568.06536	14435.6625
2570.7611	14394.2625
2573.45514	14392.3625
2576.14751	14408.1625
2578.83819	14413.1625
2581.52719	14371.2625
2584.21451	14379.7625
2586.90015	14385.0625
2589.58411	14368.8625
2592.2664	14428.4625
2594.94701	14389.1625
2597.62594	14408.4625
2600.30321	14419.8625
2602.9788	14399.5625
2605.65273	14377.5625
2608.32498	14432.7625
2610.99557	14373.6625
2613.66449	14397.8625
2616.33175	14391.2625
2618.99734	14430.1625
2621.66128	14379.8625
2624.32355	14398.1625
2626.98416	14400.9625
2629.64311	14436.2625
2632.30041	14444.1625
2634.95605	14385.4625
2637.61004	14389.1625
2640.26238	14354.1625
2642.91306	14347.6625
2645.56209	14332.5625
2648.20948	14339.2625
2650.85521	14258.7625
2653.4993	14272.3625
2656.14175	14284.6625
2658.78255	14308.0625
2661.42171	14305.0625
2664.05923	14328.4625
2666.6951	14351.5625
2669.32934	14392.4625
2671.96194	14368.8625
2674.59291	14406.9625
2677.22224	14386.9625
2679.84993	14394.9625
2682.476	14378.6625
2685.10043	14401.6625
2687.72324	14395.9625
2690.34441	14388.5625
2692.96396	14358.1625
2695.58188	14344.7625
2698.19818	14321.1625
2700.81285	14331.1625
2703.4259	14256.8625
2706.03733	14193.9625
2708.64714	14254.5625
2711.25533	14305.3625
2713.86191	14359.3625
2716.46687	14383.2625
2719.07021	14393.9625
2721.67194	14432.2625
2724.27206	14405.7625
2726.87057	14418.5625
2729.46747	14404.8625
2732.06276	14439.7625
2734.65644	14427.6625
2737.24852	14409.8625
2739.83899	14410.8625
2742.42786	14432.9625
2745.01513	14424.6625
2747.60079	14435.6625
2750.18486	14397.9625
2752.76733	14382.5625
2755.3482	14360.9625
2757.92747	14374.6625
2760.50515	14370.8625
2763.08123	14353.9625
2765.65573	14306.4625
2768.22863	14333.7625
2770.79994	14317.6625
2773.36967	14327.0625
2775.9378	14302.7625
2778.50435	14292.4625
2781.06932	14322.3625
2783.6327	14325.4625
2786.1945	14315.7625
2788.75471	14324.4625
2791.31335	14283.9625
2793.87041	14310.9625
2796.42589	14260.0625
2798.97979	14219.3625
2801.53212	14208.8625
2804.08288	14201.5625
2806.63206	14164.7625
2809.17967	14176.5625
2811.72571	14147.2625
2814.27018	14156.0625
2816.81308	14129.2625
2819.35442	14159.9625
2821.89419	14121.3625
2824.43239	14128.6625
2826.96904	14110.4625
2829.50412	14116.6625
2832.03763	14094.7625
2834.56959	14110.9625
2837.1	14074.5625
2839.62884	14081.1625
2842.15613	14060.8625
2844.68186	14094.6625
2847.20604	14048.4625
2849.72867	14054.4625
2852.24974	14029.9625
2854.76927	14039.4625
2857.28724	13994.2625
2859.80367	13979.8625
2862.31855	13966.3625
2864.83189	13931.5625
2867.34368	13965.4625
2869.85393	13999.6625
2872.36264	13978.5625
2874.8698	14004.0625
2877.37543	14005.0625
2879.87952	13992.9625
2882.38207	14010.4625
2884.88308	14016.3625
2887.38256	14003.2625
2889.88051	14000.3625
2892.37692	13983.8625
2894.8718	14017.5625
2897.36515	14038.1625
2899.85698	14013.7625
2902.34727	14045.2625
2904.83604	14038.7625
2907.32328	14052.6625
2909.809	14035.3625
2912.29319	14060.2625
2914.77587	14103.4625
2917.25702	14051.8625
2919.73665	14067.9625
2922.21476	14017.4625
2924.69136	14009.0625
2927.16644	14021.8625
2929.64	13985.0625
2932.11205	13953.5625
2934.58258	13940.4625
2937.05161	13928.1625
2939.51912	13947.7625
2941.98513	13940.2625
2944.44962	13927.0625
2946.91261	13848.9625
2949.37409	13909.0625
2951.83407	13883.7625
2954.29254	13881.1625
2956.74951	13858.0625
2959.20498	13876.6625
2961.65895	13845.7625
2964.11142	13856.7625
2966.56239	13800.3625
2969.01186	13821.6625
2971.45984	13756.9625
2973.90632	13791.1625
2976.35131	13719.1625
2978.7948	13710.7625
2981.23681	13691.4625
2983.67732	13688.6625
2986.11635	13615.1625
2988.55388	13587.2625
2990.98993	13592.2625
2993.4245	13552.7625
2995.85758	13529.5625
2998.28917	13484.1625
3000.71928	13504.5625
3003.14791	13464.5625
3005.57506	13448.7625
3008.00073	13390.8625
3010.42493	13388.5625
3012.84764	13370.7625
3015.26888	13358.6625
3017.68865	13318.7625
3020.10694	13282.8625
3022.52376	13278.1625
3024.9391	13227.3625
