Data from AgNPs_FTO_APTES_UA_50uM_CRN_200uM_R6G_10uM_NaF_0.1M_Addition_RamanShift__9__16-04-55-073.txt Node

Date: Mon Feb 21 16:04:55 GMT 2022
User: TCL
Spectrometer: QEP01345
Trigger mode: 4
Integration Time (sec): 7.000000E0
Scans to average: 10
Electric dark correction enabled: true
Nonlinearity correction enabled: false
Boxcar width: 0
XAxis mode: Raman Shifts
Number of Pixels in Spectrum: 1044
>>>>>Begin Spectral Data<<<<<
46.04893	-0.0375
50.45542	0.0625
54.85868	-0.5375
59.25871	-1.6375
63.6555	47.2625
68.04907	52.6625
72.43941	50.4625
76.82654	54.5625
81.21044	58.5625
85.59113	61.7625
89.96862	64.3625
94.34289	67.8625
98.71396	65.5625
103.08183	73.7625
107.4465	74.7625
111.80798	70.5625
116.16626	71.0625
120.52136	75.9625
124.87327	81.9625
129.222	80.6625
133.56755	80.5625
137.90993	91.7625
142.24913	96.0625
146.58517	103.9625
150.91804	119.8625
155.24774	137.7625
159.57429	170.3625
163.89768	210.7625
168.21792	280.6625
172.53501	378.5625
176.84895	524.4625
181.15975	730.9625
185.46741	1018.3625
189.77193	1414.7625
194.07331	1888.9625
198.37157	2446.9625
202.6667	3029.1625
206.9587	3582.8625
211.24758	4158.7625
215.53334	4718.3625
219.81599	5329.9625
224.09553	5965.2625
228.37195	6690.4625
232.64527	7495.7625
236.91549	8347.2625
241.18261	9175.3625
245.44663	9952.0625
249.70755	10616.8625
253.96539	11243.3625
258.22014	11720.8625
262.4718	12097.8625
266.72039	12371.8625
270.96589	12520.3625
275.20832	12510.8625
279.44768	12412.0625
283.68397	12245.4625
287.91719	12112.8625
292.14735	12036.8625
296.37445	12012.7625
300.59849	12059.5625
304.81948	12138.0625
309.03742	12183.7625
313.25231	12144.3625
317.46415	11939.5625
321.67296	11711.0625
325.87872	11465.7625
330.08145	11372.4625
334.28114	11367.1625
338.47781	11450.5625
342.67145	11607.1625
346.86207	11818.8625
351.04966	12044.1625
355.23424	12257.7625
359.4158	12528.0625
363.59435	12705.1625
367.76989	12821.2625
371.94243	12872.9625
376.11196	12924.1625
380.27849	12971.6625
384.44203	13035.8625
388.60257	13099.3625
392.76012	13190.2625
396.91468	13333.1625
401.06626	13512.7625
405.21485	13595.5625
409.36047	13556.6625
413.50311	13340.7625
417.64277	13116.1625
421.77947	13069.0625
425.9132	13051.9625
430.04396	13097.2625
434.17176	13147.6625
438.2966	13279.9625
442.41849	13444.1625
446.53742	13723.5625
450.6534	14008.3625
454.76644	14210.9625
458.87653	14272.3625
462.98368	14230.9625
467.08789	14151.1625
471.18916	13988.0625
475.2875	13830.2625
479.38291	13633.9625
483.4754	13538.3625
487.56496	13386.9625
491.6516	13311.7625
495.73531	13243.3625
499.81612	13243.1625
503.89401	13347.9625
507.96899	13416.8625
512.04106	13474.2625
516.11023	13446.1625
520.1765	13461.7625
524.23987	13432.2625
528.30034	13357.2625
532.35792	13295.8625
536.41261	13199.3625
540.46441	13068.9625
544.51333	13046.2625
548.55936	13124.5625
552.60252	13316.6625
556.64279	13516.5625
560.6802	13654.3625
564.71473	13704.2625
568.7464	13780.7625
572.7752	13972.9625
576.80114	14131.0625
580.82422	14284.0625
584.84444	14558.1625
588.86181	14934.7625
592.87633	15334.3625
596.888	15471.3625
600.89682	15259.8625
604.9028	15448.0625
608.90594	16615.4625
612.90624	18055.8625
616.90371	17254.7625
620.89834	14766.0625
624.89015	13606.2625
628.87913	13456.8625
632.86528	13568.3625
636.84862	13660.9625
640.82913	13573.5625
644.80683	13309.0625
648.78172	13132.7625
652.75379	13121.4625
656.72306	13239.7625
660.68952	13452.9625
664.65319	13381.5625
668.61405	13176.8625
672.57211	13115.1625
676.52738	13224.9625
680.47986	13252.6625
684.42955	13194.7625
688.37646	13123.7625
692.32058	13110.5625
696.26192	13155.8625
700.20048	13270.0625
704.13626	13321.7625
708.06928	13284.0625
711.99952	13282.4625
715.927	13223.7625
719.85171	13264.5625
723.77365	13293.4625
727.69284	13213.6625
731.60928	13115.3625
735.52295	13060.9625
739.43388	13091.4625
743.34206	13118.7625
747.24749	13166.0625
751.15017	13220.6625
755.05012	13340.1625
758.94733	13589.2625
762.8418	14136.1625
766.73354	15077.6625
770.62254	16037.7625
774.50882	16463.3625
778.39237	15954.9625
782.27321	14956.6625
786.15132	14062.9625
790.02671	13527.7625
793.89938	13224.8625
797.76935	13101.1625
801.6366	13027.6625
805.50115	12988.8625
809.36299	12926.2625
813.22213	12840.6625
817.07857	12810.4625
820.93231	12790.1625
824.78336	12763.4625
828.63172	12751.2625
832.47738	12723.6625
836.32036	12700.6625
840.16066	12723.1625
843.99827	12711.2625
847.8332	12684.1625
851.66546	12709.0625
855.49504	12730.7625
859.32195	12729.5625
863.1462	12738.5625
866.96777	12734.2625
870.78668	12708.7625
874.60293	12744.3625
878.41652	12757.1625
882.22745	12812.3625
886.03573	12859.1625
889.84136	12855.1625
893.64433	12815.7625
897.44466	12787.1625
901.24235	12779.6625
905.0374	12693.0625
908.8298	12648.5625
912.61957	12664.9625
916.40671	12685.4625
920.19121	12741.5625
923.97308	12801.3625
927.75233	12889.1625
931.52895	12818.8625
935.30295	12739.8625
939.07433	12550.5625
942.84309	12433.9625
946.60924	12366.3625
950.37278	12298.1625
954.13371	12252.5625
957.89203	12239.7625
961.64774	12225.7625
965.40086	12230.8625
969.15137	12185.0625
972.89929	12178.9625
976.64461	12133.0625
980.38733	12138.6625
984.12747	12154.9625
987.86502	12208.8625
991.59999	12279.2625
995.33237	12338.9625
999.06217	12478.0625
1002.78939	12652.2625
1006.51404	12794.0625
1010.23611	12945.2625
1013.95561	13072.7625
1017.67255	13141.3625
1021.38692	13088.5625
1025.09872	12938.3625
1028.80796	12809.0625
1032.51465	12750.7625
1036.21877	12761.4625
1039.92035	12830.9625
1043.61937	12806.9625
1047.31584	12830.7625
1051.00976	12842.4625
1054.70114	12867.3625
1058.38998	12889.9625
1062.07627	12963.0625
1065.76003	13052.1625
1069.44126	13154.7625
1073.11995	13276.3625
1076.79611	13401.9625
1080.46974	13516.3625
1084.14085	13634.0625
1087.80943	13693.7625
1091.47549	13809.3625
1095.13903	13774.6625
1098.80005	13607.6625
1102.45857	13429.5625
1106.11456	13268.6625
1109.76805	13240.9625
1113.41903	13275.2625
1117.06751	13366.0625
1120.71348	13542.4625
1124.35696	13726.0625
1127.99793	13933.6625
1131.63641	14027.1625
1135.2724	13907.0625
1138.90589	13769.8625
1142.5369	13653.2625
1146.16542	13583.5625
1149.79145	13589.1625
1153.415	13566.8625
1157.03607	13633.4625
1160.65467	13860.4625
1164.27079	14234.4625
1167.88443	14710.9625
1171.49561	15394.9625
1175.10432	16230.5625
1178.71056	17353.7625
1182.31434	18379.3625
1185.91565	18956.1625
1189.51451	18954.6625
1193.11091	18531.5625
1196.70485	17949.6625
1200.29634	17268.3625
1203.88538	16687.7625
1207.47197	16169.2625
1211.05612	15724.1625
1214.63782	15348.1625
1218.21708	15109.1625
1221.79391	14943.2625
1225.36829	14889.5625
1228.94024	14875.4625
1232.50976	14828.9625
1236.07685	14705.7625
1239.6415	14645.4625
1243.20374	14610.1625
1246.76355	14683.6625
1250.32093	14770.4625
1253.8759	14912.1625
1257.42845	15163.3625
1260.97859	15497.6625
1264.52631	15817.3625
1268.07163	16105.6625
1271.61453	16421.9625
1275.15503	16714.8625
1278.69312	16928.5625
1282.22882	17203.2625
1285.76211	17517.5625
1289.29301	17972.4625
1292.82151	18501.1625
1296.34761	19145.9625
1299.87133	19952.7625
1303.39266	20856.0625
1306.9116	21853.6625
1310.42815	22848.9625
1313.94233	23410.6625
1317.45412	23249.9625
1320.96354	22658.8625
1324.47058	22020.3625
1327.97525	21374.4625
1331.47754	20911.8625
1334.97747	20691.0625
1338.47502	20651.7625
1341.97022	20792.9625
1345.46305	21023.7625
1348.95352	21443.9625
1352.44163	22033.3625
1355.92738	22899.4625
1359.41078	23987.1625
1362.89183	24971.3625
1366.37053	24586.7625
1369.84688	22590.3625
1373.32088	20105.4625
1376.79254	18420.4625
1380.26186	17648.0625
1383.72883	17329.7625
1387.19347	17056.6625
1390.65578	16768.3625
1394.11575	16508.8625
1397.57339	16509.2625
1401.0287	16566.2625
1404.48168	16578.9625
1407.93234	16551.4625
1411.38068	16469.8625
1414.82669	16264.9625
1418.27039	15993.7625
1421.71177	15729.5625
1425.15083	15407.4625
1428.58758	15253.9625
1432.02203	15315.5625
1435.45416	15457.5625
1438.88399	15697.2625
1442.31151	15828.9625
1445.73673	15888.9625
1449.15965	15937.7625
1452.58027	15986.2625
1455.9986	15947.1625
1459.41463	16007.1625
1462.82837	16172.3625
1466.23982	16456.3625
1469.64898	16706.7625
1473.05586	16961.8625
1476.46045	17078.6625
1479.86276	17165.8625
1483.26279	17147.8625
1486.66054	17224.5625
1490.05602	17434.2625
1493.44922	17808.3625
1496.84016	18360.1625
1500.22882	19091.3625
1503.61521	20092.1625
1506.99934	21113.5625
1510.38121	21922.1625
1513.76081	21888.9625
1517.13816	21107.8625
1520.51324	19906.6625
1523.88607	18893.6625
1527.25665	18287.8625
1530.62498	17970.2625
1533.99105	17750.2625
1537.35488	17500.7625
1540.71647	17217.3625
1544.07581	16935.2625
1547.4329	16645.3625
1550.78776	16400.5625
1554.14038	16247.7625
1557.49077	16187.3625
1560.83892	16236.6625
1564.18484	16318.4625
1567.52853	16485.1625
1570.86999	16686.3625
1574.20922	16887.6625
1577.54624	16987.7625
1580.88103	16747.6625
1584.2136	16380.8625
1587.54395	16355.6625
1590.87208	16680.3625
1594.19801	17319.1625
1597.52172	18056.8625
1600.84321	18435.9625
1604.16251	18042.4625
1607.47959	17243.1625
1610.79447	16321.0625
1614.10715	15403.4625
1617.41763	14571.7625
1620.7259	13961.6625
1624.03199	13587.3625
1627.33587	13540.6625
1630.63757	13702.9625
1633.93707	14184.1625
1637.23439	15104.7625
1640.52951	16483.9625
1643.82246	18142.4625
1647.11321	19666.7625
1650.40179	20174.4625
1653.68819	19205.2625
1656.97241	17194.0625
1660.25446	15193.6625
1663.53433	13740.5625
1666.81203	12821.5625
1670.08756	12292.9625
1673.36092	11980.4625
1676.63211	11764.6625
1679.90115	11621.3625
1683.16801	11481.5625
1686.43272	11387.4625
1689.69527	11258.2625
1692.95567	11161.6625
1696.2139	11030.2625
1699.46999	10907.5625
1702.72392	10833.5625
1705.97571	10886.4625
1709.22535	10946.1625
1712.47284	10974.5625
1715.71819	10996.3625
1718.96139	10983.5625
1722.20246	10972.7625
1725.44139	10938.2625
1728.67818	10892.0625
1731.91284	10838.0625
1735.14537	10793.0625
1738.37576	10756.6625
1741.60403	10705.1625
1744.83017	10667.9625
1748.05418	10648.0625
1751.27607	10595.9625
1754.49584	10549.2625
1757.71349	10499.1625
1760.92903	10457.8625
1764.14244	10448.7625
1767.35375	10427.2625
1770.56294	10415.8625
1773.77002	10381.1625
1776.97499	10415.3625
1780.17785	10445.8625
1783.37861	10453.0625
1786.57727	10431.2625
1789.77382	10432.1625
1792.96828	10417.2625
1796.16064	10396.3625
1799.3509	10350.7625
1802.53907	10351.0625
1805.72514	10331.1625
1808.90913	10339.8625
1812.09102	10320.2625
1815.27083	10270.1625
1818.44856	10263.5625
1821.6242	10251.4625
1824.79776	10235.5625
1827.96924	10230.0625
1831.13864	10207.2625
1834.30597	10216.5625
1837.47122	10187.6625
1840.6344	10200.5625
1843.7955	10214.9625
1846.95454	10185.2625
1850.11151	10200.6625
1853.26642	10150.1625
1856.41926	10169.0625
1859.57004	10152.8625
1862.71876	10133.9625
1865.86542	10130.4625
1869.01003	10119.7625
1872.15258	10090.5625
1875.29308	10084.6625
1878.43152	10045.5625
1881.56792	10046.2625
1884.70227	10024.9625
1887.83457	9996.8625
1890.96482	9985.0625
1894.09304	9983.7625
1897.21921	9984.4625
1900.34335	9978.5625
1903.46544	9958.3625
1906.58551	9963.5625
1909.70353	9954.3625
1912.81953	9933.1625
1915.93349	9900.1625
1919.04543	9890.3625
1922.15534	9859.0625
1925.26322	9841.7625
1928.36908	9837.3625
1931.47292	9803.5625
1934.57473	9787.0625
1937.67453	9782.4625
1940.77232	9750.9625
1943.86808	9714.4625
1946.96184	9732.3625
1950.05358	9644.9625
1953.14331	9648.1625
1956.23103	9605.2625
1959.31675	9602.1625
1962.40046	9551.9625
1965.48217	9515.4625
1968.56188	9485.2625
1971.63959	9455.5625
1974.7153	9450.2625
1977.78901	9433.6625
1980.86073	9402.4625
1983.93046	9390.4625
1986.99819	9344.7625
1990.06394	9313.4625
1993.1277	9304.1625
1996.18947	9262.5625
1999.24925	9236.9625
2002.30706	9191.8625
2005.36288	9167.0625
2008.41672	9154.5625
2011.46859	9108.6625
2014.51848	9094.1625
2017.56639	9101.6625
2020.61233	9054.8625
2023.6563	9027.2625
2026.6983	9001.8625
2029.73833	8985.8625
2032.7764	8943.0625
2035.8125	8940.7625
2038.84664	8927.8625
2041.87881	8917.5625
2044.90903	8884.7625
2047.93729	8875.0625
2050.96359	8853.8625
2053.98794	8830.2625
2057.01034	8849.4625
2060.03078	8855.7625
2063.04927	8822.9625
2066.06582	8811.5625
2069.08042	8767.3625
2072.09307	8792.0625
2075.10378	8776.1625
2078.11255	8787.4625
2081.11938	8778.5625
2084.12426	8780.1625
2087.12722	8786.5625
2090.12824	8784.7625
2093.12732	8775.9625
2096.12447	8775.7625
2099.11969	8769.5625
2102.11299	8780.6625
2105.10435	8767.2625
2108.09379	8778.9625
2111.08131	8777.9625
2114.0669	8767.3625
2117.05057	8783.6625
2120.03233	8802.6625
2123.01216	8806.4625
2125.99008	8837.2625
2128.96609	8832.6625
2131.94018	8824.1625
2134.91236	8849.5625
2137.88263	8855.2625
2140.851	8825.4625
2143.81746	8841.0625
2146.78201	8825.6625
2149.74466	8840.4625
2152.7054	8837.7625
2155.66425	8821.2625
2158.6212	8833.5625
2161.57625	8822.8625
2164.52941	8813.1625
2167.48067	8816.6625
2170.43004	8795.6625
2173.37752	8781.9625
2176.32311	8806.1625
2179.26681	8783.1625
2182.20863	8792.0625
2185.14856	8799.9625
2188.08661	8801.9625
2191.02278	8822.1625
2193.95707	8824.6625
2196.88948	8760.5625
2199.82001	8784.3625
2202.74867	8771.1625
2205.67545	8755.3625
2208.60037	8748.8625
2211.52341	8742.7625
2214.44458	8714.6625
2217.36388	8682.4625
2220.28132	8690.3625
2223.1969	8661.1625
2226.11061	8652.7625
2229.02246	8633.9625
2231.93245	8648.0625
2234.84058	8625.7625
2237.74686	8604.4625
2240.65128	8603.5625
2243.55385	8600.0625
2246.45456	8579.3625
2249.35343	8564.7625
2252.25044	8554.8625
2255.14561	8551.9625
2258.03893	8553.3625
2260.93041	8523.3625
2263.82004	8496.4625
2266.70783	8503.0625
2269.59378	8442.5625
2272.4779	8453.3625
2275.36017	8422.6625
2278.24061	8416.8625
2281.11922	8388.3625
2283.996	8360.5625
2286.87094	8377.6625
2289.74405	8351.3625
2292.61534	8353.3625
2295.4848	8337.7625
2298.35243	8316.4625
2301.21824	8314.1625
2304.08223	8293.8625
2306.94439	8312.9625
2309.80474	8304.6625
2312.66327	8293.4625
2315.51999	8291.0625
2318.37489	8277.7625
2321.22797	8239.0625
2324.07925	8242.6625
2326.92871	8246.6625
2329.77637	8243.3625
2332.62222	8226.6625
2335.46626	8206.3625
2338.3085	8195.7625
2341.14893	8181.8625
2343.98756	8190.0625
2346.8244	8174.7625
2349.65943	8178.4625
2352.49267	8164.9625
2355.32411	8155.6625
2358.15376	8149.4625
2360.98161	8150.7625
2363.80768	8144.9625
2366.63195	8153.7625
2369.45444	8160.5625
2372.27514	8141.7625
2375.09405	8151.3625
2377.91118	8123.6625
2380.72652	8102.5625
2383.54009	8091.7625
2386.35187	8056.2625
2389.16188	8060.5625
2391.97011	8025.9625
2394.77657	8018.9625
2397.58125	7994.6625
2400.38416	7997.8625
2403.18529	7982.9625
2405.98466	7968.9625
2408.78226	7944.8625
2411.57809	7935.9625
2414.37216	7918.0625
2417.16446	7909.1625
2419.955	7905.2625
2422.74378	7921.8625
2425.5308	7899.3625
2428.31606	7895.7625
2431.09956	7886.6625
2433.88131	7865.9625
2436.6613	7879.9625
2439.43954	7867.7625
2442.21603	7871.2625
2444.99077	7869.6625
2447.76377	7885.4625
2450.53501	7860.3625
2453.30451	7840.0625
2456.07226	7844.8625
2458.83827	7835.0625
2461.60254	7837.0625
2464.36507	7813.7625
2467.12586	7823.7625
2469.88492	7831.5625
2472.64224	7818.9625
2475.39782	7789.8625
2478.15167	7788.0625
2480.90379	7816.3625
2483.65417	7799.2625
2486.40283	7799.0625
2489.14976	7792.7625
2491.89497	7799.8625
2494.63845	7794.2625
2497.3802	7794.8625
2500.12024	7792.7625
2502.85855	7779.4625
2505.59514	7782.2625
2508.33002	7772.7625
2511.06318	7753.7625
2513.79462	7716.5625
2516.52435	7723.4625
2519.25237	7732.2625
2521.97867	7714.4625
2524.70327	7703.6625
2527.42616	7676.3625
2530.14734	7669.5625
2532.86681	7679.1625
2535.58458	7674.6625
2538.30065	7669.7625
2541.01501	7666.1625
2543.72768	7645.2625
2546.43864	7636.1625
2549.14791	7623.1625
2551.85548	7630.7625
2554.56136	7588.6625
2557.26554	7592.8625
2559.96803	7574.2625
2562.66883	7574.6625
2565.36794	7566.3625
2568.06536	7559.9625
2570.7611	7524.8625
2573.45514	7524.5625
2576.14751	7516.4625
2578.83819	7497.2625
2581.52719	7496.4625
2584.21451	7469.4625
2586.90015	7486.9625
2589.58411	7438.2625
2592.2664	7443.1625
2594.94701	7417.2625
2597.62594	7432.5625
2600.30321	7436.0625
2602.9788	7414.7625
2605.65273	7417.2625
2608.32498	7423.8625
2610.99557	7391.9625
2613.66449	7415.2625
2616.33175	7375.6625
2618.99734	7363.3625
2621.66128	7366.9625
2624.32355	7359.7625
2626.98416	7361.3625
2629.64311	7345.1625
2632.30041	7334.0625
2634.95605	7301.4625
2637.61004	7282.8625
2640.26238	7289.0625
2642.91306	7309.6625
2645.56209	7284.4625
2648.20948	7279.9625
2650.85521	7274.4625
2653.4993	7280.8625
2656.14175	7267.4625
2658.78255	7268.2625
2661.42171	7262.2625
2664.05923	7284.3625
2666.6951	7285.3625
2669.32934	7313.4625
2671.96194	7297.0625
2674.59291	7297.3625
2677.22224	7287.4625
2679.84993	7300.8625
2682.476	7278.6625
2685.10043	7274.9625
2687.72324	7297.7625
2690.34441	7274.0625
2692.96396	7282.5625
2695.58188	7291.3625
2698.19818	7262.2625
2700.81285	7281.1625
2703.4259	7244.6625
2706.03733	7205.7625
2708.64714	7248.6625
2711.25533	7265.8625
2713.86191	7250.8625
2716.46687	7268.2625
2719.07021	7263.6625
2721.67194	7282.4625
2724.27206	7288.3625
2726.87057	7304.3625
2729.46747	7280.1625
2732.06276	7309.3625
2734.65644	7303.2625
2737.24852	7291.0625
2739.83899	7283.1625
2742.42786	7285.3625
2745.01513	7256.5625
2747.60079	7254.0625
2750.18486	7228.8625
2752.76733	7252.0625
2755.3482	7236.7625
2757.92747	7230.0625
2760.50515	7208.8625
2763.08123	7220.6625
2765.65573	7169.6625
2768.22863	7172.8625
2770.79994	7155.5625
2773.36967	7150.5625
2775.9378	7151.4625
2778.50435	7167.5625
2781.06932	7149.6625
2783.6327	7155.8625
2786.1945	7152.6625
2788.75471	7127.4625
2791.31335	7113.7625
2793.87041	7098.9625
2796.42589	7082.0625
2798.97979	7096.9625
2801.53212	7067.5625
2804.08288	7079.1625
2806.63206	7046.5625
2809.17967	7018.2625
2811.72571	7010.0625
2814.27018	7020.3625
2816.81308	7001.8625
2819.35442	6993.7625
2821.89419	7000.0625
2824.43239	6973.3625
2826.96904	6977.0625
2829.50412	6969.6625
2832.03763	6970.7625
2834.56959	6988.1625
2837.1	6960.9625
2839.62884	6978.1625
2842.15613	6958.4625
2844.68186	6986.5625
2847.20604	6986.3625
2849.72867	6981.9625
2852.24974	6995.6625
2854.76927	6951.4625
2857.28724	6959.9625
2859.80367	6963.0625
2862.31855	6957.4625
2864.83189	6952.9625
2867.34368	6924.6625
2869.85393	6945.4625
2872.36264	6914.8625
2874.8698	6926.1625
2877.37543	6922.7625
2879.87952	6904.0625
2882.38207	6923.4625
2884.88308	6913.2625
2887.38256	6925.1625
2889.88051	6928.0625
2892.37692	6934.3625
2894.8718	6890.9625
2897.36515	6937.0625
2899.85698	6937.0625
2902.34727	6917.6625
2904.83604	6932.8625
2907.32328	6950.8625
2909.809	6950.6625
2912.29319	6962.0625
2914.77587	6945.9625
2917.25702	6936.3625
2919.73665	6945.3625
2922.21476	6955.3625
2924.69136	6951.1625
2927.16644	6964.9625
2929.64	6937.1625
2932.11205	6935.4625
2934.58258	6923.0625
2937.05161	6921.4625
2939.51912	6925.7625
2941.98513	6915.4625
2944.44962	6903.6625
2946.91261	6874.8625
2949.37409	6876.4625
2951.83407	6863.4625
2954.29254	6846.3625
2956.74951	6845.1625
2959.20498	6837.5625
2961.65895	6819.4625
2964.11142	6822.6625
2966.56239	6804.4625
2969.01186	6798.3625
2971.45984	6790.4625
2973.90632	6774.7625
2976.35131	6756.8625
2978.7948	6757.2625
2981.23681	6730.2625
2983.67732	6734.3625
2986.11635	6704.7625
2988.55388	6701.1625
2990.98993	6705.4625
2993.4245	6690.2625
2995.85758	6647.8625
2998.28917	6628.3625
3000.71928	6640.8625
3003.14791	6602.8625
3005.57506	6600.1625
3008.00073	6599.1625
3010.42493	6579.3625
3012.84764	6589.5625
3015.26888	6572.0625
3017.68865	6579.5625
3020.10694	6561.2625
3022.52376	6543.0625
3024.9391	6543.0625
3027.35298	6533.7625
3029.76539	6523.0625
3032.17632	6534.5625
3034.5858	6506.5625
3036.9938	6501.0625
3039.40034	6504.3625
3041.80542	6483.9625
3044.20903	6473.0625
3046.61118	6460.8625
3049.01187	6463.5625
3051.4111	6452.2625
3053.80888	6440.1625
3056.20519	6436.1625
3058.60005	6434.5625
3060.99345	6434.1625
3063.3854	6416.9625
3065.7759	6421.1625
3068.16494	6386.9625
3070.55254	6350.8625
3072.93868	6359.5625
