Data from AgNPs_FTO_APTES_UA_50uM_CRN_500uM_R6G_10uM_NaF_0.1M_Addition_RamanShift__0__16-41-53-524.txt Node

Date: Mon Feb 21 16:41:53 GMT 2022
User: TCL
Spectrometer: QEP01345
Trigger mode: 4
Integration Time (sec): 7.000000E0
Scans to average: 10
Electric dark correction enabled: true
Nonlinearity correction enabled: false
Boxcar width: 0
XAxis mode: Raman Shifts
Number of Pixels in Spectrum: 1044
>>>>>Begin Spectral Data<<<<<
46.04893	-1.3875
50.45542	-0.2875
54.85868	0.1125
59.25871	-2.1875
63.6555	43.0125
68.04907	46.6125
72.43941	52.4125
76.82654	55.1125
81.21044	57.5125
85.59113	61.2125
89.96862	62.7125
94.34289	64.4125
98.71396	64.2125
103.08183	69.4125
107.4465	67.0125
111.80798	73.2125
116.16626	68.1125
120.52136	73.3125
124.87327	73.4125
129.222	75.2125
133.56755	83.1125
137.90993	86.5125
142.24913	102.7125
146.58517	98.5125
150.91804	106.3125
155.24774	128.4125
159.57429	153.9125
163.89768	193.1125
168.21792	249.8125
172.53501	340.0125
176.84895	471.5125
181.15975	661.5125
185.46741	925.8125
189.77193	1274.9125
194.07331	1705.2125
198.37157	2204.7125
202.6667	2738.2125
206.9587	3255.2125
211.24758	3778.5125
215.53334	4320.3125
219.81599	4891.5125
224.09553	5507.6125
228.37195	6201.7125
232.64527	6959.7125
236.91549	7741.7125
241.18261	8476.3125
245.44663	9146.3125
249.70755	9724.7125
253.96539	10176.9125
258.22014	10562.9125
262.4718	10899.0125
266.72039	11154.8125
270.96589	11261.5125
275.20832	11251.5125
279.44768	11096.1125
283.68397	10954.3125
287.91719	10794.2125
292.14735	10685.1125
296.37445	10772.7125
300.59849	10947.4125
304.81948	11163.5125
309.03742	11342.4125
313.25231	11324.2125
317.46415	11104.1125
321.67296	10690.1125
325.87872	10346.1125
330.08145	10169.1125
334.28114	10166.4125
338.47781	10271.6125
342.67145	10432.5125
346.86207	10680.6125
351.04966	11031.2125
355.23424	11384.8125
359.4158	11662.1125
363.59435	11841.1125
367.76989	11923.4125
371.94243	11949.2125
376.11196	11974.0125
380.27849	11970.3125
384.44203	11984.6125
388.60257	11967.2125
392.76012	12030.2125
396.91468	12142.5125
401.06626	12314.0125
405.21485	12429.9125
409.36047	12324.8125
413.50311	11996.8125
417.64277	11657.9125
421.77947	11445.9125
425.9132	11418.2125
430.04396	11398.2125
434.17176	11485.4125
438.2966	11593.6125
442.41849	11746.0125
446.53742	11964.1125
450.6534	12208.9125
454.76644	12338.6125
458.87653	12383.7125
462.98368	12349.9125
467.08789	12276.0125
471.18916	12148.7125
475.2875	11996.2125
479.38291	11860.9125
483.4754	11732.1125
487.56496	11650.1125
491.6516	11603.9125
495.73531	11529.5125
499.81612	11540.0125
503.89401	11647.0125
507.96899	11727.1125
512.04106	11787.1125
516.11023	11866.0125
520.1765	11929.7125
524.23987	11921.5125
528.30034	11845.9125
532.35792	11783.5125
536.41261	11705.0125
540.46441	11548.9125
544.51333	11473.1125
548.55936	11525.7125
552.60252	11688.4125
556.64279	11861.0125
560.6802	11980.7125
564.71473	12044.4125
568.7464	12210.2125
572.7752	12349.5125
576.80114	12276.9125
580.82422	12154.4125
584.84444	12238.2125
588.86181	12374.8125
592.87633	12516.1125
596.888	12678.1125
600.89682	12834.6125
604.9028	13459.7125
608.90594	15407.2125
612.90624	17909.0125
616.90371	17291.4125
620.89834	13821.6125
624.89015	12189.5125
628.87913	11894.0125
632.86528	12034.0125
636.84862	12219.2125
640.82913	12133.9125
644.80683	11856.5125
648.78172	11604.7125
652.75379	11563.1125
656.72306	11804.1125
660.68952	12064.1125
664.65319	11980.2125
668.61405	11658.7125
672.57211	11532.0125
676.52738	11578.6125
680.47986	11634.4125
684.42955	11567.0125
688.37646	11469.3125
692.32058	11480.9125
696.26192	11539.7125
700.20048	11645.0125
704.13626	11709.9125
708.06928	11711.3125
711.99952	11630.7125
715.927	11604.8125
719.85171	11660.3125
723.77365	11664.9125
727.69284	11605.8125
731.60928	11514.9125
735.52295	11510.3125
739.43388	11503.4125
743.34206	11543.0125
747.24749	11553.7125
751.15017	11576.1125
755.05012	11688.2125
758.94733	11956.9125
762.8418	12673.5125
766.73354	13860.6125
770.62254	15144.3125
774.50882	15749.7125
778.39237	15255.2125
782.27321	13958.5125
786.15132	12740.5125
790.02671	11995.3125
793.89938	11674.2125
797.76935	11516.5125
801.6366	11439.3125
805.50115	11384.1125
809.36299	11350.7125
813.22213	11332.1125
817.07857	11297.3125
820.93231	11286.4125
824.78336	11313.8125
828.63172	11298.9125
832.47738	11281.3125
836.32036	11278.3125
840.16066	11254.4125
843.99827	11219.8125
847.8332	11196.2125
851.66546	11233.0125
855.49504	11233.9125
859.32195	11249.5125
863.1462	11236.5125
866.96777	11223.5125
870.78668	11243.3125
874.60293	11219.9125
878.41652	11285.1125
882.22745	11343.5125
886.03573	11388.7125
889.84136	11369.7125
893.64433	11341.1125
897.44466	11294.2125
901.24235	11244.7125
905.0374	11187.8125
908.8298	11158.9125
912.61957	11093.2125
916.40671	11147.1125
920.19121	11203.3125
923.97308	11286.4125
927.75233	11329.9125
931.52895	11392.9125
935.30295	11320.4125
939.07433	11152.8125
942.84309	10981.1125
946.60924	10874.3125
950.37278	10805.4125
954.13371	10783.9125
957.89203	10765.0125
961.64774	10743.0125
965.40086	10712.1125
969.15137	10687.0125
972.89929	10687.6125
976.64461	10676.0125
980.38733	10693.3125
984.12747	10708.0125
987.86502	10731.9125
991.59999	10819.2125
995.33237	10892.6125
999.06217	10993.1125
1002.78939	11114.5125
1006.51404	11244.6125
1010.23611	11376.5125
1013.95561	11444.6125
1017.67255	11435.2125
1021.38692	11400.0125
1025.09872	11299.1125
1028.80796	11215.5125
1032.51465	11160.5125
1036.21877	11217.4125
1039.92035	11260.9125
1043.61937	11302.6125
1047.31584	11325.0125
1051.00976	11308.6125
1054.70114	11301.4125
1058.38998	11300.3125
1062.07627	11351.1125
1065.76003	11384.7125
1069.44126	11463.7125
1073.11995	11521.6125
1076.79611	11645.9125
1080.46974	11783.2125
1084.14085	11926.9125
1087.80943	12053.4125
1091.47549	12134.5125
1095.13903	12095.4125
1098.80005	11930.9125
1102.45857	11704.7125
1106.11456	11626.7125
1109.76805	11613.0125
1113.41903	11706.3125
1117.06751	11891.8125
1120.71348	12138.9125
1124.35696	12448.1125
1127.99793	12709.4125
1131.63641	12813.7125
1135.2724	12506.9125
1138.90589	12229.2125
1142.5369	12046.3125
1146.16542	11899.1125
1149.79145	11810.9125
1153.415	11755.3125
1157.03607	11793.5125
1160.65467	11920.6125
1164.27079	12173.0125
1167.88443	12585.5125
1171.49561	13162.4125
1175.10432	14077.8125
1178.71056	15283.9125
1182.31434	16363.8125
1185.91565	16760.6125
1189.51451	16574.9125
1193.11091	16024.4125
1196.70485	15365.6125
1200.29634	14766.9125
1203.88538	14275.4125
1207.47197	13725.4125
1211.05612	13218.5125
1214.63782	12857.4125
1218.21708	12667.2125
1221.79391	12592.1125
1225.36829	12541.6125
1228.94024	12563.3125
1232.50976	12570.9125
1236.07685	12493.3125
1239.6415	12498.8125
1243.20374	12507.3125
1246.76355	12551.8125
1250.32093	12645.9125
1253.8759	12809.9125
1257.42845	13012.3125
1260.97859	13226.7125
1264.52631	13488.8125
1268.07163	13782.6125
1271.61453	14021.3125
1275.15503	14184.7125
1278.69312	14300.5125
1282.22882	14401.3125
1285.76211	14641.6125
1289.29301	14967.6125
1292.82151	15414.2125
1296.34761	15877.1125
1299.87133	16469.4125
1303.39266	17374.5125
1306.9116	18600.7125
1310.42815	19954.7125
1313.94233	20710.3125
1317.45412	20307.2125
1320.96354	19321.4125
1324.47058	18321.7125
1327.97525	17327.5125
1331.47754	16613.4125
1334.97747	16325.1125
1338.47502	16295.6125
1341.97022	16547.7125
1345.46305	17072.7125
1348.95352	17821.4125
1352.44163	18855.8125
1355.92738	20101.1125
1359.41078	22011.0125
1362.89183	23764.6125
1366.37053	23433.9125
1369.84688	20605.6125
1373.32088	17700.1125
1376.79254	15879.8125
1380.26186	15005.0125
1383.72883	14555.6125
1387.19347	14231.9125
1390.65578	13873.6125
1394.11575	13563.3125
1397.57339	13349.8125
1401.0287	13273.5125
1404.48168	13193.0125
1407.93234	13129.4125
1411.38068	13133.7125
1414.82669	13056.3125
1418.27039	12992.8125
1421.71177	12875.2125
1425.15083	12700.4125
1428.58758	12566.0125
1432.02203	12586.2125
1435.45416	12692.5125
1438.88399	12771.0125
1442.31151	12787.7125
1445.73673	12837.4125
1449.15965	12889.8125
1452.58027	12882.4125
1455.9986	12873.6125
1459.41463	12878.1125
1462.82837	12976.6125
1466.23982	13172.6125
1469.64898	13359.8125
1473.05586	13568.5125
1476.46045	13653.2125
1479.86276	13777.4125
1483.26279	13886.5125
1486.66054	14064.6125
1490.05602	14389.5125
1493.44922	14852.8125
1496.84016	15615.7125
1500.22882	16891.2125
1503.61521	18536.5125
1506.99934	20327.2125
1510.38121	21753.8125
1513.76081	22036.2125
1517.13816	20811.3125
1520.51324	18766.2125
1523.88607	16885.3125
1527.25665	15738.9125
1530.62498	15145.1125
1533.99105	14767.5125
1537.35488	14449.8125
1540.71647	14224.4125
1544.07581	14043.8125
1547.4329	13886.1125
1550.78776	13788.4125
1554.14038	13725.3125
1557.49077	13764.2125
1560.83892	13874.8125
1564.18484	14124.9125
1567.52853	14456.0125
1570.86999	14752.4125
1574.20922	15032.9125
1577.54624	14986.6125
1580.88103	14567.9125
1584.2136	13914.0125
1587.54395	13533.0125
1590.87208	13541.8125
1594.19801	13933.8125
1597.52172	14514.7125
1600.84321	14804.3125
1604.16251	14573.8125
1607.47959	14087.2125
1610.79447	13477.4125
1614.10715	12816.3125
1617.41763	12192.0125
1620.7259	11789.9125
1624.03199	11567.4125
1627.33587	11503.0125
1630.63757	11653.7125
1633.93707	11997.0125
1637.23439	12576.4125
1640.52951	13540.0125
1643.82246	14942.3125
1647.11321	16493.1125
1650.40179	17483.5125
1653.68819	17029.2125
1656.97241	15302.8125
1660.25446	13419.6125
1663.53433	12067.9125
1666.81203	11258.6125
1670.08756	10779.4125
1673.36092	10478.9125
1676.63211	10316.3125
1679.90115	10167.7125
1683.16801	10031.2125
1686.43272	9942.4125
1689.69527	9883.2125
1692.95567	9784.3125
1696.2139	9720.4125
1699.46999	9682.0125
1702.72392	9611.5125
1705.97571	9609.4125
1709.22535	9583.6125
1712.47284	9578.6125
1715.71819	9574.4125
1718.96139	9541.2125
1722.20246	9530.9125
1725.44139	9500.0125
1728.67818	9449.7125
1731.91284	9405.5125
1735.14537	9335.4125
1738.37576	9307.7125
1741.60403	9284.7125
1744.83017	9277.7125
1748.05418	9261.7125
1751.27607	9220.3125
1754.49584	9233.9125
1757.71349	9226.9125
1760.92903	9197.4125
1764.14244	9206.8125
1767.35375	9168.9125
1770.56294	9130.3125
1773.77002	9106.3125
1776.97499	9080.1125
1780.17785	9062.5125
1783.37861	9030.0125
1786.57727	9043.7125
1789.77382	9021.8125
1792.96828	9004.7125
1796.16064	8993.0125
1799.3509	8968.8125
1802.53907	8928.1125
1805.72514	8901.7125
1808.90913	8863.8125
1812.09102	8867.4125
1815.27083	8856.6125
1818.44856	8825.2125
1821.6242	8834.2125
1824.79776	8797.6125
1827.96924	8785.1125
1831.13864	8789.8125
1834.30597	8780.2125
1837.47122	8789.9125
1840.6344	8739.1125
1843.7955	8748.9125
1846.95454	8722.0125
1850.11151	8702.8125
1853.26642	8683.6125
1856.41926	8707.1125
1859.57004	8688.9125
1862.71876	8667.9125
1865.86542	8692.7125
1869.01003	8679.7125
1872.15258	8662.5125
1875.29308	8660.1125
1878.43152	8643.9125
1881.56792	8637.9125
1884.70227	8621.3125
1887.83457	8638.9125
1890.96482	8608.9125
1894.09304	8625.5125
1897.21921	8595.8125
1900.34335	8560.7125
1903.46544	8564.3125
1906.58551	8547.7125
1909.70353	8547.9125
1912.81953	8543.2125
1915.93349	8517.6125
1919.04543	8503.1125
1922.15534	8477.4125
1925.26322	8483.7125
1928.36908	8426.9125
1931.47292	8441.3125
1934.57473	8403.5125
1937.67453	8379.8125
1940.77232	8369.4125
1943.86808	8360.6125
1946.96184	8320.9125
1950.05358	8307.6125
1953.14331	8291.2125
1956.23103	8279.6125
1959.31675	8216.4125
1962.40046	8221.6125
1965.48217	8182.7125
1968.56188	8168.1125
1971.63959	8154.2125
1974.7153	8144.4125
1977.78901	8100.5125
1980.86073	8095.4125
1983.93046	8066.6125
1986.99819	8041.1125
1990.06394	7973.7125
1993.1277	7964.3125
1996.18947	7955.3125
1999.24925	7933.9125
2002.30706	7899.4125
2005.36288	7876.0125
2008.41672	7867.3125
2011.46859	7827.1125
2014.51848	7812.5125
2017.56639	7809.4125
2020.61233	7773.9125
2023.6563	7769.4125
2026.6983	7723.2125
2029.73833	7730.1125
2032.7764	7683.2125
2035.8125	7664.5125
2038.84664	7642.1125
2041.87881	7630.4125
2044.90903	7612.0125
2047.93729	7593.0125
2050.96359	7592.7125
2053.98794	7563.3125
2057.01034	7583.2125
2060.03078	7570.5125
2063.04927	7562.5125
2066.06582	7550.8125
2069.08042	7554.9125
2072.09307	7556.2125
2075.10378	7526.9125
2078.11255	7538.6125
2081.11938	7543.6125
2084.12426	7536.3125
2087.12722	7519.1125
2090.12824	7524.4125
2093.12732	7502.9125
2096.12447	7539.1125
2099.11969	7531.2125
2102.11299	7511.5125
2105.10435	7524.8125
2108.09379	7539.5125
2111.08131	7546.0125
2114.0669	7537.4125
2117.05057	7533.6125
2120.03233	7556.5125
2123.01216	7537.1125
2125.99008	7545.4125
2128.96609	7553.3125
2131.94018	7569.1125
2134.91236	7567.9125
2137.88263	7574.3125
2140.851	7582.2125
2143.81746	7583.0125
2146.78201	7561.4125
2149.74466	7587.5125
2152.7054	7590.6125
2155.66425	7556.4125
2158.6212	7550.6125
2161.57625	7548.0125
2164.52941	7553.5125
2167.48067	7552.8125
2170.43004	7562.0125
2173.37752	7548.6125
2176.32311	7549.1125
2179.26681	7545.8125
2182.20863	7544.0125
2185.14856	7565.0125
2188.08661	7542.0125
2191.02278	7530.3125
2193.95707	7535.1125
2196.88948	7535.3125
2199.82001	7528.2125
2202.74867	7502.8125
2205.67545	7508.1125
2208.60037	7502.0125
2211.52341	7484.1125
2214.44458	7480.0125
2217.36388	7442.2125
2220.28132	7441.0125
2223.1969	7411.4125
2226.11061	7416.5125
2229.02246	7395.9125
2231.93245	7391.8125
2234.84058	7356.2125
2237.74686	7367.1125
2240.65128	7350.4125
2243.55385	7329.3125
2246.45456	7303.7125
2249.35343	7319.7125
2252.25044	7302.2125
2255.14561	7306.4125
2258.03893	7299.7125
2260.93041	7262.0125
2263.82004	7260.9125
2266.70783	7238.0125
2269.59378	7254.7125
2272.4779	7207.6125
2275.36017	7179.0125
2278.24061	7195.9125
2281.11922	7164.7125
2283.996	7152.5125
2286.87094	7134.2125
2289.74405	7131.7125
2292.61534	7114.6125
2295.4848	7093.2125
2298.35243	7116.0125
2301.21824	7102.8125
2304.08223	7093.2125
2306.94439	7108.1125
2309.80474	7085.4125
2312.66327	7104.8125
2315.51999	7089.2125
2318.37489	7056.3125
2321.22797	7047.2125
2324.07925	7036.4125
2326.92871	7047.0125
2329.77637	7035.6125
2332.62222	7021.0125
2335.46626	6995.4125
2338.3085	7008.8125
2341.14893	6985.7125
2343.98756	6992.5125
2346.8244	6977.9125
2349.65943	6962.3125
2352.49267	6961.1125
2355.32411	6963.2125
2358.15376	6980.8125
2360.98161	6982.4125
2363.80768	6971.8125
2366.63195	7000.9125
2369.45444	6973.3125
2372.27514	6975.6125
2375.09405	6989.0125
2377.91118	6944.3125
2380.72652	6914.8125
2383.54009	6916.0125
2386.35187	6911.1125
2389.16188	6865.9125
2391.97011	6844.3125
2394.77657	6843.2125
2397.58125	6826.8125
2400.38416	6803.0125
2403.18529	6800.5125
2405.98466	6789.2125
2408.78226	6769.3125
2411.57809	6753.9125
2414.37216	6755.2125
2417.16446	6741.5125
2419.955	6742.6125
2422.74378	6744.3125
2425.5308	6744.8125
2428.31606	6737.2125
2431.09956	6742.5125
2433.88131	6719.0125
2436.6613	6733.5125
2439.43954	6718.4125
2442.21603	6698.2125
2444.99077	6717.5125
2447.76377	6707.2125
2450.53501	6680.4125
2453.30451	6701.8125
2456.07226	6688.0125
2458.83827	6672.3125
2461.60254	6673.2125
2464.36507	6651.0125
2467.12586	6661.8125
2469.88492	6665.5125
2472.64224	6660.7125
2475.39782	6664.4125
2478.15167	6687.6125
2480.90379	6640.4125
2483.65417	6658.8125
2486.40283	6672.2125
2489.14976	6662.1125
2491.89497	6668.1125
2494.63845	6676.4125
2497.3802	6661.7125
2500.12024	6677.0125
2502.85855	6641.0125
2505.59514	6638.4125
2508.33002	6600.8125
2511.06318	6609.2125
2513.79462	6577.5125
2516.52435	6555.6125
2519.25237	6534.8125
2521.97867	6542.5125
2524.70327	6537.6125
2527.42616	6517.9125
2530.14734	6511.8125
2532.86681	6511.7125
2535.58458	6488.3125
2538.30065	6486.3125
2541.01501	6511.9125
2543.72768	6478.1125
2546.43864	6476.9125
2549.14791	6484.8125
2551.85548	6464.8125
2554.56136	6439.0125
2557.26554	6458.1125
2559.96803	6436.2125
2562.66883	6414.3125
2565.36794	6405.9125
2568.06536	6398.7125
2570.7611	6393.8125
2573.45514	6370.9125
2576.14751	6369.7125
2578.83819	6376.8125
2581.52719	6361.1125
2584.21451	6344.7125
2586.90015	6323.5125
2589.58411	6327.7125
2592.2664	6325.7125
2594.94701	6291.2125
2597.62594	6270.0125
2600.30321	6289.9125
2602.9788	6266.3125
2605.65273	6249.1125
2608.32498	6244.9125
2610.99557	6229.7125
2613.66449	6242.0125
2616.33175	6229.4125
2618.99734	6233.6125
2621.66128	6217.6125
2624.32355	6210.5125
2626.98416	6194.2125
2629.64311	6202.1125
2632.30041	6196.2125
2634.95605	6172.0125
2637.61004	6152.2125
2640.26238	6144.6125
2642.91306	6173.8125
2645.56209	6139.0125
2648.20948	6167.0125
2650.85521	6125.9125
2653.4993	6126.9125
2656.14175	6125.6125
2658.78255	6132.1125
2661.42171	6135.3125
2664.05923	6145.7125
2666.6951	6143.2125
2669.32934	6134.4125
2671.96194	6143.3125
2674.59291	6148.7125
2677.22224	6142.3125
2679.84993	6146.4125
2682.476	6139.9125
2685.10043	6133.4125
2687.72324	6135.6125
2690.34441	6136.0125
2692.96396	6137.4125
2695.58188	6127.3125
2698.19818	6112.0125
2700.81285	6131.5125
2703.4259	6119.0125
2706.03733	6127.9125
2708.64714	6128.6125
2711.25533	6129.6125
2713.86191	6122.9125
2716.46687	6131.8125
2719.07021	6135.8125
2721.67194	6147.3125
2724.27206	6132.2125
2726.87057	6120.4125
2729.46747	6120.0125
2732.06276	6147.7125
2734.65644	6127.2125
2737.24852	6118.3125
2739.83899	6110.3125
2742.42786	6087.6125
2745.01513	6088.9125
2747.60079	6075.2125
2750.18486	6088.4125
2752.76733	6083.0125
2755.3482	6063.3125
2757.92747	6069.6125
2760.50515	6025.0125
2763.08123	6042.5125
2765.65573	6042.6125
2768.22863	6030.4125
2770.79994	6013.3125
2773.36967	6019.2125
2775.9378	6002.6125
2778.50435	6001.0125
2781.06932	5991.3125
2783.6327	5986.4125
2786.1945	5987.4125
2788.75471	5965.4125
2791.31335	5965.6125
2793.87041	5960.6125
2796.42589	5938.8125
2798.97979	5934.0125
2801.53212	5915.6125
2804.08288	5897.1125
2806.63206	5882.0125
2809.17967	5889.0125
2811.72571	5897.1125
2814.27018	5881.7125
2816.81308	5881.2125
2819.35442	5875.1125
2821.89419	5871.9125
2824.43239	5887.5125
2826.96904	5876.8125
2829.50412	5871.1125
2832.03763	5833.9125
2834.56959	5850.4125
2837.1	5833.8125
2839.62884	5856.2125
2842.15613	5850.5125
2844.68186	5871.1125
2847.20604	5884.1125
2849.72867	5889.7125
2852.24974	5890.0125
2854.76927	5881.4125
2857.28724	5859.1125
2859.80367	5876.2125
2862.31855	5862.0125
2864.83189	5852.8125
2867.34368	5844.2125
2869.85393	5853.7125
2872.36264	5838.1125
2874.8698	5848.2125
2877.37543	5845.3125
2879.87952	5833.9125
2882.38207	5827.9125
2884.88308	5853.1125
2887.38256	5823.3125
2889.88051	5818.9125
2892.37692	5823.1125
2894.8718	5839.0125
2897.36515	5814.5125
2899.85698	5830.5125
2902.34727	5849.9125
2904.83604	5847.5125
2907.32328	5861.8125
2909.809	5875.5125
2912.29319	5885.6125
2914.77587	5874.5125
2917.25702	5887.9125
2919.73665	5883.2125
2922.21476	5900.7125
2924.69136	5887.7125
2927.16644	5880.4125
2929.64	5874.3125
2932.11205	5859.5125
2934.58258	5842.9125
2937.05161	5836.4125
2939.51912	5838.2125
2941.98513	5824.8125
2944.44962	5817.3125
2946.91261	5788.5125
2949.37409	5799.7125
2951.83407	5764.2125
2954.29254	5776.5125
2956.74951	5764.8125
2959.20498	5754.0125
2961.65895	5731.9125
2964.11142	5749.0125
2966.56239	5735.6125
2969.01186	5714.0125
2971.45984	5688.8125
2973.90632	5681.9125
2976.35131	5686.0125
2978.7948	5676.5125
2981.23681	5654.4125
2983.67732	5650.9125
2986.11635	5630.2125
2988.55388	5618.5125
2990.98993	5612.0125
2993.4245	5611.1125
2995.85758	5599.4125
2998.28917	5594.9125
3000.71928	5573.7125
3003.14791	5555.3125
3005.57506	5578.3125
3008.00073	5544.1125
3010.42493	5535.8125
3012.84764	5525.9125
3015.26888	5531.5125
3017.68865	5523.7125
3020.10694	5504.6125
3022.52376	5507.7125
3024.9391	5499.7125
3027.35298	5479.0125
3029.76539	5466.1125
3032.17632	5465.5125
3034.5858	5453.8125
3036.9938	5448.1125
3039.40034	5433.2125
3041.80542	5446.2125
3044.20903	5431.8125
3046.61118	5429.6125
3049.01187	5407.1125
3051.4111	5426.5125
3053.80888	5403.9125
3056.20519	5400.8125
3058.60005	5395.3125
3060.99345	5381.2125
3063.3854	5382.2125
3065.7759	5372.4125
3068.16494	5362.7125
3070.55254	5356.3125
3072.93868	5332.3125
3075.32338	5321.9125
3077.70662	5327.4125
3080.08842	5309.3125
