Data from AgNPs_FTO_APTES_UA_50uM_CRN_1uM_R6G_10uM_NaF_0.1M_Addition_RamanShift__3__11-19-04-707.txt Node

Date: Mon Feb 21 11:19:04 GMT 2022
User: TCL
Spectrometer: QEP01345
Trigger mode: 4
Integration Time (sec): 7.000000E0
Scans to average: 10
Electric dark correction enabled: true
Nonlinearity correction enabled: false
Boxcar width: 0
XAxis mode: Raman Shifts
Number of Pixels in Spectrum: 1044
>>>>>Begin Spectral Data<<<<<
46.04893	0.3125
50.45542	-1.1875
54.85868	-0.9875
59.25871	-1.8875
63.6555	64.2125
68.04907	69.6125
72.43941	68.0125
76.82654	74.4125
81.21044	77.6125
85.59113	81.2125
89.96862	81.7125
94.34289	87.6125
98.71396	88.6125
103.08183	91.7125
107.4465	94.3125
111.80798	91.2125
116.16626	96.1125
120.52136	93.4125
124.87327	107.3125
129.222	105.1125
133.56755	108.9125
137.90993	118.5125
142.24913	128.1125
146.58517	139.6125
150.91804	160.4125
155.24774	190.1125
159.57429	233.1125
163.89768	298.3125
168.21792	399.3125
172.53501	541.9125
176.84895	760.4125
181.15975	1062.2125
185.46741	1477.9125
189.77193	2047.5125
194.07331	2730.2125
198.37157	3519.9125
202.6667	4343.2125
206.9587	5157.7125
211.24758	5968.4125
215.53334	6766.1125
219.81599	7639.6125
224.09553	8587.0125
228.37195	9671.9125
232.64527	10847.2125
236.91549	12046.5125
241.18261	13294.2125
245.44663	14395.1125
249.70755	15389.0125
253.96539	16281.9125
258.22014	16989.5125
262.4718	17594.1125
266.72039	17965.1125
270.96589	18178.1125
275.20832	18170.5125
279.44768	17957.0125
283.68397	17738.9125
287.91719	17546.3125
292.14735	17440.1125
296.37445	17430.7125
300.59849	17464.0125
304.81948	17600.9125
309.03742	17644.7125
313.25231	17590.1125
317.46415	17404.0125
321.67296	17109.5125
325.87872	16838.2125
330.08145	16725.4125
334.28114	16667.3125
338.47781	16790.5125
342.67145	17036.1125
346.86207	17318.5125
351.04966	17670.9125
355.23424	18064.3125
359.4158	18396.1125
363.59435	18661.1125
367.76989	18869.4125
371.94243	18977.0125
376.11196	19042.1125
380.27849	19129.3125
384.44203	19245.9125
388.60257	19365.4125
392.76012	19562.0125
396.91468	19758.1125
401.06626	20057.8125
405.21485	20254.4125
409.36047	20229.4125
413.50311	20020.0125
417.64277	19872.1125
421.77947	19969.5125
425.9132	20001.0125
430.04396	20051.8125
434.17176	20176.0125
438.2966	20317.3125
442.41849	20723.1125
446.53742	21316.7125
450.6534	21962.0125
454.76644	22439.1125
458.87653	22554.7125
462.98368	22354.3125
467.08789	22011.1125
471.18916	21615.9125
475.2875	21136.0125
479.38291	20845.3125
483.4754	20682.8125
487.56496	20512.0125
491.6516	20374.2125
495.73531	20176.4125
499.81612	20093.6125
503.89401	20218.2125
507.96899	20251.3125
512.04106	20191.9125
516.11023	20087.7125
520.1765	19993.8125
524.23987	19895.1125
528.30034	19885.3125
532.35792	19699.8125
536.41261	19489.0125
540.46441	19273.5125
544.51333	19137.9125
548.55936	19246.5125
552.60252	19648.8125
556.64279	20118.2125
560.6802	20549.4125
564.71473	20749.1125
568.7464	21029.3125
572.7752	21511.7125
576.80114	22013.7125
580.82422	22557.8125
584.84444	23419.0125
588.86181	24645.3125
592.87633	25799.6125
596.888	25885.8125
600.89682	24769.2125
604.9028	24268.6125
608.90594	25748.9125
612.90624	27615.1125
616.90371	26198.5125
620.89834	22315.7125
624.89015	20549.4125
628.87913	20240.9125
632.86528	20281.6125
636.84862	20211.3125
640.82913	19814.8125
644.80683	19380.5125
648.78172	19114.5125
652.75379	19116.0125
656.72306	19360.1125
660.68952	19723.7125
664.65319	19649.9125
668.61405	19353.5125
672.57211	19322.8125
676.52738	19471.2125
680.47986	19424.1125
684.42955	19193.8125
688.37646	19195.2125
692.32058	19302.8125
696.26192	19730.3125
700.20048	19994.6125
704.13626	20105.3125
708.06928	20009.3125
711.99952	19842.5125
715.927	19928.6125
719.85171	20096.5125
723.77365	20085.3125
727.69284	19757.1125
731.60928	19464.6125
735.52295	19360.7125
739.43388	19380.5125
743.34206	19450.0125
747.24749	19571.4125
751.15017	19740.6125
755.05012	19990.2125
758.94733	20418.9125
762.8418	21323.6125
766.73354	22620.4125
770.62254	23886.8125
774.50882	24167.2125
778.39237	23344.9125
782.27321	22072.6125
786.15132	20862.8125
790.02671	20112.5125
793.89938	19740.2125
797.76935	19603.5125
801.6366	19559.3125
805.50115	19511.9125
809.36299	19430.0125
813.22213	19314.0125
817.07857	19200.4125
820.93231	19133.8125
824.78336	19008.7125
828.63172	18980.3125
832.47738	18975.4125
836.32036	19033.0125
840.16066	19060.5125
843.99827	19127.9125
847.8332	19134.4125
851.66546	19072.5125
855.49504	19060.6125
859.32195	19047.6125
863.1462	18981.6125
866.96777	18952.8125
870.78668	18926.3125
874.60293	18974.1125
878.41652	19030.0125
882.22745	19134.2125
886.03573	19194.9125
889.84136	19171.9125
893.64433	19093.7125
897.44466	18986.4125
901.24235	18939.6125
905.0374	18840.9125
908.8298	18782.9125
912.61957	18788.2125
916.40671	18887.1125
920.19121	19119.8125
923.97308	19338.2125
927.75233	19514.4125
931.52895	19426.1125
935.30295	19189.6125
939.07433	18891.8125
942.84309	18675.3125
946.60924	18589.8125
950.37278	18582.4125
954.13371	18559.8125
957.89203	18494.0125
961.64774	18449.7125
965.40086	18449.6125
969.15137	18413.0125
972.89929	18425.0125
976.64461	18416.9125
980.38733	18456.3125
984.12747	18501.2125
987.86502	18652.7125
991.59999	18865.4125
995.33237	19186.8125
999.06217	19663.1125
1002.78939	20228.9125
1006.51404	20689.8125
1010.23611	21018.4125
1013.95561	21249.3125
1017.67255	21283.3125
1021.38692	21004.8125
1025.09872	20717.7125
1028.80796	20668.4125
1032.51465	21005.2125
1036.21877	21388.3125
1039.92035	21566.1125
1043.61937	21462.8125
1047.31584	21094.4125
1051.00976	20635.7125
1054.70114	20350.4125
1058.38998	20284.9125
1062.07627	20318.6125
1065.76003	20427.4125
1069.44126	20633.9125
1073.11995	20985.5125
1076.79611	21302.2125
1080.46974	21540.5125
1084.14085	21729.9125
1087.80943	21998.4125
1091.47549	22132.4125
1095.13903	22123.2125
1098.80005	21745.7125
1102.45857	21281.3125
1106.11456	20969.2125
1109.76805	20880.7125
1113.41903	20858.3125
1117.06751	20987.4125
1120.71348	21148.9125
1124.35696	21339.1125
1127.99793	21565.6125
1131.63641	21688.9125
1135.2724	21669.1125
1138.90589	21559.4125
1142.5369	21540.1125
1146.16542	21622.4125
1149.79145	21741.9125
1153.415	21854.1125
1157.03607	22150.8125
1160.65467	22647.5125
1164.27079	23590.4125
1167.88443	24784.4125
1171.49561	26069.4125
1175.10432	27741.8125
1178.71056	30032.8125
1182.31434	32141.9125
1185.91565	33154.0125
1189.51451	32815.3125
1193.11091	31769.0125
1196.70485	30446.4125
1200.29634	29308.4125
1203.88538	28469.0125
1207.47197	28023.8125
1211.05612	27566.1125
1214.63782	27121.7125
1218.21708	26628.1125
1221.79391	26275.2125
1225.36829	26092.3125
1228.94024	25837.3125
1232.50976	25408.6125
1236.07685	24884.3125
1239.6415	24513.6125
1243.20374	24439.8125
1246.76355	24628.1125
1250.32093	24995.7125
1253.8759	25522.7125
1257.42845	26222.2125
1260.97859	27021.4125
1264.52631	27897.3125
1268.07163	28862.2125
1271.61453	29759.7125
1275.15503	30593.2125
1278.69312	31454.6125
1282.22882	32322.8125
1285.76211	33256.1125
1289.29301	34474.9125
1292.82151	35835.9125
1296.34761	37533.4125
1299.87133	39708.1125
1303.39266	42163.4125
1306.9116	44593.3125
1310.42815	46520.8125
1313.94233	47479.4125
1317.45412	47068.0125
1320.96354	45689.6125
1324.47058	44235.4125
1327.97525	43058.4125
1331.47754	42376.5125
1334.97747	41869.0125
1338.47502	41282.9125
1341.97022	40437.6125
1345.46305	39519.4125
1348.95352	39004.7125
1352.44163	39404.8125
1355.92738	41063.8125
1359.41078	43636.6125
1362.89183	45927.8125
1366.37053	45727.8125
1369.84688	42230.2125
1373.32088	37451.4125
1376.79254	34061.2125
1380.26186	32720.9125
1383.72883	32663.9125
1387.19347	32567.0125
1390.65578	32045.5125
1394.11575	31769.5125
1397.57339	31998.8125
1401.0287	32554.3125
1404.48168	33004.6125
1407.93234	33144.0125
1411.38068	32796.3125
1414.82669	32122.4125
1418.27039	31133.0125
1421.71177	30040.2125
1425.15083	29190.9125
1428.58758	28787.6125
1432.02203	29155.5125
1435.45416	29934.5125
1438.88399	30746.9125
1442.31151	31239.5125
1445.73673	31428.1125
1449.15965	31466.4125
1452.58027	31329.1125
1455.9986	31040.0125
1459.41463	31060.5125
1462.82837	31430.4125
1466.23982	32129.3125
1469.64898	32784.8125
1473.05586	33222.6125
1476.46045	33467.7125
1479.86276	33462.1125
1483.26279	33319.8125
1486.66054	33285.8125
1490.05602	33522.2125
1493.44922	33823.9125
1496.84016	34015.0125
1500.22882	34242.8125
1503.61521	34760.4125
1506.99934	35508.1125
1510.38121	36193.1125
1513.76081	36276.8125
1517.13816	35598.7125
1520.51324	34314.5125
1523.88607	33353.4125
1527.25665	32979.5125
1530.62498	32907.9125
1533.99105	32734.1125
1537.35488	32393.5125
1540.71647	31822.2125
1544.07581	31042.3125
1547.4329	30295.5125
1550.78776	29668.7125
1554.14038	29174.9125
1557.49077	28905.0125
1560.83892	28744.0125
1564.18484	28674.3125
1567.52853	28802.0125
1570.86999	29092.2125
1574.20922	29542.4125
1577.54624	29963.8125
1580.88103	30062.9125
1584.2136	30399.7125
1587.54395	31543.0125
1590.87208	33565.3125
1594.19801	36101.1125
1597.52172	38382.7125
1600.84321	38978.7125
1604.16251	37184.0125
1607.47959	33924.5125
1610.79447	30525.4125
1614.10715	27614.8125
1617.41763	25559.4125
1620.7259	24264.9125
1624.03199	23768.1125
1627.33587	23884.3125
1630.63757	24695.3125
1633.93707	26265.3125
1637.23439	28910.6125
1640.52951	32777.0125
1643.82246	37427.5125
1647.11321	40953.0125
1650.40179	41259.9125
1653.68819	37795.9125
1656.97241	32355.1125
1660.25446	27434.1125
1663.53433	24050.1125
1666.81203	22047.7125
1670.08756	20849.8125
1673.36092	20139.6125
1676.63211	19682.1125
1679.90115	19350.4125
1683.16801	19095.4125
1686.43272	18899.0125
1689.69527	18734.4125
1692.95567	18599.3125
1696.2139	18436.5125
1699.46999	18288.3125
1702.72392	18177.3125
1705.97571	18239.3125
1709.22535	18316.3125
1712.47284	18352.3125
1715.71819	18387.1125
1718.96139	18365.7125
1722.20246	18334.4125
1725.44139	18252.4125
1728.67818	18154.6125
1731.91284	18065.4125
1735.14537	17970.8125
1738.37576	17930.5125
1741.60403	17851.0125
1744.83017	17774.0125
1748.05418	17732.9125
1751.27607	17660.0125
1754.49584	17548.3125
1757.71349	17530.0125
1760.92903	17472.6125
1764.14244	17446.8125
1767.35375	17438.7125
1770.56294	17413.4125
1773.77002	17405.2125
1776.97499	17461.1125
1780.17785	17485.8125
1783.37861	17521.9125
1786.57727	17505.5125
1789.77382	17486.3125
1792.96828	17499.4125
1796.16064	17478.8125
1799.3509	17450.4125
1802.53907	17392.6125
1805.72514	17379.2125
1808.90913	17390.3125
1812.09102	17315.9125
1815.27083	17308.8125
1818.44856	17296.1125
1821.6242	17283.8125
1824.79776	17284.9125
1827.96924	17279.0125
1831.13864	17296.8125
1834.30597	17283.5125
1837.47122	17304.7125
1840.6344	17266.7125
1843.7955	17284.7125
1846.95454	17246.9125
1850.11151	17258.9125
1853.26642	17230.8125
1856.41926	17220.6125
1859.57004	17227.6125
1862.71876	17211.0125
1865.86542	17207.1125
1869.01003	17216.3125
1872.15258	17192.5125
1875.29308	17162.4125
1878.43152	17152.8125
1881.56792	17144.4125
1884.70227	17137.3125
1887.83457	17148.7125
1890.96482	17105.6125
1894.09304	17072.2125
1897.21921	17070.3125
1900.34335	17057.8125
1903.46544	17060.3125
1906.58551	17057.4125
1909.70353	17025.0125
1912.81953	16987.3125
1915.93349	16957.6125
1919.04543	16957.3125
1922.15534	16953.9125
1925.26322	16877.1125
1928.36908	16849.2125
1931.47292	16806.8125
1934.57473	16765.8125
1937.67453	16772.8125
1940.77232	16734.0125
1943.86808	16678.0125
1946.96184	16629.1125
1950.05358	16633.9125
1953.14331	16551.2125
1956.23103	16508.3125
1959.31675	16434.4125
1962.40046	16417.9125
1965.48217	16382.9125
1968.56188	16365.6125
1971.63959	16307.5125
1974.7153	16307.6125
1977.78901	16252.9125
1980.86073	16186.1125
1983.93046	16125.0125
1986.99819	16099.5125
1990.06394	16069.7125
1993.1277	16076.1125
1996.18947	16006.3125
1999.24925	15979.0125
2002.30706	15907.4125
2005.36288	15875.0125
2008.41672	15833.7125
2011.46859	15808.7125
2014.51848	15746.4125
2017.56639	15724.2125
2020.61233	15685.5125
2023.6563	15661.7125
2026.6983	15632.7125
2029.73833	15611.7125
2032.7764	15550.6125
2035.8125	15570.9125
2038.84664	15551.6125
2041.87881	15539.8125
2044.90903	15537.0125
2047.93729	15483.9125
2050.96359	15455.0125
2053.98794	15427.6125
2057.01034	15441.0125
2060.03078	15422.0125
2063.04927	15441.5125
2066.06582	15387.1125
2069.08042	15415.1125
2072.09307	15425.6125
2075.10378	15393.3125
2078.11255	15388.9125
2081.11938	15424.0125
2084.12426	15396.8125
2087.12722	15430.5125
2090.12824	15390.3125
2093.12732	15408.2125
2096.12447	15409.6125
2099.11969	15399.2125
2102.11299	15412.7125
2105.10435	15420.6125
2108.09379	15418.4125
2111.08131	15432.3125
2114.0669	15446.0125
2117.05057	15471.3125
2120.03233	15498.6125
2123.01216	15505.9125
2125.99008	15534.3125
2128.96609	15552.0125
2131.94018	15546.6125
2134.91236	15554.1125
2137.88263	15563.0125
2140.851	15620.5125
2143.81746	15625.5125
2146.78201	15614.4125
2149.74466	15610.2125
2152.7054	15610.2125
2155.66425	15636.4125
2158.6212	15631.9125
2161.57625	15609.3125
2164.52941	15625.6125
2167.48067	15611.8125
2170.43004	15622.7125
2173.37752	15587.8125
2176.32311	15615.7125
2179.26681	15613.0125
2182.20863	15636.1125
2185.14856	15646.1125
2188.08661	15655.2125
2191.02278	15645.4125
2193.95707	15659.9125
2196.88948	15660.2125
2199.82001	15637.1125
2202.74867	15629.7125
2205.67545	15633.2125
2208.60037	15604.2125
2211.52341	15603.6125
2214.44458	15575.1125
2217.36388	15583.0125
2220.28132	15542.2125
2223.1969	15509.0125
2226.11061	15509.3125
2229.02246	15510.1125
2231.93245	15486.4125
2234.84058	15444.4125
2237.74686	15428.2125
2240.65128	15441.4125
2243.55385	15397.3125
2246.45456	15357.2125
2249.35343	15344.7125
2252.25044	15348.5125
2255.14561	15309.0125
2258.03893	15298.4125
2260.93041	15245.7125
2263.82004	15224.4125
2266.70783	15224.0125
2269.59378	15215.8125
2272.4779	15190.0125
2275.36017	15156.2125
2278.24061	15129.2125
2281.11922	15102.2125
2283.996	15111.3125
2286.87094	15087.7125
2289.74405	15077.1125
2292.61534	15053.5125
2295.4848	15048.3125
2298.35243	15038.1125
2301.21824	15059.5125
2304.08223	15053.7125
2306.94439	15100.6125
2309.80474	15068.8125
2312.66327	15087.8125
2315.51999	15067.9125
2318.37489	15059.7125
2321.22797	15054.0125
2324.07925	15066.9125
2326.92871	15052.7125
2329.77637	15033.8125
2332.62222	15008.1125
2335.46626	15007.6125
2338.3085	14995.5125
2341.14893	14976.0125
2343.98756	15027.0125
2346.8244	14992.4125
2349.65943	14996.9125
2352.49267	14988.9125
2355.32411	14982.2125
2358.15376	14978.6125
2360.98161	14950.9125
2363.80768	14944.2125
2366.63195	14939.4125
2369.45444	14914.3125
2372.27514	14904.4125
2375.09405	14874.2125
2377.91118	14860.5125
2380.72652	14833.6125
2383.54009	14810.1125
2386.35187	14812.4125
2389.16188	14756.0125
2391.97011	14776.8125
2394.77657	14740.3125
2397.58125	14751.4125
2400.38416	14743.3125
2403.18529	14726.0125
2405.98466	14722.3125
2408.78226	14707.6125
2411.57809	14646.8125
2414.37216	14653.7125
2417.16446	14621.0125
2419.955	14621.5125
2422.74378	14614.3125
2425.5308	14613.3125
2428.31606	14610.2125
2431.09956	14586.4125
2433.88131	14571.0125
2436.6613	14592.3125
2439.43954	14616.7125
2442.21603	14587.5125
2444.99077	14581.4125
2447.76377	14578.5125
2450.53501	14587.2125
2453.30451	14585.2125
2456.07226	14564.9125
2458.83827	14599.2125
2461.60254	14586.5125
2464.36507	14553.8125
2467.12586	14525.0125
2469.88492	14566.9125
2472.64224	14563.8125
2475.39782	14551.7125
2478.15167	14598.2125
2480.90379	14583.3125
2483.65417	14623.2125
2486.40283	14643.6125
2489.14976	14635.2125
2491.89497	14595.7125
2494.63845	14586.3125
2497.3802	14596.6125
2500.12024	14626.6125
2502.85855	14609.8125
2505.59514	14581.4125
2508.33002	14598.0125
2511.06318	14578.4125
2513.79462	14541.2125
2516.52435	14550.6125
2519.25237	14550.9125
2521.97867	14510.8125
2524.70327	14543.4125
2527.42616	14503.8125
2530.14734	14529.5125
2532.86681	14539.6125
2535.58458	14536.6125
2538.30065	14530.5125
2541.01501	14534.3125
2543.72768	14497.6125
2546.43864	14481.3125
2549.14791	14494.3125
2551.85548	14525.0125
2554.56136	14478.4125
2557.26554	14457.0125
2559.96803	14430.8125
2562.66883	14380.9125
2565.36794	14416.7125
2568.06536	14392.1125
2570.7611	14388.8125
2573.45514	14355.4125
2576.14751	14387.2125
2578.83819	14383.7125
2581.52719	14393.6125
2584.21451	14372.9125
2586.90015	14350.7125
2589.58411	14340.5125
2592.2664	14378.4125
2594.94701	14355.7125
2597.62594	14363.7125
2600.30321	14366.1125
2602.9788	14323.6125
2605.65273	14309.6125
2608.32498	14299.5125
2610.99557	14336.4125
2613.66449	14312.9125
2616.33175	14320.6125
2618.99734	14311.8125
2621.66128	14288.7125
2624.32355	14286.3125
2626.98416	14279.6125
2629.64311	14271.6125
2632.30041	14270.3125
2634.95605	14248.6125
2637.61004	14220.3125
2640.26238	14248.0125
2642.91306	14213.7125
2645.56209	14237.9125
2648.20948	14208.5125
2650.85521	14191.4125
2653.4993	14187.3125
2656.14175	14219.2125
2658.78255	14245.7125
2661.42171	14250.5125
2664.05923	14281.1125
2666.6951	14279.8125
2669.32934	14302.8125
2671.96194	14290.6125
2674.59291	14301.1125
2677.22224	14282.6125
2679.84993	14265.2125
2682.476	14263.6125
2685.10043	14294.1125
2687.72324	14308.8125
2690.34441	14281.6125
2692.96396	14250.3125
2695.58188	14270.1125
2698.19818	14265.0125
2700.81285	14255.4125
2703.4259	14200.9125
2706.03733	14149.6125
2708.64714	14216.5125
2711.25533	14267.2125
2713.86191	14314.2125
2716.46687	14371.0125
2719.07021	14382.0125
2721.67194	14391.9125
2724.27206	14402.5125
2726.87057	14369.2125
2729.46747	14402.6125
2732.06276	14416.0125
2734.65644	14408.7125
2737.24852	14439.6125
2739.83899	14431.3125
2742.42786	14432.1125
2745.01513	14416.1125
2747.60079	14422.7125
2750.18486	14390.8125
2752.76733	14398.7125
2755.3482	14360.1125
2757.92747	14352.3125
2760.50515	14339.9125
2763.08123	14332.1125
2765.65573	14327.8125
2768.22863	14331.7125
2770.79994	14314.0125
2773.36967	14338.9125
2775.9378	14326.7125
2778.50435	14295.9125
2781.06932	14331.3125
2783.6327	14329.7125
2786.1945	14319.5125
2788.75471	14332.1125
2791.31335	14293.4125
2793.87041	14278.7125
2796.42589	14231.5125
2798.97979	14214.3125
2801.53212	14205.5125
2804.08288	14171.8125
2806.63206	14183.1125
2809.17967	14137.2125
2811.72571	14090.0125
2814.27018	14091.5125
2816.81308	14076.6125
2819.35442	14052.7125
2821.89419	14019.7125
2824.43239	14016.7125
2826.96904	14004.9125
2829.50412	14009.1125
2832.03763	13991.1125
2834.56959	13969.9125
2837.1	13982.6125
2839.62884	13999.1125
2842.15613	13995.5125
2844.68186	14009.9125
2847.20604	13979.0125
2849.72867	13954.1125
2852.24974	13954.2125
2854.76927	13947.2125
2857.28724	13883.8125
2859.80367	13890.4125
2862.31855	13888.2125
2864.83189	13862.6125
2867.34368	13890.1125
2869.85393	13898.6125
2872.36264	13908.8125
2874.8698	13899.9125
2877.37543	13905.6125
2879.87952	13895.2125
2882.38207	13918.3125
2884.88308	13884.9125
2887.38256	13932.3125
2889.88051	13935.7125
2892.37692	13956.4125
2894.8718	13944.1125
2897.36515	13942.3125
2899.85698	13950.8125
2902.34727	14005.2125
2904.83604	13980.8125
2907.32328	14018.5125
2909.809	13979.6125
2912.29319	14031.8125
2914.77587	14049.5125
2917.25702	14040.2125
2919.73665	14017.7125
2922.21476	14014.6125
2924.69136	13987.0125
2927.16644	13982.1125
2929.64	13966.3125
2932.11205	13965.2125
2934.58258	13930.3125
2937.05161	13959.4125
2939.51912	13952.2125
2941.98513	13950.5125
2944.44962	13912.1125
2946.91261	13897.6125
2949.37409	13926.1125
2951.83407	13908.6125
2954.29254	13930.6125
2956.74951	13904.6125
2959.20498	13887.0125
2961.65895	13886.0125
2964.11142	13894.5125
2966.56239	13880.3125
2969.01186	13883.0125
2971.45984	13836.4125
2973.90632	13828.1125
2976.35131	13820.1125
2978.7948	13775.0125
2981.23681	13781.7125
2983.67732	13773.1125
2986.11635	13743.8125
2988.55388	13701.0125
2990.98993	13661.9125
2993.4245	13661.6125
2995.85758	13649.4125
2998.28917	13619.8125
3000.71928	13588.2125
3003.14791	13565.5125
3005.57506	13528.9125
3008.00073	13510.3125
3010.42493	13508.4125
3012.84764	13482.2125
3015.26888	13466.0125
3017.68865	13455.0125
3020.10694	13433.7125
3022.52376	13430.4125
3024.9391	13394.3125
