Data from AgNPs_FTO_APTES_UA_50uM_CRN_5uM_R6G_10uM_NaF_0.1M_Addition_RamanShift__6__12-39-34-813.txt Node

Date: Mon Feb 21 12:39:34 GMT 2022
User: TCL
Spectrometer: QEP01345
Trigger mode: 4
Integration Time (sec): 7.000000E0
Scans to average: 10
Electric dark correction enabled: true
Nonlinearity correction enabled: false
Boxcar width: 0
XAxis mode: Raman Shifts
Number of Pixels in Spectrum: 1044
>>>>>Begin Spectral Data<<<<<
46.04893	0.475
50.45542	-0.125
54.85868	-0.425
59.25871	-1.625
63.6555	50.875
68.04907	57.175
72.43941	56.075
76.82654	59.875
81.21044	68.075
85.59113	67.775
89.96862	67.575
94.34289	73.475
98.71396	73.775
103.08183	74.775
107.4465	76.675
111.80798	77.375
116.16626	78.475
120.52136	82.675
124.87327	85.575
129.222	85.275
133.56755	87.675
137.90993	96.675
142.24913	100.675
146.58517	109.975
150.91804	128.075
155.24774	143.375
159.57429	174.275
163.89768	218.775
168.21792	290.875
172.53501	388.775
176.84895	546.175
181.15975	758.075
185.46741	1055.775
189.77193	1454.375
194.07331	1935.475
198.37157	2496.375
202.6667	3075.575
206.9587	3668.475
211.24758	4244.775
215.53334	4834.375
219.81599	5469.375
224.09553	6160.275
228.37195	6932.275
232.64527	7809.475
236.91549	8688.875
241.18261	9537.775
245.44663	10323.375
249.70755	11014.775
253.96539	11549.675
258.22014	12007.975
262.4718	12348.775
266.72039	12550.675
270.96589	12650.275
275.20832	12567.675
279.44768	12397.675
283.68397	12202.575
287.91719	11990.575
292.14735	11878.675
296.37445	11831.975
300.59849	11885.875
304.81948	11992.375
309.03742	12020.575
313.25231	12005.075
317.46415	11860.075
321.67296	11635.775
325.87872	11455.875
330.08145	11411.175
334.28114	11390.675
338.47781	11440.175
342.67145	11581.875
346.86207	11796.775
351.04966	12069.375
355.23424	12304.675
359.4158	12548.175
363.59435	12693.675
367.76989	12765.375
371.94243	12790.975
376.11196	12834.875
380.27849	12900.475
384.44203	12938.575
388.60257	13030.075
392.76012	13097.475
396.91468	13186.875
401.06626	13374.175
405.21485	13509.275
409.36047	13391.275
413.50311	13178.875
417.64277	13013.475
421.77947	12987.475
425.9132	12978.975
430.04396	12999.475
434.17176	13057.775
438.2966	13257.075
442.41849	13551.775
446.53742	14012.875
450.6534	14484.175
454.76644	14749.675
458.87653	14782.275
462.98368	14645.175
467.08789	14446.175
471.18916	14169.475
475.2875	13905.175
479.38291	13613.275
483.4754	13454.875
487.56496	13309.475
491.6516	13228.075
495.73531	13144.375
499.81612	13144.075
503.89401	13243.675
507.96899	13273.175
512.04106	13251.975
516.11023	13173.475
520.1765	13117.075
524.23987	13100.375
528.30034	13065.375
532.35792	13048.175
536.41261	12897.675
540.46441	12681.775
544.51333	12579.075
548.55936	12670.375
552.60252	12869.075
556.64279	13170.475
560.6802	13443.375
564.71473	13500.875
568.7464	13652.375
572.7752	13974.275
576.80114	14256.475
580.82422	14562.775
584.84444	15144.575
588.86181	16086.875
592.87633	17238.875
596.888	17703.175
600.89682	17076.375
604.9028	16586.675
608.90594	17588.975
612.90624	19117.075
616.90371	17922.775
620.89834	14882.575
624.89015	13490.575
628.87913	13334.475
632.86528	13412.275
636.84862	13436.975
640.82913	13190.375
644.80683	12787.075
648.78172	12558.975
652.75379	12562.075
656.72306	12750.075
660.68952	13043.675
664.65319	12951.075
668.61405	12669.575
672.57211	12659.975
676.52738	12773.075
680.47986	12815.975
684.42955	12745.275
688.37646	12703.275
692.32058	12749.975
696.26192	12881.475
700.20048	13074.975
704.13626	13141.175
708.06928	13033.275
711.99952	12931.075
715.927	12949.575
719.85171	13018.975
723.77365	13008.275
727.69284	12827.675
731.60928	12668.075
735.52295	12632.875
739.43388	12677.875
743.34206	12731.275
747.24749	12821.275
751.15017	12879.775
755.05012	13050.575
758.94733	13414.875
762.8418	14179.775
766.73354	15286.075
770.62254	16404.675
774.50882	16733.175
778.39237	16044.275
782.27321	14949.675
786.15132	13941.375
790.02671	13269.075
793.89938	12959.275
797.76935	12798.975
801.6366	12697.475
805.50115	12627.875
809.36299	12555.075
813.22213	12483.675
817.07857	12439.075
820.93231	12376.475
824.78336	12305.075
828.63172	12299.375
832.47738	12283.575
836.32036	12309.275
840.16066	12345.075
843.99827	12384.275
847.8332	12325.975
851.66546	12321.175
855.49504	12316.575
859.32195	12346.875
863.1462	12294.375
866.96777	12292.175
870.78668	12269.975
874.60293	12295.175
878.41652	12287.375
882.22745	12408.575
886.03573	12459.375
889.84136	12467.875
893.64433	12434.775
897.44466	12383.275
901.24235	12324.775
905.0374	12317.375
908.8298	12251.175
912.61957	12216.575
916.40671	12291.275
920.19121	12400.975
923.97308	12592.875
927.75233	12718.775
931.52895	12673.875
935.30295	12481.875
939.07433	12243.375
942.84309	12025.475
946.60924	11959.375
950.37278	11944.775
954.13371	11913.775
957.89203	11905.575
961.64774	11874.275
965.40086	11887.775
969.15137	11906.775
972.89929	11895.775
976.64461	11890.375
980.38733	11924.975
984.12747	11953.675
987.86502	12039.175
991.59999	12111.775
995.33237	12285.375
999.06217	12577.675
1002.78939	12911.075
1006.51404	13274.675
1010.23611	13547.775
1013.95561	13664.875
1017.67255	13661.975
1021.38692	13481.075
1025.09872	13266.375
1028.80796	13103.475
1032.51465	13232.175
1036.21877	13364.775
1039.92035	13434.175
1043.61937	13413.775
1047.31584	13286.675
1051.00976	13133.175
1054.70114	13073.375
1058.38998	13042.275
1062.07627	13084.875
1065.76003	13212.675
1069.44126	13330.975
1073.11995	13595.475
1076.79611	13869.875
1080.46974	14019.375
1084.14085	14218.575
1087.80943	14362.175
1091.47549	14491.975
1095.13903	14429.275
1098.80005	14155.675
1102.45857	13794.575
1106.11456	13595.075
1109.76805	13538.275
1113.41903	13569.275
1117.06751	13689.475
1120.71348	13891.975
1124.35696	14128.175
1127.99793	14309.575
1131.63641	14414.075
1135.2724	14318.875
1138.90589	14206.675
1142.5369	14151.375
1146.16542	14179.975
1149.79145	14244.075
1153.415	14334.575
1157.03607	14428.775
1160.65467	14702.675
1164.27079	15209.175
1167.88443	15981.775
1171.49561	16937.575
1175.10432	18287.775
1178.71056	20046.575
1182.31434	21606.075
1185.91565	22216.875
1189.51451	22000.175
1193.11091	21235.775
1196.70485	20305.275
1200.29634	19320.775
1203.88538	18552.075
1207.47197	17966.475
1211.05612	17516.575
1214.63782	17201.775
1218.21708	16984.375
1221.79391	16914.675
1225.36829	16960.775
1228.94024	16872.775
1232.50976	16555.175
1236.07685	16142.975
1239.6415	15906.575
1243.20374	15817.975
1246.76355	15850.475
1250.32093	15977.875
1253.8759	16297.575
1257.42845	16770.575
1260.97859	17381.875
1264.52631	18024.875
1268.07163	18681.075
1271.61453	19257.375
1275.15503	19786.375
1278.69312	20319.875
1282.22882	20887.175
1285.76211	21609.175
1289.29301	22456.075
1292.82151	23436.475
1296.34761	24592.475
1299.87133	25912.175
1303.39266	27482.475
1306.9116	29060.275
1310.42815	30515.375
1313.94233	31245.275
1317.45412	30822.575
1320.96354	29616.075
1324.47058	28322.475
1327.97525	27240.175
1331.47754	26452.975
1334.97747	25919.975
1338.47502	25586.675
1341.97022	25373.175
1345.46305	25171.275
1348.95352	25316.675
1352.44163	25980.775
1355.92738	27345.475
1359.41078	29382.275
1362.89183	31244.375
1366.37053	31264.875
1369.84688	28730.175
1373.32088	25205.575
1376.79254	22720.775
1380.26186	21637.875
1383.72883	21241.875
1387.19347	20898.175
1390.65578	20499.575
1394.11575	20245.675
1397.57339	20263.275
1401.0287	20414.875
1404.48168	20550.875
1407.93234	20537.575
1411.38068	20329.975
1414.82669	19933.875
1418.27039	19410.875
1421.71177	18912.075
1425.15083	18473.575
1428.58758	18250.675
1432.02203	18455.575
1435.45416	18818.375
1438.88399	19190.975
1442.31151	19404.575
1445.73673	19463.975
1449.15965	19532.575
1452.58027	19466.775
1455.9986	19320.775
1459.41463	19348.675
1462.82837	19602.875
1466.23982	20113.575
1469.64898	20564.975
1473.05586	20994.475
1476.46045	21190.975
1479.86276	21310.275
1483.26279	21383.475
1486.66054	21536.675
1490.05602	21875.175
1493.44922	22319.175
1496.84016	22689.775
1500.22882	23104.975
1503.61521	23679.675
1506.99934	24438.375
1510.38121	25081.075
1513.76081	25082.175
1517.13816	24361.275
1520.51324	23263.675
1523.88607	22345.975
1527.25665	21795.575
1530.62498	21551.075
1533.99105	21304.475
1537.35488	20868.575
1540.71647	20304.875
1544.07581	19748.475
1547.4329	19250.775
1550.78776	18941.075
1554.14038	18694.775
1557.49077	18597.775
1560.83892	18591.475
1564.18484	18700.375
1567.52853	18882.475
1570.86999	19142.675
1574.20922	19451.175
1577.54624	19641.375
1580.88103	19500.775
1584.2136	19460.375
1587.54395	19864.275
1590.87208	20840.375
1594.19801	22280.575
1597.52172	23713.075
1600.84321	24105.975
1604.16251	23046.475
1607.47959	21093.275
1610.79447	19111.475
1614.10715	17392.475
1617.41763	16130.875
1620.7259	15366.075
1624.03199	15013.475
1627.33587	15126.875
1630.63757	15620.775
1633.93707	16669.975
1637.23439	18460.475
1640.52951	21090.675
1643.82246	24341.075
1647.11321	26913.575
1650.40179	27236.275
1653.68819	24941.575
1656.97241	21268.175
1660.25446	17927.875
1663.53433	15623.575
1666.81203	14270.075
1670.08756	13464.975
1673.36092	12941.175
1676.63211	12665.175
1679.90115	12437.775
1683.16801	12283.875
1686.43272	12106.875
1689.69527	11989.675
1692.95567	11829.875
1696.2139	11683.175
1699.46999	11566.575
1702.72392	11492.575
1705.97571	11539.875
1709.22535	11618.775
1712.47284	11624.775
1715.71819	11654.675
1718.96139	11640.875
1722.20246	11581.675
1725.44139	11518.575
1728.67818	11457.875
1731.91284	11367.575
1735.14537	11305.975
1738.37576	11242.375
1741.60403	11209.375
1744.83017	11162.175
1748.05418	11126.575
1751.27607	11029.775
1754.49584	10975.375
1757.71349	10924.875
1760.92903	10860.275
1764.14244	10851.375
1767.35375	10892.575
1770.56294	10834.675
1773.77002	10839.575
1776.97499	10882.175
1780.17785	10926.975
1783.37861	10928.975
1786.57727	10900.275
1789.77382	10912.975
1792.96828	10888.175
1796.16064	10896.775
1799.3509	10889.475
1802.53907	10880.375
1805.72514	10826.675
1808.90913	10804.175
1812.09102	10798.875
1815.27083	10803.575
1818.44856	10776.675
1821.6242	10790.775
1824.79776	10776.675
1827.96924	10797.875
1831.13864	10770.575
1834.30597	10787.975
1837.47122	10787.075
1840.6344	10772.675
1843.7955	10768.975
1846.95454	10751.875
1850.11151	10761.575
1853.26642	10746.475
1856.41926	10737.375
1859.57004	10734.275
1862.71876	10735.575
1865.86542	10689.375
1869.01003	10699.675
1872.15258	10685.275
1875.29308	10702.475
1878.43152	10662.475
1881.56792	10681.375
1884.70227	10672.075
1887.83457	10668.975
1890.96482	10680.175
1894.09304	10634.275
1897.21921	10617.775
1900.34335	10604.475
1903.46544	10595.075
1906.58551	10615.875
1909.70353	10609.375
1912.81953	10586.775
1915.93349	10557.475
1919.04543	10516.275
1922.15534	10540.575
1925.26322	10512.975
1928.36908	10475.475
1931.47292	10439.975
1934.57473	10423.575
1937.67453	10396.575
1940.77232	10367.975
1943.86808	10358.475
1946.96184	10328.275
1950.05358	10306.175
1953.14331	10267.875
1956.23103	10261.275
1959.31675	10203.675
1962.40046	10187.875
1965.48217	10149.375
1968.56188	10159.975
1971.63959	10124.475
1974.7153	10080.975
1977.78901	10058.575
1980.86073	10007.475
1983.93046	10008.675
1986.99819	9968.575
1990.06394	9949.975
1993.1277	9937.975
1996.18947	9899.675
1999.24925	9882.275
2002.30706	9831.775
2005.36288	9811.975
2008.41672	9809.075
2011.46859	9773.275
2014.51848	9781.275
2017.56639	9747.875
2020.61233	9708.975
2023.6563	9684.275
2026.6983	9644.075
2029.73833	9667.275
2032.7764	9643.175
2035.8125	9611.675
2038.84664	9580.175
2041.87881	9591.375
2044.90903	9573.675
2047.93729	9557.775
2050.96359	9556.875
2053.98794	9547.775
2057.01034	9529.375
2060.03078	9537.475
2063.04927	9516.375
2066.06582	9525.275
2069.08042	9529.975
2072.09307	9522.375
2075.10378	9530.075
2078.11255	9535.775
2081.11938	9537.575
2084.12426	9533.375
2087.12722	9545.175
2090.12824	9498.775
2093.12732	9524.575
2096.12447	9520.375
2099.11969	9538.275
2102.11299	9542.575
2105.10435	9539.975
2108.09379	9535.575
2111.08131	9567.175
2114.0669	9565.675
2117.05057	9545.875
2120.03233	9562.975
2123.01216	9570.875
2125.99008	9581.475
2128.96609	9602.075
2131.94018	9611.975
2134.91236	9626.675
2137.88263	9623.975
2140.851	9634.575
2143.81746	9639.375
2146.78201	9634.175
2149.74466	9629.775
2152.7054	9628.475
2155.66425	9626.875
2158.6212	9613.075
2161.57625	9613.975
2164.52941	9627.575
2167.48067	9608.675
2170.43004	9620.775
2173.37752	9611.775
2176.32311	9631.275
2179.26681	9623.175
2182.20863	9621.075
2185.14856	9658.775
2188.08661	9652.275
2191.02278	9635.775
2193.95707	9615.875
2196.88948	9596.375
2199.82001	9613.175
2202.74867	9609.275
2205.67545	9631.075
2208.60037	9585.875
2211.52341	9581.475
2214.44458	9564.175
2217.36388	9547.775
2220.28132	9527.475
2223.1969	9505.575
2226.11061	9522.775
2229.02246	9491.775
2231.93245	9488.175
2234.84058	9480.575
2237.74686	9465.575
2240.65128	9467.275
2243.55385	9473.875
2246.45456	9471.475
2249.35343	9457.175
2252.25044	9433.675
2255.14561	9421.775
2258.03893	9412.675
2260.93041	9368.075
2263.82004	9360.275
2266.70783	9346.075
2269.59378	9352.375
2272.4779	9315.475
2275.36017	9314.475
2278.24061	9282.575
2281.11922	9276.275
2283.996	9273.775
2286.87094	9261.075
2289.74405	9248.875
2292.61534	9240.175
2295.4848	9215.275
2298.35243	9231.475
2301.21824	9237.675
2304.08223	9215.075
2306.94439	9257.175
2309.80474	9225.975
2312.66327	9225.475
2315.51999	9229.375
2318.37489	9222.375
2321.22797	9184.975
2324.07925	9196.675
2326.92871	9194.075
2329.77637	9164.775
2332.62222	9173.975
2335.46626	9163.075
2338.3085	9170.475
2341.14893	9145.775
2343.98756	9163.675
2346.8244	9156.875
2349.65943	9163.975
2352.49267	9165.975
2355.32411	9172.575
2358.15376	9160.075
2360.98161	9150.675
2363.80768	9170.675
2366.63195	9155.475
2369.45444	9146.775
2372.27514	9162.075
2375.09405	9136.575
2377.91118	9140.575
2380.72652	9129.875
2383.54009	9094.475
2386.35187	9071.075
2389.16188	9071.275
2391.97011	9058.975
2394.77657	9015.775
2397.58125	9025.175
2400.38416	9001.175
2403.18529	8978.475
2405.98466	8971.375
2408.78226	8974.375
2411.57809	8940.575
2414.37216	8970.875
2417.16446	8966.275
2419.955	8945.575
2422.74378	8948.175
2425.5308	8966.975
2428.31606	8968.275
2431.09956	8940.375
2433.88131	8906.675
2436.6613	8929.575
2439.43954	8932.575
2442.21603	8912.275
2444.99077	8923.675
2447.76377	8935.475
2450.53501	8930.575
2453.30451	8943.975
2456.07226	8935.775
2458.83827	8942.475
2461.60254	8931.875
2464.36507	8934.575
2467.12586	8914.075
2469.88492	8932.875
2472.64224	8911.175
2475.39782	8907.775
2478.15167	8930.975
2480.90379	8943.675
2483.65417	8946.875
2486.40283	8955.475
2489.14976	8942.475
2491.89497	8975.075
2494.63845	8956.375
2497.3802	8926.675
2500.12024	8956.575
2502.85855	8935.475
2505.59514	8951.975
2508.33002	8912.475
2511.06318	8920.575
2513.79462	8919.875
2516.52435	8923.175
2519.25237	8888.175
2521.97867	8875.675
2524.70327	8878.775
2527.42616	8885.775
2530.14734	8895.875
2532.86681	8894.475
2535.58458	8876.975
2538.30065	8869.575
2541.01501	8883.475
2543.72768	8838.775
2546.43864	8853.975
2549.14791	8848.675
2551.85548	8856.675
2554.56136	8818.575
2557.26554	8833.975
2559.96803	8830.375
2562.66883	8836.475
2565.36794	8807.575
2568.06536	8812.475
2570.7611	8812.375
2573.45514	8802.375
2576.14751	8832.675
2578.83819	8778.875
2581.52719	8761.075
2584.21451	8746.775
2586.90015	8759.875
2589.58411	8752.075
2592.2664	8757.175
2594.94701	8752.075
2597.62594	8753.275
2600.30321	8734.175
2602.9788	8742.175
2605.65273	8749.375
2608.32498	8728.475
2610.99557	8713.675
2613.66449	8739.275
2616.33175	8722.275
2618.99734	8699.675
2621.66128	8714.375
2624.32355	8709.075
2626.98416	8702.375
2629.64311	8679.175
2632.30041	8678.575
2634.95605	8652.375
2637.61004	8633.275
2640.26238	8674.475
2642.91306	8677.475
2645.56209	8661.575
2648.20948	8641.075
2650.85521	8652.475
2653.4993	8667.375
2656.14175	8675.975
2658.78255	8695.675
2661.42171	8671.075
2664.05923	8709.375
2666.6951	8686.475
2669.32934	8706.275
2671.96194	8699.075
2674.59291	8710.775
2677.22224	8726.275
2679.84993	8711.475
2682.476	8689.175
2685.10043	8717.575
2687.72324	8699.375
2690.34441	8689.575
2692.96396	8709.075
2695.58188	8711.375
2698.19818	8694.575
2700.81285	8712.775
2703.4259	8692.575
2706.03733	8626.075
2708.64714	8641.375
2711.25533	8701.375
2713.86191	8703.375
2716.46687	8727.375
2719.07021	8748.975
2721.67194	8781.975
2724.27206	8749.575
2726.87057	8743.075
2729.46747	8779.675
2732.06276	8791.275
2734.65644	8803.575
2737.24852	8795.175
2739.83899	8803.375
2742.42786	8830.875
2745.01513	8799.675
2747.60079	8775.575
2750.18486	8779.875
2752.76733	8792.975
2755.3482	8761.675
2757.92747	8758.075
2760.50515	8759.975
2763.08123	8743.075
2765.65573	8764.275
2768.22863	8746.775
2770.79994	8739.575
2773.36967	8751.875
2775.9378	8735.775
2778.50435	8736.175
2781.06932	8766.875
2783.6327	8738.275
2786.1945	8729.775
2788.75471	8715.875
2791.31335	8720.575
2793.87041	8715.775
2796.42589	8692.375
2798.97979	8683.275
2801.53212	8687.375
2804.08288	8673.875
2806.63206	8660.675
2809.17967	8663.375
2811.72571	8617.775
2814.27018	8611.475
2816.81308	8597.875
2819.35442	8570.675
2821.89419	8557.075
2824.43239	8571.975
2826.96904	8581.475
2829.50412	8601.075
2832.03763	8582.875
2834.56959	8575.475
2837.1	8552.475
2839.62884	8566.475
2842.15613	8548.175
2844.68186	8561.775
2847.20604	8554.475
2849.72867	8559.675
2852.24974	8558.575
2854.76927	8556.675
2857.28724	8539.275
2859.80367	8560.475
2862.31855	8558.975
2864.83189	8557.975
2867.34368	8542.375
2869.85393	8572.475
2872.36264	8549.875
2874.8698	8566.175
2877.37543	8595.175
2879.87952	8590.675
2882.38207	8610.075
2884.88308	8592.975
2887.38256	8597.975
2889.88051	8609.575
2892.37692	8632.275
2894.8718	8605.375
2897.36515	8618.075
2899.85698	8629.775
2902.34727	8655.375
2904.83604	8653.875
2907.32328	8679.775
2909.809	8670.975
2912.29319	8694.075
2914.77587	8665.475
2917.25702	8656.275
2919.73665	8664.275
2922.21476	8652.175
2924.69136	8658.675
2927.16644	8678.075
2929.64	8649.875
2932.11205	8624.075
2934.58258	8595.775
2937.05161	8609.475
2939.51912	8624.275
2941.98513	8620.575
2944.44962	8582.675
2946.91261	8582.875
2949.37409	8592.575
2951.83407	8580.575
2954.29254	8544.475
2956.74951	8553.975
2959.20498	8550.675
2961.65895	8524.875
2964.11142	8523.075
2966.56239	8504.375
2969.01186	8516.775
2971.45984	8488.675
2973.90632	8491.475
2976.35131	8469.975
2978.7948	8456.375
2981.23681	8453.175
2983.67732	8419.375
2986.11635	8409.675
2988.55388	8382.775
2990.98993	8369.875
2993.4245	8364.075
2995.85758	8349.975
2998.28917	8298.475
3000.71928	8295.075
3003.14791	8277.575
3005.57506	8266.275
3008.00073	8260.875
3010.42493	8277.775
3012.84764	8237.575
3015.26888	8236.275
3017.68865	8229.675
3020.10694	8213.575
3022.52376	8214.875
3024.9391	8222.975
3027.35298	8190.275
3029.76539	8194.575
3032.17632	8206.575
3034.5858	8167.075
3036.9938	8187.975
3039.40034	8144.875
3041.80542	8141.975
3044.20903	8141.875
3046.61118	8131.975
3049.01187	8124.875
3051.4111	8155.975
3053.80888	8115.075
3056.20519	8114.675
3058.60005	8090.575
3060.99345	8091.275
3063.3854	8065.875
3065.7759	8056.175
3068.16494	8047.875
3070.55254	8018.175
3072.93868	8013.275
3075.32338	7993.275
3077.70662	7982.775
3080.08842	7934.175
3082.46878	7941.175
3084.84769	7949.475
3087.22515	7937.775
3089.60118	7937.075
3091.97576	7964.775
3094.3489	7965.075
3096.72061	7965.375
3099.09087	7971.975
3101.4597	7974.575
3103.82709	7960.175
3106.19305	7959.175
3108.55757	7970.175
3110.92066	7953.675
3113.28232	7953.175
3115.64255	7912.075
3118.00134	7899.375
3120.35871	7913.675
3122.71466	7907.675
3125.06917	7930.675
3127.42226	7874.875
3129.77393	7884.875
3132.12417	7867.175
3134.47299	7900.075
3136.82039	7886.175
3139.16636	7903.575
3141.51092	7872.875
3143.85406	7885.575
3146.19579	7882.875
3148.53609	7895.975
3150.87499	7917.575
3153.21246	7932.275
3155.54853	7943.775
3157.88318	7946.075
3160.21642	7962.475
3162.54826	7949.375
3164.87868	7940.175
3167.2077	7943.975
3169.5353	7954.475
3171.86151	7953.675
3174.18631	7965.375
3176.5097	7976.575
3178.83169	7957.575
