Data from AgNPs_FTO_APTES_UA_50uM_CRN_200uM_R6G_10uM_NaF_0.1M_Addition_RamanShift__11__16-07-15-076.txt Node

Date: Mon Feb 21 16:07:15 GMT 2022
User: TCL
Spectrometer: QEP01345
Trigger mode: 4
Integration Time (sec): 7.000000E0
Scans to average: 10
Electric dark correction enabled: true
Nonlinearity correction enabled: false
Boxcar width: 0
XAxis mode: Raman Shifts
Number of Pixels in Spectrum: 1044
>>>>>Begin Spectral Data<<<<<
46.04893	0.1625
50.45542	-0.5375
54.85868	0.3625
59.25871	-1.4375
63.6555	40.0625
68.04907	45.2625
72.43941	48.3625
76.82654	50.7625
81.21044	49.4625
85.59113	55.4625
89.96862	57.1625
94.34289	59.2625
98.71396	59.7625
103.08183	64.8625
107.4465	64.4625
111.80798	66.3625
116.16626	62.2625
120.52136	66.0625
124.87327	69.0625
129.222	68.0625
133.56755	71.5625
137.90993	79.9625
142.24913	83.4625
146.58517	93.1625
150.91804	104.0625
155.24774	121.9625
159.57429	145.9625
163.89768	183.9625
168.21792	239.4625
172.53501	323.7625
176.84895	453.4625
181.15975	628.7625
185.46741	886.4625
189.77193	1213.8625
194.07331	1632.6625
198.37157	2108.1625
202.6667	2597.9625
206.9587	3100.3625
211.24758	3583.5625
215.53334	4086.6625
219.81599	4563.6625
224.09553	5136.5625
228.37195	5746.2625
232.64527	6435.5625
236.91549	7146.2625
241.18261	7853.7625
245.44663	8568.8625
249.70755	9170.4625
253.96539	9691.1625
258.22014	10154.0625
262.4718	10497.6625
266.72039	10717.9625
270.96589	10815.3625
275.20832	10818.8625
279.44768	10724.0625
283.68397	10599.5625
287.91719	10465.7625
292.14735	10367.8625
296.37445	10334.3625
300.59849	10317.2625
304.81948	10342.1625
309.03742	10384.2625
313.25231	10323.0625
317.46415	10204.3625
321.67296	10002.8625
325.87872	9841.2625
330.08145	9767.2625
334.28114	9789.4625
338.47781	9833.3625
342.67145	9956.5625
346.86207	10125.6625
351.04966	10300.6625
355.23424	10490.9625
359.4158	10675.7625
363.59435	10824.6625
367.76989	10922.3625
371.94243	10977.2625
376.11196	11030.0625
380.27849	11065.4625
384.44203	11138.7625
388.60257	11189.5625
392.76012	11286.8625
396.91468	11425.2625
401.06626	11548.4625
405.21485	11673.8625
409.36047	11617.9625
413.50311	11443.9625
417.64277	11282.7625
421.77947	11234.7625
425.9132	11248.9625
430.04396	11281.9625
434.17176	11354.3625
438.2966	11444.1625
442.41849	11568.6625
446.53742	11791.3625
450.6534	11983.9625
454.76644	12106.3625
458.87653	12187.0625
462.98368	12179.7625
467.08789	12114.0625
471.18916	12058.4625
475.2875	11940.0625
479.38291	11797.9625
483.4754	11717.8625
487.56496	11637.0625
491.6516	11564.3625
495.73531	11574.7625
499.81612	11554.2625
503.89401	11615.6625
507.96899	11662.3625
512.04106	11713.3625
516.11023	11745.5625
520.1765	11734.7625
524.23987	11699.5625
528.30034	11642.6625
532.35792	11591.1625
536.41261	11529.7625
540.46441	11457.8625
544.51333	11437.8625
548.55936	11481.0625
552.60252	11611.8625
556.64279	11766.9625
560.6802	11850.9625
564.71473	11876.0625
568.7464	11939.3625
572.7752	12069.3625
576.80114	12161.2625
580.82422	12322.0625
584.84444	12527.0625
588.86181	12732.2625
592.87633	12944.4625
596.888	13064.8625
600.89682	12997.3625
604.9028	13227.2625
608.90594	14094.2625
612.90624	15169.8625
616.90371	14603.2625
620.89834	12757.8625
624.89015	11898.6625
628.87913	11773.8625
632.86528	11854.9625
636.84862	11946.3625
640.82913	11908.1625
644.80683	11702.7625
648.78172	11578.7625
652.75379	11553.0625
656.72306	11663.7625
660.68952	11805.7625
664.65319	11785.9625
668.61405	11650.4625
672.57211	11664.8625
676.52738	11698.5625
680.47986	11756.8625
684.42955	11721.0625
688.37646	11660.3625
692.32058	11606.9625
696.26192	11664.4625
700.20048	11690.6625
704.13626	11760.1625
708.06928	11753.6625
711.99952	11724.2625
715.927	11675.5625
719.85171	11690.4625
723.77365	11710.6625
727.69284	11654.5625
731.60928	11595.1625
735.52295	11561.2625
739.43388	11551.3625
743.34206	11600.9625
747.24749	11621.8625
751.15017	11680.6625
755.05012	11774.2625
758.94733	11955.8625
762.8418	12374.5625
766.73354	13066.7625
770.62254	13795.8625
774.50882	14103.7625
778.39237	13719.8625
782.27321	12988.0625
786.15132	12336.6625
790.02671	11891.2625
793.89938	11691.5625
797.76935	11539.8625
801.6366	11526.3625
805.50115	11471.7625
809.36299	11425.1625
813.22213	11367.1625
817.07857	11357.8625
820.93231	11328.2625
824.78336	11325.4625
828.63172	11309.4625
832.47738	11312.2625
836.32036	11290.2625
840.16066	11287.1625
843.99827	11290.5625
847.8332	11276.2625
851.66546	11265.1625
855.49504	11302.9625
859.32195	11311.0625
863.1462	11313.6625
866.96777	11311.9625
870.78668	11313.3625
874.60293	11357.7625
878.41652	11356.5625
882.22745	11370.2625
886.03573	11402.3625
889.84136	11401.6625
893.64433	11361.5625
897.44466	11343.0625
901.24235	11344.1625
905.0374	11326.5625
908.8298	11295.8625
912.61957	11310.1625
916.40671	11306.7625
920.19121	11364.5625
923.97308	11399.2625
927.75233	11436.1625
931.52895	11409.4625
935.30295	11339.3625
939.07433	11216.1625
942.84309	11090.9625
946.60924	11042.2625
950.37278	11002.2625
954.13371	10950.8625
957.89203	10945.6625
961.64774	10919.8625
965.40086	10914.7625
969.15137	10911.2625
972.89929	10856.7625
976.64461	10832.6625
980.38733	10826.1625
984.12747	10843.0625
987.86502	10857.1625
991.59999	10921.7625
995.33237	10976.8625
999.06217	11037.5625
1002.78939	11144.2625
1006.51404	11236.9625
1010.23611	11372.6625
1013.95561	11476.5625
1017.67255	11505.6625
1021.38692	11450.6625
1025.09872	11378.8625
1028.80796	11264.1625
1032.51465	11238.4625
1036.21877	11219.4625
1039.92035	11246.5625
1043.61937	11294.0625
1047.31584	11304.7625
1051.00976	11339.2625
1054.70114	11360.7625
1058.38998	11397.8625
1062.07627	11466.2625
1065.76003	11530.3625
1069.44126	11614.9625
1073.11995	11696.5625
1076.79611	11820.6625
1080.46974	11888.3625
1084.14085	11952.7625
1087.80943	11988.1625
1091.47549	12065.4625
1095.13903	12050.2625
1098.80005	11979.8625
1102.45857	11858.9625
1106.11456	11715.8625
1109.76805	11672.5625
1113.41903	11658.0625
1117.06751	11765.5625
1120.71348	11864.3625
1124.35696	12001.9625
1127.99793	12138.2625
1131.63641	12231.7625
1135.2724	12142.8625
1138.90589	12034.9625
1142.5369	11964.1625
1146.16542	11900.4625
1149.79145	11892.2625
1153.415	11879.3625
1157.03607	11930.7625
1160.65467	12079.6625
1164.27079	12288.6625
1167.88443	12652.1625
1171.49561	13060.8625
1175.10432	13669.2625
1178.71056	14438.1625
1182.31434	15163.1625
1185.91565	15591.1625
1189.51451	15698.7625
1193.11091	15470.6625
1196.70485	15131.8625
1200.29634	14680.0625
1203.88538	14257.3625
1207.47197	13819.9625
1211.05612	13487.2625
1214.63782	13170.4625
1218.21708	12972.1625
1221.79391	12831.1625
1225.36829	12793.9625
1228.94024	12765.5625
1232.50976	12745.8625
1236.07685	12705.9625
1239.6415	12660.4625
1243.20374	12680.3625
1246.76355	12707.1625
1250.32093	12761.3625
1253.8759	12900.8625
1257.42845	13061.8625
1260.97859	13288.8625
1264.52631	13517.7625
1268.07163	13709.2625
1271.61453	13921.3625
1275.15503	14093.5625
1278.69312	14273.4625
1282.22882	14414.2625
1285.76211	14607.1625
1289.29301	14877.7625
1292.82151	15205.5625
1296.34761	15599.8625
1299.87133	16097.2625
1303.39266	16683.8625
1306.9116	17325.3625
1310.42815	17966.9625
1313.94233	18332.1625
1317.45412	18273.0625
1320.96354	17921.7625
1324.47058	17557.0625
1327.97525	17149.3625
1331.47754	16920.1625
1334.97747	16835.0625
1338.47502	16891.6625
1341.97022	17104.2625
1345.46305	17399.5625
1348.95352	17720.2625
1352.44163	18137.7625
1355.92738	18650.6625
1359.41078	19323.4625
1362.89183	19883.8625
1366.37053	19600.0625
1369.84688	18226.5625
1373.32088	16584.0625
1376.79254	15378.8625
1380.26186	14732.8625
1383.72883	14431.6625
1387.19347	14195.5625
1390.65578	13931.6625
1394.11575	13757.4625
1397.57339	13691.1625
1401.0287	13715.2625
1404.48168	13716.9625
1407.93234	13728.0625
1411.38068	13672.7625
1414.82669	13533.9625
1418.27039	13367.2625
1421.71177	13186.3625
1425.15083	12968.6625
1428.58758	12830.0625
1432.02203	12806.7625
1435.45416	12879.8625
1438.88399	12978.2625
1442.31151	13076.8625
1445.73673	13162.9625
1449.15965	13208.9625
1452.58027	13264.4625
1455.9986	13261.4625
1459.41463	13332.0625
1462.82837	13450.4625
1466.23982	13663.6625
1469.64898	13868.2625
1473.05586	14044.6625
1476.46045	14175.9625
1479.86276	14280.3625
1483.26279	14327.8625
1486.66054	14378.5625
1490.05602	14560.3625
1493.44922	14853.4625
1496.84016	15307.2625
1500.22882	15926.3625
1503.61521	16683.5625
1506.99934	17444.5625
1510.38121	17969.4625
1513.76081	17956.1625
1517.13816	17350.2625
1520.51324	16472.0625
1523.88607	15731.8625
1527.25665	15250.8625
1530.62498	15009.2625
1533.99105	14804.1625
1537.35488	14639.5625
1540.71647	14434.3625
1544.07581	14249.2625
1547.4329	14028.9625
1550.78776	13885.2625
1554.14038	13768.3625
1557.49077	13705.4625
1560.83892	13751.4625
1564.18484	13880.1625
1567.52853	13991.6625
1570.86999	14115.6625
1574.20922	14256.9625
1577.54624	14277.8625
1580.88103	14083.1625
1584.2136	13773.3625
1587.54395	13667.4625
1590.87208	13824.4625
1594.19801	14189.1625
1597.52172	14686.9625
1600.84321	14977.2625
1604.16251	14813.2625
1607.47959	14321.3625
1610.79447	13775.7625
1614.10715	13158.3625
1617.41763	12595.5625
1620.7259	12128.4625
1624.03199	11779.2625
1627.33587	11706.6625
1630.63757	11732.9625
1633.93707	12025.6625
1637.23439	12550.8625
1640.52951	13402.4625
1643.82246	14461.9625
1647.11321	15502.7625
1650.40179	16039.4625
1653.68819	15574.7625
1656.97241	14354.6625
1660.25446	12994.5625
1663.53433	11892.0625
1666.81203	11228.8625
1670.08756	10783.2625
1673.36092	10541.6625
1676.63211	10357.3625
1679.90115	10235.9625
1683.16801	10113.6625
1686.43272	10023.0625
1689.69527	9970.4625
1692.95567	9842.7625
1696.2139	9724.6625
1699.46999	9606.5625
1702.72392	9558.8625
1705.97571	9606.1625
1709.22535	9670.6625
1712.47284	9723.6625
1715.71819	9751.0625
1718.96139	9742.1625
1722.20246	9744.1625
1725.44139	9705.9625
1728.67818	9649.7625
1731.91284	9631.2625
1735.14537	9574.5625
1738.37576	9557.0625
1741.60403	9500.0625
1744.83017	9452.2625
1748.05418	9439.3625
1751.27607	9389.7625
1754.49584	9362.3625
1757.71349	9308.8625
1760.92903	9262.7625
1764.14244	9268.7625
1767.35375	9257.6625
1770.56294	9239.3625
1773.77002	9217.8625
1776.97499	9235.5625
1780.17785	9256.2625
1783.37861	9281.7625
1786.57727	9273.8625
1789.77382	9261.6625
1792.96828	9244.3625
1796.16064	9230.1625
1799.3509	9205.3625
1802.53907	9196.4625
1805.72514	9170.5625
1808.90913	9158.6625
1812.09102	9142.4625
1815.27083	9114.5625
1818.44856	9114.7625
1821.6242	9091.7625
1824.79776	9078.3625
1827.96924	9067.5625
1831.13864	9027.7625
1834.30597	9043.7625
1837.47122	9035.3625
1840.6344	9041.7625
1843.7955	9030.0625
1846.95454	9024.8625
1850.11151	8991.5625
1853.26642	9015.0625
1856.41926	8996.9625
1859.57004	8985.3625
1862.71876	8976.9625
1865.86542	8949.0625
1869.01003	8946.9625
1872.15258	8922.5625
1875.29308	8925.6625
1878.43152	8897.8625
1881.56792	8894.4625
1884.70227	8872.2625
1887.83457	8860.7625
1890.96482	8838.4625
1894.09304	8826.9625
1897.21921	8834.2625
1900.34335	8821.8625
1903.46544	8804.5625
1906.58551	8800.5625
1909.70353	8754.8625
1912.81953	8762.1625
1915.93349	8760.2625
1919.04543	8742.3625
1922.15534	8709.3625
1925.26322	8710.1625
1928.36908	8698.9625
1931.47292	8668.6625
1934.57473	8651.5625
1937.67453	8646.9625
1940.77232	8635.8625
1943.86808	8596.2625
1946.96184	8569.5625
1950.05358	8548.3625
1953.14331	8509.9625
1956.23103	8491.4625
1959.31675	8454.6625
1962.40046	8438.8625
1965.48217	8393.0625
1968.56188	8383.4625
1971.63959	8366.4625
1974.7153	8353.2625
1977.78901	8310.8625
1980.86073	8299.8625
1983.93046	8246.5625
1986.99819	8219.2625
1990.06394	8210.3625
1993.1277	8207.6625
1996.18947	8167.5625
1999.24925	8141.0625
2002.30706	8101.6625
2005.36288	8082.9625
2008.41672	8065.5625
2011.46859	8029.4625
2014.51848	8014.9625
2017.56639	8004.6625
2020.61233	7989.5625
2023.6563	7969.5625
2026.6983	7925.9625
2029.73833	7913.5625
2032.7764	7876.7625
2035.8125	7862.1625
2038.84664	7852.3625
2041.87881	7825.4625
2044.90903	7812.1625
2047.93729	7800.2625
2050.96359	7811.1625
2053.98794	7771.8625
2057.01034	7777.6625
2060.03078	7776.4625
2063.04927	7734.7625
2066.06582	7756.1625
2069.08042	7744.5625
2072.09307	7716.0625
2075.10378	7724.0625
2078.11255	7714.2625
2081.11938	7729.3625
2084.12426	7715.3625
2087.12722	7721.3625
2090.12824	7704.1625
2093.12732	7702.7625
2096.12447	7700.8625
2099.11969	7702.4625
2102.11299	7693.3625
2105.10435	7706.4625
2108.09379	7697.9625
2111.08131	7712.1625
2114.0669	7704.1625
2117.05057	7701.3625
2120.03233	7704.5625
2123.01216	7733.2625
2125.99008	7729.2625
2128.96609	7735.9625
2131.94018	7753.6625
2134.91236	7739.0625
2137.88263	7734.1625
2140.851	7754.1625
2143.81746	7751.1625
2146.78201	7748.2625
2149.74466	7743.7625
2152.7054	7738.2625
2155.66425	7731.3625
2158.6212	7755.7625
2161.57625	7734.4625
2164.52941	7730.1625
2167.48067	7723.8625
2170.43004	7715.7625
2173.37752	7702.5625
2176.32311	7711.4625
2179.26681	7716.2625
2182.20863	7692.7625
2185.14856	7704.7625
2188.08661	7721.1625
2191.02278	7724.6625
2193.95707	7690.9625
2196.88948	7675.9625
2199.82001	7698.7625
2202.74867	7672.4625
2205.67545	7658.9625
2208.60037	7651.0625
2211.52341	7625.2625
2214.44458	7616.5625
2217.36388	7586.7625
2220.28132	7583.2625
2223.1969	7582.2625
2226.11061	7576.1625
2229.02246	7529.7625
2231.93245	7532.4625
2234.84058	7506.4625
2237.74686	7508.1625
2240.65128	7508.8625
2243.55385	7502.3625
2246.45456	7487.9625
2249.35343	7473.0625
2252.25044	7467.2625
2255.14561	7477.6625
2258.03893	7475.7625
2260.93041	7427.7625
2263.82004	7406.8625
2266.70783	7421.0625
2269.59378	7380.2625
2272.4779	7362.6625
2275.36017	7350.1625
2278.24061	7320.5625
2281.11922	7318.4625
2283.996	7282.7625
2286.87094	7258.5625
2289.74405	7275.1625
2292.61534	7265.9625
2295.4848	7243.0625
2298.35243	7251.9625
2301.21824	7239.9625
2304.08223	7229.8625
2306.94439	7217.7625
2309.80474	7203.5625
2312.66327	7221.6625
2315.51999	7199.7625
2318.37489	7190.7625
2321.22797	7173.1625
2324.07925	7164.8625
2326.92871	7160.8625
2329.77637	7163.9625
2332.62222	7133.6625
2335.46626	7118.1625
2338.3085	7103.7625
2341.14893	7083.8625
2343.98756	7112.6625
2346.8244	7089.7625
2349.65943	7067.3625
2352.49267	7056.0625
2355.32411	7062.5625
2358.15376	7082.1625
2360.98161	7070.6625
2363.80768	7065.0625
2366.63195	7058.9625
2369.45444	7066.6625
2372.27514	7058.7625
2375.09405	7043.3625
2377.91118	7037.7625
2380.72652	7017.7625
2383.54009	6986.4625
2386.35187	6979.3625
2389.16188	6955.5625
2391.97011	6964.5625
2394.77657	6932.0625
2397.58125	6923.4625
2400.38416	6904.5625
2403.18529	6899.0625
2405.98466	6893.7625
2408.78226	6863.5625
2411.57809	6853.6625
2414.37216	6863.3625
2417.16446	6840.4625
2419.955	6845.7625
2422.74378	6824.4625
2425.5308	6811.6625
2428.31606	6837.2625
2431.09956	6813.1625
2433.88131	6797.1625
2436.6613	6800.5625
2439.43954	6794.3625
2442.21603	6780.6625
2444.99077	6794.1625
2447.76377	6798.3625
2450.53501	6780.5625
2453.30451	6771.3625
2456.07226	6758.2625
2458.83827	6748.2625
2461.60254	6732.1625
2464.36507	6740.7625
2467.12586	6746.4625
2469.88492	6714.3625
2472.64224	6734.5625
2475.39782	6699.3625
2478.15167	6683.6625
2480.90379	6696.3625
2483.65417	6709.2625
2486.40283	6706.3625
2489.14976	6691.7625
2491.89497	6683.9625
2494.63845	6695.5625
2497.3802	6686.5625
2500.12024	6681.2625
2502.85855	6689.1625
2505.59514	6683.9625
2508.33002	6652.7625
2511.06318	6658.3625
2513.79462	6629.2625
2516.52435	6670.7625
2519.25237	6633.9625
2521.97867	6605.8625
2524.70327	6586.3625
2527.42616	6576.2625
2530.14734	6593.2625
2532.86681	6579.9625
2535.58458	6574.9625
2538.30065	6561.7625
2541.01501	6562.9625
2543.72768	6541.8625
2546.43864	6523.6625
2549.14791	6514.2625
2551.85548	6512.6625
2554.56136	6479.2625
2557.26554	6483.5625
2559.96803	6475.2625
2562.66883	6465.8625
2565.36794	6467.0625
2568.06536	6441.9625
2570.7611	6431.7625
2573.45514	6412.9625
2576.14751	6414.3625
2578.83819	6399.0625
2581.52719	6389.3625
2584.21451	6397.1625
2586.90015	6367.7625
2589.58411	6358.9625
2592.2664	6349.9625
2594.94701	6328.7625
2597.62594	6293.7625
2600.30321	6329.4625
2602.9788	6316.2625
2605.65273	6317.4625
2608.32498	6304.7625
2610.99557	6278.2625
2613.66449	6277.9625
2616.33175	6260.1625
2618.99734	6273.9625
2621.66128	6258.3625
2624.32355	6246.0625
2626.98416	6237.8625
2629.64311	6231.1625
2632.30041	6215.2625
2634.95605	6206.2625
2637.61004	6191.0625
2640.26238	6204.4625
2642.91306	6190.4625
2645.56209	6170.5625
2648.20948	6160.1625
2650.85521	6154.5625
2653.4993	6172.7625
2656.14175	6165.0625
2658.78255	6166.8625
2661.42171	6153.3625
2664.05923	6185.3625
2666.6951	6175.0625
2669.32934	6197.8625
2671.96194	6183.2625
2674.59291	6171.2625
2677.22224	6177.3625
2679.84993	6188.8625
2682.476	6148.3625
2685.10043	6174.5625
2687.72324	6158.1625
2690.34441	6146.2625
2692.96396	6144.9625
2695.58188	6165.6625
2698.19818	6153.2625
2700.81285	6145.0625
2703.4259	6125.4625
2706.03733	6081.2625
2708.64714	6112.4625
2711.25533	6122.4625
2713.86191	6143.1625
2716.46687	6136.0625
2719.07021	6143.1625
2721.67194	6159.9625
2724.27206	6162.7625
2726.87057	6161.4625
2729.46747	6154.3625
2732.06276	6180.4625
2734.65644	6163.4625
2737.24852	6160.6625
2739.83899	6147.8625
2742.42786	6142.8625
2745.01513	6121.5625
2747.60079	6118.8625
2750.18486	6098.3625
2752.76733	6092.4625
2755.3482	6088.4625
2757.92747	6088.0625
2760.50515	6073.7625
2763.08123	6069.9625
2765.65573	6078.4625
2768.22863	6029.4625
2770.79994	6019.8625
2773.36967	6033.4625
2775.9378	6013.8625
2778.50435	6012.5625
2781.06932	6001.3625
2783.6327	6003.3625
2786.1945	6007.3625
2788.75471	5992.5625
2791.31335	5953.4625
2793.87041	5954.6625
2796.42589	5963.0625
2798.97979	5941.5625
2801.53212	5933.9625
2804.08288	5917.0625
2806.63206	5897.2625
2809.17967	5907.6625
2811.72571	5880.6625
2814.27018	5897.8625
2816.81308	5866.2625
2819.35442	5859.3625
2821.89419	5829.6625
2824.43239	5855.5625
2826.96904	5830.4625
2829.50412	5856.2625
2832.03763	5835.1625
2834.56959	5856.4625
2837.1	5838.7625
2839.62884	5837.2625
2842.15613	5842.7625
2844.68186	5852.2625
2847.20604	5849.9625
2849.72867	5844.0625
2852.24974	5856.0625
2854.76927	5814.8625
2857.28724	5795.6625
2859.80367	5804.6625
2862.31855	5825.3625
2864.83189	5809.3625
2867.34368	5794.7625
2869.85393	5794.7625
2872.36264	5774.5625
2874.8698	5783.9625
2877.37543	5780.1625
2879.87952	5762.0625
2882.38207	5779.4625
2884.88308	5781.0625
2887.38256	5783.1625
2889.88051	5782.1625
2892.37692	5793.0625
2894.8718	5767.0625
2897.36515	5784.9625
2899.85698	5771.1625
2902.34727	5794.8625
2904.83604	5770.7625
2907.32328	5800.9625
2909.809	5797.3625
2912.29319	5799.1625
2914.77587	5795.3625
2917.25702	5783.5625
2919.73665	5795.4625
2922.21476	5808.7625
2924.69136	5806.9625
2927.16644	5807.1625
2929.64	5783.0625
2932.11205	5786.0625
2934.58258	5773.4625
2937.05161	5779.4625
2939.51912	5770.9625
2941.98513	5775.6625
2944.44962	5753.8625
2946.91261	5725.4625
2949.37409	5749.8625
2951.83407	5722.9625
2954.29254	5706.3625
2956.74951	5699.2625
2959.20498	5695.8625
2961.65895	5680.2625
2964.11142	5680.7625
2966.56239	5647.9625
2969.01186	5655.6625
2971.45984	5655.8625
2973.90632	5652.7625
2976.35131	5636.8625
2978.7948	5619.5625
2981.23681	5608.9625
2983.67732	5594.3625
2986.11635	5581.8625
2988.55388	5565.6625
2990.98993	5551.7625
2993.4245	5547.1625
2995.85758	5550.1625
2998.28917	5516.8625
3000.71928	5514.4625
3003.14791	5496.2625
3005.57506	5489.6625
3008.00073	5487.5625
3010.42493	5491.2625
3012.84764	5475.9625
3015.26888	5452.7625
3017.68865	5455.5625
3020.10694	5457.4625
3022.52376	5431.1625
3024.9391	5445.1625
3027.35298	5435.6625
3029.76539	5421.0625
3032.17632	5407.2625
3034.5858	5409.1625
3036.9938	5387.5625
3039.40034	5388.5625
3041.80542	5381.6625
3044.20903	5377.8625
3046.61118	5368.8625
3049.01187	5368.5625
3051.4111	5361.4625
3053.80888	5357.7625
3056.20519	5353.4625
3058.60005	5348.2625
3060.99345	5323.6625
3063.3854	5313.2625
3065.7759	5330.4625
3068.16494	5292.2625
3070.55254	5271.9625
3072.93868	5268.1625
3075.32338	5246.9625
3077.70662	5261.8625
3080.08842	5230.8625
3082.46878	5253.9625
