Data from AgNPs_FTO_APTES_UA_50uM_CRN_0uM_R6G_10uM_NaF_0.1M_Addition_RamanShift__19__10-32-24-644.txt Node

Date: Mon Feb 21 10:32:24 GMT 2022
User: TCL
Spectrometer: QEP01345
Trigger mode: 4
Integration Time (sec): 7.000000E0
Scans to average: 10
Electric dark correction enabled: true
Nonlinearity correction enabled: false
Boxcar width: 0
XAxis mode: Raman Shifts
Number of Pixels in Spectrum: 1044
>>>>>Begin Spectral Data<<<<<
46.04893	-1.25
50.45542	0.25
54.85868	0.35
59.25871	-1.15
63.6555	24.85
68.04907	29.55
72.43941	29.45
76.82654	33.55
81.21044	35.15
85.59113	38.95
89.96862	37.55
94.34289	40.35
98.71396	39.65
103.08183	42.15
107.4465	41.05
111.80798	41.05
116.16626	41.65
120.52136	40.85
124.87327	48.45
129.222	39.25
133.56755	44.25
137.90993	46.55
142.24913	47.85
146.58517	45.25
150.91804	51.65
155.24774	56.15
159.57429	63.05
163.89768	76.75
168.21792	96.15
172.53501	125.95
176.84895	170.25
181.15975	222.35
185.46741	309.25
189.77193	421.15
194.07331	552.35
198.37157	709.95
202.6667	869.35
206.9587	1029.55
211.24758	1186.85
215.53334	1353.95
219.81599	1547.15
224.09553	1773.25
228.37195	2005.25
232.64527	2280.25
236.91549	2546.75
241.18261	2792.55
245.44663	3003.45
249.70755	3159.45
253.96539	3261.75
258.22014	3318.45
262.4718	3363.85
266.72039	3391.05
270.96589	3393.45
275.20832	3341.25
279.44768	3265.55
283.68397	3190.05
287.91719	3122.05
292.14735	3117.85
296.37445	3202.45
300.59849	3378.95
304.81948	3622.05
309.03742	3796.85
313.25231	3831.95
317.46415	3629.75
321.67296	3269.05
325.87872	2958.45
330.08145	2809.95
334.28114	2790.95
338.47781	2855.55
342.67145	2935.95
346.86207	3120.25
351.04966	3384.45
355.23424	3684.45
359.4158	3912.45
363.59435	4044.15
367.76989	4079.75
371.94243	4077.95
376.11196	4024.45
380.27849	3979.85
384.44203	3916.55
388.60257	3792.45
392.76012	3702.25
396.91468	3709.75
401.06626	3799.05
405.21485	3904.05
409.36047	3802.65
413.50311	3516.45
417.64277	3288.85
421.77947	3122.45
425.9132	2985.35
430.04396	2932.15
434.17176	2970.15
438.2966	3109.25
442.41849	3272.35
446.53742	3472.25
450.6534	3639.05
454.76644	3725.25
458.87653	3706.85
462.98368	3600.75
467.08789	3476.55
471.18916	3340.55
475.2875	3205.85
479.38291	3068.05
483.4754	2950.05
487.56496	2893.05
491.6516	2855.55
495.73531	2844.15
499.81612	2842.05
503.89401	2883.95
507.96899	2944.55
512.04106	3048.65
516.11023	3166.45
520.1765	3281.35
524.23987	3294.75
528.30034	3215.55
532.35792	3131.25
536.41261	3023.75
540.46441	2903.75
544.51333	2843.15
548.55936	2820.15
552.60252	2863.65
556.64279	2957.95
560.6802	3000.35
564.71473	3039.85
568.7464	3211.75
572.7752	3298.85
576.80114	3154.25
580.82422	2965.45
584.84444	2865.95
588.86181	2912.55
592.87633	3073.15
596.888	3158.25
600.89682	3219.75
604.9028	3655.05
608.90594	5060.95
612.90624	7110.05
616.90371	7036.25
620.89834	4554.75
624.89015	3265.75
628.87913	2978.55
632.86528	2971.65
636.84862	3041.45
640.82913	2978.35
644.80683	2794.75
648.78172	2649.15
652.75379	2637.15
656.72306	2810.05
660.68952	3020.75
664.65319	2955.05
668.61405	2689.85
672.57211	2555.25
676.52738	2542.85
680.47986	2539.25
684.42955	2489.95
688.37646	2491.55
692.32058	2504.75
696.26192	2539.35
700.20048	2586.85
704.13626	2616.05
708.06928	2580.05
711.99952	2537.65
715.927	2536.35
719.85171	2574.95
723.77365	2601.05
727.69284	2569.75
731.60928	2572.35
735.52295	2581.05
739.43388	2600.95
743.34206	2608.65
747.24749	2619.85
751.15017	2610.45
755.05012	2653.95
758.94733	2832.55
762.8418	3247.35
766.73354	3995.25
770.62254	4846.85
774.50882	5467.65
778.39237	5401.15
782.27321	4583.25
786.15132	3596.85
790.02671	3006.35
793.89938	2770.35
797.76935	2682.25
801.6366	2640.85
805.50115	2656.55
809.36299	2663.45
813.22213	2650.45
817.07857	2621.45
820.93231	2590.45
824.78336	2577.45
828.63172	2570.25
832.47738	2584.95
836.32036	2553.35
840.16066	2525.15
843.99827	2501.15
847.8332	2486.85
851.66546	2483.05
855.49504	2477.15
859.32195	2482.85
863.1462	2459.35
866.96777	2448.55
870.78668	2447.55
874.60293	2473.05
878.41652	2514.15
882.22745	2561.85
886.03573	2578.05
889.84136	2577.25
893.64433	2533.45
897.44466	2502.35
901.24235	2486.35
905.0374	2463.85
908.8298	2408.95
912.61957	2386.55
916.40671	2385.95
920.19121	2414.05
923.97308	2426.85
927.75233	2483.35
931.52895	2536.15
935.30295	2523.55
939.07433	2420.85
942.84309	2330.45
946.60924	2261.75
950.37278	2227.95
954.13371	2215.15
957.89203	2180.75
961.64774	2173.05
965.40086	2173.55
969.15137	2162.95
972.89929	2151.35
976.64461	2143.55
980.38733	2140.45
984.12747	2151.45
987.86502	2159.85
991.59999	2170.25
995.33237	2210.25
999.06217	2289.75
1002.78939	2353.15
1006.51404	2414.35
1010.23611	2489.05
1013.95561	2546.55
1017.67255	2530.85
1021.38692	2450.25
1025.09872	2367.45
1028.80796	2302.75
1032.51465	2293.95
1036.21877	2334.25
1039.92035	2393.65
1043.61937	2436.95
1047.31584	2423.75
1051.00976	2402.25
1054.70114	2368.05
1058.38998	2334.25
1062.07627	2334.85
1065.76003	2322.05
1069.44126	2322.75
1073.11995	2367.15
1076.79611	2423.95
1080.46974	2523.05
1084.14085	2656.25
1087.80943	2759.05
1091.47549	2795.85
1095.13903	2683.95
1098.80005	2528.65
1102.45857	2402.15
1106.11456	2391.65
1109.76805	2450.85
1113.41903	2567.95
1117.06751	2750.05
1120.71348	2984.25
1124.35696	3256.45
1127.99793	3446.35
1131.63641	3413.75
1135.2724	3167.85
1138.90589	2900.45
1142.5369	2730.25
1146.16542	2607.95
1149.79145	2528.15
1153.415	2490.05
1157.03607	2486.45
1160.65467	2558.65
1164.27079	2680.95
1167.88443	2885.25
1171.49561	3262.05
1175.10432	3882.25
1178.71056	4724.65
1182.31434	5430.65
1185.91565	5637.15
1189.51451	5488.75
1193.11091	5113.15
1196.70485	4656.15
1200.29634	4231.15
1203.88538	3876.45
1207.47197	3436.75
1211.05612	3096.95
1214.63782	2918.85
1218.21708	2836.65
1221.79391	2796.45
1225.36829	2761.85
1228.94024	2693.45
1232.50976	2654.95
1236.07685	2688.95
1239.6415	2755.05
1243.20374	2812.25
1246.76355	2809.65
1250.32093	2817.15
1253.8759	2889.45
1257.42845	3012.85
1260.97859	3205.95
1264.52631	3408.05
1268.07163	3578.05
1271.61453	3700.65
1275.15503	3752.95
1278.69312	3728.65
1282.22882	3725.45
1285.76211	3856.45
1289.29301	4121.15
1292.82151	4369.95
1296.34761	4617.95
1299.87133	4918.35
1303.39266	5403.15
1306.9116	6181.85
1310.42815	7066.95
1313.94233	7520.75
1317.45412	7206.05
1320.96354	6436.65
1324.47058	5577.25
1327.97525	4829.55
1331.47754	4475.25
1334.97747	4446.15
1338.47502	4631.35
1341.97022	4873.75
1345.46305	5178.65
1348.95352	5703.35
1352.44163	6535.35
1355.92738	7654.75
1359.41078	9141.35
1362.89183	10200.55
1366.37053	9765.65
1369.84688	8189.45
1373.32088	6579.95
1376.79254	5435.35
1380.26186	4765.85
1383.72883	4353.25
1387.19347	3944.85
1390.65578	3554.45
1394.11575	3271.45
1397.57339	3155.35
1401.0287	3121.95
1404.48168	3134.55
1407.93234	3177.65
1411.38068	3238.15
1414.82669	3271.95
1418.27039	3254.25
1421.71177	3197.05
1425.15083	3154.75
1428.58758	3177.25
1432.02203	3289.35
1435.45416	3397.85
1438.88399	3443.75
1442.31151	3439.15
1445.73673	3403.25
1449.15965	3379.65
1452.58027	3341.75
1455.9986	3212.35
1459.41463	3159.55
1462.82837	3204.75
1466.23982	3359.25
1469.64898	3531.05
1473.05586	3675.25
1476.46045	3797.15
1479.86276	3953.15
1483.26279	4106.75
1486.66054	4218.25
1490.05602	4341.45
1493.44922	4505.45
1496.84016	4771.35
1500.22882	5402.35
1503.61521	6353.55
1506.99934	7439.85
1510.38121	8320.25
1513.76081	8578.95
1517.13816	7841.95
1520.51324	6480.25
1523.88607	5207.45
1527.25665	4418.15
1530.62498	4055.45
1533.99105	3911.25
1537.35488	3818.15
1540.71647	3805.75
1544.07581	3812.35
1547.4329	3800.95
1550.78776	3757.85
1554.14038	3670.95
1557.49077	3589.75
1560.83892	3585.65
1564.18484	3709.05
1567.52853	3931.75
1570.86999	4183.25
1574.20922	4385.45
1577.54624	4381.55
1580.88103	4077.05
1584.2136	3567.85
1587.54395	3263.85
1590.87208	3272.25
1594.19801	3567.55
1597.52172	4068.85
1600.84321	4470.65
1604.16251	4454.85
1607.47959	4101.25
1610.79447	3561.35
1614.10715	3049.45
1617.41763	2678.85
1620.7259	2467.05
1624.03199	2366.55
1627.33587	2343.95
1630.63757	2396.55
1633.93707	2531.45
1637.23439	2820.45
1640.52951	3309.35
1643.82246	4047.25
1647.11321	4925.45
1650.40179	5495.55
1653.68819	5231.35
1656.97241	4253.65
1660.25446	3229.55
1663.53433	2546.25
1666.81203	2181.95
1670.08756	1961.95
1673.36092	1858.55
1676.63211	1793.65
1679.90115	1750.55
1683.16801	1704.95
1686.43272	1670.25
1689.69527	1609.15
1692.95567	1533.25
1696.2139	1443.85
1699.46999	1330.55
1702.72392	1304.75
1705.97571	1381.05
1709.22535	1471.55
1712.47284	1542.45
1715.71819	1572.75
1718.96139	1583.05
1722.20246	1588.45
1725.44139	1568.65
1728.67818	1558.95
1731.91284	1527.05
1735.14537	1500.85
1738.37576	1486.75
1741.60403	1462.65
1744.83017	1439.15
1748.05418	1407.15
1751.27607	1377.15
1754.49584	1340.75
1757.71349	1266.15
1760.92903	1227.65
1764.14244	1209.15
1767.35375	1221.25
1770.56294	1210.35
1773.77002	1219.65
1776.97499	1267.25
1780.17785	1312.15
1783.37861	1334.25
1786.57727	1341.05
1789.77382	1351.25
1792.96828	1354.85
1796.16064	1363.25
1799.3509	1356.95
1802.53907	1355.75
1805.72514	1347.85
1808.90913	1342.15
1812.09102	1335.55
1815.27083	1321.95
1818.44856	1315.25
1821.6242	1314.75
1824.79776	1308.65
1827.96924	1310.35
1831.13864	1313.65
1834.30597	1297.15
1837.47122	1300.25
1840.6344	1293.95
1843.7955	1291.35
1846.95454	1283.05
1850.11151	1273.35
1853.26642	1272.25
1856.41926	1281.35
1859.57004	1271.65
1862.71876	1277.85
1865.86542	1271.15
1869.01003	1270.05
1872.15258	1271.25
1875.29308	1267.85
1878.43152	1266.35
1881.56792	1256.15
1884.70227	1262.65
1887.83457	1249.85
1890.96482	1259.95
1894.09304	1244.05
1897.21921	1248.95
1900.34335	1241.85
1903.46544	1244.35
1906.58551	1237.05
1909.70353	1243.55
1912.81953	1239.75
1915.93349	1235.75
1919.04543	1226.75
1922.15534	1229.55
1925.26322	1220.75
1928.36908	1216.95
1931.47292	1216.35
1934.57473	1212.85
1937.67453	1199.05
1940.77232	1195.85
1943.86808	1191.55
1946.96184	1190.85
1950.05358	1186.05
1953.14331	1172.15
1956.23103	1178.45
1959.31675	1158.85
1962.40046	1157.75
1965.48217	1161.05
1968.56188	1161.55
1971.63959	1153.55
1974.7153	1154.55
1977.78901	1150.65
1980.86073	1154.65
1983.93046	1132.75
1986.99819	1125.45
1990.06394	1118.85
1993.1277	1122.45
1996.18947	1108.15
1999.24925	1109.05
2002.30706	1108.85
2005.36288	1096.95
2008.41672	1097.95
2011.46859	1090.05
2014.51848	1086.25
2017.56639	1079.45
2020.61233	1065.25
2023.6563	1076.85
2026.6983	1066.35
2029.73833	1064.85
2032.7764	1058.65
2035.8125	1051.75
2038.84664	1054.45
2041.87881	1048.55
2044.90903	1048.55
2047.93729	1041.95
2050.96359	1046.85
2053.98794	1042.85
2057.01034	1038.55
2060.03078	1036.45
2063.04927	1033.55
2066.06582	1022.45
2069.08042	1026.85
2072.09307	1032.05
2075.10378	1025.55
2078.11255	1017.45
2081.11938	1016.45
2084.12426	1022.85
2087.12722	1016.75
2090.12824	1020.55
2093.12732	1012.35
2096.12447	1021.25
2099.11969	1019.35
2102.11299	1008.45
2105.10435	1017.75
2108.09379	1016.95
2111.08131	1007.95
2114.0669	1010.95
2117.05057	1010.95
2120.03233	1005.85
2123.01216	1015.95
2125.99008	1011.25
2128.96609	1008.45
2131.94018	1008.45
2134.91236	1005.75
2137.88263	1002.35
2140.851	1007.55
2143.81746	1003.25
2146.78201	999.55
2149.74466	987.55
2152.7054	990.15
2155.66425	989.95
2158.6212	986.95
2161.57625	980.75
2164.52941	980.85
2167.48067	975.65
2170.43004	980.05
2173.37752	974.35
2176.32311	975.85
2179.26681	976.25
2182.20863	977.95
2185.14856	980.65
2188.08661	971.35
2191.02278	981.25
2193.95707	975.05
2196.88948	967.65
2199.82001	964.15
2202.74867	970.85
2205.67545	957.15
2208.60037	951.75
2211.52341	959.85
2214.44458	950.35
2217.36388	949.45
2220.28132	938.55
2223.1969	937.25
2226.11061	940.05
2229.02246	927.75
2231.93245	920.45
2234.84058	930.25
2237.74686	924.25
2240.65128	923.25
2243.55385	918.05
2246.45456	918.55
2249.35343	919.45
2252.25044	918.15
2255.14561	917.65
2258.03893	909.45
2260.93041	886.45
2263.82004	900.15
2266.70783	911.25
2269.59378	904.45
2272.4779	914.15
2275.36017	903.65
2278.24061	907.45
2281.11922	910.25
2283.996	892.85
2286.87094	894.65
2289.74405	888.45
2292.61534	885.65
2295.4848	880.15
2298.35243	871.15
2301.21824	871.55
2304.08223	872.25
2306.94439	878.15
2309.80474	868.65
2312.66327	867.35
2315.51999	871.55
2318.37489	868.75
2321.22797	860.55
2324.07925	860.05
2326.92871	862.85
2329.77637	870.65
2332.62222	854.75
2335.46626	850.25
2338.3085	843.15
2341.14893	855.15
2343.98756	846.35
2346.8244	848.05
2349.65943	851.55
2352.49267	851.95
2355.32411	866.85
2358.15376	865.65
2360.98161	864.65
2363.80768	867.05
2366.63195	883.95
2369.45444	879.05
2372.27514	887.55
2375.09405	881.05
2377.91118	880.45
2380.72652	871.25
2383.54009	866.75
2386.35187	860.45
2389.16188	851.15
2391.97011	843.85
2394.77657	839.05
2397.58125	834.75
2400.38416	823.65
2403.18529	832.55
2405.98466	821.15
2408.78226	824.25
2411.57809	814.45
2414.37216	814.45
2417.16446	815.05
2419.955	807.45
2422.74378	813.55
2425.5308	808.05
2428.31606	806.95
2431.09956	810.15
2433.88131	809.35
2436.6613	815.95
2439.43954	811.95
2442.21603	811.75
2444.99077	822.75
2447.76377	825.45
2450.53501	821.55
2453.30451	825.15
2456.07226	821.45
2458.83827	815.65
2461.60254	821.85
2464.36507	817.85
2467.12586	817.65
2469.88492	816.55
2472.64224	814.25
2475.39782	805.85
2478.15167	802.65
2480.90379	813.65
2483.65417	822.85
2486.40283	828.85
2489.14976	842.95
2491.89497	840.25
2494.63845	832.75
2497.3802	810.35
2500.12024	833.25
2502.85855	829.45
2505.59514	820.65
2508.33002	817.65
2511.06318	808.25
2513.79462	805.05
2516.52435	802.95
2519.25237	787.85
2521.97867	780.35
2524.70327	780.75
2527.42616	782.55
2530.14734	778.35
2532.86681	780.15
2535.58458	776.15
2538.30065	779.95
2541.01501	784.85
2543.72768	781.25
2546.43864	786.05
2549.14791	785.55
2551.85548	786.65
2554.56136	788.15
2557.26554	786.45
2559.96803	782.05
2562.66883	780.95
2565.36794	785.95
2568.06536	783.05
2570.7611	783.55
2573.45514	779.65
2576.14751	777.65
2578.83819	780.35
2581.52719	774.05
2584.21451	768.95
2586.90015	770.85
2589.58411	765.85
2592.2664	764.25
2594.94701	765.65
2597.62594	762.45
2600.30321	761.45
2602.9788	761.05
2605.65273	769.85
2608.32498	770.95
2610.99557	764.25
2613.66449	766.25
2616.33175	764.95
2618.99734	766.85
2621.66128	762.95
2624.32355	757.95
2626.98416	759.15
2629.64311	753.75
2632.30041	755.85
2634.95605	747.75
2637.61004	746.95
2640.26238	748.55
2642.91306	747.55
2645.56209	743.75
2648.20948	744.35
2650.85521	739.85
2653.4993	745.85
2656.14175	747.85
2658.78255	753.15
2661.42171	755.85
2664.05923	760.55
2666.6951	761.05
2669.32934	767.25
2671.96194	769.25
2674.59291	773.15
2677.22224	771.55
2679.84993	774.25
2682.476	777.05
2685.10043	775.65
2687.72324	776.65
2690.34441	773.55
2692.96396	775.15
2695.58188	770.75
2698.19818	771.55
2700.81285	768.95
2703.4259	750.25
2706.03733	665.75
2708.64714	712.55
2711.25533	757.15
2713.86191	773.55
2716.46687	783.05
2719.07021	798.15
2721.67194	803.75
2724.27206	812.85
2726.87057	812.15
2729.46747	814.15
2732.06276	802.05
2734.65644	807.35
2737.24852	804.75
2739.83899	802.95
2742.42786	808.95
2745.01513	805.15
2747.60079	805.65
2750.18486	798.85
2752.76733	802.35
2755.3482	802.75
2757.92747	797.05
2760.50515	801.95
2763.08123	808.75
2765.65573	810.35
2768.22863	810.95
2770.79994	818.65
2773.36967	817.95
2775.9378	825.45
2778.50435	830.35
2781.06932	833.65
2783.6327	845.55
2786.1945	842.15
2788.75471	861.55
2791.31335	858.95
2793.87041	875.75
2796.42589	882.05
2798.97979	895.65
2801.53212	894.45
2804.08288	905.45
2806.63206	921.55
2809.17967	925.55
2811.72571	930.75
2814.27018	942.95
2816.81308	956.05
2819.35442	957.95
2821.89419	958.25
2824.43239	980.65
2826.96904	971.35
2829.50412	979.85
2832.03763	985.45
2834.56959	980.55
2837.1	986.75
2839.62884	999.55
2842.15613	1014.05
2844.68186	1048.05
2847.20604	1064.45
2849.72867	1082.75
2852.24974	1095.55
2854.76927	1082.65
2857.28724	1055.85
2859.80367	1075.55
2862.31855	1075.55
2864.83189	1073.55
2867.34368	1064.35
2869.85393	1073.95
2872.36264	1074.55
2874.8698	1059.25
2877.37543	1068.15
2879.87952	1054.95
2882.38207	1046.45
2884.88308	1042.15
2887.38256	1043.35
2889.88051	1048.95
2892.37692	1033.55
2894.8718	1041.35
2897.36515	1035.65
2899.85698	1042.55
2902.34727	1041.15
2904.83604	1039.95
2907.32328	1037.25
2909.809	1031.95
2912.29319	1033.25
2914.77587	1026.25
2917.25702	1021.05
2919.73665	1025.25
2922.21476	1020.85
2924.69136	1015.05
2927.16644	1003.15
2929.64	1003.25
2932.11205	993.75
2934.58258	977.45
2937.05161	968.25
2939.51912	953.55
2941.98513	933.95
2944.44962	914.45
2946.91261	889.35
2949.37409	886.35
2951.83407	863.45
2954.29254	854.95
2956.74951	846.95
2959.20498	835.25
2961.65895	827.05
2964.11142	819.95
2966.56239	816.55
2969.01186	811.25
2971.45984	807.45
2973.90632	797.65
2976.35131	792.55
2978.7948	785.05
2981.23681	783.75
2983.67732	782.75
2986.11635	770.65
2988.55388	758.15
2990.98993	759.75
2993.4245	749.65
2995.85758	746.05
2998.28917	740.75
3000.71928	741.35
3003.14791	742.15
3005.57506	737.75
3008.00073	733.25
3010.42493	734.15
3012.84764	736.65
3015.26888	733.55
3017.68865	737.35
3020.10694	731.85
3022.52376	728.05
3024.9391	735.95
3027.35298	728.05
3029.76539	727.05
3032.17632	733.75
3034.5858	731.05
3036.9938	732.75
3039.40034	733.75
3041.80542	728.35
3044.20903	726.25
3046.61118	728.45
3049.01187	731.65
3051.4111	735.85
3053.80888	733.05
3056.20519	736.15
3058.60005	744.15
3060.99345	736.75
3063.3854	738.05
3065.7759	743.05
3068.16494	744.55
3070.55254	748.25
3072.93868	740.25
3075.32338	744.95
3077.70662	738.25
3080.08842	739.15
3082.46878	738.85
3084.84769	734.15
3087.22515	740.45
3089.60118	737.55
3091.97576	739.35
3094.3489	741.15
3096.72061	745.35
3099.09087	744.65
3101.4597	750.85
3103.82709	751.15
3106.19305	751.25
3108.55757	754.15
3110.92066	751.45
3113.28232	749.35
3115.64255	754.05
3118.00134	761.45
3120.35871	762.25
3122.71466	763.35
3125.06917	766.85
3127.42226	777.05
3129.77393	780.05
3132.12417	782.35
3134.47299	785.75
3136.82039	791.65
3139.16636	797.95
3141.51092	807.55
3143.85406	804.15
3146.19579	812.15
3148.53609	824.05
3150.87499	826.45
3153.21246	820.75
3155.54853	835.35
3157.88318	837.55
3160.21642	838.45
3162.54826	839.35
3164.87868	850.65
3167.2077	858.05
3169.5353	853.45
3171.86151	863.05
3174.18631	869.65
3176.5097	869.75
3178.83169	869.75
3181.15228	881.45
3183.47147	886.15
3185.78926	893.15
3188.10565	894.75
3190.42065	897.35
3192.73424	904.65
3195.04645	911.55
3197.35725	912.05
3199.66667	917.85
3201.97469	915.95
3204.28132	926.65
3206.58656	930.95
3208.8904	935.15
3211.19287	933.65
3213.49394	944.75
3215.79363	939.45
3218.09193	943.75
3220.38884	932.15
3222.68438	909.55
3224.97853	931.55
3227.2713	939.55
3229.56269	952.05
3231.8527	952.05
3234.14133	955.25
3236.42858	947.55
3238.71446	960.65
3240.99896	952.75
3243.28209	960.85
3245.56384	959.05
3247.84423	964.35
3250.12324	962.45
3252.40088	960.35
3254.67715	962.35
3256.95205	967.25
3259.22558	970.45
3261.49775	964.65
3263.76855	962.15
3266.03799	964.85
3268.30606	963.35
3270.57277	964.65
3272.83812	960.95
3275.10211	965.55
3277.36474	964.15
3279.62601	964.55
3281.88593	961.65
3284.14448	964.75
3286.40168	966.65
3288.65753	971.45
3290.91202	975.25
3293.16516	959.65
3295.41695	966.95
3297.66738	955.65
3299.91647	950.45
3302.16421	948.25
3304.4106	942.75
3306.65564	936.45
3308.89933	934.95
3311.14169	918.85
3313.38269	899.75
3315.62236	902.65
3317.86068	898.15
3320.09766	892.55
3322.3333	881.55
3324.5676	880.35
3326.80056	825.75
3329.03219	845.05
3331.26248	1.25
3333.49143	-0.15
3335.71905	-0.35
