Data from AgNPs_FTO_APTES_UA_50uM_CRN_200uM_R6G_10uM_NaF_0.1M_Addition_RamanShift__7__16-02-35-070.txt Node

Date: Mon Feb 21 16:02:35 GMT 2022
User: TCL
Spectrometer: QEP01345
Trigger mode: 4
Integration Time (sec): 7.000000E0
Scans to average: 10
Electric dark correction enabled: true
Nonlinearity correction enabled: false
Boxcar width: 0
XAxis mode: Raman Shifts
Number of Pixels in Spectrum: 1044
>>>>>Begin Spectral Data<<<<<
46.04893	0.1625
50.45542	0.0625
54.85868	-1.0375
59.25871	-0.8375
63.6555	45.1625
68.04907	52.0625
72.43941	52.4625
76.82654	56.1625
81.21044	61.5625
85.59113	61.3625
89.96862	60.7625
94.34289	68.8625
98.71396	66.7625
103.08183	74.4625
107.4465	73.1625
111.80798	71.2625
116.16626	70.3625
120.52136	73.1625
124.87327	79.5625
129.222	81.2625
133.56755	82.0625
137.90993	90.7625
142.24913	92.4625
146.58517	103.5625
150.91804	115.8625
155.24774	140.4625
159.57429	168.4625
163.89768	215.6625
168.21792	285.4625
172.53501	384.9625
176.84895	542.9625
181.15975	748.9625
185.46741	1046.8625
189.77193	1461.3625
194.07331	1951.7625
198.37157	2516.9625
202.6667	3088.9625
206.9587	3677.4625
211.24758	4250.5625
215.53334	4828.1625
219.81599	5435.6625
224.09553	6112.8625
228.37195	6851.9625
232.64527	7674.8625
236.91549	8522.2625
241.18261	9392.5625
245.44663	10195.2625
249.70755	10883.6625
253.96539	11490.6625
258.22014	12006.2625
262.4718	12378.4625
266.72039	12681.0625
270.96589	12819.9625
275.20832	12803.6625
279.44768	12689.5625
283.68397	12551.9625
287.91719	12404.5625
292.14735	12281.0625
296.37445	12243.9625
300.59849	12280.3625
304.81948	12372.6625
309.03742	12446.8625
313.25231	12395.0625
317.46415	12209.5625
321.67296	11967.1625
325.87872	11773.4625
330.08145	11675.5625
334.28114	11671.9625
338.47781	11762.3625
342.67145	11868.0625
346.86207	12106.7625
351.04966	12352.1625
355.23424	12597.9625
359.4158	12816.7625
363.59435	12985.2625
367.76989	13101.6625
371.94243	13196.9625
376.11196	13218.9625
380.27849	13275.2625
384.44203	13387.6625
388.60257	13457.6625
392.76012	13542.8625
396.91468	13705.3625
401.06626	13872.3625
405.21485	13982.5625
409.36047	13914.2625
413.50311	13696.1625
417.64277	13502.9625
421.77947	13437.3625
425.9132	13467.7625
430.04396	13496.8625
434.17176	13553.6625
438.2966	13700.8625
442.41849	13908.8625
446.53742	14236.5625
450.6534	14573.0625
454.76644	14802.3625
458.87653	14819.7625
462.98368	14770.2625
467.08789	14650.1625
471.18916	14477.7625
475.2875	14270.4625
479.38291	14066.9625
483.4754	13933.5625
487.56496	13804.1625
491.6516	13706.3625
495.73531	13615.4625
499.81612	13624.6625
503.89401	13719.6625
507.96899	13799.9625
512.04106	13820.1625
516.11023	13864.1625
520.1765	13830.0625
524.23987	13762.5625
528.30034	13730.2625
532.35792	13669.3625
536.41261	13586.1625
540.46441	13447.8625
544.51333	13400.2625
548.55936	13487.7625
552.60252	13646.2625
556.64279	13916.3625
560.6802	14060.0625
564.71473	14132.2625
568.7464	14200.8625
572.7752	14410.4625
576.80114	14570.8625
580.82422	14783.0625
584.84444	15107.4625
588.86181	15634.8625
592.87633	16175.6625
596.888	16353.1625
600.89682	16018.9625
604.9028	16058.2625
608.90594	17131.9625
612.90624	18586.2625
616.90371	17694.6625
620.89834	15147.0625
624.89015	13992.1625
628.87913	13834.1625
632.86528	13952.8625
636.84862	14051.4625
640.82913	13963.9625
644.80683	13701.1625
648.78172	13486.8625
652.75379	13459.4625
656.72306	13616.6625
660.68952	13821.1625
664.65319	13752.5625
668.61405	13511.9625
672.57211	13500.6625
676.52738	13588.5625
680.47986	13634.1625
684.42955	13552.8625
688.37646	13447.8625
692.32058	13446.9625
696.26192	13531.1625
700.20048	13650.7625
704.13626	13713.3625
708.06928	13696.3625
711.99952	13635.6625
715.927	13625.4625
719.85171	13675.1625
723.77365	13692.5625
727.69284	13613.4625
731.60928	13472.3625
735.52295	13467.7625
739.43388	13469.9625
743.34206	13503.1625
747.24749	13539.7625
751.15017	13627.4625
755.05012	13741.9625
758.94733	14026.2625
762.8418	14570.8625
766.73354	15541.3625
770.62254	16517.8625
774.50882	16886.2625
778.39237	16377.4625
782.27321	15330.4625
786.15132	14474.7625
790.02671	13925.0625
793.89938	13623.5625
797.76935	13473.3625
801.6366	13425.9625
805.50115	13363.4625
809.36299	13352.3625
813.22213	13249.5625
817.07857	13204.2625
820.93231	13173.6625
824.78336	13128.2625
828.63172	13103.6625
832.47738	13102.7625
836.32036	13100.8625
840.16066	13109.3625
843.99827	13100.0625
847.8332	13076.5625
851.66546	13086.0625
855.49504	13118.6625
859.32195	13143.7625
863.1462	13136.1625
866.96777	13129.6625
870.78668	13119.8625
874.60293	13122.3625
878.41652	13160.1625
882.22745	13215.9625
886.03573	13233.3625
889.84136	13270.8625
893.64433	13235.5625
897.44466	13180.2625
901.24235	13126.0625
905.0374	13087.4625
908.8298	13019.9625
912.61957	12993.3625
916.40671	13062.1625
920.19121	13134.7625
923.97308	13231.2625
927.75233	13277.4625
931.52895	13235.4625
935.30295	13123.0625
939.07433	12960.5625
942.84309	12834.6625
946.60924	12734.0625
950.37278	12700.5625
954.13371	12667.7625
957.89203	12655.6625
961.64774	12651.8625
965.40086	12621.0625
969.15137	12607.1625
972.89929	12586.5625
976.64461	12561.6625
980.38733	12548.8625
984.12747	12572.3625
987.86502	12622.7625
991.59999	12699.5625
995.33237	12767.3625
999.06217	12946.1625
1002.78939	13148.6625
1006.51404	13320.3625
1010.23611	13516.5625
1013.95561	13632.0625
1017.67255	13692.7625
1021.38692	13616.5625
1025.09872	13470.1625
1028.80796	13322.7625
1032.51465	13263.2625
1036.21877	13277.8625
1039.92035	13326.2625
1043.61937	13351.8625
1047.31584	13357.5625
1051.00976	13345.8625
1054.70114	13332.7625
1058.38998	13337.9625
1062.07627	13419.9625
1065.76003	13529.7625
1069.44126	13622.7625
1073.11995	13758.1625
1076.79611	13915.9625
1080.46974	14027.9625
1084.14085	14112.5625
1087.80943	14225.4625
1091.47549	14315.1625
1095.13903	14307.5625
1098.80005	14156.6625
1102.45857	13937.6625
1106.11456	13799.3625
1109.76805	13708.9625
1113.41903	13770.1625
1117.06751	13861.3625
1120.71348	14070.3625
1124.35696	14240.9625
1127.99793	14452.5625
1131.63641	14516.0625
1135.2724	14440.3625
1138.90589	14277.6625
1142.5369	14214.6625
1146.16542	14177.5625
1149.79145	14182.0625
1153.415	14169.2625
1157.03607	14271.2625
1160.65467	14483.7625
1164.27079	14905.0625
1167.88443	15463.3625
1171.49561	16129.2625
1175.10432	17074.4625
1178.71056	18273.0625
1182.31434	19353.4625
1185.91565	19893.4625
1189.51451	19817.1625
1193.11091	19369.0625
1196.70485	18731.6625
1200.29634	18083.6625
1203.88538	17501.9625
1207.47197	16938.8625
1211.05612	16505.1625
1214.63782	16181.3625
1218.21708	15917.4625
1221.79391	15748.3625
1225.36829	15733.2625
1228.94024	15699.6625
1232.50976	15608.6625
1236.07685	15466.3625
1239.6415	15331.5625
1243.20374	15330.2625
1246.76355	15395.9625
1250.32093	15508.8625
1253.8759	15692.4625
1257.42845	15991.7625
1260.97859	16308.4625
1264.52631	16650.9625
1268.07163	16982.9625
1271.61453	17342.3625
1275.15503	17644.0625
1278.69312	17901.6625
1282.22882	18222.1625
1285.76211	18602.6625
1289.29301	19136.9625
1292.82151	19792.3625
1296.34761	20537.7625
1299.87133	21427.5625
1303.39266	22450.3625
1306.9116	23558.0625
1310.42815	24567.6625
1313.94233	25244.6625
1317.45412	25072.5625
1320.96354	24391.1625
1324.47058	23663.9625
1327.97525	22930.6625
1331.47754	22429.5625
1334.97747	22126.2625
1338.47502	22019.6625
1341.97022	22115.9625
1345.46305	22286.0625
1348.95352	22710.1625
1352.44163	23229.9625
1355.92738	24223.0625
1359.41078	25381.0625
1362.89183	26433.8625
1366.37053	25989.7625
1369.84688	23893.4625
1373.32088	21284.6625
1376.79254	19512.8625
1380.26186	18738.1625
1383.72883	18432.7625
1387.19347	18181.9625
1390.65578	17850.5625
1394.11575	17658.2625
1397.57339	17710.8625
1401.0287	17806.7625
1404.48168	17895.9625
1407.93234	17882.2625
1411.38068	17777.3625
1414.82669	17506.3625
1418.27039	17183.1625
1421.71177	16865.0625
1425.15083	16492.8625
1428.58758	16299.3625
1432.02203	16373.9625
1435.45416	16634.2625
1438.88399	16884.0625
1442.31151	17046.6625
1445.73673	17098.0625
1449.15965	17194.6625
1452.58027	17190.8625
1455.9986	17161.5625
1459.41463	17193.1625
1462.82837	17386.2625
1466.23982	17660.3625
1469.64898	17991.3625
1473.05586	18252.2625
1476.46045	18412.3625
1479.86276	18461.1625
1483.26279	18448.9625
1486.66054	18488.0625
1490.05602	18721.3625
1493.44922	19012.1625
1496.84016	19511.4625
1500.22882	20166.5625
1503.61521	21067.2625
1506.99934	22033.6625
1510.38121	22724.8625
1513.76081	22744.3625
1517.13816	21993.7625
1520.51324	20831.5625
1523.88607	19834.9625
1527.25665	19305.3625
1530.62498	19024.5625
1533.99105	18823.9625
1537.35488	18555.2625
1540.71647	18256.7625
1544.07581	17952.9625
1547.4329	17649.2625
1550.78776	17343.1625
1554.14038	17189.6625
1557.49077	17112.8625
1560.83892	17140.9625
1564.18484	17217.9625
1567.52853	17357.6625
1570.86999	17562.1625
1574.20922	17798.7625
1577.54624	17879.2625
1580.88103	17712.3625
1584.2136	17430.2625
1587.54395	17472.7625
1590.87208	17935.8625
1594.19801	18682.9625
1597.52172	19574.7625
1600.84321	19984.0625
1604.16251	19591.6625
1607.47959	18607.0625
1610.79447	17475.8625
1614.10715	16383.5625
1617.41763	15437.4625
1620.7259	14783.2625
1624.03199	14432.9625
1627.33587	14352.8625
1630.63757	14579.9625
1633.93707	15168.4625
1637.23439	16251.2625
1640.52951	17817.5625
1643.82246	19812.6625
1647.11321	21499.3625
1650.40179	21958.5625
1653.68819	20684.2625
1656.97241	18426.7625
1660.25446	16135.0625
1663.53433	14566.4625
1666.81203	13572.0625
1670.08756	13021.7625
1673.36092	12664.2625
1676.63211	12433.4625
1679.90115	12271.3625
1683.16801	12139.4625
1686.43272	12019.8625
1689.69527	11914.9625
1692.95567	11786.3625
1696.2139	11619.4625
1699.46999	11490.5625
1702.72392	11447.3625
1705.97571	11488.2625
1709.22535	11558.0625
1712.47284	11582.5625
1715.71819	11617.3625
1718.96139	11614.6625
1722.20246	11569.2625
1725.44139	11591.0625
1728.67818	11519.5625
1731.91284	11469.1625
1735.14537	11427.5625
1738.37576	11362.6625
1741.60403	11334.6625
1744.83017	11282.6625
1748.05418	11202.8625
1751.27607	11199.5625
1754.49584	11162.7625
1757.71349	11109.3625
1760.92903	11063.9625
1764.14244	11074.6625
1767.35375	11064.3625
1770.56294	11005.9625
1773.77002	11003.0625
1776.97499	11039.7625
1780.17785	11060.7625
1783.37861	11069.6625
1786.57727	11087.6625
1789.77382	11046.6625
1792.96828	11030.8625
1796.16064	11024.8625
1799.3509	10987.7625
1802.53907	10967.4625
1805.72514	10950.2625
1808.90913	10938.3625
1812.09102	10940.0625
1815.27083	10897.0625
1818.44856	10887.9625
1821.6242	10890.8625
1824.79776	10858.6625
1827.96924	10842.5625
1831.13864	10808.2625
1834.30597	10839.9625
1837.47122	10809.6625
1840.6344	10820.4625
1843.7955	10831.3625
1846.95454	10805.5625
1850.11151	10818.1625
1853.26642	10806.3625
1856.41926	10801.3625
1859.57004	10781.2625
1862.71876	10762.6625
1865.86542	10753.0625
1869.01003	10747.7625
1872.15258	10703.0625
1875.29308	10709.7625
1878.43152	10714.3625
1881.56792	10678.7625
1884.70227	10685.3625
1887.83457	10639.9625
1890.96482	10626.6625
1894.09304	10630.7625
1897.21921	10632.0625
1900.34335	10624.2625
1903.46544	10582.5625
1906.58551	10588.8625
1909.70353	10595.1625
1912.81953	10586.5625
1915.93349	10535.4625
1919.04543	10527.8625
1922.15534	10504.2625
1925.26322	10479.1625
1928.36908	10454.7625
1931.47292	10444.9625
1934.57473	10429.2625
1937.67453	10415.7625
1940.77232	10381.4625
1943.86808	10370.9625
1946.96184	10339.8625
1950.05358	10298.8625
1953.14331	10286.9625
1956.23103	10249.6625
1959.31675	10229.8625
1962.40046	10187.3625
1965.48217	10147.9625
1968.56188	10117.2625
1971.63959	10118.8625
1974.7153	10064.7625
1977.78901	10036.6625
1980.86073	10025.3625
1983.93046	9991.6625
1986.99819	9952.5625
1990.06394	9945.9625
1993.1277	9911.3625
1996.18947	9876.4625
1999.24925	9876.1625
2002.30706	9826.2625
2005.36288	9787.4625
2008.41672	9779.5625
2011.46859	9730.2625
2014.51848	9727.3625
2017.56639	9704.4625
2020.61233	9668.2625
2023.6563	9646.7625
2026.6983	9626.7625
2029.73833	9592.9625
2032.7764	9564.9625
2035.8125	9549.5625
2038.84664	9531.5625
2041.87881	9524.8625
2044.90903	9518.5625
2047.93729	9488.2625
2050.96359	9451.6625
2053.98794	9481.2625
2057.01034	9488.8625
2060.03078	9455.1625
2063.04927	9444.5625
2066.06582	9430.2625
2069.08042	9430.9625
2072.09307	9424.9625
2075.10378	9412.3625
2078.11255	9421.5625
2081.11938	9388.4625
2084.12426	9397.1625
2087.12722	9412.6625
2090.12824	9395.3625
2093.12732	9396.4625
2096.12447	9393.7625
2099.11969	9396.4625
2102.11299	9391.8625
2105.10435	9387.6625
2108.09379	9391.8625
2111.08131	9432.6625
2114.0669	9411.7625
2117.05057	9371.6625
2120.03233	9416.7625
2123.01216	9450.4625
2125.99008	9425.0625
2128.96609	9459.4625
2131.94018	9450.5625
2134.91236	9474.3625
2137.88263	9478.5625
2140.851	9457.2625
2143.81746	9470.4625
2146.78201	9479.8625
2149.74466	9462.8625
2152.7054	9477.1625
2155.66425	9484.1625
2158.6212	9470.4625
2161.57625	9465.4625
2164.52941	9464.1625
2167.48067	9444.5625
2170.43004	9467.1625
2173.37752	9456.5625
2176.32311	9440.6625
2179.26681	9446.8625
2182.20863	9436.2625
2185.14856	9438.0625
2188.08661	9447.8625
2191.02278	9482.0625
2193.95707	9439.5625
2196.88948	9442.3625
2199.82001	9438.9625
2202.74867	9445.2625
2205.67545	9417.2625
2208.60037	9388.3625
2211.52341	9372.2625
2214.44458	9383.7625
2217.36388	9352.7625
2220.28132	9361.2625
2223.1969	9318.5625
2226.11061	9309.6625
2229.02246	9272.0625
2231.93245	9291.2625
2234.84058	9271.3625
2237.74686	9251.9625
2240.65128	9253.3625
2243.55385	9242.1625
2246.45456	9254.8625
2249.35343	9228.2625
2252.25044	9212.5625
2255.14561	9204.7625
2258.03893	9200.9625
2260.93041	9162.8625
2263.82004	9170.3625
2266.70783	9145.7625
2269.59378	9102.9625
2272.4779	9073.2625
2275.36017	9067.1625
2278.24061	9049.4625
2281.11922	9036.7625
2283.996	9041.0625
2286.87094	9018.9625
2289.74405	8989.5625
2292.61534	8990.6625
2295.4848	9005.4625
2298.35243	8975.4625
2301.21824	8978.2625
2304.08223	8959.3625
2306.94439	8969.4625
2309.80474	8961.3625
2312.66327	8960.2625
2315.51999	8931.7625
2318.37489	8919.5625
2321.22797	8897.9625
2324.07925	8895.3625
2326.92871	8897.7625
2329.77637	8897.0625
2332.62222	8865.4625
2335.46626	8853.7625
2338.3085	8855.4625
2341.14893	8845.5625
2343.98756	8842.7625
2346.8244	8816.0625
2349.65943	8823.4625
2352.49267	8830.7625
2355.32411	8798.2625
2358.15376	8809.5625
2360.98161	8808.0625
2363.80768	8816.0625
2366.63195	8800.1625
2369.45444	8793.0625
2372.27514	8803.9625
2375.09405	8802.9625
2377.91118	8765.6625
2380.72652	8761.4625
2383.54009	8732.2625
2386.35187	8703.5625
2389.16188	8712.4625
2391.97011	8698.5625
2394.77657	8679.4625
2397.58125	8656.6625
2400.38416	8656.2625
2403.18529	8628.3625
2405.98466	8620.6625
2408.78226	8612.8625
2411.57809	8570.2625
2414.37216	8558.5625
2417.16446	8577.4625
2419.955	8578.9625
2422.74378	8566.5625
2425.5308	8537.4625
2428.31606	8526.8625
2431.09956	8564.4625
2433.88131	8534.1625
2436.6613	8542.7625
2439.43954	8532.0625
2442.21603	8526.1625
2444.99077	8546.8625
2447.76377	8558.0625
2450.53501	8511.3625
2453.30451	8529.0625
2456.07226	8478.6625
2458.83827	8478.1625
2461.60254	8493.3625
2464.36507	8476.0625
2467.12586	8477.1625
2469.88492	8484.7625
2472.64224	8481.4625
2475.39782	8471.1625
2478.15167	8458.1625
2480.90379	8436.3625
2483.65417	8485.3625
2486.40283	8463.3625
2489.14976	8454.7625
2491.89497	8453.9625
2494.63845	8460.2625
2497.3802	8444.3625
2500.12024	8474.7625
2502.85855	8464.7625
2505.59514	8446.5625
2508.33002	8438.4625
2511.06318	8405.2625
2513.79462	8426.2625
2516.52435	8422.7625
2519.25237	8384.1625
2521.97867	8376.7625
2524.70327	8354.7625
2527.42616	8359.5625
2530.14734	8349.8625
2532.86681	8348.7625
2535.58458	8349.6625
2538.30065	8353.2625
2541.01501	8344.8625
2543.72768	8314.5625
2546.43864	8315.9625
2549.14791	8301.6625
2551.85548	8273.7625
2554.56136	8270.6625
2557.26554	8268.5625
2559.96803	8262.3625
2562.66883	8245.3625
2565.36794	8239.2625
2568.06536	8229.3625
2570.7611	8198.0625
2573.45514	8191.8625
2576.14751	8186.4625
2578.83819	8150.5625
2581.52719	8147.9625
2584.21451	8174.3625
2586.90015	8155.2625
2589.58411	8136.6625
2592.2664	8123.1625
2594.94701	8095.6625
2597.62594	8124.4625
2600.30321	8116.7625
2602.9788	8098.4625
2605.65273	8113.8625
2608.32498	8097.9625
2610.99557	8079.9625
2613.66449	8076.2625
2616.33175	8067.4625
2618.99734	8065.1625
2621.66128	8052.3625
2624.32355	8040.5625
2626.98416	8032.3625
2629.64311	8012.7625
2632.30041	8000.1625
2634.95605	7994.8625
2637.61004	7984.6625
2640.26238	7984.5625
2642.91306	7982.0625
2645.56209	7989.4625
2648.20948	7976.9625
2650.85521	7962.5625
2653.4993	7971.4625
2656.14175	7932.3625
2658.78255	7980.8625
2661.42171	7954.6625
2664.05923	7961.1625
2666.6951	7997.4625
2669.32934	8007.7625
2671.96194	8010.6625
2674.59291	7983.6625
2677.22224	7980.6625
2679.84993	7980.2625
2682.476	7973.3625
2685.10043	7978.5625
2687.72324	7984.6625
2690.34441	7977.2625
2692.96396	7950.8625
2695.58188	7966.7625
2698.19818	7963.7625
2700.81285	7972.8625
2703.4259	7941.3625
2706.03733	7887.6625
2708.64714	7928.3625
2711.25533	7959.5625
2713.86191	7938.5625
2716.46687	7977.8625
2719.07021	7985.7625
2721.67194	8017.8625
2724.27206	8001.9625
2726.87057	7995.7625
2729.46747	7987.8625
2732.06276	8021.7625
2734.65644	7997.2625
2737.24852	7990.0625
2739.83899	8004.3625
2742.42786	7996.0625
2745.01513	7971.9625
2747.60079	7977.9625
2750.18486	7955.7625
2752.76733	7963.7625
2755.3482	7946.8625
2757.92747	7921.0625
2760.50515	7903.4625
2763.08123	7926.7625
2765.65573	7911.1625
2768.22863	7901.5625
2770.79994	7877.3625
2773.36967	7870.9625
2775.9378	7839.3625
2778.50435	7854.2625
2781.06932	7862.4625
2783.6327	7869.6625
2786.1945	7857.1625
2788.75471	7863.0625
2791.31335	7829.4625
2793.87041	7813.8625
2796.42589	7802.3625
2798.97979	7786.4625
2801.53212	7784.5625
2804.08288	7769.4625
2806.63206	7740.5625
2809.17967	7738.5625
2811.72571	7712.9625
2814.27018	7701.5625
2816.81308	7695.0625
2819.35442	7703.9625
2821.89419	7681.5625
2824.43239	7669.6625
2826.96904	7653.1625
2829.50412	7678.3625
2832.03763	7671.2625
2834.56959	7687.6625
2837.1	7681.5625
2839.62884	7685.4625
2842.15613	7679.5625
2844.68186	7681.8625
2847.20604	7668.8625
2849.72867	7687.0625
2852.24974	7696.2625
2854.76927	7657.7625
2857.28724	7628.3625
2859.80367	7652.5625
2862.31855	7648.5625
2864.83189	7632.1625
2867.34368	7632.5625
2869.85393	7629.2625
2872.36264	7606.0625
2874.8698	7626.5625
2877.37543	7627.5625
2879.87952	7621.1625
2882.38207	7612.5625
2884.88308	7609.8625
2887.38256	7619.5625
2889.88051	7645.4625
2892.37692	7619.5625
2894.8718	7627.2625
2897.36515	7634.9625
2899.85698	7641.0625
2902.34727	7619.5625
2904.83604	7655.1625
2907.32328	7649.6625
2909.809	7648.2625
2912.29319	7668.9625
2914.77587	7655.2625
2917.25702	7658.0625
2919.73665	7652.1625
2922.21476	7653.7625
2924.69136	7660.4625
2927.16644	7664.9625
2929.64	7639.3625
2932.11205	7635.2625
2934.58258	7621.3625
2937.05161	7627.2625
2939.51912	7633.1625
2941.98513	7622.0625
2944.44962	7596.0625
2946.91261	7577.4625
2949.37409	7573.3625
2951.83407	7574.0625
2954.29254	7577.2625
2956.74951	7553.0625
2959.20498	7528.6625
2961.65895	7517.9625
2964.11142	7526.8625
2966.56239	7488.5625
2969.01186	7506.2625
2971.45984	7484.5625
2973.90632	7484.6625
2976.35131	7453.1625
2978.7948	7451.7625
2981.23681	7436.3625
2983.67732	7420.7625
2986.11635	7399.0625
2988.55388	7405.9625
2990.98993	7383.1625
2993.4245	7379.6625
2995.85758	7357.2625
2998.28917	7326.0625
3000.71928	7311.3625
3003.14791	7289.5625
3005.57506	7294.2625
3008.00073	7273.2625
3010.42493	7275.1625
3012.84764	7252.0625
3015.26888	7259.6625
3017.68865	7239.2625
3020.10694	7219.2625
3022.52376	7228.6625
3024.9391	7222.2625
3027.35298	7218.2625
3029.76539	7196.5625
3032.17632	7196.3625
3034.5858	7164.4625
3036.9938	7179.1625
3039.40034	7169.2625
3041.80542	7169.7625
3044.20903	7163.7625
3046.61118	7143.0625
3049.01187	7137.8625
3051.4111	7152.8625
3053.80888	7136.3625
3056.20519	7130.0625
3058.60005	7133.7625
3060.99345	7103.4625
3063.3854	7091.5625
3065.7759	7068.9625
3068.16494	7060.6625
3070.55254	7016.2625
