Data from AgNPs_FTO_APTES_UA_50uM_CRN_10uM_R6G_10uM_NaF_0.1M_Addition_RamanShift__8__13-22-44-868.txt Node

Date: Mon Feb 21 13:22:44 GMT 2022
User: TCL
Spectrometer: QEP01345
Trigger mode: 4
Integration Time (sec): 7.000000E0
Scans to average: 10
Electric dark correction enabled: true
Nonlinearity correction enabled: false
Boxcar width: 0
XAxis mode: Raman Shifts
Number of Pixels in Spectrum: 1044
>>>>>Begin Spectral Data<<<<<
46.04893	0.4125
50.45542	-0.0875
54.85868	-0.3875
59.25871	-2.2875
63.6555	68.5125
68.04907	74.6125
72.43941	76.0125
76.82654	81.3125
81.21044	81.2125
85.59113	87.5125
89.96862	89.8125
94.34289	93.1125
98.71396	93.8125
103.08183	100.4125
107.4465	103.0125
111.80798	106.0125
116.16626	102.1125
120.52136	106.6125
124.87327	117.8125
129.222	114.4125
133.56755	122.1125
137.90993	134.6125
142.24913	143.7125
146.58517	161.3125
150.91804	186.4125
155.24774	220.6125
159.57429	271.0125
163.89768	344.8125
168.21792	457.1125
172.53501	626.1125
176.84895	876.0125
181.15975	1212.7125
185.46741	1708.5125
189.77193	2373.0125
194.07331	3161.1125
198.37157	4062.0125
202.6667	5004.8125
206.9587	5961.9125
211.24758	6898.6125
215.53334	7829.8125
219.81599	8815.9125
224.09553	9905.9125
228.37195	11121.8125
232.64527	12505.2125
236.91549	13919.5125
241.18261	15331.9125
245.44663	16648.2125
249.70755	17779.3125
253.96539	18706.9125
258.22014	19493.0125
262.4718	20110.2125
266.72039	20535.2125
270.96589	20688.2125
275.20832	20659.2125
279.44768	20496.1125
283.68397	20231.5125
287.91719	19980.9125
292.14735	19821.7125
296.37445	19793.7125
300.59849	19805.4125
304.81948	19889.3125
309.03742	19916.1125
313.25231	19886.1125
317.46415	19624.0125
321.67296	19329.7125
325.87872	19041.0125
330.08145	19003.4125
334.28114	18971.6125
338.47781	19129.2125
342.67145	19381.1125
346.86207	19713.8125
351.04966	20070.4125
355.23424	20479.8125
359.4158	20857.4125
363.59435	21061.5125
367.76989	21213.3125
371.94243	21283.6125
376.11196	21368.0125
380.27849	21433.8125
384.44203	21469.2125
388.60257	21660.2125
392.76012	21888.7125
396.91468	22072.8125
401.06626	22403.5125
405.21485	22592.9125
409.36047	22477.4125
413.50311	22085.5125
417.64277	21911.0125
421.77947	21937.3125
425.9132	22045.2125
430.04396	22195.4125
434.17176	22302.2125
438.2966	22527.2125
442.41849	23032.8125
446.53742	23747.4125
450.6534	24460.7125
454.76644	24925.9125
458.87653	25013.7125
462.98368	24825.2125
467.08789	24520.4125
471.18916	24046.4125
475.2875	23563.6125
479.38291	23172.2125
483.4754	22862.8125
487.56496	22639.2125
491.6516	22415.4125
495.73531	22273.0125
499.81612	22207.9125
503.89401	22383.8125
507.96899	22481.2125
512.04106	22456.7125
516.11023	22359.8125
520.1765	22210.0125
524.23987	22093.1125
528.30034	22009.1125
532.35792	21902.9125
536.41261	21671.3125
540.46441	21371.6125
544.51333	21277.4125
548.55936	21435.3125
552.60252	21831.0125
556.64279	22446.2125
560.6802	22888.2125
564.71473	23057.5125
568.7464	23297.7125
572.7752	23928.7125
576.80114	24649.9125
580.82422	25357.8125
584.84444	26440.4125
588.86181	28006.1125
592.87633	29962.2125
596.888	30669.3125
600.89682	29354.7125
604.9028	28333.7125
608.90594	29443.8125
612.90624	31085.7125
616.90371	28999.2125
620.89834	24555.6125
624.89015	22559.3125
628.87913	22337.7125
632.86528	22536.0125
636.84862	22576.2125
640.82913	22124.8125
644.80683	21544.5125
648.78172	21187.0125
652.75379	21141.1125
656.72306	21477.8125
660.68952	21925.8125
664.65319	21742.8125
668.61405	21325.8125
672.57211	21267.3125
676.52738	21478.7125
680.47986	21490.7125
684.42955	21316.2125
688.37646	21195.0125
692.32058	21274.2125
696.26192	21609.0125
700.20048	21893.0125
704.13626	22040.1125
708.06928	22014.7125
711.99952	21895.9125
715.927	21903.0125
719.85171	21973.7125
723.77365	21961.3125
727.69284	21651.1125
731.60928	21346.9125
735.52295	21277.2125
739.43388	21381.1125
743.34206	21470.0125
747.24749	21610.3125
751.15017	21811.9125
755.05012	22149.8125
758.94733	22774.3125
762.8418	23843.1125
766.73354	25674.5125
770.62254	27372.8125
774.50882	27688.9125
778.39237	26468.8125
782.27321	24727.8125
786.15132	23238.4125
790.02671	22266.1125
793.89938	21720.1125
797.76935	21441.3125
801.6366	21306.4125
805.50115	21178.1125
809.36299	21044.7125
813.22213	20914.1125
817.07857	20781.2125
820.93231	20720.6125
824.78336	20639.2125
828.63172	20599.4125
832.47738	20565.7125
836.32036	20555.8125
840.16066	20564.4125
843.99827	20561.1125
847.8332	20576.6125
851.66546	20576.3125
855.49504	20671.3125
859.32195	20653.1125
863.1462	20600.6125
866.96777	20556.2125
870.78668	20549.3125
874.60293	20564.6125
878.41652	20632.1125
882.22745	20727.9125
886.03573	20838.5125
889.84136	20823.7125
893.64433	20728.2125
897.44466	20693.6125
901.24235	20642.0125
905.0374	20579.7125
908.8298	20504.0125
912.61957	20493.4125
916.40671	20612.1125
920.19121	20884.2125
923.97308	21171.6125
927.75233	21258.1125
931.52895	21099.5125
935.30295	20755.9125
939.07433	20359.7125
942.84309	20046.8125
946.60924	19946.9125
950.37278	19899.0125
954.13371	19882.4125
957.89203	19884.5125
961.64774	19891.6125
965.40086	19892.7125
969.15137	19876.5125
972.89929	19855.5125
976.64461	19816.8125
980.38733	19790.7125
984.12747	19879.3125
987.86502	19932.6125
991.59999	20063.6125
995.33237	20332.1125
999.06217	20685.1125
1002.78939	21288.2125
1006.51404	21875.7125
1010.23611	22382.5125
1013.95561	22663.4125
1017.67255	22719.2125
1021.38692	22448.5125
1025.09872	21942.4125
1028.80796	21629.3125
1032.51465	21540.0125
1036.21877	21585.9125
1039.92035	21666.1125
1043.61937	21723.8125
1047.31584	21639.7125
1051.00976	21525.3125
1054.70114	21504.0125
1058.38998	21587.4125
1062.07627	21736.5125
1065.76003	22040.2125
1069.44126	22298.4125
1073.11995	22737.1125
1076.79611	23111.8125
1080.46974	23360.2125
1084.14085	23616.7125
1087.80943	23940.9125
1091.47549	24129.6125
1095.13903	24157.6125
1098.80005	23801.8125
1102.45857	23285.8125
1106.11456	22897.5125
1109.76805	22727.9125
1113.41903	22835.6125
1117.06751	22960.6125
1120.71348	23227.8125
1124.35696	23542.1125
1127.99793	23820.5125
1131.63641	23993.8125
1135.2724	23926.3125
1138.90589	23823.1125
1142.5369	23866.2125
1146.16542	23994.3125
1149.79145	24232.2125
1153.415	24521.9125
1157.03607	24771.1125
1160.65467	25386.2125
1164.27079	26403.3125
1167.88443	27760.1125
1171.49561	29429.8125
1175.10432	31576.9125
1178.71056	34310.3125
1182.31434	36736.1125
1185.91565	37798.3125
1189.51451	37489.1125
1193.11091	36434.0125
1196.70485	35000.0125
1200.29634	33473.1125
1203.88538	32237.2125
1207.47197	31388.4125
1211.05612	30730.4125
1214.63782	30139.9125
1218.21708	29643.3125
1221.79391	29346.6125
1225.36829	29268.3125
1228.94024	29075.0125
1232.50976	28601.7125
1236.07685	27994.6125
1239.6415	27527.5125
1243.20374	27385.1125
1246.76355	27401.6125
1250.32093	27699.4125
1253.8759	28266.4125
1257.42845	29048.4125
1260.97859	30028.6125
1264.52631	31167.9125
1268.07163	32189.7125
1271.61453	33145.8125
1275.15503	34131.1125
1278.69312	35032.1125
1282.22882	36120.3125
1285.76211	37481.2125
1289.29301	39042.5125
1292.82151	40829.0125
1296.34761	42918.7125
1299.87133	45322.2125
1303.39266	47975.8125
1306.9116	50329.8125
1310.42815	52315.1125
1313.94233	53316.7125
1317.45412	52857.1125
1320.96354	51339.0125
1324.47058	49919.6125
1327.97525	48653.9125
1331.47754	47743.8125
1334.97747	47223.7125
1338.47502	46808.4125
1341.97022	46488.0125
1345.46305	46171.2125
1348.95352	46148.1125
1352.44163	46614.2125
1355.92738	48047.7125
1359.41078	50432.3125
1362.89183	52668.9125
1366.37053	52272.4125
1369.84688	48298.6125
1373.32088	42882.5125
1376.79254	38968.5125
1380.26186	37433.5125
1383.72883	37146.6125
1387.19347	36977.1125
1390.65578	36419.2125
1394.11575	36114.1125
1397.57339	36291.5125
1401.0287	36697.9125
1404.48168	37034.5125
1407.93234	37001.6125
1411.38068	36488.6125
1414.82669	35702.8125
1418.27039	34706.6125
1421.71177	33573.4125
1425.15083	32547.4125
1428.58758	32135.0125
1432.02203	32392.9125
1435.45416	33126.6125
1438.88399	33900.0125
1442.31151	34427.8125
1445.73673	34676.6125
1449.15965	34806.2125
1452.58027	34802.8125
1455.9986	34664.1125
1459.41463	34816.5125
1462.82837	35395.4125
1466.23982	36251.3125
1469.64898	37096.0125
1473.05586	37738.4125
1476.46045	38056.2125
1479.86276	38168.0125
1483.26279	38069.6125
1486.66054	38220.3125
1490.05602	38558.1125
1493.44922	39156.1125
1496.84016	39680.9125
1500.22882	40205.0125
1503.61521	40980.1125
1506.99934	41874.1125
1510.38121	42381.2125
1513.76081	42197.2125
1517.13816	41241.9125
1520.51324	40011.2125
1523.88607	39076.1125
1527.25665	38693.4125
1530.62498	38494.7125
1533.99105	38206.1125
1537.35488	37447.4125
1540.71647	36412.8125
1544.07581	35308.3125
1547.4329	34323.3125
1550.78776	33586.3125
1554.14038	33156.5125
1557.49077	32957.6125
1560.83892	32914.5125
1564.18484	33023.5125
1567.52853	33221.5125
1570.86999	33505.4125
1574.20922	34069.9125
1577.54624	34542.2125
1580.88103	34533.6125
1584.2136	34632.5125
1587.54395	35555.0125
1590.87208	37406.1125
1594.19801	39905.0125
1597.52172	42328.8125
1600.84321	43043.1125
1604.16251	41077.3125
1607.47959	37695.6125
1610.79447	34181.8125
1614.10715	31061.9125
1617.41763	28665.5125
1620.7259	27135.8125
1624.03199	26376.5125
1627.33587	26458.8125
1630.63757	27420.2125
1633.93707	29387.6125
1637.23439	32826.8125
1640.52951	37789.1125
1643.82246	43794.4125
1647.11321	48368.0125
1650.40179	48681.1125
1653.68819	44340.8125
1656.97241	37762.3125
1660.25446	31703.7125
1663.53433	27442.9125
1666.81203	24781.2125
1670.08756	23190.5125
1673.36092	22230.1125
1676.63211	21593.7125
1679.90115	21179.4125
1683.16801	20822.3125
1686.43272	20571.1125
1689.69527	20310.3125
1692.95567	20136.4125
1696.2139	19936.1125
1699.46999	19750.6125
1702.72392	19630.0125
1705.97571	19631.4125
1709.22535	19700.6125
1712.47284	19734.7125
1715.71819	19720.0125
1718.96139	19672.6125
1722.20246	19605.8125
1725.44139	19533.4125
1728.67818	19416.8125
1731.91284	19280.1125
1735.14537	19210.1125
1738.37576	19107.8125
1741.60403	19003.4125
1744.83017	18945.0125
1748.05418	18856.4125
1751.27607	18796.0125
1754.49584	18687.4125
1757.71349	18672.7125
1760.92903	18607.6125
1764.14244	18582.3125
1767.35375	18587.9125
1770.56294	18520.5125
1773.77002	18523.3125
1776.97499	18488.5125
1780.17785	18517.1125
1783.37861	18506.3125
1786.57727	18522.8125
1789.77382	18492.0125
1792.96828	18458.5125
1796.16064	18419.1125
1799.3509	18369.0125
1802.53907	18357.3125
1805.72514	18326.0125
1808.90913	18281.3125
1812.09102	18266.6125
1815.27083	18232.7125
1818.44856	18201.3125
1821.6242	18173.4125
1824.79776	18192.8125
1827.96924	18210.4125
1831.13864	18209.7125
1834.30597	18218.5125
1837.47122	18252.1125
1840.6344	18241.6125
1843.7955	18228.4125
1846.95454	18216.3125
1850.11151	18193.7125
1853.26642	18198.6125
1856.41926	18155.6125
1859.57004	18132.7125
1862.71876	18142.5125
1865.86542	18094.8125
1869.01003	18074.1125
1872.15258	18057.9125
1875.29308	18039.2125
1878.43152	18014.8125
1881.56792	18042.8125
1884.70227	18002.5125
1887.83457	18014.2125
1890.96482	17948.4125
1894.09304	17935.0125
1897.21921	17898.1125
1900.34335	17905.4125
1903.46544	17896.6125
1906.58551	17865.6125
1909.70353	17819.8125
1912.81953	17786.6125
1915.93349	17764.1125
1919.04543	17713.5125
1922.15534	17669.3125
1925.26322	17661.9125
1928.36908	17581.1125
1931.47292	17539.0125
1934.57473	17483.7125
1937.67453	17455.9125
1940.77232	17373.9125
1943.86808	17348.5125
1946.96184	17327.2125
1950.05358	17257.3125
1953.14331	17220.4125
1956.23103	17196.5125
1959.31675	17129.4125
1962.40046	17122.3125
1965.48217	17052.7125
1968.56188	16992.5125
1971.63959	16958.6125
1974.7153	16881.4125
1977.78901	16840.7125
1980.86073	16766.1125
1983.93046	16710.9125
1986.99819	16685.1125
1990.06394	16646.8125
1993.1277	16615.4125
1996.18947	16512.2125
1999.24925	16482.8125
2002.30706	16408.2125
2005.36288	16419.2125
2008.41672	16366.9125
2011.46859	16292.9125
2014.51848	16301.4125
2017.56639	16221.8125
2020.61233	16216.4125
2023.6563	16174.6125
2026.6983	16139.1125
2029.73833	16134.9125
2032.7764	16087.4125
2035.8125	16037.9125
2038.84664	16020.6125
2041.87881	16005.2125
2044.90903	15955.8125
2047.93729	15958.2125
2050.96359	15956.9125
2053.98794	15916.3125
2057.01034	15880.4125
2060.03078	15898.7125
2063.04927	15882.6125
2066.06582	15892.9125
2069.08042	15873.2125
2072.09307	15857.2125
2075.10378	15829.8125
2078.11255	15847.2125
2081.11938	15851.5125
2084.12426	15865.9125
2087.12722	15831.9125
2090.12824	15849.8125
2093.12732	15876.9125
2096.12447	15893.6125
2099.11969	15853.1125
2102.11299	15862.5125
2105.10435	15876.8125
2108.09379	15836.6125
2111.08131	15895.5125
2114.0669	15871.9125
2117.05057	15897.0125
2120.03233	15889.8125
2123.01216	15939.7125
2125.99008	15942.2125
2128.96609	15959.3125
2131.94018	15989.7125
2134.91236	15999.9125
2137.88263	16004.7125
2140.851	15988.9125
2143.81746	15999.0125
2146.78201	15983.9125
2149.74466	16020.3125
2152.7054	16004.1125
2155.66425	15999.2125
2158.6212	15949.4125
2161.57625	15959.9125
2164.52941	15954.1125
2167.48067	15954.9125
2170.43004	15951.3125
2173.37752	15933.2125
2176.32311	15933.2125
2179.26681	15976.3125
2182.20863	15957.1125
2185.14856	15955.2125
2188.08661	15966.3125
2191.02278	15968.7125
2193.95707	15938.9125
2196.88948	15913.8125
2199.82001	15954.0125
2202.74867	15905.2125
2205.67545	15888.0125
2208.60037	15843.5125
2211.52341	15827.8125
2214.44458	15789.5125
2217.36388	15775.2125
2220.28132	15757.8125
2223.1969	15701.8125
2226.11061	15700.9125
2229.02246	15723.2125
2231.93245	15675.6125
2234.84058	15644.8125
2237.74686	15640.9125
2240.65128	15651.8125
2243.55385	15615.1125
2246.45456	15624.5125
2249.35343	15606.1125
2252.25044	15537.7125
2255.14561	15528.7125
2258.03893	15512.9125
2260.93041	15457.2125
2263.82004	15440.7125
2266.70783	15412.9125
2269.59378	15380.3125
2272.4779	15347.8125
2275.36017	15307.7125
2278.24061	15288.6125
2281.11922	15254.4125
2283.996	15201.6125
2286.87094	15177.4125
2289.74405	15196.5125
2292.61534	15162.4125
2295.4848	15152.9125
2298.35243	15150.1125
2301.21824	15147.7125
2304.08223	15191.0125
2306.94439	15168.6125
2309.80474	15166.1125
2312.66327	15127.9125
2315.51999	15123.1125
2318.37489	15111.7125
2321.22797	15072.4125
2324.07925	15063.7125
2326.92871	15048.1125
2329.77637	15041.6125
2332.62222	14985.0125
2335.46626	14988.5125
2338.3085	14954.9125
2341.14893	14982.9125
2343.98756	14975.4125
2346.8244	14971.0125
2349.65943	14962.6125
2352.49267	14983.7125
2355.32411	14997.0125
2358.15376	14966.7125
2360.98161	14984.8125
2363.80768	14940.5125
2366.63195	14974.2125
2369.45444	14950.2125
2372.27514	14947.4125
2375.09405	14948.5125
2377.91118	14916.2125
2380.72652	14871.0125
2383.54009	14803.9125
2386.35187	14826.8125
2389.16188	14815.4125
2391.97011	14810.7125
2394.77657	14785.6125
2397.58125	14739.4125
2400.38416	14740.0125
2403.18529	14715.0125
2405.98466	14677.2125
2408.78226	14675.1125
2411.57809	14637.3125
2414.37216	14625.7125
2417.16446	14621.6125
2419.955	14612.2125
2422.74378	14615.7125
2425.5308	14604.4125
2428.31606	14572.8125
2431.09956	14604.9125
2433.88131	14553.9125
2436.6613	14603.7125
2439.43954	14580.6125
2442.21603	14585.8125
2444.99077	14554.6125
2447.76377	14588.4125
2450.53501	14563.5125
2453.30451	14582.3125
2456.07226	14584.9125
2458.83827	14576.9125
2461.60254	14531.6125
2464.36507	14555.2125
2467.12586	14565.5125
2469.88492	14529.1125
2472.64224	14541.8125
2475.39782	14531.9125
2478.15167	14533.9125
2480.90379	14549.6125
2483.65417	14565.2125
2486.40283	14540.8125
2489.14976	14580.3125
2491.89497	14562.9125
2494.63845	14578.7125
2497.3802	14533.7125
2500.12024	14561.8125
2502.85855	14513.7125
2505.59514	14556.2125
2508.33002	14530.7125
2511.06318	14495.6125
2513.79462	14491.0125
2516.52435	14473.1125
2519.25237	14481.3125
2521.97867	14459.6125
2524.70327	14473.2125
2527.42616	14455.2125
2530.14734	14446.6125
2532.86681	14415.7125
2535.58458	14445.4125
2538.30065	14423.1125
2541.01501	14408.3125
2543.72768	14371.4125
2546.43864	14398.7125
2549.14791	14370.5125
2551.85548	14353.9125
2554.56136	14298.6125
2557.26554	14308.3125
2559.96803	14342.3125
2562.66883	14313.1125
2565.36794	14330.4125
2568.06536	14356.1125
2570.7611	14313.3125
2573.45514	14304.1125
2576.14751	14280.1125
2578.83819	14264.5125
2581.52719	14260.9125
2584.21451	14244.6125
2586.90015	14235.0125
2589.58411	14199.9125
2592.2664	14236.8125
2594.94701	14208.5125
2597.62594	14217.5125
2600.30321	14201.2125
2602.9788	14208.5125
2605.65273	14178.2125
2608.32498	14151.8125
2610.99557	14137.5125
2613.66449	14134.4125
2616.33175	14181.2125
2618.99734	14199.0125
2621.66128	14161.2125
2624.32355	14133.1125
2626.98416	14124.4125
2629.64311	14084.3125
2632.30041	14103.1125
2634.95605	14086.7125
2637.61004	14075.9125
2640.26238	14056.1125
2642.91306	14041.6125
2645.56209	14017.7125
2648.20948	14023.6125
2650.85521	14054.0125
2653.4993	14079.3125
2656.14175	14081.7125
2658.78255	14106.2125
2661.42171	14099.4125
2664.05923	14154.6125
2666.6951	14133.5125
2669.32934	14174.7125
2671.96194	14189.4125
2674.59291	14159.7125
2677.22224	14188.7125
2679.84993	14187.1125
2682.476	14162.4125
2685.10043	14128.5125
2687.72324	14119.5125
2690.34441	14137.6125
2692.96396	14128.3125
2695.58188	14126.9125
2698.19818	14147.4125
2700.81285	14154.9125
2703.4259	14087.0125
2706.03733	14074.0125
2708.64714	14098.6125
2711.25533	14106.4125
2713.86191	14137.3125
2716.46687	14166.9125
2719.07021	14157.9125
2721.67194	14173.3125
2724.27206	14177.1125
2726.87057	14229.4125
2729.46747	14233.6125
2732.06276	14241.2125
2734.65644	14228.0125
2737.24852	14237.0125
2739.83899	14193.9125
2742.42786	14221.9125
2745.01513	14231.1125
2747.60079	14197.8125
2750.18486	14183.0125
2752.76733	14165.3125
2755.3482	14155.3125
2757.92747	14140.2125
2760.50515	14158.4125
2763.08123	14156.8125
2765.65573	14157.3125
2768.22863	14130.4125
2770.79994	14105.7125
2773.36967	14123.9125
2775.9378	14125.4125
2778.50435	14152.2125
2781.06932	14121.4125
2783.6327	14138.1125
2786.1945	14131.5125
2788.75471	14109.5125
2791.31335	14095.3125
2793.87041	14072.2125
2796.42589	14033.4125
2798.97979	14039.1125
2801.53212	14010.6125
2804.08288	13993.3125
2806.63206	13968.7125
2809.17967	13938.1125
2811.72571	13896.5125
2814.27018	13884.3125
2816.81308	13856.2125
2819.35442	13827.9125
2821.89419	13803.5125
2824.43239	13816.6125
2826.96904	13833.4125
2829.50412	13794.2125
2832.03763	13773.8125
2834.56959	13797.8125
2837.1	13743.6125
2839.62884	13734.7125
2842.15613	13731.2125
2844.68186	13711.8125
2847.20604	13695.6125
2849.72867	13708.9125
2852.24974	13708.9125
2854.76927	13679.1125
2857.28724	13664.5125
2859.80367	13650.6125
2862.31855	13650.1125
2864.83189	13668.0125
2867.34368	13628.9125
2869.85393	13640.3125
2872.36264	13641.1125
2874.8698	13617.9125
2877.37543	13633.1125
2879.87952	13611.4125
2882.38207	13617.0125
2884.88308	13596.1125
2887.38256	13611.7125
2889.88051	13612.1125
2892.37692	13634.6125
2894.8718	13636.3125
2897.36515	13659.6125
2899.85698	13670.1125
2902.34727	13682.4125
2904.83604	13666.2125
2907.32328	13720.1125
2909.809	13700.0125
2912.29319	13735.4125
2914.77587	13731.9125
2917.25702	13695.1125
2919.73665	13701.1125
2922.21476	13723.7125
2924.69136	13721.9125
2927.16644	13716.4125
2929.64	13678.7125
2932.11205	13668.8125
2934.58258	13618.7125
2937.05161	13648.3125
2939.51912	13660.9125
2941.98513	13633.2125
2944.44962	13618.7125
2946.91261	13574.0125
2949.37409	13584.3125
2951.83407	13585.5125
2954.29254	13576.3125
2956.74951	13573.3125
2959.20498	13531.8125
2961.65895	13569.8125
2964.11142	13529.4125
2966.56239	13525.9125
2969.01186	13489.5125
2971.45984	13464.8125
2973.90632	13439.7125
2976.35131	13416.0125
2978.7948	13419.1125
2981.23681	13406.3125
2983.67732	13386.2125
2986.11635	13350.2125
2988.55388	13298.8125
2990.98993	13283.0125
2993.4245	13243.8125
2995.85758	13250.5125
2998.28917	13207.6125
3000.71928	13174.1125
3003.14791	13108.9125
3005.57506	13119.4125
3008.00073	13078.9125
3010.42493	13046.8125
3012.84764	13048.3125
3015.26888	13023.0125
3017.68865	12993.8125
3020.10694	12974.5125
3022.52376	12932.6125
3024.9391	12915.8125
