Data from AgNPs_FTO_APTES_UA_50uM_CRN_2uM_R6G_10uM_NaF_0.1M_Addition_RamanShift__13__12-09-14-774.txt Node

Date: Mon Feb 21 12:09:14 GMT 2022
User: TCL
Spectrometer: QEP01345
Trigger mode: 4
Integration Time (sec): 7.000000E0
Scans to average: 10
Electric dark correction enabled: true
Nonlinearity correction enabled: false
Boxcar width: 0
XAxis mode: Raman Shifts
Number of Pixels in Spectrum: 1044
>>>>>Begin Spectral Data<<<<<
46.04893	-0.725
50.45542	-1.225
54.85868	-0.925
59.25871	-1.325
63.6555	66.275
68.04907	73.575
72.43941	76.175
76.82654	79.575
81.21044	82.975
85.59113	83.975
89.96862	88.875
94.34289	94.175
98.71396	93.575
103.08183	100.275
107.4465	100.375
111.80798	103.675
116.16626	105.575
120.52136	104.975
124.87327	111.375
129.222	116.575
133.56755	118.575
137.90993	128.975
142.24913	140.975
146.58517	152.575
150.91804	178.875
155.24774	215.175
159.57429	260.875
163.89768	337.575
168.21792	442.275
172.53501	602.875
176.84895	850.275
181.15975	1192.875
185.46741	1673.575
189.77193	2315.775
194.07331	3095.275
198.37157	4002.575
202.6667	4956.675
206.9587	5908.975
211.24758	6812.275
215.53334	7711.975
219.81599	8686.775
224.09553	9716.875
228.37195	10855.675
232.64527	12180.075
236.91549	13533.775
241.18261	14914.975
245.44663	16233.775
249.70755	17477.975
253.96539	18534.975
258.22014	19453.775
262.4718	20126.675
266.72039	20558.875
270.96589	20780.075
275.20832	20803.875
279.44768	20669.075
283.68397	20448.275
287.91719	20262.875
292.14735	20096.175
296.37445	19989.875
300.59849	19989.575
304.81948	19989.775
309.03742	19997.875
313.25231	19922.275
317.46415	19646.975
321.67296	19323.475
325.87872	19008.875
330.08145	18876.175
334.28114	18892.075
338.47781	19012.775
342.67145	19193.775
346.86207	19447.175
351.04966	19733.375
355.23424	20080.875
359.4158	20387.575
363.59435	20670.375
367.76989	20799.875
371.94243	20919.975
376.11196	20993.175
380.27849	21037.475
384.44203	21149.075
388.60257	21279.175
392.76012	21427.475
396.91468	21714.175
401.06626	22047.975
405.21485	22263.175
409.36047	22263.475
413.50311	22017.075
417.64277	21831.375
421.77947	21846.675
425.9132	21928.975
430.04396	22028.475
434.17176	22132.375
438.2966	22269.275
442.41849	22507.075
446.53742	22865.575
450.6534	23282.575
454.76644	23587.675
458.87653	23759.675
462.98368	23775.575
467.08789	23736.875
471.18916	23591.175
475.2875	23400.875
479.38291	23267.875
483.4754	23224.175
487.56496	23119.175
491.6516	22967.875
495.73531	22761.675
499.81612	22583.575
503.89401	22681.275
507.96899	22743.875
512.04106	22747.375
516.11023	22704.175
520.1765	22579.275
524.23987	22475.875
528.30034	22317.275
532.35792	22138.375
536.41261	22012.975
540.46441	21877.175
544.51333	21877.975
548.55936	22037.975
552.60252	22358.375
556.64279	22707.975
560.6802	22987.375
564.71473	23203.975
568.7464	23546.275
572.7752	24117.975
576.80114	24807.375
580.82422	25420.675
584.84444	25954.175
588.86181	26397.075
592.87633	26883.575
596.888	26892.775
600.89682	26416.975
604.9028	26314.375
608.90594	27466.475
612.90624	28654.175
616.90371	27252.375
620.89834	24274.475
624.89015	22950.075
628.87913	22867.875
632.86528	23077.375
636.84862	23154.875
640.82913	22930.575
644.80683	22471.875
648.78172	22149.775
652.75379	22054.075
656.72306	22296.975
660.68952	22548.275
664.65319	22534.275
668.61405	22373.775
672.57211	22308.075
676.52738	22405.675
680.47986	22365.575
684.42955	22293.275
688.37646	22247.875
692.32058	22326.775
696.26192	22510.775
700.20048	22715.475
704.13626	22842.175
708.06928	22914.675
711.99952	22922.575
715.927	22830.875
719.85171	22818.775
723.77365	22706.475
727.69284	22475.975
731.60928	22245.175
735.52295	22115.575
739.43388	22075.675
743.34206	22138.675
747.24749	22219.275
751.15017	22405.675
755.05012	22661.275
758.94733	23130.875
762.8418	23938.375
766.73354	25152.775
770.62254	26312.475
774.50882	26563.975
778.39237	25672.375
782.27321	24494.975
786.15132	23490.375
790.02671	22756.075
793.89938	22392.375
797.76935	22167.675
801.6366	22100.675
805.50115	22024.175
809.36299	21965.475
813.22213	21915.975
817.07857	21867.175
820.93231	21839.275
824.78336	21798.175
828.63172	21729.575
832.47738	21691.475
836.32036	21696.775
840.16066	21677.775
843.99827	21687.775
847.8332	21713.475
851.66546	21778.075
855.49504	21773.875
859.32195	21781.375
863.1462	21767.175
866.96777	21738.575
870.78668	21747.175
874.60293	21768.475
878.41652	21801.475
882.22745	21885.375
886.03573	21908.275
889.84136	21916.675
893.64433	21905.275
897.44466	21814.675
901.24235	21785.475
905.0374	21784.675
908.8298	21745.375
912.61957	21735.775
916.40671	21871.675
920.19121	22073.575
923.97308	22268.175
927.75233	22268.675
931.52895	22067.975
935.30295	21865.075
939.07433	21584.875
942.84309	21348.875
946.60924	21196.375
950.37278	21224.475
954.13371	21136.675
957.89203	21130.675
961.64774	21110.775
965.40086	21104.775
969.15137	21126.475
972.89929	21013.275
976.64461	21009.875
980.38733	20964.575
984.12747	20976.775
987.86502	20990.775
991.59999	21086.075
995.33237	21234.275
999.06217	21479.775
1002.78939	21709.975
1006.51404	21989.075
1010.23611	22332.375
1013.95561	22514.175
1017.67255	22552.275
1021.38692	22408.675
1025.09872	22160.575
1028.80796	21950.775
1032.51465	21850.275
1036.21877	21840.175
1039.92035	21955.975
1043.61937	22056.275
1047.31584	22114.075
1051.00976	22184.575
1054.70114	22250.175
1058.38998	22348.375
1062.07627	22553.375
1065.76003	22784.475
1069.44126	23048.975
1073.11995	23388.175
1076.79611	23699.875
1080.46974	23825.575
1084.14085	23922.475
1087.80943	24083.175
1091.47549	24298.475
1095.13903	24375.975
1098.80005	24208.775
1102.45857	23757.975
1106.11456	23326.875
1109.76805	23120.875
1113.41903	23030.375
1117.06751	23033.975
1120.71348	23182.775
1124.35696	23379.175
1127.99793	23571.375
1131.63641	23688.575
1135.2724	23699.275
1138.90589	23676.675
1142.5369	23671.575
1146.16542	23730.675
1149.79145	23878.275
1153.415	24051.675
1157.03607	24201.375
1160.65467	24526.775
1164.27079	25120.675
1167.88443	25903.875
1171.49561	26879.575
1175.10432	28109.275
1178.71056	29576.075
1182.31434	30967.475
1185.91565	31772.675
1189.51451	32028.075
1193.11091	31869.875
1196.70485	31267.775
1200.29634	30328.675
1203.88538	29633.675
1207.47197	29103.575
1211.05612	28740.975
1214.63782	28404.975
1218.21708	27872.875
1221.79391	27244.475
1225.36829	26745.975
1228.94024	26516.675
1232.50976	26404.975
1236.07685	26277.075
1239.6415	26186.575
1243.20374	26178.775
1246.76355	26256.375
1250.32093	26528.875
1253.8759	26890.875
1257.42845	27364.775
1260.97859	28003.775
1264.52631	28634.475
1268.07163	29307.975
1271.61453	29888.875
1275.15503	30371.675
1278.69312	30979.375
1282.22882	31657.075
1285.76211	32385.675
1289.29301	33205.675
1292.82151	34119.475
1296.34761	35150.675
1299.87133	36335.675
1303.39266	37549.375
1306.9116	38670.075
1310.42815	39600.175
1313.94233	40104.575
1317.45412	39920.275
1320.96354	39645.475
1324.47058	39510.575
1327.97525	39292.075
1331.47754	39271.975
1334.97747	39383.375
1338.47502	39486.675
1341.97022	39643.175
1345.46305	39749.675
1348.95352	39726.475
1352.44163	39609.175
1355.92738	39665.075
1359.41078	40011.075
1362.89183	40494.575
1366.37053	40043.875
1369.84688	37943.675
1373.32088	35170.075
1376.79254	33030.775
1380.26186	32043.275
1383.72883	31701.875
1387.19347	31518.075
1390.65578	31222.675
1394.11575	30921.275
1397.57339	30905.475
1401.0287	30958.075
1404.48168	31067.175
1407.93234	30942.275
1411.38068	30596.775
1414.82669	29950.475
1418.27039	29258.075
1421.71177	28483.575
1425.15083	27932.075
1428.58758	27623.875
1432.02203	27771.975
1435.45416	28103.275
1438.88399	28569.775
1442.31151	28918.475
1445.73673	29190.075
1449.15965	29460.875
1452.58027	29715.975
1455.9986	29804.675
1459.41463	30094.375
1462.82837	30483.475
1466.23982	30941.275
1469.64898	31287.775
1473.05586	31550.475
1476.46045	31609.175
1479.86276	31611.275
1483.26279	31624.675
1486.66054	31661.675
1490.05602	31896.475
1493.44922	32356.775
1496.84016	33011.775
1500.22882	33890.575
1503.61521	34901.275
1506.99934	35893.375
1510.38121	36475.375
1513.76081	36521.375
1517.13816	35882.675
1520.51324	34986.175
1523.88607	34265.075
1527.25665	33806.075
1530.62498	33513.875
1533.99105	33181.375
1537.35488	32737.775
1540.71647	32100.475
1544.07581	31422.475
1547.4329	30763.275
1550.78776	30225.675
1554.14038	29924.175
1557.49077	29774.075
1560.83892	29788.075
1564.18484	29822.375
1567.52853	29920.275
1570.86999	30116.075
1574.20922	30488.975
1577.54624	30742.075
1580.88103	30722.075
1584.2136	30693.775
1587.54395	30998.475
1590.87208	31817.775
1594.19801	32930.175
1597.52172	33948.975
1600.84321	34060.475
1604.16251	33043.375
1607.47959	31532.575
1610.79447	29781.675
1614.10715	28138.975
1617.41763	26624.975
1620.7259	25550.775
1624.03199	24929.875
1627.33587	24830.575
1630.63757	25203.775
1633.93707	26234.375
1637.23439	28047.075
1640.52951	30620.675
1643.82246	33690.475
1647.11321	36212.175
1650.40179	36961.275
1653.68819	35264.075
1656.97241	31871.375
1660.25446	28344.975
1663.53433	25562.975
1666.81203	23678.275
1670.08756	22524.775
1673.36092	21829.875
1676.63211	21365.675
1679.90115	21017.275
1683.16801	20764.475
1686.43272	20585.875
1689.69527	20382.075
1692.95567	20266.575
1696.2139	20046.675
1699.46999	19902.375
1702.72392	19871.075
1705.97571	19908.875
1709.22535	19953.975
1712.47284	19998.675
1715.71819	20026.775
1718.96139	19990.775
1722.20246	19919.975
1725.44139	19848.175
1728.67818	19795.575
1731.91284	19715.075
1735.14537	19579.875
1738.37576	19542.875
1741.60403	19443.075
1744.83017	19391.175
1748.05418	19355.475
1751.27607	19244.875
1754.49584	19138.575
1757.71349	19071.675
1760.92903	19057.775
1764.14244	19052.775
1767.35375	19043.775
1770.56294	19001.275
1773.77002	19014.475
1776.97499	19026.775
1780.17785	19066.675
1783.37861	19045.675
1786.57727	19055.975
1789.77382	19009.375
1792.96828	18991.675
1796.16064	18998.375
1799.3509	18955.975
1802.53907	18913.175
1805.72514	18839.175
1808.90913	18811.375
1812.09102	18757.875
1815.27083	18743.175
1818.44856	18754.375
1821.6242	18709.575
1824.79776	18689.075
1827.96924	18675.475
1831.13864	18667.375
1834.30597	18644.675
1837.47122	18697.575
1840.6344	18666.475
1843.7955	18663.275
1846.95454	18599.375
1850.11151	18623.275
1853.26642	18629.575
1856.41926	18631.475
1859.57004	18616.375
1862.71876	18594.175
1865.86542	18558.875
1869.01003	18577.275
1872.15258	18526.975
1875.29308	18462.475
1878.43152	18461.575
1881.56792	18449.475
1884.70227	18429.075
1887.83457	18405.275
1890.96482	18355.475
1894.09304	18314.975
1897.21921	18316.675
1900.34335	18278.875
1903.46544	18246.175
1906.58551	18228.675
1909.70353	18218.775
1912.81953	18172.875
1915.93349	18159.175
1919.04543	18136.475
1922.15534	18118.275
1925.26322	18077.375
1928.36908	18033.975
1931.47292	17964.475
1934.57473	17963.875
1937.67453	17902.075
1940.77232	17876.475
1943.86808	17807.775
1946.96184	17781.975
1950.05358	17729.575
1953.14331	17695.475
1956.23103	17625.575
1959.31675	17570.375
1962.40046	17538.775
1965.48217	17421.975
1968.56188	17439.075
1971.63959	17373.775
1974.7153	17353.675
1977.78901	17285.875
1980.86073	17203.275
1983.93046	17189.075
1986.99819	17079.475
1990.06394	17054.375
1993.1277	17043.975
1996.18947	16952.275
1999.24925	16923.375
2002.30706	16863.175
2005.36288	16798.075
2008.41672	16786.075
2011.46859	16730.875
2014.51848	16660.075
2017.56639	16621.475
2020.61233	16581.475
2023.6563	16571.775
2026.6983	16554.475
2029.73833	16492.775
2032.7764	16419.675
2035.8125	16401.475
2038.84664	16354.875
2041.87881	16343.375
2044.90903	16320.775
2047.93729	16287.375
2050.96359	16233.375
2053.98794	16237.875
2057.01034	16196.575
2060.03078	16181.175
2063.04927	16193.675
2066.06582	16158.075
2069.08042	16193.275
2072.09307	16145.675
2075.10378	16144.575
2078.11255	16148.175
2081.11938	16165.775
2084.12426	16158.475
2087.12722	16130.875
2090.12824	16125.575
2093.12732	16148.975
2096.12447	16138.275
2099.11969	16117.375
2102.11299	16146.975
2105.10435	16115.475
2108.09379	16155.575
2111.08131	16151.675
2114.0669	16138.075
2117.05057	16186.275
2120.03233	16171.975
2123.01216	16182.075
2125.99008	16249.275
2128.96609	16239.975
2131.94018	16265.175
2134.91236	16229.875
2137.88263	16241.575
2140.851	16296.975
2143.81746	16277.775
2146.78201	16306.675
2149.74466	16278.375
2152.7054	16281.775
2155.66425	16285.775
2158.6212	16271.275
2161.57625	16274.575
2164.52941	16291.075
2167.48067	16241.475
2170.43004	16258.175
2173.37752	16230.575
2176.32311	16185.775
2179.26681	16185.675
2182.20863	16192.575
2185.14856	16229.975
2188.08661	16221.075
2191.02278	16211.775
2193.95707	16196.575
2196.88948	16172.775
2199.82001	16164.875
2202.74867	16111.075
2205.67545	16117.575
2208.60037	16092.675
2211.52341	16082.875
2214.44458	16035.475
2217.36388	15994.475
2220.28132	15974.275
2223.1969	15961.375
2226.11061	15938.675
2229.02246	15904.575
2231.93245	15908.475
2234.84058	15849.575
2237.74686	15828.175
2240.65128	15815.875
2243.55385	15811.775
2246.45456	15791.575
2249.35343	15767.775
2252.25044	15760.575
2255.14561	15679.575
2258.03893	15658.475
2260.93041	15645.075
2263.82004	15627.875
2266.70783	15607.775
2269.59378	15559.775
2272.4779	15531.375
2275.36017	15499.675
2278.24061	15449.875
2281.11922	15427.475
2283.996	15402.675
2286.87094	15396.975
2289.74405	15363.075
2292.61534	15339.475
2295.4848	15301.875
2298.35243	15319.475
2301.21824	15270.475
2304.08223	15287.275
2306.94439	15291.475
2309.80474	15242.475
2312.66327	15240.875
2315.51999	15198.075
2318.37489	15214.575
2321.22797	15172.775
2324.07925	15160.775
2326.92871	15136.775
2329.77637	15137.875
2332.62222	15149.975
2335.46626	15093.075
2338.3085	15047.175
2341.14893	15026.775
2343.98756	15068.375
2346.8244	15051.175
2349.65943	15048.475
2352.49267	15003.275
2355.32411	15023.575
2358.15376	15006.175
2360.98161	14988.675
2363.80768	14988.675
2366.63195	14984.775
2369.45444	14979.275
2372.27514	14948.975
2375.09405	14917.275
2377.91118	14943.575
2380.72652	14864.075
2383.54009	14855.375
2386.35187	14836.375
2389.16188	14794.575
2391.97011	14787.675
2394.77657	14748.175
2397.58125	14734.975
2400.38416	14712.575
2403.18529	14694.875
2405.98466	14671.075
2408.78226	14632.675
2411.57809	14604.575
2414.37216	14573.375
2417.16446	14594.775
2419.955	14573.875
2422.74378	14587.975
2425.5308	14567.875
2428.31606	14553.175
2431.09956	14550.975
2433.88131	14537.575
2436.6613	14563.975
2439.43954	14537.975
2442.21603	14522.075
2444.99077	14519.975
2447.76377	14505.975
2450.53501	14484.675
2453.30451	14505.975
2456.07226	14465.375
2458.83827	14433.375
2461.60254	14423.975
2464.36507	14398.975
2467.12586	14416.975
2469.88492	14382.975
2472.64224	14384.175
2475.39782	14378.975
2478.15167	14369.475
2480.90379	14380.975
2483.65417	14390.075
2486.40283	14377.675
2489.14976	14347.075
2491.89497	14339.475
2494.63845	14355.275
2497.3802	14317.975
2500.12024	14338.475
2502.85855	14328.975
2505.59514	14331.475
2508.33002	14330.375
2511.06318	14328.575
2513.79462	14285.175
2516.52435	14241.775
2519.25237	14265.675
2521.97867	14224.175
2524.70327	14227.175
2527.42616	14218.575
2530.14734	14186.975
2532.86681	14191.875
2535.58458	14169.175
2538.30065	14170.575
2541.01501	14162.775
2543.72768	14149.175
2546.43864	14094.975
2549.14791	14104.475
2551.85548	14097.875
2554.56136	14060.175
2557.26554	14028.375
2559.96803	13996.075
2562.66883	13992.775
2565.36794	13977.675
2568.06536	13949.575
2570.7611	13950.775
2573.45514	13896.775
2576.14751	13896.375
2578.83819	13854.075
2581.52719	13853.975
2584.21451	13847.675
2586.90015	13851.575
2589.58411	13794.275
2592.2664	13735.975
2594.94701	13753.775
2597.62594	13756.075
2600.30321	13717.075
2602.9788	13747.075
2605.65273	13699.375
2608.32498	13690.975
2610.99557	13652.375
2613.66449	13674.775
2616.33175	13611.675
2618.99734	13635.475
2621.66128	13602.575
2624.32355	13583.275
2626.98416	13557.575
2629.64311	13585.975
2632.30041	13590.175
2634.95605	13553.375
2637.61004	13542.775
2640.26238	13500.775
2642.91306	13487.575
2645.56209	13505.675
2648.20948	13491.175
2650.85521	13476.475
2653.4993	13502.875
2656.14175	13493.975
2658.78255	13513.975
2661.42171	13525.575
2664.05923	13494.775
2666.6951	13482.975
2669.32934	13499.175
2671.96194	13507.675
2674.59291	13531.775
2677.22224	13509.775
2679.84993	13527.975
2682.476	13515.075
2685.10043	13541.475
2687.72324	13521.575
2690.34441	13503.275
2692.96396	13509.375
2695.58188	13518.875
2698.19818	13496.375
2700.81285	13499.075
2703.4259	13459.175
2706.03733	13384.175
2708.64714	13406.875
2711.25533	13455.975
2713.86191	13497.775
2716.46687	13531.475
2719.07021	13526.275
2721.67194	13542.975
2724.27206	13533.675
2726.87057	13550.575
2729.46747	13536.075
2732.06276	13533.075
2734.65644	13531.675
2737.24852	13553.775
2739.83899	13507.175
2742.42786	13527.675
2745.01513	13511.775
2747.60079	13490.575
2750.18486	13446.075
2752.76733	13447.275
2755.3482	13425.475
2757.92747	13437.975
2760.50515	13403.975
2763.08123	13404.375
2765.65573	13381.575
2768.22863	13363.375
2770.79994	13340.175
2773.36967	13348.675
2775.9378	13320.575
2778.50435	13316.975
2781.06932	13300.975
2783.6327	13290.975
2786.1945	13309.775
2788.75471	13276.675
2791.31335	13258.375
2793.87041	13198.675
2796.42589	13184.875
2798.97979	13182.375
2801.53212	13149.975
2804.08288	13146.175
2806.63206	13105.075
2809.17967	13081.375
2811.72571	13040.875
2814.27018	13012.675
2816.81308	12989.775
2819.35442	12972.475
2821.89419	12961.875
2824.43239	12923.475
2826.96904	12904.775
2829.50412	12891.575
2832.03763	12855.775
2834.56959	12859.375
2837.1	12857.175
2839.62884	12853.975
2842.15613	12827.775
2844.68186	12797.775
2847.20604	12776.275
2849.72867	12777.375
2852.24974	12781.375
2854.76927	12792.475
2857.28724	12705.275
2859.80367	12736.675
2862.31855	12696.975
2864.83189	12694.575
2867.34368	12667.075
2869.85393	12696.275
2872.36264	12677.475
2874.8698	12684.775
2877.37543	12678.675
2879.87952	12654.675
2882.38207	12636.775
2884.88308	12655.175
2887.38256	12646.775
2889.88051	12653.175
2892.37692	12623.575
2894.8718	12613.775
2897.36515	12672.575
2899.85698	12646.375
2902.34727	12660.875
2904.83604	12686.975
2907.32328	12659.375
2909.809	12654.575
2912.29319	12678.775
2914.77587	12680.375
2917.25702	12651.575
2919.73665	12654.175
2922.21476	12649.775
2924.69136	12639.275
2927.16644	12628.375
2929.64	12611.375
2932.11205	12609.475
2934.58258	12572.675
2937.05161	12578.675
2939.51912	12553.775
2941.98513	12563.275
2944.44962	12541.175
2946.91261	12518.775
2949.37409	12554.775
2951.83407	12534.375
2954.29254	12513.375
2956.74951	12515.975
2959.20498	12476.575
2961.65895	12480.875
2964.11142	12514.475
2966.56239	12480.475
2969.01186	12482.975
2971.45984	12442.675
2973.90632	12437.875
2976.35131	12402.875
2978.7948	12392.775
2981.23681	12397.275
2983.67732	12338.775
2986.11635	12317.275
2988.55388	12284.475
2990.98993	12274.675
2993.4245	12273.575
2995.85758	12238.175
2998.28917	12212.175
3000.71928	12180.775
3003.14791	12117.475
3005.57506	12122.175
3008.00073	12102.575
3010.42493	12083.575
3012.84764	12045.275
3015.26888	12065.975
3017.68865	12033.675
3020.10694	12035.275
3022.52376	11988.675
3024.9391	11970.975
3027.35298	11958.375
3029.76539	11951.375
3032.17632	11949.575
3034.5858	11928.275
3036.9938	11896.675
3039.40034	11917.875
3041.80542	11877.475
3044.20903	11849.575
3046.61118	11883.575
3049.01187	11835.875
3051.4111	11834.775
3053.80888	11814.375
3056.20519	11772.075
3058.60005	11752.075
3060.99345	11746.475
3063.3854	11704.875
3065.7759	11683.575
3068.16494	11649.275
3070.55254	11605.775
3072.93868	11580.375
3075.32338	11555.075
3077.70662	11547.775
3080.08842	11525.375
3082.46878	11511.775
3084.84769	11477.175
3087.22515	11462.275
3089.60118	11450.075
3091.97576	11433.975
3094.3489	11452.275
3096.72061	11484.475
3099.09087	11473.275
3101.4597	11452.475
3103.82709	11431.975
3106.19305	11421.875
3108.55757	11396.375
3110.92066	11385.775
3113.28232	11347.575
3115.64255	11345.975
3118.00134	11285.375
3120.35871	11280.575
3122.71466	11265.275
3125.06917	11236.875
3127.42226	11203.775
