Data from AgNPs_FTO_APTES_UA_50uM_CRN_200uM_R6G_10uM_NaF_0.1M_Addition_RamanShift__13__16-09-35-078.txt Node

Date: Mon Feb 21 16:09:35 GMT 2022
User: TCL
Spectrometer: QEP01345
Trigger mode: 4
Integration Time (sec): 7.000000E0
Scans to average: 10
Electric dark correction enabled: true
Nonlinearity correction enabled: false
Boxcar width: 0
XAxis mode: Raman Shifts
Number of Pixels in Spectrum: 1044
>>>>>Begin Spectral Data<<<<<
46.04893	0.625
50.45542	0.225
54.85868	-0.075
59.25871	-1.475
63.6555	38.525
68.04907	45.425
72.43941	45.825
76.82654	49.625
81.21044	49.525
85.59113	55.025
89.96862	54.025
94.34289	57.225
98.71396	54.525
103.08183	64.825
107.4465	64.325
111.80798	64.425
116.16626	63.425
120.52136	64.725
124.87327	69.025
129.222	65.125
133.56755	70.825
137.90993	72.925
142.24913	78.925
146.58517	81.925
150.91804	97.725
155.24774	113.025
159.57429	130.725
163.89768	164.625
168.21792	220.825
172.53501	295.725
176.84895	412.525
181.15975	565.025
185.46741	795.025
189.77193	1100.325
194.07331	1474.225
198.37157	1899.025
202.6667	2354.925
206.9587	2813.425
211.24758	3265.225
215.53334	3696.525
219.81599	4171.225
224.09553	4655.925
228.37195	5225.425
232.64527	5860.025
236.91549	6479.825
241.18261	7130.125
245.44663	7770.425
249.70755	8320.825
253.96539	8812.325
258.22014	9215.325
262.4718	9531.725
266.72039	9727.325
270.96589	9849.825
275.20832	9853.725
279.44768	9761.325
283.68397	9642.125
287.91719	9472.525
292.14735	9368.125
296.37445	9354.325
300.59849	9349.525
304.81948	9363.425
309.03742	9366.925
313.25231	9335.825
317.46415	9178.225
321.67296	9042.525
325.87872	8864.225
330.08145	8840.725
334.28114	8838.825
338.47781	8915.425
342.67145	9007.325
346.86207	9171.125
351.04966	9325.725
355.23424	9495.825
359.4158	9671.525
363.59435	9793.225
367.76989	9904.725
371.94243	9982.225
376.11196	10026.325
380.27849	10068.725
384.44203	10111.825
388.60257	10184.425
392.76012	10254.225
396.91468	10360.125
401.06626	10485.725
405.21485	10583.825
409.36047	10539.825
413.50311	10401.125
417.64277	10266.225
421.77947	10186.725
425.9132	10147.125
430.04396	10171.725
434.17176	10246.625
438.2966	10358.825
442.41849	10450.025
446.53742	10587.225
450.6534	10767.525
454.76644	10868.825
458.87653	10933.825
462.98368	10956.425
467.08789	10953.725
471.18916	10910.325
475.2875	10784.225
479.38291	10715.925
483.4754	10646.025
487.56496	10590.625
491.6516	10530.725
495.73531	10527.925
499.81612	10508.925
503.89401	10593.925
507.96899	10630.625
512.04106	10703.925
516.11023	10733.525
520.1765	10728.125
524.23987	10718.525
528.30034	10662.225
532.35792	10617.325
536.41261	10581.025
540.46441	10522.425
544.51333	10493.625
548.55936	10525.925
552.60252	10622.625
556.64279	10751.525
560.6802	10782.325
564.71473	10806.925
568.7464	10869.125
572.7752	10946.925
576.80114	11011.325
580.82422	11065.025
584.84444	11207.725
588.86181	11276.625
592.87633	11360.325
596.888	11427.325
600.89682	11496.425
604.9028	11797.725
608.90594	12713.025
612.90624	13727.625
616.90371	13283.325
620.89834	11679.925
624.89015	10924.325
628.87913	10811.325
632.86528	10860.825
636.84862	10948.025
640.82913	10920.225
644.80683	10789.025
648.78172	10661.225
652.75379	10645.225
656.72306	10733.625
660.68952	10912.525
664.65319	10918.825
668.61405	10805.925
672.57211	10800.625
676.52738	10837.825
680.47986	10890.925
684.42955	10860.825
688.37646	10822.725
692.32058	10835.425
696.26192	10858.125
700.20048	10865.725
704.13626	10868.525
708.06928	10846.725
711.99952	10828.625
715.927	10786.825
719.85171	10782.325
723.77365	10794.525
727.69284	10774.525
731.60928	10709.225
735.52295	10721.825
739.43388	10693.125
743.34206	10716.125
747.24749	10732.425
751.15017	10768.325
755.05012	10846.925
758.94733	10976.325
762.8418	11322.225
766.73354	11906.925
770.62254	12570.525
774.50882	12868.125
778.39237	12602.525
782.27321	11932.625
786.15132	11361.225
790.02671	10998.725
793.89938	10789.025
797.76935	10687.525
801.6366	10650.825
805.50115	10612.525
809.36299	10547.025
813.22213	10532.725
817.07857	10486.125
820.93231	10501.625
824.78336	10493.325
828.63172	10514.025
832.47738	10470.525
836.32036	10472.025
840.16066	10464.625
843.99827	10463.125
847.8332	10451.625
851.66546	10459.025
855.49504	10504.525
859.32195	10500.825
863.1462	10484.825
866.96777	10498.425
870.78668	10484.225
874.60293	10500.825
878.41652	10514.925
882.22745	10554.125
886.03573	10579.125
889.84136	10566.425
893.64433	10563.225
897.44466	10534.725
901.24235	10520.225
905.0374	10510.925
908.8298	10487.625
912.61957	10462.625
916.40671	10468.625
920.19121	10509.325
923.97308	10553.325
927.75233	10553.425
931.52895	10535.725
935.30295	10485.525
939.07433	10385.725
942.84309	10307.725
946.60924	10248.025
950.37278	10194.025
954.13371	10201.925
957.89203	10168.625
961.64774	10164.025
965.40086	10136.925
969.15137	10123.925
972.89929	10091.825
976.64461	10063.025
980.38733	10091.425
984.12747	10068.925
987.86502	10084.925
991.59999	10124.325
995.33237	10140.025
999.06217	10228.825
1002.78939	10290.525
1006.51404	10358.425
1010.23611	10452.625
1013.95561	10538.725
1017.67255	10562.025
1021.38692	10528.925
1025.09872	10462.425
1028.80796	10401.825
1032.51465	10341.925
1036.21877	10338.425
1039.92035	10372.125
1043.61937	10389.825
1047.31584	10442.425
1051.00976	10460.725
1054.70114	10496.825
1058.38998	10521.525
1062.07627	10565.825
1065.76003	10628.825
1069.44126	10679.025
1073.11995	10757.425
1076.79611	10830.025
1080.46974	10895.025
1084.14085	10945.325
1087.80943	11009.925
1091.47549	11052.825
1095.13903	11025.325
1098.80005	10978.025
1102.45857	10893.825
1106.11456	10778.325
1109.76805	10733.825
1113.41903	10719.825
1117.06751	10774.825
1120.71348	10890.825
1124.35696	10992.125
1127.99793	11117.725
1131.63641	11177.525
1135.2724	11085.025
1138.90589	10986.925
1142.5369	10911.725
1146.16542	10834.325
1149.79145	10823.125
1153.415	10806.925
1157.03607	10830.425
1160.65467	10922.525
1164.27079	11112.425
1167.88443	11340.525
1171.49561	11665.625
1175.10432	12149.525
1178.71056	12792.325
1182.31434	13349.025
1185.91565	13685.825
1189.51451	13761.525
1193.11091	13611.925
1196.70485	13323.025
1200.29634	12974.025
1203.88538	12629.125
1207.47197	12253.225
1211.05612	11940.225
1214.63782	11677.325
1218.21708	11513.925
1221.79391	11438.525
1225.36829	11400.025
1228.94024	11344.725
1232.50976	11346.525
1236.07685	11340.625
1239.6415	11343.525
1243.20374	11366.125
1246.76355	11399.025
1250.32093	11435.525
1253.8759	11510.725
1257.42845	11650.325
1260.97859	11783.225
1264.52631	11940.625
1268.07163	12094.225
1271.61453	12260.325
1275.15503	12382.225
1278.69312	12484.425
1282.22882	12565.625
1285.76211	12710.925
1289.29301	12888.025
1292.82151	13034.625
1296.34761	13321.225
1299.87133	13657.925
1303.39266	14079.025
1306.9116	14614.125
1310.42815	15105.825
1313.94233	15389.325
1317.45412	15325.025
1320.96354	15062.525
1324.47058	14747.225
1327.97525	14410.725
1331.47754	14213.525
1334.97747	14163.525
1338.47502	14273.025
1341.97022	14487.125
1345.46305	14808.525
1348.95352	15166.725
1352.44163	15511.225
1355.92738	15949.825
1359.41078	16556.225
1362.89183	17071.225
1366.37053	16870.125
1369.84688	15686.925
1373.32088	14334.925
1376.79254	13325.425
1380.26186	12806.325
1383.72883	12494.325
1387.19347	12256.025
1390.65578	12055.125
1394.11575	11861.025
1397.57339	11816.025
1401.0287	11770.825
1404.48168	11739.425
1407.93234	11735.125
1411.38068	11741.925
1414.82669	11684.125
1418.27039	11546.225
1421.71177	11454.925
1425.15083	11309.225
1428.58758	11194.625
1432.02203	11134.825
1435.45416	11162.825
1438.88399	11230.025
1442.31151	11272.425
1445.73673	11302.025
1449.15965	11346.525
1452.58027	11391.425
1455.9986	11383.925
1459.41463	11460.125
1462.82837	11570.025
1466.23982	11716.725
1469.64898	11896.625
1473.05586	12033.225
1476.46045	12135.225
1479.86276	12223.625
1483.26279	12292.425
1486.66054	12366.825
1490.05602	12515.125
1493.44922	12806.925
1496.84016	13206.125
1500.22882	13821.725
1503.61521	14582.525
1506.99934	15323.625
1510.38121	15814.625
1513.76081	15762.525
1517.13816	15151.725
1520.51324	14356.425
1523.88607	13640.025
1527.25665	13144.825
1530.62498	12889.125
1533.99105	12750.025
1537.35488	12543.825
1540.71647	12407.525
1544.07581	12305.425
1547.4329	12203.925
1550.78776	12107.525
1554.14038	12026.725
1557.49077	12027.725
1560.83892	12068.225
1564.18484	12180.925
1567.52853	12292.225
1570.86999	12451.525
1574.20922	12537.825
1577.54624	12532.725
1580.88103	12337.025
1584.2136	12007.225
1587.54395	11848.925
1590.87208	11877.025
1594.19801	12105.825
1597.52172	12436.725
1600.84321	12630.925
1604.16251	12510.425
1607.47959	12263.625
1610.79447	11911.025
1614.10715	11478.825
1617.41763	11084.225
1620.7259	10765.725
1624.03199	10499.125
1627.33587	10394.725
1630.63757	10393.725
1633.93707	10545.925
1637.23439	10907.525
1640.52951	11420.925
1643.82246	12122.125
1647.11321	12884.325
1650.40179	13324.325
1653.68819	13110.125
1656.97241	12289.925
1660.25446	11283.725
1663.53433	10516.425
1666.81203	9998.025
1670.08756	9673.725
1673.36092	9468.425
1676.63211	9351.025
1679.90115	9249.825
1683.16801	9174.525
1686.43272	9116.625
1689.69527	9044.525
1692.95567	8955.125
1696.2139	8840.525
1699.46999	8709.525
1702.72392	8687.025
1705.97571	8737.325
1709.22535	8825.825
1712.47284	8875.825
1715.71819	8896.125
1718.96139	8889.925
1722.20246	8879.125
1725.44139	8866.525
1728.67818	8836.325
1731.91284	8798.225
1735.14537	8755.125
1738.37576	8713.525
1741.60403	8687.825
1744.83017	8637.525
1748.05418	8600.025
1751.27607	8587.925
1754.49584	8542.825
1757.71349	8509.925
1760.92903	8480.525
1764.14244	8473.825
1767.35375	8473.225
1770.56294	8432.325
1773.77002	8420.325
1776.97499	8428.225
1780.17785	8449.225
1783.37861	8457.825
1786.57727	8481.625
1789.77382	8458.425
1792.96828	8428.325
1796.16064	8428.725
1799.3509	8391.825
1802.53907	8368.825
1805.72514	8372.025
1808.90913	8341.125
1812.09102	8341.025
1815.27083	8304.925
1818.44856	8306.325
1821.6242	8272.525
1824.79776	8280.725
1827.96924	8262.925
1831.13864	8240.125
1834.30597	8239.525
1837.47122	8243.725
1840.6344	8234.525
1843.7955	8210.825
1846.95454	8211.725
1850.11151	8212.725
1853.26642	8189.625
1856.41926	8189.625
1859.57004	8180.425
1862.71876	8177.625
1865.86542	8144.625
1869.01003	8134.125
1872.15258	8132.525
1875.29308	8126.125
1878.43152	8096.425
1881.56792	8072.225
1884.70227	8083.825
1887.83457	8070.025
1890.96482	8051.325
1894.09304	8048.025
1897.21921	8045.025
1900.34335	8040.225
1903.46544	8006.825
1906.58551	7997.925
1909.70353	7989.225
1912.81953	7995.225
1915.93349	7974.025
1919.04543	7936.325
1922.15534	7941.025
1925.26322	7922.225
1928.36908	7894.925
1931.47292	7886.525
1934.57473	7871.025
1937.67453	7855.125
1940.77232	7831.925
1943.86808	7809.225
1946.96184	7825.925
1950.05358	7771.625
1953.14331	7750.325
1956.23103	7723.625
1959.31675	7698.625
1962.40046	7668.425
1965.48217	7658.225
1968.56188	7621.325
1971.63959	7594.525
1974.7153	7593.825
1977.78901	7550.325
1980.86073	7511.325
1983.93046	7513.725
1986.99819	7503.525
1990.06394	7458.425
1993.1277	7442.425
1996.18947	7420.925
1999.24925	7400.225
2002.30706	7367.025
2005.36288	7355.025
2008.41672	7335.525
2011.46859	7287.125
2014.51848	7271.225
2017.56639	7283.825
2020.61233	7275.025
2023.6563	7225.225
2026.6983	7200.125
2029.73833	7183.725
2032.7764	7155.025
2035.8125	7141.525
2038.84664	7129.625
2041.87881	7117.525
2044.90903	7104.625
2047.93729	7087.525
2050.96359	7082.125
2053.98794	7064.325
2057.01034	7061.125
2060.03078	7055.625
2063.04927	7037.425
2066.06582	7037.725
2069.08042	7016.525
2072.09307	7004.725
2075.10378	7006.725
2078.11255	7020.525
2081.11938	7009.525
2084.12426	7004.725
2087.12722	6999.625
2090.12824	6992.525
2093.12732	6984.725
2096.12447	6984.625
2099.11969	6993.625
2102.11299	6997.625
2105.10435	6981.425
2108.09379	6997.125
2111.08131	7000.825
2114.0669	6999.125
2117.05057	6989.325
2120.03233	6986.625
2123.01216	7014.325
2125.99008	7027.125
2128.96609	7034.125
2131.94018	7020.925
2134.91236	7027.425
2137.88263	7035.625
2140.851	7036.125
2143.81746	7025.825
2146.78201	7030.625
2149.74466	7007.925
2152.7054	7023.825
2155.66425	6999.525
2158.6212	7005.725
2161.57625	7015.125
2164.52941	7012.825
2167.48067	6992.125
2170.43004	6987.025
2173.37752	6991.025
2176.32311	6992.525
2179.26681	6983.525
2182.20863	6979.125
2185.14856	7000.625
2188.08661	6993.725
2191.02278	6978.625
2193.95707	6974.525
2196.88948	6966.725
2199.82001	6944.825
2202.74867	6941.225
2205.67545	6926.925
2208.60037	6924.725
2211.52341	6883.525
2214.44458	6896.425
2217.36388	6890.625
2220.28132	6877.725
2223.1969	6845.825
2226.11061	6834.525
2229.02246	6826.525
2231.93245	6830.225
2234.84058	6793.825
2237.74686	6812.125
2240.65128	6785.625
2243.55385	6762.925
2246.45456	6784.325
2249.35343	6768.125
2252.25044	6765.525
2255.14561	6740.825
2258.03893	6742.925
2260.93041	6725.925
2263.82004	6710.525
2266.70783	6702.925
2269.59378	6669.125
2272.4779	6640.025
2275.36017	6652.025
2278.24061	6639.325
2281.11922	6613.425
2283.996	6595.025
2286.87094	6599.725
2289.74405	6578.125
2292.61534	6569.525
2295.4848	6555.925
2298.35243	6543.825
2301.21824	6533.325
2304.08223	6529.725
2306.94439	6512.825
2309.80474	6524.325
2312.66327	6503.825
2315.51999	6492.125
2318.37489	6474.125
2321.22797	6476.925
2324.07925	6467.325
2326.92871	6464.825
2329.77637	6448.325
2332.62222	6452.425
2335.46626	6417.925
2338.3085	6419.125
2341.14893	6385.525
2343.98756	6403.125
2346.8244	6393.925
2349.65943	6374.125
2352.49267	6372.325
2355.32411	6366.325
2358.15376	6366.325
2360.98161	6365.625
2363.80768	6351.325
2366.63195	6366.225
2369.45444	6379.425
2372.27514	6380.925
2375.09405	6332.325
2377.91118	6348.725
2380.72652	6321.625
2383.54009	6298.825
2386.35187	6283.825
2389.16188	6275.325
2391.97011	6261.425
2394.77657	6233.725
2397.58125	6239.125
2400.38416	6232.425
2403.18529	6233.125
2405.98466	6203.825
2408.78226	6205.425
2411.57809	6188.925
2414.37216	6170.325
2417.16446	6158.825
2419.955	6148.525
2422.74378	6155.425
2425.5308	6130.225
2428.31606	6134.425
2431.09956	6148.125
2433.88131	6101.825
2436.6613	6120.725
2439.43954	6112.025
2442.21603	6111.525
2444.99077	6107.825
2447.76377	6096.625
2450.53501	6086.925
2453.30451	6094.425
2456.07226	6064.925
2458.83827	6074.925
2461.60254	6064.225
2464.36507	6053.625
2467.12586	6055.525
2469.88492	6043.125
2472.64224	6046.625
2475.39782	6026.825
2478.15167	6021.325
2480.90379	6011.025
2483.65417	6002.725
2486.40283	6016.925
2489.14976	6005.025
2491.89497	6007.125
2494.63845	6009.125
2497.3802	5997.625
2500.12024	6007.425
2502.85855	5997.925
2505.59514	5980.925
2508.33002	5973.825
2511.06318	5967.725
2513.79462	5950.625
2516.52435	5941.425
2519.25237	5939.125
2521.97867	5923.125
2524.70327	5905.125
2527.42616	5915.625
2530.14734	5894.825
2532.86681	5896.925
2535.58458	5899.725
2538.30065	5883.825
2541.01501	5868.725
2543.72768	5848.425
2546.43864	5833.725
2549.14791	5823.325
2551.85548	5828.025
2554.56136	5805.825
2557.26554	5795.725
2559.96803	5787.325
2562.66883	5798.625
2565.36794	5775.625
2568.06536	5770.825
2570.7611	5722.525
2573.45514	5736.725
2576.14751	5719.125
2578.83819	5723.625
2581.52719	5688.625
2584.21451	5683.225
2586.90015	5670.625
2589.58411	5660.525
2592.2664	5663.725
2594.94701	5637.525
2597.62594	5635.425
2600.30321	5640.825
2602.9788	5641.925
2605.65273	5642.825
2608.32498	5619.825
2610.99557	5606.725
2613.66449	5601.825
2616.33175	5582.925
2618.99734	5590.125
2621.66128	5584.025
2624.32355	5582.325
2626.98416	5565.625
2629.64311	5564.125
2632.30041	5535.125
2634.95605	5530.125
2637.61004	5505.625
2640.26238	5515.425
2642.91306	5504.225
2645.56209	5508.025
2648.20948	5491.125
2650.85521	5469.825
2653.4993	5478.725
2656.14175	5475.225
2658.78255	5472.025
2661.42171	5472.525
2664.05923	5488.625
2666.6951	5485.925
2669.32934	5494.425
2671.96194	5488.425
2674.59291	5474.525
2677.22224	5469.025
2679.84993	5489.025
2682.476	5469.325
2685.10043	5482.425
2687.72324	5467.325
2690.34441	5480.925
2692.96396	5465.925
2695.58188	5466.525
2698.19818	5460.125
2700.81285	5453.125
2703.4259	5442.525
2706.03733	5380.025
2708.64714	5413.425
2711.25533	5433.025
2713.86191	5427.025
2716.46687	5458.625
2719.07021	5453.925
2721.67194	5460.325
2724.27206	5453.825
2726.87057	5453.625
2729.46747	5460.925
2732.06276	5461.125
2734.65644	5444.025
2737.24852	5451.625
2739.83899	5444.825
2742.42786	5450.125
2745.01513	5432.325
2747.60079	5435.425
2750.18486	5402.125
2752.76733	5405.425
2755.3482	5390.225
2757.92747	5368.025
2760.50515	5373.425
2763.08123	5376.425
2765.65573	5353.325
2768.22863	5354.125
2770.79994	5313.225
2773.36967	5297.725
2775.9378	5317.125
2778.50435	5312.025
2781.06932	5300.825
2783.6327	5312.325
2786.1945	5298.125
2788.75471	5295.825
2791.31335	5283.525
2793.87041	5251.425
2796.42589	5272.225
2798.97979	5246.025
2801.53212	5225.125
2804.08288	5220.725
2806.63206	5204.925
2809.17967	5189.125
2811.72571	5194.825
2814.27018	5184.425
2816.81308	5183.025
2819.35442	5160.125
2821.89419	5162.625
2824.43239	5153.025
2826.96904	5141.325
2829.50412	5146.725
2832.03763	5148.025
2834.56959	5160.725
2837.1	5156.125
2839.62884	5157.025
2842.15613	5154.325
2844.68186	5167.525
2847.20604	5158.025
2849.72867	5158.125
2852.24974	5130.825
2854.76927	5119.825
2857.28724	5114.525
2859.80367	5131.025
2862.31855	5115.525
2864.83189	5125.725
2867.34368	5110.925
2869.85393	5112.525
2872.36264	5096.925
2874.8698	5104.425
2877.37543	5088.625
2879.87952	5096.425
2882.38207	5076.425
2884.88308	5092.325
2887.38256	5099.425
2889.88051	5092.225
2892.37692	5082.325
2894.8718	5079.125
2897.36515	5099.325
2899.85698	5075.225
2902.34727	5089.725
2904.83604	5091.225
2907.32328	5103.325
2909.809	5096.025
2912.29319	5096.025
2914.77587	5095.225
2917.25702	5099.825
2919.73665	5096.125
2922.21476	5114.025
2924.69136	5110.425
2927.16644	5107.925
2929.64	5087.125
2932.11205	5090.225
2934.58258	5067.325
2937.05161	5080.925
2939.51912	5076.125
2941.98513	5080.825
2944.44962	5064.625
2946.91261	5045.425
2949.37409	5049.325
2951.83407	5018.525
2954.29254	5024.725
2956.74951	5021.225
2959.20498	5011.725
2961.65895	5008.425
2964.11142	4980.825
2966.56239	4994.125
2969.01186	4989.725
2971.45984	4958.125
2973.90632	4970.725
2976.35131	4946.625
2978.7948	4954.025
2981.23681	4925.425
2983.67732	4916.325
2986.11635	4930.325
2988.55388	4914.525
2990.98993	4903.425
2993.4245	4903.825
2995.85758	4873.525
2998.28917	4850.025
3000.71928	4860.725
3003.14791	4857.625
3005.57506	4838.025
3008.00073	4833.225
3010.42493	4808.025
3012.84764	4808.525
3015.26888	4809.225
3017.68865	4783.525
3020.10694	4795.025
3022.52376	4784.325
3024.9391	4779.825
3027.35298	4775.325
3029.76539	4781.925
3032.17632	4763.725
3034.5858	4744.325
3036.9938	4763.525
3039.40034	4740.825
3041.80542	4727.425
3044.20903	4728.825
3046.61118	4727.325
3049.01187	4727.925
3051.4111	4718.125
3053.80888	4725.825
3056.20519	4715.625
3058.60005	4715.125
3060.99345	4687.925
3063.3854	4683.725
3065.7759	4683.425
3068.16494	4668.125
3070.55254	4650.425
3072.93868	4656.325
3075.32338	4640.525
3077.70662	4625.925
3080.08842	4619.025
3082.46878	4626.325
3084.84769	4603.825
3087.22515	4606.625
3089.60118	4614.025
3091.97576	4617.525
3094.3489	4613.825
3096.72061	4600.825
3099.09087	4622.825
3101.4597	4610.525
3103.82709	4617.625
3106.19305	4619.725
3108.55757	4631.525
3110.92066	4601.425
3113.28232	4582.725
3115.64255	4585.925
3118.00134	4597.225
3120.35871	4574.825
3122.71466	4570.425
3125.06917	4571.125
3127.42226	4560.425
3129.77393	4558.925
3132.12417	4565.925
3134.47299	4557.025
3136.82039	4567.325
3139.16636	4568.025
3141.51092	4558.225
3143.85406	4558.625
3146.19579	4579.225
3148.53609	4564.225
3150.87499	4576.925
3153.21246	4604.225
3155.54853	4608.225
3157.88318	4603.425
3160.21642	4618.925
3162.54826	4606.125
3164.87868	4600.525
3167.2077	4595.525
3169.5353	4610.725
3171.86151	4602.925
3174.18631	4607.425
3176.5097	4598.925
3178.83169	4597.725
3181.15228	4608.525
3183.47147	4587.325
3185.78926	4594.425
3188.10565	4589.425
3190.42065	4597.925
3192.73424	4586.125
3195.04645	4573.025
