Data from AgNPs_FTO_APTES_UA_50uM_CRN_50uM_R6G_10uM_NaF_0.1M_Addition_RamanShift__27__15-04-14-997.txt Node

Date: Mon Feb 21 15:04:14 GMT 2022
User: TCL
Spectrometer: QEP01345
Trigger mode: 4
Integration Time (sec): 7.000000E0
Scans to average: 10
Electric dark correction enabled: true
Nonlinearity correction enabled: false
Boxcar width: 0
XAxis mode: Raman Shifts
Number of Pixels in Spectrum: 1044
>>>>>Begin Spectral Data<<<<<
46.04893	-0.1875
50.45542	-0.1875
54.85868	0.1125
59.25871	-1.5875
63.6555	59.8125
68.04907	64.8125
72.43941	65.7125
76.82654	72.5125
81.21044	74.7125
85.59113	78.5125
89.96862	78.5125
94.34289	85.0125
98.71396	79.8125
103.08183	91.4125
107.4465	90.0125
111.80798	91.2125
116.16626	91.6125
120.52136	91.3125
124.87327	99.9125
129.222	101.3125
133.56755	103.8125
137.90993	116.8125
142.24913	118.8125
146.58517	132.7125
150.91804	151.9125
155.24774	179.5125
159.57429	216.5125
163.89768	275.2125
168.21792	365.8125
172.53501	489.2125
176.84895	687.8125
181.15975	953.4125
185.46741	1331.9125
189.77193	1846.6125
194.07331	2465.3125
198.37157	3182.5125
202.6667	3942.3125
206.9587	4704.1125
211.24758	5485.4125
215.53334	6287.4125
219.81599	7212.2125
224.09553	8253.2125
228.37195	9395.4125
232.64527	10643.5125
236.91549	11878.6125
241.18261	12963.4125
245.44663	13910.1125
249.70755	14664.5125
253.96539	15308.8125
258.22014	15893.1125
262.4718	16348.1125
266.72039	16636.5125
270.96589	16677.7125
275.20832	16481.8125
279.44768	16110.9125
283.68397	15753.7125
287.91719	15500.0125
292.14735	15530.5125
296.37445	15962.2125
300.59849	16730.6125
304.81948	17644.4125
309.03742	18271.7125
313.25231	18193.6125
317.46415	17278.4125
321.67296	15766.8125
325.87872	14566.8125
330.08145	14029.0125
334.28114	14021.0125
338.47781	14328.3125
342.67145	14784.2125
346.86207	15539.5125
351.04966	16631.2125
355.23424	17818.0125
359.4158	18734.1125
363.59435	19152.4125
367.76989	19279.5125
371.94243	19221.4125
376.11196	19086.2125
380.27849	18951.4125
384.44203	18695.5125
388.60257	18369.9125
392.76012	18155.9125
396.91468	18228.3125
401.06626	18692.3125
405.21485	19004.1125
409.36047	18577.4125
413.50311	17432.0125
417.64277	16275.6125
421.77947	15625.7125
425.9132	15309.8125
430.04396	15217.2125
434.17176	15333.2125
438.2966	15537.0125
442.41849	16005.6125
446.53742	16512.4125
450.6534	17029.4125
454.76644	17362.0125
458.87653	17416.7125
462.98368	17228.0125
467.08789	16912.8125
471.18916	16490.3125
475.2875	16081.2125
479.38291	15687.8125
483.4754	15393.5125
487.56496	15140.8125
491.6516	14983.4125
495.73531	14918.9125
499.81612	14942.8125
503.89401	15188.6125
507.96899	15458.2125
512.04106	15767.9125
516.11023	16154.0125
520.1765	16375.8125
524.23987	16364.0125
528.30034	16083.0125
532.35792	15762.6125
536.41261	15406.6125
540.46441	15076.0125
544.51333	14844.5125
548.55936	14889.6125
552.60252	15266.9125
556.64279	15658.8125
560.6802	15865.8125
564.71473	16166.0125
568.7464	16900.9125
572.7752	17228.8125
576.80114	16566.5125
580.82422	15818.2125
584.84444	15545.1125
588.86181	15617.4125
592.87633	15824.8125
596.888	16131.6125
600.89682	16794.5125
604.9028	19090.8125
608.90594	25415.0125
612.90624	33661.0125
616.90371	31872.6125
620.89834	21479.7125
624.89015	16711.0125
628.87913	15916.8125
632.86528	16059.8125
636.84862	16341.6125
640.82913	15986.1125
644.80683	15114.7125
648.78172	14424.4125
652.75379	14416.9125
656.72306	15139.5125
660.68952	15996.4125
664.65319	15757.7125
668.61405	14867.5125
672.57211	14459.3125
676.52738	14466.9125
680.47986	14456.7125
684.42955	14267.3125
688.37646	14169.6125
692.32058	14136.5125
696.26192	14283.3125
700.20048	14447.0125
704.13626	14561.8125
708.06928	14472.5125
711.99952	14303.0125
715.927	14288.1125
719.85171	14423.0125
723.77365	14510.2125
727.69284	14402.3125
731.60928	14317.3125
735.52295	14311.8125
739.43388	14347.8125
743.34206	14442.0125
747.24749	14471.5125
751.15017	14545.0125
755.05012	14780.5125
758.94733	15642.7125
762.8418	17667.7125
766.73354	21185.3125
770.62254	24818.6125
774.50882	26768.7125
778.39237	25523.8125
782.27321	21620.0125
786.15132	17899.5125
790.02671	15773.5125
793.89938	14854.7125
797.76935	14457.7125
801.6366	14331.4125
805.50115	14236.5125
809.36299	14186.0125
813.22213	14093.4125
817.07857	14072.8125
820.93231	14047.9125
824.78336	14072.4125
828.63172	14144.9125
832.47738	14140.9125
836.32036	14135.5125
840.16066	14098.1125
843.99827	14050.9125
847.8332	13996.6125
851.66546	13980.1125
855.49504	13932.4125
859.32195	13927.9125
863.1462	13868.3125
866.96777	13823.9125
870.78668	13828.4125
874.60293	13833.5125
878.41652	13915.7125
882.22745	14022.9125
886.03573	14121.5125
889.84136	14074.1125
893.64433	13957.6125
897.44466	13942.5125
901.24235	13933.8125
905.0374	13844.3125
908.8298	13729.4125
912.61957	13658.9125
916.40671	13718.7125
920.19121	13825.5125
923.97308	14021.6125
927.75233	14277.2125
931.52895	14533.8125
935.30295	14424.5125
939.07433	13947.7125
942.84309	13522.2125
946.60924	13281.6125
950.37278	13141.1125
954.13371	13057.3125
957.89203	12984.8125
961.64774	12954.7125
965.40086	12873.6125
969.15137	12809.3125
972.89929	12802.2125
976.64461	12771.0125
980.38733	12782.9125
984.12747	12834.4125
987.86502	12961.5125
991.59999	13105.2125
995.33237	13351.6125
999.06217	13842.3125
1002.78939	14351.0125
1006.51404	14701.0125
1010.23611	15017.0125
1013.95561	15206.5125
1017.67255	15195.6125
1021.38692	15000.1125
1025.09872	14794.1125
1028.80796	14844.5125
1032.51465	15258.5125
1036.21877	15669.0125
1039.92035	15786.9125
1043.61937	15615.7125
1047.31584	15290.9125
1051.00976	14872.3125
1054.70114	14568.1125
1058.38998	14453.7125
1062.07627	14469.9125
1065.76003	14452.2125
1069.44126	14497.9125
1073.11995	14584.1125
1076.79611	14818.1125
1080.46974	15180.2125
1084.14085	15731.8125
1087.80943	16254.4125
1091.47549	16437.4125
1095.13903	16053.0125
1098.80005	15461.6125
1102.45857	15008.9125
1106.11456	14910.2125
1109.76805	15159.7125
1113.41903	15682.8125
1117.06751	16465.0125
1120.71348	17425.9125
1124.35696	18399.0125
1127.99793	19091.0125
1131.63641	18749.1125
1135.2724	17626.0125
1138.90589	16619.9125
1142.5369	15978.9125
1146.16542	15495.7125
1149.79145	15238.9125
1153.415	15159.4125
1157.03607	15330.7125
1160.65467	15677.6125
1164.27079	16318.3125
1167.88443	17348.8125
1171.49561	18897.8125
1175.10432	21449.4125
1178.71056	24958.6125
1182.31434	27909.9125
1185.91565	28751.5125
1189.51451	27658.3125
1193.11091	25439.1125
1196.70485	23039.7125
1200.29634	21455.7125
1203.88538	20338.9125
1207.47197	19017.3125
1211.05612	17879.8125
1214.63782	17169.1125
1218.21708	16966.6125
1221.79391	17008.9125
1225.36829	17064.2125
1228.94024	16987.6125
1232.50976	16818.9125
1236.07685	16682.1125
1239.6415	16650.9125
1243.20374	16763.3125
1246.76355	16952.6125
1250.32093	17253.9125
1253.8759	17715.7125
1257.42845	18357.0125
1260.97859	19031.5125
1264.52631	19732.1125
1268.07163	20413.3125
1271.61453	21132.9125
1275.15503	21696.5125
1278.69312	22061.5125
1282.22882	22364.8125
1285.76211	22913.4125
1289.29301	23672.7125
1292.82151	24511.4125
1296.34761	25527.7125
1299.87133	27227.6125
1303.39266	30174.2125
1306.9116	34560.2125
1310.42815	39012.8125
1313.94233	40643.5125
1317.45412	38454.8125
1320.96354	34641.9125
1324.47058	31029.9125
1327.97525	28130.7125
1331.47754	26504.1125
1334.97747	25969.3125
1338.47502	26328.2125
1341.97022	27432.4125
1345.46305	29067.3125
1348.95352	31157.0125
1352.44163	33914.0125
1355.92738	38199.5125
1359.41078	44844.4125
1362.89183	50501.9125
1366.37053	47617.0125
1369.84688	38673.9125
1373.32088	30884.1125
1376.79254	26281.0125
1380.26186	23849.6125
1383.72883	22540.3125
1387.19347	21550.9125
1390.65578	20651.6125
1394.11575	20019.4125
1397.57339	19813.1125
1401.0287	20002.1125
1404.48168	20263.6125
1407.93234	20546.0125
1411.38068	20859.8125
1414.82669	20994.7125
1418.27039	20818.1125
1421.71177	20420.7125
1425.15083	19885.6125
1428.58758	19673.6125
1432.02203	19831.3125
1435.45416	20097.1125
1438.88399	20142.7125
1442.31151	20194.7125
1445.73673	20368.6125
1449.15965	20547.0125
1452.58027	20538.9125
1455.9986	20369.5125
1459.41463	20287.8125
1462.82837	20592.7125
1466.23982	21125.3125
1469.64898	21716.6125
1473.05586	22053.1125
1476.46045	22261.6125
1479.86276	22543.3125
1483.26279	23023.8125
1486.66054	23641.5125
1490.05602	24585.1125
1493.44922	25898.3125
1496.84016	27991.4125
1500.22882	31293.3125
1503.61521	36243.6125
1506.99934	42011.0125
1510.38121	46573.0125
1513.76081	47106.0125
1517.13816	42845.6125
1520.51324	36182.8125
1523.88607	30347.1125
1527.25665	26647.4125
1530.62498	24588.9125
1533.99105	23387.0125
1537.35488	22644.9125
1540.71647	22276.6125
1544.07581	22198.0125
1547.4329	22259.8125
1550.78776	22371.6125
1554.14038	22559.7125
1557.49077	22817.3125
1560.83892	23334.2125
1564.18484	24097.3125
1567.52853	24913.6125
1570.86999	25564.3125
1574.20922	25853.1125
1577.54624	25565.0125
1580.88103	24033.4125
1584.2136	22188.6125
1587.54395	21319.8125
1590.87208	21763.4125
1594.19801	23308.8125
1597.52172	25296.5125
1600.84321	26174.0125
1604.16251	25205.1125
1607.47959	23395.7125
1610.79447	21377.3125
1614.10715	19478.7125
1617.41763	18049.7125
1620.7259	17134.0125
1624.03199	16782.8125
1627.33587	16943.4125
1630.63757	17496.3125
1633.93707	18578.7125
1637.23439	20257.1125
1640.52951	22680.8125
1643.82246	26128.1125
1647.11321	30070.8125
1650.40179	32533.4125
1653.68819	30956.2125
1656.97241	26091.6125
1660.25446	21141.0125
1663.53433	17821.6125
1666.81203	15965.7125
1670.08756	14883.1125
1673.36092	14267.5125
1676.63211	13873.1125
1679.90115	13564.2125
1683.16801	13317.5125
1686.43272	13172.7125
1689.69527	13016.3125
1692.95567	12859.9125
1696.2139	12734.1125
1699.46999	12594.9125
1702.72392	12542.8125
1705.97571	12632.7125
1709.22535	12684.8125
1712.47284	12762.7125
1715.71819	12789.1125
1718.96139	12770.8125
1722.20246	12717.0125
1725.44139	12673.7125
1728.67818	12581.7125
1731.91284	12461.0125
1735.14537	12398.7125
1738.37576	12364.0125
1741.60403	12292.6125
1744.83017	12259.7125
1748.05418	12193.1125
1751.27607	12186.6125
1754.49584	12095.7125
1757.71349	12026.6125
1760.92903	11936.3125
1764.14244	11907.7125
1767.35375	11907.2125
1770.56294	11879.1125
1773.77002	11837.0125
1776.97499	11853.6125
1780.17785	11878.6125
1783.37861	11887.7125
1786.57727	11877.4125
1789.77382	11884.4125
1792.96828	11890.1125
1796.16064	11863.0125
1799.3509	11873.6125
1802.53907	11823.9125
1805.72514	11800.0125
1808.90913	11752.0125
1812.09102	11743.2125
1815.27083	11716.0125
1818.44856	11705.6125
1821.6242	11678.9125
1824.79776	11660.6125
1827.96924	11648.9125
1831.13864	11608.8125
1834.30597	11617.6125
1837.47122	11624.1125
1840.6344	11581.7125
1843.7955	11579.2125
1846.95454	11557.0125
1850.11151	11582.5125
1853.26642	11558.3125
1856.41926	11558.2125
1859.57004	11560.1125
1862.71876	11557.6125
1865.86542	11584.7125
1869.01003	11572.9125
1872.15258	11573.7125
1875.29308	11586.7125
1878.43152	11591.4125
1881.56792	11572.5125
1884.70227	11567.5125
1887.83457	11593.2125
1890.96482	11554.4125
1894.09304	11554.5125
1897.21921	11539.1125
1900.34335	11560.7125
1903.46544	11556.5125
1906.58551	11559.3125
1909.70353	11540.0125
1912.81953	11553.8125
1915.93349	11542.1125
1919.04543	11518.2125
1922.15534	11524.6125
1925.26322	11485.1125
1928.36908	11452.9125
1931.47292	11416.6125
1934.57473	11383.7125
1937.67453	11344.9125
1940.77232	11319.3125
1943.86808	11277.0125
1946.96184	11256.9125
1950.05358	11205.4125
1953.14331	11156.6125
1956.23103	11125.5125
1959.31675	11092.1125
1962.40046	11097.3125
1965.48217	11068.5125
1968.56188	11047.5125
1971.63959	11029.7125
1974.7153	11009.9125
1977.78901	10958.1125
1980.86073	10937.9125
1983.93046	10866.5125
1986.99819	10833.9125
1990.06394	10793.6125
1993.1277	10771.3125
1996.18947	10721.4125
1999.24925	10683.4125
2002.30706	10648.1125
2005.36288	10638.8125
2008.41672	10595.7125
2011.46859	10560.7125
2014.51848	10539.4125
2017.56639	10498.5125
2020.61233	10477.7125
2023.6563	10459.4125
2026.6983	10440.1125
2029.73833	10407.9125
2032.7764	10382.3125
2035.8125	10372.7125
2038.84664	10387.2125
2041.87881	10378.2125
2044.90903	10348.7125
2047.93729	10337.4125
2050.96359	10329.0125
2053.98794	10313.9125
2057.01034	10293.3125
2060.03078	10283.6125
2063.04927	10282.0125
2066.06582	10270.3125
2069.08042	10239.7125
2072.09307	10250.4125
2075.10378	10221.4125
2078.11255	10204.6125
2081.11938	10218.9125
2084.12426	10203.6125
2087.12722	10199.6125
2090.12824	10188.9125
2093.12732	10208.0125
2096.12447	10188.5125
2099.11969	10189.7125
2102.11299	10205.1125
2105.10435	10206.1125
2108.09379	10211.0125
2111.08131	10212.6125
2114.0669	10208.1125
2117.05057	10219.9125
2120.03233	10228.9125
2123.01216	10281.0125
2125.99008	10287.5125
2128.96609	10289.1125
2131.94018	10299.4125
2134.91236	10293.7125
2137.88263	10297.2125
2140.851	10299.2125
2143.81746	10299.0125
2146.78201	10280.0125
2149.74466	10298.7125
2152.7054	10288.2125
2155.66425	10262.0125
2158.6212	10263.2125
2161.57625	10243.5125
2164.52941	10251.4125
2167.48067	10226.8125
2170.43004	10235.7125
2173.37752	10263.1125
2176.32311	10259.9125
2179.26681	10266.3125
2182.20863	10276.4125
2185.14856	10274.3125
2188.08661	10271.3125
2191.02278	10252.9125
2193.95707	10264.5125
2196.88948	10241.1125
2199.82001	10259.2125
2202.74867	10255.6125
2205.67545	10281.3125
2208.60037	10234.8125
2211.52341	10239.0125
2214.44458	10248.3125
2217.36388	10199.4125
2220.28132	10210.1125
2223.1969	10211.2125
2226.11061	10161.2125
2229.02246	10131.6125
2231.93245	10144.1125
2234.84058	10103.1125
2237.74686	10084.8125
2240.65128	10082.9125
2243.55385	10078.7125
2246.45456	10085.4125
2249.35343	10053.8125
2252.25044	10063.5125
2255.14561	10063.9125
2258.03893	10059.7125
2260.93041	10045.8125
2263.82004	10038.2125
2266.70783	10045.7125
2269.59378	9986.1125
2272.4779	9979.6125
2275.36017	9945.4125
2278.24061	9933.9125
2281.11922	9897.1125
2283.996	9887.1125
2286.87094	9880.2125
2289.74405	9876.2125
2292.61534	9866.8125
2295.4848	9826.4125
2298.35243	9838.1125
2301.21824	9838.7125
2304.08223	9856.8125
2306.94439	9863.2125
2309.80474	9850.8125
2312.66327	9867.5125
2315.51999	9865.9125
2318.37489	9859.0125
2321.22797	9839.4125
2324.07925	9834.3125
2326.92871	9853.9125
2329.77637	9836.7125
2332.62222	9819.5125
2335.46626	9819.8125
2338.3085	9806.3125
2341.14893	9825.6125
2343.98756	9851.5125
2346.8244	9852.8125
2349.65943	9890.9125
2352.49267	9901.2125
2355.32411	9914.1125
2358.15376	9899.0125
2360.98161	9902.7125
2363.80768	9904.3125
2366.63195	9903.1125
2369.45444	9887.5125
2372.27514	9881.6125
2375.09405	9855.8125
2377.91118	9829.8125
2380.72652	9802.4125
2383.54009	9758.2125
2386.35187	9716.3125
2389.16188	9649.5125
2391.97011	9655.6125
2394.77657	9652.4125
2397.58125	9615.3125
2400.38416	9602.9125
2403.18529	9597.4125
2405.98466	9579.2125
2408.78226	9515.3125
2411.57809	9492.1125
2414.37216	9477.2125
2417.16446	9485.6125
2419.955	9482.7125
2422.74378	9491.1125
2425.5308	9479.4125
2428.31606	9477.4125
2431.09956	9468.7125
2433.88131	9455.6125
2436.6613	9465.1125
2439.43954	9479.3125
2442.21603	9470.9125
2444.99077	9482.7125
2447.76377	9513.2125
2450.53501	9485.5125
2453.30451	9520.9125
2456.07226	9475.0125
2458.83827	9483.2125
2461.60254	9477.8125
2464.36507	9479.7125
2467.12586	9476.3125
2469.88492	9494.2125
2472.64224	9492.6125
2475.39782	9499.7125
2478.15167	9499.9125
2480.90379	9549.4125
2483.65417	9571.7125
2486.40283	9576.2125
2489.14976	9603.2125
2491.89497	9613.5125
2494.63845	9642.3125
2497.3802	9615.0125
2500.12024	9604.0125
2502.85855	9603.8125
2505.59514	9547.7125
2508.33002	9514.6125
2511.06318	9475.5125
2513.79462	9447.0125
2516.52435	9418.4125
2519.25237	9388.6125
2521.97867	9375.4125
2524.70327	9363.4125
2527.42616	9362.3125
2530.14734	9347.9125
2532.86681	9350.8125
2535.58458	9355.4125
2538.30065	9342.6125
2541.01501	9364.4125
2543.72768	9344.3125
2546.43864	9347.6125
2549.14791	9326.8125
2551.85548	9324.3125
2554.56136	9321.1125
2557.26554	9336.8125
2559.96803	9319.5125
2562.66883	9317.1125
2565.36794	9300.7125
2568.06536	9304.4125
2570.7611	9269.7125
2573.45514	9271.3125
2576.14751	9302.0125
2578.83819	9258.2125
2581.52719	9260.4125
2584.21451	9228.4125
2586.90015	9225.0125
2589.58411	9207.5125
2592.2664	9222.1125
2594.94701	9203.2125
2597.62594	9232.7125
2600.30321	9208.9125
2602.9788	9211.3125
2605.65273	9216.1125
2608.32498	9211.4125
2610.99557	9227.0125
2613.66449	9217.7125
2616.33175	9228.8125
2618.99734	9262.5125
2621.66128	9233.8125
2624.32355	9251.8125
2626.98416	9243.2125
2629.64311	9241.3125
2632.30041	9231.5125
2634.95605	9189.8125
2637.61004	9172.3125
2640.26238	9138.7125
2642.91306	9141.5125
2645.56209	9129.8125
2648.20948	9132.6125
2650.85521	9088.4125
2653.4993	9117.2125
2656.14175	9091.0125
2658.78255	9099.9125
2661.42171	9133.0125
2664.05923	9130.3125
2666.6951	9177.4125
2669.32934	9197.3125
2671.96194	9185.9125
2674.59291	9177.3125
2677.22224	9206.3125
2679.84993	9198.9125
2682.476	9173.3125
2685.10043	9153.1125
2687.72324	9156.4125
2690.34441	9167.9125
2692.96396	9162.7125
2695.58188	9134.2125
2698.19818	9142.2125
2700.81285	9130.9125
2703.4259	9105.7125
2706.03733	9035.4125
2708.64714	9078.4125
2711.25533	9126.0125
2713.86191	9131.9125
2716.46687	9142.3125
2719.07021	9155.0125
2721.67194	9194.8125
2724.27206	9168.3125
2726.87057	9172.0125
2729.46747	9173.1125
2732.06276	9165.7125
2734.65644	9157.8125
2737.24852	9163.0125
2739.83899	9132.2125
2742.42786	9133.3125
2745.01513	9121.7125
2747.60079	9125.6125
2750.18486	9101.9125
2752.76733	9112.8125
2755.3482	9099.5125
2757.92747	9079.6125
2760.50515	9086.7125
2763.08123	9094.2125
2765.65573	9076.8125
2768.22863	9044.2125
2770.79994	9064.5125
2773.36967	9054.6125
2775.9378	9045.0125
2778.50435	9006.6125
2781.06932	9030.2125
2783.6327	9070.6125
2786.1945	9061.4125
2788.75471	9077.1125
2791.31335	9010.9125
2793.87041	9049.6125
2796.42589	9015.0125
2798.97979	9008.8125
2801.53212	8991.4125
2804.08288	9005.7125
2806.63206	8991.2125
2809.17967	8990.9125
2811.72571	8994.6125
2814.27018	8970.0125
2816.81308	9008.1125
2819.35442	9001.8125
2821.89419	9012.1125
2824.43239	9019.8125
2826.96904	9021.1125
2829.50412	9019.3125
2832.03763	8991.7125
2834.56959	9006.7125
2837.1	8995.1125
2839.62884	8982.8125
2842.15613	8977.5125
2844.68186	9018.1125
2847.20604	9023.2125
2849.72867	9007.0125
2852.24974	9005.2125
2854.76927	9005.7125
2857.28724	8996.8125
2859.80367	9022.6125
2862.31855	9007.6125
2864.83189	9009.4125
2867.34368	8998.9125
2869.85393	9026.2125
2872.36264	9021.2125
2874.8698	9039.5125
2877.37543	9018.4125
2879.87952	9015.6125
2882.38207	8994.5125
2884.88308	9000.6125
2887.38256	9001.1125
2889.88051	8986.6125
2892.37692	8998.6125
2894.8718	8997.5125
2897.36515	9014.8125
2899.85698	9008.3125
2902.34727	9030.2125
2904.83604	9019.1125
2907.32328	9030.5125
2909.809	9036.8125
2912.29319	9047.5125
2914.77587	9054.5125
2917.25702	9041.7125
2919.73665	9034.8125
2922.21476	9024.5125
2924.69136	9016.8125
2927.16644	8992.4125
2929.64	8958.6125
2932.11205	8956.6125
2934.58258	8913.1125
2937.05161	8929.5125
2939.51912	8929.1125
2941.98513	8921.0125
2944.44962	8878.8125
2946.91261	8876.7125
2949.37409	8893.1125
2951.83407	8887.2125
2954.29254	8872.0125
2956.74951	8851.9125
2959.20498	8843.1125
2961.65895	8822.4125
2964.11142	8820.4125
2966.56239	8797.9125
2969.01186	8780.0125
2971.45984	8740.8125
2973.90632	8734.6125
2976.35131	8731.4125
2978.7948	8698.0125
2981.23681	8688.7125
2983.67732	8664.9125
2986.11635	8637.3125
2988.55388	8611.1125
2990.98993	8619.8125
2993.4245	8624.9125
2995.85758	8605.0125
2998.28917	8561.8125
3000.71928	8565.2125
3003.14791	8548.8125
3005.57506	8539.2125
3008.00073	8539.3125
3010.42493	8548.6125
3012.84764	8533.6125
3015.26888	8530.2125
3017.68865	8499.6125
3020.10694	8510.5125
3022.52376	8450.7125
3024.9391	8460.5125
3027.35298	8425.9125
3029.76539	8418.3125
3032.17632	8407.7125
3034.5858	8389.9125
3036.9938	8406.8125
3039.40034	8383.7125
3041.80542	8355.9125
3044.20903	8333.8125
3046.61118	8335.4125
3049.01187	8317.8125
3051.4111	8309.6125
3053.80888	8290.1125
3056.20519	8300.7125
3058.60005	8262.2125
