Data from AgNPs_FTO_APTES_UA_50uM_CRN_2uM_R6G_10uM_NaF_0.1M_Addition_RamanShift__15__12-11-34-777.txt Node

Date: Mon Feb 21 12:11:34 GMT 2022
User: TCL
Spectrometer: QEP01345
Trigger mode: 4
Integration Time (sec): 7.000000E0
Scans to average: 10
Electric dark correction enabled: true
Nonlinearity correction enabled: false
Boxcar width: 0
XAxis mode: Raman Shifts
Number of Pixels in Spectrum: 1044
>>>>>Begin Spectral Data<<<<<
46.04893	-0.0625
50.45542	-0.7625
54.85868	-2.0625
59.25871	-2.2625
63.6555	77.3375
68.04907	81.0375
72.43941	85.4375
76.82654	88.2375
81.21044	93.2375
85.59113	98.2375
89.96862	97.1375
94.34289	104.4375
98.71396	103.7375
103.08183	112.0375
107.4465	113.5375
111.80798	114.6375
116.16626	115.4375
120.52136	117.0375
124.87327	127.7375
129.222	127.7375
133.56755	136.8375
137.90993	148.5375
142.24913	158.6375
146.58517	177.9375
150.91804	206.9375
155.24774	244.2375
159.57429	303.1375
163.89768	386.7375
168.21792	520.8375
172.53501	706.3375
176.84895	1000.1375
181.15975	1401.2375
185.46741	1955.2375
189.77193	2727.2375
194.07331	3625.9375
198.37157	4694.2375
202.6667	5819.3375
206.9587	6899.4375
211.24758	7966.7375
215.53334	9071.1375
219.81599	10241.3375
224.09553	11544.8375
228.37195	12961.9375
232.64527	14504.4375
236.91549	16178.9375
241.18261	17778.8375
245.44663	19264.8375
249.70755	20582.9375
253.96539	21709.1375
258.22014	22642.3375
262.4718	23474.7375
266.72039	24028.1375
270.96589	24342.3375
275.20832	24341.2375
279.44768	24148.5375
283.68397	23852.5375
287.91719	23643.9375
292.14735	23471.3375
296.37445	23505.9375
300.59849	23701.0375
304.81948	23941.9375
309.03742	24085.6375
313.25231	23949.9375
317.46415	23376.7375
321.67296	22625.7375
325.87872	21967.4375
330.08145	21690.2375
334.28114	21688.4375
338.47781	21861.5375
342.67145	22150.2375
346.86207	22633.3375
351.04966	23188.2375
355.23424	23873.0375
359.4158	24445.9375
363.59435	24843.8375
367.76989	24992.6375
371.94243	25164.4375
376.11196	25218.5375
380.27849	25254.0375
384.44203	25321.5375
388.60257	25433.3375
392.76012	25544.6375
396.91468	25785.2375
401.06626	26192.9375
405.21485	26461.8375
409.36047	26322.4375
413.50311	25790.1375
417.64277	25287.4375
421.77947	25070.8375
425.9132	24995.4375
430.04396	25081.0375
434.17176	25182.3375
438.2966	25359.0375
442.41849	25713.3375
446.53742	26307.3375
450.6534	26934.4375
454.76644	27363.1375
458.87653	27598.4375
462.98368	27571.4375
467.08789	27369.0375
471.18916	27073.2375
475.2875	26789.3375
479.38291	26529.0375
483.4754	26331.3375
487.56496	26132.8375
491.6516	25841.4375
495.73531	25589.4375
499.81612	25476.8375
503.89401	25533.4375
507.96899	25723.9375
512.04106	25736.5375
516.11023	25710.3375
520.1765	25610.6375
524.23987	25426.7375
528.30034	25240.2375
532.35792	25042.7375
536.41261	24788.2375
540.46441	24576.9375
544.51333	24509.6375
548.55936	24704.0375
552.60252	25140.6375
556.64279	25646.9375
560.6802	26022.5375
564.71473	26319.2375
568.7464	26805.2375
572.7752	27427.4375
576.80114	27726.5375
580.82422	27860.2375
584.84444	28139.6375
588.86181	28430.9375
592.87633	28650.7375
596.888	28566.8375
600.89682	28480.3375
604.9028	29478.1375
608.90594	32777.4375
612.90624	36577.6375
616.90371	34760.4375
620.89834	28577.8375
624.89015	25768.5375
628.87913	25286.1375
632.86528	25478.1375
636.84862	25659.5375
640.82913	25412.7375
644.80683	24760.0375
648.78172	24273.9375
652.75379	24183.1375
656.72306	24594.7375
660.68952	25158.9375
664.65319	25032.7375
668.61405	24541.6375
672.57211	24425.9375
676.52738	24518.3375
680.47986	24491.6375
684.42955	24341.7375
688.37646	24254.6375
692.32058	24353.9375
696.26192	24646.9375
700.20048	24879.1375
704.13626	25031.1375
708.06928	24993.7375
711.99952	24831.4375
715.927	24772.8375
719.85171	24855.9375
723.77365	24821.1375
727.69284	24601.3375
731.60928	24291.7375
735.52295	24178.6375
739.43388	24181.6375
743.34206	24218.4375
747.24749	24280.5375
751.15017	24476.7375
755.05012	24775.8375
758.94733	25417.3375
762.8418	26796.0375
766.73354	29095.2375
770.62254	31289.2375
774.50882	32042.0375
778.39237	30851.6375
782.27321	28592.5375
786.15132	26556.2375
790.02671	25239.1375
793.89938	24529.7375
797.76935	24279.0375
801.6366	24127.7375
805.50115	24097.1375
809.36299	23971.8375
813.22213	23834.2375
817.07857	23730.2375
820.93231	23667.7375
824.78336	23574.6375
828.63172	23546.8375
832.47738	23477.6375
836.32036	23512.2375
840.16066	23437.0375
843.99827	23478.5375
847.8332	23441.9375
851.66546	23476.2375
855.49504	23457.7375
859.32195	23426.4375
863.1462	23448.2375
866.96777	23385.4375
870.78668	23373.8375
874.60293	23376.8375
878.41652	23442.4375
882.22745	23530.2375
886.03573	23601.1375
889.84136	23612.0375
893.64433	23532.9375
897.44466	23472.2375
901.24235	23407.4375
905.0374	23286.2375
908.8298	23183.2375
912.61957	23110.3375
916.40671	23212.9375
920.19121	23359.6375
923.97308	23540.0375
927.75233	23648.7375
931.52895	23576.0375
935.30295	23364.6375
939.07433	23006.4375
942.84309	22717.2375
946.60924	22552.0375
950.37278	22498.4375
954.13371	22469.3375
957.89203	22425.3375
961.64774	22408.6375
965.40086	22402.0375
969.15137	22343.1375
972.89929	22290.4375
976.64461	22246.4375
980.38733	22223.7375
984.12747	22263.5375
987.86502	22380.2375
991.59999	22579.1375
995.33237	22888.1375
999.06217	23191.1375
1002.78939	23587.1375
1006.51404	24006.1375
1010.23611	24393.7375
1013.95561	24628.2375
1017.67255	24645.1375
1021.38692	24454.9375
1025.09872	24094.7375
1028.80796	23850.2375
1032.51465	23856.0375
1036.21877	23980.3375
1039.92035	24139.8375
1043.61937	24091.9375
1047.31584	24059.8375
1051.00976	23959.7375
1054.70114	23924.8375
1058.38998	23981.2375
1062.07627	24134.9375
1065.76003	24360.4375
1069.44126	24548.1375
1073.11995	24987.8375
1076.79611	25309.9375
1080.46974	25603.6375
1084.14085	25896.3375
1087.80943	26225.6375
1091.47549	26480.6375
1095.13903	26485.0375
1098.80005	26117.7375
1102.45857	25703.8375
1106.11456	25290.0375
1109.76805	25145.9375
1113.41903	25192.3375
1117.06751	25441.9375
1120.71348	25748.0375
1124.35696	26141.0375
1127.99793	26507.0375
1131.63641	26623.3375
1135.2724	26359.6375
1138.90589	26008.2375
1142.5369	25800.2375
1146.16542	25678.7375
1149.79145	25737.2375
1153.415	25796.2375
1157.03607	26014.8375
1160.65467	26493.9375
1164.27079	27423.5375
1167.88443	28599.4375
1171.49561	30165.1375
1175.10432	32319.1375
1178.71056	35118.0375
1182.31434	37604.4375
1185.91565	38832.6375
1189.51451	38711.5375
1193.11091	37694.3375
1196.70485	36230.9375
1200.29634	34752.9375
1203.88538	33542.7375
1207.47197	32496.2375
1211.05612	31599.4375
1214.63782	30944.5375
1218.21708	30382.6375
1221.79391	30026.5375
1225.36829	29803.8375
1228.94024	29582.1375
1232.50976	29271.1375
1236.07685	28963.6375
1239.6415	28786.4375
1243.20374	28746.3375
1246.76355	28858.4375
1250.32093	29179.4375
1253.8759	29653.1375
1257.42845	30337.9375
1260.97859	31203.4375
1264.52631	32147.6375
1268.07163	33046.5375
1271.61453	33884.4375
1275.15503	34570.5375
1278.69312	35289.9375
1282.22882	35930.3375
1285.76211	36678.9375
1289.29301	37705.6375
1292.82151	38894.4375
1296.34761	40370.0375
1299.87133	42204.1375
1303.39266	44489.0375
1306.9116	47155.4375
1310.42815	49787.2375
1313.94233	51328.5375
1317.45412	51085.7375
1320.96354	49954.3375
1324.47058	48619.9375
1327.97525	47466.1375
1331.47754	46710.2375
1334.97747	46429.0375
1338.47502	46416.4375
1341.97022	46432.0375
1345.46305	46490.0375
1348.95352	46634.3375
1352.44163	47033.3375
1355.92738	48182.3375
1359.41078	50507.2375
1362.89183	53016.9375
1366.37053	52236.4375
1369.84688	47428.0375
1373.32088	42059.5375
1376.79254	38525.0375
1380.26186	36885.9375
1383.72883	36304.4375
1387.19347	35947.7375
1390.65578	35513.3375
1394.11575	35104.6375
1397.57339	35195.0375
1401.0287	35496.4375
1404.48168	35860.3375
1407.93234	35940.3375
1411.38068	35687.0375
1414.82669	35090.4375
1418.27039	34169.8375
1421.71177	33121.1375
1425.15083	32342.8375
1428.58758	31918.0375
1432.02203	32055.7375
1435.45416	32600.3375
1438.88399	33243.5375
1442.31151	33720.4375
1445.73673	34071.1375
1449.15965	34328.6375
1452.58027	34583.7375
1455.9986	34636.4375
1459.41463	34849.0375
1462.82837	35300.5375
1466.23982	35849.3375
1469.64898	36420.3375
1473.05586	36655.2375
1476.46045	36620.8375
1479.86276	36496.5375
1483.26279	36412.5375
1486.66054	36507.4375
1490.05602	36908.9375
1493.44922	37514.4375
1496.84016	38497.9375
1500.22882	40068.1375
1503.61521	42355.5375
1506.99934	44992.7375
1510.38121	47113.2375
1513.76081	47421.5375
1517.13816	45555.0375
1520.51324	42522.9375
1523.88607	39763.2375
1527.25665	38083.1375
1530.62498	37228.6375
1533.99105	36781.9375
1537.35488	36320.8375
1540.71647	35796.9375
1544.07581	35196.1375
1547.4329	34577.2375
1550.78776	34116.1375
1554.14038	33801.1375
1557.49077	33679.6375
1560.83892	33895.9375
1564.18484	34175.3375
1567.52853	34617.2375
1570.86999	35041.4375
1574.20922	35506.6375
1577.54624	35675.5375
1580.88103	35298.9375
1584.2136	34799.0375
1587.54395	35018.2375
1590.87208	36128.5375
1594.19801	37928.5375
1597.52172	39816.2375
1600.84321	40272.6375
1604.16251	38857.5375
1607.47959	36519.0375
1610.79447	33977.8375
1614.10715	31538.4375
1617.41763	29401.1375
1620.7259	27924.1375
1624.03199	27088.6375
1627.33587	27011.0375
1630.63757	27610.7375
1633.93707	29093.3375
1637.23439	31618.3375
1640.52951	35171.0375
1643.82246	39491.0375
1647.11321	43101.2375
1650.40179	44351.2375
1653.68819	41886.6375
1656.97241	36794.4375
1660.25446	31502.6375
1663.53433	27644.0375
1666.81203	25277.5375
1670.08756	23808.2375
1673.36092	22908.1375
1676.63211	22358.3375
1679.90115	21920.0375
1683.16801	21611.3375
1686.43272	21382.5375
1689.69527	21213.8375
1692.95567	21022.6375
1696.2139	20861.2375
1699.46999	20656.1375
1702.72392	20580.2375
1705.97571	20642.6375
1709.22535	20698.8375
1712.47284	20706.6375
1715.71819	20718.0375
1718.96139	20673.5375
1722.20246	20587.8375
1725.44139	20481.9375
1728.67818	20369.5375
1731.91284	20271.6375
1735.14537	20179.9375
1738.37576	20093.6375
1741.60403	19995.3375
1744.83017	19934.6375
1748.05418	19796.2375
1751.27607	19724.4375
1754.49584	19644.4375
1757.71349	19607.2375
1760.92903	19535.5375
1764.14244	19504.4375
1767.35375	19510.1375
1770.56294	19478.6375
1773.77002	19463.1375
1776.97499	19453.4375
1780.17785	19486.8375
1783.37861	19507.0375
1786.57727	19444.7375
1789.77382	19454.0375
1792.96828	19416.5375
1796.16064	19369.1375
1799.3509	19350.8375
1802.53907	19289.9375
1805.72514	19210.7375
1808.90913	19162.1375
1812.09102	19188.7375
1815.27083	19126.2375
1818.44856	19125.7375
1821.6242	19119.1375
1824.79776	19070.4375
1827.96924	19025.3375
1831.13864	19044.6375
1834.30597	19029.1375
1837.47122	19087.9375
1840.6344	19045.2375
1843.7955	18984.1375
1846.95454	19010.0375
1850.11151	18997.2375
1853.26642	18994.2375
1856.41926	18986.1375
1859.57004	18966.3375
1862.71876	18942.6375
1865.86542	18920.6375
1869.01003	18934.7375
1872.15258	18888.6375
1875.29308	18851.9375
1878.43152	18819.2375
1881.56792	18816.5375
1884.70227	18805.2375
1887.83457	18778.3375
1890.96482	18722.6375
1894.09304	18706.0375
1897.21921	18695.9375
1900.34335	18668.2375
1903.46544	18661.6375
1906.58551	18615.2375
1909.70353	18570.4375
1912.81953	18572.9375
1915.93349	18539.2375
1919.04543	18509.4375
1922.15534	18500.5375
1925.26322	18435.6375
1928.36908	18355.9375
1931.47292	18341.8375
1934.57473	18286.4375
1937.67453	18221.7375
1940.77232	18200.5375
1943.86808	18140.4375
1946.96184	18103.4375
1950.05358	18060.8375
1953.14331	18020.4375
1956.23103	17910.8375
1959.31675	17877.3375
1962.40046	17805.5375
1965.48217	17755.3375
1968.56188	17736.6375
1971.63959	17682.3375
1974.7153	17605.7375
1977.78901	17573.0375
1980.86073	17539.6375
1983.93046	17502.3375
1986.99819	17395.5375
1990.06394	17392.2375
1993.1277	17341.1375
1996.18947	17236.0375
1999.24925	17183.2375
2002.30706	17117.0375
2005.36288	17062.2375
2008.41672	17053.9375
2011.46859	16983.6375
2014.51848	16939.3375
2017.56639	16904.6375
2020.61233	16852.2375
2023.6563	16836.0375
2026.6983	16803.6375
2029.73833	16763.4375
2032.7764	16720.6375
2035.8125	16656.0375
2038.84664	16651.8375
2041.87881	16635.8375
2044.90903	16590.0375
2047.93729	16557.6375
2050.96359	16528.7375
2053.98794	16510.9375
2057.01034	16487.8375
2060.03078	16468.4375
2063.04927	16421.5375
2066.06582	16454.1375
2069.08042	16444.8375
2072.09307	16444.8375
2075.10378	16409.9375
2078.11255	16413.4375
2081.11938	16408.6375
2084.12426	16429.6375
2087.12722	16411.4375
2090.12824	16383.3375
2093.12732	16370.2375
2096.12447	16395.6375
2099.11969	16376.0375
2102.11299	16358.8375
2105.10435	16376.1375
2108.09379	16426.4375
2111.08131	16434.4375
2114.0669	16445.7375
2117.05057	16471.2375
2120.03233	16438.5375
2123.01216	16457.5375
2125.99008	16487.5375
2128.96609	16479.9375
2131.94018	16512.1375
2134.91236	16511.8375
2137.88263	16513.7375
2140.851	16513.6375
2143.81746	16517.1375
2146.78201	16544.1375
2149.74466	16519.5375
2152.7054	16503.7375
2155.66425	16514.9375
2158.6212	16516.9375
2161.57625	16488.7375
2164.52941	16515.9375
2167.48067	16493.4375
2170.43004	16495.8375
2173.37752	16466.7375
2176.32311	16468.0375
2179.26681	16427.7375
2182.20863	16506.5375
2185.14856	16491.6375
2188.08661	16487.9375
2191.02278	16467.6375
2193.95707	16424.3375
2196.88948	16417.7375
2199.82001	16391.0375
2202.74867	16385.5375
2205.67545	16361.1375
2208.60037	16334.9375
2211.52341	16342.9375
2214.44458	16294.8375
2217.36388	16267.7375
2220.28132	16254.6375
2223.1969	16237.0375
2226.11061	16211.1375
2229.02246	16166.0375
2231.93245	16160.6375
2234.84058	16118.3375
2237.74686	16063.1375
2240.65128	16084.1375
2243.55385	16045.1375
2246.45456	16045.4375
2249.35343	16011.8375
2252.25044	16008.4375
2255.14561	15954.5375
2258.03893	15934.9375
2260.93041	15882.7375
2263.82004	15845.4375
2266.70783	15910.5375
2269.59378	15837.1375
2272.4779	15798.8375
2275.36017	15779.0375
2278.24061	15708.7375
2281.11922	15683.5375
2283.996	15634.7375
2286.87094	15635.7375
2289.74405	15639.0375
2292.61534	15589.0375
2295.4848	15577.9375
2298.35243	15546.7375
2301.21824	15535.6375
2304.08223	15555.0375
2306.94439	15533.0375
2309.80474	15542.3375
2312.66327	15495.7375
2315.51999	15509.3375
2318.37489	15501.2375
2321.22797	15436.7375
2324.07925	15444.0375
2326.92871	15412.1375
2329.77637	15438.2375
2332.62222	15413.7375
2335.46626	15400.3375
2338.3085	15370.3375
2341.14893	15363.3375
2343.98756	15361.2375
2346.8244	15335.1375
2349.65943	15367.9375
2352.49267	15341.3375
2355.32411	15343.0375
2358.15376	15306.7375
2360.98161	15323.4375
2363.80768	15316.1375
2366.63195	15299.2375
2369.45444	15314.4375
2372.27514	15276.1375
2375.09405	15241.3375
2377.91118	15267.7375
2380.72652	15190.8375
2383.54009	15164.1375
2386.35187	15132.6375
2389.16188	15090.1375
2391.97011	15083.6375
2394.77657	15028.8375
2397.58125	15015.0375
2400.38416	15000.3375
2403.18529	14954.0375
2405.98466	14937.0375
2408.78226	14932.3375
2411.57809	14905.7375
2414.37216	14889.4375
2417.16446	14870.5375
2419.955	14876.2375
2422.74378	14854.0375
2425.5308	14847.4375
2428.31606	14857.6375
2431.09956	14835.5375
2433.88131	14815.7375
2436.6613	14858.2375
2439.43954	14823.3375
2442.21603	14842.9375
2444.99077	14798.3375
2447.76377	14831.5375
2450.53501	14832.8375
2453.30451	14799.0375
2456.07226	14785.0375
2458.83827	14795.4375
2461.60254	14773.0375
2464.36507	14753.9375
2467.12586	14753.9375
2469.88492	14733.1375
2472.64224	14749.2375
2475.39782	14724.3375
2478.15167	14729.6375
2480.90379	14758.2375
2483.65417	14785.2375
2486.40283	14742.9375
2489.14976	14730.9375
2491.89497	14766.6375
2494.63845	14753.2375
2497.3802	14760.2375
2500.12024	14726.4375
2502.85855	14730.2375
2505.59514	14699.8375
2508.33002	14664.1375
2511.06318	14673.6375
2513.79462	14647.5375
2516.52435	14634.6375
2519.25237	14596.5375
2521.97867	14553.0375
2524.70327	14552.4375
2527.42616	14562.5375
2530.14734	14575.2375
2532.86681	14549.4375
2535.58458	14536.2375
2538.30065	14523.7375
2541.01501	14497.8375
2543.72768	14513.6375
2546.43864	14490.5375
2549.14791	14449.6375
2551.85548	14482.1375
2554.56136	14450.2375
2557.26554	14417.9375
2559.96803	14417.1375
2562.66883	14369.6375
2565.36794	14365.4375
2568.06536	14327.9375
2570.7611	14308.0375
2573.45514	14286.0375
2576.14751	14308.3375
2578.83819	14266.2375
2581.52719	14279.2375
2584.21451	14272.3375
2586.90015	14241.5375
2589.58411	14205.9375
2592.2664	14183.0375
2594.94701	14167.7375
2597.62594	14177.5375
2600.30321	14154.5375
2602.9788	14123.0375
2605.65273	14113.0375
2608.32498	14134.5375
2610.99557	14138.2375
2613.66449	14123.0375
2616.33175	14109.9375
2618.99734	14072.0375
2621.66128	14108.4375
2624.32355	14070.4375
2626.98416	14067.6375
2629.64311	14065.9375
2632.30041	14061.0375
2634.95605	14014.1375
2637.61004	13973.5375
2640.26238	13991.7375
2642.91306	13990.4375
2645.56209	13965.2375
2648.20948	13974.6375
2650.85521	13945.3375
2653.4993	13965.1375
2656.14175	13984.1375
2658.78255	14004.3375
2661.42171	14006.0375
2664.05923	13992.1375
2666.6951	13966.6375
2669.32934	14022.2375
2671.96194	13996.5375
2674.59291	14015.5375
2677.22224	14013.6375
2679.84993	14030.8375
2682.476	13998.4375
2685.10043	14018.7375
2687.72324	14021.0375
2690.34441	13985.3375
2692.96396	13991.6375
2695.58188	13992.5375
2698.19818	13929.1375
2700.81285	13963.7375
2703.4259	13946.9375
2706.03733	13861.4375
2708.64714	13896.5375
2711.25533	13948.7375
2713.86191	13980.6375
2716.46687	14000.5375
2719.07021	13990.4375
2721.67194	14038.3375
2724.27206	14011.7375
2726.87057	14046.8375
2729.46747	14039.5375
2732.06276	14047.3375
2734.65644	14061.3375
2737.24852	14024.6375
2739.83899	14040.3375
2742.42786	14032.8375
2745.01513	14015.1375
2747.60079	14005.2375
2750.18486	13982.5375
2752.76733	13949.9375
2755.3482	13918.8375
2757.92747	13945.3375
2760.50515	13935.0375
2763.08123	13907.7375
2765.65573	13876.7375
2768.22863	13870.7375
2770.79994	13878.3375
2773.36967	13877.7375
2775.9378	13854.6375
2778.50435	13835.3375
2781.06932	13839.3375
2783.6327	13821.0375
2786.1945	13813.9375
2788.75471	13839.0375
2791.31335	13757.0375
2793.87041	13784.8375
2796.42589	13744.8375
2798.97979	13712.5375
2801.53212	13686.9375
2804.08288	13683.1375
2806.63206	13644.2375
2809.17967	13607.2375
2811.72571	13590.1375
2814.27018	13545.3375
2816.81308	13525.2375
2819.35442	13564.8375
2821.89419	13511.3375
2824.43239	13468.2375
2826.96904	13440.0375
2829.50412	13439.0375
2832.03763	13449.7375
2834.56959	13464.3375
2837.1	13425.4375
2839.62884	13411.5375
2842.15613	13365.5375
2844.68186	13361.0375
2847.20604	13339.0375
2849.72867	13364.1375
2852.24974	13356.5375
2854.76927	13331.3375
2857.28724	13313.0375
2859.80367	13290.0375
2862.31855	13302.4375
2864.83189	13263.1375
2867.34368	13266.9375
2869.85393	13294.7375
2872.36264	13299.8375
2874.8698	13318.4375
2877.37543	13280.2375
2879.87952	13273.1375
2882.38207	13273.8375
2884.88308	13268.0375
2887.38256	13241.1375
2889.88051	13253.9375
2892.37692	13264.6375
2894.8718	13245.6375
2897.36515	13269.9375
2899.85698	13283.4375
2902.34727	13326.5375
2904.83604	13316.0375
2907.32328	13277.3375
2909.809	13303.3375
2912.29319	13325.9375
2914.77587	13330.5375
2917.25702	13342.6375
2919.73665	13300.9375
2922.21476	13298.8375
2924.69136	13283.8375
2927.16644	13320.7375
2929.64	13253.0375
2932.11205	13242.1375
2934.58258	13211.9375
2937.05161	13175.2375
2939.51912	13186.5375
2941.98513	13146.0375
2944.44962	13159.4375
2946.91261	13118.4375
2949.37409	13159.0375
2951.83407	13116.5375
2954.29254	13124.4375
2956.74951	13090.1375
2959.20498	13095.2375
2961.65895	13095.1375
2964.11142	13120.8375
2966.56239	13077.4375
2969.01186	13065.8375
2971.45984	13043.8375
2973.90632	13018.8375
2976.35131	12989.1375
2978.7948	12972.2375
2981.23681	12980.0375
2983.67732	12932.2375
2986.11635	12897.1375
2988.55388	12845.3375
2990.98993	12833.5375
2993.4245	12815.1375
2995.85758	12796.6375
2998.28917	12771.0375
3000.71928	12744.7375
3003.14791	12713.5375
3005.57506	12704.3375
3008.00073	12651.9375
3010.42493	12630.4375
3012.84764	12611.0375
3015.26888	12630.8375
3017.68865	12595.9375
3020.10694	12602.3375
3022.52376	12549.5375
