Data from AgNPs_FTO_APTES_UA_50uM_CRN_500uM_R6G_10uM_NaF_0.1M_Addition_RamanShift__1__16-43-03-515.txt Node

Date: Mon Feb 21 16:43:03 GMT 2022
User: TCL
Spectrometer: QEP01345
Trigger mode: 4
Integration Time (sec): 7.000000E0
Scans to average: 10
Electric dark correction enabled: true
Nonlinearity correction enabled: false
Boxcar width: 0
XAxis mode: Raman Shifts
Number of Pixels in Spectrum: 1044
>>>>>Begin Spectral Data<<<<<
46.04893	-1.6375
50.45542	0.0625
54.85868	0.1625
59.25871	-2.2375
63.6555	42.7625
68.04907	49.3625
72.43941	50.6625
76.82654	54.8625
81.21044	55.3625
85.59113	56.8625
89.96862	62.1625
94.34289	60.4625
98.71396	65.9625
103.08183	67.6625
107.4465	66.6625
111.80798	68.6625
116.16626	68.1625
120.52136	73.5625
124.87327	73.7625
129.222	75.2625
133.56755	81.6625
137.90993	80.9625
142.24913	84.1625
146.58517	96.5625
150.91804	103.8625
155.24774	125.7625
159.57429	149.4625
163.89768	190.8625
168.21792	245.0625
172.53501	336.0625
176.84895	461.0625
181.15975	654.1625
185.46741	919.0625
189.77193	1254.9625
194.07331	1688.2625
198.37157	2192.7625
202.6667	2721.8625
206.9587	3235.3625
211.24758	3751.4625
215.53334	4301.5625
219.81599	4844.0625
224.09553	5462.4625
228.37195	6155.7625
232.64527	6910.3625
236.91549	7665.8625
241.18261	8424.5625
245.44663	9076.8625
249.70755	9650.1625
253.96539	10111.2625
258.22014	10520.0625
262.4718	10830.6625
266.72039	11104.3625
270.96589	11188.4625
275.20832	11188.0625
279.44768	11059.4625
283.68397	10896.3625
287.91719	10752.4625
292.14735	10657.2625
296.37445	10732.1625
300.59849	10870.1625
304.81948	11129.6625
309.03742	11265.3625
313.25231	11243.2625
317.46415	11005.2625
321.67296	10648.1625
325.87872	10287.1625
330.08145	10104.5625
334.28114	10110.3625
338.47781	10192.9625
342.67145	10356.0625
346.86207	10584.9625
351.04966	10939.6625
355.23424	11283.5625
359.4158	11563.8625
363.59435	11699.2625
367.76989	11803.7625
371.94243	11835.9625
376.11196	11849.1625
380.27849	11877.0625
384.44203	11832.4625
388.60257	11848.5625
392.76012	11909.7625
396.91468	12004.6625
401.06626	12201.7625
405.21485	12301.0625
409.36047	12203.0625
413.50311	11884.0625
417.64277	11567.4625
421.77947	11377.2625
425.9132	11310.0625
430.04396	11333.7625
434.17176	11386.4625
438.2966	11484.8625
442.41849	11629.4625
446.53742	11814.9625
450.6534	12047.9625
454.76644	12183.2625
458.87653	12239.2625
462.98368	12196.9625
467.08789	12139.8625
471.18916	12070.0625
475.2875	11896.2625
479.38291	11745.9625
483.4754	11623.3625
487.56496	11542.8625
491.6516	11481.8625
495.73531	11432.7625
499.81612	11446.9625
503.89401	11533.7625
507.96899	11609.0625
512.04106	11671.7625
516.11023	11738.3625
520.1765	11807.8625
524.23987	11801.3625
528.30034	11771.7625
532.35792	11692.2625
536.41261	11584.8625
540.46441	11442.7625
544.51333	11379.4625
548.55936	11430.7625
552.60252	11579.3625
556.64279	11756.9625
560.6802	11870.3625
564.71473	11919.4625
568.7464	12075.9625
572.7752	12201.9625
576.80114	12134.5625
580.82422	12045.7625
584.84444	12081.8625
588.86181	12183.1625
592.87633	12329.6625
596.888	12461.9625
600.89682	12615.7625
604.9028	13299.9625
608.90594	15146.4625
612.90624	17605.3625
616.90371	16997.2625
620.89834	13622.6625
624.89015	12037.6625
628.87913	11762.9625
632.86528	11881.8625
636.84862	12078.1625
640.82913	11988.1625
644.80683	11708.3625
648.78172	11464.6625
652.75379	11441.4625
656.72306	11618.8625
660.68952	11902.1625
664.65319	11845.9625
668.61405	11515.6625
672.57211	11413.1625
676.52738	11459.7625
680.47986	11518.3625
684.42955	11427.0625
688.37646	11370.9625
692.32058	11357.7625
696.26192	11417.1625
700.20048	11509.8625
704.13626	11544.8625
708.06928	11553.1625
711.99952	11490.3625
715.927	11465.2625
719.85171	11516.3625
723.77365	11529.7625
727.69284	11456.0625
731.60928	11364.8625
735.52295	11364.1625
739.43388	11369.2625
743.34206	11378.5625
747.24749	11396.9625
751.15017	11441.0625
755.05012	11529.2625
758.94733	11818.7625
762.8418	12475.9625
766.73354	13667.6625
770.62254	14901.1625
774.50882	15473.8625
778.39237	14998.2625
782.27321	13739.8625
786.15132	12537.7625
790.02671	11813.1625
793.89938	11470.6625
797.76935	11345.6625
801.6366	11247.8625
805.50115	11233.2625
809.36299	11182.0625
813.22213	11166.4625
817.07857	11149.0625
820.93231	11144.9625
824.78336	11128.5625
828.63172	11112.2625
832.47738	11103.0625
836.32036	11086.0625
840.16066	11070.2625
843.99827	11048.3625
847.8332	11038.2625
851.66546	11049.7625
855.49504	11048.0625
859.32195	11062.0625
863.1462	11048.3625
866.96777	11050.1625
870.78668	11061.4625
874.60293	11066.4625
878.41652	11101.3625
882.22745	11138.7625
886.03573	11189.6625
889.84136	11202.2625
893.64433	11148.8625
897.44466	11120.0625
901.24235	11077.8625
905.0374	11019.4625
908.8298	10993.2625
912.61957	10922.3625
916.40671	10970.7625
920.19121	11012.2625
923.97308	11084.6625
927.75233	11163.7625
931.52895	11186.7625
935.30295	11090.5625
939.07433	10958.9625
942.84309	10780.5625
946.60924	10690.0625
950.37278	10622.5625
954.13371	10594.8625
957.89203	10566.9625
961.64774	10553.2625
965.40086	10527.9625
969.15137	10509.3625
972.89929	10494.0625
976.64461	10484.9625
980.38733	10497.7625
984.12747	10524.3625
987.86502	10526.9625
991.59999	10611.0625
995.33237	10669.9625
999.06217	10744.1625
1002.78939	10860.4625
1006.51404	10985.3625
1010.23611	11100.5625
1013.95561	11181.6625
1017.67255	11214.1625
1021.38692	11161.0625
1025.09872	11065.8625
1028.80796	10985.9625
1032.51465	10958.4625
1036.21877	10976.8625
1039.92035	10989.7625
1043.61937	11047.9625
1047.31584	11066.4625
1051.00976	11080.8625
1054.70114	11070.8625
1058.38998	11071.1625
1062.07627	11129.6625
1065.76003	11167.0625
1069.44126	11220.4625
1073.11995	11293.3625
1076.79611	11436.7625
1080.46974	11552.7625
1084.14085	11686.8625
1087.80943	11792.3625
1091.47549	11875.4625
1095.13903	11833.0625
1098.80005	11674.0625
1102.45857	11485.3625
1106.11456	11372.7625
1109.76805	11365.1625
1113.41903	11458.6625
1117.06751	11626.3625
1120.71348	11878.7625
1124.35696	12170.0625
1127.99793	12448.2625
1131.63641	12490.4625
1135.2724	12235.0625
1138.90589	11961.6625
1142.5369	11770.2625
1146.16542	11618.9625
1149.79145	11521.1625
1153.415	11486.5625
1157.03607	11540.1625
1160.65467	11649.9625
1164.27079	11881.1625
1167.88443	12297.6625
1171.49561	12891.3625
1175.10432	13753.4625
1178.71056	14938.6625
1182.31434	15962.9625
1185.91565	16355.0625
1189.51451	16221.9625
1193.11091	15678.0625
1196.70485	15037.3625
1200.29634	14464.8625
1203.88538	13964.8625
1207.47197	13397.8625
1211.05612	12892.4625
1214.63782	12555.1625
1218.21708	12371.7625
1221.79391	12281.7625
1225.36829	12216.3625
1228.94024	12226.1625
1232.50976	12242.9625
1236.07685	12208.6625
1239.6415	12200.4625
1243.20374	12224.4625
1246.76355	12247.3625
1250.32093	12335.6625
1253.8759	12469.8625
1257.42845	12675.4625
1260.97859	12896.4625
1264.52631	13155.3625
1268.07163	13425.1625
1271.61453	13674.5625
1275.15503	13829.2625
1278.69312	13920.5625
1282.22882	14025.1625
1285.76211	14223.9625
1289.29301	14582.3625
1292.82151	14995.8625
1296.34761	15426.9625
1299.87133	16043.6625
1303.39266	16847.6625
1306.9116	18022.6625
1310.42815	19304.1625
1313.94233	20019.0625
1317.45412	19694.2625
1320.96354	18690.4625
1324.47058	17729.1625
1327.97525	16844.9625
1331.47754	16148.2625
1334.97747	15871.1625
1338.47502	15871.3625
1341.97022	16119.3625
1345.46305	16656.0625
1348.95352	17446.4625
1352.44163	18393.1625
1355.92738	19579.8625
1359.41078	21403.4625
1362.89183	23146.9625
1366.37053	22728.6625
1369.84688	20085.0625
1373.32088	17224.9625
1376.79254	15459.2625
1380.26186	14617.8625
1383.72883	14169.9625
1387.19347	13852.6625
1390.65578	13473.7625
1394.11575	13184.9625
1397.57339	12973.8625
1401.0287	12860.1625
1404.48168	12822.7625
1407.93234	12740.0625
1411.38068	12712.7625
1414.82669	12630.8625
1418.27039	12585.9625
1421.71177	12477.3625
1425.15083	12298.0625
1428.58758	12193.5625
1432.02203	12213.1625
1435.45416	12287.6625
1438.88399	12354.9625
1442.31151	12415.4625
1445.73673	12453.1625
1449.15965	12491.1625
1452.58027	12515.9625
1455.9986	12476.9625
1459.41463	12491.1625
1462.82837	12590.9625
1466.23982	12774.7625
1469.64898	12956.4625
1473.05586	13152.3625
1476.46045	13242.9625
1479.86276	13393.4625
1483.26279	13496.0625
1486.66054	13648.4625
1490.05602	13954.3625
1493.44922	14430.6625
1496.84016	15208.1625
1500.22882	16450.2625
1503.61521	18106.8625
1506.99934	19872.8625
1510.38121	21264.6625
1513.76081	21512.5625
1517.13816	20278.1625
1520.51324	18277.7625
1523.88607	16487.2625
1527.25665	15310.5625
1530.62498	14745.2625
1533.99105	14368.0625
1537.35488	14084.3625
1540.71647	13834.6625
1544.07581	13639.2625
1547.4329	13529.1625
1550.78776	13415.7625
1554.14038	13391.2625
1557.49077	13414.0625
1560.83892	13481.6625
1564.18484	13738.9625
1567.52853	14087.3625
1570.86999	14398.1625
1574.20922	14583.0625
1577.54624	14585.2625
1580.88103	14157.3625
1584.2136	13545.3625
1587.54395	13144.7625
1590.87208	13143.4625
1594.19801	13493.8625
1597.52172	14066.9625
1600.84321	14347.2625
1604.16251	14105.2625
1607.47959	13635.8625
1610.79447	13082.4625
1614.10715	12433.5625
1617.41763	11896.6625
1620.7259	11472.3625
1624.03199	11212.9625
1627.33587	11185.6625
1630.63757	11276.6625
1633.93707	11576.1625
1637.23439	12178.7625
1640.52951	13084.3625
1643.82246	14414.2625
1647.11321	15904.4625
1650.40179	16839.3625
1653.68819	16495.6625
1656.97241	14831.7625
1660.25446	13015.8625
1663.53433	11708.2625
1666.81203	10915.1625
1670.08756	10477.0625
1673.36092	10170.0625
1676.63211	10010.5625
1679.90115	9857.3625
1683.16801	9760.4625
1686.43272	9657.3625
1689.69527	9568.0625
1692.95567	9488.9625
1696.2139	9453.9625
1699.46999	9384.7625
1702.72392	9317.4625
1705.97571	9323.8625
1709.22535	9314.1625
1712.47284	9314.6625
1715.71819	9273.0625
1718.96139	9261.3625
1722.20246	9241.7625
1725.44139	9212.2625
1728.67818	9172.9625
1731.91284	9105.3625
1735.14537	9058.4625
1738.37576	9019.9625
1741.60403	9012.5625
1744.83017	8967.8625
1748.05418	8957.6625
1751.27607	8930.8625
1754.49584	8937.5625
1757.71349	8932.4625
1760.92903	8923.6625
1764.14244	8910.8625
1767.35375	8884.8625
1770.56294	8852.3625
1773.77002	8822.1625
1776.97499	8797.7625
1780.17785	8770.1625
1783.37861	8776.0625
1786.57727	8750.0625
1789.77382	8753.1625
1792.96828	8718.1625
1796.16064	8686.0625
1799.3509	8673.2625
1802.53907	8643.3625
1805.72514	8619.7625
1808.90913	8588.0625
1812.09102	8578.0625
1815.27083	8570.1625
1818.44856	8548.7625
1821.6242	8515.1625
1824.79776	8522.3625
1827.96924	8501.2625
1831.13864	8487.2625
1834.30597	8508.2625
1837.47122	8474.0625
1840.6344	8477.0625
1843.7955	8449.9625
1846.95454	8412.1625
1850.11151	8424.0625
1853.26642	8401.0625
1856.41926	8413.7625
1859.57004	8400.1625
1862.71876	8369.3625
1865.86542	8369.7625
1869.01003	8344.9625
1872.15258	8361.8625
1875.29308	8358.0625
1878.43152	8335.9625
1881.56792	8344.7625
1884.70227	8323.0625
1887.83457	8330.0625
1890.96482	8335.8625
1894.09304	8302.8625
1897.21921	8309.0625
1900.34335	8294.9625
1903.46544	8273.1625
1906.58551	8279.0625
1909.70353	8240.0625
1912.81953	8249.1625
1915.93349	8226.6625
1919.04543	8204.0625
1922.15534	8179.0625
1925.26322	8189.3625
1928.36908	8155.8625
1931.47292	8156.2625
1934.57473	8134.7625
1937.67453	8098.1625
1940.77232	8075.4625
1943.86808	8075.3625
1946.96184	8035.0625
1950.05358	7991.7625
1953.14331	7986.7625
1956.23103	7955.7625
1959.31675	7951.8625
1962.40046	7938.6625
1965.48217	7902.6625
1968.56188	7889.7625
1971.63959	7871.2625
1974.7153	7834.0625
1977.78901	7831.4625
1980.86073	7795.0625
1983.93046	7781.6625
1986.99819	7741.2625
1990.06394	7699.8625
1993.1277	7675.5625
1996.18947	7658.7625
1999.24925	7651.2625
2002.30706	7600.1625
2005.36288	7594.2625
2008.41672	7581.3625
2011.46859	7537.3625
2014.51848	7559.8625
2017.56639	7524.0625
2020.61233	7501.2625
2023.6563	7467.9625
2026.6983	7434.8625
2029.73833	7424.9625
2032.7764	7406.8625
2035.8125	7394.0625
2038.84664	7367.5625
2041.87881	7354.2625
2044.90903	7328.4625
2047.93729	7309.7625
2050.96359	7320.9625
2053.98794	7306.1625
2057.01034	7281.1625
2060.03078	7288.0625
2063.04927	7268.3625
2066.06582	7265.7625
2069.08042	7258.7625
2072.09307	7265.3625
2075.10378	7262.0625
2078.11255	7257.9625
2081.11938	7246.3625
2084.12426	7257.2625
2087.12722	7241.8625
2090.12824	7260.5625
2093.12732	7253.2625
2096.12447	7248.2625
2099.11969	7239.4625
2102.11299	7246.1625
2105.10435	7250.9625
2108.09379	7238.7625
2111.08131	7243.3625
2114.0669	7245.2625
2117.05057	7263.3625
2120.03233	7258.1625
2123.01216	7263.5625
2125.99008	7275.7625
2128.96609	7292.4625
2131.94018	7295.9625
2134.91236	7280.6625
2137.88263	7259.3625
2140.851	7272.8625
2143.81746	7280.9625
2146.78201	7295.7625
2149.74466	7286.5625
2152.7054	7297.5625
2155.66425	7272.2625
2158.6212	7268.5625
2161.57625	7270.3625
2164.52941	7279.9625
2167.48067	7250.3625
2170.43004	7246.1625
2173.37752	7237.7625
2176.32311	7260.2625
2179.26681	7258.6625
2182.20863	7253.2625
2185.14856	7259.1625
2188.08661	7243.5625
2191.02278	7251.4625
2193.95707	7253.9625
2196.88948	7244.6625
2199.82001	7233.5625
2202.74867	7248.0625
2205.67545	7232.8625
2208.60037	7205.5625
2211.52341	7186.5625
2214.44458	7171.3625
2217.36388	7160.6625
2220.28132	7144.4625
2223.1969	7128.4625
2226.11061	7115.5625
2229.02246	7096.9625
2231.93245	7083.4625
2234.84058	7090.8625
2237.74686	7069.3625
2240.65128	7044.6625
2243.55385	7034.3625
2246.45456	7029.1625
2249.35343	7025.8625
2252.25044	7000.8625
2255.14561	6996.7625
2258.03893	7019.8625
2260.93041	6973.3625
2263.82004	6978.4625
2266.70783	6936.2625
2269.59378	6957.8625
2272.4779	6943.9625
2275.36017	6911.6625
2278.24061	6896.8625
2281.11922	6890.4625
2283.996	6870.3625
2286.87094	6856.0625
2289.74405	6840.6625
2292.61534	6809.0625
2295.4848	6819.2625
2298.35243	6834.9625
2301.21824	6827.7625
2304.08223	6814.7625
2306.94439	6800.9625
2309.80474	6813.2625
2312.66327	6775.1625
2315.51999	6788.3625
2318.37489	6787.3625
2321.22797	6751.1625
2324.07925	6769.0625
2326.92871	6745.7625
2329.77637	6767.2625
2332.62222	6716.7625
2335.46626	6731.5625
2338.3085	6709.9625
2341.14893	6698.6625
2343.98756	6691.6625
2346.8244	6701.0625
2349.65943	6686.0625
2352.49267	6692.5625
2355.32411	6686.9625
2358.15376	6687.0625
2360.98161	6689.4625
2363.80768	6704.3625
2366.63195	6704.2625
2369.45444	6691.6625
2372.27514	6690.9625
2375.09405	6685.3625
2377.91118	6643.1625
2380.72652	6638.9625
2383.54009	6629.1625
2386.35187	6621.7625
2389.16188	6575.3625
2391.97011	6559.6625
2394.77657	6553.0625
2397.58125	6535.4625
2400.38416	6506.3625
2403.18529	6501.2625
2405.98466	6497.9625
2408.78226	6489.6625
2411.57809	6473.4625
2414.37216	6464.3625
2417.16446	6464.3625
2419.955	6460.9625
2422.74378	6468.3625
2425.5308	6455.0625
2428.31606	6451.0625
2431.09956	6452.9625
2433.88131	6430.3625
2436.6613	6446.6625
2439.43954	6413.0625
2442.21603	6413.9625
2444.99077	6408.8625
2447.76377	6410.9625
2450.53501	6402.7625
2453.30451	6401.4625
2456.07226	6405.0625
2458.83827	6380.7625
2461.60254	6377.1625
2464.36507	6379.4625
2467.12586	6368.0625
2469.88492	6359.8625
2472.64224	6370.9625
2475.39782	6372.0625
2478.15167	6370.8625
2480.90379	6367.8625
2483.65417	6374.1625
2486.40283	6382.1625
2489.14976	6374.1625
2491.89497	6387.2625
2494.63845	6384.7625
2497.3802	6387.8625
2500.12024	6379.9625
2502.85855	6359.4625
2505.59514	6335.1625
2508.33002	6321.0625
2511.06318	6314.0625
2513.79462	6297.6625
2516.52435	6291.0625
2519.25237	6265.5625
2521.97867	6255.7625
2524.70327	6238.0625
2527.42616	6226.6625
2530.14734	6240.0625
2532.86681	6216.8625
2535.58458	6188.4625
2538.30065	6197.0625
2541.01501	6189.0625
2543.72768	6201.9625
2546.43864	6191.2625
2549.14791	6172.4625
2551.85548	6154.7625
2554.56136	6158.5625
2557.26554	6151.1625
2559.96803	6147.4625
2562.66883	6132.0625
2565.36794	6124.7625
2568.06536	6118.3625
2570.7611	6114.0625
2573.45514	6101.5625
2576.14751	6093.3625
2578.83819	6075.1625
2581.52719	6067.1625
2584.21451	6049.5625
2586.90015	6039.0625
2589.58411	6033.0625
2592.2664	6030.5625
2594.94701	6001.8625
2597.62594	5985.0625
2600.30321	5977.8625
2602.9788	5957.1625
2605.65273	5962.2625
2608.32498	5975.3625
2610.99557	5958.2625
2613.66449	5958.1625
2616.33175	5950.7625
2618.99734	5934.7625
2621.66128	5934.7625
2624.32355	5925.3625
2626.98416	5919.0625
2629.64311	5896.8625
2632.30041	5905.7625
2634.95605	5886.9625
2637.61004	5894.0625
2640.26238	5872.5625
2642.91306	5865.2625
2645.56209	5870.3625
2648.20948	5850.0625
2650.85521	5851.9625
2653.4993	5840.9625
2656.14175	5850.4625
2658.78255	5857.5625
2661.42171	5857.0625
2664.05923	5877.4625
2666.6951	5869.7625
2669.32934	5862.6625
2671.96194	5867.0625
2674.59291	5871.2625
2677.22224	5836.2625
2679.84993	5865.4625
2682.476	5842.0625
2685.10043	5848.0625
2687.72324	5839.9625
2690.34441	5850.6625
2692.96396	5853.6625
2695.58188	5860.7625
2698.19818	5836.2625
2700.81285	5835.0625
2703.4259	5826.9625
2706.03733	5821.9625
2708.64714	5830.1625
2711.25533	5832.8625
2713.86191	5817.5625
2716.46687	5857.5625
2719.07021	5835.3625
2721.67194	5855.0625
2724.27206	5839.4625
2726.87057	5843.3625
2729.46747	5847.2625
2732.06276	5846.8625
2734.65644	5832.2625
2737.24852	5839.9625
2739.83899	5820.8625
2742.42786	5821.2625
2745.01513	5780.4625
2747.60079	5779.5625
2750.18486	5777.0625
2752.76733	5794.3625
2755.3482	5781.2625
2757.92747	5761.3625
2760.50515	5752.6625
2763.08123	5750.2625
2765.65573	5756.1625
2768.22863	5739.7625
2770.79994	5748.9625
2773.36967	5737.1625
2775.9378	5699.0625
2778.50435	5706.3625
2781.06932	5703.3625
2783.6327	5695.2625
2786.1945	5693.0625
2788.75471	5699.1625
2791.31335	5671.0625
2793.87041	5671.0625
2796.42589	5644.7625
2798.97979	5648.2625
2801.53212	5613.3625
2804.08288	5618.9625
2806.63206	5610.6625
2809.17967	5611.5625
2811.72571	5601.2625
2814.27018	5597.0625
2816.81308	5582.8625
2819.35442	5592.5625
2821.89419	5574.4625
2824.43239	5586.0625
2826.96904	5591.7625
2829.50412	5571.9625
2832.03763	5552.3625
2834.56959	5549.3625
2837.1	5567.6625
2839.62884	5575.0625
2842.15613	5570.6625
2844.68186	5573.9625
2847.20604	5596.5625
2849.72867	5599.2625
2852.24974	5596.6625
2854.76927	5616.3625
2857.28724	5580.4625
2859.80367	5577.1625
2862.31855	5579.9625
2864.83189	5571.8625
2867.34368	5572.0625
2869.85393	5563.6625
2872.36264	5566.5625
2874.8698	5558.6625
2877.37543	5576.2625
2879.87952	5551.4625
2882.38207	5560.5625
2884.88308	5548.3625
2887.38256	5536.3625
2889.88051	5536.6625
2892.37692	5556.8625
2894.8718	5552.9625
2897.36515	5569.0625
2899.85698	5557.1625
2902.34727	5556.0625
2904.83604	5560.5625
2907.32328	5574.5625
2909.809	5596.5625
2912.29319	5597.7625
2914.77587	5586.8625
2917.25702	5597.6625
2919.73665	5593.5625
2922.21476	5611.5625
2924.69136	5592.0625
2927.16644	5593.0625
2929.64	5577.2625
2932.11205	5556.2625
2934.58258	5554.7625
2937.05161	5552.4625
2939.51912	5544.4625
2941.98513	5553.5625
2944.44962	5523.4625
2946.91261	5484.2625
2949.37409	5518.7625
2951.83407	5505.3625
2954.29254	5490.7625
2956.74951	5493.0625
2959.20498	5486.3625
2961.65895	5459.5625
2964.11142	5452.5625
2966.56239	5445.7625
2969.01186	5431.1625
2971.45984	5418.0625
2973.90632	5407.8625
2976.35131	5405.4625
2978.7948	5388.0625
2981.23681	5378.1625
2983.67732	5365.4625
2986.11635	5341.2625
2988.55388	5357.2625
2990.98993	5342.0625
2993.4245	5315.4625
2995.85758	5343.2625
2998.28917	5311.0625
3000.71928	5282.8625
3003.14791	5278.8625
3005.57506	5285.5625
3008.00073	5277.8625
3010.42493	5252.1625
3012.84764	5249.6625
3015.26888	5276.6625
3017.68865	5257.2625
3020.10694	5250.8625
3022.52376	5239.5625
3024.9391	5230.9625
3027.35298	5223.5625
3029.76539	5201.3625
3032.17632	5200.1625
3034.5858	5189.9625
3036.9938	5187.3625
3039.40034	5177.0625
3041.80542	5153.1625
3044.20903	5152.0625
3046.61118	5156.8625
3049.01187	5156.5625
3051.4111	5153.5625
3053.80888	5136.1625
3056.20519	5130.3625
3058.60005	5126.7625
3060.99345	5122.3625
3063.3854	5111.3625
3065.7759	5112.1625
3068.16494	5100.0625
3070.55254	5081.8625
3072.93868	5070.8625
3075.32338	5059.3625
3077.70662	5058.6625
3080.08842	5040.4625
3082.46878	5053.4625
