Data from AgNPs_FTO_APTES_UA_50uM_CRN_200uM_R6G_10uM_NaF_0.1M_Addition_RamanShift__17__16-14-15-084.txt Node

Date: Mon Feb 21 16:14:15 GMT 2022
User: TCL
Spectrometer: QEP01345
Trigger mode: 4
Integration Time (sec): 7.000000E0
Scans to average: 10
Electric dark correction enabled: true
Nonlinearity correction enabled: false
Boxcar width: 0
XAxis mode: Raman Shifts
Number of Pixels in Spectrum: 1044
>>>>>Begin Spectral Data<<<<<
46.04893	0.6125
50.45542	-1.1875
54.85868	-0.2875
59.25871	-1.3875
63.6555	48.2125
68.04907	58.6125
72.43941	57.0125
76.82654	63.4125
81.21044	65.2125
85.59113	67.5125
89.96862	70.1125
94.34289	71.0125
98.71396	71.5125
103.08183	78.3125
107.4465	77.5125
111.80798	76.6125
116.16626	78.5125
120.52136	78.9125
124.87327	88.3125
129.222	85.9125
133.56755	88.3125
137.90993	96.7125
142.24913	104.4125
146.58517	111.6125
150.91804	127.7125
155.24774	151.4125
159.57429	181.5125
163.89768	229.7125
168.21792	304.5125
172.53501	410.6125
176.84895	574.2125
181.15975	799.4125
185.46741	1122.2125
189.77193	1550.3125
194.07331	2072.7125
198.37157	2687.9125
202.6667	3332.1125
206.9587	3964.0125
211.24758	4587.5125
215.53334	5209.3125
219.81599	5888.4125
224.09553	6589.5125
228.37195	7393.5125
232.64527	8289.8125
236.91549	9230.7125
241.18261	10146.5125
245.44663	11041.7125
249.70755	11790.2125
253.96539	12398.6125
258.22014	12948.2125
262.4718	13360.3125
266.72039	13673.7125
270.96589	13803.2125
275.20832	13815.4125
279.44768	13654.6125
283.68397	13434.2125
287.91719	13305.6125
292.14735	13179.7125
296.37445	13143.1125
300.59849	13262.7125
304.81948	13379.8125
309.03742	13440.6125
313.25231	13304.3125
317.46415	13044.0125
321.67296	12709.7125
325.87872	12446.5125
330.08145	12286.3125
334.28114	12315.0125
338.47781	12420.8125
342.67145	12589.3125
346.86207	12867.6125
351.04966	13176.5125
355.23424	13476.2125
359.4158	13787.4125
363.59435	13988.5125
367.76989	14119.1125
371.94243	14223.6125
376.11196	14306.6125
380.27849	14356.2125
384.44203	14421.4125
388.60257	14436.2125
392.76012	14495.9125
396.91468	14620.1125
401.06626	14789.4125
405.21485	14925.3125
409.36047	14834.8125
413.50311	14544.8125
417.64277	14268.8125
421.77947	14134.8125
425.9132	14100.9125
430.04396	14106.0125
434.17176	14182.0125
438.2966	14348.9125
442.41849	14570.3125
446.53742	14896.6125
450.6534	15214.4125
454.76644	15417.6125
458.87653	15540.1125
462.98368	15493.3125
467.08789	15373.8125
471.18916	15218.6125
475.2875	15013.3125
479.38291	14876.6125
483.4754	14762.2125
487.56496	14644.3125
491.6516	14518.8125
495.73531	14482.6125
499.81612	14467.0125
503.89401	14578.8125
507.96899	14623.2125
512.04106	14689.1125
516.11023	14718.4125
520.1765	14718.7125
524.23987	14716.0125
528.30034	14653.3125
532.35792	14629.0125
536.41261	14523.7125
540.46441	14406.0125
544.51333	14288.2125
548.55936	14359.2125
552.60252	14478.1125
556.64279	14674.0125
560.6802	14776.0125
564.71473	14782.1125
568.7464	14938.5125
572.7752	15100.3125
576.80114	15144.4125
580.82422	15148.3125
584.84444	15277.9125
588.86181	15485.2125
592.87633	15717.0125
596.888	15873.3125
600.89682	15962.3125
604.9028	16503.2125
608.90594	18207.2125
612.90624	20228.5125
616.90371	19269.8125
620.89834	16253.7125
624.89015	14911.6125
628.87913	14711.9125
632.86528	14772.3125
636.84862	14859.4125
640.82913	14776.3125
644.80683	14453.3125
648.78172	14222.4125
652.75379	14198.3125
656.72306	14367.0125
660.68952	14641.8125
664.65319	14593.2125
668.61405	14380.5125
672.57211	14404.0125
676.52738	14527.7125
680.47986	14563.3125
684.42955	14446.0125
688.37646	14339.2125
692.32058	14252.6125
696.26192	14311.1125
700.20048	14337.8125
704.13626	14363.3125
708.06928	14284.5125
711.99952	14216.8125
715.927	14198.9125
719.85171	14247.2125
723.77365	14268.5125
727.69284	14235.6125
731.60928	14167.0125
735.52295	14210.5125
739.43388	14192.2125
743.34206	14173.8125
747.24749	14209.5125
751.15017	14233.0125
755.05012	14325.7125
758.94733	14543.6125
762.8418	15185.4125
766.73354	16260.7125
770.62254	17490.1125
774.50882	18146.9125
778.39237	17597.8125
782.27321	16355.3125
786.15132	15242.0125
790.02671	14496.0125
793.89938	14117.7125
797.76935	14013.6125
801.6366	13910.8125
805.50115	13872.2125
809.36299	13824.4125
813.22213	13711.9125
817.07857	13658.1125
820.93231	13644.0125
824.78336	13634.8125
828.63172	13620.7125
832.47738	13579.9125
836.32036	13594.5125
840.16066	13613.0125
843.99827	13592.1125
847.8332	13606.0125
851.66546	13551.6125
855.49504	13569.3125
859.32195	13639.0125
863.1462	13675.1125
866.96777	13703.0125
870.78668	13648.9125
874.60293	13662.4125
878.41652	13670.9125
882.22745	13679.0125
886.03573	13704.5125
889.84136	13702.2125
893.64433	13628.6125
897.44466	13580.8125
901.24235	13506.9125
905.0374	13445.1125
908.8298	13347.9125
912.61957	13347.6125
916.40671	13368.3125
920.19121	13457.2125
923.97308	13564.2125
927.75233	13620.8125
931.52895	13642.6125
935.30295	13557.3125
939.07433	13351.2125
942.84309	13209.9125
946.60924	13105.7125
950.37278	13060.3125
954.13371	13016.1125
957.89203	12947.4125
961.64774	12924.1125
965.40086	12895.0125
969.15137	12844.9125
972.89929	12801.9125
976.64461	12767.1125
980.38733	12767.1125
984.12747	12825.2125
987.86502	12876.6125
991.59999	12970.4125
995.33237	13118.2125
999.06217	13305.7125
1002.78939	13538.9125
1006.51404	13670.0125
1010.23611	13785.3125
1013.95561	13896.0125
1017.67255	13927.1125
1021.38692	13872.1125
1025.09872	13725.1125
1028.80796	13691.7125
1032.51465	13772.9125
1036.21877	13967.7125
1039.92035	14022.6125
1043.61937	13955.1125
1047.31584	13849.6125
1051.00976	13703.5125
1054.70114	13674.6125
1058.38998	13638.8125
1062.07627	13649.5125
1065.76003	13673.8125
1069.44126	13711.6125
1073.11995	13798.4125
1076.79611	13871.3125
1080.46974	13984.4125
1084.14085	14103.8125
1087.80943	14204.8125
1091.47549	14288.9125
1095.13903	14253.4125
1098.80005	14115.0125
1102.45857	13931.8125
1106.11456	13852.1125
1109.76805	13846.7125
1113.41903	13957.1125
1117.06751	14082.0125
1120.71348	14302.2125
1124.35696	14498.3125
1127.99793	14702.4125
1131.63641	14843.0125
1135.2724	14691.0125
1138.90589	14474.0125
1142.5369	14258.6125
1146.16542	14133.0125
1149.79145	14056.5125
1153.415	14014.5125
1157.03607	14094.4125
1160.65467	14281.4125
1164.27079	14646.3125
1167.88443	15198.4125
1171.49561	15866.7125
1175.10432	16849.9125
1178.71056	18094.5125
1182.31434	19270.9125
1185.91565	19812.8125
1189.51451	19690.4125
1193.11091	19031.5125
1196.70485	18207.5125
1200.29634	17489.6125
1203.88538	16901.4125
1207.47197	16288.2125
1211.05612	15793.1125
1214.63782	15463.8125
1218.21708	15323.7125
1221.79391	15304.8125
1225.36829	15353.4125
1228.94024	15304.8125
1232.50976	15118.9125
1236.07685	14983.3125
1239.6415	14886.3125
1243.20374	14923.2125
1246.76355	14982.4125
1250.32093	15071.0125
1253.8759	15310.6125
1257.42845	15536.6125
1260.97859	15853.5125
1264.52631	16144.2125
1268.07163	16472.7125
1271.61453	16868.1125
1275.15503	17231.5125
1278.69312	17532.7125
1282.22882	17781.2125
1285.76211	18041.8125
1289.29301	18370.1125
1292.82151	18826.9125
1296.34761	19378.0125
1299.87133	20107.4125
1303.39266	21110.8125
1306.9116	22421.7125
1310.42815	23802.7125
1313.94233	24665.1125
1317.45412	24453.1125
1320.96354	23614.6125
1324.47058	22639.7125
1327.97525	21736.8125
1331.47754	21066.5125
1334.97747	20748.2125
1338.47502	20752.1125
1341.97022	20941.0125
1345.46305	21242.4125
1348.95352	21803.9125
1352.44163	22518.3125
1355.92738	23615.3125
1359.41078	25109.6125
1362.89183	26424.2125
1366.37053	25838.3125
1369.84688	23333.0125
1373.32088	20541.7125
1376.79254	18747.0125
1380.26186	17842.0125
1383.72883	17455.7125
1387.19347	17123.9125
1390.65578	16790.8125
1394.11575	16569.3125
1397.57339	16566.8125
1401.0287	16688.8125
1404.48168	16780.3125
1407.93234	16871.2125
1411.38068	16777.4125
1414.82669	16631.2125
1418.27039	16394.5125
1421.71177	16122.8125
1425.15083	15793.3125
1428.58758	15609.1125
1432.02203	15646.6125
1435.45416	15778.8125
1438.88399	16000.3125
1442.31151	16163.4125
1445.73673	16263.7125
1449.15965	16337.0125
1452.58027	16462.1125
1455.9986	16465.9125
1459.41463	16579.7125
1462.82837	16779.2125
1466.23982	17024.5125
1469.64898	17284.6125
1473.05586	17530.1125
1476.46045	17562.8125
1479.86276	17628.9125
1483.26279	17651.9125
1486.66054	17651.2125
1490.05602	17765.2125
1493.44922	18025.6125
1496.84016	18432.5125
1500.22882	19163.5125
1503.61521	20274.1125
1506.99934	21539.4125
1510.38121	22536.3125
1513.76081	22794.0125
1517.13816	21966.7125
1520.51324	20534.3125
1523.88607	19153.1125
1527.25665	18278.3125
1530.62498	17835.1125
1533.99105	17518.9125
1537.35488	17325.3125
1540.71647	17136.2125
1544.07581	16986.2125
1547.4329	16796.8125
1550.78776	16702.7125
1554.14038	16648.2125
1557.49077	16641.7125
1560.83892	16739.3125
1564.18484	16853.1125
1567.52853	16996.3125
1570.86999	17188.8125
1574.20922	17322.7125
1577.54624	17343.1125
1580.88103	17016.5125
1584.2136	16599.2125
1587.54395	16466.0125
1590.87208	16770.0125
1594.19801	17410.8125
1597.52172	18318.6125
1600.84321	18788.3125
1604.16251	18479.1125
1607.47959	17627.2125
1610.79447	16700.9125
1614.10715	15733.8125
1617.41763	14873.7125
1620.7259	14251.3125
1624.03199	13929.1125
1627.33587	13872.9125
1630.63757	14049.0125
1633.93707	14551.8125
1637.23439	15338.7125
1640.52951	16617.8125
1643.82246	18142.3125
1647.11321	19518.1125
1650.40179	20155.6125
1653.68819	19302.7125
1656.97241	17391.6125
1660.25446	15436.3125
1663.53433	13965.7125
1666.81203	13123.7125
1670.08756	12623.0125
1673.36092	12296.5125
1676.63211	12079.7125
1679.90115	11924.6125
1683.16801	11773.1125
1686.43272	11627.7125
1689.69527	11556.0125
1692.95567	11445.4125
1696.2139	11324.5125
1699.46999	11199.1125
1702.72392	11133.7125
1705.97571	11188.6125
1709.22535	11270.4125
1712.47284	11302.2125
1715.71819	11328.8125
1718.96139	11307.0125
1722.20246	11317.6125
1725.44139	11244.5125
1728.67818	11206.5125
1731.91284	11166.3125
1735.14537	11118.2125
1738.37576	11090.2125
1741.60403	11048.9125
1744.83017	10995.2125
1748.05418	10994.6125
1751.27607	10947.9125
1754.49584	10904.3125
1757.71349	10846.5125
1760.92903	10815.2125
1764.14244	10779.1125
1767.35375	10765.2125
1770.56294	10680.8125
1773.77002	10690.9125
1776.97499	10726.4125
1780.17785	10711.4125
1783.37861	10727.4125
1786.57727	10723.5125
1789.77382	10720.4125
1792.96828	10687.2125
1796.16064	10672.0125
1799.3509	10643.3125
1802.53907	10625.1125
1805.72514	10589.0125
1808.90913	10576.1125
1812.09102	10546.5125
1815.27083	10521.6125
1818.44856	10520.8125
1821.6242	10480.9125
1824.79776	10468.1125
1827.96924	10473.9125
1831.13864	10465.9125
1834.30597	10446.8125
1837.47122	10430.5125
1840.6344	10417.8125
1843.7955	10442.0125
1846.95454	10427.1125
1850.11151	10412.6125
1853.26642	10380.3125
1856.41926	10388.3125
1859.57004	10368.3125
1862.71876	10379.1125
1865.86542	10368.4125
1869.01003	10369.8125
1872.15258	10375.6125
1875.29308	10342.5125
1878.43152	10327.7125
1881.56792	10319.7125
1884.70227	10301.8125
1887.83457	10304.7125
1890.96482	10306.2125
1894.09304	10267.1125
1897.21921	10269.5125
1900.34335	10241.2125
1903.46544	10245.6125
1906.58551	10228.3125
1909.70353	10214.3125
1912.81953	10213.0125
1915.93349	10186.5125
1919.04543	10170.6125
1922.15534	10138.4125
1925.26322	10136.1125
1928.36908	10110.5125
1931.47292	10074.5125
1934.57473	10045.8125
1937.67453	10023.1125
1940.77232	9987.1125
1943.86808	9955.4125
1946.96184	9957.3125
1950.05358	9904.3125
1953.14331	9884.8125
1956.23103	9860.8125
1959.31675	9823.5125
1962.40046	9842.4125
1965.48217	9789.9125
1968.56188	9760.6125
1971.63959	9744.7125
1974.7153	9719.1125
1977.78901	9680.4125
1980.86073	9660.2125
1983.93046	9617.5125
1986.99819	9574.9125
1990.06394	9560.3125
1993.1277	9534.7125
1996.18947	9488.0125
1999.24925	9484.1125
2002.30706	9448.1125
2005.36288	9414.7125
2008.41672	9389.6125
2011.46859	9364.3125
2014.51848	9352.9125
2017.56639	9321.6125
2020.61233	9293.1125
2023.6563	9266.4125
2026.6983	9225.5125
2029.73833	9216.6125
2032.7764	9197.7125
2035.8125	9176.5125
2038.84664	9160.9125
2041.87881	9156.3125
2044.90903	9138.1125
2047.93729	9091.9125
2050.96359	9099.8125
2053.98794	9104.6125
2057.01034	9088.1125
2060.03078	9084.6125
2063.04927	9071.8125
2066.06582	9072.0125
2069.08042	9033.0125
2072.09307	9058.5125
2075.10378	9043.3125
2078.11255	9028.0125
2081.11938	9049.6125
2084.12426	9029.4125
2087.12722	9042.2125
2090.12824	9019.1125
2093.12732	9023.1125
2096.12447	8992.7125
2099.11969	9000.9125
2102.11299	9023.7125
2105.10435	9008.8125
2108.09379	9012.0125
2111.08131	9024.2125
2114.0669	9013.4125
2117.05057	9031.1125
2120.03233	9062.9125
2123.01216	9048.6125
2125.99008	9062.4125
2128.96609	9073.6125
2131.94018	9071.0125
2134.91236	9056.3125
2137.88263	9070.7125
2140.851	9080.3125
2143.81746	9098.7125
2146.78201	9097.4125
2149.74466	9078.6125
2152.7054	9097.5125
2155.66425	9094.7125
2158.6212	9074.6125
2161.57625	9065.9125
2164.52941	9064.2125
2167.48067	9056.4125
2170.43004	9054.4125
2173.37752	9069.6125
2176.32311	9045.7125
2179.26681	9083.5125
2182.20863	9057.6125
2185.14856	9056.8125
2188.08661	9048.7125
2191.02278	9065.6125
2193.95707	9053.2125
2196.88948	9035.7125
2199.82001	9033.3125
2202.74867	9042.6125
2205.67545	9033.1125
2208.60037	9007.5125
2211.52341	8975.6125
2214.44458	8987.7125
2217.36388	8984.1125
2220.28132	8982.5125
2223.1969	8928.1125
2226.11061	8909.5125
2229.02246	8887.7125
2231.93245	8866.8125
2234.84058	8871.4125
2237.74686	8845.7125
2240.65128	8835.9125
2243.55385	8830.1125
2246.45456	8824.3125
2249.35343	8804.3125
2252.25044	8801.4125
2255.14561	8784.1125
2258.03893	8776.9125
2260.93041	8750.7125
2263.82004	8711.1125
2266.70783	8709.1125
2269.59378	8696.1125
2272.4779	8690.3125
2275.36017	8664.5125
2278.24061	8654.9125
2281.11922	8614.0125
2283.996	8603.4125
2286.87094	8593.4125
2289.74405	8572.4125
2292.61534	8571.0125
2295.4848	8567.2125
2298.35243	8578.2125
2301.21824	8577.3125
2304.08223	8559.2125
2306.94439	8580.0125
2309.80474	8562.5125
2312.66327	8571.9125
2315.51999	8543.5125
2318.37489	8534.1125
2321.22797	8527.4125
2324.07925	8510.8125
2326.92871	8496.5125
2329.77637	8472.5125
2332.62222	8470.7125
2335.46626	8471.6125
2338.3085	8443.9125
2341.14893	8459.6125
2343.98756	8444.4125
2346.8244	8442.7125
2349.65943	8426.0125
2352.49267	8437.0125
2355.32411	8425.1125
2358.15376	8436.1125
2360.98161	8430.5125
2363.80768	8403.7125
2366.63195	8423.9125
2369.45444	8388.3125
2372.27514	8397.9125
2375.09405	8378.3125
2377.91118	8361.2125
2380.72652	8353.7125
2383.54009	8326.9125
2386.35187	8310.9125
2389.16188	8286.7125
2391.97011	8258.2125
2394.77657	8251.2125
2397.58125	8234.1125
2400.38416	8238.8125
2403.18529	8214.1125
2405.98466	8205.9125
2408.78226	8182.4125
2411.57809	8137.9125
2414.37216	8155.2125
2417.16446	8145.4125
2419.955	8120.3125
2422.74378	8157.8125
2425.5308	8116.7125
2428.31606	8142.8125
2431.09956	8139.5125
2433.88131	8096.8125
2436.6613	8113.2125
2439.43954	8110.8125
2442.21603	8088.7125
2444.99077	8080.6125
2447.76377	8087.8125
2450.53501	8095.1125
2453.30451	8101.8125
2456.07226	8068.5125
2458.83827	8083.4125
2461.60254	8065.4125
2464.36507	8045.5125
2467.12586	8033.1125
2469.88492	8061.0125
2472.64224	8047.1125
2475.39782	8027.4125
2478.15167	8030.5125
2480.90379	8056.0125
2483.65417	8054.3125
2486.40283	8019.1125
2489.14976	8058.6125
2491.89497	8042.2125
2494.63845	8031.2125
2497.3802	8017.9125
2500.12024	8030.9125
2502.85855	7999.5125
2505.59514	7998.8125
2508.33002	7998.9125
2511.06318	7969.0125
2513.79462	7975.3125
2516.52435	7950.9125
2519.25237	7960.3125
2521.97867	7913.4125
2524.70327	7938.7125
2527.42616	7907.9125
2530.14734	7908.8125
2532.86681	7898.0125
2535.58458	7901.1125
2538.30065	7885.3125
2541.01501	7882.1125
2543.72768	7852.7125
2546.43864	7854.6125
2549.14791	7855.9125
2551.85548	7846.7125
2554.56136	7822.6125
2557.26554	7812.2125
2559.96803	7803.1125
2562.66883	7800.2125
2565.36794	7775.5125
2568.06536	7780.5125
2570.7611	7784.6125
2573.45514	7714.1125
2576.14751	7742.6125
2578.83819	7737.3125
2581.52719	7741.7125
2584.21451	7712.1125
2586.90015	7713.0125
2589.58411	7684.7125
2592.2664	7695.5125
2594.94701	7697.8125
2597.62594	7661.8125
2600.30321	7644.2125
2602.9788	7637.7125
2605.65273	7609.7125
2608.32498	7641.4125
2610.99557	7620.0125
2613.66449	7625.1125
2616.33175	7617.6125
2618.99734	7611.0125
2621.66128	7596.1125
2624.32355	7586.0125
2626.98416	7593.2125
2629.64311	7578.1125
2632.30041	7577.0125
2634.95605	7579.0125
2637.61004	7558.2125
2640.26238	7558.1125
2642.91306	7542.0125
2645.56209	7524.2125
2648.20948	7542.5125
2650.85521	7515.2125
2653.4993	7531.5125
2656.14175	7530.7125
2658.78255	7545.9125
2661.42171	7532.8125
2664.05923	7544.9125
2666.6951	7530.3125
2669.32934	7539.0125
2671.96194	7529.7125
2674.59291	7535.1125
2677.22224	7531.6125
2679.84993	7535.1125
2682.476	7522.2125
2685.10043	7516.2125
2687.72324	7496.9125
2690.34441	7509.4125
2692.96396	7509.1125
2695.58188	7498.3125
2698.19818	7497.1125
2700.81285	7486.7125
2703.4259	7477.8125
2706.03733	7395.1125
2708.64714	7441.5125
2711.25533	7493.3125
2713.86191	7496.6125
2716.46687	7519.6125
2719.07021	7507.1125
2721.67194	7515.0125
2724.27206	7498.2125
2726.87057	7528.6125
2729.46747	7526.5125
2732.06276	7538.8125
2734.65644	7516.9125
2737.24852	7527.0125
2739.83899	7513.4125
2742.42786	7509.4125
2745.01513	7480.4125
2747.60079	7482.7125
2750.18486	7472.1125
2752.76733	7474.5125
2755.3482	7447.5125
2757.92747	7474.8125
2760.50515	7447.2125
2763.08123	7421.9125
2765.65573	7418.3125
2768.22863	7426.5125
2770.79994	7410.0125
2773.36967	7402.8125
2775.9378	7390.8125
2778.50435	7392.2125
2781.06932	7382.5125
2783.6327	7374.6125
2786.1945	7356.3125
2788.75471	7381.7125
2791.31335	7353.7125
2793.87041	7360.6125
2796.42589	7330.2125
2798.97979	7342.3125
2801.53212	7327.9125
2804.08288	7323.5125
2806.63206	7304.7125
2809.17967	7279.5125
2811.72571	7268.8125
2814.27018	7264.4125
2816.81308	7260.8125
2819.35442	7227.6125
2821.89419	7221.9125
2824.43239	7220.5125
2826.96904	7221.6125
2829.50412	7213.5125
2832.03763	7205.8125
2834.56959	7203.7125
2837.1	7191.9125
2839.62884	7211.3125
2842.15613	7188.0125
2844.68186	7223.0125
2847.20604	7218.4125
2849.72867	7221.7125
2852.24974	7225.3125
2854.76927	7210.8125
2857.28724	7154.1125
2859.80367	7175.1125
2862.31855	7176.0125
2864.83189	7176.9125
2867.34368	7158.9125
2869.85393	7165.6125
2872.36264	7165.7125
2874.8698	7184.8125
2877.37543	7179.5125
2879.87952	7159.5125
2882.38207	7138.3125
2884.88308	7158.1125
2887.38256	7171.0125
2889.88051	7168.2125
2892.37692	7167.1125
2894.8718	7161.9125
2897.36515	7188.7125
2899.85698	7194.5125
2902.34727	7195.7125
2904.83604	7206.4125
2907.32328	7217.7125
2909.809	7217.3125
2912.29319	7221.0125
2914.77587	7225.3125
2917.25702	7230.8125
2919.73665	7205.6125
2922.21476	7222.7125
2924.69136	7230.3125
2927.16644	7217.7125
2929.64	7222.9125
2932.11205	7208.7125
2934.58258	7194.1125
2937.05161	7206.5125
2939.51912	7216.0125
2941.98513	7186.2125
2944.44962	7165.6125
2946.91261	7134.4125
2949.37409	7143.9125
2951.83407	7154.7125
2954.29254	7155.2125
2956.74951	7129.1125
2959.20498	7113.8125
2961.65895	7115.7125
2964.11142	7126.4125
2966.56239	7094.7125
2969.01186	7085.9125
2971.45984	7050.8125
2973.90632	7047.6125
2976.35131	7020.2125
2978.7948	6986.7125
2981.23681	6989.4125
2983.67732	6983.9125
2986.11635	6961.9125
2988.55388	6958.4125
2990.98993	6956.0125
2993.4245	6924.7125
2995.85758	6919.1125
2998.28917	6911.3125
3000.71928	6892.4125
3003.14791	6877.9125
3005.57506	6868.9125
3008.00073	6856.7125
3010.42493	6837.7125
3012.84764	6848.5125
3015.26888	6858.0125
3017.68865	6828.2125
3020.10694	6814.5125
3022.52376	6811.3125
3024.9391	6804.5125
3027.35298	6783.2125
3029.76539	6784.0125
3032.17632	6772.4125
3034.5858	6762.8125
3036.9938	6749.3125
3039.40034	6738.2125
3041.80542	6755.8125
3044.20903	6715.1125
3046.61118	6713.8125
3049.01187	6706.1125
3051.4111	6698.9125
3053.80888	6704.8125
3056.20519	6687.0125
3058.60005	6671.4125
3060.99345	6664.1125
3063.3854	6644.5125
3065.7759	6643.6125
3068.16494	6648.7125
3070.55254	6591.3125
