Data from AgNPs_FTO_APTES_UA_50uM_CRN_5uM_R6G_10uM_NaF_0.1M_Addition_RamanShift__5__12-38-24-812.txt Node

Date: Mon Feb 21 12:38:24 GMT 2022
User: TCL
Spectrometer: QEP01345
Trigger mode: 4
Integration Time (sec): 7.000000E0
Scans to average: 10
Electric dark correction enabled: true
Nonlinearity correction enabled: false
Boxcar width: 0
XAxis mode: Raman Shifts
Number of Pixels in Spectrum: 1044
>>>>>Begin Spectral Data<<<<<
46.04893	1.525
50.45542	-1.075
54.85868	0.425
59.25871	-2.275
63.6555	49.925
68.04907	54.425
72.43941	53.425
76.82654	59.125
81.21044	64.925
85.59113	63.325
89.96862	67.325
94.34289	73.825
98.71396	71.925
103.08183	78.625
107.4465	78.025
111.80798	78.325
116.16626	76.325
120.52136	77.325
124.87327	85.925
129.222	90.425
133.56755	87.525
137.90993	96.325
142.24913	101.525
146.58517	109.925
150.91804	121.725
155.24774	143.725
159.57429	172.025
163.89768	214.725
168.21792	285.525
172.53501	383.925
176.84895	522.225
181.15975	725.325
185.46741	1014.425
189.77193	1401.125
194.07331	1863.325
198.37157	2400.625
202.6667	2963.525
206.9587	3521.825
211.24758	4093.825
215.53334	4659.625
219.81599	5280.925
224.09553	5969.725
228.37195	6749.825
232.64527	7588.725
236.91549	8441.325
241.18261	9261.025
245.44663	9992.925
249.70755	10630.125
253.96539	11123.325
258.22014	11550.025
262.4718	11869.425
266.72039	12106.925
270.96589	12159.725
275.20832	12052.325
279.44768	11893.425
283.68397	11658.825
287.91719	11484.325
292.14735	11399.725
296.37445	11392.025
300.59849	11496.725
304.81948	11658.425
309.03742	11758.925
313.25231	11751.725
317.46415	11576.525
321.67296	11284.625
325.87872	11057.525
330.08145	10983.325
334.28114	10972.125
338.47781	11015.525
342.67145	11151.725
346.86207	11379.125
351.04966	11638.325
355.23424	11971.425
359.4158	12206.525
363.59435	12369.725
367.76989	12449.325
371.94243	12532.525
376.11196	12556.425
380.27849	12603.525
384.44203	12641.425
388.60257	12704.725
392.76012	12763.125
396.91468	12854.825
401.06626	13033.425
405.21485	13163.225
409.36047	13050.825
413.50311	12792.625
417.64277	12603.925
421.77947	12508.425
425.9132	12508.425
430.04396	12540.625
434.17176	12584.725
438.2966	12779.325
442.41849	13095.725
446.53742	13617.125
450.6534	14122.925
454.76644	14352.025
458.87653	14355.125
462.98368	14206.825
467.08789	13910.825
471.18916	13655.325
475.2875	13301.225
479.38291	13030.225
483.4754	12846.525
487.56496	12719.525
491.6516	12669.025
495.73531	12600.225
499.81612	12615.025
503.89401	12716.525
507.96899	12733.625
512.04106	12710.225
516.11023	12658.725
520.1765	12637.325
524.23987	12612.925
528.30034	12649.925
532.35792	12607.025
536.41261	12432.125
540.46441	12202.625
544.51333	12096.525
548.55936	12139.725
552.60252	12359.625
556.64279	12711.425
560.6802	12944.825
564.71473	13002.825
568.7464	13147.525
572.7752	13437.525
576.80114	13631.725
580.82422	13869.025
584.84444	14405.225
588.86181	15275.725
592.87633	16357.125
596.888	16794.525
600.89682	16216.925
604.9028	15969.725
608.90594	17435.025
612.90624	19378.725
616.90371	18144.125
620.89834	14734.925
624.89015	13142.825
628.87913	12946.325
632.86528	13013.725
636.84862	12986.325
640.82913	12748.425
644.80683	12322.225
648.78172	12054.125
652.75379	12051.425
656.72306	12290.725
660.68952	12603.225
664.65319	12488.625
668.61405	12186.925
672.57211	12170.225
676.52738	12269.525
680.47986	12276.125
684.42955	12201.325
688.37646	12174.925
692.32058	12261.925
696.26192	12422.825
700.20048	12567.225
704.13626	12639.725
708.06928	12530.625
711.99952	12362.525
715.927	12420.325
719.85171	12533.925
723.77365	12503.125
727.69284	12325.225
731.60928	12165.925
735.52295	12130.325
739.43388	12184.125
743.34206	12243.625
747.24749	12261.425
751.15017	12351.525
755.05012	12508.025
758.94733	12876.625
762.8418	13651.525
766.73354	14923.525
770.62254	16181.325
774.50882	16625.725
778.39237	15986.525
782.27321	14722.025
786.15132	13596.925
790.02671	12866.525
793.89938	12502.025
797.76935	12328.125
801.6366	12258.125
805.50115	12226.825
809.36299	12131.825
813.22213	12052.225
817.07857	11963.325
820.93231	11877.425
824.78336	11863.825
828.63172	11861.925
832.47738	11871.225
836.32036	11889.525
840.16066	11966.825
843.99827	11962.725
847.8332	11953.225
851.66546	11889.925
855.49504	11886.225
859.32195	11908.625
863.1462	11855.225
866.96777	11811.125
870.78668	11783.325
874.60293	11799.925
878.41652	11843.325
882.22745	11938.025
886.03573	12024.425
889.84136	12043.325
893.64433	11976.325
897.44466	11939.325
901.24235	11875.425
905.0374	11801.025
908.8298	11743.225
912.61957	11737.225
916.40671	11789.925
920.19121	11900.225
923.97308	12100.425
927.75233	12257.925
931.52895	12291.325
935.30295	12127.625
939.07433	11836.025
942.84309	11649.425
946.60924	11561.825
950.37278	11526.325
954.13371	11491.625
957.89203	11428.825
961.64774	11396.125
965.40086	11391.625
969.15137	11406.225
972.89929	11384.625
976.64461	11398.025
980.38733	11458.225
984.12747	11520.025
987.86502	11631.325
991.59999	11749.525
995.33237	11990.025
999.06217	12359.325
1002.78939	12835.725
1006.51404	13207.325
1010.23611	13414.325
1013.95561	13542.725
1017.67255	13555.525
1021.38692	13362.225
1025.09872	13155.725
1028.80796	13188.725
1032.51465	13519.725
1036.21877	13816.925
1039.92035	13933.725
1043.61937	13810.225
1047.31584	13531.025
1051.00976	13157.325
1054.70114	12897.925
1058.38998	12821.425
1062.07627	12786.325
1065.76003	12810.525
1069.44126	12936.325
1073.11995	13153.325
1076.79611	13415.425
1080.46974	13633.625
1084.14085	13835.225
1087.80943	13989.425
1091.47549	14108.925
1095.13903	13994.125
1098.80005	13671.825
1102.45857	13343.525
1106.11456	13159.425
1109.76805	13166.025
1113.41903	13241.225
1117.06751	13370.925
1120.71348	13616.925
1124.35696	13865.125
1127.99793	14095.325
1131.63641	14194.725
1135.2724	14052.125
1138.90589	13867.125
1142.5369	13750.225
1146.16542	13716.525
1149.79145	13745.225
1153.415	13788.125
1157.03607	13892.125
1160.65467	14194.725
1164.27079	14776.925
1167.88443	15557.125
1171.49561	16616.825
1175.10432	18148.825
1178.71056	20153.525
1182.31434	21954.225
1185.91565	22647.025
1189.51451	22267.525
1193.11091	21334.925
1196.70485	20151.025
1200.29634	19081.625
1203.88538	18259.325
1207.47197	17593.325
1211.05612	17011.425
1214.63782	16651.925
1218.21708	16494.425
1221.79391	16564.725
1225.36829	16665.325
1228.94024	16567.825
1232.50976	16169.325
1236.07685	15727.825
1239.6415	15473.225
1243.20374	15434.525
1246.76355	15466.725
1250.32093	15635.125
1253.8759	16005.225
1257.42845	16494.425
1260.97859	17127.625
1264.52631	17771.425
1268.07163	18460.825
1271.61453	19153.825
1275.15503	19778.925
1278.69312	20333.625
1282.22882	20896.125
1285.76211	21560.525
1289.29301	22398.525
1292.82151	23354.825
1296.34761	24527.925
1299.87133	26060.725
1303.39266	27952.925
1306.9116	30010.725
1310.42815	31900.225
1313.94233	32695.225
1317.45412	32059.025
1320.96354	30492.925
1324.47058	28744.225
1327.97525	27271.525
1331.47754	26271.225
1334.97747	25677.525
1338.47502	25297.825
1341.97022	24978.525
1345.46305	24809.225
1348.95352	25082.225
1352.44163	25951.625
1355.92738	27770.925
1359.41078	30354.225
1362.89183	32603.725
1366.37053	32381.725
1369.84688	29247.525
1373.32088	25358.625
1376.79254	22696.325
1380.26186	21496.525
1383.72883	21042.125
1387.19347	20640.625
1390.65578	20149.625
1394.11575	19908.925
1397.57339	19928.025
1401.0287	20131.025
1404.48168	20227.125
1407.93234	20204.225
1411.38068	19981.625
1414.82669	19617.025
1418.27039	19213.725
1421.71177	18706.425
1425.15083	18216.225
1428.58758	18125.125
1432.02203	18374.325
1435.45416	18786.125
1438.88399	19158.525
1442.31151	19325.925
1445.73673	19340.225
1449.15965	19311.125
1452.58027	19214.425
1455.9986	19014.525
1459.41463	18980.425
1462.82837	19265.025
1466.23982	19804.025
1469.64898	20277.225
1473.05586	20687.025
1476.46045	20911.725
1479.86276	21062.925
1483.26279	21128.225
1486.66054	21305.725
1490.05602	21648.925
1493.44922	22135.225
1496.84016	22498.325
1500.22882	22981.725
1503.61521	23921.525
1506.99934	25013.925
1510.38121	25889.225
1513.76081	25878.825
1517.13816	24964.125
1520.51324	23493.525
1523.88607	22185.825
1527.25665	21489.325
1530.62498	21160.125
1533.99105	20916.725
1537.35488	20529.525
1540.71647	20056.425
1544.07581	19524.825
1547.4329	19044.125
1550.78776	18697.925
1554.14038	18460.225
1557.49077	18319.025
1560.83892	18318.225
1564.18484	18470.825
1567.52853	18686.025
1570.86999	19021.025
1574.20922	19362.725
1577.54624	19470.325
1580.88103	19353.625
1584.2136	19199.925
1587.54395	19650.825
1590.87208	20767.925
1594.19801	22374.225
1597.52172	23912.825
1600.84321	24442.425
1604.16251	23290.825
1607.47959	21175.925
1610.79447	19031.825
1614.10715	17191.825
1617.41763	15899.725
1620.7259	15121.125
1624.03199	14818.225
1627.33587	14932.625
1630.63757	15499.525
1633.93707	16573.625
1637.23439	18291.525
1640.52951	20906.525
1643.82246	24151.625
1647.11321	26720.625
1650.40179	27073.525
1653.68819	24729.225
1656.97241	20993.425
1660.25446	17611.325
1663.53433	15279.425
1666.81203	13926.025
1670.08756	13133.925
1673.36092	12665.125
1676.63211	12345.125
1679.90115	12137.425
1683.16801	11977.125
1686.43272	11836.525
1689.69527	11759.025
1692.95567	11592.625
1696.2139	11442.425
1699.46999	11300.825
1702.72392	11251.625
1705.97571	11285.225
1709.22535	11340.625
1712.47284	11396.025
1715.71819	11406.125
1718.96139	11389.625
1722.20246	11333.425
1725.44139	11262.725
1728.67818	11202.925
1731.91284	11147.825
1735.14537	11074.125
1738.37576	11012.625
1741.60403	10972.125
1744.83017	10922.025
1748.05418	10881.225
1751.27607	10819.025
1754.49584	10768.225
1757.71349	10682.125
1760.92903	10671.725
1764.14244	10652.025
1767.35375	10645.225
1770.56294	10631.325
1773.77002	10624.525
1776.97499	10654.425
1780.17785	10687.225
1783.37861	10721.725
1786.57727	10723.425
1789.77382	10724.725
1792.96828	10704.225
1796.16064	10706.325
1799.3509	10707.925
1802.53907	10659.825
1805.72514	10667.725
1808.90913	10627.925
1812.09102	10607.825
1815.27083	10596.525
1818.44856	10580.625
1821.6242	10576.025
1824.79776	10574.025
1827.96924	10598.125
1831.13864	10577.225
1834.30597	10610.925
1837.47122	10585.925
1840.6344	10578.725
1843.7955	10568.625
1846.95454	10578.825
1850.11151	10571.625
1853.26642	10559.825
1856.41926	10577.525
1859.57004	10548.825
1862.71876	10536.125
1865.86542	10521.625
1869.01003	10540.525
1872.15258	10545.225
1875.29308	10513.925
1878.43152	10518.425
1881.56792	10536.625
1884.70227	10512.825
1887.83457	10510.125
1890.96482	10527.225
1894.09304	10480.825
1897.21921	10478.225
1900.34335	10440.925
1903.46544	10453.525
1906.58551	10443.025
1909.70353	10430.025
1912.81953	10441.925
1915.93349	10416.525
1919.04543	10392.025
1922.15534	10406.225
1925.26322	10369.525
1928.36908	10347.025
1931.47292	10320.925
1934.57473	10277.525
1937.67453	10247.925
1940.77232	10252.025
1943.86808	10217.125
1946.96184	10194.325
1950.05358	10193.525
1953.14331	10147.625
1956.23103	10128.025
1959.31675	10075.625
1962.40046	10072.425
1965.48217	10049.725
1968.56188	10041.825
1971.63959	10031.025
1974.7153	9975.825
1977.78901	9959.425
1980.86073	9898.825
1983.93046	9892.925
1986.99819	9874.625
1990.06394	9837.925
1993.1277	9836.625
1996.18947	9789.825
1999.24925	9759.325
2002.30706	9731.125
2005.36288	9707.525
2008.41672	9709.825
2011.46859	9684.125
2014.51848	9659.925
2017.56639	9621.125
2020.61233	9617.125
2023.6563	9600.125
2026.6983	9576.525
2029.73833	9568.725
2032.7764	9551.925
2035.8125	9527.325
2038.84664	9503.125
2041.87881	9523.325
2044.90903	9517.525
2047.93729	9502.425
2050.96359	9487.325
2053.98794	9500.925
2057.01034	9483.325
2060.03078	9471.625
2063.04927	9452.925
2066.06582	9444.325
2069.08042	9446.425
2072.09307	9467.325
2075.10378	9474.925
2078.11255	9435.825
2081.11938	9443.125
2084.12426	9457.425
2087.12722	9440.225
2090.12824	9458.025
2093.12732	9452.925
2096.12447	9458.925
2099.11969	9481.825
2102.11299	9467.925
2105.10435	9477.725
2108.09379	9468.125
2111.08131	9490.225
2114.0669	9498.525
2117.05057	9503.825
2120.03233	9499.925
2123.01216	9525.825
2125.99008	9544.625
2128.96609	9542.825
2131.94018	9554.525
2134.91236	9564.125
2137.88263	9580.425
2140.851	9582.425
2143.81746	9628.125
2146.78201	9590.825
2149.74466	9571.025
2152.7054	9584.025
2155.66425	9584.525
2158.6212	9587.425
2161.57625	9592.425
2164.52941	9579.025
2167.48067	9578.725
2170.43004	9595.925
2173.37752	9574.325
2176.32311	9608.025
2179.26681	9576.125
2182.20863	9598.625
2185.14856	9620.425
2188.08661	9619.425
2191.02278	9630.825
2193.95707	9600.225
2196.88948	9593.225
2199.82001	9608.825
2202.74867	9621.825
2205.67545	9618.525
2208.60037	9598.325
2211.52341	9584.625
2214.44458	9571.325
2217.36388	9535.725
2220.28132	9544.225
2223.1969	9527.525
2226.11061	9505.625
2229.02246	9528.325
2231.93245	9491.025
2234.84058	9492.925
2237.74686	9474.825
2240.65128	9489.925
2243.55385	9480.225
2246.45456	9481.425
2249.35343	9459.125
2252.25044	9454.725
2255.14561	9437.725
2258.03893	9428.025
2260.93041	9410.625
2263.82004	9382.325
2266.70783	9394.525
2269.59378	9354.125
2272.4779	9336.125
2275.36017	9331.325
2278.24061	9315.725
2281.11922	9322.025
2283.996	9273.725
2286.87094	9271.325
2289.74405	9292.425
2292.61534	9268.925
2295.4848	9277.825
2298.35243	9278.425
2301.21824	9267.625
2304.08223	9269.225
2306.94439	9309.425
2309.80474	9314.825
2312.66327	9306.425
2315.51999	9317.725
2318.37489	9322.525
2321.22797	9299.725
2324.07925	9288.525
2326.92871	9290.325
2329.77637	9284.225
2332.62222	9256.525
2335.46626	9276.125
2338.3085	9268.625
2341.14893	9260.325
2343.98756	9265.425
2346.8244	9267.125
2349.65943	9261.725
2352.49267	9268.425
2355.32411	9299.125
2358.15376	9263.725
2360.98161	9252.225
2363.80768	9271.725
2366.63195	9233.425
2369.45444	9238.025
2372.27514	9251.525
2375.09405	9222.925
2377.91118	9227.525
2380.72652	9219.125
2383.54009	9185.825
2386.35187	9181.225
2389.16188	9175.725
2391.97011	9166.925
2394.77657	9142.725
2397.58125	9114.725
2400.38416	9115.925
2403.18529	9085.325
2405.98466	9085.025
2408.78226	9080.425
2411.57809	9055.625
2414.37216	9053.325
2417.16446	9054.925
2419.955	9049.125
2422.74378	9041.325
2425.5308	9032.625
2428.31606	9061.025
2431.09956	9036.925
2433.88131	9023.825
2436.6613	9033.725
2439.43954	9038.925
2442.21603	9018.225
2444.99077	9039.725
2447.76377	9062.225
2450.53501	9046.625
2453.30451	9050.725
2456.07226	9029.925
2458.83827	9039.225
2461.60254	9041.825
2464.36507	9041.925
2467.12586	9012.425
2469.88492	9053.625
2472.64224	9065.925
2475.39782	9049.625
2478.15167	9073.125
2480.90379	9068.125
2483.65417	9091.125
2486.40283	9100.425
2489.14976	9105.125
2491.89497	9100.025
2494.63845	9097.825
2497.3802	9077.325
2500.12024	9083.925
2502.85855	9082.825
2505.59514	9094.525
2508.33002	9075.025
2511.06318	9065.925
2513.79462	9050.525
2516.52435	9048.525
2519.25237	9029.425
2521.97867	9042.125
2524.70327	9041.625
2527.42616	9035.825
2530.14734	9032.125
2532.86681	9047.325
2535.58458	9040.225
2538.30065	9038.025
2541.01501	9043.525
2543.72768	9001.725
2546.43864	9031.425
2549.14791	9023.325
2551.85548	9019.825
2554.56136	9014.725
2557.26554	9012.125
2559.96803	9019.825
2562.66883	9017.725
2565.36794	8986.925
2568.06536	9018.925
2570.7611	9003.825
2573.45514	9013.825
2576.14751	9017.425
2578.83819	9013.225
2581.52719	8998.125
2584.21451	8981.025
2586.90015	8964.525
2589.58411	8951.925
2592.2664	8959.725
2594.94701	8979.925
2597.62594	8979.025
2600.30321	8974.325
2602.9788	8951.025
2605.65273	8966.525
2608.32498	8949.125
2610.99557	8944.025
2613.66449	8978.425
2616.33175	8944.025
2618.99734	8947.325
2621.66128	8952.025
2624.32355	8936.325
2626.98416	8949.825
2629.64311	8937.225
2632.30041	8911.925
2634.95605	8920.925
2637.61004	8891.725
2640.26238	8898.925
2642.91306	8907.625
2645.56209	8876.125
2648.20948	8869.625
2650.85521	8876.725
2653.4993	8880.225
2656.14175	8909.625
2658.78255	8907.325
2661.42171	8904.425
2664.05923	8924.625
2666.6951	8947.225
2669.32934	8951.025
2671.96194	8961.025
2674.59291	8969.525
2677.22224	8951.525
2679.84993	8975.425
2682.476	8930.125
2685.10043	8935.925
2687.72324	8923.325
2690.34441	8915.725
2692.96396	8937.025
2695.58188	8928.325
2698.19818	8932.825
2700.81285	8917.225
2703.4259	8913.825
2706.03733	8863.825
2708.64714	8884.925
2711.25533	8907.825
2713.86191	8932.525
2716.46687	8992.725
2719.07021	8987.625
2721.67194	9019.525
2724.27206	8999.825
2726.87057	8996.825
2729.46747	9012.125
2732.06276	9023.725
2734.65644	9031.525
2737.24852	9032.225
2739.83899	9067.425
2742.42786	9056.725
2745.01513	9034.925
2747.60079	9034.025
2750.18486	9027.625
2752.76733	9025.225
2755.3482	9022.225
2757.92747	9022.825
2760.50515	9012.125
2763.08123	9026.225
2765.65573	9015.825
2768.22863	8985.525
2770.79994	8977.125
2773.36967	9006.225
2775.9378	9007.525
2778.50435	9014.625
2781.06932	8991.525
2783.6327	8999.625
2786.1945	9004.325
2788.75471	8994.325
2791.31335	8975.425
2793.87041	8986.825
2796.42589	8981.125
2798.97979	8975.125
2801.53212	8941.425
2804.08288	8935.025
2806.63206	8938.825
2809.17967	8927.325
2811.72571	8905.325
2814.27018	8899.325
2816.81308	8883.025
2819.35442	8879.625
2821.89419	8860.725
2824.43239	8881.725
2826.96904	8856.625
2829.50412	8897.425
2832.03763	8880.425
2834.56959	8861.225
2837.1	8863.425
2839.62884	8883.125
2842.15613	8849.725
2844.68186	8875.625
2847.20604	8858.725
2849.72867	8867.325
2852.24974	8893.725
2854.76927	8867.625
2857.28724	8866.425
2859.80367	8892.625
2862.31855	8882.025
2864.83189	8879.525
2867.34368	8888.025
2869.85393	8900.225
2872.36264	8914.925
2874.8698	8910.425
2877.37543	8906.325
2879.87952	8942.825
2882.38207	8943.125
2884.88308	8943.125
2887.38256	8954.625
2889.88051	8970.225
2892.37692	8954.125
2894.8718	8981.925
2897.36515	8994.425
2899.85698	9006.425
2902.34727	9016.025
2904.83604	9018.225
2907.32328	9049.025
2909.809	9058.525
2912.29319	9040.425
2914.77587	9053.025
2917.25702	9045.625
2919.73665	9038.925
2922.21476	9045.625
2924.69136	9029.925
2927.16644	9050.025
2929.64	9030.125
2932.11205	9020.125
2934.58258	8968.925
2937.05161	8980.125
2939.51912	8993.725
2941.98513	8975.025
2944.44962	8967.025
2946.91261	8923.825
2949.37409	8960.725
2951.83407	8936.425
2954.29254	8938.125
2956.74951	8912.625
2959.20498	8911.325
2961.65895	8875.125
2964.11142	8901.025
2966.56239	8881.525
2969.01186	8879.725
2971.45984	8847.525
2973.90632	8862.025
2976.35131	8823.325
2978.7948	8816.825
2981.23681	8828.825
2983.67732	8807.225
2986.11635	8784.025
2988.55388	8741.925
2990.98993	8721.925
2993.4245	8742.025
2995.85758	8711.725
2998.28917	8676.925
3000.71928	8658.325
3003.14791	8638.525
3005.57506	8643.625
3008.00073	8628.625
3010.42493	8630.225
3012.84764	8627.825
3015.26888	8609.125
3017.68865	8592.325
3020.10694	8596.425
3022.52376	8609.225
3024.9391	8579.625
3027.35298	8585.325
3029.76539	8586.325
3032.17632	8583.725
3034.5858	8561.425
3036.9938	8555.325
3039.40034	8539.625
3041.80542	8520.625
3044.20903	8517.525
3046.61118	8557.925
3049.01187	8515.925
3051.4111	8517.925
3053.80888	8530.925
3056.20519	8491.025
3058.60005	8501.525
3060.99345	8482.925
3063.3854	8472.125
3065.7759	8451.725
3068.16494	8447.425
3070.55254	8412.625
3072.93868	8411.025
3075.32338	8377.625
3077.70662	8370.225
3080.08842	8329.325
3082.46878	8342.425
3084.84769	8354.925
3087.22515	8364.525
3089.60118	8360.825
3091.97576	8358.425
3094.3489	8384.725
3096.72061	8342.225
3099.09087	8364.025
3101.4597	8384.625
3103.82709	8387.925
3106.19305	8365.425
3108.55757	8385.025
3110.92066	8348.325
3113.28232	8362.925
3115.64255	8338.925
3118.00134	8338.325
3120.35871	8337.725
3122.71466	8346.825
3125.06917	8327.125
3127.42226	8302.225
3129.77393	8303.425
3132.12417	8318.325
3134.47299	8317.325
3136.82039	8320.725
3139.16636	8342.225
3141.51092	8311.425
3143.85406	8333.125
3146.19579	8335.925
3148.53609	8337.125
3150.87499	8360.425
3153.21246	8360.525
3155.54853	8391.025
3157.88318	8378.525
3160.21642	8385.525
3162.54826	8393.925
3164.87868	8375.925
3167.2077	8376.225
3169.5353	8423.125
3171.86151	8399.025
3174.18631	8399.325
3176.5097	8409.925
3178.83169	8388.425
3181.15228	8407.025
