Data from AgNPs_FTO_APTES_UA_50uM_CRN_50uM_R6G_10uM_NaF_0.1M_Addition_RamanShift__18__14-53-44-984.txt Node

Date: Mon Feb 21 14:53:44 GMT 2022
User: TCL
Spectrometer: QEP01345
Trigger mode: 4
Integration Time (sec): 7.000000E0
Scans to average: 10
Electric dark correction enabled: true
Nonlinearity correction enabled: false
Boxcar width: 0
XAxis mode: Raman Shifts
Number of Pixels in Spectrum: 1044
>>>>>Begin Spectral Data<<<<<
46.04893	0.8125
50.45542	-0.8875
54.85868	-0.1875
59.25871	-1.9875
63.6555	57.2125
68.04907	61.9125
72.43941	64.4125
76.82654	72.5125
81.21044	69.5125
85.59113	71.2125
89.96862	77.5125
94.34289	82.7125
98.71396	82.2125
103.08183	88.6125
107.4465	90.4125
111.80798	88.7125
116.16626	90.6125
120.52136	90.4125
124.87327	101.1125
129.222	94.6125
133.56755	100.4125
137.90993	107.8125
142.24913	113.0125
146.58517	125.1125
150.91804	141.3125
155.24774	166.2125
159.57429	196.2125
163.89768	253.4125
168.21792	334.0125
172.53501	446.5125
176.84895	621.6125
181.15975	863.2125
185.46741	1214.1125
189.77193	1665.2125
194.07331	2228.8125
198.37157	2877.6125
202.6667	3539.7125
206.9587	4226.9125
211.24758	4885.4125
215.53334	5553.8125
219.81599	6267.3125
224.09553	7048.9125
228.37195	7939.3125
232.64527	8877.0125
236.91549	9932.9125
241.18261	10920.7125
245.44663	11845.2125
249.70755	12674.0125
253.96539	13353.0125
258.22014	13893.4125
262.4718	14358.7125
266.72039	14673.2125
270.96589	14882.0125
275.20832	14880.1125
279.44768	14718.8125
283.68397	14537.2125
287.91719	14364.5125
292.14735	14240.2125
296.37445	14277.2125
300.59849	14410.7125
304.81948	14549.0125
309.03742	14586.9125
313.25231	14462.2125
317.46415	14130.4125
321.67296	13651.8125
325.87872	13290.5125
330.08145	13101.7125
334.28114	13107.8125
338.47781	13246.4125
342.67145	13440.0125
346.86207	13693.5125
351.04966	14061.7125
355.23424	14444.9125
359.4158	14738.3125
363.59435	14983.3125
367.76989	15124.4125
371.94243	15261.5125
376.11196	15292.7125
380.27849	15332.6125
384.44203	15396.8125
388.60257	15413.9125
392.76012	15519.1125
396.91468	15631.4125
401.06626	15851.6125
405.21485	16024.3125
409.36047	15923.7125
413.50311	15542.6125
417.64277	15201.4125
421.77947	15050.8125
425.9132	15002.2125
430.04396	15032.3125
434.17176	15093.8125
438.2966	15243.4125
442.41849	15522.7125
446.53742	15878.0125
450.6534	16256.8125
454.76644	16573.9125
458.87653	16683.0125
462.98368	16653.5125
467.08789	16511.0125
471.18916	16281.7125
475.2875	16059.5125
479.38291	15904.3125
483.4754	15808.1125
487.56496	15611.4125
491.6516	15491.4125
495.73531	15396.1125
499.81612	15433.2125
503.89401	15562.2125
507.96899	15627.3125
512.04106	15667.0125
516.11023	15644.0125
520.1765	15650.0125
524.23987	15572.0125
528.30034	15499.1125
532.35792	15407.6125
536.41261	15303.4125
540.46441	15185.2125
544.51333	15082.4125
548.55936	15144.2125
552.60252	15344.2125
556.64279	15582.1125
560.6802	15717.8125
564.71473	15723.0125
568.7464	15906.8125
572.7752	16172.3125
576.80114	16281.1125
580.82422	16309.1125
584.84444	16452.8125
588.86181	16621.8125
592.87633	16843.9125
596.888	17020.2125
600.89682	17166.7125
604.9028	17964.1125
608.90594	20142.2125
612.90624	22539.6125
616.90371	21267.9125
620.89834	17516.1125
624.89015	15821.8125
628.87913	15654.9125
632.86528	15744.8125
636.84862	15732.7125
640.82913	15579.6125
644.80683	15122.9125
648.78172	14846.2125
652.75379	14766.7125
656.72306	14977.8125
660.68952	15334.2125
664.65319	15259.9125
668.61405	14989.5125
672.57211	14949.6125
676.52738	15092.3125
680.47986	15113.3125
684.42955	15008.4125
688.37646	14852.6125
692.32058	14806.0125
696.26192	14902.0125
700.20048	14998.1125
704.13626	15076.5125
708.06928	15029.4125
711.99952	14906.5125
715.927	14868.6125
719.85171	14892.3125
723.77365	14909.0125
727.69284	14842.5125
731.60928	14760.5125
735.52295	14708.0125
739.43388	14752.0125
743.34206	14793.1125
747.24749	14808.5125
751.15017	14864.3125
755.05012	14995.1125
758.94733	15386.9125
762.8418	16181.7125
766.73354	17595.0125
770.62254	19122.8125
774.50882	19821.6125
778.39237	19119.8125
782.27321	17527.9125
786.15132	16147.6125
790.02671	15275.6125
793.89938	14856.6125
797.76935	14669.4125
801.6366	14608.2125
805.50115	14573.5125
809.36299	14454.6125
813.22213	14324.2125
817.07857	14216.7125
820.93231	14191.4125
824.78336	14166.7125
828.63172	14145.1125
832.47738	14150.7125
836.32036	14161.7125
840.16066	14195.1125
843.99827	14213.8125
847.8332	14218.4125
851.66546	14149.3125
855.49504	14151.0125
859.32195	14181.1125
863.1462	14190.9125
866.96777	14164.2125
870.78668	14161.1125
874.60293	14172.1125
878.41652	14200.1125
882.22745	14246.1125
886.03573	14294.9125
889.84136	14295.0125
893.64433	14194.7125
897.44466	14139.1125
901.24235	14067.6125
905.0374	14007.2125
908.8298	13936.7125
912.61957	13919.7125
916.40671	13975.7125
920.19121	14092.4125
923.97308	14237.2125
927.75233	14339.7125
931.52895	14371.6125
935.30295	14271.8125
939.07433	14021.8125
942.84309	13780.7125
946.60924	13673.1125
950.37278	13641.2125
954.13371	13591.8125
957.89203	13530.5125
961.64774	13459.9125
965.40086	13414.7125
969.15137	13373.7125
972.89929	13324.4125
976.64461	13304.9125
980.38733	13300.7125
984.12747	13338.6125
987.86502	13440.2125
991.59999	13600.4125
995.33237	13814.8125
999.06217	14160.7125
1002.78939	14576.2125
1006.51404	14818.3125
1010.23611	14931.8125
1013.95561	15013.6125
1017.67255	15123.4125
1021.38692	14974.1125
1025.09872	14833.7125
1028.80796	14910.8125
1032.51465	15217.9125
1036.21877	15529.5125
1039.92035	15629.5125
1043.61937	15461.9125
1047.31584	15203.9125
1051.00976	14899.0125
1054.70114	14773.5125
1058.38998	14703.8125
1062.07627	14747.0125
1065.76003	14747.4125
1069.44126	14816.0125
1073.11995	14933.6125
1076.79611	15060.7125
1080.46974	15191.8125
1084.14085	15365.1125
1087.80943	15551.2125
1091.47549	15643.6125
1095.13903	15613.6125
1098.80005	15361.8125
1102.45857	15104.0125
1106.11456	14964.7125
1109.76805	15000.4125
1113.41903	15112.8125
1117.06751	15287.9125
1120.71348	15522.8125
1124.35696	15778.9125
1127.99793	16030.9125
1131.63641	16145.1125
1135.2724	15962.3125
1138.90589	15747.7125
1142.5369	15549.4125
1146.16542	15351.3125
1149.79145	15279.5125
1153.415	15286.4125
1157.03607	15397.2125
1160.65467	15746.0125
1164.27079	16238.6125
1167.88443	17023.4125
1171.49561	17988.6125
1175.10432	19377.9125
1178.71056	21077.1125
1182.31434	22702.1125
1185.91565	23550.8125
1189.51451	23422.2125
1193.11091	22593.7125
1196.70485	21420.7125
1200.29634	20369.7125
1203.88538	19489.8125
1207.47197	18718.1125
1211.05612	18065.2125
1214.63782	17600.6125
1218.21708	17446.0125
1221.79391	17451.7125
1225.36829	17527.3125
1228.94024	17467.2125
1232.50976	17202.1125
1236.07685	16974.1125
1239.6415	16820.5125
1243.20374	16814.7125
1246.76355	16909.4125
1250.32093	17110.3125
1253.8759	17442.3125
1257.42845	17843.9125
1260.97859	18291.2125
1264.52631	18738.3125
1268.07163	19270.5125
1271.61453	19863.4125
1275.15503	20446.9125
1278.69312	20969.0125
1282.22882	21367.9125
1285.76211	21744.3125
1289.29301	22117.0125
1292.82151	22581.1125
1296.34761	23385.3125
1299.87133	24425.2125
1303.39266	25962.8125
1306.9116	27843.5125
1310.42815	29814.2125
1313.94233	30955.5125
1317.45412	30751.0125
1320.96354	29658.5125
1324.47058	28483.7125
1327.97525	27343.9125
1331.47754	26571.6125
1334.97747	26209.9125
1338.47502	26090.8125
1341.97022	26291.6125
1345.46305	26511.7125
1348.95352	26934.3125
1352.44163	27568.3125
1355.92738	28790.7125
1359.41078	30696.8125
1362.89183	32368.6125
1366.37053	31678.9125
1369.84688	28466.3125
1373.32088	24988.5125
1376.79254	22635.8125
1380.26186	21467.5125
1383.72883	20931.2125
1387.19347	20578.9125
1390.65578	20137.1125
1394.11575	19861.7125
1397.57339	19902.2125
1401.0287	20075.4125
1404.48168	20320.3125
1407.93234	20369.3125
1411.38068	20269.4125
1414.82669	20061.3125
1418.27039	19641.0125
1421.71177	19205.3125
1425.15083	18744.5125
1428.58758	18470.5125
1432.02203	18493.5125
1435.45416	18730.3125
1438.88399	19089.5125
1442.31151	19328.6125
1445.73673	19535.2125
1449.15965	19721.1125
1452.58027	19846.6125
1455.9986	19877.3125
1459.41463	20046.2125
1462.82837	20340.1125
1466.23982	20718.3125
1469.64898	21088.3125
1473.05586	21389.5125
1476.46045	21491.7125
1479.86276	21552.2125
1483.26279	21487.8125
1486.66054	21485.3125
1490.05602	21660.4125
1493.44922	21971.2125
1496.84016	22525.7125
1500.22882	23437.7125
1503.61521	24848.3125
1506.99934	26432.0125
1510.38121	27764.5125
1513.76081	28024.3125
1517.13816	26918.1125
1520.51324	25058.4125
1523.88607	23319.5125
1527.25665	22161.9125
1530.62498	21568.9125
1533.99105	21181.6125
1537.35488	20904.5125
1540.71647	20658.9125
1544.07581	20431.2125
1547.4329	20168.5125
1550.78776	19974.9125
1554.14038	19913.6125
1557.49077	19948.7125
1560.83892	20083.2125
1564.18484	20263.1125
1567.52853	20445.0125
1570.86999	20646.0125
1574.20922	20859.5125
1577.54624	20840.5125
1580.88103	20458.3125
1584.2136	19977.5125
1587.54395	19900.1125
1590.87208	20475.2125
1594.19801	21550.0125
1597.52172	22840.4125
1600.84321	23392.2125
1604.16251	22748.1125
1607.47959	21405.7125
1610.79447	19961.3125
1614.10715	18524.9125
1617.41763	17372.9125
1620.7259	16558.0125
1624.03199	16089.3125
1627.33587	16053.3125
1630.63757	16406.7125
1633.93707	17254.2125
1637.23439	18520.7125
1640.52951	20269.0125
1643.82246	22381.6125
1647.11321	24250.5125
1650.40179	24961.7125
1653.68819	23711.3125
1656.97241	21038.0125
1660.25446	18293.5125
1663.53433	16239.7125
1666.81203	14939.3125
1670.08756	14161.2125
1673.36092	13714.8125
1676.63211	13387.9125
1679.90115	13146.5125
1683.16801	12975.1125
1686.43272	12848.9125
1689.69527	12714.4125
1692.95567	12562.0125
1696.2139	12432.8125
1699.46999	12303.0125
1702.72392	12232.9125
1705.97571	12292.4125
1709.22535	12334.9125
1712.47284	12401.7125
1715.71819	12399.4125
1718.96139	12385.7125
1722.20246	12352.6125
1725.44139	12289.9125
1728.67818	12244.0125
1731.91284	12163.8125
1735.14537	12103.4125
1738.37576	12082.2125
1741.60403	12026.6125
1744.83017	12014.8125
1748.05418	11957.1125
1751.27607	11926.7125
1754.49584	11881.0125
1757.71349	11806.6125
1760.92903	11764.7125
1764.14244	11722.0125
1767.35375	11713.8125
1770.56294	11696.5125
1773.77002	11639.1125
1776.97499	11656.6125
1780.17785	11698.7125
1783.37861	11694.2125
1786.57727	11705.6125
1789.77382	11697.0125
1792.96828	11662.5125
1796.16064	11653.8125
1799.3509	11638.6125
1802.53907	11597.1125
1805.72514	11604.5125
1808.90913	11577.8125
1812.09102	11550.2125
1815.27083	11518.9125
1818.44856	11503.0125
1821.6242	11479.5125
1824.79776	11474.4125
1827.96924	11487.1125
1831.13864	11495.5125
1834.30597	11453.0125
1837.47122	11459.1125
1840.6344	11461.4125
1843.7955	11465.7125
1846.95454	11438.9125
1850.11151	11461.0125
1853.26642	11445.7125
1856.41926	11443.9125
1859.57004	11403.0125
1862.71876	11381.8125
1865.86542	11382.4125
1869.01003	11412.5125
1872.15258	11390.7125
1875.29308	11394.0125
1878.43152	11374.1125
1881.56792	11352.5125
1884.70227	11334.9125
1887.83457	11346.1125
1890.96482	11315.9125
1894.09304	11312.8125
1897.21921	11315.9125
1900.34335	11296.1125
1903.46544	11276.6125
1906.58551	11279.2125
1909.70353	11262.8125
1912.81953	11260.0125
1915.93349	11233.7125
1919.04543	11193.2125
1922.15534	11188.7125
1925.26322	11148.2125
1928.36908	11134.8125
1931.47292	11098.9125
1934.57473	11075.9125
1937.67453	11052.1125
1940.77232	11044.2125
1943.86808	11007.1125
1946.96184	10965.5125
1950.05358	10940.1125
1953.14331	10902.1125
1956.23103	10883.8125
1959.31675	10839.9125
1962.40046	10841.3125
1965.48217	10804.6125
1968.56188	10781.4125
1971.63959	10761.1125
1974.7153	10723.6125
1977.78901	10691.1125
1980.86073	10657.9125
1983.93046	10600.0125
1986.99819	10573.3125
1990.06394	10560.4125
1993.1277	10541.2125
1996.18947	10499.3125
1999.24925	10483.6125
2002.30706	10423.7125
2005.36288	10390.5125
2008.41672	10386.8125
2011.46859	10338.2125
2014.51848	10308.1125
2017.56639	10295.2125
2020.61233	10261.5125
2023.6563	10253.5125
2026.6983	10226.6125
2029.73833	10201.9125
2032.7764	10165.0125
2035.8125	10149.0125
2038.84664	10172.3125
2041.87881	10156.3125
2044.90903	10128.2125
2047.93729	10125.5125
2050.96359	10134.7125
2053.98794	10096.8125
2057.01034	10070.4125
2060.03078	10117.1125
2063.04927	10074.8125
2066.06582	10057.2125
2069.08042	10068.7125
2072.09307	10041.1125
2075.10378	10034.1125
2078.11255	10032.3125
2081.11938	10038.1125
2084.12426	10024.0125
2087.12722	10008.3125
2090.12824	10015.6125
2093.12732	9996.8125
2096.12447	10011.1125
2099.11969	10028.0125
2102.11299	10024.4125
2105.10435	10014.4125
2108.09379	10028.6125
2111.08131	10060.3125
2114.0669	10036.4125
2117.05057	10022.8125
2120.03233	10046.9125
2123.01216	10070.5125
2125.99008	10090.9125
2128.96609	10096.9125
2131.94018	10095.5125
2134.91236	10108.5125
2137.88263	10125.6125
2140.851	10111.6125
2143.81746	10125.7125
2146.78201	10151.7125
2149.74466	10155.7125
2152.7054	10113.1125
2155.66425	10099.8125
2158.6212	10118.9125
2161.57625	10105.2125
2164.52941	10112.6125
2167.48067	10106.4125
2170.43004	10106.4125
2173.37752	10100.4125
2176.32311	10109.3125
2179.26681	10118.2125
2182.20863	10090.0125
2185.14856	10099.5125
2188.08661	10145.1125
2191.02278	10125.7125
2193.95707	10108.7125
2196.88948	10090.9125
2199.82001	10110.5125
2202.74867	10112.5125
2205.67545	10109.2125
2208.60037	10098.1125
2211.52341	10081.4125
2214.44458	10082.6125
2217.36388	10047.7125
2220.28132	10027.3125
2223.1969	10020.9125
2226.11061	10007.4125
2229.02246	9980.5125
2231.93245	9954.0125
2234.84058	9950.9125
2237.74686	9925.9125
2240.65128	9906.0125
2243.55385	9898.7125
2246.45456	9930.8125
2249.35343	9892.8125
2252.25044	9873.0125
2255.14561	9872.5125
2258.03893	9851.4125
2260.93041	9830.2125
2263.82004	9827.1125
2266.70783	9800.4125
2269.59378	9785.2125
2272.4779	9752.5125
2275.36017	9729.8125
2278.24061	9727.6125
2281.11922	9685.2125
2283.996	9684.2125
2286.87094	9662.7125
2289.74405	9655.7125
2292.61534	9658.3125
2295.4848	9651.2125
2298.35243	9656.1125
2301.21824	9668.4125
2304.08223	9667.0125
2306.94439	9666.3125
2309.80474	9656.7125
2312.66327	9669.5125
2315.51999	9639.1125
2318.37489	9661.9125
2321.22797	9639.2125
2324.07925	9648.9125
2326.92871	9632.2125
2329.77637	9641.2125
2332.62222	9631.4125
2335.46626	9608.5125
2338.3085	9589.3125
2341.14893	9599.7125
2343.98756	9592.7125
2346.8244	9599.3125
2349.65943	9609.3125
2352.49267	9629.6125
2355.32411	9597.2125
2358.15376	9586.6125
2360.98161	9601.6125
2363.80768	9584.5125
2366.63195	9579.1125
2369.45444	9550.1125
2372.27514	9537.9125
2375.09405	9521.3125
2377.91118	9521.1125
2380.72652	9499.9125
2383.54009	9479.6125
2386.35187	9466.5125
2389.16188	9429.2125
2391.97011	9403.9125
2394.77657	9399.4125
2397.58125	9397.3125
2400.38416	9361.8125
2403.18529	9362.5125
2405.98466	9352.6125
2408.78226	9324.3125
2411.57809	9304.7125
2414.37216	9280.5125
2417.16446	9275.7125
2419.955	9259.7125
2422.74378	9287.4125
2425.5308	9272.2125
2428.31606	9273.6125
2431.09956	9252.2125
2433.88131	9231.4125
2436.6613	9253.3125
2439.43954	9255.2125
2442.21603	9242.2125
2444.99077	9253.2125
2447.76377	9280.2125
2450.53501	9264.6125
2453.30451	9252.6125
2456.07226	9264.2125
2458.83827	9231.9125
2461.60254	9221.7125
2464.36507	9222.4125
2467.12586	9228.9125
2469.88492	9233.7125
2472.64224	9227.4125
2475.39782	9240.3125
2478.15167	9223.6125
2480.90379	9231.8125
2483.65417	9258.7125
2486.40283	9260.0125
2489.14976	9259.6125
2491.89497	9271.5125
2494.63845	9270.2125
2497.3802	9253.2125
2500.12024	9255.7125
2502.85855	9234.8125
2505.59514	9234.4125
2508.33002	9236.9125
2511.06318	9208.5125
2513.79462	9193.9125
2516.52435	9175.0125
2519.25237	9176.5125
2521.97867	9156.3125
2524.70327	9159.7125
2527.42616	9145.8125
2530.14734	9140.6125
2532.86681	9138.1125
2535.58458	9125.3125
2538.30065	9142.7125
2541.01501	9132.8125
2543.72768	9128.7125
2546.43864	9105.4125
2549.14791	9118.7125
2551.85548	9084.9125
2554.56136	9062.7125
2557.26554	9077.4125
2559.96803	9070.3125
2562.66883	9072.7125
2565.36794	9060.9125
2568.06536	9045.6125
2570.7611	9032.9125
2573.45514	9027.2125
2576.14751	9033.2125
2578.83819	9007.5125
2581.52719	9002.0125
2584.21451	8986.1125
2586.90015	8987.8125
2589.58411	8974.4125
2592.2664	8980.6125
2594.94701	8946.7125
2597.62594	8946.3125
2600.30321	8951.1125
2602.9788	8967.3125
2605.65273	8957.0125
2608.32498	8959.7125
2610.99557	8931.1125
2613.66449	8943.5125
2616.33175	8934.4125
2618.99734	8941.5125
2621.66128	8961.2125
2624.32355	8957.1125
2626.98416	8939.8125
2629.64311	8943.9125
2632.30041	8920.5125
2634.95605	8906.5125
2637.61004	8881.1125
2640.26238	8892.6125
2642.91306	8881.6125
2645.56209	8886.0125
2648.20948	8865.4125
2650.85521	8848.1125
2653.4993	8847.0125
2656.14175	8841.9125
2658.78255	8853.3125
2661.42171	8854.0125
2664.05923	8858.4125
2666.6951	8894.5125
2669.32934	8917.1125
2671.96194	8910.4125
2674.59291	8900.2125
2677.22224	8891.2125
2679.84993	8879.9125
2682.476	8869.8125
2685.10043	8867.6125
2687.72324	8838.6125
2690.34441	8850.9125
2692.96396	8859.2125
2695.58188	8860.5125
2698.19818	8830.9125
2700.81285	8826.8125
2703.4259	8797.0125
2706.03733	8751.6125
2708.64714	8800.8125
2711.25533	8809.8125
2713.86191	8824.8125
2716.46687	8864.6125
2719.07021	8840.2125
2721.67194	8875.0125
2724.27206	8869.3125
2726.87057	8866.8125
2729.46747	8883.7125
2732.06276	8878.9125
2734.65644	8888.8125
2737.24852	8876.5125
2739.83899	8845.8125
2742.42786	8855.7125
2745.01513	8834.4125
2747.60079	8840.3125
2750.18486	8829.1125
2752.76733	8834.7125
2755.3482	8840.4125
2757.92747	8836.6125
2760.50515	8807.9125
2763.08123	8817.5125
2765.65573	8783.8125
2768.22863	8793.3125
2770.79994	8781.1125
2773.36967	8782.8125
2775.9378	8780.8125
2778.50435	8782.3125
2781.06932	8757.4125
2783.6327	8801.0125
2786.1945	8807.3125
2788.75471	8780.4125
2791.31335	8764.5125
2793.87041	8749.9125
2796.42589	8729.7125
2798.97979	8744.0125
2801.53212	8715.2125
2804.08288	8713.4125
2806.63206	8673.2125
2809.17967	8658.3125
2811.72571	8641.7125
2814.27018	8638.6125
2816.81308	8610.7125
2819.35442	8622.9125
2821.89419	8636.4125
2824.43239	8625.1125
2826.96904	8608.7125
2829.50412	8616.5125
2832.03763	8612.1125
2834.56959	8603.2125
2837.1	8588.7125
2839.62884	8598.4125
2842.15613	8575.8125
2844.68186	8576.7125
2847.20604	8586.7125
2849.72867	8572.3125
2852.24974	8572.6125
2854.76927	8564.5125
2857.28724	8532.2125
2859.80367	8547.4125
2862.31855	8547.5125
2864.83189	8533.5125
2867.34368	8537.2125
2869.85393	8547.8125
2872.36264	8534.3125
2874.8698	8538.4125
2877.37543	8533.6125
2879.87952	8538.1125
2882.38207	8529.4125
2884.88308	8535.1125
2887.38256	8543.5125
2889.88051	8553.6125
2892.37692	8548.6125
2894.8718	8539.2125
2897.36515	8574.9125
2899.85698	8573.1125
2902.34727	8586.5125
2904.83604	8603.5125
2907.32328	8650.8125
2909.809	8630.2125
2912.29319	8645.6125
2914.77587	8649.1125
2917.25702	8662.1125
2919.73665	8631.1125
2922.21476	8651.0125
2924.69136	8630.8125
2927.16644	8632.8125
2929.64	8629.0125
2932.11205	8603.6125
2934.58258	8566.0125
2937.05161	8583.6125
2939.51912	8596.2125
2941.98513	8571.6125
2944.44962	8557.8125
2946.91261	8542.9125
2949.37409	8570.1125
2951.83407	8541.6125
2954.29254	8544.1125
2956.74951	8530.5125
2959.20498	8525.8125
2961.65895	8529.6125
2964.11142	8499.2125
2966.56239	8484.5125
2969.01186	8480.9125
2971.45984	8459.7125
2973.90632	8449.7125
2976.35131	8439.3125
2978.7948	8414.5125
2981.23681	8403.3125
2983.67732	8382.7125
2986.11635	8391.6125
2988.55388	8344.0125
2990.98993	8360.8125
2993.4245	8341.5125
2995.85758	8310.3125
2998.28917	8291.3125
3000.71928	8291.8125
3003.14791	8281.3125
3005.57506	8266.7125
3008.00073	8253.4125
3010.42493	8237.6125
3012.84764	8228.9125
3015.26888	8222.1125
3017.68865	8202.8125
3020.10694	8192.0125
3022.52376	8188.1125
3024.9391	8172.1125
3027.35298	8176.0125
3029.76539	8153.7125
3032.17632	8151.7125
3034.5858	8156.9125
3036.9938	8133.9125
3039.40034	8133.2125
3041.80542	8119.9125
3044.20903	8109.8125
3046.61118	8114.9125
3049.01187	8091.2125
3051.4111	8101.5125
3053.80888	8088.8125
3056.20519	8079.9125
3058.60005	8050.2125
3060.99345	8047.1125
