Data from AgNPs_FTO_APTES_UA_50uM_CRN_50uM_R6G_10uM_NaF_0.1M_Addition_RamanShift__11__14-45-34-973.txt Node

Date: Mon Feb 21 14:45:34 GMT 2022
User: TCL
Spectrometer: QEP01345
Trigger mode: 4
Integration Time (sec): 7.000000E0
Scans to average: 10
Electric dark correction enabled: true
Nonlinearity correction enabled: false
Boxcar width: 0
XAxis mode: Raman Shifts
Number of Pixels in Spectrum: 1044
>>>>>Begin Spectral Data<<<<<
46.04893	-0.3125
50.45542	0.0875
54.85868	-0.8125
59.25871	-0.7125
63.6555	54.1875
68.04907	60.5875
72.43941	63.6875
76.82654	66.0875
81.21044	70.7875
85.59113	71.9875
89.96862	75.2875
94.34289	78.0875
98.71396	78.2875
103.08183	86.9875
107.4465	82.2875
111.80798	85.4875
116.16626	84.0875
120.52136	84.3875
124.87327	92.6875
129.222	90.5875
133.56755	98.3875
137.90993	103.3875
142.24913	109.3875
146.58517	120.8875
150.91804	132.5875
155.24774	152.7875
159.57429	185.4875
163.89768	230.0875
168.21792	309.3875
172.53501	407.9875
176.84895	573.2875
181.15975	798.2875
185.46741	1115.7875
189.77193	1534.2875
194.07331	2047.7875
198.37157	2665.3875
202.6667	3275.6875
206.9587	3895.6875
211.24758	4497.4875
215.53334	5116.2875
219.81599	5767.1875
224.09553	6462.2875
228.37195	7251.0875
232.64527	8099.3875
236.91549	8999.3875
241.18261	9929.3875
245.44663	10769.7875
249.70755	11537.0875
253.96539	12232.5875
258.22014	12758.8875
262.4718	13211.3875
266.72039	13478.6875
270.96589	13622.1875
275.20832	13584.5875
279.44768	13494.3875
283.68397	13324.6875
287.91719	13197.4875
292.14735	13057.9875
296.37445	13040.0875
300.59849	13042.0875
304.81948	13087.8875
309.03742	13073.8875
313.25231	13021.3875
317.46415	12825.8875
321.67296	12579.0875
325.87872	12326.2875
330.08145	12245.1875
334.28114	12232.6875
338.47781	12305.2875
342.67145	12494.9875
346.86207	12671.3875
351.04966	12895.8875
355.23424	13091.6875
359.4158	13327.8875
363.59435	13477.0875
367.76989	13622.2875
371.94243	13693.0875
376.11196	13737.7875
380.27849	13744.8875
384.44203	13816.0875
388.60257	13857.9875
392.76012	14011.0875
396.91468	14197.4875
401.06626	14424.2875
405.21485	14568.9875
409.36047	14484.8875
413.50311	14329.3875
417.64277	14132.2875
421.77947	14058.9875
425.9132	14096.1875
430.04396	14127.2875
434.17176	14224.9875
438.2966	14309.9875
442.41849	14489.8875
446.53742	14702.0875
450.6534	14955.6875
454.76644	15135.8875
458.87653	15256.1875
462.98368	15234.7875
467.08789	15200.3875
471.18916	15055.2875
475.2875	14906.4875
479.38291	14767.5875
483.4754	14661.1875
487.56496	14588.4875
491.6516	14521.2875
495.73531	14470.9875
499.81612	14441.7875
503.89401	14529.1875
507.96899	14574.1875
512.04106	14594.6875
516.11023	14602.7875
520.1765	14528.8875
524.23987	14435.3875
528.30034	14357.5875
532.35792	14276.4875
536.41261	14184.9875
540.46441	14091.4875
544.51333	14087.3875
548.55936	14184.1875
552.60252	14373.2875
556.64279	14572.7875
560.6802	14689.0875
564.71473	14696.9875
568.7464	14877.8875
572.7752	15114.2875
576.80114	15417.1875
580.82422	15743.4875
584.84444	16112.0875
588.86181	16380.6875
592.87633	16675.0875
596.888	16741.6875
600.89682	16648.7875
604.9028	16849.9875
608.90594	17942.4875
612.90624	19205.7875
616.90371	18194.9875
620.89834	15793.7875
624.89015	14720.6875
628.87913	14566.2875
632.86528	14707.2875
636.84862	14813.2875
640.82913	14680.5875
644.80683	14376.0875
648.78172	14185.1875
652.75379	14144.4875
656.72306	14275.5875
660.68952	14509.5875
664.65319	14473.5875
668.61405	14291.8875
672.57211	14311.2875
676.52738	14396.4875
680.47986	14386.2875
684.42955	14344.9875
688.37646	14261.3875
692.32058	14273.2875
696.26192	14366.1875
700.20048	14472.5875
704.13626	14536.0875
708.06928	14558.2875
711.99952	14503.6875
715.927	14442.8875
719.85171	14446.6875
723.77365	14385.2875
727.69284	14274.8875
731.60928	14136.4875
735.52295	14094.3875
739.43388	14082.9875
743.34206	14147.7875
747.24749	14226.1875
751.15017	14267.3875
755.05012	14462.5875
758.94733	14761.0875
762.8418	15294.9875
766.73354	16307.3875
770.62254	17310.1875
774.50882	17534.7875
778.39237	16978.6875
782.27321	16000.5875
786.15132	15140.6875
790.02671	14627.6875
793.89938	14277.7875
797.76935	14139.8875
801.6366	14036.7875
805.50115	14016.9875
809.36299	13977.1875
813.22213	13879.3875
817.07857	13838.1875
820.93231	13828.4875
824.78336	13791.0875
828.63172	13766.4875
832.47738	13736.7875
836.32036	13738.5875
840.16066	13736.1875
843.99827	13733.6875
847.8332	13736.4875
851.66546	13708.5875
855.49504	13759.2875
859.32195	13757.6875
863.1462	13759.7875
866.96777	13737.9875
870.78668	13719.3875
874.60293	13766.5875
878.41652	13771.1875
882.22745	13851.7875
886.03573	13894.4875
889.84136	13888.4875
893.64433	13838.6875
897.44466	13812.6875
901.24235	13816.5875
905.0374	13804.1875
908.8298	13761.1875
912.61957	13761.6875
916.40671	13788.9875
920.19121	13900.5875
923.97308	14013.9875
927.75233	14028.2875
931.52895	13984.0875
935.30295	13827.9875
939.07433	13688.4875
942.84309	13468.6875
946.60924	13395.8875
950.37278	13359.6875
954.13371	13354.6875
957.89203	13340.6875
961.64774	13339.9875
965.40086	13340.9875
969.15137	13305.5875
972.89929	13288.8875
976.64461	13228.4875
980.38733	13239.8875
984.12747	13239.9875
987.86502	13258.6875
991.59999	13349.3875
995.33237	13413.1875
999.06217	13546.6875
1002.78939	13730.0875
1006.51404	13923.5875
1010.23611	14147.4875
1013.95561	14281.9875
1017.67255	14320.8875
1021.38692	14228.2875
1025.09872	14076.3875
1028.80796	13951.4875
1032.51465	13898.8875
1036.21877	13890.6875
1039.92035	13943.0875
1043.61937	14031.1875
1047.31584	14052.8875
1051.00976	14079.8875
1054.70114	14098.7875
1058.38998	14152.9875
1062.07627	14260.0875
1065.76003	14422.9875
1069.44126	14586.3875
1073.11995	14750.2875
1076.79611	14942.1875
1080.46974	15073.2875
1084.14085	15149.1875
1087.80943	15244.0875
1091.47549	15343.3875
1095.13903	15350.9875
1098.80005	15192.8875
1102.45857	14978.5875
1106.11456	14713.0875
1109.76805	14581.4875
1113.41903	14564.3875
1117.06751	14635.4875
1120.71348	14741.8875
1124.35696	14906.4875
1127.99793	15081.7875
1131.63641	15177.4875
1135.2724	15136.4875
1138.90589	15050.6875
1142.5369	15022.3875
1146.16542	14992.8875
1149.79145	15020.7875
1153.415	15070.1875
1157.03607	15199.5875
1160.65467	15424.8875
1164.27079	15798.0875
1167.88443	16351.7875
1171.49561	17007.0875
1175.10432	17887.3875
1178.71056	19023.6875
1182.31434	20064.8875
1185.91565	20736.5875
1189.51451	20937.4875
1193.11091	20703.8875
1196.70485	20079.7875
1200.29634	19397.0875
1203.88538	18740.2875
1207.47197	18146.7875
1211.05612	17688.9875
1214.63782	17315.2875
1218.21708	16994.3875
1221.79391	16778.3875
1225.36829	16614.6875
1228.94024	16539.9875
1232.50976	16514.5875
1236.07685	16453.1875
1239.6415	16422.5875
1243.20374	16421.8875
1246.76355	16474.9875
1250.32093	16599.5875
1253.8759	16799.1875
1257.42845	17091.6875
1260.97859	17513.7875
1264.52631	17915.5875
1268.07163	18281.5875
1271.61453	18687.0875
1275.15503	18996.8875
1278.69312	19310.3875
1282.22882	19650.3875
1285.76211	20045.7875
1289.29301	20464.1875
1292.82151	20933.1875
1296.34761	21549.7875
1299.87133	22256.9875
1303.39266	23102.2875
1306.9116	23978.2875
1310.42815	24813.8875
1313.94233	25226.3875
1317.45412	25180.4875
1320.96354	24782.1875
1324.47058	24369.2875
1327.97525	24099.8875
1331.47754	23965.6875
1334.97747	23992.7875
1338.47502	24085.7875
1341.97022	24316.3875
1345.46305	24594.9875
1348.95352	24825.8875
1352.44163	25033.0875
1355.92738	25406.6875
1359.41078	26038.1875
1362.89183	26732.9875
1366.37053	26376.4875
1369.84688	24682.2875
1373.32088	22496.7875
1376.79254	20880.2875
1380.26186	20015.2875
1383.72883	19622.4875
1387.19347	19304.5875
1390.65578	18970.1875
1394.11575	18691.8875
1397.57339	18614.7875
1401.0287	18620.5875
1404.48168	18692.8875
1407.93234	18667.4875
1411.38068	18577.2875
1414.82669	18375.2875
1418.27039	18027.4875
1421.71177	17650.5875
1425.15083	17319.5875
1428.58758	17166.0875
1432.02203	17184.5875
1435.45416	17335.8875
1438.88399	17506.1875
1442.31151	17690.0875
1445.73673	17846.1875
1449.15965	17942.3875
1452.58027	18108.9875
1455.9986	18146.0875
1459.41463	18288.0875
1462.82837	18577.0875
1466.23982	18916.0875
1469.64898	19201.4875
1473.05586	19479.8875
1476.46045	19682.8875
1479.86276	19810.1875
1483.26279	19885.0875
1486.66054	19986.8875
1490.05602	20247.4875
1493.44922	20655.6875
1496.84016	21282.7875
1500.22882	22050.0875
1503.61521	23004.4875
1506.99934	23939.2875
1510.38121	24471.0875
1513.76081	24353.6875
1517.13816	23509.5875
1520.51324	22507.3875
1523.88607	21575.4875
1527.25665	21053.3875
1530.62498	20678.2875
1533.99105	20395.1875
1537.35488	20052.5875
1540.71647	19705.2875
1544.07581	19368.3875
1547.4329	19012.7875
1550.78776	18755.8875
1554.14038	18589.9875
1557.49077	18581.0875
1560.83892	18665.4875
1564.18484	18801.7875
1567.52853	18908.3875
1570.86999	19095.1875
1574.20922	19305.1875
1577.54624	19379.1875
1580.88103	19154.0875
1584.2136	18827.4875
1587.54395	18827.4875
1590.87208	19146.2875
1594.19801	19802.6875
1597.52172	20502.7875
1600.84321	20764.4875
1604.16251	20266.1875
1607.47959	19443.4875
1610.79447	18468.5875
1614.10715	17466.7875
1617.41763	16581.6875
1620.7259	15928.0875
1624.03199	15504.9875
1627.33587	15439.7875
1630.63757	15601.1875
1633.93707	16192.2875
1637.23439	17183.9875
1640.52951	18666.4875
1643.82246	20425.7875
1647.11321	22027.2875
1650.40179	22597.2875
1653.68819	21682.9875
1656.97241	19690.5875
1660.25446	17523.2875
1663.53433	15841.6875
1666.81203	14703.5875
1670.08756	14039.8875
1673.36092	13617.4875
1676.63211	13354.7875
1679.90115	13145.7875
1683.16801	12965.9875
1686.43272	12831.3875
1689.69527	12711.7875
1692.95567	12605.6875
1696.2139	12443.3875
1699.46999	12311.2875
1702.72392	12263.2875
1705.97571	12321.0875
1709.22535	12368.4875
1712.47284	12439.9875
1715.71819	12456.3875
1718.96139	12418.7875
1722.20246	12411.1875
1725.44139	12352.6875
1728.67818	12302.5875
1731.91284	12242.9875
1735.14537	12199.7875
1738.37576	12170.4875
1741.60403	12090.2875
1744.83017	12037.2875
1748.05418	12039.3875
1751.27607	11959.3875
1754.49584	11914.0875
1757.71349	11847.3875
1760.92903	11806.4875
1764.14244	11817.3875
1767.35375	11813.7875
1770.56294	11768.2875
1773.77002	11729.3875
1776.97499	11752.5875
1780.17785	11789.2875
1783.37861	11812.6875
1786.57727	11784.8875
1789.77382	11767.8875
1792.96828	11757.8875
1796.16064	11738.5875
1799.3509	11714.0875
1802.53907	11697.9875
1805.72514	11662.3875
1808.90913	11660.3875
1812.09102	11666.2875
1815.27083	11639.4875
1818.44856	11617.6875
1821.6242	11573.7875
1824.79776	11597.0875
1827.96924	11587.3875
1831.13864	11585.7875
1834.30597	11583.2875
1837.47122	11584.6875
1840.6344	11604.8875
1843.7955	11598.7875
1846.95454	11595.5875
1850.11151	11575.6875
1853.26642	11570.1875
1856.41926	11544.7875
1859.57004	11562.1875
1862.71876	11549.4875
1865.86542	11527.6875
1869.01003	11507.5875
1872.15258	11481.3875
1875.29308	11468.0875
1878.43152	11446.2875
1881.56792	11427.5875
1884.70227	11419.5875
1887.83457	11407.6875
1890.96482	11383.7875
1894.09304	11343.5875
1897.21921	11341.0875
1900.34335	11312.9875
1903.46544	11292.8875
1906.58551	11281.9875
1909.70353	11280.7875
1912.81953	11273.7875
1915.93349	11258.9875
1919.04543	11234.0875
1922.15534	11215.5875
1925.26322	11172.7875
1928.36908	11175.4875
1931.47292	11151.2875
1934.57473	11117.9875
1937.67453	11066.2875
1940.77232	11077.2875
1943.86808	11020.4875
1946.96184	11010.1875
1950.05358	10964.7875
1953.14331	10942.3875
1956.23103	10929.1875
1959.31675	10899.1875
1962.40046	10835.9875
1965.48217	10836.3875
1968.56188	10785.0875
1971.63959	10757.5875
1974.7153	10738.4875
1977.78901	10710.4875
1980.86073	10662.5875
1983.93046	10601.8875
1986.99819	10599.6875
1990.06394	10574.6875
1993.1277	10553.7875
1996.18947	10497.3875
1999.24925	10499.7875
2002.30706	10433.5875
2005.36288	10413.4875
2008.41672	10384.6875
2011.46859	10348.0875
2014.51848	10310.8875
2017.56639	10298.0875
2020.61233	10268.2875
2023.6563	10249.9875
2026.6983	10222.4875
2029.73833	10206.5875
2032.7764	10161.2875
2035.8125	10159.0875
2038.84664	10132.7875
2041.87881	10131.2875
2044.90903	10111.8875
2047.93729	10085.0875
2050.96359	10104.5875
2053.98794	10072.9875
2057.01034	10077.5875
2060.03078	10059.6875
2063.04927	10049.0875
2066.06582	10027.9875
2069.08042	10020.4875
2072.09307	10015.1875
2075.10378	10005.5875
2078.11255	9997.6875
2081.11938	10010.7875
2084.12426	9987.7875
2087.12722	10024.9875
2090.12824	10020.1875
2093.12732	10004.8875
2096.12447	10005.4875
2099.11969	10000.2875
2102.11299	10032.2875
2105.10435	10016.3875
2108.09379	10032.1875
2111.08131	10036.9875
2114.0669	9999.9875
2117.05057	9998.8875
2120.03233	10050.5875
2123.01216	10067.9875
2125.99008	10051.7875
2128.96609	10082.2875
2131.94018	10094.0875
2134.91236	10075.6875
2137.88263	10078.4875
2140.851	10105.0875
2143.81746	10088.1875
2146.78201	10112.2875
2149.74466	10119.7875
2152.7054	10103.8875
2155.66425	10073.4875
2158.6212	10088.7875
2161.57625	10053.1875
2164.52941	10092.4875
2167.48067	10069.6875
2170.43004	10069.9875
2173.37752	10064.8875
2176.32311	10059.5875
2179.26681	10090.0875
2182.20863	10068.6875
2185.14856	10058.6875
2188.08661	10072.9875
2191.02278	10099.1875
2193.95707	10049.4875
2196.88948	10036.1875
2199.82001	10010.0875
2202.74867	10030.8875
2205.67545	10035.1875
2208.60037	10001.7875
2211.52341	9980.7875
2214.44458	9954.9875
2217.36388	9958.9875
2220.28132	9951.7875
2223.1969	9938.4875
2226.11061	9889.3875
2229.02246	9893.9875
2231.93245	9869.6875
2234.84058	9851.9875
2237.74686	9814.0875
2240.65128	9835.9875
2243.55385	9822.9875
2246.45456	9821.8875
2249.35343	9803.8875
2252.25044	9805.8875
2255.14561	9782.7875
2258.03893	9769.7875
2260.93041	9735.4875
2263.82004	9734.1875
2266.70783	9715.2875
2269.59378	9686.4875
2272.4779	9677.0875
2275.36017	9646.3875
2278.24061	9628.1875
2281.11922	9590.3875
2283.996	9587.8875
2286.87094	9580.5875
2289.74405	9537.4875
2292.61534	9532.9875
2295.4848	9519.8875
2298.35243	9521.7875
2301.21824	9530.3875
2304.08223	9508.8875
2306.94439	9513.9875
2309.80474	9530.0875
2312.66327	9500.6875
2315.51999	9506.3875
2318.37489	9495.9875
2321.22797	9468.2875
2324.07925	9476.5875
2326.92871	9436.1875
2329.77637	9458.0875
2332.62222	9431.6875
2335.46626	9407.1875
2338.3085	9383.2875
2341.14893	9377.8875
2343.98756	9370.9875
2346.8244	9376.2875
2349.65943	9386.8875
2352.49267	9355.2875
2355.32411	9355.8875
2358.15376	9369.8875
2360.98161	9364.6875
2363.80768	9352.9875
2366.63195	9338.6875
2369.45444	9327.8875
2372.27514	9327.1875
2375.09405	9336.7875
2377.91118	9316.5875
2380.72652	9299.9875
2383.54009	9277.4875
2386.35187	9254.3875
2389.16188	9190.0875
2391.97011	9186.1875
2394.77657	9195.7875
2397.58125	9180.7875
2400.38416	9160.5875
2403.18529	9161.0875
2405.98466	9146.8875
2408.78226	9141.4875
2411.57809	9108.4875
2414.37216	9108.2875
2417.16446	9104.0875
2419.955	9103.2875
2422.74378	9094.0875
2425.5308	9090.1875
2428.31606	9066.0875
2431.09956	9070.6875
2433.88131	9065.6875
2436.6613	9064.1875
2439.43954	9071.4875
2442.21603	9050.8875
2444.99077	9041.0875
2447.76377	9058.5875
2450.53501	9038.2875
2453.30451	9058.1875
2456.07226	9014.4875
2458.83827	9029.4875
2461.60254	8986.1875
2464.36507	9026.6875
2467.12586	9015.8875
2469.88492	9009.2875
2472.64224	9015.2875
2475.39782	8998.6875
2478.15167	8979.2875
2480.90379	8995.8875
2483.65417	8993.2875
2486.40283	8987.3875
2489.14976	9007.5875
2491.89497	8950.9875
2494.63845	8969.0875
2497.3802	8935.1875
2500.12024	8967.2875
2502.85855	8963.6875
2505.59514	8949.1875
2508.33002	8914.9875
2511.06318	8929.8875
2513.79462	8924.6875
2516.52435	8911.5875
2519.25237	8892.1875
2521.97867	8882.5875
2524.70327	8903.7875
2527.42616	8865.5875
2530.14734	8866.2875
2532.86681	8854.1875
2535.58458	8851.6875
2538.30065	8866.6875
2541.01501	8832.5875
2543.72768	8825.0875
2546.43864	8820.5875
2549.14791	8794.4875
2551.85548	8777.8875
2554.56136	8764.7875
2557.26554	8753.8875
2559.96803	8748.2875
2562.66883	8742.3875
2565.36794	8726.2875
2568.06536	8737.0875
2570.7611	8714.2875
2573.45514	8696.4875
2576.14751	8699.5875
2578.83819	8662.1875
2581.52719	8669.7875
2584.21451	8642.9875
2586.90015	8635.3875
2589.58411	8640.7875
2592.2664	8598.2875
2594.94701	8579.5875
2597.62594	8578.9875
2600.30321	8573.5875
2602.9788	8578.4875
2605.65273	8569.0875
2608.32498	8572.9875
2610.99557	8541.1875
2613.66449	8539.2875
2616.33175	8538.0875
2618.99734	8546.0875
2621.66128	8520.3875
2624.32355	8526.0875
2626.98416	8504.3875
2629.64311	8483.0875
2632.30041	8483.3875
2634.95605	8473.3875
2637.61004	8456.9875
2640.26238	8446.6875
2642.91306	8446.7875
2645.56209	8445.5875
2648.20948	8438.3875
2650.85521	8412.8875
2653.4993	8427.1875
2656.14175	8420.0875
2658.78255	8421.0875
2661.42171	8431.3875
2664.05923	8446.8875
2666.6951	8480.1875
2669.32934	8467.9875
2671.96194	8469.5875
2674.59291	8467.6875
2677.22224	8450.3875
2679.84993	8454.7875
2682.476	8448.5875
2685.10043	8459.7875
2687.72324	8424.4875
2690.34441	8474.8875
2692.96396	8448.2875
2695.58188	8447.6875
2698.19818	8427.1875
2700.81285	8422.4875
2703.4259	8428.2875
2706.03733	8354.6875
2708.64714	8380.5875
2711.25533	8405.1875
2713.86191	8404.0875
2716.46687	8444.9875
2719.07021	8445.4875
2721.67194	8450.1875
2724.27206	8441.3875
2726.87057	8463.3875
2729.46747	8455.2875
2732.06276	8447.0875
2734.65644	8450.5875
2737.24852	8459.7875
2739.83899	8429.6875
2742.42786	8437.4875
2745.01513	8414.5875
2747.60079	8423.9875
2750.18486	8428.4875
2752.76733	8413.8875
2755.3482	8397.4875
2757.92747	8397.3875
2760.50515	8364.6875
2763.08123	8386.2875
2765.65573	8354.4875
2768.22863	8364.3875
2770.79994	8326.8875
2773.36967	8322.1875
2775.9378	8309.0875
2778.50435	8310.7875
2781.06932	8307.5875
2783.6327	8315.2875
2786.1945	8310.9875
2788.75471	8301.1875
2791.31335	8279.0875
2793.87041	8257.0875
2796.42589	8229.8875
2798.97979	8237.8875
2801.53212	8243.7875
2804.08288	8211.0875
2806.63206	8208.4875
2809.17967	8192.8875
2811.72571	8171.8875
2814.27018	8127.5875
2816.81308	8143.7875
2819.35442	8148.0875
2821.89419	8123.2875
2824.43239	8102.8875
2826.96904	8114.1875
2829.50412	8115.4875
2832.03763	8081.4875
2834.56959	8089.6875
2837.1	8081.9875
2839.62884	8077.2875
2842.15613	8066.4875
2844.68186	8054.8875
2847.20604	8050.7875
2849.72867	8077.5875
2852.24974	8072.0875
2854.76927	8026.6875
2857.28724	8018.3875
2859.80367	8008.0875
2862.31855	8011.1875
2864.83189	8009.3875
2867.34368	8007.3875
2869.85393	7983.3875
2872.36264	7991.9875
2874.8698	7996.2875
2877.37543	7997.4875
2879.87952	7988.4875
2882.38207	7979.8875
2884.88308	7962.3875
2887.38256	7982.5875
2889.88051	7976.9875
2892.37692	7973.7875
2894.8718	7958.0875
2897.36515	7986.9875
2899.85698	8002.0875
2902.34727	7994.9875
2904.83604	8006.2875
2907.32328	8008.7875
2909.809	8025.1875
2912.29319	8041.3875
2914.77587	8043.1875
2917.25702	8026.3875
2919.73665	8014.9875
2922.21476	8008.2875
2924.69136	7999.2875
2927.16644	8038.6875
2929.64	8009.3875
2932.11205	7998.5875
2934.58258	7976.3875
2937.05161	7996.1875
2939.51912	7991.6875
2941.98513	7981.8875
2944.44962	7979.2875
2946.91261	7928.4875
2949.37409	7967.0875
2951.83407	7953.3875
2954.29254	7938.1875
2956.74951	7911.8875
2959.20498	7903.9875
2961.65895	7920.1875
2964.11142	7900.3875
2966.56239	7884.2875
2969.01186	7884.4875
2971.45984	7858.8875
2973.90632	7858.1875
2976.35131	7859.1875
2978.7948	7842.9875
2981.23681	7827.1875
2983.67732	7809.9875
2986.11635	7809.2875
2988.55388	7752.1875
2990.98993	7768.7875
2993.4245	7765.2875
2995.85758	7737.0875
2998.28917	7710.3875
3000.71928	7719.9875
3003.14791	7676.5875
3005.57506	7685.0875
3008.00073	7652.9875
3010.42493	7657.2875
3012.84764	7647.6875
3015.26888	7648.7875
3017.68865	7616.8875
3020.10694	7614.5875
3022.52376	7605.2875
3024.9391	7580.0875
3027.35298	7570.6875
3029.76539	7571.3875
3032.17632	7550.3875
3034.5858	7537.1875
3036.9938	7542.2875
3039.40034	7528.4875
3041.80542	7528.8875
3044.20903	7525.6875
3046.61118	7525.6875
3049.01187	7513.1875
3051.4111	7509.7875
3053.80888	7497.8875
3056.20519	7470.9875
3058.60005	7454.3875
3060.99345	7440.4875
