Data from AgNPs_FTO_APTES_UA_50uM_CRN_20uM_R6G_10uM_NaF_0.1M_Addition_RamanShift__15__14-11-44-930.txt Node

Date: Mon Feb 21 14:11:44 GMT 2022
User: TCL
Spectrometer: QEP01345
Trigger mode: 4
Integration Time (sec): 7.000000E0
Scans to average: 10
Electric dark correction enabled: true
Nonlinearity correction enabled: false
Boxcar width: 0
XAxis mode: Raman Shifts
Number of Pixels in Spectrum: 1044
>>>>>Begin Spectral Data<<<<<
46.04893	0.125
50.45542	-1.275
54.85868	-0.675
59.25871	-1.375
63.6555	52.825
68.04907	59.025
72.43941	59.725
76.82654	70.425
81.21044	68.525
85.59113	71.525
89.96862	74.925
94.34289	79.825
98.71396	76.225
103.08183	86.325
107.4465	83.725
111.80798	84.625
116.16626	83.825
120.52136	85.025
124.87327	95.025
129.222	95.225
133.56755	95.525
137.90993	104.625
142.24913	112.225
146.58517	124.125
150.91804	137.425
155.24774	168.125
159.57429	199.525
163.89768	254.325
168.21792	335.625
172.53501	460.125
176.84895	642.425
181.15975	896.225
185.46741	1247.825
189.77193	1722.625
194.07331	2312.825
198.37157	2965.425
202.6667	3686.425
206.9587	4373.625
211.24758	5075.425
215.53334	5778.225
219.81599	6552.725
224.09553	7407.525
228.37195	8366.025
232.64527	9404.325
236.91549	10470.525
241.18261	11494.225
245.44663	12365.825
249.70755	13127.725
253.96539	13731.225
258.22014	14223.025
262.4718	14674.425
266.72039	14945.925
270.96589	15095.125
275.20832	15039.525
279.44768	14823.525
283.68397	14591.625
287.91719	14393.925
292.14735	14333.025
296.37445	14435.225
300.59849	14710.125
304.81948	15029.325
309.03742	15219.425
313.25231	15104.725
317.46415	14645.025
321.67296	13957.025
325.87872	13378.125
330.08145	13089.425
334.28114	13021.025
338.47781	13156.225
342.67145	13413.525
346.86207	13753.425
351.04966	14226.525
355.23424	14777.325
359.4158	15206.425
363.59435	15475.925
367.76989	15559.725
371.94243	15633.425
376.11196	15613.325
380.27849	15626.625
384.44203	15628.725
388.60257	15617.225
392.76012	15612.225
396.91468	15765.825
401.06626	16011.325
405.21485	16179.225
409.36047	16005.725
413.50311	15466.625
417.64277	14954.825
421.77947	14704.925
425.9132	14619.725
430.04396	14585.325
434.17176	14601.625
438.2966	14742.825
442.41849	15018.925
446.53742	15347.825
450.6534	15765.525
454.76644	16021.725
458.87653	16083.225
462.98368	16027.825
467.08789	15867.425
471.18916	15626.625
475.2875	15429.625
479.38291	15202.725
483.4754	15055.425
487.56496	14839.325
491.6516	14736.925
495.73531	14642.625
499.81612	14642.025
503.89401	14781.625
507.96899	14931.425
512.04106	14982.125
516.11023	15012.125
520.1765	15027.525
524.23987	14973.625
528.30034	14831.325
532.35792	14741.525
536.41261	14569.425
540.46441	14382.525
544.51333	14268.825
548.55936	14299.825
552.60252	14539.225
556.64279	14821.525
560.6802	14985.425
564.71473	15115.125
568.7464	15427.625
572.7752	15833.125
576.80114	15844.025
580.82422	15851.925
584.84444	15997.325
588.86181	16205.725
592.87633	16391.625
596.888	16457.925
600.89682	16495.825
604.9028	17497.125
608.90594	20530.225
612.90624	24205.625
616.90371	22694.225
620.89834	17370.025
624.89015	14918.125
628.87913	14535.625
632.86528	14699.225
636.84862	14940.725
640.82913	14763.525
644.80683	14224.525
648.78172	13822.525
652.75379	13747.225
656.72306	14091.225
660.68952	14527.025
664.65319	14402.825
668.61405	13967.225
672.57211	13875.625
676.52738	14002.025
680.47986	14027.825
684.42955	13896.125
688.37646	13703.525
692.32058	13672.425
696.26192	13770.725
700.20048	13885.025
704.13626	13964.825
708.06928	13918.825
711.99952	13805.425
715.927	13736.425
719.85171	13788.825
723.77365	13824.425
727.69284	13696.125
731.60928	13560.025
735.52295	13535.625
739.43388	13584.725
743.34206	13630.225
747.24749	13651.525
751.15017	13707.225
755.05012	13883.925
758.94733	14340.125
762.8418	15459.625
766.73354	17446.325
770.62254	19556.225
774.50882	20400.425
778.39237	19527.225
782.27321	17518.925
786.15132	15597.225
790.02671	14416.325
793.89938	13823.525
797.76935	13538.625
801.6366	13439.225
805.50115	13328.225
809.36299	13234.225
813.22213	13124.525
817.07857	13026.625
820.93231	12960.925
824.78336	12951.425
828.63172	12929.025
832.47738	12926.625
836.32036	12886.625
840.16066	12869.025
843.99827	12878.125
847.8332	12809.525
851.66546	12823.525
855.49504	12781.525
859.32195	12828.625
863.1462	12807.625
866.96777	12815.925
870.78668	12813.925
874.60293	12840.025
878.41652	12856.925
882.22745	12905.125
886.03573	12992.725
889.84136	12999.425
893.64433	12952.525
897.44466	12895.325
901.24235	12819.225
905.0374	12742.125
908.8298	12618.625
912.61957	12542.025
916.40671	12603.325
920.19121	12707.125
923.97308	12854.925
927.75233	12952.425
931.52895	12994.125
935.30295	12883.825
939.07433	12567.225
942.84309	12296.325
946.60924	12162.625
950.37278	12118.525
954.13371	12062.525
957.89203	12018.225
961.64774	11994.225
965.40086	11943.825
969.15137	11931.725
972.89929	11843.025
976.64461	11848.525
980.38733	11842.725
984.12747	11864.525
987.86502	11923.125
991.59999	12014.425
995.33237	12172.125
999.06217	12441.925
1002.78939	12747.325
1006.51404	12998.925
1010.23611	13263.525
1013.95561	13409.025
1017.67255	13441.925
1021.38692	13306.125
1025.09872	13067.025
1028.80796	12943.125
1032.51465	12991.725
1036.21877	13155.825
1039.92035	13198.025
1043.61937	13190.525
1047.31584	13127.325
1051.00976	13065.025
1054.70114	12985.425
1058.38998	12969.725
1062.07627	13034.225
1065.76003	13098.325
1069.44126	13223.225
1073.11995	13466.525
1076.79611	13724.025
1080.46974	13907.125
1084.14085	14096.725
1087.80943	14372.825
1091.47549	14506.425
1095.13903	14439.125
1098.80005	14137.125
1102.45857	13782.725
1106.11456	13575.825
1109.76805	13526.925
1113.41903	13649.725
1117.06751	13907.425
1120.71348	14278.025
1124.35696	14667.725
1127.99793	15085.325
1131.63641	15201.825
1135.2724	14909.525
1138.90589	14492.025
1142.5369	14214.525
1146.16542	14040.225
1149.79145	13894.325
1153.415	13908.825
1157.03607	14017.825
1160.65467	14365.425
1164.27079	14947.825
1167.88443	15805.925
1171.49561	17013.525
1175.10432	18678.425
1178.71056	20904.625
1182.31434	22842.125
1185.91565	23694.225
1189.51451	23439.825
1193.11091	22401.825
1196.70485	21095.125
1200.29634	19788.625
1203.88538	18713.925
1207.47197	17705.625
1211.05612	16810.425
1214.63782	16278.225
1218.21708	16028.825
1221.79391	16006.025
1225.36829	16051.025
1228.94024	16029.425
1232.50976	15817.625
1236.07685	15589.525
1239.6415	15452.625
1243.20374	15381.525
1246.76355	15468.925
1250.32093	15633.225
1253.8759	15936.725
1257.42845	16412.525
1260.97859	17002.425
1264.52631	17632.125
1268.07163	18287.825
1271.61453	18952.925
1275.15503	19457.325
1278.69312	19869.425
1282.22882	20256.725
1285.76211	20762.025
1289.29301	21401.825
1292.82151	22146.125
1296.34761	23115.625
1299.87133	24345.025
1303.39266	26053.725
1306.9116	28277.825
1310.42815	30605.825
1313.94233	31903.725
1317.45412	31409.325
1320.96354	29970.325
1324.47058	28393.425
1327.97525	27023.225
1331.47754	26034.925
1334.97747	25485.025
1338.47502	25346.525
1341.97022	25526.825
1345.46305	25974.825
1348.95352	26741.225
1352.44163	27855.825
1355.92738	29593.725
1359.41078	32131.525
1362.89183	34725.325
1366.37053	34007.525
1369.84688	29823.725
1373.32088	25293.425
1376.79254	22331.025
1380.26186	20826.225
1383.72883	20135.725
1387.19347	19563.525
1390.65578	19062.025
1394.11575	18769.525
1397.57339	18674.825
1401.0287	18803.425
1404.48168	18924.425
1407.93234	18904.025
1411.38068	18742.725
1414.82669	18453.925
1418.27039	18022.125
1421.71177	17632.425
1425.15083	17165.925
1428.58758	17007.825
1432.02203	17102.525
1435.45416	17400.425
1438.88399	17728.625
1442.31151	17913.425
1445.73673	18088.825
1449.15965	18316.925
1452.58027	18508.925
1455.9986	18571.925
1459.41463	18739.325
1462.82837	19047.825
1466.23982	19438.825
1469.64898	19754.325
1473.05586	19968.725
1476.46045	20024.725
1479.86276	20032.425
1483.26279	20052.625
1486.66054	20282.325
1490.05602	20690.925
1493.44922	21349.225
1496.84016	22415.725
1500.22882	24082.025
1503.61521	26397.425
1506.99934	29065.825
1510.38121	31203.925
1513.76081	31533.425
1517.13816	29682.625
1520.51324	26662.925
1523.88607	23867.325
1527.25665	22071.825
1530.62498	21048.925
1533.99105	20453.425
1537.35488	19974.025
1540.71647	19553.625
1544.07581	19152.825
1547.4329	18829.725
1550.78776	18635.025
1554.14038	18531.025
1557.49077	18653.125
1560.83892	18883.125
1564.18484	19259.425
1567.52853	19684.525
1570.86999	20155.225
1574.20922	20507.425
1577.54624	20478.225
1580.88103	19794.025
1584.2136	18973.625
1587.54395	18668.925
1590.87208	19088.525
1594.19801	20083.925
1597.52172	21322.925
1600.84321	21764.725
1604.16251	21020.225
1607.47959	19668.225
1610.79447	18181.325
1614.10715	16757.525
1617.41763	15547.025
1620.7259	14684.325
1624.03199	14260.525
1627.33587	14253.225
1630.63757	14619.825
1633.93707	15433.325
1637.23439	16947.425
1640.52951	19156.925
1643.82246	21947.825
1647.11321	24626.225
1650.40179	25890.825
1653.68819	24564.825
1656.97241	21194.925
1660.25446	17639.925
1663.53433	15008.925
1666.81203	13447.325
1670.08756	12544.125
1673.36092	11958.225
1676.63211	11631.925
1679.90115	11365.325
1683.16801	11156.425
1686.43272	11037.425
1689.69527	10897.525
1692.95567	10749.025
1696.2139	10628.325
1699.46999	10479.225
1702.72392	10424.125
1705.97571	10450.425
1709.22535	10504.825
1712.47284	10571.325
1715.71819	10580.225
1718.96139	10532.825
1722.20246	10512.825
1725.44139	10456.225
1728.67818	10348.925
1731.91284	10283.425
1735.14537	10208.425
1738.37576	10159.425
1741.60403	10118.125
1744.83017	10084.725
1748.05418	10060.625
1751.27607	10021.325
1754.49584	9950.425
1757.71349	9867.725
1760.92903	9836.125
1764.14244	9794.225
1767.35375	9766.825
1770.56294	9710.025
1773.77002	9732.725
1776.97499	9708.225
1780.17785	9746.525
1783.37861	9727.625
1786.57727	9744.625
1789.77382	9725.325
1792.96828	9709.625
1796.16064	9681.725
1799.3509	9659.225
1802.53907	9624.825
1805.72514	9622.625
1808.90913	9593.325
1812.09102	9579.425
1815.27083	9575.225
1818.44856	9521.925
1821.6242	9516.125
1824.79776	9504.825
1827.96924	9517.625
1831.13864	9483.925
1834.30597	9477.925
1837.47122	9495.225
1840.6344	9483.725
1843.7955	9482.525
1846.95454	9472.225
1850.11151	9465.025
1853.26642	9463.125
1856.41926	9439.525
1859.57004	9413.025
1862.71876	9391.225
1865.86542	9405.925
1869.01003	9413.925
1872.15258	9389.725
1875.29308	9395.025
1878.43152	9365.425
1881.56792	9359.825
1884.70227	9343.925
1887.83457	9343.225
1890.96482	9335.125
1894.09304	9289.325
1897.21921	9301.325
1900.34335	9285.325
1903.46544	9276.925
1906.58551	9270.725
1909.70353	9216.425
1912.81953	9207.325
1915.93349	9218.525
1919.04543	9184.025
1922.15534	9159.525
1925.26322	9123.125
1928.36908	9103.925
1931.47292	9084.325
1934.57473	9033.725
1937.67453	9027.825
1940.77232	8997.625
1943.86808	8958.725
1946.96184	8936.525
1950.05358	8883.725
1953.14331	8878.725
1956.23103	8858.625
1959.31675	8814.425
1962.40046	8810.625
1965.48217	8792.225
1968.56188	8774.425
1971.63959	8742.525
1974.7153	8722.325
1977.78901	8699.625
1980.86073	8654.625
1983.93046	8616.625
1986.99819	8588.825
1990.06394	8578.025
1993.1277	8548.225
1996.18947	8517.325
1999.24925	8474.825
2002.30706	8457.025
2005.36288	8433.925
2008.41672	8392.025
2011.46859	8376.925
2014.51848	8357.525
2017.56639	8316.125
2020.61233	8319.125
2023.6563	8281.325
2026.6983	8248.925
2029.73833	8225.425
2032.7764	8196.325
2035.8125	8190.625
2038.84664	8202.725
2041.87881	8188.925
2044.90903	8158.825
2047.93729	8122.525
2050.96359	8130.225
2053.98794	8120.225
2057.01034	8115.525
2060.03078	8120.825
2063.04927	8098.425
2066.06582	8087.925
2069.08042	8086.625
2072.09307	8070.125
2075.10378	8041.525
2078.11255	8036.725
2081.11938	8045.125
2084.12426	8026.625
2087.12722	8041.025
2090.12824	8038.425
2093.12732	8022.125
2096.12447	8042.225
2099.11969	8039.225
2102.11299	8044.725
2105.10435	8049.725
2108.09379	8027.325
2111.08131	8039.025
2114.0669	8030.225
2117.05057	8043.525
2120.03233	8060.525
2123.01216	8074.525
2125.99008	8093.025
2128.96609	8060.725
2131.94018	8098.525
2134.91236	8059.725
2137.88263	8073.425
2140.851	8077.925
2143.81746	8097.325
2146.78201	8088.425
2149.74466	8069.525
2152.7054	8090.525
2155.66425	8066.825
2158.6212	8061.525
2161.57625	8043.125
2164.52941	8053.525
2167.48067	8038.225
2170.43004	8040.125
2173.37752	8032.825
2176.32311	8028.025
2179.26681	8038.825
2182.20863	8035.525
2185.14856	8043.225
2188.08661	8041.025
2191.02278	8040.425
2193.95707	8006.325
2196.88948	8015.525
2199.82001	8008.725
2202.74867	8005.025
2205.67545	7995.725
2208.60037	7992.625
2211.52341	7984.225
2214.44458	7965.425
2217.36388	7955.325
2220.28132	7936.425
2223.1969	7912.925
2226.11061	7887.925
2229.02246	7892.025
2231.93245	7872.125
2234.84058	7852.025
2237.74686	7835.425
2240.65128	7832.225
2243.55385	7823.325
2246.45456	7794.025
2249.35343	7818.025
2252.25044	7792.925
2255.14561	7775.525
2258.03893	7784.825
2260.93041	7751.025
2263.82004	7753.325
2266.70783	7745.625
2269.59378	7709.325
2272.4779	7692.925
2275.36017	7674.625
2278.24061	7663.725
2281.11922	7642.825
2283.996	7640.925
2286.87094	7629.225
2289.74405	7599.725
2292.61534	7589.825
2295.4848	7568.425
2298.35243	7573.625
2301.21824	7570.625
2304.08223	7587.225
2306.94439	7564.025
2309.80474	7571.125
2312.66327	7571.325
2315.51999	7545.225
2318.37489	7545.825
2321.22797	7550.225
2324.07925	7537.525
2326.92871	7522.025
2329.77637	7528.425
2332.62222	7498.625
2335.46626	7503.925
2338.3085	7486.025
2341.14893	7479.225
2343.98756	7481.125
2346.8244	7491.525
2349.65943	7501.425
2352.49267	7505.925
2355.32411	7503.325
2358.15376	7513.025
2360.98161	7500.625
2363.80768	7496.125
2366.63195	7505.925
2369.45444	7491.125
2372.27514	7490.525
2375.09405	7484.725
2377.91118	7462.225
2380.72652	7463.125
2383.54009	7425.125
2386.35187	7401.925
2389.16188	7347.125
2391.97011	7351.025
2394.77657	7317.825
2397.58125	7311.125
2400.38416	7308.025
2403.18529	7297.825
2405.98466	7283.725
2408.78226	7258.725
2411.57809	7257.925
2414.37216	7242.825
2417.16446	7227.725
2419.955	7211.925
2422.74378	7227.925
2425.5308	7205.025
2428.31606	7229.325
2431.09956	7214.625
2433.88131	7193.825
2436.6613	7191.325
2439.43954	7213.125
2442.21603	7209.025
2444.99077	7220.425
2447.76377	7228.625
2450.53501	7226.125
2453.30451	7227.925
2456.07226	7221.425
2458.83827	7202.225
2461.60254	7208.725
2464.36507	7212.525
2467.12586	7191.125
2469.88492	7198.325
2472.64224	7193.625
2475.39782	7206.825
2478.15167	7216.225
2480.90379	7227.925
2483.65417	7223.825
2486.40283	7222.125
2489.14976	7258.325
2491.89497	7237.625
2494.63845	7230.925
2497.3802	7191.625
2500.12024	7204.225
2502.85855	7207.325
2505.59514	7176.725
2508.33002	7163.425
2511.06318	7151.225
2513.79462	7140.125
2516.52435	7132.025
2519.25237	7104.625
2521.97867	7094.725
2524.70327	7094.025
2527.42616	7065.825
2530.14734	7061.125
2532.86681	7090.725
2535.58458	7082.825
2538.30065	7058.925
2541.01501	7059.425
2543.72768	7051.825
2546.43864	7038.125
2549.14791	7055.125
2551.85548	7037.025
2554.56136	7032.025
2557.26554	7005.625
2559.96803	7007.425
2562.66883	6996.425
2565.36794	7001.025
2568.06536	6969.425
2570.7611	6969.225
2573.45514	6947.225
2576.14751	6976.325
2578.83819	6957.425
2581.52719	6954.125
2584.21451	6946.025
2586.90015	6941.725
2589.58411	6898.625
2592.2664	6907.725
2594.94701	6909.825
2597.62594	6891.425
2600.30321	6905.525
2602.9788	6905.525
2605.65273	6900.625
2608.32498	6877.525
2610.99557	6883.025
2613.66449	6885.925
2616.33175	6900.325
2618.99734	6906.425
2621.66128	6862.825
2624.32355	6867.025
2626.98416	6873.425
2629.64311	6868.025
2632.30041	6854.525
2634.95605	6836.025
2637.61004	6817.625
2640.26238	6813.025
2642.91306	6825.425
2645.56209	6813.725
2648.20948	6772.925
2650.85521	6789.225
2653.4993	6805.725
2656.14175	6794.625
2658.78255	6794.725
2661.42171	6813.225
2664.05923	6838.325
2666.6951	6830.325
2669.32934	6848.525
2671.96194	6835.825
2674.59291	6857.025
2677.22224	6852.825
2679.84993	6832.825
2682.476	6792.725
2685.10043	6806.525
2687.72324	6798.925
2690.34441	6836.225
2692.96396	6810.525
2695.58188	6801.025
2698.19818	6793.725
2700.81285	6804.325
2703.4259	6760.325
2706.03733	6719.025
2708.64714	6737.925
2711.25533	6779.325
2713.86191	6778.925
2716.46687	6797.625
2719.07021	6806.425
2721.67194	6840.725
2724.27206	6808.925
2726.87057	6812.925
2729.46747	6823.725
2732.06276	6822.125
2734.65644	6796.925
2737.24852	6812.425
2739.83899	6801.725
2742.42786	6823.225
2745.01513	6784.225
2747.60079	6777.525
2750.18486	6785.625
2752.76733	6788.625
2755.3482	6751.625
2757.92747	6766.725
2760.50515	6758.725
2763.08123	6758.225
2765.65573	6747.825
2768.22863	6726.525
2770.79994	6711.825
2773.36967	6720.925
2775.9378	6698.525
2778.50435	6718.325
2781.06932	6682.525
2783.6327	6730.025
2786.1945	6706.725
2788.75471	6709.725
2791.31335	6682.425
2793.87041	6670.425
2796.42589	6657.125
2798.97979	6663.225
2801.53212	6666.725
2804.08288	6659.725
2806.63206	6643.925
2809.17967	6625.725
2811.72571	6633.825
2814.27018	6596.025
2816.81308	6610.025
2819.35442	6610.925
2821.89419	6591.525
2824.43239	6605.925
2826.96904	6612.625
2829.50412	6603.225
2832.03763	6585.125
2834.56959	6597.425
2837.1	6579.925
2839.62884	6585.825
2842.15613	6561.625
2844.68186	6575.225
2847.20604	6575.925
2849.72867	6581.725
2852.24974	6573.525
2854.76927	6581.625
2857.28724	6547.925
2859.80367	6559.625
2862.31855	6564.025
2864.83189	6563.625
2867.34368	6564.925
2869.85393	6582.225
2872.36264	6578.325
2874.8698	6588.825
2877.37543	6567.325
2879.87952	6574.425
2882.38207	6604.525
2884.88308	6573.925
2887.38256	6583.025
2889.88051	6570.925
2892.37692	6583.725
2894.8718	6556.325
2897.36515	6581.825
2899.85698	6587.525
2902.34727	6600.025
2904.83604	6587.925
2907.32328	6621.425
2909.809	6619.125
2912.29319	6643.225
2914.77587	6651.925
2917.25702	6649.825
2919.73665	6621.425
2922.21476	6632.425
2924.69136	6608.825
2927.16644	6618.025
2929.64	6581.525
2932.11205	6625.225
2934.58258	6576.725
2937.05161	6578.525
2939.51912	6589.925
2941.98513	6580.625
2944.44962	6541.325
2946.91261	6530.725
2949.37409	6538.525
2951.83407	6527.125
2954.29254	6496.925
2956.74951	6505.825
2959.20498	6496.525
2961.65895	6474.025
2964.11142	6472.125
2966.56239	6445.425
2969.01186	6447.225
2971.45984	6436.525
2973.90632	6424.925
2976.35131	6400.325
2978.7948	6402.225
2981.23681	6374.125
2983.67732	6362.925
2986.11635	6361.525
2988.55388	6336.725
2990.98993	6331.825
2993.4245	6320.225
2995.85758	6283.225
2998.28917	6287.625
3000.71928	6277.725
3003.14791	6256.325
3005.57506	6275.025
3008.00073	6247.825
3010.42493	6234.925
3012.84764	6242.625
3015.26888	6221.825
3017.68865	6195.425
3020.10694	6200.725
3022.52376	6174.825
3024.9391	6190.325
3027.35298	6146.725
3029.76539	6157.225
3032.17632	6147.325
3034.5858	6142.725
3036.9938	6139.825
3039.40034	6135.125
3041.80542	6114.225
3044.20903	6125.525
3046.61118	6095.325
3049.01187	6102.525
3051.4111	6089.025
3053.80888	6082.325
3056.20519	6074.025
3058.60005	6058.525
3060.99345	6057.725
3063.3854	6061.125
3065.7759	6022.025
3068.16494	6030.625
3070.55254	5999.425
3072.93868	5965.825
3075.32338	5946.625
3077.70662	5935.625
3080.08842	5946.425
3082.46878	5932.725
3084.84769	5907.725
3087.22515	5911.525
3089.60118	5904.825
3091.97576	5926.825
3094.3489	5907.325
3096.72061	5911.625
3099.09087	5906.825
3101.4597	5888.325
3103.82709	5928.325
3106.19305	5899.225
3108.55757	5909.925
3110.92066	5902.625
3113.28232	5892.225
3115.64255	5865.825
3118.00134	5868.225
3120.35871	5881.325
3122.71466	5852.425
3125.06917	5868.925
3127.42226	5832.625
3129.77393	5867.425
3132.12417	5836.725
3134.47299	5834.325
3136.82039	5822.625
3139.16636	5833.925
3141.51092	5833.625
3143.85406	5836.225
3146.19579	5846.225
3148.53609	5847.425
3150.87499	5843.325
3153.21246	5852.925
3155.54853	5869.025
3157.88318	5869.025
3160.21642	5879.625
3162.54826	5883.125
3164.87868	5878.525
3167.2077	5878.025
3169.5353	5900.625
3171.86151	5890.125
3174.18631	5864.825
3176.5097	5875.425
3178.83169	5870.925
3181.15228	5862.225
3183.47147	5855.525
3185.78926	5865.825
3188.10565	5864.925
