Data from AgNPs_FTO_APTES_UA_50uM_CRN_100uM_R6G_10uM_NaF_0.1M_Addition_RamanShift__24__15-43-55-047.txt Node

Date: Mon Feb 21 15:43:55 GMT 2022
User: TCL
Spectrometer: QEP01345
Trigger mode: 4
Integration Time (sec): 7.000000E0
Scans to average: 10
Electric dark correction enabled: true
Nonlinearity correction enabled: false
Boxcar width: 0
XAxis mode: Raman Shifts
Number of Pixels in Spectrum: 1044
>>>>>Begin Spectral Data<<<<<
46.04893	0.0125
50.45542	-0.0875
54.85868	-1.3875
59.25871	-1.2875
63.6555	57.1125
68.04907	61.0125
72.43941	60.6125
76.82654	65.8125
81.21044	71.4125
85.59113	72.6125
89.96862	75.9125
94.34289	76.8125
98.71396	80.5125
103.08183	81.2125
107.4465	86.1125
111.80798	86.6125
116.16626	88.1125
120.52136	89.3125
124.87327	96.2125
129.222	99.3125
133.56755	100.7125
137.90993	107.7125
142.24913	118.0125
146.58517	130.7125
150.91804	151.5125
155.24774	179.9125
159.57429	217.5125
163.89768	281.2125
168.21792	372.9125
172.53501	509.8125
176.84895	711.4125
181.15975	1001.3125
185.46741	1400.8125
189.77193	1942.5125
194.07331	2599.3125
198.37157	3347.0125
202.6667	4145.4125
206.9587	4953.5125
211.24758	5772.5125
215.53334	6601.8125
219.81599	7520.1125
224.09553	8575.5125
228.37195	9735.0125
232.64527	11051.6125
236.91549	12299.3125
241.18261	13501.7125
245.44663	14489.4125
249.70755	15334.5125
253.96539	16060.6125
258.22014	16681.1125
262.4718	17148.7125
266.72039	17489.1125
270.96589	17566.6125
275.20832	17428.3125
279.44768	17085.6125
283.68397	16707.1125
287.91719	16428.8125
292.14735	16431.1125
296.37445	16804.8125
300.59849	17453.2125
304.81948	18251.7125
309.03742	18802.4125
313.25231	18750.8125
317.46415	17833.6125
321.67296	16448.3125
325.87872	15384.4125
330.08145	14919.1125
334.28114	14930.0125
338.47781	15213.0125
342.67145	15696.4125
346.86207	16385.5125
351.04966	17394.6125
355.23424	18496.0125
359.4158	19387.9125
363.59435	19817.1125
367.76989	19958.1125
371.94243	19955.7125
376.11196	19841.7125
380.27849	19735.1125
384.44203	19531.2125
388.60257	19255.9125
392.76012	19088.5125
396.91468	19180.5125
401.06626	19585.5125
405.21485	19904.9125
409.36047	19525.8125
413.50311	18475.1125
417.64277	17443.9125
421.77947	16820.2125
425.9132	16536.2125
430.04396	16484.7125
434.17176	16586.5125
438.2966	16820.5125
442.41849	17249.7125
446.53742	17762.4125
450.6534	18224.5125
454.76644	18601.5125
458.87653	18702.1125
462.98368	18509.2125
467.08789	18214.7125
471.18916	17824.5125
475.2875	17415.7125
479.38291	17043.1125
483.4754	16806.6125
487.56496	16549.8125
491.6516	16363.3125
495.73531	16298.0125
499.81612	16329.7125
503.89401	16577.6125
507.96899	16819.0125
512.04106	17113.7125
516.11023	17451.0125
520.1765	17676.8125
524.23987	17648.6125
528.30034	17375.4125
532.35792	17091.7125
536.41261	16820.4125
540.46441	16459.3125
544.51333	16251.0125
548.55936	16305.0125
552.60252	16614.4125
556.64279	17022.6125
560.6802	17232.8125
564.71473	17471.1125
568.7464	18110.5125
572.7752	18420.8125
576.80114	17831.5125
580.82422	17134.3125
584.84444	16892.5125
588.86181	16940.3125
592.87633	17159.4125
596.888	17490.9125
600.89682	18058.4125
604.9028	20200.6125
608.90594	26043.0125
612.90624	33588.9125
616.90371	31820.7125
620.89834	22327.0125
624.89015	18012.3125
628.87913	17250.1125
632.86528	17390.5125
636.84862	17595.3125
640.82913	17301.2125
644.80683	16498.4125
648.78172	15919.9125
652.75379	15928.1125
656.72306	16554.8125
660.68952	17319.3125
664.65319	17140.0125
668.61405	16382.0125
672.57211	16008.5125
676.52738	16030.2125
680.47986	16071.9125
684.42955	15862.5125
688.37646	15709.7125
692.32058	15692.3125
696.26192	15799.2125
700.20048	15987.1125
704.13626	16096.6125
708.06928	15984.0125
711.99952	15819.5125
715.927	15781.9125
719.85171	15876.6125
723.77365	15960.7125
727.69284	15912.7125
731.60928	15820.7125
735.52295	15808.3125
739.43388	15866.3125
743.34206	15944.2125
747.24749	15960.1125
751.15017	16017.2125
755.05012	16274.0125
758.94733	16988.8125
762.8418	18820.9125
766.73354	22036.0125
770.62254	25380.3125
774.50882	27259.2125
778.39237	26064.2125
782.27321	22447.4125
786.15132	19012.7125
790.02671	17057.7125
793.89938	16221.8125
797.76935	15850.5125
801.6366	15742.0125
805.50115	15673.4125
809.36299	15611.0125
813.22213	15518.6125
817.07857	15482.6125
820.93231	15447.6125
824.78336	15471.1125
828.63172	15537.9125
832.47738	15591.8125
836.32036	15520.5125
840.16066	15488.3125
843.99827	15502.6125
847.8332	15435.1125
851.66546	15391.7125
855.49504	15401.3125
859.32195	15395.5125
863.1462	15342.4125
866.96777	15370.3125
870.78668	15300.2125
874.60293	15346.0125
878.41652	15390.4125
882.22745	15489.2125
886.03573	15569.4125
889.84136	15501.4125
893.64433	15401.8125
897.44466	15376.0125
901.24235	15348.3125
905.0374	15257.3125
908.8298	15169.2125
912.61957	15109.6125
916.40671	15119.7125
920.19121	15230.7125
923.97308	15436.2125
927.75233	15657.5125
931.52895	15877.1125
935.30295	15822.4125
939.07433	15364.9125
942.84309	14961.2125
946.60924	14729.2125
950.37278	14576.5125
954.13371	14490.5125
957.89203	14454.0125
961.64774	14381.2125
965.40086	14318.1125
969.15137	14240.3125
972.89929	14233.5125
976.64461	14187.5125
980.38733	14182.6125
984.12747	14283.0125
987.86502	14355.9125
991.59999	14544.0125
995.33237	14773.7125
999.06217	15246.7125
1002.78939	15716.5125
1006.51404	16025.4125
1010.23611	16289.7125
1013.95561	16495.2125
1017.67255	16487.1125
1021.38692	16307.3125
1025.09872	16144.9125
1028.80796	16243.7125
1032.51465	16573.0125
1036.21877	17002.8125
1039.92035	17085.3125
1043.61937	16915.9125
1047.31584	16586.3125
1051.00976	16190.6125
1054.70114	15915.3125
1058.38998	15784.4125
1062.07627	15755.0125
1065.76003	15753.1125
1069.44126	15774.4125
1073.11995	15842.9125
1076.79611	16010.0125
1080.46974	16378.0125
1084.14085	16859.4125
1087.80943	17320.5125
1091.47549	17463.8125
1095.13903	17146.3125
1098.80005	16615.4125
1102.45857	16213.1125
1106.11456	16145.8125
1109.76805	16393.0125
1113.41903	16880.5125
1117.06751	17592.4125
1120.71348	18429.9125
1124.35696	19329.6125
1127.99793	19949.4125
1131.63641	19653.8125
1135.2724	18641.1125
1138.90589	17729.9125
1142.5369	17108.1125
1146.16542	16700.9125
1149.79145	16412.6125
1153.415	16370.5125
1157.03607	16462.8125
1160.65467	16792.3125
1164.27079	17407.0125
1167.88443	18331.0125
1171.49561	19712.0125
1175.10432	21984.2125
1178.71056	25175.4125
1182.31434	27898.4125
1185.91565	28763.1125
1189.51451	27793.2125
1193.11091	25795.6125
1196.70485	23600.0125
1200.29634	22139.0125
1203.88538	21107.0125
1207.47197	19893.7125
1211.05612	18795.1125
1214.63782	18199.1125
1218.21708	17992.7125
1221.79391	18016.9125
1225.36829	18100.6125
1228.94024	18012.3125
1232.50976	17827.4125
1236.07685	17665.3125
1239.6415	17691.6125
1243.20374	17789.4125
1246.76355	17979.3125
1250.32093	18295.6125
1253.8759	18688.8125
1257.42845	19303.1125
1260.97859	19913.2125
1264.52631	20530.2125
1268.07163	21158.3125
1271.61453	21806.3125
1275.15503	22347.6125
1278.69312	22682.5125
1282.22882	22987.9125
1285.76211	23475.9125
1289.29301	24091.5125
1292.82151	24841.4125
1296.34761	25846.6125
1299.87133	27405.7125
1303.39266	30077.8125
1306.9116	34093.2125
1310.42815	38102.7125
1313.94233	39511.6125
1317.45412	37519.9125
1320.96354	34075.8125
1324.47058	30756.8125
1327.97525	28124.5125
1331.47754	26615.8125
1334.97747	26099.0125
1338.47502	26530.4125
1341.97022	27595.2125
1345.46305	29132.1125
1348.95352	31067.7125
1352.44163	33583.7125
1355.92738	37317.0125
1359.41078	43263.0125
1362.89183	48298.8125
1366.37053	45784.0125
1369.84688	37649.5125
1373.32088	30528.0125
1376.79254	26252.5125
1380.26186	24062.9125
1383.72883	22829.6125
1387.19347	21966.5125
1390.65578	21161.5125
1394.11575	20590.5125
1397.57339	20419.2125
1401.0287	20575.4125
1404.48168	20767.7125
1407.93234	21051.2125
1411.38068	21360.1125
1414.82669	21495.6125
1418.27039	21338.2125
1421.71177	20982.0125
1425.15083	20504.8125
1428.58758	20322.3125
1432.02203	20474.5125
1435.45416	20687.3125
1438.88399	20715.8125
1442.31151	20803.8125
1445.73673	20897.0125
1449.15965	21091.8125
1452.58027	21110.2125
1455.9986	20943.2125
1459.41463	20914.7125
1462.82837	21188.6125
1466.23982	21690.2125
1469.64898	22189.4125
1473.05586	22526.1125
1476.46045	22723.6125
1479.86276	22954.9125
1483.26279	23316.7125
1486.66054	23839.5125
1490.05602	24648.2125
1493.44922	25870.2125
1496.84016	27678.9125
1500.22882	30634.7125
1503.61521	35012.3125
1506.99934	40209.4125
1510.38121	44285.1125
1513.76081	44783.4125
1517.13816	40978.2125
1520.51324	35034.7125
1523.88607	29838.6125
1527.25665	26504.1125
1530.62498	24706.6125
1533.99105	23618.9125
1537.35488	22969.4125
1540.71647	22652.0125
1544.07581	22619.2125
1547.4329	22687.9125
1550.78776	22812.0125
1554.14038	22965.9125
1557.49077	23231.3125
1560.83892	23689.4125
1564.18484	24321.0125
1567.52853	25066.9125
1570.86999	25618.5125
1574.20922	25888.5125
1577.54624	25568.3125
1580.88103	24226.0125
1584.2136	22551.0125
1587.54395	21781.8125
1590.87208	22168.5125
1594.19801	23579.8125
1597.52172	25390.2125
1600.84321	26179.8125
1604.16251	25364.3125
1607.47959	23753.6125
1610.79447	21886.4125
1614.10715	20165.2125
1617.41763	18827.6125
1620.7259	17975.8125
1624.03199	17601.0125
1627.33587	17726.9125
1630.63757	18242.5125
1633.93707	19182.7125
1637.23439	20693.1125
1640.52951	22805.3125
1643.82246	25866.1125
1647.11321	29422.0125
1650.40179	31549.2125
1653.68819	30068.3125
1656.97241	25714.0125
1660.25446	21331.1125
1663.53433	18367.6125
1666.81203	16690.6125
1670.08756	15764.4125
1673.36092	15173.1125
1676.63211	14782.1125
1679.90115	14520.3125
1683.16801	14283.8125
1686.43272	14154.2125
1689.69527	14046.4125
1692.95567	13881.8125
1696.2139	13749.6125
1699.46999	13605.9125
1702.72392	13554.1125
1705.97571	13647.3125
1709.22535	13689.7125
1712.47284	13751.5125
1715.71819	13797.6125
1718.96139	13787.0125
1722.20246	13770.4125
1725.44139	13723.5125
1728.67818	13623.8125
1731.91284	13558.8125
1735.14537	13436.1125
1738.37576	13395.9125
1741.60403	13336.0125
1744.83017	13302.6125
1748.05418	13276.1125
1751.27607	13201.7125
1754.49584	13116.5125
1757.71349	13050.3125
1760.92903	12975.7125
1764.14244	12956.5125
1767.35375	12955.7125
1770.56294	12901.9125
1773.77002	12867.2125
1776.97499	12907.6125
1780.17785	12897.0125
1783.37861	12949.9125
1786.57727	12919.8125
1789.77382	12907.0125
1792.96828	12910.0125
1796.16064	12882.8125
1799.3509	12883.7125
1802.53907	12882.5125
1805.72514	12833.5125
1808.90913	12761.2125
1812.09102	12735.4125
1815.27083	12740.1125
1818.44856	12729.9125
1821.6242	12708.6125
1824.79776	12680.4125
1827.96924	12650.4125
1831.13864	12634.3125
1834.30597	12642.6125
1837.47122	12632.6125
1840.6344	12588.1125
1843.7955	12593.1125
1846.95454	12570.7125
1850.11151	12563.0125
1853.26642	12572.0125
1856.41926	12539.6125
1859.57004	12569.9125
1862.71876	12568.7125
1865.86542	12577.7125
1869.01003	12562.2125
1872.15258	12556.6125
1875.29308	12558.3125
1878.43152	12589.8125
1881.56792	12547.9125
1884.70227	12545.6125
1887.83457	12546.9125
1890.96482	12514.4125
1894.09304	12505.8125
1897.21921	12514.6125
1900.34335	12504.4125
1903.46544	12509.6125
1906.58551	12481.3125
1909.70353	12495.0125
1912.81953	12492.1125
1915.93349	12465.9125
1919.04543	12454.1125
1922.15534	12426.7125
1925.26322	12416.9125
1928.36908	12379.3125
1931.47292	12375.4125
1934.57473	12325.8125
1937.67453	12285.9125
1940.77232	12267.8125
1943.86808	12213.1125
1946.96184	12174.1125
1950.05358	12142.8125
1953.14331	12103.3125
1956.23103	12063.4125
1959.31675	12032.1125
1962.40046	12031.2125
1965.48217	12008.2125
1968.56188	11983.3125
1971.63959	11956.5125
1974.7153	11948.3125
1977.78901	11901.1125
1980.86073	11857.7125
1983.93046	11791.5125
1986.99819	11756.3125
1990.06394	11716.6125
1993.1277	11675.7125
1996.18947	11627.1125
1999.24925	11603.3125
2002.30706	11540.8125
2005.36288	11554.1125
2008.41672	11502.6125
2011.46859	11455.7125
2014.51848	11446.3125
2017.56639	11411.0125
2020.61233	11395.5125
2023.6563	11365.7125
2026.6983	11343.9125
2029.73833	11309.1125
2032.7764	11270.7125
2035.8125	11277.6125
2038.84664	11257.8125
2041.87881	11259.5125
2044.90903	11243.5125
2047.93729	11215.2125
2050.96359	11235.9125
2053.98794	11185.6125
2057.01034	11192.6125
2060.03078	11162.7125
2063.04927	11149.6125
2066.06582	11160.5125
2069.08042	11114.3125
2072.09307	11080.5125
2075.10378	11059.7125
2078.11255	11088.9125
2081.11938	11085.8125
2084.12426	11066.2125
2087.12722	11072.4125
2090.12824	11076.2125
2093.12732	11076.9125
2096.12447	11064.1125
2099.11969	11047.2125
2102.11299	11093.2125
2105.10435	11063.5125
2108.09379	11084.2125
2111.08131	11061.4125
2114.0669	11069.5125
2117.05057	11089.4125
2120.03233	11120.7125
2123.01216	11142.4125
2125.99008	11162.5125
2128.96609	11164.3125
2131.94018	11171.5125
2134.91236	11159.8125
2137.88263	11183.6125
2140.851	11175.3125
2143.81746	11187.1125
2146.78201	11163.2125
2149.74466	11179.6125
2152.7054	11152.0125
2155.66425	11162.2125
2158.6212	11125.1125
2161.57625	11142.1125
2164.52941	11119.7125
2167.48067	11130.2125
2170.43004	11120.9125
2173.37752	11130.3125
2176.32311	11132.3125
2179.26681	11147.5125
2182.20863	11150.6125
2185.14856	11147.7125
2188.08661	11154.9125
2191.02278	11136.4125
2193.95707	11117.7125
2196.88948	11122.1125
2199.82001	11129.0125
2202.74867	11134.2125
2205.67545	11115.0125
2208.60037	11102.3125
2211.52341	11097.7125
2214.44458	11103.8125
2217.36388	11090.1125
2220.28132	11069.3125
2223.1969	11051.8125
2226.11061	11043.6125
2229.02246	11012.6125
2231.93245	11006.2125
2234.84058	10975.4125
2237.74686	10934.5125
2240.65128	10918.9125
2243.55385	10921.4125
2246.45456	10943.9125
2249.35343	10927.0125
2252.25044	10912.6125
2255.14561	10913.6125
2258.03893	10919.3125
2260.93041	10857.8125
2263.82004	10844.3125
2266.70783	10833.9125
2269.59378	10810.5125
2272.4779	10789.6125
2275.36017	10759.9125
2278.24061	10778.4125
2281.11922	10735.4125
2283.996	10687.2125
2286.87094	10703.5125
2289.74405	10672.2125
2292.61534	10652.2125
2295.4848	10641.5125
2298.35243	10655.0125
2301.21824	10658.0125
2304.08223	10650.7125
2306.94439	10664.5125
2309.80474	10690.5125
2312.66327	10666.4125
2315.51999	10672.4125
2318.37489	10659.1125
2321.22797	10649.6125
2324.07925	10627.7125
2326.92871	10648.5125
2329.77637	10635.2125
2332.62222	10633.9125
2335.46626	10626.4125
2338.3085	10590.5125
2341.14893	10606.3125
2343.98756	10624.8125
2346.8244	10664.6125
2349.65943	10673.6125
2352.49267	10638.8125
2355.32411	10645.0125
2358.15376	10642.4125
2360.98161	10662.9125
2363.80768	10661.0125
2366.63195	10683.7125
2369.45444	10667.8125
2372.27514	10644.8125
2375.09405	10610.6125
2377.91118	10576.4125
2380.72652	10549.4125
2383.54009	10514.3125
2386.35187	10490.3125
2389.16188	10452.1125
2391.97011	10415.5125
2394.77657	10412.1125
2397.58125	10380.0125
2400.38416	10378.3125
2403.18529	10340.9125
2405.98466	10331.5125
2408.78226	10303.9125
2411.57809	10268.4125
2414.37216	10245.1125
2417.16446	10226.8125
2419.955	10207.7125
2422.74378	10206.1125
2425.5308	10224.5125
2428.31606	10214.7125
2431.09956	10210.4125
2433.88131	10206.9125
2436.6613	10218.9125
2439.43954	10204.1125
2442.21603	10232.5125
2444.99077	10212.9125
2447.76377	10260.7125
2450.53501	10235.7125
2453.30451	10205.8125
2456.07226	10220.8125
2458.83827	10197.9125
2461.60254	10202.8125
2464.36507	10195.5125
2467.12586	10210.2125
2469.88492	10208.8125
2472.64224	10202.6125
2475.39782	10216.7125
2478.15167	10203.9125
2480.90379	10271.4125
2483.65417	10256.0125
2486.40283	10290.2125
2489.14976	10311.4125
2491.89497	10301.1125
2494.63845	10314.3125
2497.3802	10266.0125
2500.12024	10301.5125
2502.85855	10271.3125
2505.59514	10233.1125
2508.33002	10197.4125
2511.06318	10191.4125
2513.79462	10151.1125
2516.52435	10097.4125
2519.25237	10102.3125
2521.97867	10048.8125
2524.70327	10066.0125
2527.42616	10039.1125
2530.14734	10036.0125
2532.86681	10040.1125
2535.58458	10048.0125
2538.30065	10033.9125
2541.01501	10048.7125
2543.72768	10023.4125
2546.43864	10011.4125
2549.14791	9997.7125
2551.85548	10000.1125
2554.56136	9992.5125
2557.26554	9995.6125
2559.96803	9977.4125
2562.66883	9995.8125
2565.36794	9969.1125
2568.06536	9953.9125
2570.7611	9946.0125
2573.45514	9923.3125
2576.14751	9904.5125
2578.83819	9905.4125
2581.52719	9891.5125
2584.21451	9872.1125
2586.90015	9880.9125
2589.58411	9834.3125
2592.2664	9832.1125
2594.94701	9820.1125
2597.62594	9830.4125
2600.30321	9844.9125
2602.9788	9841.5125
2605.65273	9832.4125
2608.32498	9852.1125
2610.99557	9834.1125
2613.66449	9850.7125
2616.33175	9854.8125
2618.99734	9881.3125
2621.66128	9854.4125
2624.32355	9865.8125
2626.98416	9856.7125
2629.64311	9847.5125
2632.30041	9827.2125
2634.95605	9802.0125
2637.61004	9763.9125
2640.26238	9773.7125
2642.91306	9749.9125
2645.56209	9755.7125
2648.20948	9708.3125
2650.85521	9724.3125
2653.4993	9718.5125
2656.14175	9709.5125
2658.78255	9713.6125
2661.42171	9705.4125
2664.05923	9740.8125
2666.6951	9778.3125
2669.32934	9775.3125
2671.96194	9788.8125
2674.59291	9796.0125
2677.22224	9762.0125
2679.84993	9780.4125
2682.476	9744.6125
2685.10043	9759.1125
2687.72324	9760.4125
2690.34441	9758.8125
2692.96396	9748.4125
2695.58188	9764.6125
2698.19818	9713.2125
2700.81285	9720.7125
2703.4259	9697.8125
2706.03733	9657.5125
2708.64714	9675.4125
2711.25533	9707.3125
2713.86191	9716.0125
2716.46687	9738.5125
2719.07021	9747.4125
2721.67194	9756.6125
2724.27206	9748.7125
2726.87057	9766.9125
2729.46747	9762.0125
2732.06276	9767.4125
2734.65644	9748.2125
2737.24852	9735.3125
2739.83899	9715.4125
2742.42786	9728.2125
2745.01513	9696.0125
2747.60079	9704.9125
2750.18486	9692.3125
2752.76733	9691.9125
2755.3482	9690.8125
2757.92747	9685.5125
2760.50515	9659.1125
2763.08123	9672.1125
2765.65573	9658.0125
2768.22863	9658.2125
2770.79994	9606.4125
2773.36967	9604.1125
2775.9378	9615.3125
2778.50435	9610.6125
2781.06932	9600.5125
2783.6327	9634.9125
2786.1945	9644.1125
2788.75471	9626.4125
2791.31335	9598.7125
2793.87041	9578.4125
2796.42589	9568.9125
2798.97979	9559.1125
2801.53212	9559.6125
2804.08288	9549.8125
2806.63206	9529.6125
2809.17967	9519.6125
2811.72571	9502.3125
2814.27018	9505.5125
2816.81308	9527.7125
2819.35442	9537.4125
2821.89419	9542.4125
2824.43239	9579.3125
2826.96904	9529.5125
2829.50412	9539.1125
2832.03763	9506.1125
2834.56959	9562.8125
2837.1	9510.9125
2839.62884	9513.8125
2842.15613	9493.5125
2844.68186	9512.6125
2847.20604	9496.5125
2849.72867	9528.7125
2852.24974	9532.7125
2854.76927	9522.7125
2857.28724	9514.1125
2859.80367	9525.7125
2862.31855	9495.9125
2864.83189	9519.6125
2867.34368	9517.9125
2869.85393	9500.3125
2872.36264	9538.9125
2874.8698	9542.9125
2877.37543	9554.8125
2879.87952	9537.3125
2882.38207	9531.0125
2884.88308	9500.1125
2887.38256	9521.5125
2889.88051	9507.3125
2892.37692	9514.5125
2894.8718	9484.0125
2897.36515	9529.6125
2899.85698	9534.8125
2902.34727	9531.0125
2904.83604	9551.4125
2907.32328	9559.3125
2909.809	9561.2125
2912.29319	9581.0125
2914.77587	9596.1125
2917.25702	9575.5125
2919.73665	9530.0125
2922.21476	9550.5125
2924.69136	9524.2125
2927.16644	9522.9125
2929.64	9513.9125
2932.11205	9477.6125
2934.58258	9433.8125
2937.05161	9453.1125
2939.51912	9454.7125
2941.98513	9442.1125
2944.44962	9415.4125
2946.91261	9386.9125
2949.37409	9414.7125
2951.83407	9403.4125
2954.29254	9407.8125
2956.74951	9376.5125
2959.20498	9369.2125
2961.65895	9345.7125
2964.11142	9321.5125
2966.56239	9306.7125
2969.01186	9298.2125
2971.45984	9264.3125
2973.90632	9253.8125
2976.35131	9217.1125
2978.7948	9208.0125
2981.23681	9208.7125
2983.67732	9200.1125
2986.11635	9176.3125
2988.55388	9137.0125
2990.98993	9123.7125
2993.4245	9133.7125
2995.85758	9103.1125
2998.28917	9094.2125
3000.71928	9091.3125
3003.14791	9072.6125
3005.57506	9074.9125
3008.00073	9033.2125
3010.42493	9046.9125
3012.84764	9034.4125
3015.26888	9042.8125
3017.68865	9007.8125
3020.10694	8999.2125
3022.52376	8959.6125
3024.9391	8975.2125
3027.35298	8941.6125
3029.76539	8936.5125
3032.17632	8886.5125
3034.5858	8902.3125
3036.9938	8879.9125
3039.40034	8849.5125
3041.80542	8856.2125
3044.20903	8826.6125
3046.61118	8837.6125
