Data from AgNPs_FTO_APTES_UA_50uM_CRN_5uM_R6G_10uM_NaF_0.1M_Addition_RamanShift__11__12-45-24-821.txt Node

Date: Mon Feb 21 12:45:24 GMT 2022
User: TCL
Spectrometer: QEP01345
Trigger mode: 4
Integration Time (sec): 7.000000E0
Scans to average: 10
Electric dark correction enabled: true
Nonlinearity correction enabled: false
Boxcar width: 0
XAxis mode: Raman Shifts
Number of Pixels in Spectrum: 1044
>>>>>Begin Spectral Data<<<<<
46.04893	-0.6125
50.45542	-0.6125
54.85868	-0.6125
59.25871	-0.5125
63.6555	48.9875
68.04907	53.9875
72.43941	51.1875
76.82654	53.4875
81.21044	58.4875
85.59113	58.2875
89.96862	60.0875
94.34289	65.1875
98.71396	67.2875
103.08183	72.7875
107.4465	71.3875
111.80798	73.1875
116.16626	73.7875
120.52136	71.3875
124.87327	78.5875
129.222	76.2875
133.56755	79.9875
137.90993	89.0875
142.24913	90.5875
146.58517	102.7875
150.91804	117.0875
155.24774	135.8875
159.57429	161.5875
163.89768	197.4875
168.21792	264.6875
172.53501	355.6875
176.84895	494.5875
181.15975	690.1875
185.46741	958.7875
189.77193	1331.7875
194.07331	1784.9875
198.37157	2287.1875
202.6667	2818.0875
206.9587	3368.7875
211.24758	3894.4875
215.53334	4413.8875
219.81599	4982.7875
224.09553	5590.8875
228.37195	6278.3875
232.64527	7047.7875
236.91549	7829.9875
241.18261	8648.4875
245.44663	9403.8875
249.70755	10039.3875
253.96539	10591.3875
258.22014	11036.0875
262.4718	11383.8875
266.72039	11588.2875
270.96589	11624.3875
275.20832	11537.2875
279.44768	11379.4875
283.68397	11184.2875
287.91719	10973.3875
292.14735	10838.9875
296.37445	10741.3875
300.59849	10738.5875
304.81948	10715.5875
309.03742	10667.6875
313.25231	10620.4875
317.46415	10445.8875
321.67296	10247.8875
325.87872	10099.7875
330.08145	10040.0875
334.28114	9995.2875
338.47781	10030.3875
342.67145	10183.2875
346.86207	10312.3875
351.04966	10492.0875
355.23424	10683.3875
359.4158	10847.8875
363.59435	10972.6875
367.76989	11056.2875
371.94243	11053.3875
376.11196	11107.2875
380.27849	11114.3875
384.44203	11145.3875
388.60257	11202.1875
392.76012	11299.3875
396.91468	11422.2875
401.06626	11596.2875
405.21485	11674.1875
409.36047	11631.9875
413.50311	11437.3875
417.64277	11309.2875
421.77947	11254.3875
425.9132	11304.8875
430.04396	11371.1875
434.17176	11418.0875
438.2966	11546.5875
442.41849	11691.9875
446.53742	11941.8875
450.6534	12204.3875
454.76644	12356.7875
458.87653	12448.8875
462.98368	12437.5875
467.08789	12387.0875
471.18916	12275.9875
475.2875	12141.3875
479.38291	12016.9875
483.4754	11940.5875
487.56496	11850.2875
491.6516	11771.1875
495.73531	11694.5875
499.81612	11651.2875
503.89401	11672.9875
507.96899	11735.4875
512.04106	11735.1875
516.11023	11699.7875
520.1765	11629.1875
524.23987	11567.0875
528.30034	11502.0875
532.35792	11426.2875
536.41261	11306.6875
540.46441	11220.3875
544.51333	11184.1875
548.55936	11277.2875
552.60252	11440.6875
556.64279	11646.9875
560.6802	11776.9875
564.71473	11860.2875
568.7464	12072.5875
572.7752	12393.6875
576.80114	12762.1875
580.82422	13079.3875
584.84444	13416.0875
588.86181	13874.8875
592.87633	14437.7875
596.888	14655.7875
600.89682	14312.5875
604.9028	14127.6875
608.90594	14823.8875
612.90624	15725.2875
616.90371	14776.4875
620.89834	12714.5875
624.89015	11822.9875
628.87913	11697.0875
632.86528	11830.2875
636.84862	11887.7875
640.82913	11719.1875
644.80683	11444.9875
648.78172	11252.0875
652.75379	11207.7875
656.72306	11336.7875
660.68952	11551.2875
664.65319	11523.2875
668.61405	11377.8875
672.57211	11338.6875
676.52738	11409.7875
680.47986	11458.9875
684.42955	11467.0875
688.37646	11459.6875
692.32058	11469.6875
696.26192	11544.2875
700.20048	11630.4875
704.13626	11665.3875
708.06928	11642.4875
711.99952	11609.9875
715.927	11565.6875
719.85171	11542.8875
723.77365	11503.1875
727.69284	11352.7875
731.60928	11213.7875
735.52295	11170.6875
739.43388	11189.3875
743.34206	11232.8875
747.24749	11313.3875
751.15017	11430.7875
755.05012	11563.0875
758.94733	11875.6875
762.8418	12390.4875
766.73354	13246.5875
770.62254	14077.1875
774.50882	14310.9875
778.39237	13739.7875
782.27321	12910.3875
786.15132	12218.7875
790.02671	11771.2875
793.89938	11470.3875
797.76935	11320.1875
801.6366	11206.5875
805.50115	11159.2875
809.36299	11114.1875
813.22213	11086.9875
817.07857	11026.3875
820.93231	10989.9875
824.78336	10962.0875
828.63172	10941.5875
832.47738	10921.8875
836.32036	10905.7875
840.16066	10915.0875
843.99827	10901.8875
847.8332	10923.9875
851.66546	10911.1875
855.49504	10939.5875
859.32195	10943.8875
863.1462	10921.8875
866.96777	10908.0875
870.78668	10903.6875
874.60293	10910.7875
878.41652	10942.5875
882.22745	10991.4875
886.03573	11032.2875
889.84136	11044.8875
893.64433	11053.2875
897.44466	11031.1875
901.24235	11060.1875
905.0374	11026.5875
908.8298	10972.1875
912.61957	10970.5875
916.40671	11042.8875
920.19121	11136.4875
923.97308	11258.9875
927.75233	11326.6875
931.52895	11218.7875
935.30295	11072.3875
939.07433	10858.2875
942.84309	10704.0875
946.60924	10652.4875
950.37278	10573.5875
954.13371	10579.3875
957.89203	10561.2875
961.64774	10568.1875
965.40086	10546.8875
969.15137	10554.0875
972.89929	10516.6875
976.64461	10480.3875
980.38733	10464.9875
984.12747	10483.3875
987.86502	10505.1875
991.59999	10554.5875
995.33237	10612.9875
999.06217	10755.2875
1002.78939	10949.6875
1006.51404	11168.5875
1010.23611	11343.5875
1013.95561	11490.6875
1017.67255	11519.5875
1021.38692	11408.6875
1025.09872	11248.4875
1028.80796	11070.0875
1032.51465	10985.9875
1036.21877	11010.8875
1039.92035	11041.8875
1043.61937	11110.0875
1047.31584	11123.8875
1051.00976	11160.0875
1054.70114	11209.1875
1058.38998	11280.9875
1062.07627	11304.0875
1065.76003	11430.8875
1069.44126	11562.3875
1073.11995	11791.7875
1076.79611	11974.0875
1080.46974	12074.5875
1084.14085	12115.1875
1087.80943	12222.5875
1091.47549	12358.1875
1095.13903	12397.1875
1098.80005	12247.1875
1102.45857	12004.9875
1106.11456	11774.4875
1109.76805	11669.7875
1113.41903	11669.6875
1117.06751	11716.0875
1120.71348	11861.2875
1124.35696	12004.5875
1127.99793	12142.5875
1131.63641	12259.1875
1135.2724	12218.0875
1138.90589	12175.5875
1142.5369	12135.4875
1146.16542	12172.9875
1149.79145	12282.4875
1153.415	12368.5875
1157.03607	12506.1875
1160.65467	12668.7875
1164.27079	12999.7875
1167.88443	13507.5875
1171.49561	14166.0875
1175.10432	15027.6875
1178.71056	16102.8875
1182.31434	17095.0875
1185.91565	17639.7875
1189.51451	17671.4875
1193.11091	17397.7875
1196.70485	16879.6875
1200.29634	16219.6875
1203.88538	15634.6875
1207.47197	15164.8875
1211.05612	14852.4875
1214.63782	14577.0875
1218.21708	14320.1875
1221.79391	14147.3875
1225.36829	14035.2875
1228.94024	13999.2875
1232.50976	13865.7875
1236.07685	13705.0875
1239.6415	13539.7875
1243.20374	13484.2875
1246.76355	13492.8875
1250.32093	13579.4875
1253.8759	13802.3875
1257.42845	14123.8875
1260.97859	14522.6875
1264.52631	14951.6875
1268.07163	15404.7875
1271.61453	15799.9875
1275.15503	16173.1875
1278.69312	16572.7875
1282.22882	17001.9875
1285.76211	17506.9875
1289.29301	18105.3875
1292.82151	18789.1875
1296.34761	19535.5875
1299.87133	20327.3875
1303.39266	21266.8875
1306.9116	22124.4875
1310.42815	22779.9875
1313.94233	23138.4875
1317.45412	22925.8875
1320.96354	22432.2875
1324.47058	21954.4875
1327.97525	21538.6875
1331.47754	21243.5875
1334.97747	21054.0875
1338.47502	20956.5875
1341.97022	20941.2875
1345.46305	21054.9875
1348.95352	21112.2875
1352.44163	21351.0875
1355.92738	21794.0875
1359.41078	22608.6875
1362.89183	23489.9875
1366.37053	23459.5875
1369.84688	21977.4875
1373.32088	19856.9875
1376.79254	18335.2875
1380.26186	17519.5875
1383.72883	17207.3875
1387.19347	16915.6875
1390.65578	16624.0875
1394.11575	16463.5875
1397.57339	16455.8875
1401.0287	16470.6875
1404.48168	16467.3875
1407.93234	16398.7875
1411.38068	16142.7875
1414.82669	15808.7875
1418.27039	15452.2875
1421.71177	15060.8875
1425.15083	14721.7875
1428.58758	14569.2875
1432.02203	14578.0875
1435.45416	14743.1875
1438.88399	14996.1875
1442.31151	15155.4875
1445.73673	15270.1875
1449.15965	15409.8875
1452.58027	15508.5875
1455.9986	15618.4875
1459.41463	15728.4875
1462.82837	15959.2875
1466.23982	16322.0875
1469.64898	16588.8875
1473.05586	16756.7875
1476.46045	16817.5875
1479.86276	16862.4875
1483.26279	16929.3875
1486.66054	17023.4875
1490.05602	17278.0875
1493.44922	17678.3875
1496.84016	18164.5875
1500.22882	18747.7875
1503.61521	19381.3875
1506.99934	19960.2875
1510.38121	20411.9875
1513.76081	20350.7875
1517.13816	19847.0875
1520.51324	19185.3875
1523.88607	18624.7875
1527.25665	18271.7875
1530.62498	18019.8875
1533.99105	17767.5875
1537.35488	17410.7875
1540.71647	16961.5875
1544.07581	16485.1875
1547.4329	16104.4875
1550.78776	15819.1875
1554.14038	15696.9875
1557.49077	15654.3875
1560.83892	15691.8875
1564.18484	15819.8875
1567.52853	15934.6875
1570.86999	16107.3875
1574.20922	16300.0875
1577.54624	16428.8875
1580.88103	16376.8875
1584.2136	16259.5875
1587.54395	16420.9875
1590.87208	16883.7875
1594.19801	17577.2875
1597.52172	18296.8875
1600.84321	18416.5875
1604.16251	17740.6875
1607.47959	16626.0875
1610.79447	15518.5875
1614.10715	14474.7875
1617.41763	13619.0875
1620.7259	13025.5875
1624.03199	12724.4875
1627.33587	12743.1875
1630.63757	13006.2875
1633.93707	13689.6875
1637.23439	14889.0875
1640.52951	16569.7875
1643.82246	18638.9875
1647.11321	20322.0875
1650.40179	20710.5875
1653.68819	19420.7875
1656.97241	17129.8875
1660.25446	14885.3875
1663.53433	13162.8875
1666.81203	12105.4875
1670.08756	11461.0875
1673.36092	11088.9875
1676.63211	10839.5875
1679.90115	10642.0875
1683.16801	10525.5875
1686.43272	10351.0875
1689.69527	10261.1875
1692.95567	10131.2875
1696.2139	9985.3875
1699.46999	9867.4875
1702.72392	9808.1875
1705.97571	9873.8875
1709.22535	9927.2875
1712.47284	9984.9875
1715.71819	9997.8875
1718.96139	9995.2875
1722.20246	9955.6875
1725.44139	9889.2875
1728.67818	9856.9875
1731.91284	9777.4875
1735.14537	9728.0875
1738.37576	9680.2875
1741.60403	9660.0875
1744.83017	9590.3875
1748.05418	9569.8875
1751.27607	9521.3875
1754.49584	9463.2875
1757.71349	9403.9875
1760.92903	9351.4875
1764.14244	9326.3875
1767.35375	9317.0875
1770.56294	9294.4875
1773.77002	9277.2875
1776.97499	9328.9875
1780.17785	9350.2875
1783.37861	9365.3875
1786.57727	9372.8875
1789.77382	9355.8875
1792.96828	9358.4875
1796.16064	9341.8875
1799.3509	9308.6875
1802.53907	9305.5875
1805.72514	9280.1875
1808.90913	9262.1875
1812.09102	9248.0875
1815.27083	9230.9875
1818.44856	9211.7875
1821.6242	9222.8875
1824.79776	9222.8875
1827.96924	9204.9875
1831.13864	9206.7875
1834.30597	9196.0875
1837.47122	9182.1875
1840.6344	9202.5875
1843.7955	9213.4875
1846.95454	9172.7875
1850.11151	9191.6875
1853.26642	9185.5875
1856.41926	9190.7875
1859.57004	9172.0875
1862.71876	9154.9875
1865.86542	9140.3875
1869.01003	9131.5875
1872.15258	9115.1875
1875.29308	9118.6875
1878.43152	9092.4875
1881.56792	9084.1875
1884.70227	9080.3875
1887.83457	9080.8875
1890.96482	9044.4875
1894.09304	9032.0875
1897.21921	9024.6875
1900.34335	9005.5875
1903.46544	9018.1875
1906.58551	9000.9875
1909.70353	8972.9875
1912.81953	8995.7875
1915.93349	8965.0875
1919.04543	8949.5875
1922.15534	8924.3875
1925.26322	8881.6875
1928.36908	8857.9875
1931.47292	8842.5875
1934.57473	8798.6875
1937.67453	8791.1875
1940.77232	8771.5875
1943.86808	8742.8875
1946.96184	8738.4875
1950.05358	8710.1875
1953.14331	8693.7875
1956.23103	8640.3875
1959.31675	8607.1875
1962.40046	8604.1875
1965.48217	8602.9875
1968.56188	8567.6875
1971.63959	8546.3875
1974.7153	8503.6875
1977.78901	8486.5875
1980.86073	8443.2875
1983.93046	8413.3875
1986.99819	8388.0875
1990.06394	8364.7875
1993.1277	8339.9875
1996.18947	8325.6875
1999.24925	8308.0875
2002.30706	8268.0875
2005.36288	8263.3875
2008.41672	8224.6875
2011.46859	8200.0875
2014.51848	8212.5875
2017.56639	8157.2875
2020.61233	8165.7875
2023.6563	8144.0875
2026.6983	8088.8875
2029.73833	8088.8875
2032.7764	8074.8875
2035.8125	8054.3875
2038.84664	8019.1875
2041.87881	8009.1875
2044.90903	8023.3875
2047.93729	7980.3875
2050.96359	7988.1875
2053.98794	7984.3875
2057.01034	7972.0875
2060.03078	7966.9875
2063.04927	7957.2875
2066.06582	7970.0875
2069.08042	7943.7875
2072.09307	7964.1875
2075.10378	7959.7875
2078.11255	7953.1875
2081.11938	7965.1875
2084.12426	7962.6875
2087.12722	7969.1875
2090.12824	7969.3875
2093.12732	7984.7875
2096.12447	7970.0875
2099.11969	7974.0875
2102.11299	7983.8875
2105.10435	8001.4875
2108.09379	7997.4875
2111.08131	8006.8875
2114.0669	8012.5875
2117.05057	8045.5875
2120.03233	8024.1875
2123.01216	8029.1875
2125.99008	8050.3875
2128.96609	8061.9875
2131.94018	8061.4875
2134.91236	8063.6875
2137.88263	8054.9875
2140.851	8049.5875
2143.81746	8064.9875
2146.78201	8031.1875
2149.74466	8037.5875
2152.7054	8048.4875
2155.66425	8038.4875
2158.6212	8027.7875
2161.57625	8021.9875
2164.52941	8028.3875
2167.48067	7988.9875
2170.43004	7997.0875
2173.37752	7999.0875
2176.32311	7983.9875
2179.26681	7999.0875
2182.20863	7984.4875
2185.14856	7978.0875
2188.08661	7968.6875
2191.02278	7973.9875
2193.95707	7960.9875
2196.88948	7952.8875
2199.82001	7943.7875
2202.74867	7937.7875
2205.67545	7921.4875
2208.60037	7901.1875
2211.52341	7915.3875
2214.44458	7904.9875
2217.36388	7870.2875
2220.28132	7840.6875
2223.1969	7844.7875
2226.11061	7825.0875
2229.02246	7833.1875
2231.93245	7811.8875
2234.84058	7814.7875
2237.74686	7785.4875
2240.65128	7801.4875
2243.55385	7798.1875
2246.45456	7805.1875
2249.35343	7773.8875
2252.25044	7733.8875
2255.14561	7726.4875
2258.03893	7739.3875
2260.93041	7703.9875
2263.82004	7687.3875
2266.70783	7678.6875
2269.59378	7659.2875
2272.4779	7653.1875
2275.36017	7671.2875
2278.24061	7614.6875
2281.11922	7604.8875
2283.996	7592.8875
2286.87094	7579.7875
2289.74405	7564.7875
2292.61534	7546.7875
2295.4848	7553.4875
2298.35243	7543.7875
2301.21824	7553.7875
2304.08223	7531.3875
2306.94439	7543.8875
2309.80474	7511.0875
2312.66327	7496.6875
2315.51999	7499.2875
2318.37489	7487.6875
2321.22797	7479.1875
2324.07925	7469.6875
2326.92871	7453.9875
2329.77637	7459.9875
2332.62222	7445.7875
2335.46626	7428.3875
2338.3085	7424.2875
2341.14893	7420.8875
2343.98756	7412.1875
2346.8244	7426.7875
2349.65943	7432.5875
2352.49267	7415.9875
2355.32411	7428.7875
2358.15376	7425.5875
2360.98161	7408.7875
2363.80768	7386.2875
2366.63195	7392.2875
2369.45444	7377.1875
2372.27514	7397.7875
2375.09405	7380.7875
2377.91118	7384.0875
2380.72652	7357.8875
2383.54009	7352.3875
2386.35187	7330.8875
2389.16188	7318.5875
2391.97011	7323.9875
2394.77657	7291.9875
2397.58125	7288.0875
2400.38416	7280.1875
2403.18529	7256.2875
2405.98466	7240.9875
2408.78226	7234.9875
2411.57809	7229.0875
2414.37216	7207.0875
2417.16446	7240.5875
2419.955	7215.3875
2422.74378	7225.9875
2425.5308	7192.0875
2428.31606	7202.3875
2431.09956	7208.3875
2433.88131	7170.7875
2436.6613	7192.7875
2439.43954	7174.7875
2442.21603	7168.8875
2444.99077	7166.0875
2447.76377	7185.5875
2450.53501	7197.2875
2453.30451	7173.3875
2456.07226	7160.5875
2458.83827	7168.4875
2461.60254	7161.9875
2464.36507	7144.4875
2467.12586	7140.6875
2469.88492	7138.5875
2472.64224	7140.5875
2475.39782	7109.5875
2478.15167	7101.9875
2480.90379	7104.2875
2483.65417	7101.1875
2486.40283	7123.6875
2489.14976	7116.0875
2491.89497	7126.0875
2494.63845	7126.1875
2497.3802	7089.8875
2500.12024	7110.1875
2502.85855	7096.1875
2505.59514	7111.4875
2508.33002	7075.3875
2511.06318	7075.7875
2513.79462	7084.4875
2516.52435	7076.8875
2519.25237	7052.4875
2521.97867	7045.8875
2524.70327	7040.1875
2527.42616	7041.6875
2530.14734	7020.6875
2532.86681	7033.4875
2535.58458	7009.1875
2538.30065	7014.1875
2541.01501	7021.9875
2543.72768	7017.1875
2546.43864	6997.5875
2549.14791	6996.6875
2551.85548	6974.4875
2554.56136	6946.9875
2557.26554	6964.9875
2559.96803	6965.4875
2562.66883	6957.7875
2565.36794	6962.5875
2568.06536	6949.8875
2570.7611	6927.2875
2573.45514	6921.7875
2576.14751	6927.9875
2578.83819	6898.4875
2581.52719	6891.7875
2584.21451	6862.1875
2586.90015	6857.2875
2589.58411	6844.7875
2592.2664	6857.7875
2594.94701	6856.3875
2597.62594	6853.0875
2600.30321	6854.4875
2602.9788	6836.2875
2605.65273	6822.4875
2608.32498	6835.4875
2610.99557	6809.5875
2613.66449	6823.8875
2616.33175	6810.9875
2618.99734	6823.1875
2621.66128	6789.7875
2624.32355	6757.3875
2626.98416	6770.6875
2629.64311	6761.0875
2632.30041	6744.7875
2634.95605	6742.3875
2637.61004	6748.3875
2640.26238	6738.2875
2642.91306	6741.7875
2645.56209	6713.3875
2648.20948	6703.3875
2650.85521	6713.7875
2653.4993	6720.4875
2656.14175	6744.6875
2658.78255	6743.4875
2661.42171	6740.5875
2664.05923	6774.0875
2666.6951	6758.2875
2669.32934	6747.9875
2671.96194	6754.0875
2674.59291	6769.0875
2677.22224	6762.1875
2679.84993	6762.6875
2682.476	6754.4875
2685.10043	6757.2875
2687.72324	6745.0875
2690.34441	6756.2875
2692.96396	6745.4875
2695.58188	6741.9875
2698.19818	6744.5875
2700.81285	6737.6875
2703.4259	6719.9875
2706.03733	6631.6875
2708.64714	6683.1875
2711.25533	6697.9875
2713.86191	6722.0875
2716.46687	6732.2875
2719.07021	6733.8875
2721.67194	6755.1875
2724.27206	6766.1875
2726.87057	6750.7875
2729.46747	6774.9875
2732.06276	6765.8875
2734.65644	6772.4875
2737.24852	6765.3875
2739.83899	6758.1875
2742.42786	6764.9875
2745.01513	6735.1875
2747.60079	6779.2875
2750.18486	6737.6875
2752.76733	6742.1875
2755.3482	6723.4875
2757.92747	6699.0875
2760.50515	6712.5875
2763.08123	6723.1875
2765.65573	6696.0875
2768.22863	6683.0875
2770.79994	6664.8875
2773.36967	6701.6875
2775.9378	6677.0875
2778.50435	6679.2875
2781.06932	6674.3875
2783.6327	6665.0875
2786.1945	6645.8875
2788.75471	6646.4875
2791.31335	6638.0875
2793.87041	6649.1875
2796.42589	6612.5875
2798.97979	6614.6875
2801.53212	6584.0875
2804.08288	6584.2875
2806.63206	6576.1875
2809.17967	6571.1875
2811.72571	6564.0875
2814.27018	6522.1875
2816.81308	6522.9875
2819.35442	6504.3875
2821.89419	6503.3875
2824.43239	6508.4875
2826.96904	6503.1875
2829.50412	6517.7875
2832.03763	6473.9875
2834.56959	6489.8875
2837.1	6474.5875
2839.62884	6468.6875
2842.15613	6463.8875
2844.68186	6469.5875
2847.20604	6475.1875
2849.72867	6494.2875
2852.24974	6478.7875
2854.76927	6474.7875
2857.28724	6439.8875
2859.80367	6457.4875
2862.31855	6455.1875
2864.83189	6456.3875
2867.34368	6452.2875
2869.85393	6479.0875
2872.36264	6469.1875
2874.8698	6487.6875
2877.37543	6459.1875
2879.87952	6459.8875
2882.38207	6468.1875
2884.88308	6470.8875
2887.38256	6478.2875
2889.88051	6470.4875
2892.37692	6500.9875
2894.8718	6494.5875
2897.36515	6503.5875
2899.85698	6506.9875
2902.34727	6512.1875
2904.83604	6498.0875
2907.32328	6520.5875
2909.809	6508.9875
2912.29319	6498.0875
2914.77587	6518.4875
2917.25702	6500.8875
2919.73665	6493.6875
2922.21476	6519.4875
2924.69136	6511.9875
2927.16644	6508.6875
2929.64	6486.7875
2932.11205	6488.1875
2934.58258	6480.6875
2937.05161	6447.6875
2939.51912	6478.5875
2941.98513	6471.6875
2944.44962	6454.7875
2946.91261	6427.9875
2949.37409	6427.5875
2951.83407	6425.3875
2954.29254	6411.8875
2956.74951	6418.7875
2959.20498	6395.2875
2961.65895	6379.1875
2964.11142	6390.8875
2966.56239	6372.4875
2969.01186	6359.1875
2971.45984	6342.4875
2973.90632	6344.3875
2976.35131	6342.4875
2978.7948	6332.4875
2981.23681	6312.2875
2983.67732	6314.2875
2986.11635	6289.3875
2988.55388	6265.0875
2990.98993	6252.9875
2993.4245	6248.4875
2995.85758	6238.5875
2998.28917	6240.1875
3000.71928	6215.3875
3003.14791	6191.1875
3005.57506	6195.6875
3008.00073	6189.6875
3010.42493	6164.7875
3012.84764	6163.0875
3015.26888	6161.0875
3017.68865	6141.6875
3020.10694	6141.7875
3022.52376	6134.1875
3024.9391	6126.1875
3027.35298	6121.2875
3029.76539	6119.8875
3032.17632	6120.9875
3034.5858	6093.1875
3036.9938	6083.2875
3039.40034	6096.1875
3041.80542	6092.8875
3044.20903	6062.7875
3046.61118	6067.9875
3049.01187	6071.5875
3051.4111	6077.8875
3053.80888	6069.3875
3056.20519	6037.7875
3058.60005	6042.2875
3060.99345	6024.4875
3063.3854	6021.4875
3065.7759	6012.0875
3068.16494	6006.5875
3070.55254	5969.4875
3072.93868	5963.2875
3075.32338	5939.9875
3077.70662	5933.6875
3080.08842	5925.1875
