Data from AgNPs_FTO_APTES_UA_50uM_CRN_2uM_R6G_10uM_NaF_0.1M_Addition_RamanShift__8__12-03-24-766.txt Node

Date: Mon Feb 21 12:03:24 GMT 2022
User: TCL
Spectrometer: QEP01345
Trigger mode: 4
Integration Time (sec): 7.000000E0
Scans to average: 10
Electric dark correction enabled: true
Nonlinearity correction enabled: false
Boxcar width: 0
XAxis mode: Raman Shifts
Number of Pixels in Spectrum: 1044
>>>>>Begin Spectral Data<<<<<
46.04893	0.575
50.45542	-0.625
54.85868	0.075
59.25871	-2.525
63.6555	74.675
68.04907	78.075
72.43941	82.575
76.82654	83.575
81.21044	90.475
85.59113	90.975
89.96862	94.575
94.34289	97.375
98.71396	100.875
103.08183	105.275
107.4465	103.975
111.80798	105.175
116.16626	107.475
120.52136	112.075
124.87327	121.775
129.222	121.975
133.56755	125.775
137.90993	137.875
142.24913	147.775
146.58517	168.375
150.91804	193.475
155.24774	227.875
159.57429	282.875
163.89768	365.975
168.21792	486.875
172.53501	659.875
176.84895	927.475
181.15975	1295.175
185.46741	1824.275
189.77193	2519.175
194.07331	3363.175
198.37157	4331.675
202.6667	5365.475
206.9587	6384.275
211.24758	7373.675
215.53334	8382.375
219.81599	9428.575
224.09553	10581.375
228.37195	11853.175
232.64527	13258.475
236.91549	14774.075
241.18261	16282.675
245.44663	17716.975
249.70755	18981.775
253.96539	20102.475
258.22014	21027.975
262.4718	21776.975
266.72039	22295.675
270.96589	22483.375
275.20832	22507.875
279.44768	22372.575
283.68397	22117.475
287.91719	21860.575
292.14735	21708.575
296.37445	21618.075
300.59849	21639.475
304.81948	21720.875
309.03742	21800.875
313.25231	21744.275
317.46415	21464.875
321.67296	21134.575
325.87872	20821.875
330.08145	20679.975
334.28114	20682.475
338.47781	20831.375
342.67145	21079.275
346.86207	21381.375
351.04966	21816.775
355.23424	22236.875
359.4158	22657.575
363.59435	22905.775
367.76989	23124.175
371.94243	23261.875
376.11196	23334.075
380.27849	23402.075
384.44203	23506.175
388.60257	23641.275
392.76012	23914.375
396.91468	24226.175
401.06626	24537.875
405.21485	24791.575
409.36047	24714.375
413.50311	24433.675
417.64277	24218.875
421.77947	24275.775
425.9132	24338.875
430.04396	24451.075
434.17176	24590.975
438.2966	24733.875
442.41849	25040.475
446.53742	25600.975
450.6534	26179.575
454.76644	26625.175
458.87653	26817.075
462.98368	26791.375
467.08789	26541.575
471.18916	26255.075
475.2875	25880.375
479.38291	25621.375
483.4754	25513.875
487.56496	25333.875
491.6516	25072.175
495.73531	24840.075
499.81612	24742.775
503.89401	24859.675
507.96899	24947.475
512.04106	24927.975
516.11023	24864.775
520.1765	24686.375
524.23987	24600.675
528.30034	24450.175
532.35792	24338.575
536.41261	24138.675
540.46441	23916.475
544.51333	23852.875
548.55936	23998.875
552.60252	24378.575
556.64279	24829.975
560.6802	25215.975
564.71473	25457.975
568.7464	25841.375
572.7752	26463.175
576.80114	27103.575
580.82422	27780.975
584.84444	28631.475
588.86181	29780.975
592.87633	30894.575
596.888	30984.975
600.89682	29889.375
604.9028	29500.375
608.90594	30918.575
612.90624	32724.875
616.90371	31046.475
620.89834	26958.575
624.89015	25151.775
628.87913	24988.975
632.86528	25177.275
636.84862	25242.175
640.82913	24898.975
644.80683	24340.175
648.78172	24020.375
652.75379	23977.475
656.72306	24257.975
660.68952	24613.775
664.65319	24539.375
668.61405	24270.575
672.57211	24195.075
676.52738	24398.475
680.47986	24364.675
684.42955	24168.075
688.37646	24099.775
692.32058	24214.775
696.26192	24556.375
700.20048	24888.075
704.13626	25006.075
708.06928	25028.375
711.99952	24916.375
715.927	24913.475
719.85171	24966.075
723.77365	24899.375
727.69284	24611.975
731.60928	24282.575
735.52295	24168.575
739.43388	24150.075
743.34206	24261.375
747.24749	24402.075
751.15017	24565.075
755.05012	24874.275
758.94733	25429.075
762.8418	26395.775
766.73354	27885.575
770.62254	29345.375
774.50882	29602.575
778.39237	28647.075
782.27321	27144.975
786.15132	25834.175
790.02671	25045.975
793.89938	24553.075
797.76935	24323.975
801.6366	24240.475
805.50115	24155.775
809.36299	24058.175
813.22213	23974.075
817.07857	23909.175
820.93231	23832.975
824.78336	23737.275
828.63172	23715.475
832.47738	23633.775
836.32036	23644.075
840.16066	23691.875
843.99827	23728.875
847.8332	23709.875
851.66546	23752.175
855.49504	23741.175
859.32195	23778.975
863.1462	23722.575
866.96777	23718.575
870.78668	23663.775
874.60293	23731.675
878.41652	23784.575
882.22745	23855.375
886.03573	23920.775
889.84136	23918.275
893.64433	23850.675
897.44466	23797.175
901.24235	23680.075
905.0374	23636.475
908.8298	23552.975
912.61957	23594.275
916.40671	23734.275
920.19121	23972.075
923.97308	24191.275
927.75233	24286.575
931.52895	24107.875
935.30295	23792.175
939.07433	23469.175
942.84309	23269.975
946.60924	23097.475
950.37278	23086.075
954.13371	23065.075
957.89203	23048.375
961.64774	23024.875
965.40086	23076.675
969.15137	23065.675
972.89929	22994.975
976.64461	23003.075
980.38733	22953.875
984.12747	22982.275
987.86502	23093.175
991.59999	23219.575
995.33237	23484.875
999.06217	23771.275
1002.78939	24212.975
1006.51404	24659.675
1010.23611	25055.875
1013.95561	25315.375
1017.67255	25322.875
1021.38692	25141.075
1025.09872	24836.475
1028.80796	24553.775
1032.51465	24564.875
1036.21877	24643.975
1039.92035	24797.575
1043.61937	24807.275
1047.31584	24778.875
1051.00976	24673.375
1054.70114	24688.075
1058.38998	24724.075
1062.07627	24874.375
1065.76003	25157.575
1069.44126	25449.975
1073.11995	25878.975
1076.79611	26252.975
1080.46974	26480.775
1084.14085	26651.775
1087.80943	26925.475
1091.47549	27081.275
1095.13903	27157.975
1098.80005	26860.575
1102.45857	26350.475
1106.11456	25873.175
1109.76805	25648.475
1113.41903	25616.775
1117.06751	25704.275
1120.71348	25915.775
1124.35696	26095.075
1127.99793	26385.975
1131.63641	26536.575
1135.2724	26468.975
1138.90589	26415.075
1142.5369	26415.075
1146.16542	26519.475
1149.79145	26718.175
1153.415	26853.475
1157.03607	27071.575
1160.65467	27600.775
1164.27079	28460.675
1167.88443	29635.775
1171.49561	30918.375
1175.10432	32524.475
1178.71056	34586.775
1182.31434	36574.975
1185.91565	37610.275
1189.51451	37553.875
1193.11091	36856.575
1196.70485	35821.175
1200.29634	34671.975
1203.88538	33820.575
1207.47197	33298.675
1211.05612	32871.475
1214.63782	32389.075
1218.21708	31754.875
1221.79391	31107.575
1225.36829	30646.975
1228.94024	30369.275
1232.50976	30175.575
1236.07685	29804.575
1239.6415	29508.675
1243.20374	29507.675
1246.76355	29691.075
1250.32093	30024.975
1253.8759	30536.075
1257.42845	31238.775
1260.97859	32009.975
1264.52631	32952.975
1268.07163	33785.975
1271.61453	34657.775
1275.15503	35403.075
1278.69312	36197.975
1282.22882	37089.575
1285.76211	38088.675
1289.29301	39314.775
1292.82151	40736.875
1296.34761	42468.975
1299.87133	44365.175
1303.39266	46370.575
1306.9116	48263.775
1310.42815	49790.975
1313.94233	50567.775
1317.45412	50238.075
1320.96354	49383.375
1324.47058	48547.775
1327.97525	47829.575
1331.47754	47430.075
1334.97747	47147.275
1338.47502	46940.575
1341.97022	46540.775
1345.46305	46101.275
1348.95352	45786.575
1352.44163	45977.575
1355.92738	46902.875
1359.41078	48682.575
1362.89183	50349.375
1366.37053	50000.775
1369.84688	46672.875
1373.32088	42309.075
1376.79254	39009.875
1380.26186	37679.175
1383.72883	37505.175
1387.19347	37306.775
1390.65578	36853.975
1394.11575	36482.175
1397.57339	36579.775
1401.0287	36959.675
1404.48168	37268.975
1407.93234	37276.875
1411.38068	36848.875
1414.82669	36055.775
1418.27039	35033.875
1421.71177	33971.075
1425.15083	33190.675
1428.58758	32889.175
1432.02203	33137.275
1435.45416	33765.475
1438.88399	34517.375
1442.31151	34974.475
1445.73673	35184.875
1449.15965	35421.575
1452.58027	35466.475
1455.9986	35358.775
1459.41463	35482.875
1462.82837	35993.075
1466.23982	36623.675
1469.64898	37216.275
1473.05586	37649.675
1476.46045	37821.975
1479.86276	37831.275
1483.26279	37723.975
1486.66054	37767.475
1490.05602	38042.375
1493.44922	38551.275
1496.84016	39105.875
1500.22882	39898.675
1503.61521	40801.875
1506.99934	41869.275
1510.38121	42692.575
1513.76081	42757.875
1517.13816	41934.175
1520.51324	40718.375
1523.88607	39678.175
1527.25665	39139.175
1530.62498	38890.375
1533.99105	38600.275
1537.35488	37995.075
1540.71647	37299.375
1544.07581	36420.875
1547.4329	35592.275
1550.78776	34898.675
1554.14038	34442.775
1557.49077	34197.975
1560.83892	34156.775
1564.18484	34158.775
1567.52853	34276.675
1570.86999	34562.375
1574.20922	35145.675
1577.54624	35531.175
1580.88103	35570.575
1584.2136	35647.375
1587.54395	36457.275
1590.87208	38038.575
1594.19801	40045.975
1597.52172	41895.375
1600.84321	42306.175
1604.16251	40721.375
1607.47959	38052.275
1610.79447	35208.375
1614.10715	32618.875
1617.41763	30524.375
1620.7259	29134.275
1624.03199	28440.275
1627.33587	28439.775
1630.63757	29069.275
1633.93707	30647.175
1637.23439	33340.275
1640.52951	37208.075
1643.82246	41845.475
1647.11321	45579.075
1650.40179	46233.675
1653.68819	43190.775
1656.97241	37914.075
1660.25446	32848.575
1663.53433	29141.275
1666.81203	26877.275
1670.08756	25514.275
1673.36092	24667.575
1676.63211	24129.875
1679.90115	23702.075
1683.16801	23423.675
1686.43272	23142.075
1689.69527	22945.575
1692.95567	22735.675
1696.2139	22608.075
1699.46999	22400.275
1702.72392	22287.575
1705.97571	22375.075
1709.22535	22459.675
1712.47284	22471.375
1715.71819	22503.675
1718.96139	22482.475
1722.20246	22419.275
1725.44139	22304.075
1728.67818	22191.175
1731.91284	22086.775
1735.14537	22023.475
1738.37576	21923.075
1741.60403	21843.675
1744.83017	21739.575
1748.05418	21685.075
1751.27607	21575.375
1754.49584	21521.075
1757.71349	21500.175
1760.92903	21412.875
1764.14244	21411.075
1767.35375	21420.875
1770.56294	21377.175
1773.77002	21408.275
1776.97499	21393.175
1780.17785	21409.575
1783.37861	21401.975
1786.57727	21392.775
1789.77382	21416.875
1792.96828	21401.075
1796.16064	21374.875
1799.3509	21340.675
1802.53907	21257.375
1805.72514	21201.475
1808.90913	21188.375
1812.09102	21106.975
1815.27083	21107.175
1818.44856	21102.975
1821.6242	21092.175
1824.79776	21109.975
1827.96924	21064.275
1831.13864	21057.375
1834.30597	21063.375
1837.47122	21050.375
1840.6344	21022.675
1843.7955	21018.175
1846.95454	21017.875
1850.11151	20987.175
1853.26642	20955.875
1856.41926	20974.575
1859.57004	20964.175
1862.71876	20968.375
1865.86542	20927.775
1869.01003	20930.475
1872.15258	20913.375
1875.29308	20901.375
1878.43152	20857.675
1881.56792	20837.075
1884.70227	20819.775
1887.83457	20816.975
1890.96482	20767.175
1894.09304	20696.375
1897.21921	20688.675
1900.34335	20647.175
1903.46544	20653.575
1906.58551	20662.675
1909.70353	20629.575
1912.81953	20588.775
1915.93349	20594.575
1919.04543	20493.975
1922.15534	20494.275
1925.26322	20485.175
1928.36908	20424.475
1931.47292	20395.875
1934.57473	20328.675
1937.67453	20321.975
1940.77232	20278.975
1943.86808	20234.175
1946.96184	20186.075
1950.05358	20115.775
1953.14331	20029.575
1956.23103	19980.775
1959.31675	19975.175
1962.40046	19920.475
1965.48217	19872.375
1968.56188	19800.075
1971.63959	19777.075
1974.7153	19696.375
1977.78901	19659.875
1980.86073	19607.375
1983.93046	19540.075
1986.99819	19463.175
1990.06394	19441.375
1993.1277	19361.475
1996.18947	19300.375
1999.24925	19257.175
2002.30706	19215.375
2005.36288	19165.375
2008.41672	19086.875
2011.46859	19072.375
2014.51848	18957.975
2017.56639	18921.075
2020.61233	18913.875
2023.6563	18860.475
2026.6983	18871.575
2029.73833	18783.575
2032.7764	18731.775
2035.8125	18732.275
2038.84664	18698.875
2041.87881	18661.075
2044.90903	18653.775
2047.93729	18601.475
2050.96359	18606.275
2053.98794	18583.775
2057.01034	18559.375
2060.03078	18553.675
2063.04927	18542.575
2066.06582	18518.275
2069.08042	18502.275
2072.09307	18471.675
2075.10378	18465.475
2078.11255	18476.975
2081.11938	18460.175
2084.12426	18436.175
2087.12722	18438.675
2090.12824	18453.275
2093.12732	18514.875
2096.12447	18456.675
2099.11969	18479.975
2102.11299	18445.075
2105.10435	18505.075
2108.09379	18478.775
2111.08131	18500.275
2114.0669	18519.875
2117.05057	18558.475
2120.03233	18605.875
2123.01216	18620.375
2125.99008	18640.075
2128.96609	18640.875
2131.94018	18661.075
2134.91236	18680.275
2137.88263	18664.375
2140.851	18700.875
2143.81746	18712.175
2146.78201	18697.175
2149.74466	18668.675
2152.7054	18685.575
2155.66425	18723.975
2158.6212	18697.775
2161.57625	18703.675
2164.52941	18716.475
2167.48067	18675.675
2170.43004	18698.475
2173.37752	18662.475
2176.32311	18677.475
2179.26681	18696.575
2182.20863	18661.475
2185.14856	18703.375
2188.08661	18680.775
2191.02278	18689.075
2193.95707	18657.375
2196.88948	18667.175
2199.82001	18651.375
2202.74867	18624.575
2205.67545	18617.575
2208.60037	18578.675
2211.52341	18608.575
2214.44458	18558.675
2217.36388	18503.675
2220.28132	18470.775
2223.1969	18443.675
2226.11061	18433.775
2229.02246	18377.875
2231.93245	18371.275
2234.84058	18339.175
2237.74686	18340.375
2240.65128	18290.375
2243.55385	18286.275
2246.45456	18282.175
2249.35343	18248.775
2252.25044	18215.175
2255.14561	18202.875
2258.03893	18206.975
2260.93041	18141.375
2263.82004	18123.175
2266.70783	18100.975
2269.59378	18050.375
2272.4779	17984.075
2275.36017	17973.575
2278.24061	17932.575
2281.11922	17907.375
2283.996	17908.675
2286.87094	17863.375
2289.74405	17845.575
2292.61534	17834.775
2295.4848	17817.275
2298.35243	17817.775
2301.21824	17806.575
2304.08223	17781.075
2306.94439	17776.775
2309.80474	17733.275
2312.66327	17800.775
2315.51999	17730.375
2318.37489	17749.775
2321.22797	17756.775
2324.07925	17692.575
2326.92871	17688.875
2329.77637	17645.875
2332.62222	17667.675
2335.46626	17633.275
2338.3085	17599.975
2341.14893	17613.875
2343.98756	17648.575
2346.8244	17638.075
2349.65943	17609.575
2352.49267	17601.175
2355.32411	17600.075
2358.15376	17577.275
2360.98161	17602.475
2363.80768	17624.975
2366.63195	17586.475
2369.45444	17547.175
2372.27514	17499.275
2375.09405	17512.175
2377.91118	17497.275
2380.72652	17410.675
2383.54009	17362.975
2386.35187	17376.175
2389.16188	17340.475
2391.97011	17346.375
2394.77657	17311.375
2397.58125	17277.875
2400.38416	17273.575
2403.18529	17237.975
2405.98466	17244.675
2408.78226	17196.575
2411.57809	17165.675
2414.37216	17166.875
2417.16446	17150.675
2419.955	17180.575
2422.74378	17190.275
2425.5308	17103.075
2428.31606	17083.675
2431.09956	17095.375
2433.88131	17096.475
2436.6613	17085.875
2439.43954	17115.475
2442.21603	17120.575
2444.99077	17090.575
2447.76377	17093.575
2450.53501	17112.075
2453.30451	17110.075
2456.07226	17044.975
2458.83827	17044.775
2461.60254	17024.175
2464.36507	17027.375
2467.12586	16994.275
2469.88492	16987.475
2472.64224	17031.575
2475.39782	16984.775
2478.15167	17000.475
2480.90379	16996.275
2483.65417	16992.675
2486.40283	17019.675
2489.14976	17040.275
2491.89497	16991.775
2494.63845	17001.075
2497.3802	16968.575
2500.12024	17017.975
2502.85855	17017.575
2505.59514	16988.675
2508.33002	16935.475
2511.06318	16935.575
2513.79462	16927.975
2516.52435	16885.075
2519.25237	16886.475
2521.97867	16834.475
2524.70327	16848.175
2527.42616	16864.675
2530.14734	16872.275
2532.86681	16836.375
2535.58458	16829.575
2538.30065	16850.775
2541.01501	16837.075
2543.72768	16807.075
2546.43864	16760.375
2549.14791	16762.875
2551.85548	16776.875
2554.56136	16734.875
2557.26554	16673.875
2559.96803	16645.975
2562.66883	16652.575
2565.36794	16618.975
2568.06536	16626.775
2570.7611	16601.675
2573.45514	16613.275
2576.14751	16588.175
2578.83819	16552.075
2581.52719	16539.075
2584.21451	16523.575
2586.90015	16497.075
2589.58411	16444.175
2592.2664	16484.575
2594.94701	16482.175
2597.62594	16454.575
2600.30321	16423.775
2602.9788	16452.175
2605.65273	16417.275
2608.32498	16459.175
2610.99557	16432.375
2613.66449	16446.975
2616.33175	16401.475
2618.99734	16365.875
2621.66128	16335.375
2624.32355	16341.175
2626.98416	16342.275
2629.64311	16317.075
2632.30041	16318.975
2634.95605	16292.575
2637.61004	16301.375
2640.26238	16247.475
2642.91306	16308.075
2645.56209	16255.475
2648.20948	16245.575
2650.85521	16234.275
2653.4993	16240.075
2656.14175	16267.175
2658.78255	16310.575
2661.42171	16281.275
2664.05923	16284.775
2666.6951	16321.675
2669.32934	16343.375
2671.96194	16365.675
2674.59291	16358.775
2677.22224	16321.475
2679.84993	16323.875
2682.476	16314.575
2685.10043	16316.975
2687.72324	16307.975
2690.34441	16321.075
2692.96396	16341.175
2695.58188	16311.275
2698.19818	16315.175
2700.81285	16311.475
2703.4259	16260.475
2706.03733	16223.475
2708.64714	16266.275
2711.25533	16291.375
2713.86191	16320.875
2716.46687	16369.075
2719.07021	16370.875
2721.67194	16423.875
2724.27206	16403.675
2726.87057	16392.775
2729.46747	16390.975
2732.06276	16409.075
2734.65644	16388.775
2737.24852	16375.175
2739.83899	16388.975
2742.42786	16391.975
2745.01513	16380.075
2747.60079	16392.175
2750.18486	16329.075
2752.76733	16334.675
2755.3482	16304.775
2757.92747	16283.675
2760.50515	16271.275
2763.08123	16260.875
2765.65573	16256.475
2768.22863	16232.075
2770.79994	16239.575
2773.36967	16205.275
2775.9378	16222.875
2778.50435	16224.475
2781.06932	16191.575
2783.6327	16196.275
2786.1945	16161.575
2788.75471	16175.575
2791.31335	16154.175
2793.87041	16137.675
2796.42589	16099.975
2798.97979	16081.575
2801.53212	16023.675
2804.08288	16027.075
2806.63206	16024.575
2809.17967	15966.575
2811.72571	15951.275
2814.27018	15918.875
2816.81308	15873.875
2819.35442	15866.175
2821.89419	15814.075
2824.43239	15804.175
2826.96904	15789.275
2829.50412	15788.575
2832.03763	15756.275
2834.56959	15746.975
2837.1	15756.275
2839.62884	15740.375
2842.15613	15695.475
2844.68186	15756.175
2847.20604	15758.575
2849.72867	15698.175
2852.24974	15656.575
2854.76927	15640.175
2857.28724	15614.075
2859.80367	15585.375
2862.31855	15574.675
2864.83189	15577.275
2867.34368	15551.475
2869.85393	15579.175
2872.36264	15548.375
2874.8698	15549.875
2877.37543	15519.375
2879.87952	15518.275
2882.38207	15526.275
2884.88308	15522.275
2887.38256	15557.575
2889.88051	15517.775
2892.37692	15547.275
2894.8718	15526.275
2897.36515	15513.175
2899.85698	15516.975
2902.34727	15532.475
2904.83604	15546.275
2907.32328	15570.975
2909.809	15573.975
2912.29319	15590.375
2914.77587	15600.775
2917.25702	15607.775
2919.73665	15586.675
2922.21476	15579.875
2924.69136	15550.275
2927.16644	15593.675
2929.64	15563.175
2932.11205	15552.775
2934.58258	15479.475
2937.05161	15518.475
2939.51912	15479.475
2941.98513	15494.275
2944.44962	15462.175
2946.91261	15451.575
2949.37409	15491.075
2951.83407	15468.675
2954.29254	15470.675
2956.74951	15439.475
2959.20498	15470.975
2961.65895	15424.975
2964.11142	15434.275
2966.56239	15406.575
2969.01186	15381.675
2971.45984	15386.975
2973.90632	15381.075
2976.35131	15367.475
2978.7948	15316.575
2981.23681	15298.275
2983.67732	15260.075
2986.11635	15232.575
2988.55388	15165.475
2990.98993	15138.475
2993.4245	15134.775
2995.85758	15135.875
2998.28917	15104.275
3000.71928	15065.675
3003.14791	15045.175
3005.57506	15035.075
3008.00073	14953.375
3010.42493	14961.575
3012.84764	14925.675
3015.26888	14935.175
3017.68865	14916.575
3020.10694	14885.375
3022.52376	14833.475
3024.9391	14825.175
3027.35298	14824.475
3029.76539	14820.975
3032.17632	14817.975
3034.5858	14769.775
3036.9938	14761.575
3039.40034	14704.675
3041.80542	14699.775
3044.20903	14717.675
3046.61118	14713.675
3049.01187	14679.675
3051.4111	14682.875
3053.80888	14628.775
3056.20519	14633.075
3058.60005	14621.575
3060.99345	14554.975
3063.3854	14538.275
3065.7759	14491.975
3068.16494	14478.475
3070.55254	14419.375
3072.93868	14359.775
3075.32338	14316.575
3077.70662	14306.975
3080.08842	14275.275
3082.46878	14266.175
3084.84769	14224.075
3087.22515	14218.375
3089.60118	14202.775
3091.97576	14195.775
3094.3489	14212.875
3096.72061	14235.675
3099.09087	14256.175
3101.4597	14240.375
3103.82709	14222.175
3106.19305	14168.875
3108.55757	14181.275
3110.92066	14131.775
3113.28232	14143.375
3115.64255	14091.675
3118.00134	14063.375
3120.35871	14068.175
3122.71466	13997.775
3125.06917	13970.975
3127.42226	13985.575
