Data from AgNPs_FTO_APTES_UA_50uM_CRN_500uM_R6G_10uM_NaF_0.1M_Addition_RamanShift__21__17-06-23-545.txt Node

Date: Mon Feb 21 17:06:23 GMT 2022
User: TCL
Spectrometer: QEP01345
Trigger mode: 4
Integration Time (sec): 7.000000E0
Scans to average: 10
Electric dark correction enabled: true
Nonlinearity correction enabled: false
Boxcar width: 0
XAxis mode: Raman Shifts
Number of Pixels in Spectrum: 1044
>>>>>Begin Spectral Data<<<<<
46.04893	-1.6375
50.45542	-0.9375
54.85868	0.4625
59.25871	-2.1375
63.6555	57.2625
68.04907	59.9625
72.43941	60.9625
76.82654	68.9625
81.21044	68.1625
85.59113	71.5625
89.96862	76.2625
94.34289	73.7625
98.71396	81.4625
103.08183	82.7625
107.4465	84.8625
111.80798	86.0625
116.16626	88.4625
120.52136	89.6625
124.87327	93.9625
129.222	96.6625
133.56755	97.1625
137.90993	103.9625
142.24913	109.6625
146.58517	122.7625
150.91804	134.1625
155.24774	162.0625
159.57429	194.4625
163.89768	246.1625
168.21792	327.0625
172.53501	438.2625
176.84895	612.6625
181.15975	860.6625
185.46741	1206.3625
189.77193	1657.1625
194.07331	2228.5625
198.37157	2884.6625
202.6667	3556.6625
206.9587	4244.1625
211.24758	4936.3625
215.53334	5610.9625
219.81599	6324.6625
224.09553	7116.9625
228.37195	7992.5625
232.64527	8977.2625
236.91549	9993.6625
241.18261	11017.2625
245.44663	11944.7625
249.70755	12705.0625
253.96539	13412.6625
258.22014	13959.4625
262.4718	14431.9625
266.72039	14768.9625
270.96589	14912.0625
275.20832	14850.1625
279.44768	14680.7625
283.68397	14451.2625
287.91719	14279.6625
292.14735	14140.5625
296.37445	14164.3625
300.59849	14311.3625
304.81948	14484.1625
309.03742	14600.7625
313.25231	14508.2625
317.46415	14191.8625
321.67296	13775.6625
325.87872	13413.8625
330.08145	13249.8625
334.28114	13239.3625
338.47781	13394.5625
342.67145	13602.3625
346.86207	13870.9625
351.04966	14250.3625
355.23424	14637.1625
359.4158	15012.5625
363.59435	15261.6625
367.76989	15417.9625
371.94243	15512.1625
376.11196	15582.1625
380.27849	15663.7625
384.44203	15693.5625
388.60257	15685.3625
392.76012	15728.7625
396.91468	15822.9625
401.06626	16027.8625
405.21485	16133.4625
409.36047	16054.1625
413.50311	15733.5625
417.64277	15412.5625
421.77947	15246.0625
425.9132	15228.1625
430.04396	15265.8625
434.17176	15400.2625
438.2966	15607.3625
442.41849	15834.2625
446.53742	16209.5625
450.6534	16613.5625
454.76644	16883.9625
458.87653	16959.8625
462.98368	16840.3625
467.08789	16628.1625
471.18916	16401.9625
475.2875	16137.9625
479.38291	15951.0625
483.4754	15810.9625
487.56496	15679.9625
491.6516	15522.4625
495.73531	15462.4625
499.81612	15463.1625
503.89401	15558.0625
507.96899	15669.2625
512.04106	15697.8625
516.11023	15803.3625
520.1765	15814.5625
524.23987	15813.3625
528.30034	15779.9625
532.35792	15687.9625
536.41261	15587.5625
540.46441	15418.7625
544.51333	15331.4625
548.55936	15333.4625
552.60252	15520.2625
556.64279	15763.5625
560.6802	15879.8625
564.71473	15938.4625
568.7464	16075.7625
572.7752	16295.1625
576.80114	16270.2625
580.82422	16176.4625
584.84444	16252.1625
588.86181	16536.0625
592.87633	16921.1625
596.888	17131.9625
600.89682	17149.4625
604.9028	17697.4625
608.90594	19760.9625
612.90624	22255.6625
616.90371	21387.8625
620.89834	17656.7625
624.89015	15968.1625
628.87913	15694.8625
632.86528	15786.1625
636.84862	15880.0625
640.82913	15818.3625
644.80683	15408.6625
648.78172	15115.7625
652.75379	15102.4625
656.72306	15326.6625
660.68952	15637.5625
664.65319	15567.0625
668.61405	15347.7625
672.57211	15304.6625
676.52738	15444.7625
680.47986	15470.9625
684.42955	15383.6625
688.37646	15230.2625
692.32058	15162.2625
696.26192	15168.5625
700.20048	15228.5625
704.13626	15296.5625
708.06928	15225.8625
711.99952	15097.6625
715.927	15067.9625
719.85171	15093.5625
723.77365	15138.9625
727.69284	15090.0625
731.60928	15063.3625
735.52295	15039.8625
739.43388	15015.9625
743.34206	15047.9625
747.24749	15076.3625
751.15017	15080.2625
755.05012	15198.1625
758.94733	15491.9625
762.8418	16217.2625
766.73354	17502.8625
770.62254	18962.2625
774.50882	19721.1625
778.39237	19103.5625
782.27321	17535.7625
786.15132	16162.0625
790.02671	15316.5625
793.89938	14973.3625
797.76935	14784.2625
801.6366	14728.8625
805.50115	14687.0625
809.36299	14608.3625
813.22213	14546.4625
817.07857	14494.9625
820.93231	14452.8625
824.78336	14421.0625
828.63172	14410.0625
832.47738	14384.8625
836.32036	14382.4625
840.16066	14356.4625
843.99827	14338.1625
847.8332	14359.1625
851.66546	14325.1625
855.49504	14357.6625
859.32195	14422.2625
863.1462	14419.7625
866.96777	14410.4625
870.78668	14396.2625
874.60293	14371.3625
878.41652	14389.5625
882.22745	14391.8625
886.03573	14453.8625
889.84136	14404.3625
893.64433	14338.2625
897.44466	14269.3625
901.24235	14203.7625
905.0374	14155.0625
908.8298	14073.1625
912.61957	13962.7625
916.40671	14051.2625
920.19121	14109.3625
923.97308	14189.9625
927.75233	14281.2625
931.52895	14267.8625
935.30295	14212.4625
939.07433	14003.0625
942.84309	13833.9625
946.60924	13716.9625
950.37278	13674.1625
954.13371	13586.2625
957.89203	13545.0625
961.64774	13497.0625
965.40086	13409.1625
969.15137	13353.1625
972.89929	13339.6625
976.64461	13296.4625
980.38733	13266.7625
984.12747	13294.0625
987.86502	13378.4625
991.59999	13432.8625
995.33237	13592.7625
999.06217	13817.1625
1002.78939	14070.3625
1006.51404	14244.2625
1010.23611	14363.0625
1013.95561	14488.8625
1017.67255	14525.7625
1021.38692	14427.6625
1025.09872	14234.9625
1028.80796	14179.2625
1032.51465	14298.8625
1036.21877	14395.5625
1039.92035	14484.3625
1043.61937	14401.5625
1047.31584	14321.5625
1051.00976	14166.7625
1054.70114	14082.6625
1058.38998	14081.6625
1062.07627	14089.4625
1065.76003	14090.3625
1069.44126	14074.9625
1073.11995	14130.8625
1076.79611	14214.7625
1080.46974	14326.8625
1084.14085	14434.0625
1087.80943	14573.1625
1091.47549	14679.1625
1095.13903	14647.5625
1098.80005	14465.7625
1102.45857	14269.7625
1106.11456	14197.0625
1109.76805	14243.2625
1113.41903	14400.7625
1117.06751	14638.3625
1120.71348	14937.8625
1124.35696	15201.7625
1127.99793	15497.6625
1131.63641	15542.0625
1135.2724	15281.6625
1138.90589	15013.4625
1142.5369	14741.3625
1146.16542	14595.4625
1149.79145	14449.3625
1153.415	14447.6625
1157.03607	14482.4625
1160.65467	14684.3625
1164.27079	15081.0625
1167.88443	15619.3625
1171.49561	16414.3625
1175.10432	17513.1625
1178.71056	18953.8625
1182.31434	20267.6625
1185.91565	20828.7625
1189.51451	20553.9625
1193.11091	19769.0625
1196.70485	18809.4625
1200.29634	18076.5625
1203.88538	17454.3625
1207.47197	16820.9625
1211.05612	16258.2625
1214.63782	15936.2625
1218.21708	15804.3625
1221.79391	15811.7625
1225.36829	15841.4625
1228.94024	15766.4625
1232.50976	15541.3625
1236.07685	15378.8625
1239.6415	15335.0625
1243.20374	15344.2625
1246.76355	15378.6625
1250.32093	15525.7625
1253.8759	15753.7625
1257.42845	16046.9625
1260.97859	16345.7625
1264.52631	16641.0625
1268.07163	17013.0625
1271.61453	17339.4625
1275.15503	17671.3625
1278.69312	17958.9625
1282.22882	18178.9625
1285.76211	18448.6625
1289.29301	18838.2625
1292.82151	19331.8625
1296.34761	20025.8625
1299.87133	20911.6625
1303.39266	22104.9625
1306.9116	23688.2625
1310.42815	25423.6625
1313.94233	26458.2625
1317.45412	26121.4625
1320.96354	24955.1625
1324.47058	23647.9625
1327.97525	22510.4625
1331.47754	21678.8625
1334.97747	21427.9625
1338.47502	21526.2625
1341.97022	21767.0625
1345.46305	22240.8625
1348.95352	22918.9625
1352.44163	23821.3625
1355.92738	25191.4625
1359.41078	27131.4625
1362.89183	28892.5625
1366.37053	28278.7625
1369.84688	25110.8625
1373.32088	21760.3625
1376.79254	19555.9625
1380.26186	18569.4625
1383.72883	18101.0625
1387.19347	17791.0625
1390.65578	17464.7625
1394.11575	17253.8625
1397.57339	17246.9625
1401.0287	17383.6625
1404.48168	17614.3625
1407.93234	17724.0625
1411.38068	17748.7625
1414.82669	17638.9625
1418.27039	17367.7625
1421.71177	16944.0625
1425.15083	16558.9625
1428.58758	16277.9625
1432.02203	16315.7625
1435.45416	16533.3625
1438.88399	16752.4625
1442.31151	16896.0625
1445.73673	17022.7625
1449.15965	17127.6625
1452.58027	17190.1625
1455.9986	17117.0625
1459.41463	17171.2625
1462.82837	17358.7625
1466.23982	17678.3625
1469.64898	17914.9625
1473.05586	18150.8625
1476.46045	18276.6625
1479.86276	18336.8625
1483.26279	18339.8625
1486.66054	18379.5625
1490.05602	18546.0625
1493.44922	18835.1625
1496.84016	19262.7625
1500.22882	20054.0625
1503.61521	21339.1625
1506.99934	22901.5625
1510.38121	24322.6625
1513.76081	24685.9625
1517.13816	23655.0625
1520.51324	21748.9625
1523.88607	19972.6625
1527.25665	18857.9625
1530.62498	18268.7625
1533.99105	18004.0625
1537.35488	17807.4625
1540.71647	17609.5625
1544.07581	17461.5625
1547.4329	17366.9625
1550.78776	17211.0625
1554.14038	17177.0625
1557.49077	17185.8625
1560.83892	17302.4625
1564.18484	17451.7625
1567.52853	17658.4625
1570.86999	17830.0625
1574.20922	18012.1625
1577.54624	18008.2625
1580.88103	17643.7625
1584.2136	17155.9625
1587.54395	16986.7625
1590.87208	17254.0625
1594.19801	18094.6625
1597.52172	19188.5625
1600.84321	19830.8625
1604.16251	19481.2625
1607.47959	18524.0625
1610.79447	17318.6625
1614.10715	16169.6625
1617.41763	15216.8625
1620.7259	14561.6625
1624.03199	14213.3625
1627.33587	14142.5625
1630.63757	14374.7625
1633.93707	14956.2625
1637.23439	15861.8625
1640.52951	17220.1625
1643.82246	18968.1625
1647.11321	20678.7625
1650.40179	21426.0625
1653.68819	20572.9625
1656.97241	18403.1625
1660.25446	16059.0625
1663.53433	14468.4625
1666.81203	13506.9625
1670.08756	12917.8625
1673.36092	12525.5625
1676.63211	12277.3625
1679.90115	12108.6625
1683.16801	11978.5625
1686.43272	11844.2625
1689.69527	11720.6625
1692.95567	11644.2625
1696.2139	11588.4625
1699.46999	11523.1625
1702.72392	11449.8625
1705.97571	11452.1625
1709.22535	11447.3625
1712.47284	11415.5625
1715.71819	11404.0625
1718.96139	11374.7625
1722.20246	11335.8625
1725.44139	11291.2625
1728.67818	11244.9625
1731.91284	11200.3625
1735.14537	11116.7625
1738.37576	11087.9625
1741.60403	11067.7625
1744.83017	11024.1625
1748.05418	11018.6625
1751.27607	11021.1625
1754.49584	11036.5625
1757.71349	10979.2625
1760.92903	10953.9625
1764.14244	10923.3625
1767.35375	10862.4625
1770.56294	10835.5625
1773.77002	10807.6625
1776.97499	10778.4625
1780.17785	10754.0625
1783.37861	10748.5625
1786.57727	10715.4625
1789.77382	10662.7625
1792.96828	10632.5625
1796.16064	10613.4625
1799.3509	10600.3625
1802.53907	10534.7625
1805.72514	10517.9625
1808.90913	10518.8625
1812.09102	10467.3625
1815.27083	10434.9625
1818.44856	10422.4625
1821.6242	10396.0625
1824.79776	10380.6625
1827.96924	10371.7625
1831.13864	10363.0625
1834.30597	10368.8625
1837.47122	10322.3625
1840.6344	10308.9625
1843.7955	10324.5625
1846.95454	10311.7625
1850.11151	10310.5625
1853.26642	10283.5625
1856.41926	10266.8625
1859.57004	10264.5625
1862.71876	10251.4625
1865.86542	10244.4625
1869.01003	10244.6625
1872.15258	10223.8625
1875.29308	10239.8625
1878.43152	10210.3625
1881.56792	10234.1625
1884.70227	10204.8625
1887.83457	10201.3625
1890.96482	10196.2625
1894.09304	10173.3625
1897.21921	10163.3625
1900.34335	10143.5625
1903.46544	10139.0625
1906.58551	10129.7625
1909.70353	10115.0625
1912.81953	10111.7625
1915.93349	10060.2625
1919.04543	10061.2625
1922.15534	10013.5625
1925.26322	9980.7625
1928.36908	9989.3625
1931.47292	9954.0625
1934.57473	9927.9625
1937.67453	9918.1625
1940.77232	9886.1625
1943.86808	9852.6625
1946.96184	9857.0625
1950.05358	9807.9625
1953.14331	9798.8625
1956.23103	9753.2625
1959.31675	9736.0625
1962.40046	9714.9625
1965.48217	9699.1625
1968.56188	9649.6625
1971.63959	9619.8625
1974.7153	9590.3625
1977.78901	9542.8625
1980.86073	9524.6625
1983.93046	9509.2625
1986.99819	9489.5625
1990.06394	9455.5625
1993.1277	9411.3625
1996.18947	9360.0625
1999.24925	9362.3625
2002.30706	9325.3625
2005.36288	9303.5625
2008.41672	9264.9625
2011.46859	9271.9625
2014.51848	9225.9625
2017.56639	9217.5625
2020.61233	9185.1625
2023.6563	9142.0625
2026.6983	9100.7625
2029.73833	9098.3625
2032.7764	9091.1625
2035.8125	9057.2625
2038.84664	9029.9625
2041.87881	9005.9625
2044.90903	8985.2625
2047.93729	8987.3625
2050.96359	8977.1625
2053.98794	8962.7625
2057.01034	8955.6625
2060.03078	8954.9625
2063.04927	8948.0625
2066.06582	8934.2625
2069.08042	8938.2625
2072.09307	8906.1625
2075.10378	8875.4625
2078.11255	8907.7625
2081.11938	8887.8625
2084.12426	8886.7625
2087.12722	8875.8625
2090.12824	8847.2625
2093.12732	8873.9625
2096.12447	8872.3625
2099.11969	8861.2625
2102.11299	8867.7625
2105.10435	8884.9625
2108.09379	8874.7625
2111.08131	8878.0625
2114.0669	8880.3625
2117.05057	8893.2625
2120.03233	8884.5625
2123.01216	8884.2625
2125.99008	8878.5625
2128.96609	8898.9625
2131.94018	8897.8625
2134.91236	8902.7625
2137.88263	8910.2625
2140.851	8916.3625
2143.81746	8925.2625
2146.78201	8900.0625
2149.74466	8906.9625
2152.7054	8901.1625
2155.66425	8889.6625
2158.6212	8904.2625
2161.57625	8885.0625
2164.52941	8875.0625
2167.48067	8854.5625
2170.43004	8872.5625
2173.37752	8874.2625
2176.32311	8861.7625
2179.26681	8857.4625
2182.20863	8845.8625
2185.14856	8884.1625
2188.08661	8855.8625
2191.02278	8867.9625
2193.95707	8860.5625
2196.88948	8825.5625
2199.82001	8863.4625
2202.74867	8831.0625
2205.67545	8829.4625
2208.60037	8827.0625
2211.52341	8814.0625
2214.44458	8800.7625
2217.36388	8769.0625
2220.28132	8759.0625
2223.1969	8744.0625
2226.11061	8733.1625
2229.02246	8714.2625
2231.93245	8700.6625
2234.84058	8656.5625
2237.74686	8652.9625
2240.65128	8656.3625
2243.55385	8632.4625
2246.45456	8598.5625
2249.35343	8605.2625
2252.25044	8577.0625
2255.14561	8587.1625
2258.03893	8569.3625
2260.93041	8579.6625
2263.82004	8541.5625
2266.70783	8524.4625
2269.59378	8486.5625
2272.4779	8470.5625
2275.36017	8465.4625
2278.24061	8437.8625
2281.11922	8416.1625
2283.996	8397.8625
2286.87094	8372.3625
2289.74405	8371.4625
2292.61534	8365.4625
2295.4848	8355.8625
2298.35243	8363.6625
2301.21824	8338.7625
2304.08223	8353.2625
2306.94439	8346.4625
2309.80474	8326.0625
2312.66327	8337.9625
2315.51999	8316.1625
2318.37489	8317.1625
2321.22797	8290.2625
2324.07925	8277.9625
2326.92871	8282.7625
2329.77637	8256.9625
2332.62222	8229.0625
2335.46626	8247.1625
2338.3085	8229.8625
2341.14893	8232.4625
2343.98756	8229.0625
2346.8244	8227.6625
2349.65943	8219.4625
2352.49267	8213.0625
2355.32411	8214.3625
2358.15376	8229.4625
2360.98161	8222.2625
2363.80768	8200.3625
2366.63195	8208.9625
2369.45444	8190.7625
2372.27514	8180.9625
2375.09405	8163.1625
2377.91118	8145.9625
2380.72652	8140.7625
2383.54009	8124.4625
2386.35187	8069.4625
2389.16188	8056.0625
2391.97011	8039.5625
2394.77657	8033.6625
2397.58125	8000.6625
2400.38416	8000.1625
2403.18529	7965.6625
2405.98466	7960.6625
2408.78226	7938.6625
2411.57809	7955.9625
2414.37216	7916.0625
2417.16446	7929.0625
2419.955	7912.5625
2422.74378	7897.1625
2425.5308	7882.4625
2428.31606	7900.2625
2431.09956	7879.0625
2433.88131	7851.6625
2436.6613	7870.9625
2439.43954	7835.8625
2442.21603	7844.3625
2444.99077	7856.9625
2447.76377	7836.8625
2450.53501	7829.5625
2453.30451	7839.6625
2456.07226	7826.4625
2458.83827	7826.1625
2461.60254	7825.0625
2464.36507	7808.2625
2467.12586	7789.9625
2469.88492	7789.5625
2472.64224	7803.5625
2475.39782	7807.2625
2478.15167	7800.5625
2480.90379	7802.5625
2483.65417	7809.9625
2486.40283	7810.8625
2489.14976	7828.3625
2491.89497	7825.1625
2494.63845	7798.3625
2497.3802	7807.2625
2500.12024	7794.3625
2502.85855	7784.3625
2505.59514	7774.6625
2508.33002	7740.7625
2511.06318	7732.6625
2513.79462	7726.9625
2516.52435	7690.8625
2519.25237	7689.3625
2521.97867	7686.6625
2524.70327	7666.1625
2527.42616	7651.9625
2530.14734	7657.3625
2532.86681	7638.7625
2535.58458	7643.2625
2538.30065	7656.0625
2541.01501	7635.0625
2543.72768	7612.2625
2546.43864	7584.1625
2549.14791	7596.8625
2551.85548	7588.0625
2554.56136	7566.0625
2557.26554	7573.0625
2559.96803	7552.3625
2562.66883	7543.7625
2565.36794	7513.2625
2568.06536	7511.2625
2570.7611	7492.6625
2573.45514	7502.4625
2576.14751	7480.9625
2578.83819	7489.3625
2581.52719	7478.4625
2584.21451	7473.8625
2586.90015	7471.8625
2589.58411	7448.3625
2592.2664	7433.8625
2594.94701	7419.2625
2597.62594	7390.4625
2600.30321	7381.4625
2602.9788	7363.5625
2605.65273	7357.1625
2608.32498	7363.6625
2610.99557	7364.6625
2613.66449	7358.7625
2616.33175	7366.7625
2618.99734	7363.5625
2621.66128	7350.2625
2624.32355	7360.2625
2626.98416	7329.8625
2629.64311	7316.8625
2632.30041	7304.9625
2634.95605	7297.8625
2637.61004	7298.5625
2640.26238	7299.9625
2642.91306	7295.9625
2645.56209	7286.4625
2648.20948	7275.1625
2650.85521	7276.1625
2653.4993	7253.3625
2656.14175	7268.7625
2658.78255	7281.5625
2661.42171	7257.0625
2664.05923	7294.3625
2666.6951	7257.8625
2669.32934	7271.3625
2671.96194	7261.0625
2674.59291	7256.4625
2677.22224	7269.4625
2679.84993	7281.7625
2682.476	7263.7625
2685.10043	7266.3625
2687.72324	7251.6625
2690.34441	7259.6625
2692.96396	7246.3625
2695.58188	7267.1625
2698.19818	7247.1625
2700.81285	7250.2625
2703.4259	7261.5625
2706.03733	7252.7625
2708.64714	7253.4625
2711.25533	7261.6625
2713.86191	7241.8625
2716.46687	7246.3625
2719.07021	7237.7625
2721.67194	7251.4625
2724.27206	7236.9625
2726.87057	7239.2625
2729.46747	7249.6625
2732.06276	7232.3625
2734.65644	7252.9625
2737.24852	7255.8625
2739.83899	7226.6625
2742.42786	7247.6625
2745.01513	7218.8625
2747.60079	7213.3625
2750.18486	7200.4625
2752.76733	7196.2625
2755.3482	7180.6625
2757.92747	7183.5625
2760.50515	7155.7625
2763.08123	7183.4625
2765.65573	7177.4625
2768.22863	7174.7625
2770.79994	7154.1625
2773.36967	7137.6625
2775.9378	7137.4625
2778.50435	7132.2625
2781.06932	7150.5625
2783.6327	7142.0625
2786.1945	7133.1625
2788.75471	7122.3625
2791.31335	7118.4625
2793.87041	7092.6625
2796.42589	7073.8625
2798.97979	7084.6625
2801.53212	7052.5625
2804.08288	7047.5625
2806.63206	7032.3625
2809.17967	7018.8625
2811.72571	7018.9625
2814.27018	6991.7625
2816.81308	6992.7625
2819.35442	6972.6625
2821.89419	6975.2625
2824.43239	6981.2625
2826.96904	6981.9625
2829.50412	6962.0625
2832.03763	6954.9625
2834.56959	6964.6625
2837.1	6957.8625
2839.62884	6966.9625
2842.15613	6974.0625
2844.68186	7003.1625
2847.20604	6987.8625
2849.72867	6985.9625
2852.24974	6982.6625
2854.76927	6968.6625
2857.28724	6958.8625
2859.80367	6969.4625
2862.31855	6955.0625
2864.83189	6943.7625
2867.34368	6936.4625
2869.85393	6917.7625
2872.36264	6914.1625
2874.8698	6926.5625
2877.37543	6937.1625
2879.87952	6919.5625
2882.38207	6931.4625
2884.88308	6917.4625
2887.38256	6937.2625
2889.88051	6926.7625
2892.37692	6928.2625
2894.8718	6923.9625
2897.36515	6936.7625
2899.85698	6968.3625
2902.34727	6961.6625
2904.83604	6969.1625
2907.32328	6983.8625
2909.809	6990.6625
2912.29319	7006.1625
2914.77587	6996.9625
2917.25702	7011.9625
2919.73665	7006.5625
2922.21476	7019.3625
2924.69136	7001.7625
2927.16644	7000.6625
2929.64	6985.7625
2932.11205	6975.0625
2934.58258	6982.7625
2937.05161	6986.4625
2939.51912	6962.9625
2941.98513	6964.8625
2944.44962	6961.1625
2946.91261	6920.5625
2949.37409	6935.6625
2951.83407	6934.1625
2954.29254	6938.8625
2956.74951	6895.8625
2959.20498	6893.7625
2961.65895	6879.7625
2964.11142	6883.1625
2966.56239	6851.9625
2969.01186	6848.3625
2971.45984	6828.6625
2973.90632	6829.0625
2976.35131	6791.1625
2978.7948	6779.2625
2981.23681	6748.6625
2983.67732	6726.3625
2986.11635	6730.4625
2988.55388	6709.2625
2990.98993	6692.3625
2993.4245	6669.9625
2995.85758	6676.6625
2998.28917	6647.7625
3000.71928	6645.7625
3003.14791	6647.8625
3005.57506	6639.6625
3008.00073	6622.0625
3010.42493	6604.7625
3012.84764	6584.5625
3015.26888	6592.5625
3017.68865	6569.4625
3020.10694	6577.9625
3022.52376	6569.4625
3024.9391	6541.3625
3027.35298	6522.4625
3029.76539	6529.9625
3032.17632	6511.9625
3034.5858	6485.3625
3036.9938	6476.9625
3039.40034	6500.6625
3041.80542	6477.5625
3044.20903	6458.3625
3046.61118	6488.1625
3049.01187	6443.4625
3051.4111	6444.3625
3053.80888	6422.0625
3056.20519	6430.7625
3058.60005	6417.6625
3060.99345	6418.6625
3063.3854	6395.5625
3065.7759	6365.9625
3068.16494	6354.4625
3070.55254	6334.9625
