Data from AgNPs_FTO_APTES_UA_50uM_CRN_500uM_R6G_10uM_NaF_0.1M_Addition_RamanShift__7__16-50-03-524.txt Node

Date: Mon Feb 21 16:50:03 GMT 2022
User: TCL
Spectrometer: QEP01345
Trigger mode: 4
Integration Time (sec): 7.000000E0
Scans to average: 10
Electric dark correction enabled: true
Nonlinearity correction enabled: false
Boxcar width: 0
XAxis mode: Raman Shifts
Number of Pixels in Spectrum: 1044
>>>>>Begin Spectral Data<<<<<
46.04893	-0.125
50.45542	-0.025
54.85868	-0.125
59.25871	-1.925
63.6555	46.175
68.04907	49.375
72.43941	53.175
76.82654	58.575
81.21044	58.575
85.59113	57.475
89.96862	62.175
94.34289	64.075
98.71396	68.675
103.08183	73.275
107.4465	70.375
111.80798	71.675
116.16626	75.175
120.52136	75.875
124.87327	74.875
129.222	80.275
133.56755	82.875
137.90993	86.375
142.24913	91.475
146.58517	99.675
150.91804	108.575
155.24774	129.475
159.57429	158.775
163.89768	198.975
168.21792	264.575
172.53501	362.175
176.84895	490.775
181.15975	697.075
185.46741	980.275
189.77193	1346.175
194.07331	1808.275
198.37157	2331.775
202.6667	2880.475
206.9587	3423.675
211.24758	3953.975
215.53334	4509.375
219.81599	5090.175
224.09553	5722.275
228.37195	6422.675
232.64527	7194.875
236.91549	8016.675
241.18261	8821.075
245.44663	9526.675
249.70755	10150.475
253.96539	10685.275
258.22014	11129.575
262.4718	11492.775
266.72039	11738.375
270.96589	11896.775
275.20832	11853.875
279.44768	11761.475
283.68397	11579.875
287.91719	11430.375
292.14735	11368.375
296.37445	11355.475
300.59849	11445.075
304.81948	11571.575
309.03742	11649.175
313.25231	11602.275
317.46415	11449.275
321.67296	11167.075
325.87872	10884.775
330.08145	10755.675
334.28114	10746.475
338.47781	10874.975
342.67145	11017.175
346.86207	11202.975
351.04966	11482.575
355.23424	11752.175
359.4158	11983.975
363.59435	12134.075
367.76989	12226.375
371.94243	12273.475
376.11196	12310.675
380.27849	12341.575
384.44203	12385.975
388.60257	12466.575
392.76012	12479.875
396.91468	12610.375
401.06626	12778.275
405.21485	12851.675
409.36047	12781.775
413.50311	12519.375
417.64277	12301.775
421.77947	12193.275
425.9132	12169.175
430.04396	12209.775
434.17176	12294.075
438.2966	12416.575
442.41849	12611.775
446.53742	12859.775
450.6534	13109.275
454.76644	13275.275
458.87653	13323.275
462.98368	13277.475
467.08789	13187.975
471.18916	13058.675
475.2875	12865.375
479.38291	12679.275
483.4754	12623.975
487.56496	12467.775
491.6516	12403.175
495.73531	12336.775
499.81612	12336.775
503.89401	12395.575
507.96899	12454.475
512.04106	12506.675
516.11023	12549.275
520.1765	12566.375
524.23987	12545.975
528.30034	12489.675
532.35792	12439.975
536.41261	12342.775
540.46441	12224.175
544.51333	12168.575
548.55936	12227.975
552.60252	12390.775
556.64279	12596.975
560.6802	12728.375
564.71473	12776.175
568.7464	12901.475
572.7752	13040.475
576.80114	13085.475
580.82422	13138.875
584.84444	13314.075
588.86181	13556.875
592.87633	13919.375
596.888	14035.975
600.89682	13961.275
604.9028	14232.175
608.90594	15667.575
612.90624	17389.875
616.90371	16694.875
620.89834	13978.475
624.89015	12701.475
628.87913	12494.775
632.86528	12592.275
636.84862	12748.575
640.82913	12670.975
644.80683	12398.975
648.78172	12191.575
652.75379	12161.675
656.72306	12339.075
660.68952	12551.375
664.65319	12447.275
668.61405	12219.775
672.57211	12152.475
676.52738	12221.475
680.47986	12257.975
684.42955	12197.875
688.37646	12135.375
692.32058	12142.075
696.26192	12177.375
700.20048	12259.275
704.13626	12322.075
708.06928	12307.375
711.99952	12262.075
715.927	12217.875
719.85171	12296.675
723.77365	12278.575
727.69284	12200.475
731.60928	12126.375
735.52295	12088.975
739.43388	12097.175
743.34206	12142.575
747.24749	12142.275
751.15017	12184.875
755.05012	12296.275
758.94733	12568.575
762.8418	13137.375
766.73354	14121.875
770.62254	15170.875
774.50882	15634.175
778.39237	15115.275
782.27321	14042.875
786.15132	13083.575
790.02671	12459.975
793.89938	12168.775
797.76935	12020.375
801.6366	11966.275
805.50115	11921.475
809.36299	11890.475
813.22213	11857.875
817.07857	11818.975
820.93231	11809.475
824.78336	11785.875
828.63172	11765.175
832.47738	11747.375
836.32036	11754.475
840.16066	11731.775
843.99827	11707.775
847.8332	11697.775
851.66546	11714.375
855.49504	11725.875
859.32195	11732.075
863.1462	11740.275
866.96777	11689.375
870.78668	11727.475
874.60293	11719.975
878.41652	11745.275
882.22745	11799.575
886.03573	11830.175
889.84136	11827.875
893.64433	11805.675
897.44466	11735.475
901.24235	11692.075
905.0374	11655.375
908.8298	11634.375
912.61957	11559.675
916.40671	11587.375
920.19121	11642.875
923.97308	11707.275
927.75233	11741.675
931.52895	11759.075
935.30295	11659.575
939.07433	11490.775
942.84309	11378.375
946.60924	11278.675
950.37278	11217.675
954.13371	11211.775
957.89203	11180.475
961.64774	11178.075
965.40086	11146.275
969.15137	11111.575
972.89929	11114.675
976.64461	11080.475
980.38733	11072.175
984.12747	11067.575
987.86502	11095.275
991.59999	11130.775
995.33237	11192.775
999.06217	11323.775
1002.78939	11444.975
1006.51404	11614.175
1010.23611	11741.775
1013.95561	11820.975
1017.67255	11875.875
1021.38692	11802.175
1025.09872	11683.075
1028.80796	11543.575
1032.51465	11493.975
1036.21877	11516.475
1039.92035	11532.375
1043.61937	11567.675
1047.31584	11594.175
1051.00976	11618.075
1054.70114	11637.175
1058.38998	11656.275
1062.07627	11700.875
1065.76003	11748.575
1069.44126	11809.575
1073.11995	11914.175
1076.79611	12022.575
1080.46974	12131.275
1084.14085	12197.775
1087.80943	12305.575
1091.47549	12393.775
1095.13903	12341.775
1098.80005	12216.375
1102.45857	12062.675
1106.11456	11939.675
1109.76805	11901.675
1113.41903	11943.575
1117.06751	12103.675
1120.71348	12308.875
1124.35696	12534.375
1127.99793	12777.675
1131.63641	12871.275
1135.2724	12665.275
1138.90589	12439.475
1142.5369	12326.275
1146.16542	12229.275
1149.79145	12200.275
1153.415	12184.775
1157.03607	12199.775
1160.65467	12391.275
1164.27079	12665.875
1167.88443	13079.475
1171.49561	13687.875
1175.10432	14487.075
1178.71056	15598.875
1182.31434	16555.275
1185.91565	16984.475
1189.51451	16894.075
1193.11091	16397.075
1196.70485	15840.075
1200.29634	15275.175
1203.88538	14759.875
1207.47197	14231.175
1211.05612	13805.275
1214.63782	13468.975
1218.21708	13287.275
1221.79391	13227.575
1225.36829	13169.875
1228.94024	13142.275
1232.50976	13073.975
1236.07685	12992.775
1239.6415	12948.475
1243.20374	12935.375
1246.76355	12988.475
1250.32093	13071.775
1253.8759	13187.575
1257.42845	13420.775
1260.97859	13667.675
1264.52631	13938.775
1268.07163	14183.875
1271.61453	14393.275
1275.15503	14621.075
1278.69312	14768.975
1282.22882	14952.275
1285.76211	15217.175
1289.29301	15604.675
1292.82151	16070.575
1296.34761	16585.375
1299.87133	17268.575
1303.39266	18111.175
1306.9116	19160.075
1310.42815	20252.975
1313.94233	20919.375
1317.45412	20724.575
1320.96354	20000.275
1324.47058	19170.375
1327.97525	18411.775
1331.47754	17866.375
1334.97747	17568.475
1338.47502	17528.175
1341.97022	17661.475
1345.46305	17980.175
1348.95352	18539.575
1352.44163	19250.975
1355.92738	20257.375
1359.41078	21588.175
1362.89183	22843.575
1366.37053	22527.475
1369.84688	20326.075
1373.32088	17835.275
1376.79254	16212.875
1380.26186	15470.275
1383.72883	15167.875
1387.19347	14931.775
1390.65578	14641.075
1394.11575	14385.875
1397.57339	14284.375
1401.0287	14280.675
1404.48168	14301.175
1407.93234	14261.575
1411.38068	14177.575
1414.82669	14002.875
1418.27039	13815.675
1421.71177	13592.875
1425.15083	13334.175
1428.58758	13202.675
1432.02203	13224.775
1435.45416	13367.475
1438.88399	13506.775
1442.31151	13624.275
1445.73673	13686.475
1449.15965	13749.875
1452.58027	13752.675
1455.9986	13728.875
1459.41463	13764.675
1462.82837	13894.975
1466.23982	14108.975
1469.64898	14318.175
1473.05586	14509.275
1476.46045	14630.575
1479.86276	14662.775
1483.26279	14752.075
1486.66054	14833.375
1490.05602	15048.075
1493.44922	15407.575
1496.84016	15997.575
1500.22882	16830.775
1503.61521	17993.275
1506.99934	19290.975
1510.38121	20269.175
1513.76081	20401.675
1517.13816	19484.475
1520.51324	18056.175
1523.88607	16709.275
1527.25665	15919.875
1530.62498	15498.475
1533.99105	15262.675
1537.35488	15056.175
1540.71647	14808.675
1544.07581	14592.075
1547.4329	14363.075
1550.78776	14197.375
1554.14038	14113.475
1557.49077	14124.875
1560.83892	14162.175
1564.18484	14328.475
1567.52853	14505.675
1570.86999	14750.275
1574.20922	14952.175
1577.54624	14964.775
1580.88103	14688.775
1584.2136	14249.575
1587.54395	14065.975
1590.87208	14255.375
1594.19801	14736.375
1597.52172	15373.075
1600.84321	15710.575
1604.16251	15462.775
1607.47959	14859.875
1610.79447	14094.375
1614.10715	13309.875
1617.41763	12595.475
1620.7259	12132.975
1624.03199	11848.275
1627.33587	11807.075
1630.63757	11940.875
1633.93707	12346.375
1637.23439	13093.775
1640.52951	14222.375
1643.82246	15719.075
1647.11321	17211.375
1650.40179	17879.775
1653.68819	17189.675
1656.97241	15438.175
1660.25446	13571.575
1663.53433	12255.975
1666.81203	11443.575
1670.08756	10944.575
1673.36092	10663.775
1676.63211	10426.475
1679.90115	10275.875
1683.16801	10184.575
1686.43272	10084.375
1689.69527	10022.575
1692.95567	9934.975
1696.2139	9867.075
1699.46999	9806.875
1702.72392	9765.575
1705.97571	9746.875
1709.22535	9725.475
1712.47284	9699.875
1715.71819	9703.775
1718.96139	9668.075
1722.20246	9651.275
1725.44139	9631.475
1728.67818	9569.775
1731.91284	9514.875
1735.14537	9442.975
1738.37576	9420.075
1741.60403	9387.675
1744.83017	9379.175
1748.05418	9349.775
1751.27607	9343.675
1754.49584	9349.675
1757.71349	9373.075
1760.92903	9344.975
1764.14244	9323.675
1767.35375	9284.775
1770.56294	9265.375
1773.77002	9207.675
1776.97499	9207.275
1780.17785	9184.275
1783.37861	9155.475
1786.57727	9142.675
1789.77382	9098.875
1792.96828	9106.075
1796.16064	9083.575
1799.3509	9060.075
1802.53907	9045.375
1805.72514	8999.075
1808.90913	9007.175
1812.09102	8987.275
1815.27083	8954.075
1818.44856	8931.175
1821.6242	8909.475
1824.79776	8913.675
1827.96924	8868.575
1831.13864	8864.475
1834.30597	8840.075
1837.47122	8834.775
1840.6344	8849.775
1843.7955	8843.475
1846.95454	8829.775
1850.11151	8815.675
1853.26642	8798.975
1856.41926	8807.775
1859.57004	8794.175
1862.71876	8762.975
1865.86542	8752.575
1869.01003	8764.875
1872.15258	8740.775
1875.29308	8734.875
1878.43152	8725.675
1881.56792	8718.875
1884.70227	8721.375
1887.83457	8710.075
1890.96482	8691.675
1894.09304	8676.075
1897.21921	8647.275
1900.34335	8648.375
1903.46544	8626.375
1906.58551	8643.575
1909.70353	8648.175
1912.81953	8587.975
1915.93349	8576.975
1919.04543	8573.275
1922.15534	8551.675
1925.26322	8544.175
1928.36908	8507.375
1931.47292	8491.075
1934.57473	8465.475
1937.67453	8461.075
1940.77232	8435.675
1943.86808	8426.175
1946.96184	8389.375
1950.05358	8374.775
1953.14331	8330.575
1956.23103	8340.775
1959.31675	8283.575
1962.40046	8296.275
1965.48217	8252.475
1968.56188	8217.275
1971.63959	8214.975
1974.7153	8175.975
1977.78901	8153.575
1980.86073	8118.775
1983.93046	8098.375
1986.99819	8070.575
1990.06394	8068.275
1993.1277	8018.575
1996.18947	7998.675
1999.24925	7960.575
2002.30706	7939.975
2005.36288	7920.975
2008.41672	7908.075
2011.46859	7879.875
2014.51848	7854.675
2017.56639	7800.775
2020.61233	7800.475
2023.6563	7797.275
2026.6983	7757.675
2029.73833	7736.875
2032.7764	7713.375
2035.8125	7711.575
2038.84664	7684.175
2041.87881	7672.275
2044.90903	7648.275
2047.93729	7630.975
2050.96359	7629.475
2053.98794	7612.475
2057.01034	7595.875
2060.03078	7599.175
2063.04927	7586.275
2066.06582	7576.975
2069.08042	7581.475
2072.09307	7566.575
2075.10378	7551.175
2078.11255	7568.475
2081.11938	7540.575
2084.12426	7557.375
2087.12722	7545.175
2090.12824	7533.675
2093.12732	7545.175
2096.12447	7550.275
2099.11969	7562.275
2102.11299	7551.975
2105.10435	7534.675
2108.09379	7533.875
2111.08131	7552.675
2114.0669	7531.975
2117.05057	7553.575
2120.03233	7550.875
2123.01216	7571.475
2125.99008	7591.375
2128.96609	7572.675
2131.94018	7590.575
2134.91236	7594.575
2137.88263	7591.175
2140.851	7579.475
2143.81746	7595.275
2146.78201	7583.175
2149.74466	7596.375
2152.7054	7585.175
2155.66425	7581.875
2158.6212	7590.175
2161.57625	7568.775
2164.52941	7566.575
2167.48067	7557.275
2170.43004	7543.975
2173.37752	7544.775
2176.32311	7537.975
2179.26681	7542.875
2182.20863	7535.575
2185.14856	7549.775
2188.08661	7532.175
2191.02278	7527.275
2193.95707	7525.675
2196.88948	7513.675
2199.82001	7503.275
2202.74867	7516.875
2205.67545	7505.475
2208.60037	7479.975
2211.52341	7455.675
2214.44458	7471.775
2217.36388	7441.175
2220.28132	7447.175
2223.1969	7407.975
2226.11061	7402.375
2229.02246	7384.875
2231.93245	7376.875
2234.84058	7363.175
2237.74686	7326.475
2240.65128	7330.475
2243.55385	7332.975
2246.45456	7308.675
2249.35343	7302.975
2252.25044	7291.775
2255.14561	7243.775
2258.03893	7290.575
2260.93041	7253.375
2263.82004	7231.075
2266.70783	7220.775
2269.59378	7229.475
2272.4779	7200.075
2275.36017	7174.275
2278.24061	7154.775
2281.11922	7142.275
2283.996	7127.675
2286.87094	7085.475
2289.74405	7094.875
2292.61534	7079.475
2295.4848	7093.275
2298.35243	7081.975
2301.21824	7078.775
2304.08223	7064.675
2306.94439	7050.075
2309.80474	7048.475
2312.66327	7027.775
2315.51999	7010.775
2318.37489	7027.475
2321.22797	7017.475
2324.07925	7002.975
2326.92871	6984.375
2329.77637	6985.675
2332.62222	6956.275
2335.46626	6957.775
2338.3085	6941.975
2341.14893	6932.575
2343.98756	6925.475
2346.8244	6933.275
2349.65943	6914.675
2352.49267	6905.075
2355.32411	6921.875
2358.15376	6941.175
2360.98161	6936.475
2363.80768	6907.075
2366.63195	6899.675
2369.45444	6905.375
2372.27514	6899.775
2375.09405	6881.275
2377.91118	6887.075
2380.72652	6887.575
2383.54009	6869.075
2386.35187	6854.475
2389.16188	6796.375
2391.97011	6783.875
2394.77657	6781.975
2397.58125	6782.475
2400.38416	6768.475
2403.18529	6728.775
2405.98466	6732.075
2408.78226	6713.975
2411.57809	6703.875
2414.37216	6696.375
2417.16446	6690.975
2419.955	6688.775
2422.74378	6684.475
2425.5308	6645.475
2428.31606	6680.875
2431.09956	6658.875
2433.88131	6660.175
2436.6613	6654.875
2439.43954	6641.975
2442.21603	6626.275
2444.99077	6617.475
2447.76377	6634.675
2450.53501	6621.675
2453.30451	6641.675
2456.07226	6632.275
2458.83827	6601.875
2461.60254	6575.275
2464.36507	6592.775
2467.12586	6584.975
2469.88492	6583.075
2472.64224	6587.575
2475.39782	6577.675
2478.15167	6580.975
2480.90379	6570.575
2483.65417	6588.675
2486.40283	6590.475
2489.14976	6570.475
2491.89497	6558.475
2494.63845	6582.375
2497.3802	6561.075
2500.12024	6563.675
2502.85855	6571.675
2505.59514	6545.975
2508.33002	6533.475
2511.06318	6515.175
2513.79462	6504.975
2516.52435	6498.575
2519.25237	6480.075
2521.97867	6465.775
2524.70327	6457.875
2527.42616	6432.575
2530.14734	6441.775
2532.86681	6443.575
2535.58458	6429.475
2538.30065	6420.675
2541.01501	6407.875
2543.72768	6397.775
2546.43864	6407.175
2549.14791	6378.875
2551.85548	6368.775
2554.56136	6354.775
2557.26554	6347.975
2559.96803	6344.275
2562.66883	6331.575
2565.36794	6330.275
2568.06536	6301.675
2570.7611	6293.575
2573.45514	6287.675
2576.14751	6275.575
2578.83819	6269.575
2581.52719	6262.675
2584.21451	6239.075
2586.90015	6237.475
2589.58411	6236.875
2592.2664	6218.475
2594.94701	6194.675
2597.62594	6171.275
2600.30321	6157.775
2602.9788	6187.375
2605.65273	6172.375
2608.32498	6165.075
2610.99557	6136.075
2613.66449	6143.875
2616.33175	6155.475
2618.99734	6145.775
2621.66128	6125.575
2624.32355	6123.375
2626.98416	6104.975
2629.64311	6097.075
2632.30041	6069.175
2634.95605	6087.175
2637.61004	6087.675
2640.26238	6064.475
2642.91306	6074.975
2645.56209	6065.375
2648.20948	6083.175
2650.85521	6041.475
2653.4993	6050.175
2656.14175	6057.275
2658.78255	6051.175
2661.42171	6046.275
2664.05923	6064.275
2666.6951	6054.375
2669.32934	6061.475
2671.96194	6048.475
2674.59291	6049.475
2677.22224	6030.075
2679.84993	6061.075
2682.476	6041.275
2685.10043	6058.275
2687.72324	6048.875
2690.34441	6036.875
2692.96396	6031.875
2695.58188	6032.075
2698.19818	6039.075
2700.81285	6052.975
2703.4259	6021.075
2706.03733	6026.075
2708.64714	6017.875
2711.25533	6027.475
2713.86191	6030.875
2716.46687	6035.075
2719.07021	6037.575
2721.67194	6036.275
2724.27206	6031.975
2726.87057	6036.775
2729.46747	6044.575
2732.06276	6062.875
2734.65644	6033.075
2737.24852	6024.475
2739.83899	6032.375
2742.42786	6010.875
2745.01513	5995.475
2747.60079	5996.175
2750.18486	5987.075
2752.76733	5983.975
2755.3482	5975.675
2757.92747	5958.975
2760.50515	5968.275
2763.08123	5957.175
2765.65573	5945.375
2768.22863	5941.575
2770.79994	5910.875
2773.36967	5909.575
2775.9378	5917.375
2778.50435	5926.875
2781.06932	5906.175
2783.6327	5897.175
2786.1945	5896.375
2788.75471	5891.475
2791.31335	5884.375
2793.87041	5858.575
2796.42589	5848.275
2798.97979	5821.075
2801.53212	5826.175
2804.08288	5824.675
2806.63206	5798.975
2809.17967	5785.175
2811.72571	5781.275
2814.27018	5776.375
2816.81308	5763.075
2819.35442	5780.475
2821.89419	5737.975
2824.43239	5757.175
2826.96904	5741.775
2829.50412	5764.375
2832.03763	5716.875
2834.56959	5751.675
2837.1	5751.275
2839.62884	5722.075
2842.15613	5763.375
2844.68186	5746.175
2847.20604	5767.075
2849.72867	5769.075
2852.24974	5769.575
2854.76927	5761.075
2857.28724	5744.175
2859.80367	5760.975
2862.31855	5752.875
2864.83189	5734.675
2867.34368	5727.175
2869.85393	5725.475
2872.36264	5706.375
2874.8698	5705.575
2877.37543	5713.575
2879.87952	5707.275
2882.38207	5700.775
2884.88308	5697.675
2887.38256	5708.175
2889.88051	5692.175
2892.37692	5687.575
2894.8718	5703.475
2897.36515	5711.275
2899.85698	5716.475
2902.34727	5718.475
2904.83604	5724.775
2907.32328	5730.275
2909.809	5741.575
2912.29319	5745.875
2914.77587	5743.475
2917.25702	5755.375
2919.73665	5752.875
2922.21476	5739.375
2924.69136	5751.675
2927.16644	5735.175
2929.64	5736.675
2932.11205	5713.675
2934.58258	5720.575
2937.05161	5700.375
2939.51912	5711.275
2941.98513	5681.275
2944.44962	5672.275
2946.91261	5662.075
2949.37409	5677.375
2951.83407	5662.375
2954.29254	5650.275
2956.74951	5646.475
2959.20498	5636.875
2961.65895	5612.075
2964.11142	5594.975
2966.56239	5589.775
2969.01186	5609.275
2971.45984	5578.375
2973.90632	5571.275
2976.35131	5548.175
2978.7948	5548.175
2981.23681	5522.475
2983.67732	5522.775
2986.11635	5504.175
2988.55388	5489.875
2990.98993	5471.975
2993.4245	5459.875
2995.85758	5452.275
2998.28917	5440.175
3000.71928	5444.975
3003.14791	5443.575
3005.57506	5439.375
3008.00073	5401.375
3010.42493	5400.075
3012.84764	5388.875
3015.26888	5396.675
3017.68865	5402.575
3020.10694	5382.275
3022.52376	5361.775
3024.9391	5362.175
3027.35298	5351.975
3029.76539	5336.675
3032.17632	5314.275
3034.5858	5308.175
3036.9938	5316.575
3039.40034	5299.075
3041.80542	5303.775
3044.20903	5281.075
3046.61118	5298.475
3049.01187	5262.075
3051.4111	5269.275
3053.80888	5256.575
3056.20519	5246.675
3058.60005	5235.075
3060.99345	5251.675
3063.3854	5250.575
3065.7759	5246.575
3068.16494	5223.275
3070.55254	5204.275
3072.93868	5208.875
3075.32338	5182.775
3077.70662	5166.975
3080.08842	5141.275
3082.46878	5165.775
3084.84769	5147.975
3087.22515	5147.575
3089.60118	5141.175
3091.97576	5160.275
3094.3489	5141.675
3096.72061	5156.775
3099.09087	5158.075
3101.4597	5147.975
3103.82709	5154.275
3106.19305	5144.975
3108.55757	5141.475
3110.92066	5129.875
3113.28232	5113.775
3115.64255	5133.775
3118.00134	5106.675
3120.35871	5101.075
3122.71466	5074.175
3125.06917	5102.475
3127.42226	5082.975
3129.77393	5073.775
3132.12417	5083.575
3134.47299	5081.975
3136.82039	5063.775
3139.16636	5077.875
3141.51092	5069.975
3143.85406	5094.775
3146.19579	5090.675
3148.53609	5090.275
3150.87499	5082.475
3153.21246	5100.275
3155.54853	5126.675
3157.88318	5107.575
3160.21642	5117.275
3162.54826	5123.875
3164.87868	5126.875
3167.2077	5126.075
3169.5353	5115.375
3171.86151	5115.875
3174.18631	5125.875
3176.5097	5128.775
3178.83169	5100.475
3181.15228	5106.075
3183.47147	5103.075
3185.78926	5100.075
3188.10565	5072.875
3190.42065	5078.775
