Data from AgNPs_FTO_APTES_UA_50uM_CRN_2uM_R6G_10uM_NaF_0.1M_Addition_RamanShift__18__12-15-04-782.txt Node

Date: Mon Feb 21 12:15:04 GMT 2022
User: TCL
Spectrometer: QEP01345
Trigger mode: 4
Integration Time (sec): 7.000000E0
Scans to average: 10
Electric dark correction enabled: true
Nonlinearity correction enabled: false
Boxcar width: 0
XAxis mode: Raman Shifts
Number of Pixels in Spectrum: 1044
>>>>>Begin Spectral Data<<<<<
46.04893	0.975
50.45542	-1.325
54.85868	-0.625
59.25871	-1.825
63.6555	72.275
68.04907	78.175
72.43941	81.575
76.82654	85.175
81.21044	87.875
85.59113	92.675
89.96862	94.875
94.34289	97.575
98.71396	99.875
103.08183	108.275
107.4465	105.675
111.80798	109.675
116.16626	113.275
120.52136	115.775
124.87327	119.275
129.222	117.275
133.56755	128.675
137.90993	143.175
142.24913	151.375
146.58517	169.775
150.91804	196.375
155.24774	231.375
159.57429	291.475
163.89768	369.875
168.21792	495.475
172.53501	675.375
176.84895	941.875
181.15975	1326.275
185.46741	1859.775
189.77193	2564.575
194.07331	3430.175
198.37157	4434.375
202.6667	5465.075
206.9587	6490.275
211.24758	7500.575
215.53334	8560.175
219.81599	9687.975
224.09553	10920.175
228.37195	12298.575
232.64527	13834.775
236.91549	15411.175
241.18261	16928.475
245.44663	18311.475
249.70755	19465.175
253.96539	20478.275
258.22014	21351.975
262.4718	22084.375
266.72039	22593.175
270.96589	22867.375
275.20832	22841.575
279.44768	22677.475
283.68397	22376.475
287.91719	22176.975
292.14735	22099.675
296.37445	22158.575
300.59849	22443.275
304.81948	22762.075
309.03742	22964.175
313.25231	22779.275
317.46415	22213.875
321.67296	21424.675
325.87872	20706.475
330.08145	20343.575
334.28114	20297.775
338.47781	20505.375
342.67145	20772.375
346.86207	21204.175
351.04966	21822.075
355.23424	22588.175
359.4158	23101.875
363.59435	23488.375
367.76989	23704.775
371.94243	23791.175
376.11196	23828.775
380.27849	23896.875
384.44203	23940.475
388.60257	23929.875
392.76012	24035.575
396.91468	24300.575
401.06626	24693.975
405.21485	24965.475
409.36047	24792.475
413.50311	24193.375
417.64277	23618.175
421.77947	23412.175
425.9132	23336.875
430.04396	23387.275
434.17176	23491.975
438.2966	23696.775
442.41849	24146.375
446.53742	24771.575
450.6534	25483.175
454.76644	26044.975
458.87653	26225.575
462.98368	26073.275
467.08789	25724.575
471.18916	25390.175
475.2875	25050.075
479.38291	24757.575
483.4754	24523.575
487.56496	24276.975
491.6516	23963.175
495.73531	23671.775
499.81612	23552.275
503.89401	23662.675
507.96899	23820.975
512.04106	23800.675
516.11023	23765.275
520.1765	23668.475
524.23987	23514.875
528.30034	23339.275
532.35792	23143.875
536.41261	22895.675
540.46441	22562.675
544.51333	22469.975
548.55936	22703.075
552.60252	23164.475
556.64279	23745.975
560.6802	24192.875
564.71473	24492.175
568.7464	25037.875
572.7752	25665.875
576.80114	25843.175
580.82422	25920.075
584.84444	26168.775
588.86181	26491.975
592.87633	26904.875
596.888	27021.075
600.89682	26933.275
604.9028	27991.975
608.90594	31679.075
612.90624	35941.875
616.90371	33874.375
620.89834	27113.975
624.89015	23926.975
628.87913	23429.875
632.86528	23574.375
636.84862	23664.375
640.82913	23341.275
644.80683	22579.975
648.78172	22072.775
652.75379	21962.075
656.72306	22405.775
660.68952	23036.875
664.65319	22896.575
668.61405	22297.775
672.57211	22122.675
676.52738	22222.175
680.47986	22223.475
684.42955	22055.075
688.37646	22044.275
692.32058	22139.175
696.26192	22365.075
700.20048	22592.675
704.13626	22718.675
708.06928	22644.475
711.99952	22471.475
715.927	22422.075
719.85171	22544.875
723.77365	22529.675
727.69284	22282.075
731.60928	21989.475
735.52295	21861.975
739.43388	21865.475
743.34206	21979.775
747.24749	22082.775
751.15017	22210.375
755.05012	22589.875
758.94733	23308.275
762.8418	24801.175
766.73354	27354.975
770.62254	29879.575
774.50882	30682.875
778.39237	29279.375
782.27321	26727.975
786.15132	24399.775
790.02671	22970.675
793.89938	22252.275
797.76935	21985.275
801.6366	21843.475
805.50115	21801.375
809.36299	21664.175
813.22213	21513.075
817.07857	21463.675
820.93231	21352.875
824.78336	21271.675
828.63172	21215.275
832.47738	21202.775
836.32036	21178.075
840.16066	21195.975
843.99827	21239.675
847.8332	21206.775
851.66546	21181.575
855.49504	21130.775
859.32195	21095.375
863.1462	21089.875
866.96777	21025.175
870.78668	21006.875
874.60293	21024.475
878.41652	21057.475
882.22745	21175.775
886.03573	21202.575
889.84136	21218.375
893.64433	21146.975
897.44466	21061.375
901.24235	20983.375
905.0374	20839.775
908.8298	20711.175
912.61957	20704.275
916.40671	20804.275
920.19121	20977.175
923.97308	21267.975
927.75233	21398.375
931.52895	21344.275
935.30295	21124.375
939.07433	20765.575
942.84309	20377.975
946.60924	20228.375
950.37278	20149.875
954.13371	20128.675
957.89203	20055.975
961.64774	19992.275
965.40086	19973.075
969.15137	19936.575
972.89929	19878.775
976.64461	19782.675
980.38733	19809.675
984.12747	19835.475
987.86502	20023.475
991.59999	20274.075
995.33237	20583.175
999.06217	21164.675
1002.78939	21768.775
1006.51404	22241.475
1010.23611	22592.475
1013.95561	22803.475
1017.67255	22867.075
1021.38692	22543.875
1025.09872	22219.775
1028.80796	22135.675
1032.51465	22353.275
1036.21877	22684.775
1039.92035	22813.375
1043.61937	22698.375
1047.31584	22394.075
1051.00976	22029.075
1054.70114	21835.475
1058.38998	21840.475
1062.07627	21976.275
1065.76003	22111.575
1069.44126	22286.375
1073.11995	22633.075
1076.79611	23033.575
1080.46974	23277.075
1084.14085	23667.875
1087.80943	24022.175
1091.47549	24271.875
1095.13903	24225.475
1098.80005	23816.075
1102.45857	23286.875
1106.11456	22914.675
1109.76805	22843.575
1113.41903	23008.375
1117.06751	23275.575
1120.71348	23712.175
1124.35696	24183.775
1127.99793	24579.975
1131.63641	24708.075
1135.2724	24364.675
1138.90589	23962.175
1142.5369	23657.875
1146.16542	23583.875
1149.79145	23570.175
1153.415	23708.275
1157.03607	23947.675
1160.65467	24470.775
1164.27079	25417.875
1167.88443	26846.675
1171.49561	28624.575
1175.10432	31189.575
1178.71056	34474.675
1182.31434	37383.675
1185.91565	38763.975
1189.51451	38400.575
1193.11091	36965.775
1196.70485	35040.775
1200.29634	33372.075
1203.88538	31963.575
1207.47197	30754.375
1211.05612	29785.475
1214.63782	29085.375
1218.21708	28713.975
1221.79391	28479.475
1225.36829	28483.175
1228.94024	28210.275
1232.50976	27665.075
1236.07685	27240.175
1239.6415	26973.875
1243.20374	26973.475
1246.76355	27084.575
1250.32093	27414.575
1253.8759	28025.575
1257.42845	28790.475
1260.97859	29748.675
1264.52631	30774.675
1268.07163	31783.575
1271.61453	32746.075
1275.15503	33679.875
1278.69312	34483.275
1282.22882	35222.275
1285.76211	36035.975
1289.29301	37068.775
1292.82151	38382.775
1296.34761	40001.475
1299.87133	42129.875
1303.39266	44916.475
1306.9116	48337.975
1310.42815	51793.775
1313.94233	53848.075
1317.45412	53628.775
1320.96354	52011.875
1324.47058	50104.475
1327.97525	48458.275
1331.47754	47311.175
1334.97747	46864.175
1338.47502	46654.175
1341.97022	46688.175
1345.46305	46604.675
1348.95352	46600.075
1352.44163	47137.275
1355.92738	48749.775
1359.41078	51921.175
1362.89183	55188.175
1366.37053	54190.975
1369.84688	48492.075
1373.32088	42341.375
1376.79254	38225.075
1380.26186	36388.175
1383.72883	35789.675
1387.19347	35380.675
1390.65578	34832.175
1394.11575	34584.875
1397.57339	34687.375
1401.0287	35231.775
1404.48168	35723.975
1407.93234	35899.775
1411.38068	35718.375
1414.82669	34960.475
1418.27039	33969.475
1421.71177	32695.275
1425.15083	31757.475
1428.58758	31241.675
1432.02203	31451.775
1435.45416	32067.575
1438.88399	32793.575
1442.31151	33323.575
1445.73673	33692.675
1449.15965	34100.275
1452.58027	34294.875
1455.9986	34315.375
1459.41463	34574.575
1462.82837	35075.775
1466.23982	35764.975
1469.64898	36376.175
1473.05586	36755.275
1476.46045	36737.675
1479.86276	36547.875
1483.26279	36386.675
1486.66054	36417.275
1490.05602	36746.475
1493.44922	37351.575
1496.84016	38230.775
1500.22882	39766.375
1503.61521	42203.075
1506.99934	45121.175
1510.38121	47485.675
1513.76081	47898.775
1517.13816	45796.675
1520.51324	42308.375
1523.88607	39264.375
1527.25665	37339.875
1530.62498	36509.275
1533.99105	36077.675
1537.35488	35629.275
1540.71647	35118.875
1544.07581	34600.875
1547.4329	33931.875
1550.78776	33398.875
1554.14038	33030.575
1557.49077	32957.675
1560.83892	33044.075
1564.18484	33330.575
1567.52853	33746.775
1570.86999	34253.675
1574.20922	34718.975
1577.54624	34921.275
1580.88103	34451.575
1584.2136	33945.475
1587.54395	34257.875
1590.87208	35680.375
1594.19801	37946.175
1597.52172	40331.875
1600.84321	41139.075
1604.16251	39548.775
1607.47959	36654.275
1610.79447	33513.775
1614.10715	30584.575
1617.41763	28191.975
1620.7259	26569.275
1624.03199	25693.375
1627.33587	25664.175
1630.63757	26380.575
1633.93707	28137.175
1637.23439	30937.075
1640.52951	35001.575
1643.82246	39848.075
1647.11321	43810.175
1650.40179	44993.075
1653.68819	42084.875
1656.97241	36205.575
1660.25446	30375.075
1663.53433	26193.375
1666.81203	23562.875
1670.08756	22041.275
1673.36092	21067.575
1676.63211	20479.075
1679.90115	20037.875
1683.16801	19678.975
1686.43272	19457.175
1689.69527	19238.475
1692.95567	19051.475
1696.2139	18874.275
1699.46999	18675.375
1702.72392	18624.875
1705.97571	18663.675
1709.22535	18701.775
1712.47284	18717.675
1715.71819	18713.675
1718.96139	18669.175
1722.20246	18583.575
1725.44139	18477.975
1728.67818	18365.975
1731.91284	18277.175
1735.14537	18167.375
1738.37576	18060.275
1741.60403	18005.475
1744.83017	17928.275
1748.05418	17839.975
1751.27607	17746.975
1754.49584	17635.375
1757.71349	17588.475
1760.92903	17511.575
1764.14244	17551.975
1767.35375	17530.775
1770.56294	17469.675
1773.77002	17462.975
1776.97499	17480.175
1780.17785	17523.075
1783.37861	17473.975
1786.57727	17486.675
1789.77382	17449.875
1792.96828	17442.175
1796.16064	17408.875
1799.3509	17368.875
1802.53907	17327.375
1805.72514	17230.275
1808.90913	17204.375
1812.09102	17189.575
1815.27083	17152.375
1818.44856	17125.075
1821.6242	17120.475
1824.79776	17113.175
1827.96924	17091.475
1831.13864	17081.875
1834.30597	17078.275
1837.47122	17078.375
1840.6344	17039.675
1843.7955	17028.475
1846.95454	17025.675
1850.11151	17031.875
1853.26642	17062.675
1856.41926	17020.775
1859.57004	17040.475
1862.71876	17022.575
1865.86542	16968.275
1869.01003	16953.375
1872.15258	16975.675
1875.29308	16950.575
1878.43152	16942.575
1881.56792	16942.275
1884.70227	16918.275
1887.83457	16925.875
1890.96482	16890.075
1894.09304	16869.275
1897.21921	16859.275
1900.34335	16838.975
1903.46544	16782.875
1906.58551	16766.675
1909.70353	16769.375
1912.81953	16740.775
1915.93349	16705.575
1919.04543	16701.775
1922.15534	16661.275
1925.26322	16625.075
1928.36908	16564.775
1931.47292	16502.675
1934.57473	16449.475
1937.67453	16431.875
1940.77232	16399.075
1943.86808	16354.075
1946.96184	16272.375
1950.05358	16241.875
1953.14331	16174.075
1956.23103	16145.575
1959.31675	16062.275
1962.40046	16029.675
1965.48217	15977.575
1968.56188	15957.675
1971.63959	15908.675
1974.7153	15874.275
1977.78901	15801.875
1980.86073	15779.475
1983.93046	15733.775
1986.99819	15636.275
1990.06394	15653.975
1993.1277	15591.975
1996.18947	15520.275
1999.24925	15483.575
2002.30706	15413.775
2005.36288	15374.575
2008.41672	15307.875
2011.46859	15293.675
2014.51848	15228.475
2017.56639	15187.875
2020.61233	15161.575
2023.6563	15141.575
2026.6983	15140.075
2029.73833	15094.075
2032.7764	15066.075
2035.8125	15023.475
2038.84664	15026.075
2041.87881	15010.475
2044.90903	14969.475
2047.93729	14959.275
2050.96359	14926.675
2053.98794	14881.675
2057.01034	14865.375
2060.03078	14861.275
2063.04927	14857.475
2066.06582	14838.875
2069.08042	14816.475
2072.09307	14823.075
2075.10378	14804.375
2078.11255	14807.575
2081.11938	14837.575
2084.12426	14792.675
2087.12722	14810.775
2090.12824	14785.175
2093.12732	14791.775
2096.12447	14820.875
2099.11969	14780.675
2102.11299	14803.275
2105.10435	14803.275
2108.09379	14825.875
2111.08131	14813.875
2114.0669	14831.275
2117.05057	14834.275
2120.03233	14843.875
2123.01216	14847.375
2125.99008	14874.075
2128.96609	14889.575
2131.94018	14879.475
2134.91236	14905.775
2137.88263	14899.775
2140.851	14891.875
2143.81746	14938.075
2146.78201	14902.875
2149.74466	14912.675
2152.7054	14899.875
2155.66425	14936.575
2158.6212	14922.975
2161.57625	14909.875
2164.52941	14899.875
2167.48067	14885.375
2170.43004	14868.775
2173.37752	14840.675
2176.32311	14870.475
2179.26681	14899.075
2182.20863	14863.375
2185.14856	14902.275
2188.08661	14905.475
2191.02278	14893.375
2193.95707	14874.475
2196.88948	14827.375
2199.82001	14835.075
2202.74867	14824.275
2205.67545	14833.875
2208.60037	14769.675
2211.52341	14781.375
2214.44458	14754.875
2217.36388	14738.675
2220.28132	14728.075
2223.1969	14716.575
2226.11061	14668.875
2229.02246	14655.875
2231.93245	14650.775
2234.84058	14578.975
2237.74686	14572.675
2240.65128	14581.875
2243.55385	14537.675
2246.45456	14542.275
2249.35343	14529.575
2252.25044	14498.775
2255.14561	14486.375
2258.03893	14477.175
2260.93041	14412.075
2263.82004	14393.575
2266.70783	14425.675
2269.59378	14380.775
2272.4779	14367.575
2275.36017	14304.975
2278.24061	14246.975
2281.11922	14209.775
2283.996	14223.275
2286.87094	14224.975
2289.74405	14167.475
2292.61534	14154.075
2295.4848	14147.075
2298.35243	14149.475
2301.21824	14137.875
2304.08223	14135.275
2306.94439	14156.175
2309.80474	14166.575
2312.66327	14105.975
2315.51999	14129.375
2318.37489	14126.475
2321.22797	14102.775
2324.07925	14114.375
2326.92871	14099.775
2329.77637	14078.275
2332.62222	14098.275
2335.46626	14061.975
2338.3085	14074.575
2341.14893	14050.975
2343.98756	14087.075
2346.8244	14104.075
2349.65943	14082.975
2352.49267	14083.475
2355.32411	14090.975
2358.15376	14080.375
2360.98161	14041.575
2363.80768	14073.175
2366.63195	14047.375
2369.45444	14031.075
2372.27514	13982.275
2375.09405	13981.775
2377.91118	13987.275
2380.72652	13953.475
2383.54009	13908.975
2386.35187	13881.575
2389.16188	13802.975
2391.97011	13815.075
2394.77657	13817.375
2397.58125	13750.575
2400.38416	13745.875
2403.18529	13740.375
2405.98466	13728.675
2408.78226	13691.775
2411.57809	13666.075
2414.37216	13637.275
2417.16446	13628.775
2419.955	13614.375
2422.74378	13609.275
2425.5308	13578.575
2428.31606	13631.075
2431.09956	13588.075
2433.88131	13599.175
2436.6613	13605.675
2439.43954	13582.375
2442.21603	13592.975
2444.99077	13590.175
2447.76377	13633.975
2450.53501	13596.775
2453.30451	13581.375
2456.07226	13594.575
2458.83827	13573.075
2461.60254	13582.675
2464.36507	13547.275
2467.12586	13546.275
2469.88492	13564.375
2472.64224	13584.475
2475.39782	13569.275
2478.15167	13595.075
2480.90379	13616.475
2483.65417	13627.775
2486.40283	13641.875
2489.14976	13635.275
2491.89497	13616.675
2494.63845	13650.275
2497.3802	13633.675
2500.12024	13634.175
2502.85855	13606.375
2505.59514	13600.475
2508.33002	13574.875
2511.06318	13576.375
2513.79462	13556.875
2516.52435	13502.875
2519.25237	13510.075
2521.97867	13485.375
2524.70327	13483.575
2527.42616	13518.275
2530.14734	13463.975
2532.86681	13465.875
2535.58458	13487.275
2538.30065	13471.275
2541.01501	13473.975
2543.72768	13447.375
2546.43864	13451.375
2549.14791	13434.975
2551.85548	13467.575
2554.56136	13400.675
2557.26554	13415.075
2559.96803	13374.375
2562.66883	13381.275
2565.36794	13352.675
2568.06536	13331.875
2570.7611	13307.975
2573.45514	13326.975
2576.14751	13299.275
2578.83819	13301.975
2581.52719	13314.675
2584.21451	13311.675
2586.90015	13303.475
2589.58411	13266.275
2592.2664	13219.275
2594.94701	13235.675
2597.62594	13266.175
2600.30321	13246.775
2602.9788	13218.075
2605.65273	13209.975
2608.32498	13238.775
2610.99557	13217.475
2613.66449	13252.275
2616.33175	13235.375
2618.99734	13203.975
2621.66128	13206.775
2624.32355	13204.275
2626.98416	13221.475
2629.64311	13209.175
2632.30041	13248.175
2634.95605	13195.675
2637.61004	13158.575
2640.26238	13144.175
2642.91306	13150.375
2645.56209	13174.275
2648.20948	13118.075
2650.85521	13125.475
2653.4993	13136.075
2656.14175	13145.975
2658.78255	13191.975
2661.42171	13168.575
2664.05923	13198.875
2666.6951	13169.075
2669.32934	13192.575
2671.96194	13176.975
2674.59291	13200.875
2677.22224	13224.375
2679.84993	13226.775
2682.476	13182.775
2685.10043	13202.175
2687.72324	13205.075
2690.34441	13154.575
2692.96396	13148.875
2695.58188	13140.575
2698.19818	13125.875
2700.81285	13119.275
2703.4259	13075.475
2706.03733	12998.975
2708.64714	13091.675
2711.25533	13156.775
2713.86191	13139.675
2716.46687	13177.975
2719.07021	13226.975
2721.67194	13205.975
2724.27206	13219.675
2726.87057	13238.775
2729.46747	13229.875
2732.06276	13243.175
2734.65644	13241.175
2737.24852	13224.575
2739.83899	13203.775
2742.42786	13221.975
2745.01513	13219.175
2747.60079	13215.075
2750.18486	13215.175
2752.76733	13160.775
2755.3482	13186.375
2757.92747	13182.275
2760.50515	13165.175
2763.08123	13153.875
2765.65573	13119.875
2768.22863	13125.175
2770.79994	13113.475
2773.36967	13132.875
2775.9378	13100.875
2778.50435	13091.175
2781.06932	13074.775
2783.6327	13112.375
2786.1945	13128.075
2788.75471	13115.675
2791.31335	13071.775
2793.87041	13080.575
2796.42589	13022.575
2798.97979	13028.275
2801.53212	12992.875
2804.08288	13003.375
2806.63206	12977.675
2809.17967	12941.675
2811.72571	12906.175
2814.27018	12871.175
2816.81308	12866.075
2819.35442	12885.675
2821.89419	12868.475
2824.43239	12867.175
2826.96904	12839.875
2829.50412	12819.575
2832.03763	12779.975
2834.56959	12804.075
2837.1	12788.975
2839.62884	12752.475
2842.15613	12724.575
2844.68186	12699.475
2847.20604	12718.075
2849.72867	12727.875
2852.24974	12730.775
2854.76927	12720.175
2857.28724	12693.775
2859.80367	12706.175
2862.31855	12675.075
2864.83189	12661.275
2867.34368	12689.975
2869.85393	12669.875
2872.36264	12744.375
2874.8698	12697.275
2877.37543	12714.075
2879.87952	12732.575
2882.38207	12664.375
2884.88308	12702.175
2887.38256	12671.275
2889.88051	12680.675
2892.37692	12682.775
2894.8718	12688.975
2897.36515	12740.875
2899.85698	12720.875
2902.34727	12746.975
2904.83604	12764.775
2907.32328	12768.775
2909.809	12763.975
2912.29319	12801.975
2914.77587	12791.575
2917.25702	12776.675
2919.73665	12783.575
2922.21476	12766.275
2924.69136	12751.375
2927.16644	12764.475
2929.64	12719.475
2932.11205	12686.975
2934.58258	12661.375
2937.05161	12662.875
2939.51912	12644.975
2941.98513	12638.875
2944.44962	12601.775
2946.91261	12571.675
2949.37409	12606.875
2951.83407	12599.875
2954.29254	12611.975
2956.74951	12578.975
2959.20498	12579.375
2961.65895	12553.275
2964.11142	12575.875
2966.56239	12553.575
2969.01186	12517.975
2971.45984	12511.875
2973.90632	12485.275
2976.35131	12463.375
2978.7948	12424.075
2981.23681	12425.875
2983.67732	12430.375
2986.11635	12361.075
2988.55388	12312.175
2990.98993	12345.475
2993.4245	12325.475
2995.85758	12268.075
2998.28917	12228.775
3000.71928	12206.675
3003.14791	12186.275
3005.57506	12183.375
3008.00073	12133.775
3010.42493	12129.175
3012.84764	12096.975
3015.26888	12109.975
3017.68865	12086.675
3020.10694	12067.675
3022.52376	12030.275
3024.9391	12019.775
3027.35298	11984.575
3029.76539	11996.975
3032.17632	12007.775
3034.5858	11968.575
3036.9938	11965.475
3039.40034	11958.375
3041.80542	11938.875
3044.20903	11924.875
3046.61118	11911.375
3049.01187	11911.875
3051.4111	11874.475
3053.80888	11856.175
3056.20519	11825.875
3058.60005	11790.675
3060.99345	11782.375
3063.3854	11734.775
3065.7759	11723.475
3068.16494	11678.875
3070.55254	11658.375
3072.93868	11659.875
3075.32338	11572.975
3077.70662	11576.975
3080.08842	11552.075
3082.46878	11543.475
3084.84769	11519.975
3087.22515	11497.875
3089.60118	11507.675
3091.97576	11477.475
3094.3489	11465.975
3096.72061	11494.975
3099.09087	11491.275
3101.4597	11478.075
3103.82709	11454.475
3106.19305	11426.775
3108.55757	11428.075
3110.92066	11377.175
3113.28232	11401.975
3115.64255	11344.375
3118.00134	11310.575
3120.35871	11321.875
3122.71466	11275.275
3125.06917	11265.975
3127.42226	11239.275
