Data from AgNPs_FTO_APTES_UA_50uM_CRN_5uM_R6G_10uM_NaF_0.1M_Addition_RamanShift__10__12-44-14-820.txt Node

Date: Mon Feb 21 12:44:14 GMT 2022
User: TCL
Spectrometer: QEP01345
Trigger mode: 4
Integration Time (sec): 7.000000E0
Scans to average: 10
Electric dark correction enabled: true
Nonlinearity correction enabled: false
Boxcar width: 0
XAxis mode: Raman Shifts
Number of Pixels in Spectrum: 1044
>>>>>Begin Spectral Data<<<<<
46.04893	-0.225
50.45542	-0.025
54.85868	-0.225
59.25871	-1.525
63.6555	47.975
68.04907	53.975
72.43941	52.875
76.82654	58.075
81.21044	61.775
85.59113	63.475
89.96862	64.075
94.34289	67.875
98.71396	69.575
103.08183	72.075
107.4465	74.275
111.80798	73.775
116.16626	74.575
120.52136	73.775
124.87327	83.275
129.222	77.875
133.56755	86.175
137.90993	91.975
142.24913	96.675
146.58517	107.675
150.91804	122.375
155.24774	143.075
159.57429	170.275
163.89768	209.775
168.21792	275.875
172.53501	375.075
176.84895	519.575
181.15975	724.875
185.46741	1017.475
189.77193	1412.575
194.07331	1863.875
198.37157	2421.275
202.6667	2997.375
206.9587	3552.275
211.24758	4124.175
215.53334	4673.275
219.81599	5288.975
224.09553	5929.575
228.37195	6668.475
232.64527	7485.775
236.91549	8324.675
241.18261	9176.175
245.44663	9960.175
249.70755	10645.175
253.96539	11204.675
258.22014	11653.075
262.4718	12021.275
266.72039	12213.075
270.96589	12296.875
275.20832	12260.375
279.44768	12089.475
283.68397	11868.875
287.91719	11674.975
292.14735	11538.475
296.37445	11450.875
300.59849	11441.375
304.81948	11481.075
309.03742	11477.075
313.25231	11442.975
317.46415	11267.275
321.67296	11039.075
325.87872	10871.475
330.08145	10791.475
334.28114	10801.675
338.47781	10837.975
342.67145	10963.375
346.86207	11149.375
351.04966	11358.175
355.23424	11626.475
359.4158	11832.175
363.59435	11941.875
367.76989	12051.875
371.94243	12070.675
376.11196	12079.975
380.27849	12111.575
384.44203	12158.475
388.60257	12252.575
392.76012	12330.475
396.91468	12457.275
401.06626	12610.475
405.21485	12705.075
409.36047	12664.375
413.50311	12445.875
417.64277	12252.775
421.77947	12222.975
425.9132	12251.175
430.04396	12287.075
434.17176	12360.975
438.2966	12453.875
442.41849	12685.075
446.53742	13002.275
450.6534	13346.675
454.76644	13518.475
458.87653	13585.575
462.98368	13576.875
467.08789	13462.275
471.18916	13308.375
475.2875	13131.575
479.38291	12974.575
483.4754	12886.975
487.56496	12756.675
491.6516	12673.175
495.73531	12573.075
499.81612	12545.075
503.89401	12605.875
507.96899	12657.575
512.04106	12658.475
516.11023	12613.875
520.1765	12540.975
524.23987	12497.575
528.30034	12453.775
532.35792	12370.075
536.41261	12245.675
540.46441	12120.875
544.51333	12069.175
548.55936	12149.475
552.60252	12339.475
556.64279	12598.375
560.6802	12754.075
564.71473	12829.975
568.7464	13038.175
572.7752	13343.875
576.80114	13737.275
580.82422	14025.575
584.84444	14424.675
588.86181	15022.575
592.87633	15718.875
596.888	16035.675
600.89682	15596.075
604.9028	15349.175
608.90594	16279.375
612.90624	17407.875
616.90371	16375.675
620.89834	13894.975
624.89015	12778.175
628.87913	12655.875
632.86528	12772.375
636.84862	12813.275
640.82913	12672.175
644.80683	12325.875
648.78172	12120.975
652.75379	12113.575
656.72306	12268.875
660.68952	12515.375
664.65319	12450.975
668.61405	12262.275
672.57211	12219.975
676.52738	12324.475
680.47986	12359.275
684.42955	12356.175
688.37646	12292.375
692.32058	12319.775
696.26192	12442.275
700.20048	12536.275
704.13626	12602.275
708.06928	12550.475
711.99952	12506.975
715.927	12432.875
719.85171	12485.175
723.77365	12442.775
727.69284	12285.575
731.60928	12133.375
735.52295	12110.075
739.43388	12137.775
743.34206	12167.975
747.24749	12250.975
751.15017	12384.475
755.05012	12539.175
758.94733	12836.075
762.8418	13471.875
766.73354	14428.175
770.62254	15437.975
774.50882	15690.075
778.39237	15107.375
782.27321	14122.775
786.15132	13289.375
790.02671	12765.875
793.89938	12428.575
797.76935	12249.775
801.6366	12166.175
805.50115	12111.675
809.36299	12038.575
813.22213	11966.075
817.07857	11927.075
820.93231	11908.175
824.78336	11863.775
828.63172	11816.075
832.47738	11838.575
836.32036	11834.975
840.16066	11817.675
843.99827	11820.575
847.8332	11821.575
851.66546	11813.075
855.49504	11818.075
859.32195	11835.475
863.1462	11815.075
866.96777	11789.775
870.78668	11816.375
874.60293	11797.175
878.41652	11854.775
882.22745	11890.975
886.03573	11973.675
889.84136	11949.175
893.64433	11934.675
897.44466	11916.775
901.24235	11911.775
905.0374	11870.975
908.8298	11839.975
912.61957	11785.575
916.40671	11860.175
920.19121	11992.175
923.97308	12112.475
927.75233	12161.575
931.52895	12130.475
935.30295	11952.675
939.07433	11716.775
942.84309	11564.175
946.60924	11471.375
950.37278	11429.375
954.13371	11415.675
957.89203	11422.975
961.64774	11403.675
965.40086	11417.575
969.15137	11406.975
972.89929	11376.375
976.64461	11353.775
980.38733	11328.475
984.12747	11368.175
987.86502	11394.375
991.59999	11438.775
995.33237	11563.575
999.06217	11731.275
1002.78939	11951.175
1006.51404	12198.875
1010.23611	12452.475
1013.95561	12569.675
1017.67255	12580.075
1021.38692	12462.675
1025.09872	12265.675
1028.80796	12108.875
1032.51465	12033.975
1036.21877	12067.075
1039.92035	12110.075
1043.61937	12139.375
1047.31584	12151.575
1051.00976	12163.875
1054.70114	12188.475
1058.38998	12223.775
1062.07627	12313.375
1065.76003	12412.475
1069.44126	12565.275
1073.11995	12821.475
1076.79611	13016.175
1080.46974	13177.375
1084.14085	13276.975
1087.80943	13387.175
1091.47549	13521.175
1095.13903	13517.975
1098.80005	13347.475
1102.45857	13058.675
1106.11456	12816.375
1109.76805	12729.675
1113.41903	12736.175
1117.06751	12831.375
1120.71348	12988.375
1124.35696	13156.275
1127.99793	13321.375
1131.63641	13429.675
1135.2724	13368.275
1138.90589	13287.275
1142.5369	13262.175
1146.16542	13272.975
1149.79145	13382.575
1153.415	13453.275
1157.03607	13574.675
1160.65467	13772.975
1164.27079	14196.075
1167.88443	14780.075
1171.49561	15514.875
1175.10432	16608.875
1178.71056	17924.175
1182.31434	19092.275
1185.91565	19605.275
1189.51451	19612.875
1193.11091	19175.675
1196.70485	18495.175
1200.29634	17732.675
1203.88538	17067.875
1207.47197	16579.375
1211.05612	16203.775
1214.63782	15912.275
1218.21708	15683.575
1221.79391	15469.375
1225.36829	15444.475
1228.94024	15370.475
1232.50976	15176.975
1236.07685	14915.875
1239.6415	14752.875
1243.20374	14669.075
1246.76355	14654.475
1250.32093	14778.675
1253.8759	15022.875
1257.42845	15419.875
1260.97859	15872.875
1264.52631	16398.175
1268.07163	16895.475
1271.61453	17381.475
1275.15503	17804.675
1278.69312	18229.475
1282.22882	18740.275
1285.76211	19291.975
1289.29301	19962.975
1292.82151	20788.575
1296.34761	21629.875
1299.87133	22626.975
1303.39266	23722.075
1306.9116	24821.875
1310.42815	25735.075
1313.94233	26192.975
1317.45412	25899.675
1320.96354	25244.175
1324.47058	24513.975
1327.97525	23896.475
1331.47754	23456.975
1334.97747	23206.375
1338.47502	23011.975
1341.97022	22953.775
1345.46305	22954.575
1348.95352	23094.975
1352.44163	23465.675
1355.92738	24204.175
1359.41078	25429.575
1362.89183	26643.675
1366.37053	26624.375
1369.84688	24751.175
1373.32088	22154.075
1376.79254	20236.675
1380.26186	19296.775
1383.72883	18929.575
1387.19347	18670.975
1390.65578	18362.775
1394.11575	18123.775
1397.57339	18110.375
1401.0287	18178.975
1404.48168	18194.875
1407.93234	18102.375
1411.38068	17876.675
1414.82669	17540.675
1418.27039	17112.475
1421.71177	16705.975
1425.15083	16335.275
1428.58758	16140.475
1432.02203	16206.075
1435.45416	16467.975
1438.88399	16735.575
1442.31151	16915.175
1445.73673	17007.375
1449.15965	17152.675
1452.58027	17184.975
1455.9986	17217.175
1459.41463	17340.175
1462.82837	17624.775
1466.23982	18005.175
1469.64898	18316.675
1473.05586	18558.175
1476.46045	18653.775
1479.86276	18712.775
1483.26279	18754.875
1486.66054	18920.275
1490.05602	19215.475
1493.44922	19649.175
1496.84016	20116.175
1500.22882	20694.475
1503.61521	21407.775
1506.99934	22162.475
1510.38121	22656.575
1513.76081	22680.075
1517.13816	22012.475
1520.51324	21165.975
1523.88607	20438.875
1527.25665	19995.075
1530.62498	19650.575
1533.99105	19371.975
1537.35488	18969.475
1540.71647	18470.075
1544.07581	17948.775
1547.4329	17540.075
1550.78776	17231.175
1554.14038	17134.775
1557.49077	17093.975
1560.83892	17116.675
1564.18484	17207.175
1567.52853	17377.075
1570.86999	17550.175
1574.20922	17865.775
1577.54624	18024.675
1580.88103	17896.075
1584.2136	17825.675
1587.54395	17988.875
1590.87208	18600.375
1594.19801	19489.275
1597.52172	20394.775
1600.84321	20590.775
1604.16251	19796.575
1607.47959	18478.175
1610.79447	17095.875
1614.10715	15818.575
1617.41763	14843.275
1620.7259	14185.175
1624.03199	13855.675
1627.33587	13862.575
1630.63757	14227.775
1633.93707	15030.875
1637.23439	16440.775
1640.52951	18447.875
1643.82246	20931.675
1647.11321	22913.775
1650.40179	23373.675
1653.68819	21814.575
1656.97241	19036.575
1660.25446	16336.275
1663.53433	14380.575
1666.81203	13206.975
1670.08756	12503.875
1673.36092	12074.875
1676.63211	11806.975
1679.90115	11624.275
1683.16801	11447.175
1686.43272	11305.275
1689.69527	11170.375
1692.95567	11037.375
1696.2139	10915.275
1699.46999	10773.375
1702.72392	10701.875
1705.97571	10751.475
1709.22535	10815.575
1712.47284	10865.975
1715.71819	10890.475
1718.96139	10857.175
1722.20246	10824.675
1725.44139	10781.375
1728.67818	10726.975
1731.91284	10647.775
1735.14537	10607.175
1738.37576	10538.075
1741.60403	10501.275
1744.83017	10453.675
1748.05418	10414.575
1751.27607	10367.275
1754.49584	10310.075
1757.71349	10245.375
1760.92903	10183.875
1764.14244	10175.275
1767.35375	10157.575
1770.56294	10115.575
1773.77002	10109.775
1776.97499	10163.575
1780.17785	10205.775
1783.37861	10207.975
1786.57727	10211.675
1789.77382	10185.175
1792.96828	10196.175
1796.16064	10154.475
1799.3509	10144.175
1802.53907	10120.975
1805.72514	10120.075
1808.90913	10098.575
1812.09102	10090.175
1815.27083	10066.175
1818.44856	10043.675
1821.6242	10021.775
1824.79776	10029.875
1827.96924	10025.975
1831.13864	10033.075
1834.30597	10044.375
1837.47122	10012.775
1840.6344	10011.275
1843.7955	10031.075
1846.95454	10022.575
1850.11151	9999.375
1853.26642	10012.575
1856.41926	9983.875
1859.57004	9980.275
1862.71876	9972.775
1865.86542	9975.275
1869.01003	9932.475
1872.15258	9931.175
1875.29308	9919.175
1878.43152	9914.875
1881.56792	9902.675
1884.70227	9888.775
1887.83457	9901.175
1890.96482	9878.975
1894.09304	9826.675
1897.21921	9834.475
1900.34335	9842.775
1903.46544	9825.075
1906.58551	9824.475
1909.70353	9823.075
1912.81953	9789.075
1915.93349	9776.375
1919.04543	9749.075
1922.15534	9737.275
1925.26322	9723.375
1928.36908	9671.575
1931.47292	9644.975
1934.57473	9625.275
1937.67453	9609.275
1940.77232	9565.675
1943.86808	9557.775
1946.96184	9538.175
1950.05358	9519.975
1953.14331	9474.275
1956.23103	9460.275
1959.31675	9404.975
1962.40046	9410.675
1965.48217	9383.475
1968.56188	9372.975
1971.63959	9326.875
1974.7153	9300.075
1977.78901	9260.575
1980.86073	9231.875
1983.93046	9205.175
1986.99819	9171.375
1990.06394	9148.575
1993.1277	9127.375
1996.18947	9097.175
1999.24925	9062.975
2002.30706	9038.175
2005.36288	9004.775
2008.41672	9014.375
2011.46859	8967.675
2014.51848	8970.175
2017.56639	8939.975
2020.61233	8905.575
2023.6563	8909.075
2026.6983	8859.475
2029.73833	8866.675
2032.7764	8829.975
2035.8125	8808.275
2038.84664	8784.275
2041.87881	8778.175
2044.90903	8773.575
2047.93729	8770.375
2050.96359	8733.775
2053.98794	8729.575
2057.01034	8733.775
2060.03078	8731.375
2063.04927	8718.775
2066.06582	8705.575
2069.08042	8713.175
2072.09307	8727.375
2075.10378	8704.075
2078.11255	8718.875
2081.11938	8727.075
2084.12426	8697.775
2087.12722	8713.275
2090.12824	8729.975
2093.12732	8725.775
2096.12447	8728.775
2099.11969	8747.075
2102.11299	8719.275
2105.10435	8759.775
2108.09379	8751.575
2111.08131	8757.475
2114.0669	8770.275
2117.05057	8768.075
2120.03233	8791.275
2123.01216	8803.775
2125.99008	8791.975
2128.96609	8799.075
2131.94018	8816.375
2134.91236	8821.675
2137.88263	8825.675
2140.851	8832.975
2143.81746	8817.375
2146.78201	8819.875
2149.74466	8817.075
2152.7054	8795.275
2155.66425	8805.775
2158.6212	8808.175
2161.57625	8808.675
2164.52941	8785.675
2167.48067	8761.875
2170.43004	8763.875
2173.37752	8757.975
2176.32311	8773.475
2179.26681	8754.475
2182.20863	8757.375
2185.14856	8769.975
2188.08661	8787.475
2191.02278	8735.975
2193.95707	8735.975
2196.88948	8732.075
2199.82001	8722.775
2202.74867	8708.775
2205.67545	8699.675
2208.60037	8675.075
2211.52341	8675.375
2214.44458	8675.575
2217.36388	8681.875
2220.28132	8647.275
2223.1969	8629.675
2226.11061	8617.275
2229.02246	8620.675
2231.93245	8592.775
2234.84058	8602.575
2237.74686	8585.875
2240.65128	8574.375
2243.55385	8583.475
2246.45456	8578.175
2249.35343	8536.875
2252.25044	8519.875
2255.14561	8504.875
2258.03893	8500.575
2260.93041	8496.375
2263.82004	8481.175
2266.70783	8444.775
2269.59378	8424.175
2272.4779	8431.475
2275.36017	8409.275
2278.24061	8393.475
2281.11922	8380.275
2283.996	8373.975
2286.87094	8357.275
2289.74405	8327.875
2292.61534	8304.175
2295.4848	8336.475
2298.35243	8306.875
2301.21824	8298.675
2304.08223	8309.175
2306.94439	8306.975
2309.80474	8275.375
2312.66327	8265.875
2315.51999	8275.975
2318.37489	8253.075
2321.22797	8258.175
2324.07925	8236.175
2326.92871	8223.375
2329.77637	8234.875
2332.62222	8198.475
2335.46626	8173.875
2338.3085	8187.175
2341.14893	8170.075
2343.98756	8171.575
2346.8244	8198.475
2349.65943	8186.375
2352.49267	8190.575
2355.32411	8187.075
2358.15376	8180.375
2360.98161	8173.575
2363.80768	8165.675
2366.63195	8185.575
2369.45444	8161.475
2372.27514	8168.075
2375.09405	8153.475
2377.91118	8140.275
2380.72652	8134.675
2383.54009	8133.475
2386.35187	8092.675
2389.16188	8061.475
2391.97011	8070.575
2394.77657	8048.575
2397.58125	8055.475
2400.38416	8055.275
2403.18529	8028.475
2405.98466	8008.475
2408.78226	8002.275
2411.57809	7996.875
2414.37216	7993.075
2417.16446	7997.975
2419.955	7977.975
2422.74378	7984.975
2425.5308	7968.275
2428.31606	7962.175
2431.09956	7974.675
2433.88131	7941.075
2436.6613	7963.675
2439.43954	7934.875
2442.21603	7953.175
2444.99077	7934.975
2447.76377	7941.675
2450.53501	7950.775
2453.30451	7940.175
2456.07226	7920.575
2458.83827	7911.175
2461.60254	7918.375
2464.36507	7914.475
2467.12586	7909.875
2469.88492	7916.275
2472.64224	7920.275
2475.39782	7894.575
2478.15167	7868.075
2480.90379	7880.175
2483.65417	7891.575
2486.40283	7908.075
2489.14976	7901.275
2491.89497	7909.775
2494.63845	7893.575
2497.3802	7881.975
2500.12024	7889.275
2502.85855	7865.275
2505.59514	7872.975
2508.33002	7860.575
2511.06318	7866.275
2513.79462	7850.575
2516.52435	7860.975
2519.25237	7814.575
2521.97867	7820.875
2524.70327	7827.975
2527.42616	7816.475
2530.14734	7818.375
2532.86681	7812.175
2535.58458	7797.475
2538.30065	7797.075
2541.01501	7779.975
2543.72768	7774.775
2546.43864	7779.875
2549.14791	7759.675
2551.85548	7747.375
2554.56136	7731.275
2557.26554	7740.075
2559.96803	7731.575
2562.66883	7727.475
2565.36794	7736.375
2568.06536	7745.875
2570.7611	7711.775
2573.45514	7678.975
2576.14751	7686.275
2578.83819	7677.375
2581.52719	7660.075
2584.21451	7641.375
2586.90015	7631.675
2589.58411	7621.575
2592.2664	7661.375
2594.94701	7620.575
2597.62594	7633.675
2600.30321	7597.875
2602.9788	7599.675
2605.65273	7584.075
2608.32498	7612.375
2610.99557	7568.275
2613.66449	7603.975
2616.33175	7567.775
2618.99734	7572.275
2621.66128	7563.375
2624.32355	7560.075
2626.98416	7547.075
2629.64311	7532.775
2632.30041	7515.875
2634.95605	7507.475
2637.61004	7504.275
2640.26238	7522.675
2642.91306	7501.475
2645.56209	7489.375
2648.20948	7494.675
2650.85521	7475.475
2653.4993	7500.875
2656.14175	7511.675
2658.78255	7527.075
2661.42171	7533.675
2664.05923	7535.975
2666.6951	7530.375
2669.32934	7549.375
2671.96194	7527.175
2674.59291	7557.275
2677.22224	7529.475
2679.84993	7538.475
2682.476	7525.475
2685.10043	7564.675
2687.72324	7526.775
2690.34441	7536.575
2692.96396	7510.575
2695.58188	7546.075
2698.19818	7502.975
2700.81285	7524.975
2703.4259	7507.775
2706.03733	7437.875
2708.64714	7469.475
2711.25533	7501.875
2713.86191	7510.275
2716.46687	7526.475
2719.07021	7560.975
2721.67194	7543.175
2724.27206	7550.475
2726.87057	7574.775
2729.46747	7580.075
2732.06276	7570.875
2734.65644	7578.875
2737.24852	7558.375
2739.83899	7547.875
2742.42786	7569.375
2745.01513	7529.775
2747.60079	7554.375
2750.18486	7544.175
2752.76733	7513.475
2755.3482	7510.075
2757.92747	7512.975
2760.50515	7496.775
2763.08123	7528.375
2765.65573	7502.075
2768.22863	7462.275
2770.79994	7490.975
2773.36967	7483.175
2775.9378	7477.375
2778.50435	7492.075
2781.06932	7448.275
2783.6327	7452.675
2786.1945	7451.875
2788.75471	7450.175
2791.31335	7467.975
2793.87041	7431.575
2796.42589	7417.275
2798.97979	7402.475
2801.53212	7379.275
2804.08288	7382.275
2806.63206	7366.675
2809.17967	7366.375
2811.72571	7337.075
2814.27018	7330.575
2816.81308	7322.875
2819.35442	7312.875
2821.89419	7300.675
2824.43239	7315.975
2826.96904	7309.875
2829.50412	7299.575
2832.03763	7299.075
2834.56959	7275.675
2837.1	7248.475
2839.62884	7274.075
2842.15613	7243.075
2844.68186	7274.575
2847.20604	7258.375
2849.72867	7276.975
2852.24974	7265.775
2854.76927	7250.975
2857.28724	7225.275
2859.80367	7249.875
2862.31855	7253.975
2864.83189	7238.175
2867.34368	7268.575
2869.85393	7280.475
2872.36264	7257.975
2874.8698	7248.575
2877.37543	7257.075
2879.87952	7242.975
2882.38207	7260.275
2884.88308	7261.275
2887.38256	7275.875
2889.88051	7282.275
2892.37692	7286.875
2894.8718	7279.275
2897.36515	7281.475
2899.85698	7292.575
2902.34727	7305.675
2904.83604	7309.375
2907.32328	7312.275
2909.809	7299.575
2912.29319	7312.175
2914.77587	7306.575
2917.25702	7308.775
2919.73665	7326.675
2922.21476	7323.575
2924.69136	7319.575
2927.16644	7299.175
2929.64	7290.975
2932.11205	7270.375
2934.58258	7240.275
2937.05161	7261.775
2939.51912	7262.075
2941.98513	7258.675
2944.44962	7237.975
2946.91261	7214.475
2949.37409	7240.075
2951.83407	7218.975
2954.29254	7206.575
2956.74951	7218.075
2959.20498	7204.275
2961.65895	7168.675
2964.11142	7169.775
2966.56239	7159.475
2969.01186	7160.575
2971.45984	7126.175
2973.90632	7138.775
2976.35131	7120.675
2978.7948	7088.275
2981.23681	7112.975
2983.67732	7097.475
2986.11635	7064.175
2988.55388	7024.675
2990.98993	7036.475
2993.4245	7015.875
2995.85758	7014.675
2998.28917	6996.475
3000.71928	6988.975
3003.14791	6966.075
3005.57506	6958.475
3008.00073	6934.075
3010.42493	6944.775
3012.84764	6915.775
3015.26888	6931.675
3017.68865	6901.975
3020.10694	6913.075
3022.52376	6877.875
3024.9391	6871.275
3027.35298	6871.075
3029.76539	6877.075
3032.17632	6888.075
3034.5858	6868.575
3036.9938	6866.275
3039.40034	6837.075
3041.80542	6830.075
3044.20903	6820.875
3046.61118	6823.875
3049.01187	6806.175
3051.4111	6801.075
3053.80888	6811.475
3056.20519	6804.475
3058.60005	6787.075
3060.99345	6775.575
3063.3854	6749.975
3065.7759	6744.775
3068.16494	6722.375
3070.55254	6696.075
3072.93868	6697.575
3075.32338	6687.075
3077.70662	6678.475
3080.08842	6646.475
3082.46878	6651.175
3084.84769	6644.575
3087.22515	6632.475
3089.60118	6634.175
3091.97576	6663.175
3094.3489	6634.475
3096.72061	6648.675
3099.09087	6651.375
3101.4597	6642.475
3103.82709	6661.575
3106.19305	6643.975
3108.55757	6651.275
3110.92066	6641.975
3113.28232	6646.275
3115.64255	6610.375
3118.00134	6617.375
3120.35871	6607.975
3122.71466	6594.175
3125.06917	6580.975
3127.42226	6569.175
3129.77393	6586.375
3132.12417	6578.675
3134.47299	6568.175
3136.82039	6578.175
3139.16636	6581.175
3141.51092	6577.875
3143.85406	6565.875
3146.19579	6590.275
3148.53609	6587.075
3150.87499	6602.175
3153.21246	6598.875
3155.54853	6606.775
3157.88318	6605.275
3160.21642	6615.475
3162.54826	6611.975
3164.87868	6623.775
3167.2077	6610.675
3169.5353	6632.475
3171.86151	6613.175
3174.18631	6625.575
3176.5097	6636.975
3178.83169	6618.475
3181.15228	6614.875
3183.47147	6581.075
3185.78926	6598.875
