Data from AgNPs_FTO_APTES_UA_50uM_CRN_1uM_R6G_10uM_NaF_0.1M_Addition_RamanShift__19__11-37-44-732.txt Node

Date: Mon Feb 21 11:37:44 GMT 2022
User: TCL
Spectrometer: QEP01345
Trigger mode: 4
Integration Time (sec): 7.000000E0
Scans to average: 10
Electric dark correction enabled: true
Nonlinearity correction enabled: false
Boxcar width: 0
XAxis mode: Raman Shifts
Number of Pixels in Spectrum: 1044
>>>>>Begin Spectral Data<<<<<
46.04893	-0.3125
50.45542	-1.0125
54.85868	0.0875
59.25871	-1.7125
63.6555	65.5875
68.04907	71.6875
72.43941	70.6875
76.82654	75.2875
81.21044	80.1875
85.59113	83.0875
89.96862	86.8875
94.34289	89.4875
98.71396	90.8875
103.08183	91.7875
107.4465	93.4875
111.80798	91.1875
116.16626	96.3875
120.52136	99.6875
124.87327	107.9875
129.222	106.4875
133.56755	109.8875
137.90993	125.4875
142.24913	134.0875
146.58517	149.7875
150.91804	170.7875
155.24774	201.6875
159.57429	248.8875
163.89768	318.7875
168.21792	427.4875
172.53501	581.7875
176.84895	810.6875
181.15975	1142.3875
185.46741	1596.8875
189.77193	2192.4875
194.07331	2932.5875
198.37157	3778.1875
202.6667	4682.3875
206.9587	5541.5875
211.24758	6412.1875
215.53334	7308.3875
219.81599	8253.4875
224.09553	9342.2875
228.37195	10530.6875
232.64527	11841.6875
236.91549	13192.6875
241.18261	14484.2875
245.44663	15658.1875
249.70755	16693.5875
253.96539	17557.4875
258.22014	18320.2875
262.4718	18960.2875
266.72039	19391.3875
270.96589	19606.6875
275.20832	19641.8875
279.44768	19450.1875
283.68397	19262.8875
287.91719	19067.8875
292.14735	19000.3875
296.37445	19109.7875
300.59849	19332.9875
304.81948	19599.5875
309.03742	19754.3875
313.25231	19588.3875
317.46415	19069.8875
321.67296	18321.7875
325.87872	17688.0875
330.08145	17358.2875
334.28114	17303.1875
338.47781	17469.0875
342.67145	17757.7875
346.86207	18161.4875
351.04966	18756.1875
355.23424	19351.0875
359.4158	19861.9875
363.59435	20216.6875
367.76989	20427.3875
371.94243	20545.1875
376.11196	20513.5875
380.27849	20554.8875
384.44203	20571.0875
388.60257	20619.8875
392.76012	20711.7875
396.91468	20946.8875
401.06626	21320.8875
405.21485	21590.1875
409.36047	21466.8875
413.50311	20954.3875
417.64277	20496.0875
421.77947	20289.9875
425.9132	20231.9875
430.04396	20298.2875
434.17176	20381.7875
438.2966	20546.9875
442.41849	20929.8875
446.53742	21530.2875
450.6534	22131.2875
454.76644	22641.4875
458.87653	22843.3875
462.98368	22724.8875
467.08789	22447.0875
471.18916	22074.1875
475.2875	21706.2875
479.38291	21448.0875
483.4754	21256.8875
487.56496	21041.3875
491.6516	20719.4875
495.73531	20479.4875
499.81612	20379.5875
503.89401	20515.7875
507.96899	20587.1875
512.04106	20593.1875
516.11023	20543.5875
520.1765	20496.1875
524.23987	20428.7875
528.30034	20220.8875
532.35792	19998.4875
536.41261	19736.0875
540.46441	19476.5875
544.51333	19374.6875
548.55936	19577.8875
552.60252	20004.0875
556.64279	20547.4875
560.6802	20893.8875
564.71473	21160.7875
568.7464	21641.4875
572.7752	22236.0875
576.80114	22381.1875
580.82422	22406.2875
584.84444	22556.5875
588.86181	22771.2875
592.87633	23049.5875
596.888	23226.9875
600.89682	23212.2875
604.9028	24237.1875
608.90594	27552.1875
612.90624	31486.3875
616.90371	29900.1875
620.89834	23784.2875
624.89015	20866.3875
628.87913	20424.6875
632.86528	20501.7875
636.84862	20524.0875
640.82913	20228.6875
644.80683	19592.0875
648.78172	19070.4875
652.75379	18961.0875
656.72306	19300.7875
660.68952	19919.0875
664.65319	19852.0875
668.61405	19388.0875
672.57211	19182.9875
676.52738	19254.7875
680.47986	19230.2875
684.42955	19114.6875
688.37646	19065.5875
692.32058	19174.5875
696.26192	19371.3875
700.20048	19626.3875
704.13626	19741.6875
708.06928	19619.4875
711.99952	19424.2875
715.927	19400.4875
719.85171	19478.8875
723.77365	19481.6875
727.69284	19240.2875
731.60928	19003.9875
735.52295	18918.8875
739.43388	18944.2875
743.34206	19027.2875
747.24749	19102.3875
751.15017	19280.7875
755.05012	19582.4875
758.94733	20240.0875
762.8418	21596.1875
766.73354	23848.8875
770.62254	26080.4875
774.50882	26879.7875
778.39237	25721.5875
782.27321	23407.2875
786.15132	21307.4875
790.02671	20014.9875
793.89938	19323.6875
797.76935	19077.2875
801.6366	18991.2875
805.50115	18894.8875
809.36299	18826.1875
813.22213	18639.3875
817.07857	18568.9875
820.93231	18521.0875
824.78336	18441.6875
828.63172	18437.7875
832.47738	18420.9875
836.32036	18435.2875
840.16066	18477.0875
843.99827	18507.1875
847.8332	18456.3875
851.66546	18400.3875
855.49504	18363.8875
859.32195	18361.4875
863.1462	18326.8875
866.96777	18235.1875
870.78668	18198.0875
874.60293	18236.8875
878.41652	18274.6875
882.22745	18372.5875
886.03573	18418.7875
889.84136	18450.0875
893.64433	18351.4875
897.44466	18257.0875
901.24235	18192.1875
905.0374	18083.4875
908.8298	17984.4875
912.61957	17966.7875
916.40671	18048.8875
920.19121	18228.7875
923.97308	18480.8875
927.75233	18622.4875
931.52895	18609.4875
935.30295	18404.1875
939.07433	18027.9875
942.84309	17724.3875
946.60924	17574.0875
950.37278	17517.8875
954.13371	17472.4875
957.89203	17380.9875
961.64774	17334.6875
965.40086	17270.5875
969.15137	17245.4875
972.89929	17153.8875
976.64461	17139.5875
980.38733	17134.6875
984.12747	17182.2875
987.86502	17372.2875
991.59999	17607.3875
995.33237	17957.7875
999.06217	18490.4875
1002.78939	19131.8875
1006.51404	19610.8875
1010.23611	19937.7875
1013.95561	20149.3875
1017.67255	20150.2875
1021.38692	19913.3875
1025.09872	19683.5875
1028.80796	19634.2875
1032.51465	19981.6875
1036.21877	20381.9875
1039.92035	20478.0875
1043.61937	20310.7875
1047.31584	19934.2875
1051.00976	19463.0875
1054.70114	19209.0875
1058.38998	19138.5875
1062.07627	19227.6875
1065.76003	19378.8875
1069.44126	19523.1875
1073.11995	19790.2875
1076.79611	20137.1875
1080.46974	20385.5875
1084.14085	20630.5875
1087.80943	20976.4875
1091.47549	21178.4875
1095.13903	21101.4875
1098.80005	20722.6875
1102.45857	20216.6875
1106.11456	19907.1875
1109.76805	19828.1875
1113.41903	20002.5875
1117.06751	20311.2875
1120.71348	20702.4875
1124.35696	21102.9875
1127.99793	21523.7875
1131.63641	21587.7875
1135.2724	21239.3875
1138.90589	20894.2875
1142.5369	20638.5875
1146.16542	20481.9875
1149.79145	20487.0875
1153.415	20577.2875
1157.03607	20813.1875
1160.65467	21254.8875
1164.27079	22104.4875
1167.88443	23317.9875
1171.49561	24931.0875
1175.10432	27154.0875
1178.71056	30168.4875
1182.31434	32878.2875
1185.91565	34249.2875
1189.51451	34039.3875
1193.11091	32826.6875
1196.70485	31107.4875
1200.29634	29468.1875
1203.88538	28126.2875
1207.47197	26946.6875
1211.05612	26019.3875
1214.63782	25405.8875
1218.21708	25128.3875
1221.79391	25026.6875
1225.36829	25051.6875
1228.94024	24837.5875
1232.50976	24424.0875
1236.07685	24054.7875
1239.6415	23864.1875
1243.20374	23787.9875
1246.76355	23840.0875
1250.32093	24150.1875
1253.8759	24686.2875
1257.42845	25486.5875
1260.97859	26303.7875
1264.52631	27174.8875
1268.07163	28109.0875
1271.61453	29035.0875
1275.15503	29850.1875
1278.69312	30660.2875
1282.22882	31386.1875
1285.76211	32050.9875
1289.29301	32930.7875
1292.82151	33983.6875
1296.34761	35367.4875
1299.87133	37240.5875
1303.39266	39757.5875
1306.9116	42940.4875
1310.42815	46168.6875
1313.94233	48237.4875
1317.45412	48042.1875
1320.96354	46506.2875
1324.47058	44693.4875
1327.97525	43046.7875
1331.47754	42110.7875
1334.97747	41751.0875
1338.47502	41835.3875
1341.97022	41997.6875
1345.46305	41864.3875
1348.95352	41760.7875
1352.44163	42010.9875
1355.92738	43402.5875
1359.41078	46339.8875
1362.89183	49248.7875
1366.37053	48399.5875
1369.84688	43322.5875
1373.32088	37728.8875
1376.79254	34059.4875
1380.26186	32337.8875
1383.72883	31742.2875
1387.19347	31267.6875
1390.65578	30849.4875
1394.11575	30644.1875
1397.57339	30846.1875
1401.0287	31472.5875
1404.48168	32041.8875
1407.93234	32362.2875
1411.38068	32404.1875
1414.82669	31879.3875
1418.27039	30876.2875
1421.71177	29744.6875
1425.15083	28742.8875
1428.58758	28156.7875
1432.02203	28275.5875
1435.45416	28766.5875
1438.88399	29371.5875
1442.31151	29755.2875
1445.73673	30135.4875
1449.15965	30479.6875
1452.58027	30698.9875
1455.9986	30757.9875
1459.41463	30977.0875
1462.82837	31434.9875
1466.23982	32008.1875
1469.64898	32598.5875
1473.05586	32887.7875
1476.46045	32956.8875
1479.86276	32843.2875
1483.26279	32829.5875
1486.66054	32927.8875
1490.05602	33298.3875
1493.44922	33853.5875
1496.84016	34586.4875
1500.22882	35879.5875
1503.61521	37862.0875
1506.99934	40360.7875
1510.38121	42383.4875
1513.76081	42702.9875
1517.13816	40937.9875
1520.51324	37868.4875
1523.88607	35152.0875
1527.25665	33436.2875
1530.62498	32524.1875
1533.99105	32061.3875
1537.35488	31713.5875
1540.71647	31353.1875
1544.07581	30920.7875
1547.4329	30440.0875
1550.78776	30029.6875
1554.14038	29725.4875
1557.49077	29604.6875
1560.83892	29654.0875
1564.18484	29901.5875
1567.52853	30194.8875
1570.86999	30509.3875
1574.20922	30853.1875
1577.54624	30990.1875
1580.88103	30640.3875
1584.2136	30174.9875
1587.54395	30589.2875
1590.87208	31939.6875
1594.19801	34174.7875
1597.52172	36510.3875
1600.84321	37357.7875
1604.16251	35896.2875
1607.47959	33189.0875
1610.79447	30235.7875
1614.10715	27425.8875
1617.41763	25222.8875
1620.7259	23722.7875
1624.03199	22983.5875
1627.33587	22961.5875
1630.63757	23631.3875
1633.93707	25172.4875
1637.23439	27619.9875
1640.52951	31025.1875
1643.82246	34922.2875
1647.11321	38187.9875
1650.40179	39141.1875
1653.68819	36640.8875
1656.97241	31703.2875
1660.25446	26685.2875
1663.53433	23051.5875
1666.81203	20794.3875
1670.08756	19461.9875
1673.36092	18641.2875
1676.63211	18133.3875
1679.90115	17721.0875
1683.16801	17422.2875
1686.43272	17193.7875
1689.69527	17018.1875
1692.95567	16843.5875
1696.2139	16643.4875
1699.46999	16494.2875
1702.72392	16434.6875
1705.97571	16469.0875
1709.22535	16529.6875
1712.47284	16529.3875
1715.71819	16589.3875
1718.96139	16503.4875
1722.20246	16464.3875
1725.44139	16390.2875
1728.67818	16252.6875
1731.91284	16179.3875
1735.14537	16070.1875
1738.37576	16010.5875
1741.60403	15919.8875
1744.83017	15832.8875
1748.05418	15797.4875
1751.27607	15713.0875
1754.49584	15641.9875
1757.71349	15582.4875
1760.92903	15515.4875
1764.14244	15493.4875
1767.35375	15469.0875
1770.56294	15446.6875
1773.77002	15466.1875
1776.97499	15479.5875
1780.17785	15511.8875
1783.37861	15512.5875
1786.57727	15500.8875
1789.77382	15481.1875
1792.96828	15507.9875
1796.16064	15490.3875
1799.3509	15452.6875
1802.53907	15396.2875
1805.72514	15359.0875
1808.90913	15354.4875
1812.09102	15298.0875
1815.27083	15281.0875
1818.44856	15275.1875
1821.6242	15254.0875
1824.79776	15254.5875
1827.96924	15252.7875
1831.13864	15210.0875
1834.30597	15251.0875
1837.47122	15229.7875
1840.6344	15223.1875
1843.7955	15239.5875
1846.95454	15223.2875
1850.11151	15200.7875
1853.26642	15188.1875
1856.41926	15197.3875
1859.57004	15224.4875
1862.71876	15197.8875
1865.86542	15208.2875
1869.01003	15200.4875
1872.15258	15180.8875
1875.29308	15178.9875
1878.43152	15161.9875
1881.56792	15146.7875
1884.70227	15203.1875
1887.83457	15180.9875
1890.96482	15189.8875
1894.09304	15148.0875
1897.21921	15152.4875
1900.34335	15088.6875
1903.46544	15126.7875
1906.58551	15111.8875
1909.70353	15077.5875
1912.81953	15063.7875
1915.93349	15032.8875
1919.04543	14979.5875
1922.15534	14976.7875
1925.26322	14950.1875
1928.36908	14860.4875
1931.47292	14806.9875
1934.57473	14770.9875
1937.67453	14748.3875
1940.77232	14684.4875
1943.86808	14619.6875
1946.96184	14591.8875
1950.05358	14550.8875
1953.14331	14526.0875
1956.23103	14439.3875
1959.31675	14403.6875
1962.40046	14360.1875
1965.48217	14344.0875
1968.56188	14296.8875
1971.63959	14270.5875
1974.7153	14244.4875
1977.78901	14222.1875
1980.86073	14136.6875
1983.93046	14073.1875
1986.99819	14031.8875
1990.06394	14013.5875
1993.1277	13954.0875
1996.18947	13927.9875
1999.24925	13873.9875
2002.30706	13828.3875
2005.36288	13816.3875
2008.41672	13790.9875
2011.46859	13747.7875
2014.51848	13695.3875
2017.56639	13662.8875
2020.61233	13619.9875
2023.6563	13595.9875
2026.6983	13583.8875
2029.73833	13547.3875
2032.7764	13512.8875
2035.8125	13499.3875
2038.84664	13477.2875
2041.87881	13502.3875
2044.90903	13463.4875
2047.93729	13438.0875
2050.96359	13391.3875
2053.98794	13393.9875
2057.01034	13379.1875
2060.03078	13370.4875
2063.04927	13354.2875
2066.06582	13340.1875
2069.08042	13318.1875
2072.09307	13310.3875
2075.10378	13319.2875
2078.11255	13304.9875
2081.11938	13299.9875
2084.12426	13306.9875
2087.12722	13262.8875
2090.12824	13294.2875
2093.12732	13289.2875
2096.12447	13288.5875
2099.11969	13269.7875
2102.11299	13291.6875
2105.10435	13283.1875
2108.09379	13266.3875
2111.08131	13281.1875
2114.0669	13295.4875
2117.05057	13324.2875
2120.03233	13322.4875
2123.01216	13340.4875
2125.99008	13359.1875
2128.96609	13379.1875
2131.94018	13344.0875
2134.91236	13342.3875
2137.88263	13386.4875
2140.851	13403.5875
2143.81746	13403.6875
2146.78201	13420.1875
2149.74466	13384.9875
2152.7054	13421.9875
2155.66425	13416.9875
2158.6212	13394.8875
2161.57625	13375.1875
2164.52941	13399.4875
2167.48067	13374.7875
2170.43004	13348.0875
2173.37752	13327.6875
2176.32311	13361.0875
2179.26681	13355.9875
2182.20863	13375.5875
2185.14856	13391.0875
2188.08661	13356.9875
2191.02278	13354.8875
2193.95707	13364.2875
2196.88948	13387.2875
2199.82001	13393.5875
2202.74867	13366.9875
2205.67545	13348.9875
2208.60037	13346.0875
2211.52341	13326.7875
2214.44458	13313.9875
2217.36388	13292.9875
2220.28132	13292.7875
2223.1969	13252.5875
2226.11061	13222.6875
2229.02246	13215.9875
2231.93245	13213.6875
2234.84058	13166.2875
2237.74686	13117.8875
2240.65128	13100.7875
2243.55385	13102.4875
2246.45456	13092.3875
2249.35343	13078.7875
2252.25044	13058.7875
2255.14561	13056.4875
2258.03893	13038.6875
2260.93041	12982.6875
2263.82004	12968.0875
2266.70783	12985.2875
2269.59378	12952.2875
2272.4779	12948.4875
2275.36017	12879.9875
2278.24061	12862.7875
2281.11922	12814.1875
2283.996	12831.3875
2286.87094	12829.3875
2289.74405	12801.0875
2292.61534	12799.2875
2295.4848	12766.0875
2298.35243	12752.8875
2301.21824	12765.8875
2304.08223	12795.0875
2306.94439	12787.7875
2309.80474	12775.5875
2312.66327	12769.1875
2315.51999	12762.0875
2318.37489	12810.8875
2321.22797	12777.8875
2324.07925	12763.6875
2326.92871	12724.2875
2329.77637	12747.0875
2332.62222	12697.6875
2335.46626	12712.6875
2338.3085	12726.3875
2341.14893	12738.2875
2343.98756	12737.2875
2346.8244	12753.2875
2349.65943	12749.7875
2352.49267	12764.4875
2355.32411	12752.6875
2358.15376	12772.0875
2360.98161	12757.7875
2363.80768	12737.3875
2366.63195	12741.4875
2369.45444	12705.2875
2372.27514	12666.5875
2375.09405	12665.2875
2377.91118	12649.2875
2380.72652	12611.9875
2383.54009	12560.3875
2386.35187	12544.5875
2389.16188	12530.7875
2391.97011	12519.0875
2394.77657	12477.2875
2397.58125	12476.3875
2400.38416	12453.2875
2403.18529	12447.1875
2405.98466	12444.4875
2408.78226	12411.7875
2411.57809	12375.1875
2414.37216	12327.7875
2417.16446	12332.1875
2419.955	12319.1875
2422.74378	12307.3875
2425.5308	12298.6875
2428.31606	12319.9875
2431.09956	12289.3875
2433.88131	12297.8875
2436.6613	12307.2875
2439.43954	12310.2875
2442.21603	12300.8875
2444.99077	12284.4875
2447.76377	12303.3875
2450.53501	12276.9875
2453.30451	12283.6875
2456.07226	12270.3875
2458.83827	12277.5875
2461.60254	12270.4875
2464.36507	12257.2875
2467.12586	12254.3875
2469.88492	12254.9875
2472.64224	12267.5875
2475.39782	12275.2875
2478.15167	12270.8875
2480.90379	12290.6875
2483.65417	12328.8875
2486.40283	12356.2875
2489.14976	12363.7875
2491.89497	12356.0875
2494.63845	12327.7875
2497.3802	12336.4875
2500.12024	12346.9875
2502.85855	12363.2875
2505.59514	12356.2875
2508.33002	12303.1875
2511.06318	12305.8875
2513.79462	12253.7875
2516.52435	12301.5875
2519.25237	12233.1875
2521.97867	12217.0875
2524.70327	12190.9875
2527.42616	12193.7875
2530.14734	12189.1875
2532.86681	12214.8875
2535.58458	12193.0875
2538.30065	12175.6875
2541.01501	12231.1875
2543.72768	12192.3875
2546.43864	12164.1875
2549.14791	12162.3875
2551.85548	12199.2875
2554.56136	12177.4875
2557.26554	12148.3875
2559.96803	12122.8875
2562.66883	12107.9875
2565.36794	12096.6875
2568.06536	12086.5875
2570.7611	12095.6875
2573.45514	12071.4875
2576.14751	12094.7875
2578.83819	12065.8875
2581.52719	12045.2875
2584.21451	12057.0875
2586.90015	12040.3875
2589.58411	12042.5875
2592.2664	12064.0875
2594.94701	12058.8875
2597.62594	12037.7875
2600.30321	12058.4875
2602.9788	12030.8875
2605.65273	12020.2875
2608.32498	12046.2875
2610.99557	12024.4875
2613.66449	12067.9875
2616.33175	12045.5875
2618.99734	12066.3875
2621.66128	12037.2875
2624.32355	12035.7875
2626.98416	12013.7875
2629.64311	12061.9875
2632.30041	12045.2875
2634.95605	12022.1875
2637.61004	12012.1875
2640.26238	11989.9875
2642.91306	11998.0875
2645.56209	11979.7875
2648.20948	11965.8875
2650.85521	11953.7875
2653.4993	11971.3875
2656.14175	11945.9875
2658.78255	11983.4875
2661.42171	11978.1875
2664.05923	12003.9875
2666.6951	12051.7875
2669.32934	12038.9875
2671.96194	12010.8875
2674.59291	12033.2875
2677.22224	12017.3875
2679.84993	12037.9875
2682.476	12020.6875
2685.10043	12061.8875
2687.72324	12035.9875
2690.34441	11998.8875
2692.96396	12001.9875
2695.58188	12009.4875
2698.19818	11974.7875
2700.81285	11974.4875
2703.4259	11957.0875
2706.03733	11867.3875
2708.64714	11890.7875
2711.25533	11966.5875
2713.86191	12013.7875
2716.46687	12019.1875
2719.07021	12051.1875
2721.67194	12065.2875
2724.27206	12067.0875
2726.87057	12072.7875
2729.46747	12058.8875
2732.06276	12108.4875
2734.65644	12070.4875
2737.24852	12092.2875
2739.83899	12069.9875
2742.42786	12068.2875
2745.01513	12061.4875
2747.60079	12068.7875
2750.18486	12057.4875
2752.76733	12033.6875
2755.3482	12013.5875
2757.92747	12027.2875
2760.50515	12030.1875
2763.08123	11997.7875
2765.65573	11980.0875
2768.22863	11982.2875
2770.79994	11964.3875
2773.36967	11988.0875
2775.9378	11949.9875
2778.50435	11950.3875
2781.06932	11963.9875
2783.6327	11978.2875
2786.1945	11978.7875
2788.75471	11986.7875
2791.31335	11953.0875
2793.87041	11939.7875
2796.42589	11914.7875
2798.97979	11893.0875
2801.53212	11892.0875
2804.08288	11866.7875
2806.63206	11856.9875
2809.17967	11856.8875
2811.72571	11826.7875
2814.27018	11807.2875
2816.81308	11799.3875
2819.35442	11805.8875
2821.89419	11777.4875
2824.43239	11768.2875
2826.96904	11765.4875
2829.50412	11746.9875
2832.03763	11756.1875
2834.56959	11733.7875
2837.1	11713.5875
2839.62884	11730.6875
2842.15613	11704.5875
2844.68186	11726.3875
2847.20604	11696.5875
2849.72867	11705.8875
2852.24974	11645.8875
2854.76927	11661.5875
2857.28724	11624.7875
2859.80367	11637.2875
2862.31855	11621.3875
2864.83189	11605.2875
2867.34368	11627.6875
2869.85393	11657.2875
2872.36264	11644.2875
2874.8698	11647.5875
2877.37543	11659.5875
2879.87952	11659.7875
2882.38207	11658.3875
2884.88308	11655.9875
2887.38256	11673.7875
2889.88051	11669.3875
2892.37692	11679.1875
2894.8718	11669.0875
2897.36515	11706.6875
2899.85698	11699.4875
2902.34727	11688.1875
2904.83604	11705.9875
2907.32328	11710.7875
2909.809	11724.8875
2912.29319	11755.3875
2914.77587	11737.8875
2917.25702	11747.9875
2919.73665	11708.3875
2922.21476	11708.4875
2924.69136	11700.7875
2927.16644	11694.9875
2929.64	11654.2875
2932.11205	11663.5875
2934.58258	11610.8875
2937.05161	11613.5875
2939.51912	11641.7875
2941.98513	11608.8875
2944.44962	11624.3875
2946.91261	11576.1875
2949.37409	11583.9875
2951.83407	11576.4875
2954.29254	11557.0875
2956.74951	11576.5875
2959.20498	11559.4875
2961.65895	11532.1875
2964.11142	11535.6875
2966.56239	11510.7875
2969.01186	11498.3875
2971.45984	11484.3875
2973.90632	11472.3875
2976.35131	11439.2875
2978.7948	11419.0875
2981.23681	11395.5875
2983.67732	11367.4875
2986.11635	11366.2875
2988.55388	11326.3875
2990.98993	11326.1875
2993.4245	11292.4875
2995.85758	11270.8875
2998.28917	11225.4875
3000.71928	11234.0875
3003.14791	11193.2875
3005.57506	11180.0875
3008.00073	11137.1875
3010.42493	11112.5875
3012.84764	11128.0875
3015.26888	11113.8875
3017.68865	11079.7875
3020.10694	11079.7875
3022.52376	11015.5875
3024.9391	11028.3875
