Data from AgNPs_FTO_APTES_UA_50uM_CRN_500uM_R6G_10uM_NaF_0.1M_Addition_RamanShift__2__16-44-13-517.txt Node

Date: Mon Feb 21 16:44:13 GMT 2022
User: TCL
Spectrometer: QEP01345
Trigger mode: 4
Integration Time (sec): 7.000000E0
Scans to average: 10
Electric dark correction enabled: true
Nonlinearity correction enabled: false
Boxcar width: 0
XAxis mode: Raman Shifts
Number of Pixels in Spectrum: 1044
>>>>>Begin Spectral Data<<<<<
46.04893	-1.4875
50.45542	-0.4875
54.85868	-0.3875
59.25871	-2.0875
63.6555	43.6125
68.04907	47.5125
72.43941	49.7125
76.82654	52.2125
81.21044	54.7125
85.59113	58.1125
89.96862	61.6125
94.34289	61.5125
98.71396	65.7125
103.08183	64.5125
107.4465	70.6125
111.80798	69.8125
116.16626	71.8125
120.52136	72.7125
124.87327	72.4125
129.222	75.9125
133.56755	80.4125
137.90993	82.7125
142.24913	86.6125
146.58517	97.5125
150.91804	108.3125
155.24774	130.5125
159.57429	154.1125
163.89768	195.2125
168.21792	256.9125
172.53501	346.3125
176.84895	480.3125
181.15975	669.6125
185.46741	950.4125
189.77193	1311.1125
194.07331	1746.9125
198.37157	2268.2125
202.6667	2795.0125
206.9587	3338.4125
211.24758	3868.9125
215.53334	4408.3125
219.81599	4987.7125
224.09553	5630.6125
228.37195	6340.9125
232.64527	7110.9125
236.91549	7910.5125
241.18261	8650.6125
245.44663	9348.4125
249.70755	9928.2125
253.96539	10423.1125
258.22014	10823.6125
262.4718	11135.6125
266.72039	11402.8125
270.96589	11529.8125
275.20832	11534.8125
279.44768	11417.6125
283.68397	11225.3125
287.91719	11061.6125
292.14735	11030.9125
296.37445	11095.1125
300.59849	11230.2125
304.81948	11465.6125
309.03742	11622.3125
313.25231	11601.5125
317.46415	11360.4125
321.67296	10933.4125
325.87872	10579.4125
330.08145	10372.7125
334.28114	10380.1125
338.47781	10496.2125
342.67145	10662.1125
346.86207	10918.8125
351.04966	11250.6125
355.23424	11581.2125
359.4158	11868.0125
363.59435	12055.7125
367.76989	12165.1125
371.94243	12197.2125
376.11196	12220.5125
380.27849	12249.9125
384.44203	12239.4125
388.60257	12244.7125
392.76012	12241.5125
396.91468	12370.2125
401.06626	12536.0125
405.21485	12686.9125
409.36047	12524.4125
413.50311	12201.7125
417.64277	11861.1125
421.77947	11685.6125
425.9132	11594.1125
430.04396	11600.6125
434.17176	11681.0125
438.2966	11764.7125
442.41849	11932.6125
446.53742	12151.7125
450.6534	12339.7125
454.76644	12489.9125
458.87653	12546.8125
462.98368	12512.6125
467.08789	12428.9125
471.18916	12314.7125
475.2875	12168.0125
479.38291	12030.4125
483.4754	11895.0125
487.56496	11810.5125
491.6516	11743.1125
495.73531	11714.6125
499.81612	11700.2125
503.89401	11778.4125
507.96899	11852.5125
512.04106	11932.6125
516.11023	12025.5125
520.1765	12075.3125
524.23987	12076.5125
528.30034	11998.6125
532.35792	11931.8125
536.41261	11819.5125
540.46441	11689.2125
544.51333	11635.7125
548.55936	11678.6125
552.60252	11822.2125
556.64279	12003.0125
560.6802	12125.4125
564.71473	12156.8125
568.7464	12343.0125
572.7752	12491.9125
576.80114	12402.4125
580.82422	12295.7125
584.84444	12318.4125
588.86181	12432.9125
592.87633	12564.0125
596.888	12659.0125
600.89682	12811.3125
604.9028	13541.4125
608.90594	15581.9125
612.90624	18169.5125
616.90371	17504.8125
620.89834	13953.5125
624.89015	12287.8125
628.87913	11984.7125
632.86528	12116.1125
636.84862	12312.3125
640.82913	12231.7125
644.80683	11955.9125
648.78172	11674.4125
652.75379	11645.4125
656.72306	11853.9125
660.68952	12130.9125
664.65319	12040.0125
668.61405	11717.9125
672.57211	11628.8125
676.52738	11667.3125
680.47986	11698.1125
684.42955	11625.0125
688.37646	11551.1125
692.32058	11561.5125
696.26192	11619.0125
700.20048	11683.7125
704.13626	11747.5125
708.06928	11705.9125
711.99952	11665.6125
715.927	11633.7125
719.85171	11682.6125
723.77365	11711.3125
727.69284	11622.8125
731.60928	11562.9125
735.52295	11530.6125
739.43388	11529.9125
743.34206	11546.8125
747.24749	11580.1125
751.15017	11592.4125
755.05012	11694.9125
758.94733	12005.4125
762.8418	12700.4125
766.73354	13963.0125
770.62254	15260.5125
774.50882	15867.0125
778.39237	15354.1125
782.27321	14020.5125
786.15132	12786.6125
790.02671	11998.3125
793.89938	11652.1125
797.76935	11520.4125
801.6366	11444.4125
805.50115	11396.3125
809.36299	11347.2125
813.22213	11329.5125
817.07857	11307.8125
820.93231	11310.2125
824.78336	11276.6125
828.63172	11279.3125
832.47738	11255.9125
836.32036	11245.9125
840.16066	11240.3125
843.99827	11220.1125
847.8332	11195.9125
851.66546	11186.0125
855.49504	11208.7125
859.32195	11194.8125
863.1462	11184.7125
866.96777	11203.1125
870.78668	11190.1125
874.60293	11225.7125
878.41652	11205.3125
882.22745	11280.6125
886.03573	11316.2125
889.84136	11315.1125
893.64433	11265.0125
897.44466	11228.3125
901.24235	11196.6125
905.0374	11189.8125
908.8298	11106.5125
912.61957	11016.6125
916.40671	11073.4125
920.19121	11140.3125
923.97308	11209.4125
927.75233	11268.3125
931.52895	11303.1125
935.30295	11226.9125
939.07433	11068.9125
942.84309	10909.0125
946.60924	10779.6125
950.37278	10745.4125
954.13371	10688.5125
957.89203	10639.8125
961.64774	10640.3125
965.40086	10617.2125
969.15137	10600.3125
972.89929	10575.1125
976.64461	10571.4125
980.38733	10579.6125
984.12747	10590.3125
987.86502	10630.7125
991.59999	10686.2125
995.33237	10767.0125
999.06217	10856.0125
1002.78939	10979.4125
1006.51404	11106.2125
1010.23611	11259.6125
1013.95561	11355.8125
1017.67255	11321.4125
1021.38692	11289.2125
1025.09872	11199.3125
1028.80796	11107.3125
1032.51465	11114.0125
1036.21877	11146.7125
1039.92035	11190.0125
1043.61937	11227.0125
1047.31584	11229.3125
1051.00976	11193.7125
1054.70114	11169.1125
1058.38998	11205.9125
1062.07627	11218.8125
1065.76003	11261.1125
1069.44126	11290.3125
1073.11995	11403.0125
1076.79611	11511.3125
1080.46974	11636.0125
1084.14085	11760.1125
1087.80943	11901.0125
1091.47549	11981.0125
1095.13903	11943.9125
1098.80005	11751.0125
1102.45857	11559.8125
1106.11456	11448.5125
1109.76805	11456.2125
1113.41903	11554.1125
1117.06751	11760.4125
1120.71348	12014.6125
1124.35696	12302.3125
1127.99793	12570.4125
1131.63641	12638.1125
1135.2724	12351.8125
1138.90589	12057.7125
1142.5369	11874.0125
1146.16542	11721.5125
1149.79145	11630.3125
1153.415	11581.0125
1157.03607	11615.6125
1160.65467	11754.4125
1164.27079	12029.4125
1167.88443	12422.3125
1171.49561	13045.7125
1175.10432	13953.7125
1178.71056	15196.1125
1182.31434	16285.4125
1185.91565	16728.7125
1189.51451	16578.1125
1193.11091	15970.8125
1196.70485	15259.8125
1200.29634	14656.6125
1203.88538	14134.7125
1207.47197	13540.5125
1211.05612	13039.3125
1214.63782	12654.0125
1218.21708	12489.2125
1221.79391	12391.7125
1225.36829	12369.9125
1228.94024	12336.0125
1232.50976	12347.5125
1236.07685	12300.7125
1239.6415	12287.2125
1243.20374	12301.2125
1246.76355	12360.6125
1250.32093	12439.2125
1253.8759	12581.6125
1257.42845	12780.2125
1260.97859	13034.6125
1264.52631	13285.2125
1268.07163	13614.4125
1271.61453	13857.5125
1275.15503	14029.7125
1278.69312	14146.2125
1282.22882	14210.3125
1285.76211	14419.1125
1289.29301	14766.5125
1292.82151	15185.6125
1296.34761	15670.7125
1299.87133	16294.7125
1303.39266	17177.9125
1306.9116	18402.2125
1310.42815	19760.8125
1313.94233	20501.7125
1317.45412	20113.2125
1320.96354	19114.5125
1324.47058	18049.0125
1327.97525	17099.2125
1331.47754	16394.9125
1334.97747	16100.7125
1338.47502	16098.1125
1341.97022	16367.3125
1345.46305	16888.9125
1348.95352	17756.9125
1352.44163	18748.1125
1355.92738	19992.0125
1359.41078	21931.2125
1362.89183	23784.4125
1366.37053	23347.6125
1369.84688	20535.3125
1373.32088	17560.3125
1376.79254	15675.7125
1380.26186	14786.6125
1383.72883	14344.2125
1387.19347	14027.1125
1390.65578	13647.2125
1394.11575	13318.6125
1397.57339	13087.5125
1401.0287	12986.5125
1404.48168	12942.3125
1407.93234	12876.1125
1411.38068	12849.5125
1414.82669	12791.7125
1418.27039	12698.6125
1421.71177	12643.2125
1425.15083	12431.0125
1428.58758	12329.7125
1432.02203	12320.5125
1435.45416	12404.6125
1438.88399	12495.4125
1442.31151	12536.4125
1445.73673	12573.9125
1449.15965	12648.1125
1452.58027	12633.8125
1455.9986	12616.7125
1459.41463	12646.9125
1462.82837	12772.1125
1466.23982	12934.7125
1469.64898	13140.4125
1473.05586	13338.4125
1476.46045	13432.9125
1479.86276	13559.1125
1483.26279	13702.6125
1486.66054	13852.4125
1490.05602	14161.4125
1493.44922	14673.6125
1496.84016	15461.9125
1500.22882	16761.2125
1503.61521	18449.1125
1506.99934	20375.7125
1510.38121	21817.2125
1513.76081	22083.5125
1517.13816	20795.1125
1520.51324	18698.6125
1523.88607	16773.9125
1527.25665	15581.4125
1530.62498	14924.4125
1533.99105	14559.1125
1537.35488	14273.0125
1540.71647	14027.8125
1544.07581	13810.7125
1547.4329	13701.9125
1550.78776	13576.0125
1554.14038	13550.5125
1557.49077	13613.6125
1560.83892	13704.2125
1564.18484	13961.6125
1567.52853	14267.0125
1570.86999	14642.7125
1574.20922	14866.4125
1577.54624	14819.7125
1580.88103	14357.3125
1584.2136	13693.3125
1587.54395	13330.6125
1590.87208	13294.5125
1594.19801	13687.6125
1597.52172	14275.6125
1600.84321	14559.5125
1604.16251	14314.8125
1607.47959	13805.2125
1610.79447	13262.7125
1614.10715	12602.2125
1617.41763	11996.4125
1620.7259	11552.1125
1624.03199	11332.4125
1627.33587	11258.4125
1630.63757	11379.1125
1633.93707	11722.2125
1637.23439	12303.6125
1640.52951	13274.9125
1643.82246	14643.1125
1647.11321	16192.1125
1650.40179	17188.2125
1653.68819	16816.6125
1656.97241	15118.3125
1660.25446	13235.7125
1663.53433	11856.4125
1666.81203	11041.1125
1670.08756	10556.1125
1673.36092	10255.2125
1676.63211	10062.8125
1679.90115	9900.7125
1683.16801	9793.0125
1686.43272	9710.0125
1689.69527	9620.2125
1692.95567	9553.6125
1696.2139	9477.1125
1699.46999	9448.4125
1702.72392	9415.9125
1705.97571	9378.8125
1709.22535	9384.6125
1712.47284	9375.2125
1715.71819	9338.7125
1718.96139	9320.1125
1722.20246	9292.0125
1725.44139	9275.8125
1728.67818	9229.7125
1731.91284	9181.7125
1735.14537	9132.3125
1738.37576	9092.3125
1741.60403	9069.2125
1744.83017	9033.2125
1748.05418	9041.6125
1751.27607	9026.6125
1754.49584	9018.2125
1757.71349	9018.1125
1760.92903	8993.3125
1764.14244	8951.8125
1767.35375	8953.1125
1770.56294	8899.6125
1773.77002	8866.4125
1776.97499	8865.5125
1780.17785	8815.3125
1783.37861	8833.9125
1786.57727	8806.5125
1789.77382	8772.4125
1792.96828	8778.7125
1796.16064	8766.9125
1799.3509	8726.2125
1802.53907	8699.7125
1805.72514	8681.8125
1808.90913	8651.7125
1812.09102	8623.5125
1815.27083	8609.7125
1818.44856	8588.4125
1821.6242	8602.7125
1824.79776	8551.7125
1827.96924	8557.4125
1831.13864	8534.9125
1834.30597	8523.3125
1837.47122	8517.2125
1840.6344	8507.1125
1843.7955	8484.7125
1846.95454	8473.5125
1850.11151	8466.0125
1853.26642	8451.0125
1856.41926	8462.7125
1859.57004	8451.2125
1862.71876	8440.1125
1865.86542	8434.8125
1869.01003	8440.8125
1872.15258	8430.8125
1875.29308	8395.2125
1878.43152	8394.0125
1881.56792	8376.5125
1884.70227	8391.8125
1887.83457	8372.2125
1890.96482	8368.9125
1894.09304	8353.3125
1897.21921	8335.7125
1900.34335	8337.1125
1903.46544	8328.4125
1906.58551	8346.6125
1909.70353	8325.2125
1912.81953	8277.9125
1915.93349	8279.3125
1919.04543	8262.7125
1922.15534	8227.7125
1925.26322	8222.6125
1928.36908	8203.8125
1931.47292	8188.2125
1934.57473	8149.3125
1937.67453	8142.3125
1940.77232	8133.4125
1943.86808	8106.7125
1946.96184	8075.3125
1950.05358	8047.0125
1953.14331	8038.7125
1956.23103	8004.7125
1959.31675	7973.4125
1962.40046	7975.2125
1965.48217	7951.1125
1968.56188	7919.9125
1971.63959	7908.0125
1974.7153	7880.0125
1977.78901	7874.6125
1980.86073	7823.8125
1983.93046	7813.1125
1986.99819	7781.0125
1990.06394	7770.5125
1993.1277	7731.9125
1996.18947	7712.3125
1999.24925	7683.1125
2002.30706	7657.3125
2005.36288	7632.0125
2008.41672	7636.4125
2011.46859	7592.0125
2014.51848	7582.8125
2017.56639	7555.0125
2020.61233	7538.8125
2023.6563	7503.8125
2026.6983	7498.2125
2029.73833	7473.7125
2032.7764	7464.7125
2035.8125	7439.3125
2038.84664	7401.5125
2041.87881	7407.6125
2044.90903	7379.9125
2047.93729	7371.4125
2050.96359	7341.6125
2053.98794	7349.4125
2057.01034	7348.4125
2060.03078	7352.5125
2063.04927	7331.8125
2066.06582	7331.4125
2069.08042	7317.1125
2072.09307	7319.8125
2075.10378	7311.1125
2078.11255	7300.8125
2081.11938	7324.4125
2084.12426	7300.8125
2087.12722	7272.7125
2090.12824	7286.2125
2093.12732	7283.5125
2096.12447	7295.7125
2099.11969	7275.3125
2102.11299	7290.9125
2105.10435	7279.9125
2108.09379	7285.7125
2111.08131	7293.4125
2114.0669	7307.0125
2117.05057	7301.8125
2120.03233	7300.5125
2123.01216	7310.6125
2125.99008	7301.1125
2128.96609	7318.5125
2131.94018	7329.2125
2134.91236	7323.6125
2137.88263	7330.4125
2140.851	7334.4125
2143.81746	7337.2125
2146.78201	7323.3125
2149.74466	7332.4125
2152.7054	7322.7125
2155.66425	7321.1125
2158.6212	7334.3125
2161.57625	7308.8125
2164.52941	7298.7125
2167.48067	7301.9125
2170.43004	7314.8125
2173.37752	7289.9125
2176.32311	7306.7125
2179.26681	7300.9125
2182.20863	7293.7125
2185.14856	7304.4125
2188.08661	7289.9125
2191.02278	7308.5125
2193.95707	7293.6125
2196.88948	7270.1125
2199.82001	7271.9125
2202.74867	7282.9125
2205.67545	7258.6125
2208.60037	7256.7125
2211.52341	7229.7125
2214.44458	7221.9125
2217.36388	7188.1125
2220.28132	7193.8125
2223.1969	7167.0125
2226.11061	7176.5125
2229.02246	7132.3125
2231.93245	7142.7125
2234.84058	7118.1125
2237.74686	7118.5125
2240.65128	7101.3125
2243.55385	7085.9125
2246.45456	7083.1125
2249.35343	7090.1125
2252.25044	7063.6125
2255.14561	7049.9125
2258.03893	7055.9125
2260.93041	7035.5125
2263.82004	7019.4125
2266.70783	7025.4125
2269.59378	7017.2125
2272.4779	6976.1125
2275.36017	6969.2125
2278.24061	6960.0125
2281.11922	6925.2125
2283.996	6925.5125
2286.87094	6915.5125
2289.74405	6888.6125
2292.61534	6880.3125
2295.4848	6864.5125
2298.35243	6889.9125
2301.21824	6871.2125
2304.08223	6853.2125
2306.94439	6842.1125
2309.80474	6845.1125
2312.66327	6842.9125
2315.51999	6834.6125
2318.37489	6841.1125
2321.22797	6826.1125
2324.07925	6812.6125
2326.92871	6799.4125
2329.77637	6789.8125
2332.62222	6782.0125
2335.46626	6785.0125
2338.3085	6761.4125
2341.14893	6767.1125
2343.98756	6754.9125
2346.8244	6744.9125
2349.65943	6737.1125
2352.49267	6751.0125
2355.32411	6731.2125
2358.15376	6734.2125
2360.98161	6757.7125
2363.80768	6732.3125
2366.63195	6743.7125
2369.45444	6728.0125
2372.27514	6721.5125
2375.09405	6731.9125
2377.91118	6710.8125
2380.72652	6678.7125
2383.54009	6665.1125
2386.35187	6664.7125
2389.16188	6634.1125
2391.97011	6622.0125
2394.77657	6593.7125
2397.58125	6595.7125
2400.38416	6565.5125
2403.18529	6547.7125
2405.98466	6562.9125
2408.78226	6535.4125
2411.57809	6540.0125
2414.37216	6515.8125
2417.16446	6519.6125
2419.955	6528.2125
2422.74378	6499.6125
2425.5308	6500.4125
2428.31606	6501.5125
2431.09956	6495.5125
2433.88131	6471.1125
2436.6613	6486.6125
2439.43954	6475.7125
2442.21603	6471.0125
2444.99077	6472.6125
2447.76377	6455.1125
2450.53501	6463.1125
2453.30451	6445.3125
2456.07226	6463.0125
2458.83827	6437.4125
2461.60254	6432.7125
2464.36507	6418.7125
2467.12586	6424.3125
2469.88492	6421.4125
2472.64224	6425.3125
2475.39782	6433.4125
2478.15167	6430.2125
2480.90379	6399.5125
2483.65417	6420.7125
2486.40283	6416.2125
2489.14976	6418.1125
2491.89497	6412.6125
2494.63845	6433.0125
2497.3802	6414.5125
2500.12024	6407.2125
2502.85855	6402.2125
2505.59514	6386.6125
2508.33002	6356.3125
2511.06318	6351.9125
2513.79462	6360.6125
2516.52435	6332.2125
2519.25237	6307.2125
2521.97867	6307.0125
2524.70327	6296.8125
2527.42616	6266.4125
2530.14734	6288.9125
2532.86681	6271.3125
2535.58458	6245.2125
2538.30065	6258.0125
2541.01501	6263.3125
2543.72768	6245.0125
2546.43864	6238.6125
2549.14791	6239.0125
2551.85548	6222.9125
2554.56136	6190.4125
2557.26554	6211.0125
2559.96803	6195.0125
2562.66883	6197.7125
2565.36794	6170.4125
2568.06536	6169.4125
2570.7611	6145.4125
2573.45514	6139.9125
2576.14751	6126.9125
2578.83819	6134.2125
2581.52719	6114.2125
2584.21451	6101.5125
2586.90015	6088.2125
2589.58411	6068.6125
2592.2664	6092.1125
2594.94701	6046.2125
2597.62594	6047.0125
2600.30321	6015.4125
2602.9788	6014.9125
2605.65273	6005.3125
2608.32498	6013.6125
2610.99557	6010.9125
2613.66449	6002.7125
2616.33175	6011.1125
2618.99734	5995.1125
2621.66128	5998.5125
2624.32355	5964.1125
2626.98416	5946.0125
2629.64311	5944.2125
2632.30041	5925.3125
2634.95605	5947.1125
2637.61004	5933.2125
2640.26238	5924.6125
2642.91306	5925.3125
2645.56209	5889.9125
2648.20948	5913.9125
2650.85521	5884.3125
2653.4993	5907.4125
2656.14175	5891.4125
2658.78255	5910.9125
2661.42171	5902.0125
2664.05923	5920.7125
2666.6951	5919.5125
2669.32934	5907.9125
2671.96194	5924.9125
2674.59291	5926.2125
2677.22224	5907.9125
2679.84993	5903.1125
2682.476	5932.1125
2685.10043	5902.7125
2687.72324	5929.3125
2690.34441	5883.1125
2692.96396	5881.4125
2695.58188	5901.7125
2698.19818	5896.6125
2700.81285	5889.4125
2703.4259	5887.4125
2706.03733	5888.2125
2708.64714	5877.2125
2711.25533	5880.8125
2713.86191	5885.4125
2716.46687	5899.5125
2719.07021	5898.0125
2721.67194	5910.1125
2724.27206	5896.8125
2726.87057	5902.9125
2729.46747	5899.7125
2732.06276	5906.1125
2734.65644	5886.2125
2737.24852	5881.7125
2739.83899	5870.0125
2742.42786	5854.8125
2745.01513	5861.7125
2747.60079	5840.3125
2750.18486	5857.8125
2752.76733	5851.2125
2755.3482	5815.9125
2757.92747	5816.9125
2760.50515	5806.2125
2763.08123	5823.0125
2765.65573	5806.0125
2768.22863	5804.0125
2770.79994	5801.7125
2773.36967	5780.0125
2775.9378	5775.8125
2778.50435	5762.7125
2781.06932	5754.8125
2783.6327	5753.9125
2786.1945	5737.9125
2788.75471	5748.8125
2791.31335	5730.3125
2793.87041	5711.0125
2796.42589	5716.6125
2798.97979	5704.0125
2801.53212	5684.4125
2804.08288	5692.9125
2806.63206	5680.8125
2809.17967	5660.3125
2811.72571	5654.7125
2814.27018	5667.7125
2816.81308	5644.9125
2819.35442	5621.7125
2821.89419	5642.8125
2824.43239	5651.8125
2826.96904	5633.5125
2829.50412	5622.5125
2832.03763	5618.0125
2834.56959	5613.4125
2837.1	5617.5125
2839.62884	5627.5125
2842.15613	5623.5125
2844.68186	5655.1125
2847.20604	5661.9125
2849.72867	5668.8125
2852.24974	5665.8125
2854.76927	5653.2125
2857.28724	5643.4125
2859.80367	5648.3125
2862.31855	5632.9125
2864.83189	5625.1125
2867.34368	5641.4125
2869.85393	5633.2125
2872.36264	5619.4125
2874.8698	5621.3125
2877.37543	5611.4125
2879.87952	5626.9125
2882.38207	5621.5125
2884.88308	5606.0125
2887.38256	5602.0125
2889.88051	5587.3125
2892.37692	5600.4125
2894.8718	5603.6125
2897.36515	5619.4125
2899.85698	5603.2125
2902.34727	5613.3125
2904.83604	5620.9125
2907.32328	5649.6125
2909.809	5656.3125
2912.29319	5661.4125
2914.77587	5648.6125
2917.25702	5647.9125
2919.73665	5663.3125
2922.21476	5670.5125
2924.69136	5647.1125
2927.16644	5644.5125
2929.64	5634.6125
2932.11205	5646.5125
2934.58258	5619.5125
2937.05161	5604.7125
2939.51912	5593.5125
2941.98513	5585.5125
2944.44962	5577.3125
2946.91261	5559.9125
2949.37409	5559.2125
2951.83407	5554.8125
2954.29254	5554.6125
2956.74951	5533.2125
2959.20498	5542.9125
2961.65895	5518.5125
2964.11142	5519.0125
2966.56239	5516.6125
2969.01186	5499.6125
2971.45984	5476.8125
2973.90632	5497.9125
2976.35131	5462.2125
2978.7948	5456.6125
2981.23681	5441.6125
2983.67732	5425.9125
2986.11635	5405.0125
2988.55388	5404.2125
2990.98993	5402.2125
2993.4245	5391.0125
2995.85758	5377.9125
2998.28917	5359.5125
3000.71928	5350.1125
3003.14791	5333.3125
3005.57506	5345.8125
3008.00073	5339.0125
3010.42493	5327.4125
3012.84764	5311.9125
3015.26888	5330.0125
3017.68865	5311.0125
3020.10694	5304.7125
3022.52376	5299.5125
3024.9391	5288.9125
3027.35298	5276.4125
3029.76539	5269.6125
3032.17632	5258.1125
3034.5858	5237.0125
3036.9938	5239.7125
3039.40034	5221.1125
3041.80542	5213.9125
3044.20903	5226.8125
3046.61118	5221.8125
3049.01187	5215.7125
3051.4111	5210.8125
3053.80888	5196.4125
3056.20519	5196.5125
3058.60005	5196.4125
3060.99345	5176.4125
3063.3854	5167.8125
3065.7759	5152.0125
3068.16494	5155.9125
3070.55254	5141.9125
3072.93868	5140.9125
3075.32338	5120.0125
3077.70662	5099.1125
3080.08842	5104.1125
