Data from AgNPs_FTO_APTES_UA_50uM_CRN_200uM_R6G_10uM_NaF_0.1M_Addition_RamanShift__23__16-21-15-093.txt Node

Date: Mon Feb 21 16:21:15 GMT 2022
User: TCL
Spectrometer: QEP01345
Trigger mode: 4
Integration Time (sec): 7.000000E0
Scans to average: 10
Electric dark correction enabled: true
Nonlinearity correction enabled: false
Boxcar width: 0
XAxis mode: Raman Shifts
Number of Pixels in Spectrum: 1044
>>>>>Begin Spectral Data<<<<<
46.04893	0.525
50.45542	-0.575
54.85868	-1.475
59.25871	-1.375
63.6555	53.925
68.04907	56.725
72.43941	59.925
76.82654	65.325
81.21044	67.625
85.59113	68.425
89.96862	75.325
94.34289	75.725
98.71396	78.025
103.08183	81.125
107.4465	82.925
111.80798	79.525
116.16626	83.625
120.52136	83.525
124.87327	92.225
129.222	89.525
133.56755	95.425
137.90993	105.725
142.24913	108.325
146.58517	123.825
150.91804	137.725
155.24774	163.525
159.57429	202.625
163.89768	251.525
168.21792	341.925
172.53501	458.025
176.84895	646.725
181.15975	906.625
185.46741	1265.325
189.77193	1740.325
194.07331	2324.025
198.37157	2991.725
202.6667	3701.425
206.9587	4430.625
211.24758	5138.125
215.53334	5870.125
219.81599	6609.125
224.09553	7474.225
228.37195	8404.525
232.64527	9445.525
236.91549	10545.725
241.18261	11601.525
245.44663	12592.625
249.70755	13390.525
253.96539	14059.725
258.22014	14631.325
262.4718	15138.025
266.72039	15453.625
270.96589	15612.425
275.20832	15571.125
279.44768	15415.725
283.68397	15161.825
287.91719	14972.425
292.14735	14857.825
296.37445	14949.725
300.59849	15148.325
304.81948	15415.525
309.03742	15505.625
313.25231	15405.625
317.46415	15024.625
321.67296	14478.425
325.87872	14016.425
330.08145	13814.525
334.28114	13855.625
338.47781	14024.525
342.67145	14289.925
346.86207	14594.725
351.04966	15051.325
355.23424	15573.625
359.4158	15999.225
363.59435	16296.425
367.76989	16489.125
371.94243	16604.425
376.11196	16630.225
380.27849	16687.025
384.44203	16717.025
388.60257	16667.325
392.76012	16645.325
396.91468	16803.125
401.06626	17030.025
405.21485	17195.425
409.36047	17046.425
413.50311	16595.225
417.64277	16181.325
421.77947	15973.025
425.9132	15916.825
430.04396	15933.025
434.17176	16091.725
438.2966	16315.925
442.41849	16653.425
446.53742	17093.225
450.6534	17571.325
454.76644	17883.225
458.87653	17991.125
462.98368	17840.825
467.08789	17578.025
471.18916	17307.125
475.2875	17002.425
479.38291	16787.125
483.4754	16604.825
487.56496	16438.125
491.6516	16255.325
495.73531	16205.425
499.81612	16157.625
503.89401	16301.625
507.96899	16427.125
512.04106	16516.025
516.11023	16613.925
520.1765	16676.225
524.23987	16652.225
528.30034	16552.225
532.35792	16462.625
536.41261	16292.525
540.46441	16136.225
544.51333	16039.125
548.55936	16077.125
552.60252	16275.425
556.64279	16539.425
560.6802	16691.225
564.71473	16817.625
568.7464	17030.525
572.7752	17286.625
576.80114	17142.425
580.82422	17017.425
584.84444	17073.525
588.86181	17378.425
592.87633	17818.725
596.888	18127.025
600.89682	18210.625
604.9028	19002.425
608.90594	21577.025
612.90624	24735.625
616.90371	23574.625
620.89834	19028.125
624.89015	16962.225
628.87913	16616.625
632.86528	16721.825
636.84862	16802.025
640.82913	16603.325
644.80683	16219.625
648.78172	15846.125
652.75379	15800.425
656.72306	16058.725
660.68952	16512.325
664.65319	16437.325
668.61405	16063.925
672.57211	16002.525
676.52738	16103.625
680.47986	16145.025
684.42955	15992.725
688.37646	15852.725
692.32058	15835.225
696.26192	15860.225
700.20048	15979.925
704.13626	16010.925
708.06928	15937.125
711.99952	15829.225
715.927	15786.725
719.85171	15832.425
723.77365	15854.525
727.69284	15796.325
731.60928	15771.625
735.52295	15791.925
739.43388	15828.825
743.34206	15861.525
747.24749	15896.625
751.15017	15937.525
755.05012	16079.625
758.94733	16451.125
762.8418	17354.425
766.73354	18960.425
770.62254	20721.425
774.50882	21612.725
778.39237	20889.725
782.27321	19016.325
786.15132	17302.925
790.02671	16260.125
793.89938	15809.725
797.76935	15643.325
801.6366	15581.725
805.50115	15560.025
809.36299	15463.625
813.22213	15386.825
817.07857	15350.125
820.93231	15267.025
824.78336	15250.925
828.63172	15284.025
832.47738	15268.625
836.32036	15266.425
840.16066	15276.725
843.99827	15291.825
847.8332	15255.825
851.66546	15238.525
855.49504	15267.325
859.32195	15284.925
863.1462	15323.725
866.96777	15330.725
870.78668	15256.525
874.60293	15279.725
878.41652	15289.325
882.22745	15297.425
886.03573	15350.525
889.84136	15371.825
893.64433	15272.225
897.44466	15197.625
901.24235	15106.325
905.0374	15033.525
908.8298	14945.325
912.61957	14913.125
916.40671	14971.325
920.19121	15092.325
923.97308	15234.525
927.75233	15322.125
931.52895	15392.625
935.30295	15301.625
939.07433	15064.025
942.84309	14816.825
946.60924	14693.625
950.37278	14609.525
954.13371	14537.625
957.89203	14451.025
961.64774	14410.025
965.40086	14347.225
969.15137	14278.025
972.89929	14253.525
976.64461	14213.025
980.38733	14210.425
984.12747	14239.925
987.86502	14359.625
991.59999	14492.725
995.33237	14713.525
999.06217	15043.625
1002.78939	15429.525
1006.51404	15710.625
1010.23611	15846.825
1013.95561	15904.125
1017.67255	15962.025
1021.38692	15854.625
1025.09872	15695.625
1028.80796	15669.325
1032.51465	15931.325
1036.21877	16176.425
1039.92035	16249.425
1043.61937	16155.125
1047.31584	15884.625
1051.00976	15612.825
1054.70114	15419.425
1058.38998	15345.925
1062.07627	15376.225
1065.76003	15376.825
1069.44126	15376.325
1073.11995	15454.225
1076.79611	15546.625
1080.46974	15671.725
1084.14085	15870.925
1087.80943	16084.025
1091.47549	16180.525
1095.13903	16091.325
1098.80005	15826.625
1102.45857	15604.625
1106.11456	15522.425
1109.76805	15619.725
1113.41903	15806.725
1117.06751	16143.425
1120.71348	16492.625
1124.35696	16860.825
1127.99793	17189.925
1131.63641	17256.625
1135.2724	16902.925
1138.90589	16542.825
1142.5369	16258.625
1146.16542	16019.825
1149.79145	15859.825
1153.415	15821.325
1157.03607	15925.425
1160.65467	16165.625
1164.27079	16665.925
1167.88443	17394.525
1171.49561	18315.025
1175.10432	19663.425
1178.71056	21484.325
1182.31434	23197.325
1185.91565	23913.925
1189.51451	23564.925
1193.11091	22468.125
1196.70485	21247.125
1200.29634	20281.425
1203.88538	19563.625
1207.47197	18774.525
1211.05612	18207.025
1214.63782	17768.925
1218.21708	17684.325
1221.79391	17740.025
1225.36829	17773.025
1228.94024	17653.125
1232.50976	17381.325
1236.07685	17162.825
1239.6415	17080.725
1243.20374	17084.825
1246.76355	17182.425
1250.32093	17415.625
1253.8759	17672.825
1257.42845	18119.325
1260.97859	18503.625
1264.52631	18878.125
1268.07163	19330.425
1271.61453	19796.025
1275.15503	20256.125
1278.69312	20672.825
1282.22882	21035.125
1285.76211	21393.825
1289.29301	21826.825
1292.82151	22426.425
1296.34761	23238.725
1299.87133	24361.525
1303.39266	25957.225
1306.9116	28148.525
1310.42815	30344.625
1313.94233	31569.225
1317.45412	30981.625
1320.96354	29436.125
1324.47058	27747.425
1327.97525	26336.425
1331.47754	25400.325
1334.97747	25077.925
1338.47502	25184.825
1341.97022	25648.925
1345.46305	26117.525
1348.95352	26821.425
1352.44163	27876.425
1355.92738	29587.525
1359.41078	32138.125
1362.89183	34464.325
1366.37053	33665.525
1369.84688	29520.225
1373.32088	25283.225
1376.79254	22618.925
1380.26186	21369.725
1383.72883	20777.125
1387.19347	20386.625
1390.65578	20016.225
1394.11575	19759.325
1397.57339	19788.525
1401.0287	20111.525
1404.48168	20412.025
1407.93234	20625.425
1411.38068	20754.525
1414.82669	20629.825
1418.27039	20295.125
1421.71177	19809.425
1425.15083	19276.525
1428.58758	18979.525
1432.02203	19056.425
1435.45416	19253.825
1438.88399	19536.225
1442.31151	19739.425
1445.73673	19935.325
1449.15965	20075.425
1452.58027	20143.625
1455.9986	20083.625
1459.41463	20097.425
1462.82837	20336.125
1466.23982	20706.825
1469.64898	21092.925
1473.05586	21414.625
1476.46045	21550.625
1479.86276	21645.625
1483.26279	21662.725
1486.66054	21791.625
1490.05602	22039.725
1493.44922	22396.725
1496.84016	22903.225
1500.22882	23920.825
1503.61521	25527.925
1506.99934	27601.925
1510.38121	29275.125
1513.76081	29674.925
1517.13816	28190.925
1520.51324	25700.825
1523.88607	23525.625
1527.25665	22089.125
1530.62498	21414.025
1533.99105	20931.325
1537.35488	20662.325
1540.71647	20525.825
1544.07581	20409.725
1547.4329	20267.425
1550.78776	20183.825
1554.14038	20117.425
1557.49077	20187.425
1560.83892	20326.625
1564.18484	20485.125
1567.52853	20715.625
1570.86999	20936.025
1574.20922	21129.825
1577.54624	21104.225
1580.88103	20600.325
1584.2136	19998.225
1587.54395	19863.525
1590.87208	20370.925
1594.19801	21512.325
1597.52172	22935.225
1600.84321	23671.125
1604.16251	23188.325
1607.47959	21796.225
1610.79447	20289.425
1614.10715	18809.225
1617.41763	17555.125
1620.7259	16768.725
1624.03199	16381.225
1627.33587	16360.025
1630.63757	16733.725
1633.93707	17459.825
1637.23439	18669.525
1640.52951	20419.925
1643.82246	22474.725
1647.11321	24546.125
1650.40179	25382.125
1653.68819	24204.825
1656.97241	21364.425
1660.25446	18547.625
1663.53433	16525.225
1666.81203	15321.225
1670.08756	14602.925
1673.36092	14152.425
1676.63211	13880.425
1679.90115	13688.725
1683.16801	13527.625
1686.43272	13364.325
1689.69527	13232.025
1692.95567	13117.225
1696.2139	12968.725
1699.46999	12844.525
1702.72392	12785.425
1705.97571	12846.925
1709.22535	12916.325
1712.47284	12935.525
1715.71819	12965.525
1718.96139	12926.225
1722.20246	12932.225
1725.44139	12862.125
1728.67818	12801.625
1731.91284	12739.625
1735.14537	12700.025
1738.37576	12613.025
1741.60403	12584.025
1744.83017	12569.725
1748.05418	12502.725
1751.27607	12510.525
1754.49584	12437.425
1757.71349	12369.925
1760.92903	12321.925
1764.14244	12299.525
1767.35375	12316.425
1770.56294	12226.625
1773.77002	12220.525
1776.97499	12247.225
1780.17785	12248.225
1783.37861	12236.425
1786.57727	12275.825
1789.77382	12236.425
1792.96828	12237.425
1796.16064	12228.025
1799.3509	12188.325
1802.53907	12183.425
1805.72514	12171.925
1808.90913	12130.725
1812.09102	12110.425
1815.27083	12092.925
1818.44856	12080.225
1821.6242	12047.025
1824.79776	12012.425
1827.96924	11988.925
1831.13864	11967.125
1834.30597	11980.725
1837.47122	11980.925
1840.6344	11954.125
1843.7955	11923.525
1846.95454	11927.825
1850.11151	11942.525
1853.26642	11941.725
1856.41926	11920.025
1859.57004	11924.625
1862.71876	11880.625
1865.86542	11916.625
1869.01003	11927.325
1872.15258	11942.325
1875.29308	11924.025
1878.43152	11904.725
1881.56792	11916.625
1884.70227	11875.225
1887.83457	11875.425
1890.96482	11859.325
1894.09304	11845.425
1897.21921	11849.325
1900.34335	11880.225
1903.46544	11840.925
1906.58551	11840.725
1909.70353	11812.825
1912.81953	11805.325
1915.93349	11788.925
1919.04543	11761.025
1922.15534	11725.525
1925.26322	11689.325
1928.36908	11671.025
1931.47292	11670.825
1934.57473	11606.125
1937.67453	11608.525
1940.77232	11585.825
1943.86808	11563.025
1946.96184	11502.125
1950.05358	11467.625
1953.14331	11460.425
1956.23103	11415.225
1959.31675	11379.325
1962.40046	11343.625
1965.48217	11300.225
1968.56188	11272.925
1971.63959	11243.525
1974.7153	11209.725
1977.78901	11195.725
1980.86073	11153.725
1983.93046	11089.325
1986.99819	11081.025
1990.06394	11053.125
1993.1277	11013.625
1996.18947	10987.425
1999.24925	10957.525
2002.30706	10928.425
2005.36288	10887.625
2008.41672	10869.425
2011.46859	10838.925
2014.51848	10802.225
2017.56639	10776.825
2020.61233	10765.725
2023.6563	10722.125
2026.6983	10710.325
2029.73833	10714.625
2032.7764	10668.825
2035.8125	10638.725
2038.84664	10626.825
2041.87881	10615.825
2044.90903	10583.225
2047.93729	10570.725
2050.96359	10542.525
2053.98794	10558.425
2057.01034	10522.025
2060.03078	10538.125
2063.04927	10538.625
2066.06582	10523.525
2069.08042	10512.125
2072.09307	10498.225
2075.10378	10501.125
2078.11255	10495.925
2081.11938	10488.325
2084.12426	10477.125
2087.12722	10493.325
2090.12824	10470.725
2093.12732	10455.625
2096.12447	10473.025
2099.11969	10463.925
2102.11299	10445.625
2105.10435	10478.825
2108.09379	10465.425
2111.08131	10488.125
2114.0669	10493.125
2117.05057	10499.925
2120.03233	10514.325
2123.01216	10510.525
2125.99008	10508.225
2128.96609	10552.925
2131.94018	10550.325
2134.91236	10549.225
2137.88263	10536.225
2140.851	10548.225
2143.81746	10552.925
2146.78201	10549.825
2149.74466	10571.925
2152.7054	10565.525
2155.66425	10549.925
2158.6212	10550.725
2161.57625	10529.725
2164.52941	10552.725
2167.48067	10546.925
2170.43004	10539.825
2173.37752	10546.425
2176.32311	10552.725
2179.26681	10537.225
2182.20863	10536.025
2185.14856	10560.125
2188.08661	10530.525
2191.02278	10581.625
2193.95707	10555.925
2196.88948	10529.625
2199.82001	10530.625
2202.74867	10515.525
2205.67545	10514.025
2208.60037	10504.525
2211.52341	10509.525
2214.44458	10468.225
2217.36388	10471.625
2220.28132	10439.325
2223.1969	10423.925
2226.11061	10411.525
2229.02246	10362.525
2231.93245	10368.825
2234.84058	10359.625
2237.74686	10330.925
2240.65128	10321.625
2243.55385	10305.125
2246.45456	10304.825
2249.35343	10269.425
2252.25044	10256.225
2255.14561	10254.425
2258.03893	10234.525
2260.93041	10215.525
2263.82004	10193.225
2266.70783	10180.625
2269.59378	10172.025
2272.4779	10140.725
2275.36017	10123.225
2278.24061	10089.825
2281.11922	10078.225
2283.996	10061.425
2286.87094	10049.225
2289.74405	10028.125
2292.61534	10004.925
2295.4848	10005.125
2298.35243	10002.325
2301.21824	10009.625
2304.08223	10008.925
2306.94439	9985.925
2309.80474	10005.425
2312.66327	10003.525
2315.51999	9992.825
2318.37489	10000.925
2321.22797	9982.225
2324.07925	9969.125
2326.92871	9951.425
2329.77637	9966.225
2332.62222	9921.125
2335.46626	9930.125
2338.3085	9925.625
2341.14893	9910.425
2343.98756	9908.225
2346.8244	9933.425
2349.65943	9917.625
2352.49267	9922.025
2355.32411	9938.125
2358.15376	9937.025
2360.98161	9936.625
2363.80768	9928.925
2366.63195	9901.725
2369.45444	9906.025
2372.27514	9901.125
2375.09405	9889.125
2377.91118	9848.625
2380.72652	9844.125
2383.54009	9772.425
2386.35187	9763.025
2389.16188	9751.525
2391.97011	9711.625
2394.77657	9711.525
2397.58125	9690.625
2400.38416	9665.725
2403.18529	9640.125
2405.98466	9641.625
2408.78226	9621.025
2411.57809	9620.925
2414.37216	9578.425
2417.16446	9584.025
2419.955	9577.225
2422.74378	9558.225
2425.5308	9548.425
2428.31606	9544.825
2431.09956	9533.025
2433.88131	9529.225
2436.6613	9548.025
2439.43954	9573.125
2442.21603	9531.625
2444.99077	9510.325
2447.76377	9504.825
2450.53501	9492.625
2453.30451	9509.425
2456.07226	9484.125
2458.83827	9480.225
2461.60254	9501.425
2464.36507	9505.725
2467.12586	9480.325
2469.88492	9488.025
2472.64224	9496.525
2475.39782	9489.425
2478.15167	9447.025
2480.90379	9478.525
2483.65417	9487.625
2486.40283	9540.525
2489.14976	9526.925
2491.89497	9521.225
2494.63845	9526.825
2497.3802	9499.325
2500.12024	9523.825
2502.85855	9491.925
2505.59514	9501.225
2508.33002	9473.025
2511.06318	9448.125
2513.79462	9415.625
2516.52435	9400.525
2519.25237	9383.125
2521.97867	9390.725
2524.70327	9362.025
2527.42616	9357.225
2530.14734	9364.225
2532.86681	9352.225
2535.58458	9341.425
2538.30065	9323.525
2541.01501	9339.725
2543.72768	9315.325
2546.43864	9318.125
2549.14791	9283.925
2551.85548	9308.025
2554.56136	9271.525
2557.26554	9259.425
2559.96803	9248.625
2562.66883	9248.225
2565.36794	9227.725
2568.06536	9248.625
2570.7611	9224.425
2573.45514	9196.825
2576.14751	9197.725
2578.83819	9191.325
2581.52719	9187.425
2584.21451	9166.625
2586.90015	9169.725
2589.58411	9156.825
2592.2664	9172.425
2594.94701	9143.525
2597.62594	9136.125
2600.30321	9118.825
2602.9788	9121.825
2605.65273	9112.725
2608.32498	9098.225
2610.99557	9086.725
2613.66449	9101.225
2616.33175	9092.625
2618.99734	9105.425
2621.66128	9110.125
2624.32355	9085.525
2626.98416	9073.825
2629.64311	9089.125
2632.30041	9064.225
2634.95605	9040.525
2637.61004	9034.125
2640.26238	9034.025
2642.91306	9048.525
2645.56209	9015.525
2648.20948	9006.025
2650.85521	9010.825
2653.4993	9010.825
2656.14175	8995.025
2658.78255	9025.525
2661.42171	9038.625
2664.05923	9034.725
2666.6951	9039.225
2669.32934	9016.725
2671.96194	9006.625
2674.59291	9025.925
2677.22224	9045.125
2679.84993	9059.125
2682.476	9031.425
2685.10043	9033.525
2687.72324	8999.925
2690.34441	8995.825
2692.96396	9007.125
2695.58188	9019.425
2698.19818	9011.925
2700.81285	8990.225
2703.4259	8973.925
2706.03733	8928.425
2708.64714	8948.925
2711.25533	8991.725
2713.86191	8984.025
2716.46687	9008.325
2719.07021	9007.325
2721.67194	9006.725
2724.27206	9038.325
2726.87057	9029.025
2729.46747	9020.725
2732.06276	9034.725
2734.65644	9029.925
2737.24852	9021.725
2739.83899	8997.625
2742.42786	9018.725
2745.01513	9003.525
2747.60079	8964.725
2750.18486	8988.225
2752.76733	8955.125
2755.3482	8938.025
2757.92747	8953.525
2760.50515	8939.625
2763.08123	8959.125
2765.65573	8954.925
2768.22863	8963.225
2770.79994	8917.225
2773.36967	8942.425
2775.9378	8904.225
2778.50435	8918.625
2781.06932	8930.625
2783.6327	8935.125
2786.1945	8901.625
2788.75471	8908.125
2791.31335	8877.625
2793.87041	8881.025
2796.42589	8824.225
2798.97979	8817.025
2801.53212	8831.125
2804.08288	8829.125
2806.63206	8801.825
2809.17967	8802.625
2811.72571	8773.925
2814.27018	8770.225
2816.81308	8762.025
2819.35442	8775.125
2821.89419	8742.325
2824.43239	8765.425
2826.96904	8766.225
2829.50412	8774.925
2832.03763	8738.025
2834.56959	8728.425
2837.1	8743.925
2839.62884	8735.525
2842.15613	8724.525
2844.68186	8744.325
2847.20604	8730.925
2849.72867	8737.325
2852.24974	8716.625
2854.76927	8719.925
2857.28724	8670.825
2859.80367	8685.825
2862.31855	8694.625
2864.83189	8683.325
2867.34368	8656.625
2869.85393	8693.525
2872.36264	8665.125
2874.8698	8678.225
2877.37543	8637.325
2879.87952	8674.525
2882.38207	8706.225
2884.88308	8692.925
2887.38256	8700.025
2889.88051	8700.925
2892.37692	8725.325
2894.8718	8697.025
2897.36515	8749.925
2899.85698	8702.825
2902.34727	8739.825
2904.83604	8759.925
2907.32328	8774.425
2909.809	8765.325
2912.29319	8778.025
2914.77587	8775.425
2917.25702	8807.525
2919.73665	8790.425
2922.21476	8807.625
2924.69136	8814.925
2927.16644	8795.025
2929.64	8766.125
2932.11205	8730.825
2934.58258	8714.625
2937.05161	8734.425
2939.51912	8724.525
2941.98513	8700.825
2944.44962	8684.625
2946.91261	8669.525
2949.37409	8633.725
2951.83407	8660.225
2954.29254	8662.625
2956.74951	8649.625
2959.20498	8646.825
2961.65895	8593.825
2964.11142	8619.925
2966.56239	8580.325
2969.01186	8577.525
2971.45984	8566.725
2973.90632	8544.625
2976.35131	8511.025
2978.7948	8505.825
2981.23681	8473.925
2983.67732	8465.525
2986.11635	8441.325
2988.55388	8433.325
2990.98993	8404.925
2993.4245	8387.325
2995.85758	8388.925
2998.28917	8375.925
3000.71928	8339.925
3003.14791	8341.725
3005.57506	8353.525
3008.00073	8314.525
3010.42493	8317.825
3012.84764	8310.525
3015.26888	8300.925
3017.68865	8278.325
3020.10694	8279.025
3022.52376	8249.025
3024.9391	8251.925
3027.35298	8225.225
3029.76539	8221.825
3032.17632	8195.525
3034.5858	8178.925
3036.9938	8164.525
3039.40034	8169.325
3041.80542	8164.325
3044.20903	8149.525
3046.61118	8144.225
3049.01187	8156.725
3051.4111	8138.725
3053.80888	8123.925
3056.20519	8081.425
3058.60005	8071.825
3060.99345	8069.525
3063.3854	8030.925
3065.7759	8049.325
3068.16494	7993.325
3070.55254	7992.225
3072.93868	7992.925
3075.32338	7959.725
3077.70662	7964.725
3080.08842	7923.725
3082.46878	7936.725
3084.84769	7918.025
3087.22515	7916.725
3089.60118	7917.425
3091.97576	7916.925
3094.3489	7923.725
3096.72061	7932.325
3099.09087	7896.525
3101.4597	7905.025
3103.82709	7906.825
3106.19305	7891.725
3108.55757	7896.825
3110.92066	7867.225
3113.28232	7856.625
3115.64255	7862.225
3118.00134	7853.825
3120.35871	7834.825
3122.71466	7818.225
3125.06917	7807.625
3127.42226	7800.125
3129.77393	7795.225
3132.12417	7770.725
3134.47299	7773.225
3136.82039	7790.025
3139.16636	7786.025
3141.51092	7785.525
3143.85406	7795.025
3146.19579	7771.225
3148.53609	7787.225
3150.87499	7805.425
3153.21246	7802.525
3155.54853	7801.325
3157.88318	7769.825
3160.21642	7828.025
3162.54826	7829.925
3164.87868	7826.625
