Data from AgNPs_FTO_APTES_UA_50uM_CRN_20uM_R6G_10uM_NaF_0.1M_Addition_RamanShift__12__14-08-14-926.txt Node

Date: Mon Feb 21 14:08:14 GMT 2022
User: TCL
Spectrometer: QEP01345
Trigger mode: 4
Integration Time (sec): 7.000000E0
Scans to average: 10
Electric dark correction enabled: true
Nonlinearity correction enabled: false
Boxcar width: 0
XAxis mode: Raman Shifts
Number of Pixels in Spectrum: 1044
>>>>>Begin Spectral Data<<<<<
46.04893	0.7875
50.45542	-1.7125
54.85868	0.3875
59.25871	-0.8125
63.6555	45.6875
68.04907	50.4875
72.43941	50.3875
76.82654	59.3875
81.21044	58.1875
85.59113	64.0875
89.96862	64.9875
94.34289	70.2875
98.71396	71.8875
103.08183	76.4875
107.4465	73.9875
111.80798	74.1875
116.16626	72.5875
120.52136	72.3875
124.87327	82.8875
129.222	79.7875
133.56755	81.4875
137.90993	88.9875
142.24913	90.3875
146.58517	100.3875
150.91804	113.2875
155.24774	129.0875
159.57429	156.7875
163.89768	190.3875
168.21792	250.9875
172.53501	338.5875
176.84895	470.4875
181.15975	650.4875
185.46741	906.0875
189.77193	1253.9875
194.07331	1681.4875
198.37157	2157.4875
202.6667	2679.9875
206.9587	3201.0875
211.24758	3705.1875
215.53334	4210.4875
219.81599	4743.5875
224.09553	5316.4875
228.37195	5975.0875
232.64527	6693.0875
236.91549	7446.2875
241.18261	8195.4875
245.44663	8903.0875
249.70755	9521.3875
253.96539	10043.5875
258.22014	10437.8875
262.4718	10753.4875
266.72039	10958.9875
270.96589	11055.8875
275.20832	10952.7875
279.44768	10856.4875
283.68397	10679.6875
287.91719	10468.1875
292.14735	10378.1875
296.37445	10322.0875
300.59849	10366.2875
304.81948	10391.4875
309.03742	10415.4875
313.25231	10381.2875
317.46415	10175.7875
321.67296	9912.4875
325.87872	9704.8875
330.08145	9592.3875
334.28114	9610.7875
338.47781	9655.4875
342.67145	9760.2875
346.86207	9942.2875
351.04966	10148.6875
355.23424	10363.8875
359.4158	10547.0875
363.59435	10692.7875
367.76989	10797.0875
371.94243	10847.2875
376.11196	10853.8875
380.27849	10868.9875
384.44203	10901.6875
388.60257	10930.8875
392.76012	11006.0875
396.91468	11157.5875
401.06626	11305.4875
405.21485	11428.9875
409.36047	11359.9875
413.50311	11163.5875
417.64277	10972.8875
421.77947	10911.3875
425.9132	10874.4875
430.04396	10902.3875
434.17176	10949.6875
438.2966	11011.6875
442.41849	11154.3875
446.53742	11347.3875
450.6534	11509.3875
454.76644	11663.9875
458.87653	11723.4875
462.98368	11701.3875
467.08789	11665.6875
471.18916	11557.2875
475.2875	11458.5875
479.38291	11318.3875
483.4754	11250.4875
487.56496	11140.1875
491.6516	11111.7875
495.73531	11076.4875
499.81612	11064.6875
503.89401	11116.6875
507.96899	11166.4875
512.04106	11218.7875
516.11023	11228.2875
520.1765	11194.3875
524.23987	11177.1875
528.30034	11076.7875
532.35792	10986.6875
536.41261	10912.1875
540.46441	10812.6875
544.51333	10778.8875
548.55936	10825.0875
552.60252	10985.9875
556.64279	11149.1875
560.6802	11206.5875
564.71473	11257.4875
568.7464	11367.0875
572.7752	11593.8875
576.80114	11831.1875
580.82422	12033.2875
584.84444	12343.7875
588.86181	12618.1875
592.87633	12862.1875
596.888	12942.4875
600.89682	12812.8875
604.9028	13001.2875
608.90594	14089.9875
612.90624	15417.2875
616.90371	14616.7875
620.89834	12311.4875
624.89015	11270.7875
628.87913	11120.8875
632.86528	11237.8875
636.84862	11354.8875
640.82913	11253.0875
644.80683	10987.3875
648.78172	10781.4875
652.75379	10776.3875
656.72306	10901.4875
660.68952	11123.3875
664.65319	11084.8875
668.61405	10924.0875
672.57211	10909.1875
676.52738	10941.4875
680.47986	10956.3875
684.42955	10903.3875
688.37646	10856.4875
692.32058	10860.2875
696.26192	10940.1875
700.20048	11005.4875
704.13626	11041.3875
708.06928	11052.4875
711.99952	11016.7875
715.927	10957.3875
719.85171	10929.9875
723.77365	10890.2875
727.69284	10815.1875
731.60928	10669.4875
735.52295	10670.8875
739.43388	10667.3875
743.34206	10715.6875
747.24749	10751.1875
751.15017	10814.3875
755.05012	10949.0875
758.94733	11179.2875
762.8418	11706.3875
766.73354	12645.1875
770.62254	13526.2875
774.50882	13824.1875
778.39237	13354.3875
782.27321	12468.0875
786.15132	11675.9875
790.02671	11146.9875
793.89938	10876.2875
797.76935	10731.3875
801.6366	10669.6875
805.50115	10594.5875
809.36299	10531.5875
813.22213	10498.1875
817.07857	10450.6875
820.93231	10443.3875
824.78336	10426.3875
828.63172	10406.3875
832.47738	10396.8875
836.32036	10377.7875
840.16066	10366.5875
843.99827	10376.2875
847.8332	10369.1875
851.66546	10369.1875
855.49504	10384.1875
859.32195	10375.3875
863.1462	10377.3875
866.96777	10355.5875
870.78668	10371.2875
874.60293	10381.8875
878.41652	10409.9875
882.22745	10428.0875
886.03573	10483.9875
889.84136	10482.0875
893.64433	10440.8875
897.44466	10453.4875
901.24235	10451.7875
905.0374	10417.0875
908.8298	10390.1875
912.61957	10367.3875
916.40671	10400.9875
920.19121	10501.1875
923.97308	10568.4875
927.75233	10609.9875
931.52895	10595.3875
935.30295	10478.5875
939.07433	10321.8875
942.84309	10166.8875
946.60924	10073.6875
950.37278	10027.0875
954.13371	10026.1875
957.89203	10007.7875
961.64774	9991.9875
965.40086	9981.1875
969.15137	9961.7875
972.89929	9967.1875
976.64461	9905.8875
980.38733	9889.2875
984.12747	9911.2875
987.86502	9938.2875
991.59999	9958.9875
995.33237	10029.5875
999.06217	10138.8875
1002.78939	10272.2875
1006.51404	10421.8875
1010.23611	10574.9875
1013.95561	10684.9875
1017.67255	10704.0875
1021.38692	10646.0875
1025.09872	10517.2875
1028.80796	10416.7875
1032.51465	10366.0875
1036.21877	10369.5875
1039.92035	10394.4875
1043.61937	10457.2875
1047.31584	10493.5875
1051.00976	10536.9875
1054.70114	10561.4875
1058.38998	10613.5875
1062.07627	10681.3875
1065.76003	10763.4875
1069.44126	10885.0875
1073.11995	11071.6875
1076.79611	11222.9875
1080.46974	11336.5875
1084.14085	11387.2875
1087.80943	11469.8875
1091.47549	11545.9875
1095.13903	11550.7875
1098.80005	11425.2875
1102.45857	11165.8875
1106.11456	11020.0875
1109.76805	10897.7875
1113.41903	10915.1875
1117.06751	10984.1875
1120.71348	11133.0875
1124.35696	11282.5875
1127.99793	11484.1875
1131.63641	11530.2875
1135.2724	11476.5875
1138.90589	11362.6875
1142.5369	11280.2875
1146.16542	11263.0875
1149.79145	11254.4875
1153.415	11264.6875
1157.03607	11339.9875
1160.65467	11554.4875
1164.27079	11819.6875
1167.88443	12279.0875
1171.49561	12872.3875
1175.10432	13670.6875
1178.71056	14671.4875
1182.31434	15600.7875
1185.91565	16075.9875
1189.51451	16135.0875
1193.11091	15818.4875
1196.70485	15255.3875
1200.29634	14602.2875
1203.88538	14055.7875
1207.47197	13552.8875
1211.05612	13173.3875
1214.63782	12843.6875
1218.21708	12647.6875
1221.79391	12445.7875
1225.36829	12401.9875
1228.94024	12359.7875
1232.50976	12340.1875
1236.07685	12278.3875
1239.6415	12241.4875
1243.20374	12241.9875
1246.76355	12289.4875
1250.32093	12334.3875
1253.8759	12482.7875
1257.42845	12722.0875
1260.97859	13021.0875
1264.52631	13375.8875
1268.07163	13717.3875
1271.61453	14032.0875
1275.15503	14298.4875
1278.69312	14579.3875
1282.22882	14852.6875
1285.76211	15177.2875
1289.29301	15562.4875
1292.82151	15963.2875
1296.34761	16463.2875
1299.87133	17064.4875
1303.39266	17770.6875
1306.9116	18651.6875
1310.42815	19440.6875
1313.94233	19853.7875
1317.45412	19669.3875
1320.96354	19235.6875
1324.47058	18764.2875
1327.97525	18352.1875
1331.47754	18099.8875
1334.97747	18023.8875
1338.47502	18045.7875
1341.97022	18169.6875
1345.46305	18376.9875
1348.95352	18655.3875
1352.44163	19028.2875
1355.92738	19585.8875
1359.41078	20399.3875
1362.89183	21247.6875
1366.37053	21084.4875
1369.84688	19472.6875
1373.32088	17446.3875
1376.79254	15976.0875
1380.26186	15163.7875
1383.72883	14759.8875
1387.19347	14429.0875
1390.65578	14077.9875
1394.11575	13879.4875
1397.57339	13788.6875
1401.0287	13794.0875
1404.48168	13811.7875
1407.93234	13764.9875
1411.38068	13690.2875
1414.82669	13477.8875
1418.27039	13246.1875
1421.71177	13029.5875
1425.15083	12825.7875
1428.58758	12694.3875
1432.02203	12718.2875
1435.45416	12817.0875
1438.88399	12961.8875
1442.31151	13047.7875
1445.73673	13131.3875
1449.15965	13260.3875
1452.58027	13380.2875
1455.9986	13448.3875
1459.41463	13556.0875
1462.82837	13737.3875
1466.23982	13978.4875
1469.64898	14208.4875
1473.05586	14404.2875
1476.46045	14563.1875
1479.86276	14634.6875
1483.26279	14736.3875
1486.66054	14901.2875
1490.05602	15210.4875
1493.44922	15645.4875
1496.84016	16330.0875
1500.22882	17203.5875
1503.61521	18222.3875
1506.99934	19249.2875
1510.38121	19886.4875
1513.76081	19744.9875
1517.13816	18915.2875
1520.51324	17724.4875
1523.88607	16715.1875
1527.25665	16019.1875
1530.62498	15636.2875
1533.99105	15285.3875
1537.35488	15022.6875
1540.71647	14711.3875
1544.07581	14403.9875
1547.4329	14097.7875
1550.78776	13918.0875
1554.14038	13867.7875
1557.49077	13860.9875
1560.83892	13977.3875
1564.18484	14115.7875
1567.52853	14283.9875
1570.86999	14493.8875
1574.20922	14660.8875
1577.54624	14696.4875
1580.88103	14452.2875
1584.2136	14107.8875
1587.54395	13966.1875
1590.87208	14213.2875
1594.19801	14672.5875
1597.52172	15233.1875
1600.84321	15433.2875
1604.16251	15063.3875
1607.47959	14346.1875
1610.79447	13606.3875
1614.10715	12863.1875
1617.41763	12178.7875
1620.7259	11688.6875
1624.03199	11405.3875
1627.33587	11351.0875
1630.63757	11506.4875
1633.93707	11970.0875
1637.23439	12793.4875
1640.52951	13991.8875
1643.82246	15521.6875
1647.11321	16910.9875
1650.40179	17514.7875
1653.68819	16717.7875
1656.97241	14973.8875
1660.25446	13115.3875
1663.53433	11693.6875
1666.81203	10807.0875
1670.08756	10245.4875
1673.36092	9945.6875
1676.63211	9777.5875
1679.90115	9611.0875
1683.16801	9475.2875
1686.43272	9390.2875
1689.69527	9298.0875
1692.95567	9184.0875
1696.2139	9048.4875
1699.46999	8923.2875
1702.72392	8874.9875
1705.97571	8912.5875
1709.22535	9014.2875
1712.47284	9071.5875
1715.71819	9072.2875
1718.96139	9081.4875
1722.20246	9054.2875
1725.44139	9001.4875
1728.67818	8980.0875
1731.91284	8916.6875
1735.14537	8854.1875
1738.37576	8843.2875
1741.60403	8778.6875
1744.83017	8730.0875
1748.05418	8712.6875
1751.27607	8689.4875
1754.49584	8611.2875
1757.71349	8579.9875
1760.92903	8518.8875
1764.14244	8501.5875
1767.35375	8521.6875
1770.56294	8482.0875
1773.77002	8474.6875
1776.97499	8496.4875
1780.17785	8533.2875
1783.37861	8524.8875
1786.57727	8542.5875
1789.77382	8513.0875
1792.96828	8509.9875
1796.16064	8496.1875
1799.3509	8491.4875
1802.53907	8475.2875
1805.72514	8467.6875
1808.90913	8417.6875
1812.09102	8406.5875
1815.27083	8403.3875
1818.44856	8384.1875
1821.6242	8396.6875
1824.79776	8392.6875
1827.96924	8383.5875
1831.13864	8354.3875
1834.30597	8358.5875
1837.47122	8379.8875
1840.6344	8379.1875
1843.7955	8354.0875
1846.95454	8373.5875
1850.11151	8369.4875
1853.26642	8356.5875
1856.41926	8350.3875
1859.57004	8317.5875
1862.71876	8331.4875
1865.86542	8298.4875
1869.01003	8305.8875
1872.15258	8278.4875
1875.29308	8282.7875
1878.43152	8250.7875
1881.56792	8246.2875
1884.70227	8240.5875
1887.83457	8206.2875
1890.96482	8194.5875
1894.09304	8182.8875
1897.21921	8175.1875
1900.34335	8161.4875
1903.46544	8160.1875
1906.58551	8139.7875
1909.70353	8114.1875
1912.81953	8112.2875
1915.93349	8085.4875
1919.04543	8104.8875
1922.15534	8090.3875
1925.26322	8027.1875
1928.36908	8037.0875
1931.47292	8010.1875
1934.57473	7992.7875
1937.67453	7963.3875
1940.77232	7957.0875
1943.86808	7934.1875
1946.96184	7900.6875
1950.05358	7876.7875
1953.14331	7853.3875
1956.23103	7839.6875
1959.31675	7793.9875
1962.40046	7795.8875
1965.48217	7768.3875
1968.56188	7740.8875
1971.63959	7717.0875
1974.7153	7710.6875
1977.78901	7663.8875
1980.86073	7649.1875
1983.93046	7610.5875
1986.99819	7582.7875
1990.06394	7585.0875
1993.1277	7539.9875
1996.18947	7532.6875
1999.24925	7503.6875
2002.30706	7468.6875
2005.36288	7451.9875
2008.41672	7430.9875
2011.46859	7391.2875
2014.51848	7364.6875
2017.56639	7357.1875
2020.61233	7350.8875
2023.6563	7356.0875
2026.6983	7279.3875
2029.73833	7270.8875
2032.7764	7252.2875
2035.8125	7249.4875
2038.84664	7222.0875
2041.87881	7246.3875
2044.90903	7215.1875
2047.93729	7211.0875
2050.96359	7215.4875
2053.98794	7177.0875
2057.01034	7178.0875
2060.03078	7186.1875
2063.04927	7168.3875
2066.06582	7184.6875
2069.08042	7158.6875
2072.09307	7164.8875
2075.10378	7126.3875
2078.11255	7154.0875
2081.11938	7159.2875
2084.12426	7136.0875
2087.12722	7134.1875
2090.12824	7139.4875
2093.12732	7123.7875
2096.12447	7124.5875
2099.11969	7148.7875
2102.11299	7141.0875
2105.10435	7148.8875
2108.09379	7143.3875
2111.08131	7123.1875
2114.0669	7155.5875
2117.05057	7147.9875
2120.03233	7177.4875
2123.01216	7190.1875
2125.99008	7192.7875
2128.96609	7184.8875
2131.94018	7186.1875
2134.91236	7176.1875
2137.88263	7164.3875
2140.851	7180.3875
2143.81746	7199.6875
2146.78201	7205.1875
2149.74466	7180.9875
2152.7054	7189.9875
2155.66425	7177.1875
2158.6212	7184.1875
2161.57625	7157.9875
2164.52941	7164.7875
2167.48067	7158.2875
2170.43004	7157.3875
2173.37752	7180.0875
2176.32311	7142.9875
2179.26681	7149.7875
2182.20863	7158.7875
2185.14856	7157.0875
2188.08661	7168.2875
2191.02278	7147.1875
2193.95707	7129.3875
2196.88948	7119.3875
2199.82001	7128.1875
2202.74867	7115.8875
2205.67545	7112.8875
2208.60037	7103.9875
2211.52341	7093.8875
2214.44458	7071.8875
2217.36388	7051.0875
2220.28132	7032.7875
2223.1969	7028.6875
2226.11061	7031.0875
2229.02246	7000.9875
2231.93245	6969.4875
2234.84058	6976.5875
2237.74686	6963.8875
2240.65128	6950.4875
2243.55385	6978.6875
2246.45456	6958.1875
2249.35343	6935.6875
2252.25044	6919.2875
2255.14561	6912.9875
2258.03893	6917.7875
2260.93041	6898.4875
2263.82004	6882.9875
2266.70783	6868.5875
2269.59378	6841.0875
2272.4779	6830.5875
2275.36017	6817.2875
2278.24061	6792.9875
2281.11922	6794.7875
2283.996	6768.8875
2286.87094	6795.9875
2289.74405	6773.4875
2292.61534	6748.4875
2295.4848	6733.0875
2298.35243	6735.6875
2301.21824	6742.1875
2304.08223	6703.6875
2306.94439	6717.0875
2309.80474	6696.7875
2312.66327	6712.3875
2315.51999	6680.5875
2318.37489	6680.9875
2321.22797	6667.0875
2324.07925	6666.5875
2326.92871	6654.4875
2329.77637	6668.7875
2332.62222	6646.6875
2335.46626	6621.6875
2338.3085	6592.2875
2341.14893	6612.0875
2343.98756	6619.4875
2346.8244	6609.0875
2349.65943	6618.2875
2352.49267	6606.5875
2355.32411	6605.0875
2358.15376	6598.2875
2360.98161	6606.9875
2363.80768	6598.5875
2366.63195	6600.1875
2369.45444	6581.9875
2372.27514	6586.2875
2375.09405	6585.6875
2377.91118	6575.6875
2380.72652	6548.2875
2383.54009	6532.2875
2386.35187	6524.2875
2389.16188	6507.4875
2391.97011	6487.6875
2394.77657	6472.0875
2397.58125	6466.1875
2400.38416	6460.7875
2403.18529	6436.2875
2405.98466	6424.9875
2408.78226	6423.5875
2411.57809	6403.9875
2414.37216	6396.5875
2417.16446	6370.6875
2419.955	6408.3875
2422.74378	6403.2875
2425.5308	6380.9875
2428.31606	6373.4875
2431.09956	6371.6875
2433.88131	6357.8875
2436.6613	6358.9875
2439.43954	6366.2875
2442.21603	6371.8875
2444.99077	6362.4875
2447.76377	6364.5875
2450.53501	6377.4875
2453.30451	6370.3875
2456.07226	6346.7875
2458.83827	6340.3875
2461.60254	6338.8875
2464.36507	6341.7875
2467.12586	6359.5875
2469.88492	6321.0875
2472.64224	6315.9875
2475.39782	6322.2875
2478.15167	6305.6875
2480.90379	6314.6875
2483.65417	6314.6875
2486.40283	6319.9875
2489.14976	6322.5875
2491.89497	6315.0875
2494.63845	6302.7875
2497.3802	6281.8875
2500.12024	6297.9875
2502.85855	6286.2875
2505.59514	6289.4875
2508.33002	6262.6875
2511.06318	6250.3875
2513.79462	6276.7875
2516.52435	6251.5875
2519.25237	6255.3875
2521.97867	6227.3875
2524.70327	6233.3875
2527.42616	6202.1875
2530.14734	6203.5875
2532.86681	6212.5875
2535.58458	6205.9875
2538.30065	6205.3875
2541.01501	6201.7875
2543.72768	6198.5875
2546.43864	6167.1875
2549.14791	6169.9875
2551.85548	6168.8875
2554.56136	6145.6875
2557.26554	6147.8875
2559.96803	6130.7875
2562.66883	6134.5875
2565.36794	6123.2875
2568.06536	6128.4875
2570.7611	6103.4875
2573.45514	6091.5875
2576.14751	6078.5875
2578.83819	6065.7875
2581.52719	6064.3875
2584.21451	6046.1875
2586.90015	6044.5875
2589.58411	6034.8875
2592.2664	6023.2875
2594.94701	6003.4875
2597.62594	5998.1875
2600.30321	6005.1875
2602.9788	5987.7875
2605.65273	5998.8875
2608.32498	5985.1875
2610.99557	5983.4875
2613.66449	5982.4875
2616.33175	5984.1875
2618.99734	5963.1875
2621.66128	5951.9875
2624.32355	5954.1875
2626.98416	5951.8875
2629.64311	5927.2875
2632.30041	5940.9875
2634.95605	5907.4875
2637.61004	5900.1875
2640.26238	5898.8875
2642.91306	5895.2875
2645.56209	5905.3875
2648.20948	5882.0875
2650.85521	5876.6875
2653.4993	5903.9875
2656.14175	5870.9875
2658.78255	5882.7875
2661.42171	5876.7875
2664.05923	5895.6875
2666.6951	5900.3875
2669.32934	5909.9875
2671.96194	5916.3875
2674.59291	5911.1875
2677.22224	5912.2875
2679.84993	5905.7875
2682.476	5907.4875
2685.10043	5882.0875
2687.72324	5895.6875
2690.34441	5894.6875
2692.96396	5889.2875
2695.58188	5889.5875
2698.19818	5886.5875
2700.81285	5878.2875
2703.4259	5843.3875
2706.03733	5813.4875
2708.64714	5843.7875
2711.25533	5851.1875
2713.86191	5861.7875
2716.46687	5878.8875
2719.07021	5873.0875
2721.67194	5905.4875
2724.27206	5887.7875
2726.87057	5897.7875
2729.46747	5897.9875
2732.06276	5914.2875
2734.65644	5898.4875
2737.24852	5892.2875
2739.83899	5887.1875
2742.42786	5901.4875
2745.01513	5878.3875
2747.60079	5874.8875
2750.18486	5875.0875
2752.76733	5860.8875
2755.3482	5864.4875
2757.92747	5867.1875
2760.50515	5816.9875
2763.08123	5849.9875
2765.65573	5818.0875
2768.22863	5826.0875
2770.79994	5799.9875
2773.36967	5802.8875
2775.9378	5808.7875
2778.50435	5768.0875
2781.06932	5794.0875
2783.6327	5791.2875
2786.1945	5768.5875
2788.75471	5764.3875
2791.31335	5748.0875
2793.87041	5755.1875
2796.42589	5744.0875
2798.97979	5733.7875
2801.53212	5713.5875
2804.08288	5707.7875
2806.63206	5708.4875
2809.17967	5690.9875
2811.72571	5679.0875
2814.27018	5672.8875
2816.81308	5659.7875
2819.35442	5663.8875
2821.89419	5660.5875
2824.43239	5657.4875
2826.96904	5640.1875
2829.50412	5654.2875
2832.03763	5630.9875
2834.56959	5642.0875
2837.1	5637.6875
2839.62884	5641.0875
2842.15613	5632.5875
2844.68186	5623.0875
2847.20604	5627.4875
2849.72867	5628.7875
2852.24974	5628.7875
2854.76927	5632.0875
2857.28724	5594.3875
2859.80367	5594.1875
2862.31855	5588.3875
2864.83189	5599.4875
2867.34368	5591.7875
2869.85393	5604.9875
2872.36264	5580.4875
2874.8698	5593.5875
2877.37543	5595.8875
2879.87952	5590.2875
2882.38207	5582.3875
2884.88308	5574.1875
2887.38256	5593.8875
2889.88051	5599.4875
2892.37692	5597.4875
2894.8718	5595.6875
2897.36515	5599.1875
2899.85698	5595.9875
2902.34727	5613.4875
2904.83604	5607.0875
2907.32328	5606.9875
2909.809	5605.8875
2912.29319	5628.1875
2914.77587	5617.8875
2917.25702	5630.4875
2919.73665	5626.1875
2922.21476	5626.5875
2924.69136	5610.5875
2927.16644	5622.4875
2929.64	5617.9875
2932.11205	5580.2875
2934.58258	5594.0875
2937.05161	5583.2875
2939.51912	5589.9875
2941.98513	5594.4875
2944.44962	5579.7875
2946.91261	5548.6875
2949.37409	5581.0875
2951.83407	5543.2875
2954.29254	5553.2875
2956.74951	5539.5875
2959.20498	5517.8875
2961.65895	5522.6875
2964.11142	5512.7875
2966.56239	5498.1875
2969.01186	5500.5875
2971.45984	5494.9875
2973.90632	5460.7875
2976.35131	5456.8875
2978.7948	5466.1875
2981.23681	5461.6875
2983.67732	5418.3875
2986.11635	5425.9875
2988.55388	5412.9875
2990.98993	5409.2875
2993.4245	5393.9875
2995.85758	5387.5875
2998.28917	5375.3875
3000.71928	5371.9875
3003.14791	5351.4875
3005.57506	5338.9875
3008.00073	5332.1875
3010.42493	5331.5875
3012.84764	5315.2875
3015.26888	5326.2875
3017.68865	5324.9875
3020.10694	5310.5875
3022.52376	5291.8875
3024.9391	5278.5875
3027.35298	5283.6875
3029.76539	5278.1875
3032.17632	5266.7875
3034.5858	5250.7875
3036.9938	5250.9875
3039.40034	5240.9875
3041.80542	5236.8875
3044.20903	5255.4875
3046.61118	5237.1875
3049.01187	5230.0875
3051.4111	5235.6875
3053.80888	5217.4875
3056.20519	5196.4875
3058.60005	5195.9875
3060.99345	5203.6875
3063.3854	5187.6875
3065.7759	5186.7875
3068.16494	5185.9875
3070.55254	5167.1875
3072.93868	5155.5875
3075.32338	5135.8875
3077.70662	5123.1875
3080.08842	5119.0875
3082.46878	5109.7875
