Data from AgNPs_FTO_APTES_UA_50uM_CRN_50uM_R6G_10uM_NaF_0.1M_Addition_RamanShift__5__14-38-34-964.txt Node

Date: Mon Feb 21 14:38:34 GMT 2022
User: TCL
Spectrometer: QEP01345
Trigger mode: 4
Integration Time (sec): 7.000000E0
Scans to average: 10
Electric dark correction enabled: true
Nonlinearity correction enabled: false
Boxcar width: 0
XAxis mode: Raman Shifts
Number of Pixels in Spectrum: 1044
>>>>>Begin Spectral Data<<<<<
46.04893	-0.325
50.45542	-1.025
54.85868	-0.125
59.25871	-1.725
63.6555	64.675
68.04907	72.075
72.43941	73.175
76.82654	79.175
81.21044	79.275
85.59113	85.775
89.96862	83.475
94.34289	92.175
98.71396	95.975
103.08183	100.975
107.4465	96.175
111.80798	100.375
116.16626	98.275
120.52136	105.075
124.87327	111.875
129.222	109.575
133.56755	119.575
137.90993	126.875
142.24913	130.075
146.58517	149.975
150.91804	169.975
155.24774	200.575
159.57429	244.475
163.89768	306.675
168.21792	411.375
172.53501	555.675
176.84895	776.875
181.15975	1085.475
185.46741	1506.075
189.77193	2086.075
194.07331	2784.475
198.37157	3567.775
202.6667	4409.475
206.9587	5228.475
211.24758	6051.575
215.53334	6896.175
219.81599	7782.275
224.09553	8750.675
228.37195	9838.375
232.64527	11023.275
236.91549	12253.975
241.18261	13474.275
245.44663	14595.275
249.70755	15517.675
253.96539	16355.075
258.22014	17028.375
262.4718	17589.675
266.72039	17971.475
270.96589	18162.875
275.20832	18131.775
279.44768	17938.675
283.68397	17714.375
287.91719	17479.275
292.14735	17364.175
296.37445	17350.475
300.59849	17431.275
304.81948	17560.675
309.03742	17698.075
313.25231	17628.375
317.46415	17374.275
321.67296	17020.975
325.87872	16735.875
330.08145	16612.975
334.28114	16630.575
338.47781	16725.275
342.67145	16930.475
346.86207	17244.975
351.04966	17625.975
355.23424	18010.975
359.4158	18380.275
363.59435	18635.575
367.76989	18793.575
371.94243	18874.175
376.11196	18945.275
380.27849	19009.175
384.44203	19147.475
388.60257	19305.975
392.76012	19439.975
396.91468	19580.175
401.06626	19888.875
405.21485	20110.175
409.36047	19950.875
413.50311	19698.975
417.64277	19487.675
421.77947	19426.075
425.9132	19498.575
430.04396	19589.775
434.17176	19721.175
438.2966	19874.575
442.41849	20328.175
446.53742	21005.975
450.6534	21679.075
454.76644	22123.475
458.87653	22159.075
462.98368	21932.875
467.08789	21528.475
471.18916	21083.375
475.2875	20603.875
479.38291	20234.675
483.4754	19964.775
487.56496	19765.675
491.6516	19633.675
495.73531	19490.775
499.81612	19493.375
503.89401	19679.775
507.96899	19729.575
512.04106	19664.175
516.11023	19566.375
520.1765	19408.475
524.23987	19351.075
528.30034	19327.975
532.35792	19199.675
536.41261	18994.175
540.46441	18746.575
544.51333	18603.375
548.55936	18747.775
552.60252	19140.775
556.64279	19641.075
560.6802	19975.875
564.71473	20087.475
568.7464	20300.075
572.7752	20754.575
576.80114	21236.475
580.82422	21817.575
584.84444	22752.875
588.86181	24155.275
592.87633	25612.375
596.888	25951.875
600.89682	24827.575
604.9028	24284.775
608.90594	25898.275
612.90624	27919.775
616.90371	26081.975
620.89834	21800.175
624.89015	19931.375
628.87913	19737.575
632.86528	19798.575
636.84862	19753.975
640.82913	19320.675
644.80683	18825.575
648.78172	18475.375
652.75379	18468.675
656.72306	18751.975
660.68952	19091.175
664.65319	18955.775
668.61405	18602.075
672.57211	18582.675
676.52738	18759.575
680.47986	18763.075
684.42955	18543.175
688.37646	18377.775
692.32058	18531.175
696.26192	18837.775
700.20048	19134.075
704.13626	19233.275
708.06928	19174.975
711.99952	19015.175
715.927	19025.275
719.85171	19149.675
723.77365	19136.475
727.69284	18839.075
731.60928	18553.575
735.52295	18541.375
739.43388	18614.075
743.34206	18684.475
747.24749	18789.975
751.15017	18917.075
755.05012	19202.675
758.94733	19710.175
762.8418	20658.275
766.73354	22189.175
770.62254	23712.775
774.50882	24170.775
778.39237	23203.775
782.27321	21598.675
786.15132	20235.875
790.02671	19353.475
793.89938	18954.975
797.76935	18715.875
801.6366	18667.375
805.50115	18606.375
809.36299	18494.675
813.22213	18373.875
817.07857	18241.675
820.93231	18087.775
824.78336	18059.975
828.63172	18009.375
832.47738	18010.675
836.32036	18085.975
840.16066	18185.275
843.99827	18265.675
847.8332	18196.375
851.66546	18083.875
855.49504	18067.575
859.32195	18092.275
863.1462	18044.975
866.96777	17995.075
870.78668	17988.075
874.60293	17959.275
878.41652	18006.475
882.22745	18148.975
886.03573	18227.175
889.84136	18192.875
893.64433	18112.275
897.44466	18059.875
901.24235	17990.675
905.0374	17865.875
908.8298	17804.675
912.61957	17784.375
916.40671	17913.275
920.19121	18143.575
923.97308	18437.975
927.75233	18605.375
931.52895	18547.275
935.30295	18335.375
939.07433	17920.375
942.84309	17700.575
946.60924	17558.875
950.37278	17514.175
954.13371	17526.575
957.89203	17467.775
961.64774	17399.775
965.40086	17408.375
969.15137	17424.875
972.89929	17342.575
976.64461	17347.275
980.38733	17359.875
984.12747	17466.575
987.86502	17608.075
991.59999	17866.375
995.33237	18162.575
999.06217	18776.875
1002.78939	19432.575
1006.51404	19894.175
1010.23611	20224.675
1013.95561	20451.075
1017.67255	20464.875
1021.38692	20225.175
1025.09872	19884.775
1028.80796	19936.475
1032.51465	20446.575
1036.21877	20980.675
1039.92035	21127.875
1043.61937	20914.775
1047.31584	20440.575
1051.00976	19880.775
1054.70114	19509.475
1058.38998	19349.175
1062.07627	19373.175
1065.76003	19489.675
1069.44126	19649.375
1073.11995	19924.775
1076.79611	20244.275
1080.46974	20466.875
1084.14085	20755.875
1087.80943	21010.075
1091.47549	21125.675
1095.13903	21046.875
1098.80005	20666.775
1102.45857	20231.575
1106.11456	19913.375
1109.76805	19861.175
1113.41903	19953.775
1117.06751	20114.775
1120.71348	20342.875
1124.35696	20596.975
1127.99793	20859.075
1131.63641	20982.175
1135.2724	20909.075
1138.90589	20806.275
1142.5369	20746.375
1146.16542	20807.375
1149.79145	20907.975
1153.415	21027.275
1157.03607	21291.275
1160.65467	21909.175
1164.27079	22861.075
1167.88443	24100.575
1171.49561	25614.075
1175.10432	27539.075
1178.71056	30086.875
1182.31434	32460.575
1185.91565	33469.775
1189.51451	33064.475
1193.11091	31756.175
1196.70485	30239.875
1200.29634	28916.175
1203.88538	27958.475
1207.47197	27225.975
1211.05612	26598.675
1214.63782	26009.075
1218.21708	25560.075
1221.79391	25385.275
1225.36829	25363.575
1228.94024	25168.675
1232.50976	24604.575
1236.07685	24036.775
1239.6415	23646.675
1243.20374	23556.575
1246.76355	23733.975
1250.32093	24126.075
1253.8759	24688.175
1257.42845	25355.275
1260.97859	26212.175
1264.52631	27139.775
1268.07163	28060.875
1271.61453	29064.075
1275.15503	30031.575
1278.69312	30897.275
1282.22882	31738.875
1285.76211	32861.975
1289.29301	34070.675
1292.82151	35546.975
1296.34761	37416.775
1299.87133	39815.475
1303.39266	42591.175
1306.9116	45354.475
1310.42815	47698.675
1313.94233	48740.075
1317.45412	47951.475
1320.96354	46057.175
1324.47058	44121.775
1327.97525	42509.075
1331.47754	41411.575
1334.97747	40728.775
1338.47502	40095.275
1341.97022	39494.075
1345.46305	38888.375
1348.95352	38728.075
1352.44163	39544.675
1355.92738	41596.875
1359.41078	44628.275
1362.89183	47060.975
1366.37053	46623.575
1369.84688	42574.475
1373.32088	37353.675
1376.79254	33725.975
1380.26186	32249.575
1383.72883	31960.475
1387.19347	31658.475
1390.65578	31091.475
1394.11575	30917.775
1397.57339	31200.975
1401.0287	31685.475
1404.48168	32124.675
1407.93234	32204.875
1411.38068	31810.375
1414.82669	31075.375
1418.27039	30111.875
1421.71177	29117.275
1425.15083	28264.975
1428.58758	27922.475
1432.02203	28280.975
1435.45416	29012.175
1438.88399	29803.175
1442.31151	30188.775
1445.73673	30423.175
1449.15965	30441.575
1452.58027	30297.875
1455.9986	29969.475
1459.41463	30013.375
1462.82837	30391.375
1466.23982	31177.075
1469.64898	31943.975
1473.05586	32521.475
1476.46045	32815.075
1479.86276	32883.575
1483.26279	32681.575
1486.66054	32706.375
1490.05602	32966.775
1493.44922	33446.875
1496.84016	33826.075
1500.22882	34219.175
1503.61521	34947.875
1506.99934	35945.575
1510.38121	36778.675
1513.76081	36804.075
1517.13816	35764.875
1520.51324	34312.075
1523.88607	33157.875
1527.25665	32645.075
1530.62498	32477.075
1533.99105	32272.475
1537.35488	31818.975
1540.71647	31178.375
1544.07581	30350.975
1547.4329	29550.075
1550.78776	28902.675
1554.14038	28500.275
1557.49077	28226.075
1560.83892	28150.575
1564.18484	28158.475
1567.52853	28268.675
1570.86999	28617.075
1574.20922	29142.775
1577.54624	29480.875
1580.88103	29443.475
1584.2136	29596.475
1587.54395	30615.775
1590.87208	32580.175
1594.19801	35143.775
1597.52172	37459.775
1600.84321	38148.475
1604.16251	36344.875
1607.47959	33083.075
1610.79447	29624.075
1614.10715	26792.575
1617.41763	24641.575
1620.7259	23352.475
1624.03199	22866.375
1627.33587	23057.575
1630.63757	23921.075
1633.93707	25602.375
1637.23439	28375.375
1640.52951	32422.475
1643.82246	37286.575
1647.11321	41021.675
1650.40179	41280.475
1653.68819	37552.675
1656.97241	31875.975
1660.25446	26769.375
1663.53433	23285.875
1666.81203	21205.475
1670.08756	19981.675
1673.36092	19262.575
1676.63211	18742.675
1679.90115	18389.875
1683.16801	18126.775
1686.43272	17903.875
1689.69527	17746.975
1692.95567	17598.975
1696.2139	17378.475
1699.46999	17218.575
1702.72392	17168.375
1705.97571	17195.175
1709.22535	17277.075
1712.47284	17322.175
1715.71819	17313.075
1718.96139	17286.075
1722.20246	17198.275
1725.44139	17164.175
1728.67818	17067.975
1731.91284	16969.775
1735.14537	16852.275
1738.37576	16806.375
1741.60403	16723.675
1744.83017	16702.275
1748.05418	16645.375
1751.27607	16630.775
1754.49584	16520.475
1757.71349	16471.975
1760.92903	16436.575
1764.14244	16443.175
1767.35375	16374.275
1770.56294	16338.975
1773.77002	16316.175
1776.97499	16349.975
1780.17785	16369.475
1783.37861	16389.275
1786.57727	16406.875
1789.77382	16370.975
1792.96828	16355.175
1796.16064	16336.375
1799.3509	16303.075
1802.53907	16287.775
1805.72514	16244.675
1808.90913	16233.875
1812.09102	16213.675
1815.27083	16177.375
1818.44856	16149.075
1821.6242	16147.575
1824.79776	16146.575
1827.96924	16158.275
1831.13864	16157.875
1834.30597	16154.175
1837.47122	16160.475
1840.6344	16124.375
1843.7955	16131.675
1846.95454	16157.075
1850.11151	16126.275
1853.26642	16124.175
1856.41926	16132.875
1859.57004	16075.775
1862.71876	16081.575
1865.86542	16076.775
1869.01003	16090.375
1872.15258	16055.075
1875.29308	16046.875
1878.43152	16035.775
1881.56792	16019.675
1884.70227	16000.375
1887.83457	16019.875
1890.96482	16009.875
1894.09304	15970.075
1897.21921	15945.075
1900.34335	15907.775
1903.46544	15950.675
1906.58551	15916.075
1909.70353	15897.575
1912.81953	15878.275
1915.93349	15862.775
1919.04543	15856.675
1922.15534	15811.675
1925.26322	15759.775
1928.36908	15743.075
1931.47292	15726.575
1934.57473	15679.375
1937.67453	15622.875
1940.77232	15585.975
1943.86808	15565.975
1946.96184	15524.975
1950.05358	15483.075
1953.14331	15476.975
1956.23103	15414.275
1959.31675	15388.775
1962.40046	15348.575
1965.48217	15323.075
1968.56188	15252.475
1971.63959	15240.075
1974.7153	15185.575
1977.78901	15186.275
1980.86073	15103.175
1983.93046	15056.875
1986.99819	14969.975
1990.06394	14981.375
1993.1277	14982.975
1996.18947	14917.375
1999.24925	14889.075
2002.30706	14782.675
2005.36288	14762.875
2008.41672	14752.375
2011.46859	14680.575
2014.51848	14665.675
2017.56639	14618.775
2020.61233	14614.675
2023.6563	14597.575
2026.6983	14560.775
2029.73833	14549.475
2032.7764	14505.975
2035.8125	14492.275
2038.84664	14505.575
2041.87881	14507.375
2044.90903	14451.075
2047.93729	14441.475
2050.96359	14446.775
2053.98794	14426.175
2057.01034	14429.675
2060.03078	14416.475
2063.04927	14396.675
2066.06582	14373.875
2069.08042	14394.175
2072.09307	14359.375
2075.10378	14357.275
2078.11255	14351.875
2081.11938	14340.175
2084.12426	14337.575
2087.12722	14345.575
2090.12824	14341.475
2093.12732	14306.275
2096.12447	14359.775
2099.11969	14363.175
2102.11299	14367.275
2105.10435	14380.775
2108.09379	14365.275
2111.08131	14404.275
2114.0669	14368.075
2117.05057	14383.575
2120.03233	14427.075
2123.01216	14433.975
2125.99008	14470.875
2128.96609	14461.875
2131.94018	14474.675
2134.91236	14482.075
2137.88263	14479.975
2140.851	14504.475
2143.81746	14547.175
2146.78201	14550.475
2149.74466	14531.875
2152.7054	14519.675
2155.66425	14535.775
2158.6212	14561.675
2161.57625	14516.575
2164.52941	14523.275
2167.48067	14513.975
2170.43004	14545.275
2173.37752	14529.475
2176.32311	14532.775
2179.26681	14544.175
2182.20863	14556.975
2185.14856	14549.875
2188.08661	14571.075
2191.02278	14587.975
2193.95707	14591.675
2196.88948	14550.975
2199.82001	14576.075
2202.74867	14583.575
2205.67545	14603.375
2208.60037	14550.875
2211.52341	14525.675
2214.44458	14527.575
2217.36388	14511.975
2220.28132	14503.775
2223.1969	14480.075
2226.11061	14460.575
2229.02246	14456.575
2231.93245	14457.875
2234.84058	14430.375
2237.74686	14391.775
2240.65128	14409.375
2243.55385	14394.175
2246.45456	14376.875
2249.35343	14325.675
2252.25044	14316.875
2255.14561	14282.875
2258.03893	14290.975
2260.93041	14241.675
2263.82004	14257.075
2266.70783	14174.975
2269.59378	14167.575
2272.4779	14142.775
2275.36017	14099.175
2278.24061	14085.175
2281.11922	14058.875
2283.996	14038.175
2286.87094	14072.775
2289.74405	14057.375
2292.61534	14020.075
2295.4848	14027.475
2298.35243	14051.775
2301.21824	14049.375
2304.08223	14089.575
2306.94439	14057.275
2309.80474	14091.975
2312.66327	14073.875
2315.51999	14102.975
2318.37489	14067.475
2321.22797	14070.175
2324.07925	14073.775
2326.92871	14072.675
2329.77637	14068.675
2332.62222	14050.375
2335.46626	14012.175
2338.3085	14022.075
2341.14893	14035.675
2343.98756	14036.175
2346.8244	14042.575
2349.65943	14059.575
2352.49267	14043.875
2355.32411	14030.975
2358.15376	14010.575
2360.98161	13993.475
2363.80768	14006.075
2366.63195	13963.375
2369.45444	13947.775
2372.27514	13947.875
2375.09405	13921.275
2377.91118	13919.975
2380.72652	13896.775
2383.54009	13861.075
2386.35187	13849.475
2389.16188	13824.875
2391.97011	13816.075
2394.77657	13810.575
2397.58125	13773.775
2400.38416	13777.875
2403.18529	13747.275
2405.98466	13743.875
2408.78226	13713.375
2411.57809	13705.975
2414.37216	13680.375
2417.16446	13647.975
2419.955	13661.075
2422.74378	13664.375
2425.5308	13651.975
2428.31606	13645.175
2431.09956	13637.975
2433.88131	13629.175
2436.6613	13635.275
2439.43954	13627.875
2442.21603	13627.275
2444.99077	13666.675
2447.76377	13676.575
2450.53501	13659.775
2453.30451	13634.875
2456.07226	13630.675
2458.83827	13627.675
2461.60254	13640.475
2464.36507	13650.975
2467.12586	13639.875
2469.88492	13676.575
2472.64224	13673.575
2475.39782	13687.675
2478.15167	13674.775
2480.90379	13717.075
2483.65417	13695.075
2486.40283	13720.175
2489.14976	13703.175
2491.89497	13711.875
2494.63845	13727.175
2497.3802	13699.875
2500.12024	13691.975
2502.85855	13735.675
2505.59514	13721.975
2508.33002	13690.675
2511.06318	13670.275
2513.79462	13685.975
2516.52435	13631.075
2519.25237	13651.875
2521.97867	13632.575
2524.70327	13646.475
2527.42616	13646.275
2530.14734	13628.175
2532.86681	13645.775
2535.58458	13669.575
2538.30065	13624.575
2541.01501	13681.575
2543.72768	13639.875
2546.43864	13620.775
2549.14791	13613.075
2551.85548	13602.075
2554.56136	13584.375
2557.26554	13598.875
2559.96803	13590.375
2562.66883	13595.875
2565.36794	13600.575
2568.06536	13603.475
2570.7611	13574.475
2573.45514	13593.375
2576.14751	13595.875
2578.83819	13547.875
2581.52719	13550.675
2584.21451	13557.475
2586.90015	13553.775
2589.58411	13532.075
2592.2664	13521.275
2594.94701	13507.175
2597.62594	13515.875
2600.30321	13516.975
2602.9788	13558.775
2605.65273	13555.575
2608.32498	13554.875
2610.99557	13534.675
2613.66449	13553.675
2616.33175	13560.075
2618.99734	13553.275
2621.66128	13559.375
2624.32355	13579.775
2626.98416	13541.875
2629.64311	13507.675
2632.30041	13506.275
2634.95605	13485.975
2637.61004	13469.875
2640.26238	13475.075
2642.91306	13468.375
2645.56209	13443.275
2648.20948	13436.675
2650.85521	13452.975
2653.4993	13436.075
2656.14175	13468.275
2658.78255	13459.975
2661.42171	13472.675
2664.05923	13530.775
2666.6951	13528.875
2669.32934	13568.675
2671.96194	13569.975
2674.59291	13585.875
2677.22224	13559.875
2679.84993	13519.075
2682.476	13493.975
2685.10043	13545.175
2687.72324	13496.375
2690.34441	13520.575
2692.96396	13505.475
2695.58188	13509.975
2698.19818	13475.675
2700.81285	13474.875
2703.4259	13434.875
2706.03733	13409.575
2708.64714	13480.875
2711.25533	13484.475
2713.86191	13501.775
2716.46687	13563.275
2719.07021	13552.575
2721.67194	13608.275
2724.27206	13594.175
2726.87057	13624.575
2729.46747	13627.575
2732.06276	13653.175
2734.65644	13623.375
2737.24852	13620.075
2739.83899	13615.175
2742.42786	13607.275
2745.01513	13631.675
2747.60079	13630.875
2750.18486	13647.475
2752.76733	13647.275
2755.3482	13626.575
2757.92747	13603.175
2760.50515	13617.475
2763.08123	13628.775
2765.65573	13590.475
2768.22863	13592.075
2770.79994	13563.575
2773.36967	13562.775
2775.9378	13569.575
2778.50435	13554.675
2781.06932	13570.375
2783.6327	13611.775
2786.1945	13581.875
2788.75471	13610.975
2791.31335	13572.175
2793.87041	13545.475
2796.42589	13540.575
2798.97979	13494.075
2801.53212	13504.575
2804.08288	13489.575
2806.63206	13458.375
2809.17967	13452.275
2811.72571	13421.575
2814.27018	13391.975
2816.81308	13364.875
2819.35442	13362.175
2821.89419	13379.775
2824.43239	13379.375
2826.96904	13366.375
2829.50412	13368.275
2832.03763	13354.375
2834.56959	13363.575
2837.1	13343.675
2839.62884	13363.175
2842.15613	13344.975
2844.68186	13332.375
2847.20604	13328.875
2849.72867	13343.775
2852.24974	13331.275
2854.76927	13303.575
2857.28724	13289.475
2859.80367	13291.675
2862.31855	13276.275
2864.83189	13254.875
2867.34368	13261.275
2869.85393	13293.075
2872.36264	13267.375
2874.8698	13286.275
2877.37543	13300.875
2879.87952	13294.475
2882.38207	13295.575
2884.88308	13277.775
2887.38256	13314.875
2889.88051	13304.575
2892.37692	13319.975
2894.8718	13328.275
2897.36515	13337.675
2899.85698	13362.975
2902.34727	13412.775
2904.83604	13384.075
2907.32328	13434.175
2909.809	13426.975
2912.29319	13431.275
2914.77587	13471.975
2917.25702	13447.475
2919.73665	13458.475
2922.21476	13435.975
2924.69136	13420.575
2927.16644	13436.075
2929.64	13439.675
2932.11205	13388.675
2934.58258	13380.275
2937.05161	13404.375
2939.51912	13398.975
2941.98513	13408.775
2944.44962	13372.075
2946.91261	13344.075
2949.37409	13366.175
2951.83407	13357.675
2954.29254	13363.175
2956.74951	13345.675
2959.20498	13342.475
2961.65895	13310.675
2964.11142	13281.575
2966.56239	13249.575
2969.01186	13259.575
2971.45984	13240.175
2973.90632	13247.275
2976.35131	13227.675
2978.7948	13192.975
2981.23681	13169.675
2983.67732	13163.175
2986.11635	13108.575
2988.55388	13077.275
2990.98993	13070.775
2993.4245	13031.375
2995.85758	13036.775
2998.28917	13018.475
3000.71928	13013.375
3003.14791	12978.175
3005.57506	12940.875
3008.00073	12911.175
3010.42493	12928.075
3012.84764	12915.075
3015.26888	12895.475
3017.68865	12875.775
3020.10694	12854.575
3022.52376	12849.075
3024.9391	12831.275
3027.35298	12825.975
3029.76539	12810.175
3032.17632	12788.075
3034.5858	12797.075
3036.9938	12793.975
3039.40034	12772.075
3041.80542	12779.875
3044.20903	12747.175
3046.61118	12759.875
3049.01187	12725.675
3051.4111	12759.975
3053.80888	12716.175
3056.20519	12688.275
3058.60005	12663.375
3060.99345	12637.975
3063.3854	12628.675
3065.7759	12585.575
3068.16494	12604.975
3070.55254	12533.475
3072.93868	12505.575
3075.32338	12492.975
3077.70662	12451.375
3080.08842	12459.675
3082.46878	12411.875
3084.84769	12407.175
3087.22515	12424.675
3089.60118	12394.775
3091.97576	12425.975
3094.3489	12402.375
3096.72061	12390.275
3099.09087	12402.275
3101.4597	12383.875
3103.82709	12385.675
3106.19305	12368.075
3108.55757	12391.275
3110.92066	12354.875
3113.28232	12349.275
3115.64255	12278.175
3118.00134	12298.075
3120.35871	12272.875
3122.71466	12262.775
3125.06917	12278.575
3127.42226	12293.175
