Data from AgNPs_FTO_APTES_UA_50uM_CRN_500uM_R6G_10uM_NaF_0.1M_Addition_RamanShift__8__16-51-13-526.txt Node

Date: Mon Feb 21 16:51:13 GMT 2022
User: TCL
Spectrometer: QEP01345
Trigger mode: 4
Integration Time (sec): 7.000000E0
Scans to average: 10
Electric dark correction enabled: true
Nonlinearity correction enabled: false
Boxcar width: 0
XAxis mode: Raman Shifts
Number of Pixels in Spectrum: 1044
>>>>>Begin Spectral Data<<<<<
46.04893	-1.1375
50.45542	-0.0375
54.85868	0.4625
59.25871	-1.2375
63.6555	44.6625
68.04907	48.4625
72.43941	53.3625
76.82654	49.5625
81.21044	54.8625
85.59113	57.4625
89.96862	62.5625
94.34289	60.8625
98.71396	61.7625
103.08183	64.7625
107.4465	68.6625
111.80798	70.1625
116.16626	67.2625
120.52136	68.7625
124.87327	74.2625
129.222	75.4625
133.56755	78.3625
137.90993	78.9625
142.24913	85.2625
146.58517	92.7625
150.91804	105.2625
155.24774	124.0625
159.57429	148.7625
163.89768	189.2625
168.21792	255.1625
172.53501	342.0625
176.84895	473.6625
181.15975	670.4625
185.46741	939.2625
189.77193	1283.9625
194.07331	1732.8625
198.37157	2235.8625
202.6667	2755.5625
206.9587	3287.1625
211.24758	3811.4625
215.53334	4342.5625
219.81599	4885.1625
224.09553	5490.0625
228.37195	6159.6625
232.64527	6915.7625
236.91549	7693.0625
241.18261	8425.5625
245.44663	9129.2625
249.70755	9740.7625
253.96539	10266.7625
258.22014	10680.3625
262.4718	11027.1625
266.72039	11277.7625
270.96589	11409.2625
275.20832	11394.4625
279.44768	11294.0625
283.68397	11138.9625
287.91719	11000.9625
292.14735	10927.7625
296.37445	10951.4625
300.59849	11007.0625
304.81948	11089.2625
309.03742	11178.3625
313.25231	11158.3625
317.46415	10977.4625
321.67296	10698.5625
325.87872	10433.4625
330.08145	10300.6625
334.28114	10323.7625
338.47781	10413.6625
342.67145	10558.5625
346.86207	10759.0625
351.04966	11007.8625
355.23424	11286.3625
359.4158	11487.7625
363.59435	11608.1625
367.76989	11718.7625
371.94243	11782.9625
376.11196	11810.6625
380.27849	11832.0625
384.44203	11904.8625
388.60257	11963.3625
392.76012	11999.6625
396.91468	12128.1625
401.06626	12244.6625
405.21485	12348.3625
409.36047	12274.6625
413.50311	11999.8625
417.64277	11793.6625
421.77947	11698.6625
425.9132	11703.6625
430.04396	11747.4625
434.17176	11793.2625
438.2966	11888.0625
442.41849	12057.1625
446.53742	12309.8625
450.6534	12510.2625
454.76644	12673.8625
458.87653	12719.6625
462.98368	12663.7625
467.08789	12620.3625
471.18916	12499.1625
475.2875	12323.2625
479.38291	12201.0625
483.4754	12073.4625
487.56496	11973.1625
491.6516	11883.7625
495.73531	11875.2625
499.81612	11846.1625
503.89401	11922.1625
507.96899	11978.1625
512.04106	12026.6625
516.11023	12058.1625
520.1765	12074.1625
524.23987	12055.3625
528.30034	11993.3625
532.35792	11952.8625
536.41261	11862.6625
540.46441	11745.5625
544.51333	11674.1625
548.55936	11760.3625
552.60252	11865.1625
556.64279	12102.7625
560.6802	12226.8625
564.71473	12234.3625
568.7464	12354.3625
572.7752	12525.8625
576.80114	12561.1625
580.82422	12604.6625
584.84444	12730.8625
588.86181	12947.3625
592.87633	13223.7625
596.888	13322.3625
600.89682	13288.7625
604.9028	13606.2625
608.90594	14928.9625
612.90624	16672.4625
616.90371	15973.5625
620.89834	13409.1625
624.89015	12216.5625
628.87913	12016.0625
632.86528	12101.4625
636.84862	12245.7625
640.82913	12183.2625
644.80683	11923.3625
648.78172	11733.4625
652.75379	11696.0625
656.72306	11855.0625
660.68952	12048.2625
664.65319	11979.7625
668.61405	11742.0625
672.57211	11703.7625
676.52738	11800.2625
680.47986	11803.3625
684.42955	11761.2625
688.37646	11700.6625
692.32058	11667.9625
696.26192	11709.1625
700.20048	11793.5625
704.13626	11828.5625
708.06928	11840.9625
711.99952	11801.9625
715.927	11777.5625
719.85171	11789.0625
723.77365	11779.9625
727.69284	11716.8625
731.60928	11657.7625
735.52295	11593.4625
739.43388	11604.6625
743.34206	11651.1625
747.24749	11692.0625
751.15017	11712.8625
755.05012	11801.2625
758.94733	12043.3625
762.8418	12613.6625
766.73354	13570.7625
770.62254	14554.7625
774.50882	14961.0625
778.39237	14489.2625
782.27321	13478.0625
786.15132	12567.8625
790.02671	11985.0625
793.89938	11721.5625
797.76935	11595.3625
801.6366	11525.0625
805.50115	11477.4625
809.36299	11448.1625
813.22213	11406.2625
817.07857	11369.7625
820.93231	11347.1625
824.78336	11326.2625
828.63172	11313.0625
832.47738	11309.3625
836.32036	11275.3625
840.16066	11275.0625
843.99827	11241.6625
847.8332	11259.2625
851.66546	11249.4625
855.49504	11247.9625
859.32195	11266.9625
863.1462	11276.0625
866.96777	11276.1625
870.78668	11242.0625
874.60293	11264.7625
878.41652	11268.3625
882.22745	11310.9625
886.03573	11345.7625
889.84136	11367.9625
893.64433	11322.5625
897.44466	11279.0625
901.24235	11251.2625
905.0374	11193.6625
908.8298	11171.9625
912.61957	11105.5625
916.40671	11168.4625
920.19121	11207.8625
923.97308	11266.5625
927.75233	11326.2625
931.52895	11295.8625
935.30295	11193.8625
939.07433	11061.0625
942.84309	10940.6625
946.60924	10854.2625
950.37278	10800.4625
954.13371	10748.6625
957.89203	10730.0625
961.64774	10710.7625
965.40086	10706.1625
969.15137	10707.9625
972.89929	10667.9625
976.64461	10618.3625
980.38733	10639.5625
984.12747	10606.7625
987.86502	10649.0625
991.59999	10666.9625
995.33237	10727.0625
999.06217	10840.1625
1002.78939	10943.9625
1006.51404	11076.5625
1010.23611	11231.1625
1013.95561	11329.0625
1017.67255	11366.7625
1021.38692	11299.9625
1025.09872	11174.1625
1028.80796	11044.1625
1032.51465	11001.5625
1036.21877	11009.9625
1039.92035	11037.5625
1043.61937	11096.6625
1047.31584	11101.5625
1051.00976	11116.9625
1054.70114	11121.8625
1058.38998	11167.0625
1062.07627	11190.9625
1065.76003	11257.3625
1069.44126	11349.7625
1073.11995	11409.7625
1076.79611	11526.1625
1080.46974	11612.5625
1084.14085	11702.3625
1087.80943	11780.0625
1091.47549	11855.5625
1095.13903	11826.1625
1098.80005	11706.8625
1102.45857	11533.2625
1106.11456	11410.9625
1109.76805	11396.8625
1113.41903	11426.6625
1117.06751	11590.1625
1120.71348	11763.7625
1124.35696	11982.5625
1127.99793	12213.6625
1131.63641	12268.5625
1135.2724	12107.7625
1138.90589	11915.6625
1142.5369	11764.8625
1146.16542	11678.1625
1149.79145	11668.5625
1153.415	11656.3625
1157.03607	11656.3625
1160.65467	11830.9625
1164.27079	12087.7625
1167.88443	12492.1625
1171.49561	13019.5625
1175.10432	13793.8625
1178.71056	14794.2625
1182.31434	15734.8625
1185.91565	16124.3625
1189.51451	16043.3625
1193.11091	15636.5625
1196.70485	15096.3625
1200.29634	14527.9625
1203.88538	14085.0625
1207.47197	13585.6625
1211.05612	13149.4625
1214.63782	12833.2625
1218.21708	12627.6625
1221.79391	12574.2625
1225.36829	12507.1625
1228.94024	12486.5625
1232.50976	12433.1625
1236.07685	12386.2625
1239.6415	12332.2625
1243.20374	12317.6625
1246.76355	12332.4625
1250.32093	12461.5625
1253.8759	12553.1625
1257.42845	12786.3625
1260.97859	13015.3625
1264.52631	13256.2625
1268.07163	13460.7625
1271.61453	13700.8625
1275.15503	13863.6625
1278.69312	14006.1625
1282.22882	14165.9625
1285.76211	14399.8625
1289.29301	14774.2625
1292.82151	15196.3625
1296.34761	15683.1625
1299.87133	16315.8625
1303.39266	17061.8625
1306.9116	18020.8625
1310.42815	19035.4625
1313.94233	19653.5625
1317.45412	19442.5625
1320.96354	18772.8625
1324.47058	18025.9625
1327.97525	17314.5625
1331.47754	16777.3625
1334.97747	16526.9625
1338.47502	16507.1625
1341.97022	16669.7625
1345.46305	17041.0625
1348.95352	17584.2625
1352.44163	18241.5625
1355.92738	19142.9625
1359.41078	20400.2625
1362.89183	21580.0625
1366.37053	21323.7625
1369.84688	19241.2625
1373.32088	16892.5625
1376.79254	15347.1625
1380.26186	14654.6625
1383.72883	14331.9625
1387.19347	14122.3625
1390.65578	13795.0625
1394.11575	13608.0625
1397.57339	13501.3625
1401.0287	13427.3625
1404.48168	13445.1625
1407.93234	13383.1625
1411.38068	13309.7625
1414.82669	13194.4625
1418.27039	13009.9625
1421.71177	12780.7625
1425.15083	12575.8625
1428.58758	12410.1625
1432.02203	12427.9625
1435.45416	12557.8625
1438.88399	12684.8625
1442.31151	12765.8625
1445.73673	12847.5625
1449.15965	12905.2625
1452.58027	12916.9625
1455.9986	12913.1625
1459.41463	12961.4625
1462.82837	13043.1625
1466.23982	13268.6625
1469.64898	13480.8625
1473.05586	13640.6625
1476.46045	13732.1625
1479.86276	13785.2625
1483.26279	13835.2625
1486.66054	13953.2625
1490.05602	14162.4625
1493.44922	14548.2625
1496.84016	15058.8625
1500.22882	15905.5625
1503.61521	17074.3625
1506.99934	18325.0625
1510.38121	19261.9625
1513.76081	19404.2625
1517.13816	18536.0625
1520.51324	17116.0625
1523.88607	15852.0625
1527.25665	15090.0625
1530.62498	14709.4625
1533.99105	14456.3625
1537.35488	14286.0625
1540.71647	14028.9625
1544.07581	13809.7625
1547.4329	13625.5625
1550.78776	13472.7625
1554.14038	13359.7625
1557.49077	13375.1625
1560.83892	13445.5625
1564.18484	13570.6625
1567.52853	13746.7625
1570.86999	13980.9625
1574.20922	14157.2625
1577.54624	14219.6625
1580.88103	13920.2625
1584.2136	13509.5625
1587.54395	13280.7625
1590.87208	13384.6625
1594.19801	13835.6625
1597.52172	14430.0625
1600.84321	14725.7625
1604.16251	14491.2625
1607.47959	13937.2625
1610.79447	13299.3625
1614.10715	12577.6625
1617.41763	11943.4625
1620.7259	11510.7625
1624.03199	11246.0625
1627.33587	11174.5625
1630.63757	11283.5625
1633.93707	11654.3625
1637.23439	12281.0625
1640.52951	13325.7625
1643.82246	14701.4625
1647.11321	16061.7625
1650.40179	16678.3625
1653.68819	16132.0625
1656.97241	14521.9625
1660.25446	12824.6625
1663.53433	11607.3625
1666.81203	10872.3625
1670.08756	10404.4625
1673.36092	10083.3625
1676.63211	9906.0625
1679.90115	9771.1625
1683.16801	9671.5625
1686.43272	9575.1625
1689.69527	9504.7625
1692.95567	9435.5625
1696.2139	9354.6625
1699.46999	9289.2625
1702.72392	9262.7625
1705.97571	9253.0625
1709.22535	9231.4625
1712.47284	9218.9625
1715.71819	9188.4625
1718.96139	9206.3625
1722.20246	9166.2625
1725.44139	9112.0625
1728.67818	9084.9625
1731.91284	9024.0625
1735.14537	8972.6625
1738.37576	8936.5625
1741.60403	8899.9625
1744.83017	8889.2625
1748.05418	8871.2625
1751.27607	8854.7625
1754.49584	8866.3625
1757.71349	8861.1625
1760.92903	8838.5625
1764.14244	8818.8625
1767.35375	8809.0625
1770.56294	8760.8625
1773.77002	8758.4625
1776.97499	8723.1625
1780.17785	8700.0625
1783.37861	8689.5625
1786.57727	8665.8625
1789.77382	8633.7625
1792.96828	8653.1625
1796.16064	8612.9625
1799.3509	8591.7625
1802.53907	8575.5625
1805.72514	8521.0625
1808.90913	8508.5625
1812.09102	8505.0625
1815.27083	8478.4625
1818.44856	8459.1625
1821.6242	8437.9625
1824.79776	8420.3625
1827.96924	8395.7625
1831.13864	8396.9625
1834.30597	8397.6625
1837.47122	8382.0625
1840.6344	8360.6625
1843.7955	8379.6625
1846.95454	8334.1625
1850.11151	8347.0625
1853.26642	8316.6625
1856.41926	8307.0625
1859.57004	8330.0625
1862.71876	8318.2625
1865.86542	8284.1625
1869.01003	8282.4625
1872.15258	8264.8625
1875.29308	8268.6625
1878.43152	8237.5625
1881.56792	8233.0625
1884.70227	8227.8625
1887.83457	8239.4625
1890.96482	8219.5625
1894.09304	8186.5625
1897.21921	8182.2625
1900.34335	8185.1625
1903.46544	8167.3625
1906.58551	8166.3625
1909.70353	8144.5625
1912.81953	8150.3625
1915.93349	8116.4625
1919.04543	8076.4625
1922.15534	8080.6625
1925.26322	8069.1625
1928.36908	8034.8625
1931.47292	8032.8625
1934.57473	8009.5625
1937.67453	8002.9625
1940.77232	7947.6625
1943.86808	7932.4625
1946.96184	7930.6625
1950.05358	7903.2625
1953.14331	7884.5625
1956.23103	7867.1625
1959.31675	7826.1625
1962.40046	7807.4625
1965.48217	7772.4625
1968.56188	7779.1625
1971.63959	7735.0625
1974.7153	7707.1625
1977.78901	7714.6625
1980.86073	7664.1625
1983.93046	7625.1625
1986.99819	7613.8625
1990.06394	7594.3625
1993.1277	7571.5625
1996.18947	7527.9625
1999.24925	7518.1625
2002.30706	7492.7625
2005.36288	7477.1625
2008.41672	7457.1625
2011.46859	7421.7625
2014.51848	7398.2625
2017.56639	7382.6625
2020.61233	7368.4625
2023.6563	7342.4625
2026.6983	7334.5625
2029.73833	7269.0625
2032.7764	7256.2625
2035.8125	7266.4625
2038.84664	7227.9625
2041.87881	7228.4625
2044.90903	7209.4625
2047.93729	7184.8625
2050.96359	7183.1625
2053.98794	7154.0625
2057.01034	7148.1625
2060.03078	7158.5625
2063.04927	7147.8625
2066.06582	7140.2625
2069.08042	7125.1625
2072.09307	7128.5625
2075.10378	7125.3625
2078.11255	7104.1625
2081.11938	7123.4625
2084.12426	7088.4625
2087.12722	7098.9625
2090.12824	7112.0625
2093.12732	7085.0625
2096.12447	7105.6625
2099.11969	7113.8625
2102.11299	7108.2625
2105.10435	7092.9625
2108.09379	7083.6625
2111.08131	7103.8625
2114.0669	7100.4625
2117.05057	7102.7625
2120.03233	7110.7625
2123.01216	7122.1625
2125.99008	7103.3625
2128.96609	7114.6625
2131.94018	7150.0625
2134.91236	7143.5625
2137.88263	7117.5625
2140.851	7140.1625
2143.81746	7147.1625
2146.78201	7137.9625
2149.74466	7131.7625
2152.7054	7137.1625
2155.66425	7119.2625
2158.6212	7128.9625
2161.57625	7109.9625
2164.52941	7100.7625
2167.48067	7096.9625
2170.43004	7107.1625
2173.37752	7102.2625
2176.32311	7083.9625
2179.26681	7087.7625
2182.20863	7079.6625
2185.14856	7093.7625
2188.08661	7082.7625
2191.02278	7088.6625
2193.95707	7074.8625
2196.88948	7064.9625
2199.82001	7074.2625
2202.74867	7042.2625
2205.67545	7029.4625
2208.60037	7017.3625
2211.52341	7010.3625
2214.44458	7012.6625
2217.36388	6980.6625
2220.28132	6961.4625
2223.1969	6962.8625
2226.11061	6936.5625
2229.02246	6943.0625
2231.93245	6909.1625
2234.84058	6888.3625
2237.74686	6878.8625
2240.65128	6887.9625
2243.55385	6871.5625
2246.45456	6862.3625
2249.35343	6857.6625
2252.25044	6834.4625
2255.14561	6830.3625
2258.03893	6810.7625
2260.93041	6789.4625
2263.82004	6784.3625
2266.70783	6785.4625
2269.59378	6756.1625
2272.4779	6745.2625
2275.36017	6745.5625
2278.24061	6725.6625
2281.11922	6676.2625
2283.996	6677.9625
2286.87094	6653.8625
2289.74405	6657.8625
2292.61534	6630.1625
2295.4848	6619.8625
2298.35243	6640.3625
2301.21824	6635.7625
2304.08223	6621.1625
2306.94439	6600.2625
2309.80474	6594.7625
2312.66327	6604.4625
2315.51999	6590.4625
2318.37489	6582.0625
2321.22797	6571.8625
2324.07925	6545.0625
2326.92871	6545.8625
2329.77637	6543.3625
2332.62222	6516.8625
2335.46626	6504.4625
2338.3085	6497.7625
2341.14893	6467.2625
2343.98756	6484.4625
2346.8244	6479.2625
2349.65943	6489.5625
2352.49267	6456.2625
2355.32411	6492.2625
2358.15376	6488.4625
2360.98161	6472.8625
2363.80768	6450.7625
2366.63195	6459.7625
2369.45444	6472.4625
2372.27514	6466.7625
2375.09405	6438.6625
2377.91118	6425.7625
2380.72652	6416.0625
2383.54009	6399.9625
2386.35187	6399.7625
2389.16188	6364.3625
2391.97011	6353.2625
2394.77657	6332.0625
2397.58125	6325.0625
2400.38416	6295.5625
2403.18529	6299.9625
2405.98466	6284.3625
2408.78226	6273.8625
2411.57809	6260.2625
2414.37216	6262.5625
2417.16446	6268.3625
2419.955	6260.5625
2422.74378	6250.9625
2425.5308	6221.9625
2428.31606	6217.1625
2431.09956	6223.0625
2433.88131	6210.9625
2436.6613	6215.1625
2439.43954	6205.9625
2442.21603	6192.9625
2444.99077	6180.0625
2447.76377	6191.3625
2450.53501	6183.6625
2453.30451	6188.5625
2456.07226	6186.8625
2458.83827	6176.4625
2461.60254	6165.8625
2464.36507	6160.8625
2467.12586	6139.8625
2469.88492	6140.3625
2472.64224	6147.3625
2475.39782	6146.1625
2478.15167	6144.6625
2480.90379	6139.3625
2483.65417	6136.0625
2486.40283	6129.9625
2489.14976	6140.6625
2491.89497	6135.5625
2494.63845	6144.4625
2497.3802	6124.0625
2500.12024	6115.7625
2502.85855	6114.2625
2505.59514	6095.4625
2508.33002	6089.7625
2511.06318	6091.5625
2513.79462	6059.5625
2516.52435	6049.5625
2519.25237	6023.0625
2521.97867	6026.3625
2524.70327	6016.3625
2527.42616	5996.2625
2530.14734	6000.6625
2532.86681	5984.2625
2535.58458	5986.6625
2538.30065	5967.4625
2541.01501	5976.6625
2543.72768	5957.0625
2546.43864	5961.2625
2549.14791	5939.1625
2551.85548	5944.4625
2554.56136	5914.8625
2557.26554	5913.3625
2559.96803	5893.0625
2562.66883	5901.0625
2565.36794	5892.1625
2568.06536	5866.3625
2570.7611	5864.2625
2573.45514	5860.8625
2576.14751	5853.3625
2578.83819	5849.4625
2581.52719	5828.8625
2584.21451	5809.5625
2586.90015	5799.9625
2589.58411	5784.0625
2592.2664	5788.4625
2594.94701	5758.5625
2597.62594	5753.9625
2600.30321	5727.3625
2602.9788	5731.9625
2605.65273	5738.5625
2608.32498	5713.4625
2610.99557	5709.6625
2613.66449	5718.1625
2616.33175	5705.3625
2618.99734	5715.3625
2621.66128	5698.7625
2624.32355	5686.0625
2626.98416	5669.1625
2629.64311	5672.1625
2632.30041	5659.8625
2634.95605	5649.0625
2637.61004	5639.2625
2640.26238	5626.5625
2642.91306	5627.6625
2645.56209	5630.6625
2648.20948	5625.1625
2650.85521	5616.0625
2653.4993	5620.1625
2656.14175	5625.3625
2658.78255	5632.9625
2661.42171	5611.6625
2664.05923	5621.1625
2666.6951	5630.1625
2669.32934	5618.1625
2671.96194	5619.2625
2674.59291	5627.1625
2677.22224	5621.2625
2679.84993	5631.9625
2682.476	5625.2625
2685.10043	5606.6625
2687.72324	5592.7625
2690.34441	5609.4625
2692.96396	5591.0625
2695.58188	5611.1625
2698.19818	5600.6625
2700.81285	5609.7625
2703.4259	5594.2625
2706.03733	5577.1625
2708.64714	5587.0625
2711.25533	5598.8625
2713.86191	5576.1625
2716.46687	5596.7625
2719.07021	5603.3625
2721.67194	5608.2625
2724.27206	5586.5625
2726.87057	5602.1625
2729.46747	5603.0625
2732.06276	5593.7625
2734.65644	5601.0625
2737.24852	5581.3625
2739.83899	5591.9625
2742.42786	5572.2625
2745.01513	5550.9625
2747.60079	5534.8625
2750.18486	5547.0625
2752.76733	5545.6625
2755.3482	5520.4625
2757.92747	5527.7625
2760.50515	5503.4625
2763.08123	5518.5625
2765.65573	5498.8625
2768.22863	5495.6625
2770.79994	5483.9625
2773.36967	5490.7625
2775.9378	5475.0625
2778.50435	5474.3625
2781.06932	5457.3625
2783.6327	5456.9625
2786.1945	5443.4625
2788.75471	5452.9625
2791.31335	5419.0625
2793.87041	5428.8625
2796.42589	5419.8625
2798.97979	5413.1625
2801.53212	5383.1625
2804.08288	5383.7625
2806.63206	5377.9625
2809.17967	5353.6625
2811.72571	5355.6625
2814.27018	5342.3625
2816.81308	5350.7625
2819.35442	5319.1625
2821.89419	5313.2625
2824.43239	5319.2625
2826.96904	5322.3625
2829.50412	5303.3625
2832.03763	5302.8625
2834.56959	5322.7625
2837.1	5299.6625
2839.62884	5298.2625
2842.15613	5319.4625
2844.68186	5327.0625
2847.20604	5331.5625
2849.72867	5359.1625
2852.24974	5344.1625
2854.76927	5343.7625
2857.28724	5333.6625
2859.80367	5318.3625
2862.31855	5301.0625
2864.83189	5302.3625
2867.34368	5303.0625
2869.85393	5296.0625
2872.36264	5290.1625
2874.8698	5309.7625
2877.37543	5287.3625
2879.87952	5271.2625
2882.38207	5280.3625
2884.88308	5280.2625
2887.38256	5261.6625
2889.88051	5265.7625
2892.37692	5280.1625
2894.8718	5282.6625
2897.36515	5280.0625
2899.85698	5281.6625
2902.34727	5284.5625
2904.83604	5273.7625
2907.32328	5312.1625
2909.809	5301.4625
2912.29319	5321.7625
2914.77587	5299.2625
2917.25702	5301.9625
2919.73665	5297.2625
2922.21476	5305.3625
2924.69136	5303.9625
2927.16644	5369.4625
2929.64	5400.1625
2932.11205	5291.2625
2934.58258	5290.0625
2937.05161	5268.5625
2939.51912	5279.6625
2941.98513	5268.7625
2944.44962	5261.3625
2946.91261	5228.0625
2949.37409	5238.8625
2951.83407	5223.8625
2954.29254	5215.3625
2956.74951	5207.1625
2959.20498	5187.5625
2961.65895	5194.5625
2964.11142	5178.2625
2966.56239	5171.7625
2969.01186	5166.9625
2971.45984	5159.6625
2973.90632	5143.7625
2976.35131	5123.8625
2978.7948	5120.7625
2981.23681	5114.0625
2983.67732	5100.7625
2986.11635	5087.2625
2988.55388	5069.7625
2990.98993	5061.2625
2993.4245	5064.3625
2995.85758	5041.8625
2998.28917	5032.5625
3000.71928	5049.6625
3003.14791	5021.4625
3005.57506	5007.1625
3008.00073	4994.3625
3010.42493	4977.9625
3012.84764	4972.0625
3015.26888	4975.3625
3017.68865	4970.7625
3020.10694	4960.1625
3022.52376	4958.9625
3024.9391	4966.6625
3027.35298	4944.4625
3029.76539	4935.7625
3032.17632	4912.7625
3034.5858	4920.1625
3036.9938	4913.7625
3039.40034	4901.2625
3041.80542	4898.8625
3044.20903	4881.8625
3046.61118	4885.2625
3049.01187	4854.8625
3051.4111	4864.5625
3053.80888	4852.4625
3056.20519	4847.6625
3058.60005	4838.0625
3060.99345	4850.5625
3063.3854	4848.6625
3065.7759	4831.2625
3068.16494	4823.7625
3070.55254	4798.5625
3072.93868	4793.8625
3075.32338	4769.2625
3077.70662	4755.9625
3080.08842	4755.0625
3082.46878	4764.9625
