Data from AgNPs_FTO_APTES_UA_50uM_CRN_1000uM_R6G_10uM_NaF_0.1M_Addition_RamanShift__15__17-43-43-593.txt Node

Date: Mon Feb 21 17:43:43 GMT 2022
User: TCL
Spectrometer: QEP01345
Trigger mode: 4
Integration Time (sec): 7.000000E0
Scans to average: 10
Electric dark correction enabled: true
Nonlinearity correction enabled: false
Boxcar width: 0
XAxis mode: Raman Shifts
Number of Pixels in Spectrum: 1044
>>>>>Begin Spectral Data<<<<<
46.04893	-0.3375
50.45542	-1.4375
54.85868	-0.5375
59.25871	-1.1375
63.6555	49.5625
68.04907	52.5625
72.43941	58.5625
76.82654	60.9625
81.21044	63.3625
85.59113	64.1625
89.96862	68.7625
94.34289	68.0625
98.71396	69.4625
103.08183	72.2625
107.4465	75.0625
111.80798	74.5625
116.16626	78.4625
120.52136	80.3625
124.87327	83.5625
129.222	85.5625
133.56755	89.3625
137.90993	95.0625
142.24913	102.5625
146.58517	114.2625
150.91804	129.5625
155.24774	156.1625
159.57429	191.1625
163.89768	242.6625
168.21792	328.9625
172.53501	446.4625
176.84895	617.8625
181.15975	873.1625
185.46741	1239.6625
189.77193	1697.5625
194.07331	2280.9625
198.37157	2973.0625
202.6667	3670.0625
206.9587	4378.3625
211.24758	5082.4625
215.53334	5774.8625
219.81599	6503.9625
224.09553	7310.9625
228.37195	8189.0625
232.64527	9152.5625
236.91549	10182.0625
241.18261	11195.4625
245.44663	12141.9625
249.70755	12976.9625
253.96539	13646.9625
258.22014	14240.9625
262.4718	14732.8625
266.72039	15084.4625
270.96589	15205.4625
275.20832	15218.3625
279.44768	15070.6625
283.68397	14809.6625
287.91719	14613.9625
292.14735	14515.3625
296.37445	14481.3625
300.59849	14562.2625
304.81948	14682.2625
309.03742	14712.7625
313.25231	14666.1625
317.46415	14390.7625
321.67296	14034.1625
325.87872	13758.6625
330.08145	13637.9625
334.28114	13642.3625
338.47781	13711.7625
342.67145	13902.0625
346.86207	14137.8625
351.04966	14476.7625
355.23424	14776.8625
359.4158	15090.2625
363.59435	15296.0625
367.76989	15465.4625
371.94243	15529.0625
376.11196	15631.8625
380.27849	15711.1625
384.44203	15766.1625
388.60257	15823.8625
392.76012	15883.6625
396.91468	15964.9625
401.06626	16123.5625
405.21485	16255.9625
409.36047	16150.1625
413.50311	15877.4625
417.64277	15628.2625
421.77947	15484.8625
425.9132	15518.3625
430.04396	15560.9625
434.17176	15651.9625
438.2966	15793.8625
442.41849	16057.2625
446.53742	16361.1625
450.6534	16734.8625
454.76644	16982.7625
458.87653	17062.0625
462.98368	16981.5625
467.08789	16833.2625
471.18916	16657.0625
475.2875	16439.3625
479.38291	16304.4625
483.4754	16188.3625
487.56496	16019.1625
491.6516	15893.2625
495.73531	15825.9625
499.81612	15791.2625
503.89401	15865.2625
507.96899	15970.8625
512.04106	15974.4625
516.11023	16046.8625
520.1765	16093.9625
524.23987	16048.4625
528.30034	15946.1625
532.35792	15874.3625
536.41261	15794.7625
540.46441	15674.3625
544.51333	15588.5625
548.55936	15632.6625
552.60252	15790.4625
556.64279	16033.2625
560.6802	16185.4625
564.71473	16219.7625
568.7464	16369.2625
572.7752	16599.0625
576.80114	16616.7625
580.82422	16568.2625
584.84444	16707.4625
588.86181	16956.8625
592.87633	17311.3625
596.888	17444.1625
600.89682	17388.3625
604.9028	17732.7625
608.90594	19382.4625
612.90624	21425.3625
616.90371	20701.4625
620.89834	17585.5625
624.89015	16074.3625
628.87913	15853.4625
632.86528	15922.3625
636.84862	16033.1625
640.82913	15954.8625
644.80683	15639.2625
648.78172	15436.9625
652.75379	15367.1625
656.72306	15559.0625
660.68952	15830.3625
664.65319	15792.2625
668.61405	15556.3625
672.57211	15576.4625
676.52738	15699.7625
680.47986	15838.7625
684.42955	15767.9625
688.37646	15614.0625
692.32058	15522.0625
696.26192	15480.3625
700.20048	15533.7625
704.13626	15576.5625
708.06928	15513.1625
711.99952	15450.0625
715.927	15371.7625
719.85171	15366.8625
723.77365	15418.2625
727.69284	15364.8625
731.60928	15294.8625
735.52295	15244.0625
739.43388	15284.3625
743.34206	15273.2625
747.24749	15271.0625
751.15017	15306.4625
755.05012	15381.2625
758.94733	15648.8625
762.8418	16277.4625
766.73354	17384.9625
770.62254	18652.9625
774.50882	19243.6625
778.39237	18696.6625
782.27321	17402.1625
786.15132	16211.8625
790.02671	15498.2625
793.89938	15165.7625
797.76935	15012.0625
801.6366	14939.2625
805.50115	14861.0625
809.36299	14785.8625
813.22213	14723.7625
817.07857	14663.6625
820.93231	14607.4625
824.78336	14593.7625
828.63172	14541.5625
832.47738	14518.2625
836.32036	14515.9625
840.16066	14506.3625
843.99827	14484.8625
847.8332	14458.4625
851.66546	14454.8625
855.49504	14447.6625
859.32195	14497.5625
863.1462	14512.6625
866.96777	14521.7625
870.78668	14505.9625
874.60293	14481.4625
878.41652	14509.8625
882.22745	14510.2625
886.03573	14525.5625
889.84136	14518.3625
893.64433	14448.1625
897.44466	14419.6625
901.24235	14294.7625
905.0374	14269.8625
908.8298	14186.6625
912.61957	14075.2625
916.40671	14181.0625
920.19121	14240.4625
923.97308	14279.4625
927.75233	14316.5625
931.52895	14308.2625
935.30295	14199.1625
939.07433	14028.9625
942.84309	13861.2625
946.60924	13757.5625
950.37278	13672.8625
954.13371	13649.3625
957.89203	13582.6625
961.64774	13550.3625
965.40086	13495.5625
969.15137	13456.4625
972.89929	13396.1625
976.64461	13372.2625
980.38733	13320.7625
984.12747	13328.5625
987.86502	13391.4625
991.59999	13424.9625
995.33237	13522.6625
999.06217	13691.0625
1002.78939	13884.7625
1006.51404	14039.3625
1010.23611	14133.9625
1013.95561	14293.2625
1017.67255	14290.7625
1021.38692	14223.4625
1025.09872	14046.9625
1028.80796	13926.0625
1032.51465	13952.1625
1036.21877	14070.8625
1039.92035	14050.2625
1043.61937	14083.1625
1047.31584	14027.0625
1051.00976	13973.3625
1054.70114	13937.7625
1058.38998	13947.5625
1062.07627	13936.5625
1065.76003	13971.9625
1069.44126	14005.7625
1073.11995	14053.8625
1076.79611	14118.5625
1080.46974	14213.5625
1084.14085	14293.1625
1087.80943	14409.5625
1091.47549	14484.5625
1095.13903	14449.0625
1098.80005	14332.4625
1102.45857	14146.3625
1106.11456	14034.3625
1109.76805	14025.0625
1113.41903	14137.7625
1117.06751	14304.6625
1120.71348	14518.3625
1124.35696	14743.3625
1127.99793	14981.6625
1131.63641	15100.9625
1135.2724	14951.4625
1138.90589	14699.4625
1142.5369	14521.8625
1146.16542	14373.7625
1149.79145	14304.8625
1153.415	14329.7625
1157.03607	14387.6625
1160.65467	14584.5625
1164.27079	15037.6625
1167.88443	15537.3625
1171.49561	16189.2625
1175.10432	17148.2625
1178.71056	18428.7625
1182.31434	19567.0625
1185.91565	20090.0625
1189.51451	19962.1625
1193.11091	19307.5625
1196.70485	18534.6625
1200.29634	17792.3625
1203.88538	17205.2625
1207.47197	16600.0625
1211.05612	16102.9625
1214.63782	15737.2625
1218.21708	15605.6625
1221.79391	15563.9625
1225.36829	15576.7625
1228.94024	15501.1625
1232.50976	15350.0625
1236.07685	15190.3625
1239.6415	15077.8625
1243.20374	15094.3625
1246.76355	15128.9625
1250.32093	15214.8625
1253.8759	15362.3625
1257.42845	15649.5625
1260.97859	15887.8625
1264.52631	16164.9625
1268.07163	16476.8625
1271.61453	16807.4625
1275.15503	17107.8625
1278.69312	17385.8625
1282.22882	17580.0625
1285.76211	17876.2625
1289.29301	18225.1625
1292.82151	18737.2625
1296.34761	19362.1625
1299.87133	20182.4625
1303.39266	21210.5625
1306.9116	22478.6625
1310.42815	23832.8625
1313.94233	24698.3625
1317.45412	24590.8625
1320.96354	23718.1625
1324.47058	22728.8625
1327.97525	21797.6625
1331.47754	21176.5625
1334.97747	20802.2625
1338.47502	20733.6625
1341.97022	20892.5625
1345.46305	21246.1625
1348.95352	21747.7625
1352.44163	22474.1625
1355.92738	23597.8625
1359.41078	25092.2625
1362.89183	26503.8625
1366.37053	26153.1625
1369.84688	23699.2625
1373.32088	20743.9625
1376.79254	18809.7625
1380.26186	17957.2625
1383.72883	17614.7625
1387.19347	17368.5625
1390.65578	17074.5625
1394.11575	16877.1625
1397.57339	16839.8625
1401.0287	16933.2625
1404.48168	17037.7625
1407.93234	17028.5625
1411.38068	16850.6625
1414.82669	16630.7625
1418.27039	16374.0625
1421.71177	16008.8625
1425.15083	15701.0625
1428.58758	15460.0625
1432.02203	15475.0625
1435.45416	15598.6625
1438.88399	15796.0625
1442.31151	15983.8625
1445.73673	16089.0625
1449.15965	16218.7625
1452.58027	16251.2625
1455.9986	16228.9625
1459.41463	16314.7625
1462.82837	16487.0625
1466.23982	16717.6625
1469.64898	16897.8625
1473.05586	17109.2625
1476.46045	17168.7625
1479.86276	17189.8625
1483.26279	17215.7625
1486.66054	17189.2625
1490.05602	17304.4625
1493.44922	17543.4625
1496.84016	17921.3625
1500.22882	18720.5625
1503.61521	19808.6625
1506.99934	21117.4625
1510.38121	22272.2625
1513.76081	22647.2625
1517.13816	21844.6625
1520.51324	20340.9625
1523.88607	18910.5625
1527.25665	18025.9625
1530.62498	17558.4625
1533.99105	17343.1625
1537.35488	17169.3625
1540.71647	16970.5625
1544.07581	16725.8625
1547.4329	16533.0625
1550.78776	16360.0625
1554.14038	16264.7625
1557.49077	16268.2625
1560.83892	16304.4625
1564.18484	16429.1625
1567.52853	16583.5625
1570.86999	16778.5625
1574.20922	17023.6625
1577.54624	17093.0625
1580.88103	16813.1625
1584.2136	16340.9625
1587.54395	16171.7625
1590.87208	16404.0625
1594.19801	17014.8625
1597.52172	17916.7625
1600.84321	18385.5625
1604.16251	18097.1625
1607.47959	17277.7625
1610.79447	16316.9625
1614.10715	15318.9625
1617.41763	14494.9625
1620.7259	13862.9625
1624.03199	13523.9625
1627.33587	13433.1625
1630.63757	13589.2625
1633.93707	14084.7625
1637.23439	14913.0625
1640.52951	16173.6625
1643.82246	17797.3625
1647.11321	19382.3625
1650.40179	20063.5625
1653.68819	19332.1625
1656.97241	17387.6625
1660.25446	15326.6625
1663.53433	13846.1625
1666.81203	12934.5625
1670.08756	12384.0625
1673.36092	11994.4625
1676.63211	11721.8625
1679.90115	11579.7625
1683.16801	11433.2625
1686.43272	11332.1625
1689.69527	11244.0625
1692.95567	11141.4625
1696.2139	11048.4625
1699.46999	10983.4625
1702.72392	10942.3625
1705.97571	10942.8625
1709.22535	10930.2625
1712.47284	10883.6625
1715.71819	10866.7625
1718.96139	10830.3625
1722.20246	10798.3625
1725.44139	10758.6625
1728.67818	10704.6625
1731.91284	10634.4625
1735.14537	10591.3625
1738.37576	10546.9625
1741.60403	10499.1625
1744.83017	10471.5625
1748.05418	10495.0625
1751.27607	10499.6625
1754.49584	10494.9625
1757.71349	10494.8625
1760.92903	10466.9625
1764.14244	10418.7625
1767.35375	10384.7625
1770.56294	10331.4625
1773.77002	10273.6625
1776.97499	10201.6625
1780.17785	10202.6625
1783.37861	10189.4625
1786.57727	10123.7625
1789.77382	10068.0625
1792.96828	10036.6625
1796.16064	10023.5625
1799.3509	9976.4625
1802.53907	9975.9625
1805.72514	9944.5625
1808.90913	9887.3625
1812.09102	9861.0625
1815.27083	9862.2625
1818.44856	9793.4625
1821.6242	9798.5625
1824.79776	9785.3625
1827.96924	9754.5625
1831.13864	9761.0625
1834.30597	9734.6625
1837.47122	9718.4625
1840.6344	9689.5625
1843.7955	9667.4625
1846.95454	9668.9625
1850.11151	9653.0625
1853.26642	9642.2625
1856.41926	9620.8625
1859.57004	9622.4625
1862.71876	9582.5625
1865.86542	9617.0625
1869.01003	9588.3625
1872.15258	9589.6625
1875.29308	9579.3625
1878.43152	9556.4625
1881.56792	9550.9625
1884.70227	9548.9625
1887.83457	9540.4625
1890.96482	9519.5625
1894.09304	9501.8625
1897.21921	9497.9625
1900.34335	9474.3625
1903.46544	9480.2625
1906.58551	9450.6625
1909.70353	9423.8625
1912.81953	9418.3625
1915.93349	9383.7625
1919.04543	9356.7625
1922.15534	9317.7625
1925.26322	9305.6625
1928.36908	9296.7625
1931.47292	9247.8625
1934.57473	9234.6625
1937.67453	9209.7625
1940.77232	9214.0625
1943.86808	9202.9625
1946.96184	9145.1625
1950.05358	9125.4625
1953.14331	9114.7625
1956.23103	9072.1625
1959.31675	9034.2625
1962.40046	9011.5625
1965.48217	8977.5625
1968.56188	8946.1625
1971.63959	8938.5625
1974.7153	8885.2625
1977.78901	8876.7625
1980.86073	8843.9625
1983.93046	8800.4625
1986.99819	8781.9625
1990.06394	8762.2625
1993.1277	8726.3625
1996.18947	8719.1625
1999.24925	8685.1625
2002.30706	8635.1625
2005.36288	8604.4625
2008.41672	8572.6625
2011.46859	8532.3625
2014.51848	8511.0625
2017.56639	8485.4625
2020.61233	8473.6625
2023.6563	8434.9625
2026.6983	8433.0625
2029.73833	8385.2625
2032.7764	8384.7625
2035.8125	8352.5625
2038.84664	8335.1625
2041.87881	8320.7625
2044.90903	8308.1625
2047.93729	8276.5625
2050.96359	8269.4625
2053.98794	8269.6625
2057.01034	8244.2625
2060.03078	8231.8625
2063.04927	8233.8625
2066.06582	8213.3625
2069.08042	8214.6625
2072.09307	8187.8625
2075.10378	8189.3625
2078.11255	8154.5625
2081.11938	8186.8625
2084.12426	8173.5625
2087.12722	8176.9625
2090.12824	8146.0625
2093.12732	8150.6625
2096.12447	8149.9625
2099.11969	8150.9625
2102.11299	8133.4625
2105.10435	8159.9625
2108.09379	8139.6625
2111.08131	8164.0625
2114.0669	8144.1625
2117.05057	8144.1625
2120.03233	8170.4625
2123.01216	8146.5625
2125.99008	8163.0625
2128.96609	8192.7625
2131.94018	8189.3625
2134.91236	8185.5625
2137.88263	8169.8625
2140.851	8171.3625
2143.81746	8182.3625
2146.78201	8176.1625
2149.74466	8177.2625
2152.7054	8164.6625
2155.66425	8172.4625
2158.6212	8147.4625
2161.57625	8156.0625
2164.52941	8144.8625
2167.48067	8151.9625
2170.43004	8123.7625
2173.37752	8125.9625
2176.32311	8138.1625
2179.26681	8115.1625
2182.20863	8107.6625
2185.14856	8094.1625
2188.08661	8113.8625
2191.02278	8102.2625
2193.95707	8078.9625
2196.88948	8108.9625
2199.82001	8079.0625
2202.74867	8060.2625
2205.67545	8071.7625
2208.60037	8052.7625
2211.52341	8029.4625
2214.44458	7997.4625
2217.36388	7971.7625
2220.28132	7961.6625
2223.1969	7963.0625
2226.11061	7945.7625
2229.02246	7925.8625
2231.93245	7921.5625
2234.84058	7891.2625
2237.74686	7878.1625
2240.65128	7865.7625
2243.55385	7840.1625
2246.45456	7831.9625
2249.35343	7812.5625
2252.25044	7811.0625
2255.14561	7790.3625
2258.03893	7801.2625
2260.93041	7790.0625
2263.82004	7752.3625
2266.70783	7722.0625
2269.59378	7722.8625
2272.4779	7709.7625
2275.36017	7680.8625
2278.24061	7658.0625
2281.11922	7626.5625
2283.996	7607.8625
2286.87094	7601.2625
2289.74405	7573.5625
2292.61534	7574.0625
2295.4848	7571.3625
2298.35243	7575.9625
2301.21824	7577.2625
2304.08223	7542.6625
2306.94439	7543.0625
2309.80474	7525.6625
2312.66327	7540.4625
2315.51999	7522.9625
2318.37489	7515.8625
2321.22797	7495.2625
2324.07925	7496.4625
2326.92871	7488.8625
2329.77637	7474.9625
2332.62222	7447.8625
2335.46626	7446.8625
2338.3085	7414.7625
2341.14893	7421.3625
2343.98756	7422.2625
2346.8244	7392.1625
2349.65943	7386.3625
2352.49267	7388.7625
2355.32411	7374.8625
2358.15376	7376.4625
2360.98161	7393.8625
2363.80768	7370.9625
2366.63195	7358.6625
2369.45444	7358.9625
2372.27514	7354.7625
2375.09405	7338.8625
2377.91118	7318.9625
2380.72652	7295.4625
2383.54009	7276.3625
2386.35187	7280.5625
2389.16188	7249.0625
2391.97011	7223.2625
2394.77657	7212.1625
2397.58125	7194.2625
2400.38416	7192.4625
2403.18529	7136.5625
2405.98466	7138.9625
2408.78226	7141.3625
2411.57809	7119.3625
2414.37216	7102.6625
2417.16446	7108.8625
2419.955	7091.5625
2422.74378	7092.0625
2425.5308	7081.7625
2428.31606	7066.6625
2431.09956	7060.6625
2433.88131	7054.7625
2436.6613	7036.4625
2439.43954	7041.0625
2442.21603	7038.6625
2444.99077	6993.2625
2447.76377	7024.4625
2450.53501	7000.4625
2453.30451	7008.8625
2456.07226	7008.5625
2458.83827	6990.0625
2461.60254	6983.4625
2464.36507	6970.8625
2467.12586	6965.8625
2469.88492	6961.8625
2472.64224	6960.7625
2475.39782	6930.3625
2478.15167	6953.8625
2480.90379	6942.8625
2483.65417	6961.8625
2486.40283	6954.5625
2489.14976	6940.1625
2491.89497	6932.2625
2494.63845	6948.1625
2497.3802	6952.3625
2500.12024	6944.4625
2502.85855	6914.5625
2505.59514	6916.2625
2508.33002	6893.9625
2511.06318	6875.7625
2513.79462	6850.6625
2516.52435	6838.7625
2519.25237	6838.2625
2521.97867	6818.3625
2524.70327	6826.7625
2527.42616	6788.2625
2530.14734	6810.6625
2532.86681	6781.0625
2535.58458	6779.5625
2538.30065	6786.5625
2541.01501	6768.9625
2543.72768	6752.6625
2546.43864	6752.4625
2549.14791	6741.2625
2551.85548	6735.4625
2554.56136	6701.9625
2557.26554	6698.1625
2559.96803	6679.4625
2562.66883	6654.9625
2565.36794	6659.9625
2568.06536	6653.2625
2570.7611	6642.2625
2573.45514	6639.6625
2576.14751	6615.9625
2578.83819	6592.1625
2581.52719	6610.1625
2584.21451	6592.2625
2586.90015	6581.4625
2589.58411	6580.0625
2592.2664	6565.4625
2594.94701	6538.5625
2597.62594	6531.3625
2600.30321	6517.7625
2602.9788	6488.4625
2605.65273	6501.6625
2608.32498	6507.0625
2610.99557	6480.6625
2613.66449	6507.3625
2616.33175	6468.6625
2618.99734	6465.3625
2621.66128	6464.0625
2624.32355	6446.4625
2626.98416	6447.9625
2629.64311	6448.0625
2632.30041	6405.7625
2634.95605	6413.8625
2637.61004	6406.9625
2640.26238	6406.1625
2642.91306	6388.3625
2645.56209	6379.5625
2648.20948	6407.5625
2650.85521	6375.7625
2653.4993	6374.6625
2656.14175	6371.5625
2658.78255	6383.9625
2661.42171	6367.6625
2664.05923	6387.1625
2666.6951	6370.9625
2669.32934	6374.0625
2671.96194	6371.7625
2674.59291	6361.6625
2677.22224	6350.8625
2679.84993	6360.0625
2682.476	6354.2625
2685.10043	6357.2625
2687.72324	6343.5625
2690.34441	6333.0625
2692.96396	6319.0625
2695.58188	6335.0625
2698.19818	6318.9625
2700.81285	6326.5625
2703.4259	6314.0625
2706.03733	6304.7625
2708.64714	6326.1625
2711.25533	6335.1625
2713.86191	6319.3625
2716.46687	6348.1625
2719.07021	6333.7625
2721.67194	6331.2625
2724.27206	6319.5625
2726.87057	6337.1625
2729.46747	6319.9625
2732.06276	6331.4625
2734.65644	6333.0625
2737.24852	6329.3625
2739.83899	6310.2625
2742.42786	6308.3625
2745.01513	6296.6625
2747.60079	6302.2625
2750.18486	6290.3625
2752.76733	6275.6625
2755.3482	6248.8625
2757.92747	6235.4625
2760.50515	6232.8625
2763.08123	6207.5625
2765.65573	6222.1625
2768.22863	6216.1625
2770.79994	6220.5625
2773.36967	6219.2625
2775.9378	6198.4625
2778.50435	6182.5625
2781.06932	6169.5625
2783.6327	6183.3625
2786.1945	6171.4625
2788.75471	6183.2625
2791.31335	6159.4625
2793.87041	6148.4625
2796.42589	6136.6625
2798.97979	6117.1625
2801.53212	6107.1625
2804.08288	6089.6625
2806.63206	6089.3625
2809.17967	6078.2625
2811.72571	6062.5625
2814.27018	6052.9625
2816.81308	6043.2625
2819.35442	6042.6625
2821.89419	6029.8625
2824.43239	6012.0625
2826.96904	6041.5625
2829.50412	6027.3625
2832.03763	6014.3625
2834.56959	6011.3625
2837.1	6000.9625
2839.62884	6012.5625
2842.15613	6022.6625
2844.68186	6039.0625
2847.20604	6022.8625
2849.72867	6046.3625
2852.24974	6047.7625
2854.76927	6026.1625
2857.28724	6034.6625
2859.80367	6029.8625
2862.31855	6030.4625
2864.83189	6006.4625
2867.34368	5971.6625
2869.85393	5990.1625
2872.36264	5990.4625
2874.8698	5989.3625
2877.37543	5991.9625
2879.87952	5975.3625
2882.38207	5986.4625
2884.88308	5983.1625
2887.38256	5976.7625
2889.88051	5995.0625
2892.37692	5990.6625
2894.8718	5991.6625
2897.36515	5993.6625
2899.85698	5990.4625
2902.34727	5997.2625
2904.83604	6010.2625
2907.32328	6018.3625
2909.809	6013.8625
2912.29319	6038.6625
2914.77587	6038.9625
2917.25702	6043.2625
2919.73665	6044.4625
2922.21476	6032.0625
2924.69136	6034.3625
2927.16644	6048.1625
2929.64	6048.1625
2932.11205	6025.0625
2934.58258	6013.9625
2937.05161	6042.8625
2939.51912	6024.2625
2941.98513	6022.6625
2944.44962	6007.7625
2946.91261	5985.4625
2949.37409	5987.6625
2951.83407	5991.7625
2954.29254	5982.7625
2956.74951	5970.1625
2959.20498	5951.7625
2961.65895	5939.8625
2964.11142	5926.2625
2966.56239	5911.6625
2969.01186	5888.5625
2971.45984	5874.7625
2973.90632	5854.4625
2976.35131	5842.2625
2978.7948	5839.3625
2981.23681	5794.2625
2983.67732	5802.6625
2986.11635	5777.4625
2988.55388	5758.1625
2990.98993	5761.4625
2993.4245	5747.8625
2995.85758	5734.6625
2998.28917	5708.2625
3000.71928	5697.0625
3003.14791	5696.4625
3005.57506	5711.3625
3008.00073	5672.4625
3010.42493	5646.2625
3012.84764	5652.2625
3015.26888	5662.3625
3017.68865	5656.5625
3020.10694	5632.1625
3022.52376	5625.1625
3024.9391	5607.3625
3027.35298	5616.6625
3029.76539	5575.4625
3032.17632	5565.4625
3034.5858	5550.2625
3036.9938	5558.3625
3039.40034	5540.1625
3041.80542	5540.1625
3044.20903	5544.5625
3046.61118	5528.9625
3049.01187	5529.1625
3051.4111	5510.7625
3053.80888	5520.8625
3056.20519	5496.4625
3058.60005	5502.3625
3060.99345	5474.5625
3063.3854	5462.7625
3065.7759	5449.7625
3068.16494	5436.9625
3070.55254	5431.7625
3072.93868	5427.8625
3075.32338	5388.7625
