Data from AgNPs_FTO_APTES_UA_50uM_CRN_20uM_R6G_10uM_NaF_0.1M_Addition_RamanShift__10__14-05-54-923.txt Node

Date: Mon Feb 21 14:05:54 GMT 2022
User: TCL
Spectrometer: QEP01345
Trigger mode: 4
Integration Time (sec): 7.000000E0
Scans to average: 10
Electric dark correction enabled: true
Nonlinearity correction enabled: false
Boxcar width: 0
XAxis mode: Raman Shifts
Number of Pixels in Spectrum: 1044
>>>>>Begin Spectral Data<<<<<
46.04893	0.1375
50.45542	-0.9625
54.85868	1.1375
59.25871	-1.4625
63.6555	48.3375
68.04907	53.3375
72.43941	53.2375
76.82654	58.9375
81.21044	62.9375
85.59113	63.9375
89.96862	67.5375
94.34289	69.3375
98.71396	69.0375
103.08183	74.3375
107.4465	76.7375
111.80798	76.0375
116.16626	74.6375
120.52136	75.1375
124.87327	80.5375
129.222	80.9375
133.56755	83.1375
137.90993	88.2375
142.24913	95.3375
146.58517	102.9375
150.91804	118.3375
155.24774	131.3375
159.57429	162.0375
163.89768	198.8375
168.21792	262.8375
172.53501	353.1375
176.84895	483.1375
181.15975	676.4375
185.46741	944.5375
189.77193	1298.7375
194.07331	1741.7375
198.37157	2240.9375
202.6667	2767.6375
206.9587	3290.3375
211.24758	3816.9375
215.53334	4359.2375
219.81599	4872.8375
224.09553	5488.5375
228.37195	6173.6375
232.64527	6907.0375
236.91549	7686.8375
241.18261	8468.8375
245.44663	9173.7375
249.70755	9804.0375
253.96539	10320.9375
258.22014	10761.5375
262.4718	11069.3375
266.72039	11275.1375
270.96589	11382.9375
275.20832	11302.3375
279.44768	11178.8375
283.68397	11011.5375
287.91719	10808.9375
292.14735	10715.3375
296.37445	10668.9375
300.59849	10682.9375
304.81948	10756.4375
309.03742	10821.8375
313.25231	10758.9375
317.46415	10595.0375
321.67296	10345.6375
325.87872	10146.5375
330.08145	10035.1375
334.28114	10030.2375
338.47781	10094.0375
342.67145	10202.0375
346.86207	10416.0375
351.04966	10626.2375
355.23424	10840.8375
359.4158	11044.6375
363.59435	11205.7375
367.76989	11285.1375
371.94243	11304.0375
376.11196	11343.4375
380.27849	11343.1375
384.44203	11389.8375
388.60257	11455.5375
392.76012	11554.2375
396.91468	11663.2375
401.06626	11867.1375
405.21485	11979.9375
409.36047	11914.7375
413.50311	11692.0375
417.64277	11512.3375
421.77947	11474.3375
425.9132	11450.1375
430.04396	11479.9375
434.17176	11500.0375
438.2966	11603.8375
442.41849	11746.6375
446.53742	11973.1375
450.6534	12199.4375
454.76644	12343.4375
458.87653	12385.2375
462.98368	12408.5375
467.08789	12280.5375
471.18916	12190.1375
475.2875	12020.1375
479.38291	11899.5375
483.4754	11783.3375
487.56496	11699.2375
491.6516	11620.8375
495.73531	11576.4375
499.81612	11566.8375
503.89401	11636.9375
507.96899	11735.8375
512.04106	11762.6375
516.11023	11743.9375
520.1765	11700.9375
524.23987	11674.6375
528.30034	11612.3375
532.35792	11526.7375
536.41261	11406.1375
540.46441	11308.1375
544.51333	11259.1375
548.55936	11340.3375
552.60252	11496.5375
556.64279	11647.9375
560.6802	11749.5375
564.71473	11773.1375
568.7464	11944.7375
572.7752	12153.6375
576.80114	12409.9375
580.82422	12697.7375
584.84444	13073.8375
588.86181	13545.6375
592.87633	13996.4375
596.888	14189.6375
600.89682	13882.5375
604.9028	13845.9375
608.90594	14890.9375
612.90624	16195.3375
616.90371	15324.0375
620.89834	12916.2375
624.89015	11826.5375
628.87913	11686.3375
632.86528	11839.6375
636.84862	11941.1375
640.82913	11783.3375
644.80683	11513.8375
648.78172	11313.0375
652.75379	11282.3375
656.72306	11434.9375
660.68952	11665.0375
664.65319	11640.0375
668.61405	11423.4375
672.57211	11387.0375
676.52738	11455.2375
680.47986	11474.6375
684.42955	11417.8375
688.37646	11343.4375
692.32058	11371.8375
696.26192	11412.8375
700.20048	11545.5375
704.13626	11607.6375
708.06928	11585.4375
711.99952	11551.6375
715.927	11534.3375
719.85171	11520.2375
723.77365	11488.5375
727.69284	11349.6375
731.60928	11260.1375
735.52295	11220.9375
739.43388	11216.5375
743.34206	11257.8375
747.24749	11325.7375
751.15017	11388.1375
755.05012	11554.6375
758.94733	11816.7375
762.8418	12362.2375
766.73354	13298.2375
770.62254	14242.5375
774.50882	14496.0375
778.39237	14006.0375
782.27321	13082.2375
786.15132	12279.0375
790.02671	11756.9375
793.89938	11454.0375
797.76935	11286.7375
801.6366	11228.1375
805.50115	11179.1375
809.36299	11135.1375
813.22213	11030.8375
817.07857	11004.1375
820.93231	10978.8375
824.78336	10955.0375
828.63172	10946.5375
832.47738	10904.1375
836.32036	10918.8375
840.16066	10905.5375
843.99827	10909.3375
847.8332	10898.9375
851.66546	10917.0375
855.49504	10896.7375
859.32195	10959.7375
863.1462	10936.2375
866.96777	10917.5375
870.78668	10910.5375
874.60293	10932.5375
878.41652	10980.6375
882.22745	11000.5375
886.03573	11052.8375
889.84136	11053.9375
893.64433	10978.2375
897.44466	10995.0375
901.24235	10999.5375
905.0374	10981.0375
908.8298	10914.3375
912.61957	10904.9375
916.40671	10938.1375
920.19121	11001.3375
923.97308	11156.9375
927.75233	11200.6375
931.52895	11174.3375
935.30295	11037.1375
939.07433	10848.6375
942.84309	10690.4375
946.60924	10582.5375
950.37278	10547.1375
954.13371	10549.7375
957.89203	10522.0375
961.64774	10542.0375
965.40086	10542.2375
969.15137	10508.1375
972.89929	10489.9375
976.64461	10458.8375
980.38733	10440.4375
984.12747	10467.0375
987.86502	10502.2375
991.59999	10558.3375
995.33237	10636.0375
999.06217	10757.1375
1002.78939	10908.9375
1006.51404	11100.7375
1010.23611	11281.7375
1013.95561	11418.1375
1017.67255	11438.8375
1021.38692	11362.6375
1025.09872	11206.5375
1028.80796	11074.8375
1032.51465	11019.9375
1036.21877	11031.2375
1039.92035	11067.2375
1043.61937	11128.8375
1047.31584	11156.5375
1051.00976	11205.5375
1054.70114	11200.1375
1058.38998	11207.6375
1062.07627	11301.7375
1065.76003	11409.3375
1069.44126	11572.1375
1073.11995	11773.2375
1076.79611	11964.7375
1080.46974	12084.0375
1084.14085	12162.4375
1087.80943	12253.3375
1091.47549	12373.3375
1095.13903	12361.3375
1098.80005	12190.9375
1102.45857	11930.3375
1106.11456	11710.5375
1109.76805	11627.5375
1113.41903	11623.8375
1117.06751	11708.3375
1120.71348	11845.0375
1124.35696	12010.0375
1127.99793	12242.9375
1131.63641	12325.2375
1135.2724	12242.4375
1138.90589	12127.0375
1142.5369	12073.6375
1146.16542	12025.0375
1149.79145	12089.1375
1153.415	12126.8375
1157.03607	12209.8375
1160.65467	12392.4375
1164.27079	12759.7375
1167.88443	13240.4375
1171.49561	13903.0375
1175.10432	14770.5375
1178.71056	15853.4375
1182.31434	16859.8375
1185.91565	17365.4375
1189.51451	17428.6375
1193.11091	17078.7375
1196.70485	16476.2375
1200.29634	15789.3375
1203.88538	15222.7375
1207.47197	14685.7375
1211.05612	14264.6375
1214.63782	13982.4375
1218.21708	13728.8375
1221.79391	13551.1375
1225.36829	13501.7375
1228.94024	13483.0375
1232.50976	13377.7375
1236.07685	13295.1375
1239.6415	13222.9375
1243.20374	13190.3375
1246.76355	13239.0375
1250.32093	13310.6375
1253.8759	13503.7375
1257.42845	13761.1375
1260.97859	14173.6375
1264.52631	14571.5375
1268.07163	14942.3375
1271.61453	15316.5375
1275.15503	15618.1375
1278.69312	15953.6375
1282.22882	16297.7375
1285.76211	16729.7375
1289.29301	17211.3375
1292.82151	17693.2375
1296.34761	18328.5375
1299.87133	19061.8375
1303.39266	19911.5375
1306.9116	20824.6375
1310.42815	21672.0375
1313.94233	22118.3375
1317.45412	21890.5375
1320.96354	21363.8375
1324.47058	20770.8375
1327.97525	20271.2375
1331.47754	19959.4375
1334.97747	19803.2375
1338.47502	19748.5375
1341.97022	19812.3375
1345.46305	20004.3375
1348.95352	20255.2375
1352.44163	20674.2375
1355.92738	21372.4375
1359.41078	22375.0375
1362.89183	23315.1375
1366.37053	23191.9375
1369.84688	21448.2375
1373.32088	19169.9375
1376.79254	17452.6375
1380.26186	16594.0375
1383.72883	16199.2375
1387.19347	15840.9375
1390.65578	15499.3375
1394.11575	15278.0375
1397.57339	15229.1375
1401.0287	15264.2375
1404.48168	15339.7375
1407.93234	15299.2375
1411.38068	15190.5375
1414.82669	14973.6375
1418.27039	14680.5375
1421.71177	14393.0375
1425.15083	14152.4375
1428.58758	14017.0375
1432.02203	14083.8375
1435.45416	14256.0375
1438.88399	14409.8375
1442.31151	14531.6375
1445.73673	14644.3375
1449.15965	14694.9375
1452.58027	14766.7375
1455.9986	14808.0375
1459.41463	14922.9375
1462.82837	15154.8375
1466.23982	15419.8375
1469.64898	15728.3375
1473.05586	15929.1375
1476.46045	16099.6375
1479.86276	16209.4375
1483.26279	16309.7375
1486.66054	16448.6375
1490.05602	16778.7375
1493.44922	17216.8375
1496.84016	17881.2375
1500.22882	18682.6375
1503.61521	19623.1375
1506.99934	20637.0375
1510.38121	21199.2375
1513.76081	21078.4375
1517.13816	20302.4375
1520.51324	19151.8375
1523.88607	18207.2375
1527.25665	17582.0375
1530.62498	17178.3375
1533.99105	16853.1375
1537.35488	16508.3375
1540.71647	16127.5375
1544.07581	15777.5375
1547.4329	15448.0375
1550.78776	15211.8375
1554.14038	15068.9375
1557.49077	15073.8375
1560.83892	15155.7375
1564.18484	15282.0375
1567.52853	15460.0375
1570.86999	15664.7375
1574.20922	15906.5375
1577.54624	15956.1375
1580.88103	15706.8375
1584.2136	15419.2375
1587.54395	15425.9375
1590.87208	15755.0375
1594.19801	16422.4375
1597.52172	17142.6375
1600.84321	17357.5375
1604.16251	16837.8375
1607.47959	15979.3375
1610.79447	14995.5375
1614.10715	14070.4375
1617.41763	13265.5375
1620.7259	12698.7375
1624.03199	12422.6375
1627.33587	12379.3375
1630.63757	12592.5375
1633.93707	13179.5375
1637.23439	14203.6375
1640.52951	15687.3375
1643.82246	17528.1375
1647.11321	19174.7375
1650.40179	19714.5375
1653.68819	18617.3375
1656.97241	16510.9375
1660.25446	14343.6375
1663.53433	12733.0375
1666.81203	11723.9375
1670.08756	11155.6375
1673.36092	10800.2375
1676.63211	10592.5375
1679.90115	10417.6375
1683.16801	10281.8375
1686.43272	10189.0375
1689.69527	10094.3375
1692.95567	9961.2375
1696.2139	9831.5375
1699.46999	9718.8375
1702.72392	9642.8375
1705.97571	9680.1375
1709.22535	9778.8375
1712.47284	9820.1375
1715.71819	9864.7375
1718.96139	9833.3375
1722.20246	9823.9375
1725.44139	9772.5375
1728.67818	9749.6375
1731.91284	9676.3375
1735.14537	9619.1375
1738.37576	9570.5375
1741.60403	9539.1375
1744.83017	9484.3375
1748.05418	9462.4375
1751.27607	9414.4375
1754.49584	9374.6375
1757.71349	9299.4375
1760.92903	9264.3375
1764.14244	9268.9375
1767.35375	9270.0375
1770.56294	9238.0375
1773.77002	9210.4375
1776.97499	9233.2375
1780.17785	9275.3375
1783.37861	9280.0375
1786.57727	9281.5375
1789.77382	9250.5375
1792.96828	9245.1375
1796.16064	9247.4375
1799.3509	9233.5375
1802.53907	9197.5375
1805.72514	9226.2375
1808.90913	9165.8375
1812.09102	9163.5375
1815.27083	9139.1375
1818.44856	9132.5375
1821.6242	9140.3375
1824.79776	9123.0375
1827.96924	9132.0375
1831.13864	9085.2375
1834.30597	9094.2375
1837.47122	9108.9375
1840.6344	9109.6375
1843.7955	9093.2375
1846.95454	9103.8375
1850.11151	9109.3375
1853.26642	9094.3375
1856.41926	9072.8375
1859.57004	9073.4375
1862.71876	9052.7375
1865.86542	9060.6375
1869.01003	9028.8375
1872.15258	9017.8375
1875.29308	9009.2375
1878.43152	9007.2375
1881.56792	8982.8375
1884.70227	8966.4375
1887.83457	8959.3375
1890.96482	8941.6375
1894.09304	8926.0375
1897.21921	8917.2375
1900.34335	8913.5375
1903.46544	8897.0375
1906.58551	8889.0375
1909.70353	8860.4375
1912.81953	8852.8375
1915.93349	8836.6375
1919.04543	8808.5375
1922.15534	8809.3375
1925.26322	8793.0375
1928.36908	8761.0375
1931.47292	8756.7375
1934.57473	8720.5375
1937.67453	8707.0375
1940.77232	8699.9375
1943.86808	8642.9375
1946.96184	8631.2375
1950.05358	8618.1375
1953.14331	8578.1375
1956.23103	8574.2375
1959.31675	8540.9375
1962.40046	8531.4375
1965.48217	8483.2375
1968.56188	8475.1375
1971.63959	8441.5375
1974.7153	8411.3375
1977.78901	8428.3375
1980.86073	8377.9375
1983.93046	8337.9375
1986.99819	8317.8375
1990.06394	8315.1375
1993.1277	8272.9375
1996.18947	8265.5375
1999.24925	8240.4375
2002.30706	8176.4375
2005.36288	8183.4375
2008.41672	8148.3375
2011.46859	8115.8375
2014.51848	8106.7375
2017.56639	8082.1375
2020.61233	8051.5375
2023.6563	8051.9375
2026.6983	8036.4375
2029.73833	8005.7375
2032.7764	7958.4375
2035.8125	7975.9375
2038.84664	7974.1375
2041.87881	7935.2375
2044.90903	7920.9375
2047.93729	7922.1375
2050.96359	7892.7375
2053.98794	7900.6375
2057.01034	7884.3375
2060.03078	7890.4375
2063.04927	7889.5375
2066.06582	7880.7375
2069.08042	7884.0375
2072.09307	7840.2375
2075.10378	7847.1375
2078.11255	7860.4375
2081.11938	7862.7375
2084.12426	7862.1375
2087.12722	7851.0375
2090.12824	7834.6375
2093.12732	7845.9375
2096.12447	7839.4375
2099.11969	7844.1375
2102.11299	7849.3375
2105.10435	7851.0375
2108.09379	7852.9375
2111.08131	7852.6375
2114.0669	7853.3375
2117.05057	7886.6375
2120.03233	7912.7375
2123.01216	7931.0375
2125.99008	7909.9375
2128.96609	7905.3375
2131.94018	7925.2375
2134.91236	7900.0375
2137.88263	7886.4375
2140.851	7927.5375
2143.81746	7941.5375
2146.78201	7916.6375
2149.74466	7920.0375
2152.7054	7907.7375
2155.66425	7913.7375
2158.6212	7911.8375
2161.57625	7887.8375
2164.52941	7895.7375
2167.48067	7885.3375
2170.43004	7903.8375
2173.37752	7889.5375
2176.32311	7890.3375
2179.26681	7872.4375
2182.20863	7886.7375
2185.14856	7866.5375
2188.08661	7887.6375
2191.02278	7890.1375
2193.95707	7863.5375
2196.88948	7857.4375
2199.82001	7847.2375
2202.74867	7859.5375
2205.67545	7848.3375
2208.60037	7825.2375
2211.52341	7814.5375
2214.44458	7807.9375
2217.36388	7784.4375
2220.28132	7789.7375
2223.1969	7758.1375
2226.11061	7756.7375
2229.02246	7725.7375
2231.93245	7726.0375
2234.84058	7710.4375
2237.74686	7702.2375
2240.65128	7706.7375
2243.55385	7691.2375
2246.45456	7693.4375
2249.35343	7666.5375
2252.25044	7647.6375
2255.14561	7653.8375
2258.03893	7646.5375
2260.93041	7608.3375
2263.82004	7596.2375
2266.70783	7577.9375
2269.59378	7560.6375
2272.4779	7563.2375
2275.36017	7542.2375
2278.24061	7516.6375
2281.11922	7524.2375
2283.996	7498.4375
2286.87094	7499.1375
2289.74405	7476.0375
2292.61534	7456.0375
2295.4848	7455.2375
2298.35243	7458.3375
2301.21824	7431.3375
2304.08223	7444.0375
2306.94439	7443.7375
2309.80474	7435.0375
2312.66327	7445.2375
2315.51999	7431.7375
2318.37489	7407.6375
2321.22797	7410.0375
2324.07925	7400.4375
2326.92871	7381.6375
2329.77637	7376.1375
2332.62222	7363.8375
2335.46626	7369.9375
2338.3085	7345.9375
2341.14893	7317.0375
2343.98756	7355.4375
2346.8244	7347.2375
2349.65943	7344.5375
2352.49267	7323.0375
2355.32411	7331.7375
2358.15376	7343.0375
2360.98161	7323.1375
2363.80768	7341.4375
2366.63195	7318.3375
2369.45444	7309.8375
2372.27514	7322.7375
2375.09405	7322.4375
2377.91118	7288.4375
2380.72652	7291.9375
2383.54009	7262.2375
2386.35187	7244.1375
2389.16188	7231.5375
2391.97011	7203.8375
2394.77657	7196.7375
2397.58125	7178.6375
2400.38416	7176.3375
2403.18529	7155.7375
2405.98466	7149.9375
2408.78226	7156.8375
2411.57809	7137.3375
2414.37216	7115.5375
2417.16446	7122.4375
2419.955	7114.6375
2422.74378	7121.5375
2425.5308	7122.8375
2428.31606	7121.4375
2431.09956	7107.6375
2433.88131	7097.6375
2436.6613	7078.6375
2439.43954	7095.6375
2442.21603	7095.7375
2444.99077	7098.1375
2447.76377	7112.3375
2450.53501	7099.3375
2453.30451	7095.1375
2456.07226	7082.3375
2458.83827	7081.4375
2461.60254	7066.8375
2464.36507	7104.2375
2467.12586	7081.6375
2469.88492	7079.4375
2472.64224	7064.1375
2475.39782	7049.3375
2478.15167	7051.8375
2480.90379	7037.1375
2483.65417	7060.2375
2486.40283	7042.1375
2489.14976	7058.1375
2491.89497	7044.9375
2494.63845	7031.2375
2497.3802	7011.7375
2500.12024	7043.2375
2502.85855	7033.5375
2505.59514	7024.7375
2508.33002	7012.1375
2511.06318	7006.3375
2513.79462	7013.7375
2516.52435	7005.6375
2519.25237	6968.7375
2521.97867	6969.8375
2524.70327	6964.3375
2527.42616	6947.6375
2530.14734	6962.6375
2532.86681	6953.5375
2535.58458	6961.5375
2538.30065	6954.9375
2541.01501	6941.4375
2543.72768	6918.8375
2546.43864	6927.9375
2549.14791	6905.2375
2551.85548	6903.5375
2554.56136	6898.3375
2557.26554	6891.4375
2559.96803	6893.1375
2562.66883	6860.8375
2565.36794	6858.3375
2568.06536	6863.5375
2570.7611	6844.5375
2573.45514	6842.0375
2576.14751	6844.0375
2578.83819	6814.9375
2581.52719	6816.3375
2584.21451	6788.3375
2586.90015	6783.8375
2589.58411	6766.4375
2592.2664	6758.0375
2594.94701	6739.0375
2597.62594	6768.1375
2600.30321	6742.5375
2602.9788	6752.4375
2605.65273	6745.4375
2608.32498	6717.6375
2610.99557	6721.8375
2613.66449	6726.3375
2616.33175	6725.6375
2618.99734	6721.9375
2621.66128	6696.3375
2624.32355	6698.8375
2626.98416	6690.4375
2629.64311	6678.6375
2632.30041	6672.8375
2634.95605	6658.3375
2637.61004	6629.0375
2640.26238	6631.1375
2642.91306	6632.5375
2645.56209	6628.0375
2648.20948	6626.7375
2650.85521	6630.8375
2653.4993	6623.9375
2656.14175	6626.4375
2658.78255	6635.9375
2661.42171	6633.7375
2664.05923	6642.9375
2666.6951	6662.2375
2669.32934	6664.6375
2671.96194	6669.1375
2674.59291	6648.5375
2677.22224	6678.3375
2679.84993	6646.8375
2682.476	6652.8375
2685.10043	6640.8375
2687.72324	6635.4375
2690.34441	6649.1375
2692.96396	6651.4375
2695.58188	6667.2375
2698.19818	6633.0375
2700.81285	6631.3375
2703.4259	6615.9375
2706.03733	6546.9375
2708.64714	6611.4375
2711.25533	6637.2375
2713.86191	6643.1375
2716.46687	6642.4375
2719.07021	6656.1375
2721.67194	6665.1375
2724.27206	6647.7375
2726.87057	6669.7375
2729.46747	6667.6375
2732.06276	6667.8375
2734.65644	6648.1375
2737.24852	6659.5375
2739.83899	6639.9375
2742.42786	6659.9375
2745.01513	6633.8375
2747.60079	6653.6375
2750.18486	6653.4375
2752.76733	6649.7375
2755.3482	6620.8375
2757.92747	6621.7375
2760.50515	6616.9375
2763.08123	6618.4375
2765.65573	6587.5375
2768.22863	6586.3375
2770.79994	6570.0375
2773.36967	6571.4375
2775.9378	6550.1375
2778.50435	6556.4375
2781.06932	6552.2375
2783.6327	6579.2375
2786.1945	6563.4375
2788.75471	6545.2375
2791.31335	6519.5375
2793.87041	6526.4375
2796.42589	6510.0375
2798.97979	6491.4375
2801.53212	6491.8375
2804.08288	6478.1375
2806.63206	6455.4375
2809.17967	6466.1375
2811.72571	6442.4375
2814.27018	6428.7375
2816.81308	6436.1375
2819.35442	6401.9375
2821.89419	6426.6375
2824.43239	6404.9375
2826.96904	6419.5375
2829.50412	6394.7375
2832.03763	6385.4375
2834.56959	6372.7375
2837.1	6386.4375
2839.62884	6376.4375
2842.15613	6380.7375
2844.68186	6388.5375
2847.20604	6383.4375
2849.72867	6392.1375
2852.24974	6380.5375
2854.76927	6366.4375
2857.28724	6354.1375
2859.80367	6354.9375
2862.31855	6365.2375
2864.83189	6335.5375
2867.34368	6345.1375
2869.85393	6360.0375
2872.36264	6337.1375
2874.8698	6340.1375
2877.37543	6335.9375
2879.87952	6348.5375
2882.38207	6342.9375
2884.88308	6334.7375
2887.38256	6356.5375
2889.88051	6339.5375
2892.37692	6369.2375
2894.8718	6356.8375
2897.36515	6350.9375
2899.85698	6367.7375
2902.34727	6370.6375
2904.83604	6362.8375
2907.32328	6391.3375
2909.809	6378.3375
2912.29319	6391.1375
2914.77587	6394.1375
2917.25702	6403.1375
2919.73665	6383.0375
2922.21476	6384.3375
2924.69136	6369.1375
2927.16644	6391.4375
2929.64	6383.7375
2932.11205	6359.4375
2934.58258	6343.4375
2937.05161	6361.2375
2939.51912	6361.6375
2941.98513	6341.7375
2944.44962	6335.3375
2946.91261	6312.1375
2949.37409	6322.5375
2951.83407	6303.9375
2954.29254	6322.1375
2956.74951	6317.2375
2959.20498	6286.5375
2961.65895	6263.3375
2964.11142	6268.7375
2966.56239	6242.8375
2969.01186	6245.7375
2971.45984	6235.6375
2973.90632	6240.8375
2976.35131	6224.7375
2978.7948	6204.7375
2981.23681	6214.0375
2983.67732	6191.2375
2986.11635	6188.3375
2988.55388	6157.6375
2990.98993	6150.8375
2993.4245	6139.5375
2995.85758	6113.8375
2998.28917	6114.6375
3000.71928	6106.7375
3003.14791	6100.6375
3005.57506	6090.8375
3008.00073	6072.1375
3010.42493	6052.0375
3012.84764	6053.1375
3015.26888	6052.3375
3017.68865	6051.0375
3020.10694	6031.4375
3022.52376	6019.3375
3024.9391	6025.3375
3027.35298	6012.4375
3029.76539	6007.3375
3032.17632	5995.9375
3034.5858	5988.7375
3036.9938	5979.8375
3039.40034	5974.4375
3041.80542	5971.1375
3044.20903	5963.6375
3046.61118	5952.4375
3049.01187	5946.0375
3051.4111	5956.9375
3053.80888	5938.2375
3056.20519	5956.1375
3058.60005	5933.2375
3060.99345	5928.6375
3063.3854	5910.7375
3065.7759	5905.8375
3068.16494	5894.5375
3070.55254	5848.6375
3072.93868	5858.8375
3075.32338	5829.2375
3077.70662	5823.7375
3080.08842	5823.4375
