Data from AgNPs_FTO_APTES_UA_50uM_CRN_200uM_R6G_10uM_NaF_0.1M_Addition_RamanShift__0__15-54-25-060.txt Node

Date: Mon Feb 21 15:54:25 GMT 2022
User: TCL
Spectrometer: QEP01345
Trigger mode: 4
Integration Time (sec): 7.000000E0
Scans to average: 10
Electric dark correction enabled: true
Nonlinearity correction enabled: false
Boxcar width: 0
XAxis mode: Raman Shifts
Number of Pixels in Spectrum: 1044
>>>>>Begin Spectral Data<<<<<
46.04893	1.425
50.45542	-0.875
54.85868	-0.275
59.25871	-1.175
63.6555	20.925
68.04907	28.325
72.43941	25.825
76.82654	25.925
81.21044	27.625
85.59113	31.525
89.96862	30.725
94.34289	36.725
98.71396	34.025
103.08183	38.725
107.4465	35.325
111.80798	36.425
116.16626	33.225
120.52136	35.825
124.87327	42.725
129.222	38.125
133.56755	39.825
137.90993	45.925
142.24913	48.525
146.58517	52.925
150.91804	58.425
155.24774	71.225
159.57429	87.425
163.89768	109.125
168.21792	148.725
172.53501	199.325
176.84895	279.725
181.15975	382.725
185.46741	545.925
189.77193	749.825
194.07331	1003.425
198.37157	1290.325
202.6667	1597.425
206.9587	1894.125
211.24758	2189.425
215.53334	2504.525
219.81599	2835.225
224.09553	3193.025
228.37195	3579.925
232.64527	4022.825
236.91549	4472.225
241.18261	4901.425
245.44663	5307.925
249.70755	5644.125
253.96539	5934.825
258.22014	6201.625
262.4718	6404.425
266.72039	6556.725
270.96589	6621.925
275.20832	6627.125
279.44768	6543.625
283.68397	6453.725
287.91719	6374.025
292.14735	6287.125
296.37445	6298.725
300.59849	6393.525
304.81948	6511.325
309.03742	6585.625
313.25231	6588.525
317.46415	6472.525
321.67296	6257.425
325.87872	6114.925
330.08145	6058.225
334.28114	6041.525
338.47781	6085.825
342.67145	6186.425
346.86207	6342.125
351.04966	6545.425
355.23424	6724.925
359.4158	6896.225
363.59435	7011.925
367.76989	7071.125
371.94243	7080.325
376.11196	7104.825
380.27849	7138.725
384.44203	7154.325
388.60257	7174.825
392.76012	7210.725
396.91468	7272.825
401.06626	7382.025
405.21485	7465.425
409.36047	7448.125
413.50311	7311.025
417.64277	7205.025
421.77947	7238.225
425.9132	7305.925
430.04396	7411.025
434.17176	7420.825
438.2966	7411.325
442.41849	7454.725
446.53742	7602.625
450.6534	7734.125
454.76644	7833.025
458.87653	7812.925
462.98368	7717.625
467.08789	7588.125
471.18916	7476.925
475.2875	7331.925
479.38291	7259.525
483.4754	7200.125
487.56496	7183.625
491.6516	7168.325
495.73531	7139.325
499.81612	7106.825
503.89401	7136.225
507.96899	7159.625
512.04106	7177.625
516.11023	7200.625
520.1765	7214.225
524.23987	7215.825
528.30034	7190.125
532.35792	7157.325
536.41261	7071.925
540.46441	6998.525
544.51333	6940.025
548.55936	6940.825
552.60252	7054.325
556.64279	7189.925
560.6802	7272.825
564.71473	7289.225
568.7464	7385.125
572.7752	7465.625
576.80114	7449.225
580.82422	7420.325
584.84444	7543.525
588.86181	7765.625
592.87633	8106.925
596.888	8302.625
600.89682	8236.125
604.9028	8385.025
608.90594	9381.725
612.90624	10690.025
616.90371	10213.925
620.89834	8309.225
624.89015	7393.825
628.87913	7243.925
632.86528	7284.125
636.84862	7321.425
640.82913	7238.025
644.80683	7068.125
648.78172	6969.425
652.75379	6943.225
656.72306	7085.825
660.68952	7240.025
664.65319	7207.325
668.61405	7037.625
672.57211	6981.125
676.52738	7022.825
680.47986	7067.225
684.42955	7016.225
688.37646	7001.425
692.32058	7072.125
696.26192	7198.925
700.20048	7394.825
704.13626	7513.025
708.06928	7497.525
711.99952	7443.725
715.927	7359.925
719.85171	7307.525
723.77365	7273.525
727.69284	7187.325
731.60928	7102.325
735.52295	7104.725
739.43388	7117.825
743.34206	7119.525
747.24749	7113.825
751.15017	7114.225
755.05012	7184.625
758.94733	7315.025
762.8418	7693.425
766.73354	8309.525
770.62254	9002.525
774.50882	9333.225
778.39237	9080.925
782.27321	8444.725
786.15132	7803.125
790.02671	7385.925
793.89938	7177.125
797.76935	7090.425
801.6366	7071.225
805.50115	7027.625
809.36299	7000.525
813.22213	6982.225
817.07857	6961.625
820.93231	6966.625
824.78336	6957.125
828.63172	6980.925
832.47738	6970.725
836.32036	6975.925
840.16066	7003.625
843.99827	7001.825
847.8332	6978.225
851.66546	6969.925
855.49504	6969.825
859.32195	6974.425
863.1462	6950.625
866.96777	6971.725
870.78668	6942.825
874.60293	6945.925
878.41652	6981.325
882.22745	7002.025
886.03573	7016.525
889.84136	7048.125
893.64433	6995.725
897.44466	6985.825
901.24235	6958.125
905.0374	6937.425
908.8298	6905.725
912.61957	6906.525
916.40671	6932.325
920.19121	6937.425
923.97308	6986.325
927.75233	7046.625
931.52895	7102.825
935.30295	7042.625
939.07433	6949.725
942.84309	6851.725
946.60924	6795.825
950.37278	6780.025
954.13371	6770.425
957.89203	6729.725
961.64774	6719.325
965.40086	6709.625
969.15137	6711.225
972.89929	6703.425
976.64461	6693.825
980.38733	6755.225
984.12747	6755.725
987.86502	6795.525
991.59999	6849.025
995.33237	6925.425
999.06217	7016.725
1002.78939	7152.425
1006.51404	7223.825
1010.23611	7309.125
1013.95561	7346.025
1017.67255	7379.025
1021.38692	7317.625
1025.09872	7231.325
1028.80796	7215.925
1032.51465	7270.325
1036.21877	7332.525
1039.92035	7394.725
1043.61937	7363.725
1047.31584	7310.825
1051.00976	7238.725
1054.70114	7212.625
1058.38998	7193.325
1062.07627	7195.725
1065.76003	7256.725
1069.44126	7287.425
1073.11995	7380.425
1076.79611	7450.425
1080.46974	7531.825
1084.14085	7642.625
1087.80943	7745.925
1091.47549	7807.525
1095.13903	7744.725
1098.80005	7635.525
1102.45857	7542.225
1106.11456	7486.925
1109.76805	7509.125
1113.41903	7524.025
1117.06751	7606.425
1120.71348	7759.025
1124.35696	7895.425
1127.99793	8016.525
1131.63641	8038.325
1135.2724	7913.225
1138.90589	7736.025
1142.5369	7659.225
1146.16542	7589.325
1149.79145	7539.525
1153.415	7546.825
1157.03607	7562.725
1160.65467	7641.325
1164.27079	7838.825
1167.88443	8110.525
1171.49561	8511.525
1175.10432	9075.125
1178.71056	9867.025
1182.31434	10544.925
1185.91565	10786.125
1189.51451	10609.825
1193.11091	10193.125
1196.70485	9743.125
1200.29634	9369.425
1203.88538	9114.525
1207.47197	8827.725
1211.05612	8553.525
1214.63782	8386.325
1218.21708	8303.625
1221.79391	8287.725
1225.36829	8338.425
1228.94024	8345.125
1232.50976	8274.525
1236.07685	8203.925
1239.6415	8186.425
1243.20374	8247.725
1246.76355	8336.125
1250.32093	8490.525
1253.8759	8621.025
1257.42845	8851.025
1260.97859	9025.625
1264.52631	9228.025
1268.07163	9418.225
1271.61453	9597.325
1275.15503	9690.925
1278.69312	9739.425
1282.22882	9761.925
1285.76211	9921.025
1289.29301	10136.825
1292.82151	10432.825
1296.34761	10784.425
1299.87133	11232.925
1303.39266	11882.725
1306.9116	12697.325
1310.42815	13467.925
1313.94233	13908.825
1317.45412	13715.625
1320.96354	13045.525
1324.47058	12411.525
1327.97525	11820.525
1331.47754	11239.225
1334.97747	10967.325
1338.47502	10881.525
1341.97022	10914.625
1345.46305	11080.425
1348.95352	11388.725
1352.44163	11966.825
1355.92738	12852.725
1359.41078	14025.025
1362.89183	15082.725
1366.37053	14919.425
1369.84688	13335.625
1373.32088	11551.825
1376.79254	10441.325
1380.26186	10055.425
1383.72883	10015.325
1387.19347	9939.525
1390.65578	9751.125
1394.11575	9397.825
1397.57339	9224.225
1401.0287	9122.625
1404.48168	9094.925
1407.93234	9047.925
1411.38068	9009.525
1414.82669	8950.925
1418.27039	8860.325
1421.71177	8744.325
1425.15083	8632.725
1428.58758	8555.625
1432.02203	8612.825
1435.45416	8742.025
1438.88399	8836.125
1442.31151	8882.625
1445.73673	8971.725
1449.15965	9001.625
1452.58027	8892.625
1455.9986	8772.025
1459.41463	8745.025
1462.82837	8792.425
1466.23982	8960.825
1469.64898	9144.425
1473.05586	9305.525
1476.46045	9416.225
1479.86276	9494.225
1483.26279	9519.225
1486.66054	9601.725
1490.05602	9776.125
1493.44922	9993.325
1496.84016	10321.725
1500.22882	10814.525
1503.61521	11485.325
1506.99934	12318.825
1510.38121	12985.925
1513.76081	13165.125
1517.13816	12642.325
1520.51324	11634.325
1523.88607	10719.625
1527.25665	10105.825
1530.62498	9832.225
1533.99105	9628.625
1537.35488	9473.725
1540.71647	9300.225
1544.07581	9203.125
1547.4329	9115.525
1550.78776	9022.925
1554.14038	8993.125
1557.49077	8986.025
1560.83892	9075.725
1564.18484	9150.625
1567.52853	9309.025
1570.86999	9516.325
1574.20922	9652.325
1577.54624	9654.225
1580.88103	9461.325
1584.2136	9204.125
1587.54395	9162.825
1590.87208	9386.325
1594.19801	9841.725
1597.52172	10389.325
1600.84321	10668.925
1604.16251	10428.725
1607.47959	9843.325
1610.79447	9234.125
1614.10715	8638.925
1617.41763	8230.425
1620.7259	7986.825
1624.03199	7884.725
1627.33587	7937.825
1630.63757	8140.525
1633.93707	8511.225
1637.23439	9082.725
1640.52951	9941.925
1643.82246	11088.625
1647.11321	12244.125
1650.40179	12877.925
1653.68819	12516.125
1656.97241	11298.125
1660.25446	9985.325
1663.53433	9075.825
1666.81203	8479.925
1670.08756	8015.425
1673.36092	7672.425
1676.63211	7383.225
1679.90115	7207.325
1683.16801	7122.025
1686.43272	7104.825
1689.69527	7204.425
1692.95567	7436.325
1696.2139	7896.225
1699.46999	8310.625
1702.72392	8350.525
1705.97571	7909.725
1709.22535	7392.225
1712.47284	7034.425
1715.71819	6826.925
1718.96139	6726.225
1722.20246	6659.125
1725.44139	6610.825
1728.67818	6573.925
1731.91284	6538.525
1735.14537	6518.425
1738.37576	6518.325
1741.60403	6540.525
1744.83017	6584.625
1748.05418	6654.025
1751.27607	6792.125
1754.49584	7045.825
1757.71349	7341.925
1760.92903	7503.025
1764.14244	7427.525
1767.35375	7423.025
1770.56294	7410.225
1773.77002	7232.125
1776.97499	6932.125
1780.17785	6665.625
1783.37861	6502.925
1786.57727	6384.325
1789.77382	6321.725
1792.96828	6267.425
1796.16064	6230.025
1799.3509	6200.025
1802.53907	6178.925
1805.72514	6166.325
1808.90913	6135.625
1812.09102	6135.525
1815.27083	6110.525
1818.44856	6099.225
1821.6242	6086.125
1824.79776	6077.725
1827.96924	6074.125
1831.13864	6055.525
1834.30597	6049.225
1837.47122	6061.325
1840.6344	6041.025
1843.7955	6033.725
1846.95454	6024.925
1850.11151	6042.625
1853.26642	6043.825
1856.41926	6036.425
1859.57004	6002.525
1862.71876	6021.025
1865.86542	6018.425
1869.01003	5998.325
1872.15258	5976.125
1875.29308	5997.325
1878.43152	5977.325
1881.56792	5974.425
1884.70227	5985.825
1887.83457	5963.825
1890.96482	5957.625
1894.09304	5954.125
1897.21921	5963.625
1900.34335	5946.325
1903.46544	5937.125
1906.58551	5936.325
1909.70353	5936.725
1912.81953	5935.525
1915.93349	5923.725
1919.04543	5922.125
1922.15534	5896.525
1925.26322	5880.925
1928.36908	5885.525
1931.47292	5878.725
1934.57473	5876.425
1937.67453	5873.225
1940.77232	5846.425
1943.86808	5829.925
1946.96184	5841.525
1950.05358	5811.325
1953.14331	5775.525
1956.23103	5773.625
1959.31675	5747.525
1962.40046	5735.725
1965.48217	5718.725
1968.56188	5703.925
1971.63959	5691.725
1974.7153	5693.025
1977.78901	5667.225
1980.86073	5660.125
1983.93046	5644.325
1986.99819	5613.325
1990.06394	5600.625
1993.1277	5596.625
1996.18947	5572.725
1999.24925	5569.425
2002.30706	5536.925
2005.36288	5516.525
2008.41672	5519.725
2011.46859	5507.025
2014.51848	5503.025
2017.56639	5500.625
2020.61233	5471.525
2023.6563	5452.625
2026.6983	5424.625
2029.73833	5426.725
2032.7764	5409.125
2035.8125	5393.725
2038.84664	5397.825
2041.87881	5388.225
2044.90903	5376.225
2047.93729	5375.625
2050.96359	5406.525
2053.98794	5403.225
2057.01034	5373.325
2060.03078	5374.825
2063.04927	5350.425
2066.06582	5345.925
2069.08042	5346.525
2072.09307	5344.025
2075.10378	5340.225
2078.11255	5338.825
2081.11938	5321.825
2084.12426	5346.925
2087.12722	5348.825
2090.12824	5334.625
2093.12732	5323.625
2096.12447	5321.925
2099.11969	5329.025
2102.11299	5340.725
2105.10435	5332.125
2108.09379	5350.125
2111.08131	5357.125
2114.0669	5352.625
2117.05057	5340.525
2120.03233	5362.525
2123.01216	5365.525
2125.99008	5379.225
2128.96609	5378.625
2131.94018	5391.325
2134.91236	5384.525
2137.88263	5388.925
2140.851	5392.625
2143.81746	5381.425
2146.78201	5398.225
2149.74466	5405.025
2152.7054	5383.625
2155.66425	5382.225
2158.6212	5403.725
2161.57625	5387.525
2164.52941	5391.725
2167.48067	5386.825
2170.43004	5386.725
2173.37752	5395.625
2176.32311	5387.425
2179.26681	5370.625
2182.20863	5400.425
2185.14856	5402.325
2188.08661	5413.225
2191.02278	5419.325
2193.95707	5393.425
2196.88948	5394.625
2199.82001	5381.625
2202.74867	5375.325
2205.67545	5379.925
2208.60037	5375.925
2211.52341	5359.225
2214.44458	5348.625
2217.36388	5360.125
2220.28132	5359.825
2223.1969	5346.225
2226.11061	5339.725
2229.02246	5328.625
2231.93245	5305.825
2234.84058	5294.225
2237.74686	5306.225
2240.65128	5303.925
2243.55385	5289.025
2246.45456	5295.725
2249.35343	5276.625
2252.25044	5275.125
2255.14561	5291.425
2258.03893	5350.725
2260.93041	5452.825
2263.82004	5347.925
2266.70783	5289.625
2269.59378	5246.725
2272.4779	5237.525
2275.36017	5224.925
2278.24061	5207.525
2281.11922	5206.725
2283.996	5188.125
2286.87094	5177.725
2289.74405	5178.025
2292.61534	5166.425
2295.4848	5185.625
2298.35243	5176.825
2301.21824	5171.925
2304.08223	5163.425
2306.94439	5162.525
2309.80474	5163.225
2312.66327	5165.425
2315.51999	5157.125
2318.37489	5159.625
2321.22797	5165.125
2324.07925	5158.425
2326.92871	5150.725
2329.77637	5165.125
2332.62222	5159.825
2335.46626	5146.325
2338.3085	5138.625
2341.14893	5140.425
2343.98756	5148.225
2346.8244	5136.325
2349.65943	5120.325
2352.49267	5101.625
2355.32411	5107.725
2358.15376	5112.525
2360.98161	5095.525
2363.80768	5097.725
2366.63195	5096.125
2369.45444	5081.325
2372.27514	5085.825
2375.09405	5076.625
2377.91118	5071.425
2380.72652	5065.625
2383.54009	5045.425
2386.35187	5040.025
2389.16188	5027.025
2391.97011	5014.525
2394.77657	5018.725
2397.58125	4993.125
2400.38416	5000.225
2403.18529	5017.225
2405.98466	5003.025
2408.78226	4987.525
2411.57809	4974.225
2414.37216	4982.925
2417.16446	4978.825
2419.955	4967.125
2422.74378	4965.325
2425.5308	4938.825
2428.31606	4945.625
2431.09956	4945.125
2433.88131	4950.425
2436.6613	4935.525
2439.43954	4928.125
2442.21603	4940.525
2444.99077	4933.225
2447.76377	4946.725
2450.53501	4938.525
2453.30451	4927.525
2456.07226	4909.625
2458.83827	4911.825
2461.60254	4905.625
2464.36507	4914.225
2467.12586	4920.725
2469.88492	4919.025
2472.64224	4933.625
2475.39782	5006.825
2478.15167	5022.125
2480.90379	4980.225
2483.65417	4951.325
2486.40283	4942.625
2489.14976	4934.225
2491.89497	4955.125
2494.63845	5059.125
2497.3802	5073.025
2500.12024	4986.725
2502.85855	4961.025
2505.59514	4918.825
2508.33002	4903.825
2511.06318	4893.925
2513.79462	4888.125
2516.52435	4882.925
2519.25237	4863.925
2521.97867	4856.325
2524.70327	4833.425
2527.42616	4840.325
2530.14734	4827.125
2532.86681	4841.325
2535.58458	4845.325
2538.30065	4849.725
2541.01501	4842.625
2543.72768	4827.725
2546.43864	4812.725
2549.14791	4813.325
2551.85548	4808.725
2554.56136	4809.825
2557.26554	4799.825
2559.96803	4802.825
2562.66883	4780.125
2565.36794	4774.225
2568.06536	4788.625
2570.7611	4761.425
2573.45514	4756.325
2576.14751	4756.325
2578.83819	4756.225
2581.52719	4731.725
2584.21451	4748.225
2586.90015	4738.225
2589.58411	4737.125
2592.2664	4712.525
2594.94701	4708.525
2597.62594	4722.525
2600.30321	4718.825
2602.9788	4711.025
2605.65273	4702.325
2608.32498	4702.825
2610.99557	4687.725
2613.66449	4705.625
2616.33175	4687.125
2618.99734	4678.725
2621.66128	4677.625
2624.32355	4689.925
2626.98416	4678.725
2629.64311	4672.225
2632.30041	4664.725
2634.95605	4638.225
2637.61004	4635.625
2640.26238	4636.125
2642.91306	4629.025
2645.56209	4636.325
2648.20948	4641.225
2650.85521	4632.025
2653.4993	4612.925
2656.14175	4604.525
2658.78255	4611.225
2661.42171	4616.825
2664.05923	4626.325
2666.6951	4642.325
2669.32934	4655.925
2671.96194	4644.825
2674.59291	4637.425
2677.22224	4642.925
2679.84993	4628.525
2682.476	4620.525
2685.10043	4616.025
2687.72324	4616.325
2690.34441	4635.825
2692.96396	4617.725
2695.58188	4639.125
2698.19818	4627.525
2700.81285	4659.425
2703.4259	4875.925
2706.03733	5319.825
2708.64714	5019.425
2711.25533	4817.725
2713.86191	4776.725
2716.46687	4730.425
2719.07021	4706.025
2721.67194	4678.625
2724.27206	4640.125
2726.87057	4647.825
2729.46747	4652.925
2732.06276	4648.525
2734.65644	4660.625
2737.24852	4653.925
2739.83899	4639.625
2742.42786	4633.425
2745.01513	4627.525
2747.60079	4632.025
2750.18486	4610.425
2752.76733	4622.925
2755.3482	4618.225
2757.92747	4605.925
2760.50515	4603.425
2763.08123	4601.525
2765.65573	4580.125
2768.22863	4569.425
2770.79994	4570.825
2773.36967	4565.725
2775.9378	4564.125
2778.50435	4566.525
2781.06932	4559.325
2783.6327	4567.525
2786.1945	4576.525
2788.75471	4561.525
2791.31335	4564.725
2793.87041	4559.325
2796.42589	4535.725
2798.97979	4532.325
2801.53212	4517.925
2804.08288	4519.625
2806.63206	4522.025
2809.17967	4506.125
2811.72571	4484.125
2814.27018	4484.425
2816.81308	4473.725
2819.35442	4484.325
2821.89419	4468.825
2824.43239	4471.625
2826.96904	4477.825
2829.50412	4470.625
2832.03763	4495.425
2834.56959	4487.225
2837.1	4474.925
2839.62884	4467.925
2842.15613	4479.825
2844.68186	4468.825
2847.20604	4491.625
2849.72867	4475.325
2852.24974	4488.325
2854.76927	4585.125
2857.28724	4682.225
2859.80367	4582.325
2862.31855	4538.025
2864.83189	4518.225
2867.34368	4504.125
2869.85393	4473.425
2872.36264	4464.025
2874.8698	4455.325
2877.37543	4463.425
2879.87952	4443.525
2882.38207	4445.125
2884.88308	4461.925
2887.38256	4444.925
2889.88051	4460.125
2892.37692	4452.725
2894.8718	4449.825
2897.36515	4452.125
2899.85698	4455.125
2902.34727	4480.325
2904.83604	4472.125
2907.32328	4477.425
2909.809	4474.225
2912.29319	4474.225
2914.77587	4481.825
2917.25702	4469.325
2919.73665	4471.925
2922.21476	4462.425
2924.69136	4470.025
2927.16644	4453.825
2929.64	4466.525
2932.11205	4447.325
2934.58258	4441.025
2937.05161	4450.425
2939.51912	4434.325
2941.98513	4446.025
2944.44962	4419.425
2946.91261	4408.525
2949.37409	4425.625
2951.83407	4409.025
2954.29254	4403.225
2956.74951	4412.625
2959.20498	4400.625
2961.65895	4375.125
2964.11142	4377.525
2966.56239	4380.825
2969.01186	4375.325
2971.45984	4365.025
2973.90632	4360.925
2976.35131	4349.525
2978.7948	4342.325
2981.23681	4346.825
2983.67732	4329.025
2986.11635	4326.525
2988.55388	4318.325
2990.98993	4315.225
2993.4245	4304.625
2995.85758	4298.925
2998.28917	4287.025
3000.71928	4294.525
3003.14791	4257.225
3005.57506	4258.925
3008.00073	4258.125
3010.42493	4250.525
3012.84764	4251.125
3015.26888	4244.525
3017.68865	4235.625
3020.10694	4247.625
3022.52376	4242.525
3024.9391	4228.225
3027.35298	4236.425
3029.76539	4226.625
3032.17632	4205.025
3034.5858	4203.925
3036.9938	4202.425
3039.40034	4201.225
3041.80542	4193.825
3044.20903	4194.625
3046.61118	4190.425
3049.01187	4181.025
3051.4111	4181.425
3053.80888	4175.925
3056.20519	4164.125
3058.60005	4171.825
3060.99345	4161.025
3063.3854	4147.525
3065.7759	4150.725
3068.16494	4123.725
3070.55254	4123.325
3072.93868	4110.925
3075.32338	4107.425
3077.70662	4092.725
3080.08842	4076.525
3082.46878	4092.725
3084.84769	4071.025
3087.22515	4066.325
3089.60118	4078.125
3091.97576	4065.725
3094.3489	4075.625
3096.72061	4090.625
3099.09087	4074.725
3101.4597	4072.625
3103.82709	4079.625
3106.19305	4058.625
3108.55757	4078.025
3110.92066	4064.625
3113.28232	4036.525
3115.64255	4045.225
3118.00134	4041.725
3120.35871	4027.125
3122.71466	4043.325
3125.06917	4030.125
3127.42226	4013.925
3129.77393	4010.925
3132.12417	4004.925
3134.47299	3997.625
3136.82039	4004.625
3139.16636	4005.425
3141.51092	4005.625
3143.85406	4009.325
3146.19579	4004.325
3148.53609	4010.225
3150.87499	4013.425
3153.21246	4021.325
3155.54853	4035.325
3157.88318	4026.425
3160.21642	4043.625
3162.54826	4029.225
3164.87868	4027.025
3167.2077	4019.825
3169.5353	4030.525
3171.86151	4026.225
3174.18631	4023.725
3176.5097	4024.625
3178.83169	4007.825
3181.15228	4021.125
3183.47147	4009.225
3185.78926	3992.425
3188.10565	4005.325
3190.42065	4013.825
3192.73424	3988.925
3195.04645	3994.225
3197.35725	4003.125
3199.66667	3991.125
3201.97469	4007.825
3204.28132	3993.725
3206.58656	3995.425
3208.8904	3990.625
3211.19287	3995.525
3213.49394	4002.425
3215.79363	4001.025
3218.09193	4030.525
3220.38884	4117.325
3222.68438	4214.725
3224.97853	4104.225
3227.2713	4059.325
3229.56269	4021.825
