Data from AgNPs_FTO_APTES_UA_50uM_CRN_0uM_R6G_10uM_NaF_0.1M_Addition_RamanShift__4__10-14-54-620.txt Node

Date: Mon Feb 21 10:14:54 GMT 2022
User: TCL
Spectrometer: QEP01345
Trigger mode: 4
Integration Time (sec): 7.000000E0
Scans to average: 10
Electric dark correction enabled: true
Nonlinearity correction enabled: false
Boxcar width: 0
XAxis mode: Raman Shifts
Number of Pixels in Spectrum: 1044
>>>>>Begin Spectral Data<<<<<
46.04893	0.225
50.45542	-0.975
54.85868	0.225
59.25871	0.025
63.6555	23.825
68.04907	31.525
72.43941	32.025
76.82654	32.225
81.21044	33.325
85.59113	35.725
89.96862	36.925
94.34289	40.825
98.71396	38.225
103.08183	44.725
107.4465	46.425
111.80798	41.425
116.16626	40.725
120.52136	40.525
124.87327	46.725
129.222	41.925
133.56755	45.125
137.90993	49.425
142.24913	50.025
146.58517	53.025
150.91804	60.125
155.24774	69.925
159.57429	80.825
163.89768	101.725
168.21792	132.825
172.53501	176.025
176.84895	241.725
181.15975	330.525
185.46741	460.025
189.77193	638.925
194.07331	851.325
198.37157	1100.425
202.6667	1358.925
206.9587	1616.125
211.24758	1890.525
215.53334	2159.925
219.81599	2456.025
224.09553	2803.025
228.37195	3171.125
232.64527	3567.825
236.91549	3980.825
241.18261	4315.825
245.44663	4632.025
249.70755	4858.825
253.96539	5029.625
258.22014	5176.225
262.4718	5317.925
266.72039	5436.425
270.96589	5487.725
275.20832	5444.925
279.44768	5344.925
283.68397	5241.625
287.91719	5119.125
292.14735	5097.125
296.37445	5157.925
300.59849	5321.625
304.81948	5567.225
309.03742	5794.525
313.25231	5855.425
317.46415	5699.625
321.67296	5342.825
325.87872	5008.225
330.08145	4833.725
334.28114	4782.625
338.47781	4823.825
342.67145	4922.225
346.86207	5102.425
351.04966	5352.325
355.23424	5653.025
359.4158	5868.425
363.59435	5943.225
367.76989	5918.825
371.94243	5899.125
376.11196	5849.525
380.27849	5787.125
384.44203	5750.225
388.60257	5660.025
392.76012	5606.625
396.91468	5629.725
401.06626	5736.725
405.21485	5826.125
409.36047	5710.425
413.50311	5399.425
417.64277	5115.925
421.77947	4912.625
425.9132	4826.125
430.04396	4821.325
434.17176	4845.125
438.2966	4913.525
442.41849	5063.325
446.53742	5254.725
450.6534	5424.925
454.76644	5518.525
458.87653	5456.625
462.98368	5316.425
467.08789	5165.325
471.18916	5047.825
475.2875	4911.325
479.38291	4777.725
483.4754	4713.325
487.56496	4673.325
491.6516	4637.825
495.73531	4644.125
499.81612	4679.425
503.89401	4756.325
507.96899	4830.425
512.04106	4923.225
516.11023	5022.425
520.1765	5101.125
524.23987	5104.725
528.30034	5051.825
532.35792	4990.225
536.41261	4882.725
540.46441	4755.125
544.51333	4645.725
548.55936	4632.225
552.60252	4737.025
556.64279	4885.425
560.6802	5016.825
564.71473	5079.825
568.7464	5238.125
572.7752	5362.125
576.80114	5193.625
580.82422	4992.625
584.84444	4970.825
588.86181	5168.025
592.87633	5492.325
596.888	5741.725
600.89682	5594.225
604.9028	5734.725
608.90594	7126.925
612.90624	9420.325
616.90371	9491.525
620.89834	6680.925
624.89015	5079.125
628.87913	4738.425
632.86528	4768.525
636.84862	4847.225
640.82913	4830.525
644.80683	4631.425
648.78172	4483.825
652.75379	4485.425
656.72306	4649.925
660.68952	4922.025
664.65319	4891.525
668.61405	4602.725
672.57211	4463.225
676.52738	4479.725
680.47986	4504.325
684.42955	4470.025
688.37646	4424.025
692.32058	4404.125
696.26192	4429.725
700.20048	4455.825
704.13626	4485.525
708.06928	4472.925
711.99952	4454.325
715.927	4457.625
719.85171	4512.925
723.77365	4549.725
727.69284	4512.925
731.60928	4454.725
735.52295	4445.325
739.43388	4463.525
743.34206	4480.225
747.24749	4479.325
751.15017	4492.525
755.05012	4540.425
758.94733	4694.725
762.8418	5201.525
766.73354	6144.625
770.62254	7254.925
774.50882	7782.125
778.39237	7463.525
782.27321	6500.425
786.15132	5523.525
790.02671	4885.625
793.89938	4600.225
797.76935	4474.225
801.6366	4410.725
805.50115	4372.225
809.36299	4362.325
813.22213	4322.825
817.07857	4312.025
820.93231	4297.625
824.78336	4289.825
828.63172	4300.525
832.47738	4315.525
836.32036	4292.725
840.16066	4269.325
843.99827	4244.525
847.8332	4242.525
851.66546	4250.925
855.49504	4238.725
859.32195	4235.625
863.1462	4224.925
866.96777	4199.825
870.78668	4183.625
874.60293	4202.325
878.41652	4216.425
882.22745	4226.825
886.03573	4273.625
889.84136	4242.225
893.64433	4238.825
897.44466	4225.725
901.24235	4223.125
905.0374	4207.025
908.8298	4189.725
912.61957	4164.225
916.40671	4193.125
920.19121	4232.125
923.97308	4300.125
927.75233	4386.925
931.52895	4443.625
935.30295	4396.225
939.07433	4237.825
942.84309	4102.725
946.60924	4008.325
950.37278	3962.525
954.13371	3921.825
957.89203	3897.525
961.64774	3862.525
965.40086	3860.425
969.15137	3815.625
972.89929	3821.325
976.64461	3807.525
980.38733	3788.025
984.12747	3788.825
987.86502	3802.425
991.59999	3800.525
995.33237	3850.425
999.06217	3924.425
1002.78939	4004.625
1006.51404	4076.725
1010.23611	4147.525
1013.95561	4207.425
1017.67255	4190.825
1021.38692	4133.725
1025.09872	4030.125
1028.80796	3956.325
1032.51465	3914.125
1036.21877	3900.925
1039.92035	3931.525
1043.61937	3966.025
1047.31584	4005.925
1051.00976	4047.725
1054.70114	4056.525
1058.38998	4060.525
1062.07627	4070.325
1065.76003	4076.625
1069.44126	4041.525
1073.11995	4059.425
1076.79611	4109.525
1080.46974	4188.325
1084.14085	4340.625
1087.80943	4488.325
1091.47549	4553.425
1095.13903	4452.725
1098.80005	4269.825
1102.45857	4110.425
1106.11456	4049.725
1109.76805	4086.325
1113.41903	4156.525
1117.06751	4313.725
1120.71348	4515.025
1124.35696	4735.725
1127.99793	4984.225
1131.63641	5016.225
1135.2724	4759.425
1138.90589	4456.525
1142.5369	4271.325
1146.16542	4171.025
1149.79145	4082.425
1153.415	4058.525
1157.03607	4084.025
1160.65467	4147.225
1164.27079	4296.125
1167.88443	4578.925
1171.49561	5053.325
1175.10432	5809.825
1178.71056	6859.825
1182.31434	7708.125
1185.91565	7852.825
1189.51451	7424.525
1193.11091	6761.125
1196.70485	6133.925
1200.29634	5674.125
1203.88538	5311.225
1207.47197	4900.425
1211.05612	4563.025
1214.63782	4387.625
1218.21708	4348.525
1221.79391	4424.425
1225.36829	4506.425
1228.94024	4511.725
1232.50976	4417.225
1236.07685	4297.825
1239.6415	4222.225
1243.20374	4170.925
1246.76355	4171.825
1250.32093	4183.725
1253.8759	4251.625
1257.42845	4369.325
1260.97859	4536.025
1264.52631	4751.925
1268.07163	4939.225
1271.61453	5131.525
1275.15503	5260.125
1278.69312	5317.525
1282.22882	5385.325
1285.76211	5543.625
1289.29301	5838.325
1292.82151	6158.125
1296.34761	6504.225
1299.87133	6911.125
1303.39266	7546.125
1306.9116	8552.525
1310.42815	9785.225
1313.94233	10687.825
1317.45412	10530.125
1320.96354	9503.925
1324.47058	8286.925
1327.97525	7234.025
1331.47754	6590.325
1334.97747	6245.025
1338.47502	6129.625
1341.97022	6164.425
1345.46305	6405.525
1348.95352	6960.225
1352.44163	7868.125
1355.92738	9132.925
1359.41078	10961.725
1362.89183	12920.425
1366.37053	13123.725
1369.84688	10936.725
1373.32088	8379.325
1376.79254	6756.125
1380.26186	6006.825
1383.72883	5635.625
1387.19347	5367.225
1390.65578	5111.825
1394.11575	4941.325
1397.57339	4904.025
1401.0287	4938.425
1404.48168	4958.825
1407.93234	4923.925
1411.38068	4862.825
1414.82669	4792.925
1418.27039	4749.125
1421.71177	4702.425
1425.15083	4615.225
1428.58758	4539.525
1432.02203	4580.425
1435.45416	4698.525
1438.88399	4746.425
1442.31151	4726.125
1445.73673	4730.425
1449.15965	4728.925
1452.58027	4720.225
1455.9986	4618.425
1459.41463	4565.125
1462.82837	4563.425
1466.23982	4682.525
1469.64898	4820.525
1473.05586	4919.525
1476.46045	4968.025
1479.86276	5043.925
1483.26279	5134.125
1486.66054	5260.125
1490.05602	5449.725
1493.44922	5717.125
1496.84016	6166.825
1500.22882	6931.425
1503.61521	8037.825
1506.99934	9370.425
1510.38121	10740.825
1513.76081	11514.125
1517.13816	10941.725
1520.51324	9343.425
1523.88607	7642.925
1527.25665	6511.725
1530.62498	5869.425
1533.99105	5505.925
1537.35488	5220.925
1540.71647	5023.325
1544.07581	4866.225
1547.4329	4783.325
1550.78776	4743.725
1554.14038	4775.525
1557.49077	4838.525
1560.83892	4979.225
1564.18484	5189.425
1567.52853	5434.825
1570.86999	5716.425
1574.20922	5890.825
1577.54624	5895.125
1580.88103	5552.525
1584.2136	4982.325
1587.54395	4630.725
1590.87208	4630.325
1594.19801	4924.725
1597.52172	5420.125
1600.84321	5690.625
1604.16251	5495.925
1607.47959	5016.425
1610.79447	4525.425
1614.10715	4080.225
1617.41763	3761.425
1620.7259	3560.925
1624.03199	3471.125
1627.33587	3477.625
1630.63757	3557.425
1633.93707	3768.025
1637.23439	4155.025
1640.52951	4840.825
1643.82246	5876.825
1647.11321	7110.625
1650.40179	7922.925
1653.68819	7652.125
1656.97241	6332.325
1660.25446	4878.725
1663.53433	3851.825
1666.81203	3302.025
1670.08756	3025.825
1673.36092	2871.325
1676.63211	2793.425
1679.90115	2739.725
1683.16801	2683.025
1686.43272	2637.525
1689.69527	2583.025
1692.95567	2502.125
1696.2139	2376.625
1699.46999	2270.925
1702.72392	2246.725
1705.97571	2301.225
1709.22535	2409.525
1712.47284	2482.825
1715.71819	2516.825
1718.96139	2526.425
1722.20246	2532.925
1725.44139	2511.325
1728.67818	2499.325
1731.91284	2469.025
1735.14537	2451.925
1738.37576	2428.125
1741.60403	2408.625
1744.83017	2376.525
1748.05418	2354.425
1751.27607	2311.725
1754.49584	2264.725
1757.71349	2189.025
1760.92903	2147.425
1764.14244	2144.325
1767.35375	2149.725
1770.56294	2141.725
1773.77002	2155.325
1776.97499	2209.225
1780.17785	2272.725
1783.37861	2298.425
1786.57727	2308.125
1789.77382	2321.425
1792.96828	2332.625
1796.16064	2321.425
1799.3509	2328.425
1802.53907	2328.325
1805.72514	2331.825
1808.90913	2308.125
1812.09102	2294.725
1815.27083	2291.725
1818.44856	2265.325
1821.6242	2262.125
1824.79776	2258.625
1827.96924	2252.625
1831.13864	2246.125
1834.30597	2230.025
1837.47122	2229.225
1840.6344	2208.025
1843.7955	2206.525
1846.95454	2199.325
1850.11151	2191.225
1853.26642	2177.825
1856.41926	2171.825
1859.57004	2163.325
1862.71876	2153.325
1865.86542	2150.925
1869.01003	2148.225
1872.15258	2119.725
1875.29308	2126.925
1878.43152	2127.225
1881.56792	2118.025
1884.70227	2112.925
1887.83457	2109.225
1890.96482	2105.325
1894.09304	2101.325
1897.21921	2091.425
1900.34335	2085.925
1903.46544	2090.725
1906.58551	2073.225
1909.70353	2075.225
1912.81953	2069.525
1915.93349	2058.325
1919.04543	2062.925
1922.15534	2043.825
1925.26322	2037.325
1928.36908	2034.425
1931.47292	2023.925
1934.57473	2016.525
1937.67453	2003.325
1940.77232	1997.125
1943.86808	1994.325
1946.96184	1985.125
1950.05358	1964.825
1953.14331	1967.725
1956.23103	1953.025
1959.31675	1941.725
1962.40046	1943.825
1965.48217	1927.525
1968.56188	1936.825
1971.63959	1932.525
1974.7153	1932.825
1977.78901	1922.525
1980.86073	1916.425
1983.93046	1883.125
1986.99819	1880.125
1990.06394	1881.125
1993.1277	1875.525
1996.18947	1863.725
1999.24925	1868.025
2002.30706	1848.925
2005.36288	1846.125
2008.41672	1823.525
2011.46859	1819.525
2014.51848	1821.225
2017.56639	1808.625
2020.61233	1801.425
2023.6563	1793.225
2026.6983	1783.225
2029.73833	1766.425
2032.7764	1765.425
2035.8125	1755.425
2038.84664	1752.125
2041.87881	1748.325
2044.90903	1741.325
2047.93729	1735.925
2050.96359	1726.425
2053.98794	1726.225
2057.01034	1726.525
2060.03078	1713.825
2063.04927	1717.725
2066.06582	1721.425
2069.08042	1715.125
2072.09307	1707.525
2075.10378	1703.325
2078.11255	1705.925
2081.11938	1717.425
2084.12426	1701.925
2087.12722	1705.225
2090.12824	1707.925
2093.12732	1714.125
2096.12447	1705.125
2099.11969	1705.625
2102.11299	1696.525
2105.10435	1704.325
2108.09379	1695.425
2111.08131	1696.725
2114.0669	1699.925
2117.05057	1695.525
2120.03233	1694.025
2123.01216	1693.125
2125.99008	1696.425
2128.96609	1695.725
2131.94018	1681.525
2134.91236	1684.625
2137.88263	1680.225
2140.851	1680.425
2143.81746	1672.125
2146.78201	1667.725
2149.74466	1675.525
2152.7054	1658.725
2155.66425	1649.125
2158.6212	1662.425
2161.57625	1655.725
2164.52941	1653.425
2167.48067	1649.525
2170.43004	1638.225
2173.37752	1633.525
2176.32311	1625.625
2179.26681	1639.825
2182.20863	1636.125
2185.14856	1632.125
2188.08661	1635.225
2191.02278	1642.225
2193.95707	1631.225
2196.88948	1625.025
2199.82001	1618.225
2202.74867	1615.825
2205.67545	1608.425
2208.60037	1607.825
2211.52341	1604.525
2214.44458	1591.625
2217.36388	1588.925
2220.28132	1587.325
2223.1969	1576.725
2226.11061	1575.925
2229.02246	1566.225
2231.93245	1565.325
2234.84058	1562.125
2237.74686	1556.525
2240.65128	1545.225
2243.55385	1548.525
2246.45456	1546.825
2249.35343	1543.325
2252.25044	1535.325
2255.14561	1536.225
2258.03893	1532.225
2260.93041	1506.025
2263.82004	1515.825
2266.70783	1526.325
2269.59378	1521.825
2272.4779	1513.325
2275.36017	1519.125
2278.24061	1513.225
2281.11922	1513.125
2283.996	1508.525
2286.87094	1498.225
2289.74405	1494.225
2292.61534	1479.625
2295.4848	1469.425
2298.35243	1471.925
2301.21824	1460.425
2304.08223	1468.125
2306.94439	1474.025
2309.80474	1461.525
2312.66327	1461.825
2315.51999	1461.025
2318.37489	1455.925
2321.22797	1449.625
2324.07925	1445.025
2326.92871	1441.625
2329.77637	1440.725
2332.62222	1431.525
2335.46626	1431.225
2338.3085	1419.825
2341.14893	1421.825
2343.98756	1424.725
2346.8244	1422.425
2349.65943	1422.425
2352.49267	1429.825
2355.32411	1433.925
2358.15376	1428.225
2360.98161	1446.325
2363.80768	1448.625
2366.63195	1457.125
2369.45444	1445.825
2372.27514	1445.525
2375.09405	1440.825
2377.91118	1450.625
2380.72652	1429.425
2383.54009	1423.725
2386.35187	1412.025
2389.16188	1402.325
2391.97011	1397.225
2394.77657	1382.625
2397.58125	1383.025
2400.38416	1366.125
2403.18529	1373.025
2405.98466	1369.425
2408.78226	1365.125
2411.57809	1354.525
2414.37216	1345.825
2417.16446	1343.525
2419.955	1350.925
2422.74378	1345.725
2425.5308	1341.525
2428.31606	1345.925
2431.09956	1345.625
2433.88131	1352.025
2436.6613	1349.025
2439.43954	1349.725
2442.21603	1345.925
2444.99077	1347.825
2447.76377	1343.625
2450.53501	1347.325
2453.30451	1346.725
2456.07226	1342.225
2458.83827	1348.325
2461.60254	1346.025
2464.36507	1340.425
2467.12586	1326.825
2469.88492	1338.825
2472.64224	1332.025
2475.39782	1313.825
2478.15167	1304.925
2480.90379	1325.625
2483.65417	1323.425
2486.40283	1330.425
2489.14976	1336.925
2491.89497	1344.325
2494.63845	1330.225
2497.3802	1312.025
2500.12024	1331.225
2502.85855	1328.825
2505.59514	1324.625
2508.33002	1311.725
2511.06318	1306.125
2513.79462	1301.925
2516.52435	1295.725
2519.25237	1283.925
2521.97867	1274.225
2524.70327	1266.625
2527.42616	1264.525
2530.14734	1263.925
2532.86681	1263.225
2535.58458	1263.625
2538.30065	1258.125
2541.01501	1256.025
2543.72768	1251.725
2546.43864	1249.325
2549.14791	1261.625
2551.85548	1258.825
2554.56136	1257.125
2557.26554	1259.625
2559.96803	1247.225
2562.66883	1240.225
2565.36794	1244.725
2568.06536	1248.825
2570.7611	1234.525
2573.45514	1246.425
2576.14751	1239.525
2578.83819	1234.625
2581.52719	1222.925
2584.21451	1215.225
2586.90015	1221.325
2589.58411	1206.225
2592.2664	1209.725
2594.94701	1212.925
2597.62594	1206.125
2600.30321	1198.725
2602.9788	1195.925
2605.65273	1201.025
2608.32498	1196.725
2610.99557	1201.025
2613.66449	1198.625
2616.33175	1188.925
2618.99734	1195.225
2621.66128	1188.225
2624.32355	1183.825
2626.98416	1192.125
2629.64311	1177.225
2632.30041	1176.025
2634.95605	1173.225
2637.61004	1164.025
2640.26238	1170.825
2642.91306	1169.925
2645.56209	1155.125
2648.20948	1149.825
2650.85521	1151.925
2653.4993	1154.025
2656.14175	1157.225
2658.78255	1163.025
2661.42171	1158.625
2664.05923	1159.625
2666.6951	1155.125
2669.32934	1161.725
2671.96194	1163.225
2674.59291	1169.025
2677.22224	1169.725
2679.84993	1163.825
2682.476	1167.225
2685.10043	1158.925
2687.72324	1163.525
2690.34441	1164.925
2692.96396	1154.725
2695.58188	1159.325
2698.19818	1146.825
2700.81285	1148.525
2703.4259	1114.025
2706.03733	1002.625
2708.64714	1061.725
2711.25533	1107.525
2713.86191	1125.825
2716.46687	1129.125
2719.07021	1148.725
2721.67194	1160.225
2724.27206	1149.725
2726.87057	1159.625
2729.46747	1153.625
2732.06276	1160.525
2734.65644	1157.025
2737.24852	1155.325
2739.83899	1144.725
2742.42786	1145.725
2745.01513	1138.625
2747.60079	1143.525
2750.18486	1142.725
2752.76733	1142.425
2755.3482	1144.025
2757.92747	1132.425
2760.50515	1133.925
2763.08123	1132.025
2765.65573	1122.025
2768.22863	1129.425
2770.79994	1120.525
2773.36967	1122.025
2775.9378	1119.425
2778.50435	1122.625
2781.06932	1110.525
2783.6327	1125.925
2786.1945	1121.325
2788.75471	1112.225
2791.31335	1119.825
2793.87041	1111.725
2796.42589	1118.425
2798.97979	1116.925
2801.53212	1112.425
2804.08288	1111.325
2806.63206	1113.625
2809.17967	1115.425
2811.72571	1113.425
2814.27018	1115.625
2816.81308	1112.325
2819.35442	1120.525
2821.89419	1121.825
2824.43239	1123.425
2826.96904	1119.925
2829.50412	1130.725
2832.03763	1130.825
2834.56959	1127.525
2837.1	1134.825
2839.62884	1135.725
2842.15613	1143.925
2844.68186	1163.825
2847.20604	1182.925
2849.72867	1189.525
2852.24974	1202.825
2854.76927	1189.625
2857.28724	1155.725
2859.80367	1188.425
2862.31855	1200.725
2864.83189	1211.825
2867.34368	1213.325
2869.85393	1227.425
2872.36264	1232.425
2874.8698	1236.925
2877.37543	1241.125
2879.87952	1239.425
2882.38207	1241.825
2884.88308	1243.425
2887.38256	1239.125
2889.88051	1251.325
2892.37692	1247.025
2894.8718	1252.625
2897.36515	1261.225
2899.85698	1252.525
2902.34727	1255.425
2904.83604	1259.625
2907.32328	1257.825
2909.809	1263.325
2912.29319	1270.925
2914.77587	1258.825
2917.25702	1257.825
2919.73665	1269.525
2922.21476	1266.425
2924.69136	1266.425
2927.16644	1258.025
2929.64	1248.725
2932.11205	1250.825
2934.58258	1233.425
2937.05161	1228.625
2939.51912	1217.625
2941.98513	1204.025
2944.44962	1196.725
2946.91261	1175.625
2949.37409	1176.725
2951.83407	1165.825
2954.29254	1146.325
2956.74951	1146.825
2959.20498	1144.325
2961.65895	1128.825
2964.11142	1113.825
2966.56239	1117.825
2969.01186	1109.825
2971.45984	1100.825
2973.90632	1096.725
2976.35131	1079.325
2978.7948	1080.325
2981.23681	1074.325
2983.67732	1071.425
2986.11635	1062.625
2988.55388	1053.225
2990.98993	1052.925
2993.4245	1050.325
2995.85758	1040.725
2998.28917	1036.625
3000.71928	1039.125
3003.14791	1040.125
3005.57506	1042.925
3008.00073	1034.125
3010.42493	1036.925
3012.84764	1038.725
3015.26888	1031.525
3017.68865	1017.625
3020.10694	1026.025
3022.52376	1026.125
3024.9391	1017.425
3027.35298	1021.325
3029.76539	1019.825
3032.17632	1025.325
3034.5858	1021.425
3036.9938	1013.625
3039.40034	1017.125
3041.80542	1012.725
3044.20903	1008.725
3046.61118	1004.725
3049.01187	1010.225
3051.4111	1013.225
3053.80888	1012.325
3056.20519	1013.225
3058.60005	1013.325
3060.99345	1014.025
3063.3854	1008.825
3065.7759	1004.925
3068.16494	1017.625
3070.55254	1011.725
3072.93868	1009.925
3075.32338	1014.325
3077.70662	999.325
3080.08842	1006.125
3082.46878	1009.725
3084.84769	1006.525
3087.22515	1011.225
3089.60118	1006.325
3091.97576	1017.625
3094.3489	1019.825
3096.72061	1011.625
3099.09087	1015.125
3101.4597	1026.025
3103.82709	1019.025
3106.19305	1025.625
3108.55757	1031.225
3110.92066	1026.025
3113.28232	1033.925
3115.64255	1035.625
3118.00134	1026.525
3120.35871	1042.025
3122.71466	1037.725
3125.06917	1038.925
3127.42226	1043.325
3129.77393	1049.225
3132.12417	1053.525
3134.47299	1056.325
3136.82039	1054.125
3139.16636	1057.625
3141.51092	1066.625
3143.85406	1066.425
3146.19579	1069.325
3148.53609	1078.425
3150.87499	1077.225
3153.21246	1088.525
3155.54853	1091.925
3157.88318	1099.625
3160.21642	1099.125
3162.54826	1109.825
3164.87868	1110.325
3167.2077	1116.425
3169.5353	1109.425
3171.86151	1116.125
3174.18631	1127.625
3176.5097	1127.925
3178.83169	1128.825
3181.15228	1131.225
3183.47147	1134.525
3185.78926	1138.225
3188.10565	1148.025
3190.42065	1139.225
3192.73424	1140.125
3195.04645	1141.925
3197.35725	1149.425
3199.66667	1149.125
3201.97469	1156.825
3204.28132	1171.425
3206.58656	1161.225
3208.8904	1171.325
3211.19287	1172.725
3213.49394	1184.425
3215.79363	1177.125
3218.09193	1183.625
3220.38884	1162.625
3222.68438	1144.225
3224.97853	1166.025
3227.2713	1176.925
3229.56269	1183.525
3231.8527	1185.825
3234.14133	1186.125
3236.42858	1184.325
