Data from AgNPs_FTO_APTES_UA_50uM_CRN_200uM_R6G_10uM_NaF_0.1M_Addition_RamanShift__25__16-23-35-095.txt Node

Date: Mon Feb 21 16:23:35 GMT 2022
User: TCL
Spectrometer: QEP01345
Trigger mode: 4
Integration Time (sec): 7.000000E0
Scans to average: 10
Electric dark correction enabled: true
Nonlinearity correction enabled: false
Boxcar width: 0
XAxis mode: Raman Shifts
Number of Pixels in Spectrum: 1044
>>>>>Begin Spectral Data<<<<<
46.04893	0.925
50.45542	-0.375
54.85868	0.825
59.25871	-2.175
63.6555	54.125
68.04907	63.225
72.43941	64.425
76.82654	65.525
81.21044	70.625
85.59113	73.225
89.96862	76.625
94.34289	77.225
98.71396	76.825
103.08183	86.525
107.4465	86.125
111.80798	88.025
116.16626	88.725
120.52136	89.725
124.87327	97.625
129.222	95.225
133.56755	102.425
137.90993	111.425
142.24913	118.525
146.58517	130.925
150.91804	152.925
155.24774	180.525
159.57429	221.425
163.89768	286.225
168.21792	386.825
172.53501	521.425
176.84895	726.525
181.15975	1018.125
185.46741	1422.925
189.77193	1967.225
194.07331	2648.925
198.37157	3407.125
202.6667	4219.625
206.9587	5046.825
211.24758	5854.825
215.53334	6730.225
219.81599	7687.225
224.09553	8751.725
228.37195	9955.025
232.64527	11268.425
236.91549	12573.625
241.18261	13781.425
245.44663	14835.125
249.70755	15647.325
253.96539	16364.625
258.22014	16998.925
262.4718	17524.025
266.72039	17832.125
270.96589	17868.625
275.20832	17665.925
279.44768	17312.025
283.68397	16934.725
287.91719	16628.125
292.14735	16633.725
296.37445	17016.225
300.59849	17739.125
304.81948	18585.025
309.03742	19126.925
313.25231	19070.825
317.46415	18151.625
321.67296	16781.225
325.87872	15622.925
330.08145	15123.625
334.28114	15119.725
338.47781	15440.025
342.67145	15909.425
346.86207	16614.325
351.04966	17627.425
355.23424	18831.025
359.4158	19712.225
363.59435	20130.125
367.76989	20281.925
371.94243	20283.225
376.11196	20197.625
380.27849	20063.025
384.44203	19840.325
388.60257	19516.625
392.76012	19316.125
396.91468	19423.925
401.06626	19835.525
405.21485	20151.625
409.36047	19698.625
413.50311	18645.925
417.64277	17558.125
421.77947	16939.825
425.9132	16637.625
430.04396	16567.625
434.17176	16683.925
438.2966	16979.425
442.41849	17413.925
446.53742	17954.825
450.6534	18490.025
454.76644	18810.825
458.87653	18862.125
462.98368	18660.125
467.08789	18329.525
471.18916	17962.125
475.2875	17502.725
479.38291	17139.025
483.4754	16835.625
487.56496	16618.125
491.6516	16443.225
495.73531	16309.425
499.81612	16367.425
503.89401	16586.825
507.96899	16818.925
512.04106	17141.825
516.11023	17513.325
520.1765	17752.425
524.23987	17729.525
528.30034	17452.425
532.35792	17190.025
536.41261	16893.225
540.46441	16525.825
544.51333	16321.925
548.55936	16362.325
552.60252	16666.725
556.64279	17059.325
560.6802	17298.325
564.71473	17564.325
568.7464	18276.025
572.7752	18566.225
576.80114	17933.625
580.82422	17184.025
584.84444	16932.125
588.86181	16996.225
592.87633	17332.925
596.888	17659.125
600.89682	18163.925
604.9028	20306.525
608.90594	26202.825
612.90624	33906.825
616.90371	32204.525
620.89834	22476.525
624.89015	17976.725
628.87913	17200.025
632.86528	17356.025
636.84862	17625.025
640.82913	17321.625
644.80683	16489.725
648.78172	15877.625
652.75379	15904.125
656.72306	16505.925
660.68952	17331.125
664.65319	17136.925
668.61405	16297.825
672.57211	15929.225
676.52738	15977.925
680.47986	15973.825
684.42955	15813.325
688.37646	15634.325
692.32058	15620.325
696.26192	15702.925
700.20048	15906.825
704.13626	15950.025
708.06928	15867.825
711.99952	15738.425
715.927	15726.625
719.85171	15816.125
723.77365	15862.525
727.69284	15828.625
731.60928	15748.625
735.52295	15711.125
739.43388	15765.525
743.34206	15848.425
747.24749	15900.125
751.15017	15913.225
755.05012	16141.825
758.94733	16913.925
762.8418	18798.725
766.73354	22048.325
770.62254	25470.325
774.50882	27380.225
778.39237	26216.825
782.27321	22509.325
786.15132	18994.725
790.02671	16972.225
793.89938	16101.725
797.76935	15750.125
801.6366	15645.925
805.50115	15539.725
809.36299	15439.025
813.22213	15401.725
817.07857	15367.825
820.93231	15333.325
824.78336	15329.725
828.63172	15418.325
832.47738	15425.025
836.32036	15418.625
840.16066	15312.725
843.99827	15277.125
847.8332	15262.025
851.66546	15229.225
855.49504	15235.425
859.32195	15246.125
863.1462	15228.025
866.96777	15182.525
870.78668	15130.425
874.60293	15146.825
878.41652	15205.425
882.22745	15310.425
886.03573	15358.925
889.84136	15354.825
893.64433	15272.225
897.44466	15190.225
901.24235	15151.525
905.0374	15063.025
908.8298	14940.225
912.61957	14870.525
916.40671	14892.825
920.19121	15041.925
923.97308	15167.425
927.75233	15376.425
931.52895	15669.925
935.30295	15568.925
939.07433	15128.125
942.84309	14702.825
946.60924	14459.225
950.37278	14354.625
954.13371	14258.925
957.89203	14187.825
961.64774	14141.825
965.40086	14049.425
969.15137	14016.325
972.89929	13970.225
976.64461	13933.725
980.38733	13946.025
984.12747	13993.925
987.86502	14088.225
991.59999	14238.325
995.33237	14445.125
999.06217	14804.525
1002.78939	15294.925
1006.51404	15667.325
1010.23611	15901.525
1013.95561	16077.325
1017.67255	16059.725
1021.38692	15896.125
1025.09872	15668.925
1028.80796	15658.025
1032.51465	15946.125
1036.21877	16248.425
1039.92035	16327.325
1043.61937	16227.125
1047.31584	15981.325
1051.00976	15661.025
1054.70114	15431.725
1058.38998	15346.325
1062.07627	15336.925
1065.76003	15340.125
1069.44126	15339.225
1073.11995	15391.125
1076.79611	15612.725
1080.46974	15955.625
1084.14085	16445.025
1087.80943	16918.725
1091.47549	17090.725
1095.13903	16785.325
1098.80005	16201.725
1102.45857	15801.825
1106.11456	15745.625
1109.76805	15987.425
1113.41903	16482.125
1117.06751	17188.225
1120.71348	18119.625
1124.35696	18988.625
1127.99793	19625.025
1131.63641	19361.825
1135.2724	18310.725
1138.90589	17345.025
1142.5369	16750.225
1146.16542	16316.725
1149.79145	16087.125
1153.415	16005.225
1157.03607	16117.225
1160.65467	16439.025
1164.27079	17010.825
1167.88443	17953.125
1171.49561	19367.725
1175.10432	21636.625
1178.71056	24776.825
1182.31434	27539.825
1185.91565	28390.725
1189.51451	27358.025
1193.11091	25312.825
1196.70485	23167.225
1200.29634	21723.425
1203.88538	20704.625
1207.47197	19504.225
1211.05612	18444.725
1214.63782	17840.225
1218.21708	17613.325
1221.79391	17605.625
1225.36829	17656.325
1228.94024	17485.925
1232.50976	17326.125
1236.07685	17180.225
1239.6415	17176.225
1243.20374	17277.425
1246.76355	17473.525
1250.32093	17752.025
1253.8759	18120.725
1257.42845	18733.125
1260.97859	19322.825
1264.52631	19921.925
1268.07163	20561.025
1271.61453	21157.225
1275.15503	21598.525
1278.69312	21907.325
1282.22882	22195.025
1285.76211	22671.425
1289.29301	23364.625
1292.82151	24154.925
1296.34761	25164.725
1299.87133	26779.325
1303.39266	29477.825
1306.9116	33479.425
1310.42815	37533.625
1313.94233	39040.025
1317.45412	37031.225
1320.96354	33473.725
1324.47058	30128.925
1327.97525	27447.225
1331.47754	25931.925
1334.97747	25476.825
1338.47502	25918.425
1341.97022	26951.325
1345.46305	28496.125
1348.95352	30564.825
1352.44163	33033.125
1355.92738	36895.325
1359.41078	42946.525
1362.89183	48123.125
1366.37053	45731.925
1369.84688	37442.225
1373.32088	30200.625
1376.79254	25808.125
1380.26186	23570.525
1383.72883	22315.325
1387.19347	21501.125
1390.65578	20686.325
1394.11575	20107.825
1397.57339	19953.025
1401.0287	20100.825
1404.48168	20317.525
1407.93234	20606.625
1411.38068	20860.625
1414.82669	21007.125
1418.27039	20853.325
1421.71177	20443.325
1425.15083	19963.125
1428.58758	19754.025
1432.02203	19909.425
1435.45416	20133.025
1438.88399	20214.925
1442.31151	20258.225
1445.73673	20438.425
1449.15965	20608.025
1452.58027	20618.425
1455.9986	20415.425
1459.41463	20384.725
1462.82837	20627.425
1466.23982	21116.925
1469.64898	21667.325
1473.05586	22031.625
1476.46045	22191.825
1479.86276	22437.725
1483.26279	22805.225
1486.66054	23324.125
1490.05602	24095.925
1493.44922	25256.025
1496.84016	26951.825
1500.22882	29854.025
1503.61521	34315.825
1506.99934	39662.625
1510.38121	43935.525
1513.76081	44498.225
1517.13816	40621.725
1520.51324	34550.525
1523.88607	29197.225
1527.25665	25773.425
1530.62498	23967.125
1533.99105	22878.725
1537.35488	22215.025
1540.71647	21922.725
1544.07581	21884.325
1547.4329	21948.125
1550.78776	22074.725
1554.14038	22293.125
1557.49077	22520.625
1560.83892	22942.825
1564.18484	23587.425
1567.52853	24352.825
1570.86999	24932.625
1574.20922	25218.525
1577.54624	24980.125
1580.88103	23632.425
1584.2136	21947.025
1587.54395	21081.025
1590.87208	21408.425
1594.19801	22766.125
1597.52172	24538.725
1600.84321	25432.725
1604.16251	24687.125
1607.47959	23072.125
1610.79447	21256.525
1614.10715	19503.025
1617.41763	18126.725
1620.7259	17284.525
1624.03199	16910.125
1627.33587	16995.925
1630.63757	17451.825
1633.93707	18406.125
1637.23439	19935.525
1640.52951	22196.125
1643.82246	25392.625
1647.11321	29108.325
1650.40179	31424.125
1653.68819	29985.325
1656.97241	25435.625
1660.25446	20906.425
1663.53433	17871.125
1666.81203	16144.625
1670.08756	15183.925
1673.36092	14615.125
1676.63211	14186.225
1679.90115	13941.325
1683.16801	13722.625
1686.43272	13554.825
1689.69527	13444.225
1692.95567	13269.825
1696.2139	13122.025
1699.46999	13008.825
1702.72392	12971.125
1705.97571	13028.425
1709.22535	13114.725
1712.47284	13159.625
1715.71819	13156.625
1718.96139	13167.825
1722.20246	13138.325
1725.44139	13034.825
1728.67818	12963.325
1731.91284	12856.025
1735.14537	12769.625
1738.37576	12696.825
1741.60403	12659.125
1744.83017	12620.125
1748.05418	12588.125
1751.27607	12534.625
1754.49584	12502.225
1757.71349	12408.725
1760.92903	12356.925
1764.14244	12314.025
1767.35375	12342.725
1770.56294	12256.525
1773.77002	12242.725
1776.97499	12244.525
1780.17785	12239.225
1783.37861	12251.925
1786.57727	12251.525
1789.77382	12269.625
1792.96828	12240.925
1796.16064	12256.725
1799.3509	12221.025
1802.53907	12201.625
1805.72514	12116.825
1808.90913	12101.925
1812.09102	12087.225
1815.27083	12065.225
1818.44856	12006.725
1821.6242	11995.025
1824.79776	11965.525
1827.96924	11975.125
1831.13864	11946.025
1834.30597	11928.725
1837.47122	11920.725
1840.6344	11887.425
1843.7955	11904.425
1846.95454	11864.625
1850.11151	11864.025
1853.26642	11876.425
1856.41926	11840.325
1859.57004	11872.125
1862.71876	11870.225
1865.86542	11913.925
1869.01003	11890.025
1872.15258	11879.525
1875.29308	11875.525
1878.43152	11881.225
1881.56792	11839.525
1884.70227	11844.425
1887.83457	11853.825
1890.96482	11830.225
1894.09304	11823.325
1897.21921	11818.225
1900.34335	11834.225
1903.46544	11821.225
1906.58551	11833.325
1909.70353	11776.225
1912.81953	11818.725
1915.93349	11781.125
1919.04543	11786.325
1922.15534	11740.725
1925.26322	11704.725
1928.36908	11675.525
1931.47292	11646.225
1934.57473	11594.225
1937.67453	11578.225
1940.77232	11555.825
1943.86808	11529.225
1946.96184	11505.225
1950.05358	11444.225
1953.14331	11403.025
1956.23103	11379.725
1959.31675	11338.525
1962.40046	11315.725
1965.48217	11266.225
1968.56188	11261.925
1971.63959	11249.525
1974.7153	11225.325
1977.78901	11162.225
1980.86073	11144.225
1983.93046	11069.325
1986.99819	11037.225
1990.06394	11018.925
1993.1277	11002.525
1996.18947	10937.425
1999.24925	10897.925
2002.30706	10876.825
2005.36288	10832.925
2008.41672	10794.225
2011.46859	10775.425
2014.51848	10755.625
2017.56639	10714.125
2020.61233	10706.225
2023.6563	10676.125
2026.6983	10667.925
2029.73833	10637.925
2032.7764	10615.725
2035.8125	10578.825
2038.84664	10551.325
2041.87881	10564.125
2044.90903	10545.625
2047.93729	10511.525
2050.96359	10476.425
2053.98794	10482.025
2057.01034	10490.825
2060.03078	10486.225
2063.04927	10480.625
2066.06582	10438.225
2069.08042	10445.125
2072.09307	10410.725
2075.10378	10397.725
2078.11255	10396.225
2081.11938	10410.825
2084.12426	10421.025
2087.12722	10368.425
2090.12824	10371.025
2093.12732	10382.625
2096.12447	10376.025
2099.11969	10379.825
2102.11299	10376.125
2105.10435	10373.425
2108.09379	10373.525
2111.08131	10383.325
2114.0669	10397.025
2117.05057	10405.825
2120.03233	10433.025
2123.01216	10448.925
2125.99008	10465.225
2128.96609	10466.625
2131.94018	10470.025
2134.91236	10486.825
2137.88263	10464.225
2140.851	10450.625
2143.81746	10461.925
2146.78201	10469.925
2149.74466	10461.725
2152.7054	10460.925
2155.66425	10434.025
2158.6212	10457.025
2161.57625	10445.325
2164.52941	10440.825
2167.48067	10436.825
2170.43004	10458.225
2173.37752	10415.825
2176.32311	10436.525
2179.26681	10428.725
2182.20863	10436.025
2185.14856	10449.825
2188.08661	10443.525
2191.02278	10427.725
2193.95707	10446.525
2196.88948	10427.525
2199.82001	10410.525
2202.74867	10414.625
2205.67545	10390.125
2208.60037	10383.125
2211.52341	10358.225
2214.44458	10369.325
2217.36388	10348.025
2220.28132	10334.825
2223.1969	10323.925
2226.11061	10294.225
2229.02246	10258.725
2231.93245	10258.125
2234.84058	10221.825
2237.74686	10223.525
2240.65128	10209.825
2243.55385	10187.125
2246.45456	10194.725
2249.35343	10175.525
2252.25044	10166.025
2255.14561	10144.825
2258.03893	10162.925
2260.93041	10112.525
2263.82004	10121.625
2266.70783	10137.725
2269.59378	10101.625
2272.4779	10056.225
2275.36017	10049.625
2278.24061	10013.225
2281.11922	10010.725
2283.996	9988.325
2286.87094	9954.825
2289.74405	9947.425
2292.61534	9936.725
2295.4848	9896.925
2298.35243	9910.525
2301.21824	9910.325
2304.08223	9908.925
2306.94439	9929.525
2309.80474	9916.725
2312.66327	9900.725
2315.51999	9894.825
2318.37489	9899.325
2321.22797	9870.225
2324.07925	9880.525
2326.92871	9874.725
2329.77637	9857.525
2332.62222	9860.525
2335.46626	9838.025
2338.3085	9846.225
2341.14893	9858.125
2343.98756	9834.225
2346.8244	9872.825
2349.65943	9892.825
2352.49267	9869.425
2355.32411	9890.725
2358.15376	9931.725
2360.98161	9915.425
2363.80768	9924.725
2366.63195	9921.725
2369.45444	9913.725
2372.27514	9908.525
2375.09405	9882.625
2377.91118	9842.925
2380.72652	9818.925
2383.54009	9759.225
2386.35187	9730.725
2389.16188	9679.625
2391.97011	9660.925
2394.77657	9635.925
2397.58125	9613.725
2400.38416	9585.625
2403.18529	9569.925
2405.98466	9583.625
2408.78226	9556.125
2411.57809	9533.525
2414.37216	9506.125
2417.16446	9513.725
2419.955	9491.225
2422.74378	9511.125
2425.5308	9482.825
2428.31606	9470.825
2431.09956	9488.525
2433.88131	9464.425
2436.6613	9487.625
2439.43954	9465.625
2442.21603	9472.125
2444.99077	9461.325
2447.76377	9494.525
2450.53501	9479.425
2453.30451	9479.925
2456.07226	9464.925
2458.83827	9468.425
2461.60254	9451.525
2464.36507	9449.725
2467.12586	9467.325
2469.88492	9459.125
2472.64224	9460.925
2475.39782	9466.725
2478.15167	9487.225
2480.90379	9472.125
2483.65417	9530.625
2486.40283	9561.025
2489.14976	9563.725
2491.89497	9569.125
2494.63845	9598.125
2497.3802	9544.725
2500.12024	9542.625
2502.85855	9516.725
2505.59514	9497.125
2508.33002	9467.425
2511.06318	9448.625
2513.79462	9392.925
2516.52435	9371.625
2519.25237	9340.225
2521.97867	9317.525
2524.70327	9310.625
2527.42616	9317.225
2530.14734	9293.025
2532.86681	9275.925
2535.58458	9299.225
2538.30065	9296.725
2541.01501	9281.325
2543.72768	9259.225
2546.43864	9275.125
2549.14791	9260.725
2551.85548	9237.825
2554.56136	9213.225
2557.26554	9229.025
2559.96803	9248.625
2562.66883	9198.325
2565.36794	9200.825
2568.06536	9194.625
2570.7611	9185.825
2573.45514	9170.125
2576.14751	9150.825
2578.83819	9151.225
2581.52719	9131.225
2584.21451	9135.225
2586.90015	9098.625
2589.58411	9104.125
2592.2664	9117.425
2594.94701	9106.225
2597.62594	9079.225
2600.30321	9078.425
2602.9788	9078.925
2605.65273	9077.425
2608.32498	9053.925
2610.99557	9055.825
2613.66449	9073.925
2616.33175	9084.225
2618.99734	9068.725
2621.66128	9075.725
2624.32355	9045.525
2626.98416	9047.825
2629.64311	9056.925
2632.30041	9043.125
2634.95605	9017.325
2637.61004	9021.525
2640.26238	9001.325
2642.91306	8987.625
2645.56209	8966.525
2648.20948	8944.125
2650.85521	8946.525
2653.4993	8936.725
2656.14175	8970.025
2658.78255	8981.525
2661.42171	8990.925
2664.05923	8998.925
2666.6951	8988.725
2669.32934	9011.525
2671.96194	9033.025
2674.59291	9019.225
2677.22224	9048.025
2679.84993	9046.725
2682.476	9005.225
2685.10043	8996.225
2687.72324	8978.825
2690.34441	8969.325
2692.96396	8989.325
2695.58188	8967.425
2698.19818	8977.725
2700.81285	8962.125
2703.4259	8935.525
2706.03733	8895.725
2708.64714	8920.925
2711.25533	8951.325
2713.86191	8950.525
2716.46687	8990.025
2719.07021	9012.625
2721.67194	9020.925
2724.27206	8996.525
2726.87057	9005.025
2729.46747	8996.025
2732.06276	9001.425
2734.65644	9011.325
2737.24852	8994.925
2739.83899	8955.325
2742.42786	8981.825
2745.01513	8946.025
2747.60079	8930.925
2750.18486	8919.325
2752.76733	8942.225
2755.3482	8912.925
2757.92747	8908.725
2760.50515	8882.925
2763.08123	8877.625
2765.65573	8876.925
2768.22863	8880.525
2770.79994	8854.525
2773.36967	8858.225
2775.9378	8857.025
2778.50435	8850.225
2781.06932	8838.025
2783.6327	8875.025
2786.1945	8859.925
2788.75471	8848.825
2791.31335	8839.525
2793.87041	8840.725
2796.42589	8826.625
2798.97979	8832.625
2801.53212	8782.725
2804.08288	8813.525
2806.63206	8776.025
2809.17967	8780.325
2811.72571	8791.225
2814.27018	8788.025
2816.81308	8767.925
2819.35442	8778.625
2821.89419	8783.625
2824.43239	8789.225
2826.96904	8798.825
2829.50412	8791.725
2832.03763	8762.725
2834.56959	8777.225
2837.1	8762.425
2839.62884	8778.625
2842.15613	8764.225
2844.68186	8778.625
2847.20604	8783.325
2849.72867	8785.825
2852.24974	8783.125
2854.76927	8773.425
2857.28724	8749.025
2859.80367	8753.225
2862.31855	8778.225
2864.83189	8781.025
2867.34368	8764.025
2869.85393	8789.025
2872.36264	8770.725
2874.8698	8784.825
2877.37543	8793.325
2879.87952	8765.625
2882.38207	8776.925
2884.88308	8773.425
2887.38256	8771.825
2889.88051	8750.625
2892.37692	8761.125
2894.8718	8769.725
2897.36515	8778.825
2899.85698	8768.225
2902.34727	8782.225
2904.83604	8777.825
2907.32328	8816.125
2909.809	8816.125
2912.29319	8829.925
2914.77587	8802.525
2917.25702	8821.725
2919.73665	8806.925
2922.21476	8816.025
2924.69136	8801.825
2927.16644	8779.725
2929.64	8774.425
2932.11205	8744.025
2934.58258	8706.625
2937.05161	8718.525
2939.51912	8712.225
2941.98513	8705.425
2944.44962	8666.425
2946.91261	8647.025
2949.37409	8642.225
2951.83407	8649.125
2954.29254	8623.925
2956.74951	8614.825
2959.20498	8615.125
2961.65895	8587.625
2964.11142	8568.625
2966.56239	8564.225
2969.01186	8569.125
2971.45984	8544.225
2973.90632	8535.025
2976.35131	8513.525
2978.7948	8475.925
2981.23681	8442.025
2983.67732	8431.425
2986.11635	8412.625
2988.55388	8398.525
2990.98993	8385.325
2993.4245	8370.325
2995.85758	8378.925
2998.28917	8358.625
3000.71928	8332.325
3003.14791	8321.825
3005.57506	8307.325
3008.00073	8306.625
3010.42493	8298.425
3012.84764	8282.625
3015.26888	8291.925
3017.68865	8272.925
3020.10694	8270.325
3022.52376	8226.025
3024.9391	8216.225
3027.35298	8212.025
3029.76539	8183.525
3032.17632	8176.125
3034.5858	8150.825
3036.9938	8113.325
3039.40034	8122.525
3041.80542	8110.125
3044.20903	8097.625
3046.61118	8120.025
3049.01187	8076.525
3051.4111	8077.125
3053.80888	8074.025
3056.20519	8011.925
3058.60005	8039.225
3060.99345	8004.325
3063.3854	7988.025
3065.7759	7976.925
3068.16494	7952.425
3070.55254	7919.725
3072.93868	7897.125
3075.32338	7883.525
3077.70662	7877.125
3080.08842	7867.525
3082.46878	7852.625
3084.84769	7826.025
3087.22515	7837.525
3089.60118	7816.625
3091.97576	7808.225
3094.3489	7813.425
3096.72061	7810.325
3099.09087	7815.525
3101.4597	7795.725
3103.82709	7779.225
3106.19305	7786.025
3108.55757	7808.025
3110.92066	7770.725
3113.28232	7735.225
3115.64255	7722.325
3118.00134	7736.725
3120.35871	7744.625
3122.71466	7713.625
3125.06917	7690.925
3127.42226	7680.425
3129.77393	7685.625
3132.12417	7671.525
3134.47299	7678.825
3136.82039	7671.325
3139.16636	7642.825
3141.51092	7671.025
3143.85406	7674.025
3146.19579	7676.125
3148.53609	7676.625
3150.87499	7681.725
3153.21246	7688.625
3155.54853	7700.725
3157.88318	7677.425
3160.21642	7690.925
3162.54826	7688.425
3164.87868	7711.325
3167.2077	7678.925
