Data from AgNPs_FTO_APTES_UA_50uM_CRN_50uM_R6G_10uM_NaF_0.1M_Addition_RamanShift__9__14-43-14-970.txt Node

Date: Mon Feb 21 14:43:14 GMT 2022
User: TCL
Spectrometer: QEP01345
Trigger mode: 4
Integration Time (sec): 7.000000E0
Scans to average: 10
Electric dark correction enabled: true
Nonlinearity correction enabled: false
Boxcar width: 0
XAxis mode: Raman Shifts
Number of Pixels in Spectrum: 1044
>>>>>Begin Spectral Data<<<<<
46.04893	-0.35
50.45542	-0.15
54.85868	-0.55
59.25871	-2.35
63.6555	56.15
68.04907	62.75
72.43941	66.45
76.82654	70.65
81.21044	70.75
85.59113	76.05
89.96862	78.95
94.34289	82.55
98.71396	80.95
103.08183	89.35
107.4465	90.05
111.80798	91.35
116.16626	87.05
120.52136	91.85
124.87327	97.75
129.222	98.85
133.56755	101.15
137.90993	108.85
142.24913	119.65
146.58517	130.05
150.91804	146.35
155.24774	174.05
159.57429	210.15
163.89768	264.15
168.21792	345.45
172.53501	467.95
176.84895	650.75
181.15975	898.75
185.46741	1265.85
189.77193	1747.95
194.07331	2334.55
198.37157	3003.25
202.6667	3710.65
206.9587	4427.35
211.24758	5123.85
215.53334	5800.15
219.81599	6543.55
224.09553	7339.25
228.37195	8256.95
232.64527	9264.85
236.91549	10299.85
241.18261	11305.45
245.44663	12299.45
249.70755	13098.45
253.96539	13796.05
258.22014	14375.15
262.4718	14851.85
266.72039	15173.45
270.96589	15332.35
275.20832	15312.15
279.44768	15174.15
283.68397	15013.05
287.91719	14890.85
292.14735	14757.05
296.37445	14773.45
300.59849	14844.35
304.81948	14954.25
309.03742	14992.65
313.25231	14967.55
317.46415	14723.95
321.67296	14306.75
325.87872	14040.65
330.08145	13921.65
334.28114	13906.65
338.47781	13984.85
342.67145	14148.15
346.86207	14405.55
351.04966	14710.85
355.23424	14999.65
359.4158	15272.95
363.59435	15484.75
367.76989	15617.75
371.94243	15681.25
376.11196	15699.45
380.27849	15750.15
384.44203	15831.45
388.60257	15916.35
392.76012	16070.55
396.91468	16267.15
401.06626	16471.05
405.21485	16700.05
409.36047	16541.25
413.50311	16306.85
417.64277	16098.75
421.77947	16055.85
425.9132	16073.85
430.04396	16142.15
434.17176	16194.45
438.2966	16285.25
442.41849	16513.25
446.53742	16905.85
450.6534	17278.25
454.76644	17536.85
458.87653	17637.55
462.98368	17612.05
467.08789	17455.15
471.18916	17236.55
475.2875	16988.85
479.38291	16762.95
483.4754	16599.95
487.56496	16472.95
491.6516	16346.75
495.73531	16229.35
499.81612	16214.55
503.89401	16364.75
507.96899	16459.35
512.04106	16457.15
516.11023	16391.05
520.1765	16304.15
524.23987	16169.75
528.30034	16111.85
532.35792	16025.05
536.41261	15878.85
540.46441	15748.35
544.51333	15713.65
548.55936	15792.85
552.60252	16095.15
556.64279	16422.55
560.6802	16603.55
564.71473	16669.85
568.7464	16861.85
572.7752	17239.15
576.80114	17643.55
580.82422	18057.25
584.84444	18621.95
588.86181	19285.65
592.87633	19934.95
596.888	20037.75
600.89682	19511.85
604.9028	19574.75
608.90594	20994.25
612.90624	22663.45
616.90371	21287.75
620.89834	17934.85
624.89015	16437.95
628.87913	16305.65
632.86528	16516.85
636.84862	16621.35
640.82913	16397.95
644.80683	15968.65
648.78172	15692.45
652.75379	15655.25
656.72306	15866.55
660.68952	16156.75
664.65319	16061.85
668.61405	15802.75
672.57211	15811.55
676.52738	15941.15
680.47986	15946.05
684.42955	15793.65
688.37646	15676.35
692.32058	15703.15
696.26192	15883.95
700.20048	16077.25
704.13626	16183.15
708.06928	16184.25
711.99952	16089.35
715.927	16059.05
719.85171	16100.95
723.77365	16064.45
727.69284	15873.75
731.60928	15667.85
735.52295	15587.35
739.43388	15620.45
743.34206	15663.05
747.24749	15739.85
751.15017	15883.85
755.05012	16107.95
758.94733	16514.15
762.8418	17296.25
766.73354	18603.05
770.62254	19900.15
774.50882	20213.15
778.39237	19420.95
782.27321	18127.25
786.15132	17030.45
790.02671	16320.75
793.89938	15894.15
797.76935	15709.65
801.6366	15623.15
805.50115	15589.65
809.36299	15498.05
813.22213	15389.85
817.07857	15337.55
820.93231	15267.05
824.78336	15230.45
828.63172	15169.25
832.47738	15151.05
836.32036	15109.45
840.16066	15163.45
843.99827	15146.85
847.8332	15164.15
851.66546	15140.75
855.49504	15153.05
859.32195	15193.85
863.1462	15107.35
866.96777	15134.85
870.78668	15116.45
874.60293	15149.15
878.41652	15187.85
882.22745	15237.55
886.03573	15317.15
889.84136	15332.65
893.64433	15311.05
897.44466	15228.45
901.24235	15210.05
905.0374	15118.65
908.8298	15081.45
912.61957	15064.05
916.40671	15123.85
920.19121	15303.35
923.97308	15457.05
927.75233	15541.65
931.52895	15447.35
935.30295	15276.45
939.07433	15020.05
942.84309	14844.65
946.60924	14699.05
950.37278	14642.15
954.13371	14663.55
957.89203	14640.65
961.64774	14612.05
965.40086	14642.35
969.15137	14610.75
972.89929	14574.95
976.64461	14528.65
980.38733	14551.65
984.12747	14575.55
987.86502	14643.65
991.59999	14696.15
995.33237	14874.15
999.06217	15083.75
1002.78939	15423.95
1006.51404	15705.35
1010.23611	15928.25
1013.95561	16125.05
1017.67255	16168.95
1021.38692	16058.55
1025.09872	15854.65
1028.80796	15710.05
1032.51465	15710.75
1036.21877	15772.45
1039.92035	15841.35
1043.61937	15888.05
1047.31584	15848.95
1051.00976	15790.25
1054.70114	15764.25
1058.38998	15811.75
1062.07627	15904.75
1065.76003	16116.15
1069.44126	16310.05
1073.11995	16556.45
1076.79611	16802.65
1080.46974	16953.05
1084.14085	17134.05
1087.80943	17299.65
1091.47549	17416.75
1095.13903	17394.35
1098.80005	17147.15
1102.45857	16768.75
1106.11456	16432.15
1109.76805	16339.95
1113.41903	16319.15
1117.06751	16447.65
1120.71348	16629.45
1124.35696	16882.65
1127.99793	17088.95
1131.63641	17186.95
1135.2724	17141.45
1138.90589	17054.75
1142.5369	17024.35
1146.16542	17010.75
1149.79145	17063.65
1153.415	17145.45
1157.03607	17250.65
1160.65467	17629.35
1164.27079	18244.25
1167.88443	19074.15
1171.49561	20052.95
1175.10432	21340.95
1178.71056	22993.05
1182.31434	24498.85
1185.91565	25385.65
1189.51451	25420.65
1193.11091	24905.15
1196.70485	23985.05
1200.29634	23004.25
1203.88538	22141.55
1207.47197	21469.05
1211.05612	20879.95
1214.63782	20381.05
1218.21708	19945.65
1221.79391	19641.95
1225.36829	19493.35
1228.94024	19434.05
1232.50976	19307.65
1236.07685	19103.65
1239.6415	18944.55
1243.20374	18926.55
1246.76355	18999.25
1250.32093	19167.15
1253.8759	19497.05
1257.42845	19976.85
1260.97859	20529.65
1264.52631	21155.75
1268.07163	21752.25
1271.61453	22334.15
1275.15503	22847.75
1278.69312	23359.15
1282.22882	23845.05
1285.76211	24577.95
1289.29301	25357.65
1292.82151	26205.95
1296.34761	27329.35
1299.87133	28609.05
1303.39266	30025.55
1306.9116	31452.75
1310.42815	32668.65
1313.94233	33290.25
1317.45412	32950.05
1320.96354	32185.15
1324.47058	31441.15
1327.97525	30810.35
1331.47754	30438.25
1334.97747	30224.05
1338.47502	30084.75
1341.97022	30025.35
1345.46305	30124.25
1348.95352	30264.15
1352.44163	30733.05
1355.92738	31577.65
1359.41078	33030.85
1362.89183	34352.15
1366.37053	33926.75
1369.84688	31336.85
1373.32088	28005.55
1376.79254	25551.65
1380.26186	24434.85
1383.72883	24057.55
1387.19347	23748.15
1390.65578	23347.25
1394.11575	23029.35
1397.57339	23042.45
1401.0287	23151.05
1404.48168	23240.45
1407.93234	23236.35
1411.38068	22965.15
1414.82669	22524.05
1418.27039	21986.55
1421.71177	21422.95
1425.15083	20909.95
1428.58758	20724.65
1432.02203	20839.25
1435.45416	21239.85
1438.88399	21582.45
1442.31151	21875.65
1445.73673	21989.85
1449.15965	22078.05
1452.58027	22153.45
1455.9986	22135.45
1459.41463	22250.55
1462.82837	22564.35
1466.23982	22988.45
1469.64898	23426.15
1473.05586	23772.15
1476.46045	24019.25
1479.86276	24075.55
1483.26279	24146.05
1486.66054	24244.15
1490.05602	24548.95
1493.44922	25074.25
1496.84016	25743.15
1500.22882	26614.85
1503.61521	27712.15
1506.99934	28918.55
1510.38121	29731.25
1513.76081	29646.95
1517.13816	28704.85
1520.51324	27365.95
1523.88607	26319.15
1527.25665	25660.25
1530.62498	25303.75
1533.99105	24975.45
1537.35488	24514.25
1540.71647	23982.05
1544.07581	23386.05
1547.4329	22820.85
1550.78776	22410.65
1554.14038	22140.35
1557.49077	22079.85
1560.83892	22071.75
1564.18484	22214.65
1567.52853	22362.65
1570.86999	22627.85
1574.20922	22966.25
1577.54624	23174.95
1580.88103	22970.55
1584.2136	22757.65
1587.54395	22975.95
1590.87208	23779.75
1594.19801	24906.65
1597.52172	26041.05
1600.84321	26350.55
1604.16251	25468.25
1607.47959	23885.65
1610.79447	22221.05
1614.10715	20655.55
1617.41763	19319.95
1620.7259	18374.75
1624.03199	17887.25
1627.33587	17898.35
1630.63757	18280.55
1633.93707	19269.35
1637.23439	20937.25
1640.52951	23368.15
1643.82246	26326.05
1647.11321	28805.15
1650.40179	29284.45
1653.68819	27403.65
1656.97241	24059.65
1660.25446	20753.95
1663.53433	18315.35
1666.81203	16832.05
1670.08756	15913.95
1673.36092	15378.45
1676.63211	14984.35
1679.90115	14747.55
1683.16801	14537.95
1686.43272	14368.95
1689.69527	14233.15
1692.95567	14101.95
1696.2139	13911.55
1699.46999	13777.65
1702.72392	13680.35
1705.97571	13753.15
1709.22535	13787.05
1712.47284	13829.75
1715.71819	13844.25
1718.96139	13826.55
1722.20246	13779.25
1725.44139	13700.75
1728.67818	13665.25
1731.91284	13583.85
1735.14537	13512.35
1738.37576	13439.85
1741.60403	13405.25
1744.83017	13345.05
1748.05418	13305.25
1751.27607	13238.95
1754.49584	13195.15
1757.71349	13133.75
1760.92903	13112.15
1764.14244	13110.25
1767.35375	13065.85
1770.56294	13013.05
1773.77002	12989.25
1776.97499	12999.75
1780.17785	13052.75
1783.37861	13073.05
1786.57727	13071.95
1789.77382	13042.55
1792.96828	13021.55
1796.16064	12999.15
1799.3509	12964.95
1802.53907	12952.85
1805.72514	12893.15
1808.90913	12876.45
1812.09102	12889.85
1815.27083	12853.55
1818.44856	12885.55
1821.6242	12872.05
1824.79776	12856.45
1827.96924	12849.85
1831.13864	12838.35
1834.30597	12817.75
1837.47122	12869.85
1840.6344	12864.85
1843.7955	12838.95
1846.95454	12847.85
1850.11151	12830.25
1853.26642	12823.15
1856.41926	12796.25
1859.57004	12783.55
1862.71876	12740.35
1865.86542	12744.65
1869.01003	12746.25
1872.15258	12713.35
1875.29308	12690.65
1878.43152	12687.65
1881.56792	12681.25
1884.70227	12649.85
1887.83457	12630.55
1890.96482	12608.85
1894.09304	12580.95
1897.21921	12577.25
1900.34335	12536.05
1903.46544	12517.65
1906.58551	12492.45
1909.70353	12518.95
1912.81953	12503.75
1915.93349	12486.35
1919.04543	12453.15
1922.15534	12406.35
1925.26322	12376.05
1928.36908	12357.65
1931.47292	12316.15
1934.57473	12285.65
1937.67453	12301.45
1940.77232	12268.75
1943.86808	12223.05
1946.96184	12222.95
1950.05358	12182.05
1953.14331	12120.85
1956.23103	12106.25
1959.31675	12060.65
1962.40046	12043.05
1965.48217	12002.75
1968.56188	11947.05
1971.63959	11939.05
1974.7153	11909.15
1977.78901	11903.65
1980.86073	11850.95
1983.93046	11784.55
1986.99819	11751.75
1990.06394	11748.05
1993.1277	11726.05
1996.18947	11650.75
1999.24925	11631.05
2002.30706	11596.25
2005.36288	11566.65
2008.41672	11546.05
2011.46859	11488.25
2014.51848	11483.05
2017.56639	11439.05
2020.61233	11414.65
2023.6563	11391.05
2026.6983	11388.75
2029.73833	11358.55
2032.7764	11314.95
2035.8125	11284.85
2038.84664	11281.25
2041.87881	11286.15
2044.90903	11229.95
2047.93729	11194.25
2050.96359	11227.35
2053.98794	11226.45
2057.01034	11204.95
2060.03078	11207.95
2063.04927	11163.75
2066.06582	11164.55
2069.08042	11142.55
2072.09307	11146.15
2075.10378	11153.65
2078.11255	11158.95
2081.11938	11143.15
2084.12426	11118.75
2087.12722	11126.15
2090.12824	11127.55
2093.12732	11106.25
2096.12447	11139.55
2099.11969	11144.35
2102.11299	11149.95
2105.10435	11164.85
2108.09379	11141.25
2111.08131	11172.85
2114.0669	11177.45
2117.05057	11152.95
2120.03233	11180.85
2123.01216	11229.45
2125.99008	11230.35
2128.96609	11228.35
2131.94018	11227.65
2134.91236	11233.85
2137.88263	11237.35
2140.851	11246.75
2143.81746	11268.45
2146.78201	11258.25
2149.74466	11248.55
2152.7054	11247.65
2155.66425	11242.35
2158.6212	11259.45
2161.57625	11228.05
2164.52941	11229.35
2167.48067	11227.65
2170.43004	11218.65
2173.37752	11227.15
2176.32311	11235.25
2179.26681	11223.95
2182.20863	11208.85
2185.14856	11255.95
2188.08661	11223.45
2191.02278	11249.75
2193.95707	11225.85
2196.88948	11207.75
2199.82001	11192.95
2202.74867	11209.25
2205.67545	11200.45
2208.60037	11186.25
2211.52341	11173.25
2214.44458	11167.25
2217.36388	11127.15
2220.28132	11112.45
2223.1969	11105.15
2226.11061	11054.05
2229.02246	11062.15
2231.93245	11041.35
2234.84058	11022.55
2237.74686	11034.55
2240.65128	11002.15
2243.55385	11015.45
2246.45456	11008.35
2249.35343	10964.55
2252.25044	10953.55
2255.14561	10925.65
2258.03893	10933.35
2260.93041	10893.05
2263.82004	10887.75
2266.70783	10863.75
2269.59378	10831.35
2272.4779	10818.95
2275.36017	10799.85
2278.24061	10783.45
2281.11922	10747.75
2283.996	10737.55
2286.87094	10706.65
2289.74405	10711.45
2292.61534	10686.75
2295.4848	10685.15
2298.35243	10702.85
2301.21824	10684.75
2304.08223	10703.25
2306.94439	10683.55
2309.80474	10675.65
2312.66327	10678.45
2315.51999	10643.05
2318.37489	10650.55
2321.22797	10642.85
2324.07925	10622.85
2326.92871	10664.05
2329.77637	10621.35
2332.62222	10587.05
2335.46626	10602.95
2338.3085	10569.65
2341.14893	10567.75
2343.98756	10571.35
2346.8244	10542.05
2349.65943	10557.95
2352.49267	10569.75
2355.32411	10539.85
2358.15376	10579.25
2360.98161	10574.05
2363.80768	10530.35
2366.63195	10530.85
2369.45444	10535.55
2372.27514	10534.55
2375.09405	10512.35
2377.91118	10509.45
2380.72652	10502.75
2383.54009	10472.05
2386.35187	10448.55
2389.16188	10436.85
2391.97011	10386.15
2394.77657	10376.35
2397.58125	10370.35
2400.38416	10332.85
2403.18529	10342.75
2405.98466	10346.65
2408.78226	10312.55
2411.57809	10316.45
2414.37216	10273.25
2417.16446	10306.15
2419.955	10272.95
2422.74378	10276.05
2425.5308	10259.45
2428.31606	10250.65
2431.09956	10269.55
2433.88131	10240.15
2436.6613	10257.05
2439.43954	10264.35
2442.21603	10249.15
2444.99077	10262.65
2447.76377	10273.15
2450.53501	10231.65
2453.30451	10273.45
2456.07226	10228.75
2458.83827	10230.05
2461.60254	10216.95
2464.36507	10229.35
2467.12586	10217.95
2469.88492	10237.45
2472.64224	10220.65
2475.39782	10198.15
2478.15167	10203.95
2480.90379	10208.65
2483.65417	10216.75
2486.40283	10206.75
2489.14976	10227.15
2491.89497	10199.65
2494.63845	10217.25
2497.3802	10177.55
2500.12024	10208.75
2502.85855	10206.45
2505.59514	10187.25
2508.33002	10171.65
2511.06318	10145.85
2513.79462	10163.65
2516.52435	10144.75
2519.25237	10146.35
2521.97867	10141.15
2524.70327	10156.35
2527.42616	10116.35
2530.14734	10107.35
2532.86681	10098.15
2535.58458	10100.55
2538.30065	10119.45
2541.01501	10104.65
2543.72768	10072.55
2546.43864	10050.75
2549.14791	10037.45
2551.85548	10051.45
2554.56136	10008.55
2557.26554	10019.25
2559.96803	10013.25
2562.66883	10014.95
2565.36794	10006.85
2568.06536	9982.45
2570.7611	9962.65
2573.45514	9969.65
2576.14751	9990.65
2578.83819	9944.05
2581.52719	9935.55
2584.21451	9941.35
2586.90015	9903.45
2589.58411	9886.65
2592.2664	9873.35
2594.94701	9871.05
2597.62594	9869.65
2600.30321	9869.05
2602.9788	9886.25
2605.65273	9877.55
2608.32498	9867.25
2610.99557	9858.65
2613.66449	9869.05
2616.33175	9867.85
2618.99734	9867.85
2621.66128	9844.35
2624.32355	9831.75
2626.98416	9823.35
2629.64311	9823.25
2632.30041	9802.15
2634.95605	9780.35
2637.61004	9776.15
2640.26238	9768.15
2642.91306	9763.25
2645.56209	9766.35
2648.20948	9747.65
2650.85521	9750.35
2653.4993	9737.85
2656.14175	9752.75
2658.78255	9781.05
2661.42171	9751.05
2664.05923	9779.95
2666.6951	9787.25
2669.32934	9832.85
2671.96194	9814.35
2674.59291	9808.75
2677.22224	9819.65
2679.84993	9804.25
2682.476	9792.85
2685.10043	9782.15
2687.72324	9773.25
2690.34441	9780.85
2692.96396	9815.85
2695.58188	9783.65
2698.19818	9786.75
2700.81285	9750.85
2703.4259	9754.35
2706.03733	9718.85
2708.64714	9731.05
2711.25533	9771.55
2713.86191	9793.55
2716.46687	9792.85
2719.07021	9814.55
2721.67194	9817.85
2724.27206	9839.05
2726.87057	9824.35
2729.46747	9834.25
2732.06276	9863.65
2734.65644	9837.45
2737.24852	9834.75
2739.83899	9820.95
2742.42786	9839.15
2745.01513	9802.45
2747.60079	9808.85
2750.18486	9800.95
2752.76733	9798.25
2755.3482	9794.05
2757.92747	9775.65
2760.50515	9778.25
2763.08123	9782.15
2765.65573	9762.85
2768.22863	9748.95
2770.79994	9720.65
2773.36967	9722.45
2775.9378	9724.45
2778.50435	9711.45
2781.06932	9721.35
2783.6327	9741.55
2786.1945	9734.25
2788.75471	9729.95
2791.31335	9687.95
2793.87041	9670.55
2796.42589	9670.85
2798.97979	9634.05
2801.53212	9641.45
2804.08288	9644.35
2806.63206	9592.35
2809.17967	9590.15
2811.72571	9565.15
2814.27018	9545.05
2816.81308	9531.55
2819.35442	9526.75
2821.89419	9532.55
2824.43239	9531.45
2826.96904	9509.95
2829.50412	9521.55
2832.03763	9496.05
2834.56959	9482.25
2837.1	9505.55
2839.62884	9485.25
2842.15613	9482.45
2844.68186	9477.75
2847.20604	9480.45
2849.72867	9497.45
2852.24974	9479.85
2854.76927	9471.95
2857.28724	9435.75
2859.80367	9446.05
2862.31855	9421.45
2864.83189	9419.75
2867.34368	9418.65
2869.85393	9430.85
2872.36264	9424.85
2874.8698	9443.25
2877.37543	9415.85
2879.87952	9410.85
2882.38207	9407.55
2884.88308	9381.75
2887.38256	9416.15
2889.88051	9416.75
2892.37692	9419.25
2894.8718	9416.75
2897.36515	9430.55
2899.85698	9431.85
2902.34727	9419.15
2904.83604	9458.75
2907.32328	9477.15
2909.809	9453.45
2912.29319	9478.15
2914.77587	9489.25
2917.25702	9483.15
2919.73665	9491.35
2922.21476	9479.15
2924.69136	9460.75
2927.16644	9488.65
2929.64	9450.65
2932.11205	9449.05
2934.58258	9417.35
2937.05161	9447.05
2939.51912	9442.65
2941.98513	9420.75
2944.44962	9429.15
2946.91261	9402.25
2949.37409	9417.35
2951.83407	9376.45
2954.29254	9380.25
2956.74951	9370.55
2959.20498	9361.15
2961.65895	9339.45
2964.11142	9343.15
2966.56239	9314.55
2969.01186	9305.85
2971.45984	9301.45
2973.90632	9305.65
2976.35131	9293.85
2978.7948	9266.25
2981.23681	9243.85
2983.67732	9221.65
2986.11635	9211.85
2988.55388	9185.35
2990.98993	9174.55
2993.4245	9157.25
2995.85758	9153.45
2998.28917	9127.25
3000.71928	9121.25
3003.14791	9114.25
3005.57506	9082.95
3008.00073	9048.45
3010.42493	9055.85
3012.84764	9039.85
3015.26888	9052.95
3017.68865	9016.55
3020.10694	9002.45
3022.52376	8993.95
3024.9391	8970.35
3027.35298	8971.25
3029.76539	8966.35
3032.17632	8945.35
3034.5858	8929.55
3036.9938	8916.05
3039.40034	8925.65
3041.80542	8905.95
3044.20903	8897.75
3046.61118	8899.95
3049.01187	8898.55
3051.4111	8887.75
3053.80888	8864.05
3056.20519	8849.95
3058.60005	8838.75
3060.99345	8825.15
3063.3854	8800.15
3065.7759	8804.65
3068.16494	8768.75
3070.55254	8747.45
3072.93868	8715.65
3075.32338	8707.15
3077.70662	8673.45
3080.08842	8659.15
3082.46878	8648.95
3084.84769	8664.55
3087.22515	8610.45
3089.60118	8635.55
3091.97576	8624.85
3094.3489	8625.85
3096.72061	8606.85
3099.09087	8639.95
3101.4597	8633.15
3103.82709	8631.85
3106.19305	8619.05
3108.55757	8612.95
3110.92066	8606.65
3113.28232	8574.45
3115.64255	8555.05
3118.00134	8557.15
3120.35871	8554.35
3122.71466	8554.95
3125.06917	8525.85
3127.42226	8524.15
3129.77393	8524.55
3132.12417	8502.15
3134.47299	8493.75
3136.82039	8477.95
3139.16636	8507.15
3141.51092	8500.45
3143.85406	8520.45
3146.19579	8474.95
3148.53609	8491.55
3150.87499	8504.55
3153.21246	8505.15
3155.54853	8543.85
3157.88318	8505.25
3160.21642	8524.05
3162.54826	8528.65
3164.87868	8514.55
3167.2077	8524.25
3169.5353	8538.65
3171.86151	8514.55
3174.18631	8511.55
3176.5097	8515.15
3178.83169	8502.65
3181.15228	8493.75
3183.47147	8483.85
3185.78926	8486.75
3188.10565	8502.55
3190.42065	8478.55
3192.73424	8511.15
3195.04645	8473.15
3197.35725	8478.75
3199.66667	8459.25
3201.97469	8461.45
3204.28132	8475.65
3206.58656	8452.95
3208.8904	8453.85
3211.19287	8459.85
3213.49394	8460.95
3215.79363	8487.25
3218.09193	8496.25
3220.38884	8463.25
3222.68438	8445.45
3224.97853	8456.45
3227.2713	8439.25
3229.56269	8440.25
3231.8527	8443.55
3234.14133	8433.95
3236.42858	8419.75
3238.71446	8432.25
3240.99896	8382.85
3243.28209	8377.35
3245.56384	8361.05
3247.84423	8376.45
3250.12324	8362.05
3252.40088	8357.15
3254.67715	8349.65
3256.95205	8366.85
3259.22558	8352.15
3261.49775	8317.15
3263.76855	8344.35
3266.03799	8328.55
3268.30606	8320.15
3270.57277	8310.55
3272.83812	8291.15
