Data from AgNPs_FTO_APTES_UA_50uM_CRN_10uM_R6G_10uM_NaF_0.1M_Addition_RamanShift__21__13-37-54-888.txt Node

Date: Mon Feb 21 13:37:54 GMT 2022
User: TCL
Spectrometer: QEP01345
Trigger mode: 4
Integration Time (sec): 7.000000E0
Scans to average: 10
Electric dark correction enabled: true
Nonlinearity correction enabled: false
Boxcar width: 0
XAxis mode: Raman Shifts
Number of Pixels in Spectrum: 1044
>>>>>Begin Spectral Data<<<<<
46.04893	-0.675
50.45542	-0.875
54.85868	-0.475
59.25871	-1.575
63.6555	73.125
68.04907	79.725
72.43941	83.125
76.82654	88.925
81.21044	88.425
85.59113	92.425
89.96862	93.925
94.34289	100.825
98.71396	102.125
103.08183	108.925
107.4465	112.725
111.80798	111.525
116.16626	109.625
120.52136	116.925
124.87327	131.525
129.222	131.825
133.56755	133.825
137.90993	151.625
142.24913	162.925
146.58517	182.825
150.91804	208.725
155.24774	256.325
159.57429	319.225
163.89768	409.825
168.21792	542.025
172.53501	743.425
176.84895	1044.125
181.15975	1458.025
185.46741	2049.425
189.77193	2825.325
194.07331	3797.825
198.37157	4878.125
202.6667	6059.625
206.9587	7230.525
211.24758	8415.325
215.53334	9706.225
219.81599	11131.425
224.09553	12708.725
228.37195	14524.425
232.64527	16481.025
236.91549	18379.225
241.18261	20059.825
245.44663	21424.025
249.70755	22461.325
253.96539	23308.025
258.22014	24092.725
262.4718	24720.025
266.72039	25232.525
270.96589	25404.025
275.20832	25172.025
279.44768	24678.625
283.68397	24172.825
287.91719	23851.525
292.14735	23887.925
296.37445	24427.025
300.59849	25413.325
304.81948	26509.125
309.03742	27284.225
313.25231	27225.625
317.46415	25973.625
321.67296	24045.925
325.87872	22435.325
330.08145	21653.025
334.28114	21691.525
338.47781	22016.725
342.67145	22631.125
346.86207	23611.025
351.04966	24999.725
355.23424	26564.925
359.4158	27773.625
363.59435	28328.325
367.76989	28456.825
371.94243	28352.625
376.11196	28132.925
380.27849	27959.125
384.44203	27729.725
388.60257	27399.525
392.76012	27230.325
396.91468	27449.725
401.06626	28027.725
405.21485	28483.725
409.36047	27928.225
413.50311	26436.825
417.64277	25045.625
421.77947	24228.825
425.9132	23964.525
430.04396	23903.825
434.17176	24015.925
438.2966	24396.425
442.41849	25090.125
446.53742	26003.225
450.6534	26890.625
454.76644	27429.525
458.87653	27500.325
462.98368	27256.325
467.08789	26766.825
471.18916	26174.325
475.2875	25460.225
479.38291	24942.425
483.4754	24485.925
487.56496	24061.725
491.6516	23740.225
495.73531	23528.225
499.81612	23565.725
503.89401	23872.625
507.96899	24175.525
512.04106	24456.725
516.11023	24763.625
520.1765	24909.025
524.23987	24819.525
528.30034	24551.425
532.35792	24236.525
536.41261	23802.025
540.46441	23272.425
544.51333	23009.925
548.55936	23122.725
552.60252	23681.125
556.64279	24422.025
560.6802	24921.925
564.71473	25406.825
568.7464	26496.225
572.7752	27211.325
576.80114	26606.625
580.82422	25801.425
584.84444	25624.525
588.86181	25974.325
592.87633	26537.925
596.888	27112.025
600.89682	27605.125
604.9028	30425.025
608.90594	38776.025
612.90624	49177.325
616.90371	45901.225
620.89834	31844.925
624.89015	25420.625
628.87913	24350.025
632.86528	24641.025
636.84862	25041.225
640.82913	24531.225
644.80683	23138.125
648.78172	22118.825
652.75379	22047.325
656.72306	23052.425
660.68952	24235.225
664.65319	23862.425
668.61405	22656.025
672.57211	22256.425
676.52738	22440.525
680.47986	22393.425
684.42955	22081.125
688.37646	21861.025
692.32058	21869.525
696.26192	22082.025
700.20048	22393.825
704.13626	22581.825
708.06928	22442.025
711.99952	22121.825
715.927	22025.925
719.85171	22164.925
723.77365	22256.125
727.69284	22051.025
731.60928	21822.025
735.52295	21823.825
739.43388	21919.825
743.34206	22075.625
747.24749	22205.525
751.15017	22282.125
755.05012	22674.425
758.94733	23984.625
762.8418	27061.025
766.73354	32382.725
770.62254	37578.325
774.50882	39776.225
778.39237	37609.325
782.27321	32246.425
786.15132	27156.925
790.02671	24027.325
793.89938	22595.425
797.76935	22001.525
801.6366	21744.225
805.50115	21570.125
809.36299	21407.525
813.22213	21208.925
817.07857	21094.525
820.93231	21013.725
824.78336	21030.225
828.63172	21110.025
832.47738	21117.925
836.32036	21070.125
840.16066	20988.925
843.99827	20987.325
847.8332	20891.125
851.66546	20870.325
855.49504	20871.425
859.32195	20884.825
863.1462	20815.325
866.96777	20754.125
870.78668	20715.325
874.60293	20704.825
878.41652	20802.925
882.22745	20939.125
886.03573	21114.125
889.84136	21095.725
893.64433	20986.125
897.44466	20915.025
901.24235	20851.825
905.0374	20639.425
908.8298	20487.125
912.61957	20340.125
916.40671	20385.025
920.19121	20655.225
923.97308	20986.925
927.75233	21309.225
931.52895	21523.925
935.30295	21274.825
939.07433	20624.425
942.84309	20056.125
946.60924	19738.925
950.37278	19598.925
954.13371	19478.525
957.89203	19378.725
961.64774	19308.425
965.40086	19224.925
969.15137	19139.225
972.89929	19161.825
976.64461	19032.025
980.38733	19018.825
984.12747	19135.825
987.86502	19300.325
991.59999	19564.425
995.33237	20047.625
999.06217	20794.125
1002.78939	21757.225
1006.51404	22562.825
1010.23611	23122.325
1013.95561	23371.325
1017.67255	23354.425
1021.38692	22955.725
1025.09872	22544.125
1028.80796	22475.925
1032.51465	22914.225
1036.21877	23389.925
1039.92035	23594.925
1043.61937	23388.525
1047.31584	22938.925
1051.00976	22403.825
1054.70114	22022.625
1058.38998	21889.225
1062.07627	21943.125
1065.76003	21996.925
1069.44126	22102.025
1073.11995	22397.225
1076.79611	22837.225
1080.46974	23436.125
1084.14085	24203.925
1087.80943	24980.125
1091.47549	25329.025
1095.13903	24879.525
1098.80005	23999.625
1102.45857	23296.025
1106.11456	23011.225
1109.76805	23218.225
1113.41903	23907.325
1117.06751	24831.525
1120.71348	26105.925
1124.35696	27437.825
1127.99793	28497.025
1131.63641	28188.125
1135.2724	26830.225
1138.90589	25582.725
1142.5369	24727.825
1146.16542	24146.925
1149.79145	23881.625
1153.415	23851.625
1157.03607	24106.425
1160.65467	24765.425
1164.27079	25996.325
1167.88443	27872.725
1171.49561	30562.925
1175.10432	34623.525
1178.71056	40094.425
1182.31434	44926.725
1185.91565	46652.125
1189.51451	45301.725
1193.11091	42369.325
1196.70485	39065.925
1200.29634	36427.625
1203.88538	34199.325
1207.47197	31949.225
1211.05612	29936.025
1214.63782	28833.125
1218.21708	28517.825
1221.79391	28698.125
1225.36829	28842.925
1228.94024	28622.025
1232.50976	28065.825
1236.07685	27611.425
1239.6415	27336.325
1243.20374	27349.625
1246.76355	27486.025
1250.32093	27922.425
1253.8759	28683.425
1257.42845	29833.525
1260.97859	31150.525
1264.52631	32490.725
1268.07163	33906.525
1271.61453	35263.725
1275.15503	36420.425
1278.69312	37297.425
1282.22882	38039.625
1285.76211	39112.525
1289.29301	40603.825
1292.82151	42224.525
1296.34761	44284.425
1299.87133	47487.125
1303.39266	52165.825
1306.9116	58814.225
1310.42815	65490.325
1313.94233	68448.425
1317.45412	65907.125
1320.96354	60923.225
1324.47058	56035.825
1327.97525	52083.125
1331.47754	49594.825
1334.97747	48698.125
1338.47502	49025.925
1341.97022	50212.525
1345.46305	51964.525
1348.95352	54319.125
1352.44163	57527.425
1355.92738	62778.025
1359.41078	71213.225
1362.89183	78788.225
1366.37053	75135.525
1369.84688	62333.625
1373.32088	50832.825
1376.79254	44130.125
1380.26186	40722.825
1383.72883	38949.825
1387.19347	37576.825
1390.65578	36466.725
1394.11575	35976.825
1397.57339	36081.225
1401.0287	36539.425
1404.48168	37134.725
1407.93234	37503.925
1411.38068	37585.925
1414.82669	37160.225
1418.27039	36288.325
1421.71177	35075.825
1425.15083	33991.725
1428.58758	33559.425
1432.02203	33909.625
1435.45416	34534.225
1438.88399	35008.525
1442.31151	35237.425
1445.73673	35578.825
1449.15965	36002.825
1452.58027	36227.825
1455.9986	36218.625
1459.41463	36419.525
1462.82837	37172.925
1466.23982	38114.125
1469.64898	38975.225
1473.05586	39357.925
1476.46045	39350.525
1479.86276	39407.525
1483.26279	39684.325
1486.66054	40332.125
1490.05602	41466.525
1493.44922	43131.125
1496.84016	45693.825
1500.22882	50024.425
1503.61521	56426.625
1506.99934	64177.925
1510.38121	69813.625
1513.76081	69981.025
1517.13816	63947.625
1520.51324	55215.525
1523.88607	47826.425
1527.25665	43290.625
1530.62498	40900.925
1533.99105	39550.625
1537.35488	38564.525
1540.71647	37794.025
1544.07581	37322.425
1547.4329	36915.925
1550.78776	36770.825
1554.14038	36797.125
1557.49077	37096.925
1560.83892	37673.325
1564.18484	38622.525
1567.52853	39789.925
1570.86999	40675.825
1574.20922	41241.825
1577.54624	40881.725
1580.88103	38963.325
1584.2136	36748.025
1587.54395	36123.425
1590.87208	37410.525
1594.19801	40350.825
1597.52172	43748.725
1600.84321	44867.625
1604.16251	42962.925
1607.47959	39360.325
1610.79447	35591.825
1614.10715	32086.825
1617.41763	29339.625
1620.7259	27514.325
1624.03199	26675.325
1627.33587	26846.725
1630.63757	27946.525
1633.93707	30201.425
1637.23439	33759.325
1640.52951	38861.625
1643.82246	45421.025
1647.11321	51840.725
1650.40179	54708.825
1653.68819	51029.925
1656.97241	42432.325
1660.25446	33979.925
1663.53433	28145.325
1666.81203	24755.725
1670.08756	22770.725
1673.36092	21603.325
1676.63211	20802.125
1679.90115	20272.725
1683.16801	19839.125
1686.43272	19552.425
1689.69527	19291.825
1692.95567	19033.825
1696.2139	18867.825
1699.46999	18701.025
1702.72392	18651.325
1705.97571	18649.625
1709.22535	18693.925
1712.47284	18696.525
1715.71819	18719.325
1718.96139	18690.525
1722.20246	18543.425
1725.44139	18407.125
1728.67818	18228.925
1731.91284	18065.125
1735.14537	17963.725
1738.37576	17866.825
1741.60403	17771.025
1744.83017	17735.425
1748.05418	17651.725
1751.27607	17581.725
1754.49584	17458.525
1757.71349	17389.825
1760.92903	17324.725
1764.14244	17260.025
1767.35375	17249.625
1770.56294	17157.825
1773.77002	17150.325
1776.97499	17113.725
1780.17785	17116.625
1783.37861	17063.325
1786.57727	17039.725
1789.77382	17032.725
1792.96828	17023.725
1796.16064	16960.925
1799.3509	16964.425
1802.53907	16917.625
1805.72514	16901.125
1808.90913	16830.725
1812.09102	16767.825
1815.27083	16694.725
1818.44856	16685.025
1821.6242	16660.025
1824.79776	16640.725
1827.96924	16661.225
1831.13864	16617.225
1834.30597	16651.925
1837.47122	16593.325
1840.6344	16581.425
1843.7955	16561.425
1846.95454	16596.525
1850.11151	16601.925
1853.26642	16605.625
1856.41926	16573.725
1859.57004	16564.725
1862.71876	16591.125
1865.86542	16595.225
1869.01003	16592.525
1872.15258	16549.625
1875.29308	16522.125
1878.43152	16539.225
1881.56792	16599.925
1884.70227	16640.825
1887.83457	16634.625
1890.96482	16608.225
1894.09304	16584.025
1897.21921	16608.125
1900.34335	16618.425
1903.46544	16620.025
1906.58551	16593.725
1909.70353	16585.925
1912.81953	16584.125
1915.93349	16532.625
1919.04543	16464.925
1922.15534	16426.125
1925.26322	16315.925
1928.36908	16242.025
1931.47292	16154.825
1934.57473	16122.425
1937.67453	16045.125
1940.77232	15972.225
1943.86808	15912.825
1946.96184	15893.525
1950.05358	15852.525
1953.14331	15776.525
1956.23103	15734.125
1959.31675	15664.425
1962.40046	15669.125
1965.48217	15629.225
1968.56188	15592.125
1971.63959	15517.025
1974.7153	15500.325
1977.78901	15444.225
1980.86073	15396.725
1983.93046	15320.025
1986.99819	15270.825
1990.06394	15148.925
1993.1277	15137.425
1996.18947	15122.925
1999.24925	15047.625
2002.30706	14981.225
2005.36288	14947.625
2008.41672	14893.525
2011.46859	14864.525
2014.51848	14810.925
2017.56639	14770.025
2020.61233	14742.825
2023.6563	14703.225
2026.6983	14674.025
2029.73833	14647.425
2032.7764	14610.925
2035.8125	14612.725
2038.84664	14578.725
2041.87881	14584.525
2044.90903	14576.625
2047.93729	14522.825
2050.96359	14540.525
2053.98794	14507.625
2057.01034	14482.625
2060.03078	14472.025
2063.04927	14394.125
2066.06582	14388.625
2069.08042	14376.125
2072.09307	14378.525
2075.10378	14348.925
2078.11255	14328.325
2081.11938	14373.425
2084.12426	14354.425
2087.12722	14343.425
2090.12824	14301.125
2093.12732	14295.525
2096.12447	14310.925
2099.11969	14320.425
2102.11299	14307.725
2105.10435	14309.625
2108.09379	14310.425
2111.08131	14343.225
2114.0669	14340.725
2117.05057	14346.625
2120.03233	14381.225
2123.01216	14401.925
2125.99008	14394.425
2128.96609	14426.025
2131.94018	14427.925
2134.91236	14412.925
2137.88263	14376.625
2140.851	14407.825
2143.81746	14432.725
2146.78201	14405.025
2149.74466	14421.025
2152.7054	14396.825
2155.66425	14356.525
2158.6212	14359.125
2161.57625	14328.325
2164.52941	14327.725
2167.48067	14338.225
2170.43004	14306.525
2173.37752	14303.425
2176.32311	14329.225
2179.26681	14353.225
2182.20863	14349.825
2185.14856	14329.625
2188.08661	14330.325
2191.02278	14362.625
2193.95707	14316.525
2196.88948	14310.225
2199.82001	14338.125
2202.74867	14319.825
2205.67545	14338.925
2208.60037	14308.025
2211.52341	14288.325
2214.44458	14253.325
2217.36388	14254.425
2220.28132	14197.825
2223.1969	14186.425
2226.11061	14169.325
2229.02246	14113.625
2231.93245	14124.525
2234.84058	14099.225
2237.74686	14078.225
2240.65128	14057.825
2243.55385	14032.625
2246.45456	14027.425
2249.35343	14019.625
2252.25044	14040.825
2255.14561	14012.225
2258.03893	14003.925
2260.93041	14007.025
2263.82004	13957.825
2266.70783	13945.725
2269.59378	13869.625
2272.4779	13867.225
2275.36017	13815.425
2278.24061	13800.125
2281.11922	13764.525
2283.996	13734.125
2286.87094	13711.525
2289.74405	13681.925
2292.61534	13668.125
2295.4848	13605.525
2298.35243	13644.525
2301.21824	13661.825
2304.08223	13682.125
2306.94439	13700.125
2309.80474	13679.025
2312.66327	13700.225
2315.51999	13701.025
2318.37489	13678.025
2321.22797	13660.725
2324.07925	13645.525
2326.92871	13663.025
2329.77637	13638.825
2332.62222	13622.125
2335.46626	13628.925
2338.3085	13640.225
2341.14893	13622.025
2343.98756	13655.025
2346.8244	13685.125
2349.65943	13693.725
2352.49267	13707.625
2355.32411	13735.725
2358.15376	13733.525
2360.98161	13747.525
2363.80768	13750.025
2366.63195	13736.125
2369.45444	13756.425
2372.27514	13706.125
2375.09405	13702.025
2377.91118	13654.825
2380.72652	13602.325
2383.54009	13553.925
2386.35187	13509.225
2389.16188	13458.325
2391.97011	13421.825
2394.77657	13397.725
2397.58125	13351.725
2400.38416	13338.725
2403.18529	13312.025
2405.98466	13290.525
2408.78226	13250.125
2411.57809	13244.825
2414.37216	13230.225
2417.16446	13176.225
2419.955	13171.425
2422.74378	13174.125
2425.5308	13174.325
2428.31606	13161.225
2431.09956	13180.225
2433.88131	13169.025
2436.6613	13195.825
2439.43954	13187.125
2442.21603	13205.525
2444.99077	13192.225
2447.76377	13188.325
2450.53501	13173.425
2453.30451	13229.925
2456.07226	13230.125
2458.83827	13231.925
2461.60254	13233.425
2464.36507	13218.125
2467.12586	13239.025
2469.88492	13234.225
2472.64224	13258.925
2475.39782	13243.725
2478.15167	13250.525
2480.90379	13296.825
2483.65417	13326.325
2486.40283	13358.925
2489.14976	13381.725
2491.89497	13399.725
2494.63845	13418.025
2497.3802	13404.625
2500.12024	13396.325
2502.85855	13364.725
2505.59514	13341.425
2508.33002	13314.125
2511.06318	13273.125
2513.79462	13254.425
2516.52435	13186.925
2519.25237	13134.525
2521.97867	13121.025
2524.70327	13104.025
2527.42616	13091.225
2530.14734	13100.425
2532.86681	13088.725
2535.58458	13099.625
2538.30065	13125.625
2541.01501	13111.725
2543.72768	13080.925
2546.43864	13070.225
2549.14791	13066.625
2551.85548	13096.025
2554.56136	13077.225
2557.26554	13031.825
2559.96803	13041.025
2562.66883	13054.025
2565.36794	13054.525
2568.06536	13040.325
2570.7611	13014.925
2573.45514	13025.425
2576.14751	13020.225
2578.83819	12997.925
2581.52719	13006.425
2584.21451	12988.125
2586.90015	13002.325
2589.58411	12969.925
2592.2664	12976.025
2594.94701	12991.725
2597.62594	12972.825
2600.30321	12961.925
2602.9788	12970.825
2605.65273	12959.325
2608.32498	12997.525
2610.99557	12949.825
2613.66449	13003.625
2616.33175	13009.125
2618.99734	13035.725
2621.66128	13017.125
2624.32355	13012.125
2626.98416	12990.225
2629.64311	12981.725
2632.30041	12999.125
2634.95605	12959.925
2637.61004	12956.025
2640.26238	12934.925
2642.91306	12895.025
2645.56209	12900.525
2648.20948	12901.825
2650.85521	12879.825
2653.4993	12908.325
2656.14175	12890.125
2658.78255	12939.825
2661.42171	12923.725
2664.05923	12963.125
2666.6951	12973.925
2669.32934	12993.025
2671.96194	12992.925
2674.59291	13004.425
2677.22224	12996.125
2679.84993	12998.225
2682.476	13005.425
2685.10043	12986.625
2687.72324	12946.725
2690.34441	12937.625
2692.96396	12918.525
2695.58188	12927.125
2698.19818	12901.425
2700.81285	12910.625
2703.4259	12875.825
2706.03733	12831.925
2708.64714	12868.825
2711.25533	12907.225
2713.86191	12905.525
2716.46687	12950.725
2719.07021	12959.325
2721.67194	12965.325
2724.27206	12986.525
2726.87057	13017.525
2729.46747	12975.525
2732.06276	12998.725
2734.65644	13030.625
2737.24852	12994.125
2739.83899	12986.225
2742.42786	12989.025
2745.01513	12963.325
2747.60079	12958.825
2750.18486	12943.725
2752.76733	12904.625
2755.3482	12916.025
2757.92747	12951.325
2760.50515	12910.325
2763.08123	12911.825
2765.65573	12870.925
2768.22863	12865.325
2770.79994	12852.825
2773.36967	12898.625
2775.9378	12870.925
2778.50435	12896.525
2781.06932	12891.125
2783.6327	12913.525
2786.1945	12913.325
2788.75471	12915.925
2791.31335	12874.525
2793.87041	12875.425
2796.42589	12849.925
2798.97979	12843.725
2801.53212	12817.025
2804.08288	12824.925
2806.63206	12794.525
2809.17967	12810.825
2811.72571	12800.125
2814.27018	12786.625
2816.81308	12796.525
2819.35442	12789.025
2821.89419	12749.725
2824.43239	12771.725
2826.96904	12765.225
2829.50412	12789.025
2832.03763	12733.025
2834.56959	12759.725
2837.1	12730.325
2839.62884	12723.925
2842.15613	12687.825
2844.68186	12723.325
2847.20604	12733.525
2849.72867	12734.325
2852.24974	12718.325
2854.76927	12704.725
2857.28724	12687.825
2859.80367	12711.825
2862.31855	12698.825
2864.83189	12698.025
2867.34368	12704.625
2869.85393	12757.825
2872.36264	12727.325
2874.8698	12774.325
2877.37543	12761.625
2879.87952	12768.825
2882.38207	12761.925
2884.88308	12735.025
2887.38256	12744.225
2889.88051	12740.525
2892.37692	12757.925
2894.8718	12725.025
2897.36515	12799.625
2899.85698	12789.625
2902.34727	12803.525
2904.83604	12787.425
2907.32328	12797.325
2909.809	12818.525
2912.29319	12835.325
2914.77587	12826.325
2917.25702	12835.525
2919.73665	12785.125
2922.21476	12789.325
2924.69136	12752.025
2927.16644	12740.825
2929.64	12712.425
2932.11205	12700.625
2934.58258	12629.825
2937.05161	12615.725
2939.51912	12621.325
2941.98513	12632.525
2944.44962	12581.025
2946.91261	12563.825
2949.37409	12581.925
2951.83407	12561.625
2954.29254	12561.625
2956.74951	12524.725
2959.20498	12519.825
2961.65895	12477.425
2964.11142	12477.225
2966.56239	12428.925
2969.01186	12419.425
2971.45984	12397.525
2973.90632	12379.325
2976.35131	12351.125
2978.7948	12282.925
2981.23681	12269.025
2983.67732	12264.925
2986.11635	12220.125
2988.55388	12180.525
2990.98993	12163.325
2993.4245	12152.825
2995.85758	12127.725
2998.28917	12140.425
3000.71928	12086.425
3003.14791	12062.525
3005.57506	12046.325
3008.00073	11995.925
3010.42493	12016.425
3012.84764	11978.925
3015.26888	11986.125
3017.68865	11927.325
3020.10694	11917.925
3022.52376	11891.125
3024.9391	11866.425
3027.35298	11841.725
3029.76539	11839.725
3032.17632	11809.525
3034.5858	11788.925
3036.9938	11759.925
3039.40034	11733.725
3041.80542	11726.525
3044.20903	11705.625
3046.61118	11712.125
3049.01187	11657.525
3051.4111	11654.525
3053.80888	11614.825
3056.20519	11596.125
3058.60005	11570.625
3060.99345	11550.225
3063.3854	11504.825
3065.7759	11467.725
3068.16494	11460.125
3070.55254	11392.625
3072.93868	11366.625
3075.32338	11316.325
3077.70662	11287.925
3080.08842	11266.725
3082.46878	11233.125
3084.84769	11214.525
3087.22515	11191.525
3089.60118	11215.525
3091.97576	11186.625
3094.3489	11208.525
3096.72061	11173.325
3099.09087	11174.825
3101.4597	11167.225
3103.82709	11169.025
3106.19305	11134.325
3108.55757	11137.925
3110.92066	11090.425
3113.28232	11062.525
3115.64255	11049.325
3118.00134	11039.625
3120.35871	11041.725
3122.71466	11005.925
3125.06917	10988.925
3127.42226	10947.225
