Data from AgNPs_FTO_APTES_UA_50uM_CRN_5uM_R6G_10uM_NaF_0.1M_Addition_RamanShift__1__12-33-44-806.txt Node

Date: Mon Feb 21 12:33:44 GMT 2022
User: TCL
Spectrometer: QEP01345
Trigger mode: 4
Integration Time (sec): 7.000000E0
Scans to average: 10
Electric dark correction enabled: true
Nonlinearity correction enabled: false
Boxcar width: 0
XAxis mode: Raman Shifts
Number of Pixels in Spectrum: 1044
>>>>>Begin Spectral Data<<<<<
46.04893	-1.125
50.45542	-0.725
54.85868	-0.825
59.25871	-0.925
63.6555	45.475
68.04907	50.075
72.43941	48.875
76.82654	55.175
81.21044	60.575
85.59113	58.875
89.96862	61.175
94.34289	65.675
98.71396	65.575
103.08183	67.775
107.4465	70.275
111.80798	70.375
116.16626	70.875
120.52136	70.475
124.87327	78.075
129.222	73.675
133.56755	75.875
137.90993	83.475
142.24913	89.975
146.58517	96.575
150.91804	106.075
155.24774	128.175
159.57429	150.775
163.89768	193.975
168.21792	248.875
172.53501	336.875
176.84895	463.675
181.15975	643.575
185.46741	905.175
189.77193	1246.375
194.07331	1661.175
198.37157	2148.975
202.6667	2660.975
206.9587	3170.875
211.24758	3683.575
215.53334	4214.375
219.81599	4772.175
224.09553	5412.175
228.37195	6125.575
232.64527	6914.975
236.91549	7687.875
241.18261	8430.775
245.44663	9080.575
249.70755	9610.775
253.96539	10076.575
258.22014	10422.975
262.4718	10754.575
266.72039	10954.075
270.96589	11005.375
275.20832	10917.575
279.44768	10717.875
283.68397	10468.975
287.91719	10273.675
292.14735	10169.375
296.37445	10223.075
300.59849	10408.875
304.81948	10682.975
309.03742	10839.775
313.25231	10890.575
317.46415	10671.475
321.67296	10287.175
325.87872	9987.075
330.08145	9810.675
334.28114	9844.175
338.47781	9906.575
342.67145	10089.575
346.86207	10280.575
351.04966	10617.375
355.23424	10988.475
359.4158	11276.975
363.59435	11456.975
367.76989	11558.875
371.94243	11590.775
376.11196	11593.775
380.27849	11622.475
384.44203	11608.975
388.60257	11576.075
392.76012	11592.775
396.91468	11667.975
401.06626	11842.975
405.21485	11980.375
409.36047	11848.275
413.50311	11498.075
417.64277	11157.475
421.77947	10992.475
425.9132	10917.075
430.04396	10908.275
434.17176	10965.375
438.2966	11153.375
442.41849	11430.575
446.53742	11882.475
450.6534	12258.975
454.76644	12470.575
458.87653	12486.575
462.98368	12289.575
467.08789	12099.675
471.18916	11850.375
475.2875	11567.575
479.38291	11333.975
483.4754	11167.575
487.56496	11027.275
491.6516	10995.475
495.73531	11029.275
499.81612	11077.275
503.89401	11155.975
507.96899	11210.975
512.04106	11217.675
516.11023	11269.175
520.1765	11315.375
524.23987	11357.675
528.30034	11368.175
532.35792	11313.375
536.41261	11165.475
540.46441	10945.075
544.51333	10829.075
548.55936	10846.675
552.60252	11019.775
556.64279	11252.775
560.6802	11401.575
564.71473	11456.375
568.7464	11592.175
572.7752	11742.275
576.80114	11680.975
580.82422	11664.075
584.84444	11911.075
588.86181	12463.675
592.87633	13234.575
596.888	13767.075
600.89682	13750.375
604.9028	14138.475
608.90594	16112.575
612.90624	18713.075
616.90371	17708.375
620.89834	13828.875
624.89015	12010.975
628.87913	11743.475
632.86528	11874.675
636.84862	11927.675
640.82913	11708.575
644.80683	11304.875
648.78172	10977.175
652.75379	10972.075
656.72306	11243.475
660.68952	11622.175
664.65319	11502.375
668.61405	11155.875
672.57211	11074.075
676.52738	11173.075
680.47986	11158.675
684.42955	11033.975
688.37646	10999.875
692.32058	11080.675
696.26192	11212.275
700.20048	11338.575
704.13626	11370.275
708.06928	11255.175
711.99952	11141.575
715.927	11152.275
719.85171	11243.675
723.77365	11251.375
727.69284	11129.975
731.60928	11010.175
735.52295	10962.275
739.43388	11006.675
743.34206	11054.575
747.24749	11072.675
751.15017	11112.975
755.05012	11240.775
758.94733	11564.375
762.8418	12363.175
766.73354	13759.375
770.62254	15158.075
774.50882	15858.775
778.39237	15385.975
782.27321	14065.375
786.15132	12690.875
790.02671	11842.475
793.89938	11411.675
797.76935	11233.275
801.6366	11140.375
805.50115	11079.275
809.36299	11071.875
813.22213	10990.775
817.07857	10945.475
820.93231	10898.775
824.78336	10881.375
828.63172	10898.175
832.47738	10939.975
836.32036	10955.475
840.16066	11021.875
843.99827	11048.875
847.8332	10994.275
851.66546	10964.775
855.49504	10957.475
859.32195	10923.875
863.1462	10911.875
866.96777	10871.375
870.78668	10844.975
874.60293	10850.675
878.41652	10904.175
882.22745	11015.275
886.03573	11079.075
889.84136	11101.275
893.64433	11058.175
897.44466	10986.375
901.24235	10921.675
905.0374	10885.475
908.8298	10862.775
912.61957	10805.575
916.40671	10812.475
920.19121	10931.475
923.97308	11047.575
927.75233	11228.775
931.52895	11312.275
935.30295	11211.875
939.07433	11026.675
942.84309	10792.875
946.60924	10687.775
950.37278	10643.875
954.13371	10614.275
957.89203	10552.375
961.64774	10540.875
965.40086	10514.475
969.15137	10511.075
972.89929	10500.675
976.64461	10556.275
980.38733	10591.375
984.12747	10654.775
987.86502	10730.275
991.59999	10859.175
995.33237	11085.675
999.06217	11393.675
1002.78939	11783.275
1006.51404	12010.875
1010.23611	12135.575
1013.95561	12242.675
1017.67255	12247.075
1021.38692	12137.275
1025.09872	11997.375
1028.80796	12053.475
1032.51465	12386.675
1036.21877	12686.475
1039.92035	12799.275
1043.61937	12664.375
1047.31584	12429.075
1051.00976	12111.075
1054.70114	11881.075
1058.38998	11776.675
1062.07627	11743.975
1065.76003	11772.275
1069.44126	11822.575
1073.11995	11982.575
1076.79611	12225.575
1080.46974	12442.875
1084.14085	12676.675
1087.80943	12832.875
1091.47549	12909.375
1095.13903	12760.975
1098.80005	12471.575
1102.45857	12205.675
1106.11456	12096.275
1109.76805	12083.275
1113.41903	12218.475
1117.06751	12425.175
1120.71348	12703.775
1124.35696	13035.675
1127.99793	13329.475
1131.63641	13342.875
1135.2724	13076.975
1138.90589	12774.375
1142.5369	12519.775
1146.16542	12391.275
1149.79145	12321.875
1153.415	12295.075
1157.03607	12299.375
1160.65467	12470.775
1164.27079	12849.875
1167.88443	13456.375
1171.49561	14366.375
1175.10432	15712.975
1178.71056	17512.175
1182.31434	19206.675
1185.91565	19878.775
1189.51451	19555.575
1193.11091	18621.375
1196.70485	17539.375
1200.29634	16558.575
1203.88538	15821.775
1207.47197	15029.375
1211.05612	14351.275
1214.63782	14040.675
1218.21708	13937.475
1221.79391	14007.075
1225.36829	14140.575
1228.94024	14126.775
1232.50976	13882.275
1236.07685	13618.475
1239.6415	13453.375
1243.20374	13456.275
1246.76355	13497.275
1250.32093	13641.075
1253.8759	13855.475
1257.42845	14279.075
1260.97859	14757.975
1264.52631	15327.575
1268.07163	15872.575
1271.61453	16410.375
1275.15503	16796.575
1278.69312	17214.775
1282.22882	17512.675
1285.76211	17925.575
1289.29301	18502.975
1292.82151	19165.575
1296.34761	19948.875
1299.87133	21054.675
1303.39266	22631.875
1306.9116	24605.275
1310.42815	26552.775
1313.94233	27462.275
1317.45412	26715.775
1320.96354	24979.075
1324.47058	23054.875
1327.97525	21400.775
1331.47754	20294.875
1334.97747	19753.775
1338.47502	19591.775
1341.97022	19622.075
1345.46305	19940.075
1348.95352	20670.775
1352.44163	22000.875
1355.92738	24021.875
1359.41078	26827.875
1362.89183	29423.875
1366.37053	29102.875
1369.84688	25655.475
1373.32088	21790.775
1376.79254	19361.575
1380.26186	18158.575
1383.72883	17566.975
1387.19347	16996.375
1390.65578	16388.875
1394.11575	15978.975
1397.57339	15861.975
1401.0287	15845.575
1404.48168	15849.275
1407.93234	15833.275
1411.38068	15780.375
1414.82669	15715.975
1418.27039	15577.175
1421.71177	15393.775
1425.15083	15125.775
1428.58758	15053.075
1432.02203	15240.275
1435.45416	15508.175
1438.88399	15689.475
1442.31151	15723.275
1445.73673	15672.275
1449.15965	15666.675
1452.58027	15575.075
1455.9986	15337.175
1459.41463	15278.075
1462.82837	15472.975
1466.23982	15859.375
1469.64898	16267.575
1473.05586	16600.175
1476.46045	16859.475
1479.86276	17126.275
1483.26279	17374.575
1486.66054	17633.575
1490.05602	18074.275
1493.44922	18641.675
1496.84016	19284.675
1500.22882	20190.775
1503.61521	21624.075
1506.99934	23275.275
1510.38121	24601.775
1513.76081	24859.475
1517.13816	23609.675
1520.51324	21449.975
1523.88607	19583.475
1527.25665	18365.275
1530.62498	17709.875
1533.99105	17281.775
1537.35488	16910.875
1540.71647	16538.875
1544.07581	16210.375
1547.4329	15959.375
1550.78776	15752.175
1554.14038	15647.775
1557.49077	15628.375
1560.83892	15702.075
1564.18484	15954.975
1567.52853	16346.075
1570.86999	16752.375
1574.20922	17049.375
1577.54624	17108.075
1580.88103	16640.675
1584.2136	16111.475
1587.54395	16036.075
1590.87208	16673.075
1594.19801	17797.675
1597.52172	19021.575
1600.84321	19548.775
1604.16251	18851.875
1607.47959	17435.675
1610.79447	15888.275
1614.10715	14591.275
1617.41763	13642.075
1620.7259	13147.075
1624.03199	12934.275
1627.33587	13031.675
1630.63757	13408.975
1633.93707	14100.075
1637.23439	15257.075
1640.52951	17045.275
1643.82246	19452.975
1647.11321	21653.875
1650.40179	22465.275
1653.68819	21023.475
1656.97241	18132.375
1660.25446	15399.275
1663.53433	13533.175
1666.81203	12458.475
1670.08756	11849.675
1673.36092	11496.075
1676.63211	11310.675
1679.90115	11153.775
1683.16801	11019.775
1686.43272	10930.275
1689.69527	10838.875
1692.95567	10713.075
1696.2139	10554.675
1699.46999	10440.275
1702.72392	10402.575
1705.97571	10465.275
1709.22535	10496.175
1712.47284	10524.075
1715.71819	10564.175
1718.96139	10529.275
1722.20246	10510.675
1725.44139	10452.275
1728.67818	10422.675
1731.91284	10354.475
1735.14537	10296.475
1738.37576	10240.775
1741.60403	10215.375
1744.83017	10155.875
1748.05418	10128.575
1751.27607	10098.475
1754.49584	9999.875
1757.71349	9952.775
1760.92903	9906.575
1764.14244	9887.175
1767.35375	9898.575
1770.56294	9895.775
1773.77002	9890.275
1776.97499	9941.875
1780.17785	9972.075
1783.37861	9974.575
1786.57727	9992.075
1789.77382	9997.275
1792.96828	9989.575
1796.16064	9990.875
1799.3509	9992.775
1802.53907	9978.575
1805.72514	9946.675
1808.90913	9893.375
1812.09102	9876.375
1815.27083	9839.575
1818.44856	9881.075
1821.6242	9840.275
1824.79776	9846.975
1827.96924	9849.775
1831.13864	9821.975
1834.30597	9836.975
1837.47122	9835.475
1840.6344	9828.375
1843.7955	9784.775
1846.95454	9775.175
1850.11151	9784.275
1853.26642	9785.075
1856.41926	9800.375
1859.57004	9804.375
1862.71876	9786.275
1865.86542	9765.075
1869.01003	9770.375
1872.15258	9769.975
1875.29308	9767.475
1878.43152	9785.875
1881.56792	9750.175
1884.70227	9770.775
1887.83457	9761.875
1890.96482	9728.575
1894.09304	9721.275
1897.21921	9719.475
1900.34335	9714.775
1903.46544	9697.675
1906.58551	9718.275
1909.70353	9709.975
1912.81953	9729.475
1915.93349	9682.375
1919.04543	9674.575
1922.15534	9661.975
1925.26322	9645.075
1928.36908	9641.875
1931.47292	9618.375
1934.57473	9576.475
1937.67453	9581.875
1940.77232	9574.775
1943.86808	9524.575
1946.96184	9511.875
1950.05358	9465.475
1953.14331	9451.975
1956.23103	9439.975
1959.31675	9429.275
1962.40046	9401.275
1965.48217	9391.775
1968.56188	9382.575
1971.63959	9339.375
1974.7153	9309.375
1977.78901	9297.775
1980.86073	9260.775
1983.93046	9256.775
1986.99819	9198.575
1990.06394	9179.475
1993.1277	9169.375
1996.18947	9131.775
1999.24925	9127.975
2002.30706	9120.975
2005.36288	9072.675
2008.41672	9063.275
2011.46859	9006.575
2014.51848	9006.575
2017.56639	8963.375
2020.61233	8976.775
2023.6563	8946.875
2026.6983	8939.575
2029.73833	8935.075
2032.7764	8909.175
2035.8125	8904.475
2038.84664	8904.675
2041.87881	8904.875
2044.90903	8869.075
2047.93729	8863.575
2050.96359	8853.275
2053.98794	8854.875
2057.01034	8843.575
2060.03078	8856.075
2063.04927	8820.575
2066.06582	8821.275
2069.08042	8818.475
2072.09307	8818.275
2075.10378	8822.775
2078.11255	8837.775
2081.11938	8829.575
2084.12426	8828.375
2087.12722	8831.875
2090.12824	8842.875
2093.12732	8858.975
2096.12447	8845.875
2099.11969	8859.375
2102.11299	8855.175
2105.10435	8865.575
2108.09379	8881.675
2111.08131	8869.575
2114.0669	8886.475
2117.05057	8882.375
2120.03233	8885.275
2123.01216	8899.575
2125.99008	8918.275
2128.96609	8925.475
2131.94018	8943.275
2134.91236	8948.875
2137.88263	8921.275
2140.851	8946.975
2143.81746	8977.575
2146.78201	8969.375
2149.74466	8970.075
2152.7054	8974.575
2155.66425	8951.875
2158.6212	8956.575
2161.57625	8945.175
2164.52941	8988.975
2167.48067	8963.175
2170.43004	8936.575
2173.37752	8956.975
2176.32311	8929.875
2179.26681	8954.175
2182.20863	8949.475
2185.14856	8969.575
2188.08661	8986.475
2191.02278	8980.075
2193.95707	8978.175
2196.88948	8972.075
2199.82001	8987.775
2202.74867	8977.175
2205.67545	8974.775
2208.60037	8976.475
2211.52341	8952.675
2214.44458	8955.875
2217.36388	8948.775
2220.28132	8947.175
2223.1969	8913.875
2226.11061	8920.675
2229.02246	8886.675
2231.93245	8877.175
2234.84058	8864.275
2237.74686	8828.675
2240.65128	8849.975
2243.55385	8843.275
2246.45456	8834.575
2249.35343	8839.375
2252.25044	8848.775
2255.14561	8833.175
2258.03893	8838.675
2260.93041	8805.875
2263.82004	8794.975
2266.70783	8777.575
2269.59378	8762.075
2272.4779	8756.975
2275.36017	8731.875
2278.24061	8707.875
2281.11922	8702.375
2283.996	8681.975
2286.87094	8678.475
2289.74405	8698.275
2292.61534	8675.075
2295.4848	8683.475
2298.35243	8662.475
2301.21824	8654.775
2304.08223	8675.475
2306.94439	8680.275
2309.80474	8696.675
2312.66327	8683.275
2315.51999	8674.975
2318.37489	8688.075
2321.22797	8670.175
2324.07925	8674.775
2326.92871	8651.875
2329.77637	8657.475
2332.62222	8666.475
2335.46626	8635.175
2338.3085	8620.775
2341.14893	8662.775
2343.98756	8676.375
2346.8244	8692.275
2349.65943	8666.375
2352.49267	8661.675
2355.32411	8688.275
2358.15376	8632.875
2360.98161	8621.375
2363.80768	8644.475
2366.63195	8655.475
2369.45444	8644.575
2372.27514	8653.075
2375.09405	8618.875
2377.91118	8601.775
2380.72652	8579.975
2383.54009	8565.275
2386.35187	8564.775
2389.16188	8535.875
2391.97011	8525.775
2394.77657	8511.375
2397.58125	8492.375
2400.38416	8533.275
2403.18529	8485.375
2405.98466	8486.675
2408.78226	8465.775
2411.57809	8462.475
2414.37216	8434.375
2417.16446	8424.375
2419.955	8429.975
2422.74378	8411.475
2425.5308	8443.575
2428.31606	8424.775
2431.09956	8437.875
2433.88131	8417.675
2436.6613	8444.875
2439.43954	8404.375
2442.21603	8390.675
2444.99077	8426.875
2447.76377	8407.575
2450.53501	8427.175
2453.30451	8425.975
2456.07226	8428.975
2458.83827	8401.975
2461.60254	8417.775
2464.36507	8404.975
2467.12586	8424.675
2469.88492	8382.675
2472.64224	8393.075
2475.39782	8419.675
2478.15167	8402.275
2480.90379	8423.975
2483.65417	8449.575
2486.40283	8442.975
2489.14976	8438.575
2491.89497	8475.675
2494.63845	8462.575
2497.3802	8450.475
2500.12024	8450.475
2502.85855	8446.175
2505.59514	8464.975
2508.33002	8428.775
2511.06318	8421.675
2513.79462	8414.275
2516.52435	8380.575
2519.25237	8372.975
2521.97867	8346.475
2524.70327	8363.175
2527.42616	8368.875
2530.14734	8366.275
2532.86681	8363.975
2535.58458	8371.975
2538.30065	8368.875
2541.01501	8346.175
2543.72768	8338.775
2546.43864	8357.075
2549.14791	8332.875
2551.85548	8344.875
2554.56136	8341.075
2557.26554	8333.775
2559.96803	8328.475
2562.66883	8320.275
2565.36794	8301.075
2568.06536	8296.375
2570.7611	8301.475
2573.45514	8279.375
2576.14751	8310.575
2578.83819	8281.075
2581.52719	8269.075
2584.21451	8284.275
2586.90015	8277.875
2589.58411	8265.475
2592.2664	8286.875
2594.94701	8247.575
2597.62594	8245.275
2600.30321	8224.875
2602.9788	8226.875
2605.65273	8216.975
2608.32498	8227.375
2610.99557	8213.875
2613.66449	8200.575
2616.33175	8209.675
2618.99734	8210.175
2621.66128	8201.075
2624.32355	8194.675
2626.98416	8193.175
2629.64311	8190.075
2632.30041	8179.475
2634.95605	8158.075
2637.61004	8140.675
2640.26238	8135.775
2642.91306	8131.775
2645.56209	8158.575
2648.20948	8115.975
2650.85521	8103.775
2653.4993	8128.575
2656.14175	8131.875
2658.78255	8139.275
2661.42171	8145.975
2664.05923	8174.375
2666.6951	8158.075
2669.32934	8203.075
2671.96194	8176.475
2674.59291	8172.375
2677.22224	8162.075
2679.84993	8167.675
2682.476	8169.675
2685.10043	8191.375
2687.72324	8168.975
2690.34441	8176.075
2692.96396	8183.075
2695.58188	8168.675
2698.19818	8139.475
2700.81285	8146.275
2703.4259	8122.275
2706.03733	8071.275
2708.64714	8117.175
2711.25533	8154.075
2713.86191	8182.675
2716.46687	8202.175
2719.07021	8224.375
2721.67194	8245.175
2724.27206	8205.075
2726.87057	8227.575
2729.46747	8235.875
2732.06276	8242.775
2734.65644	8243.075
2737.24852	8233.675
2739.83899	8238.375
2742.42786	8239.575
2745.01513	8189.975
2747.60079	8207.475
2750.18486	8207.075
2752.76733	8219.275
2755.3482	8199.775
2757.92747	8209.275
2760.50515	8203.775
2763.08123	8183.975
2765.65573	8167.975
2768.22863	8161.675
2770.79994	8162.375
2773.36967	8171.175
2775.9378	8183.375
2778.50435	8154.875
2781.06932	8156.175
2783.6327	8169.775
2786.1945	8157.475
2788.75471	8154.575
2791.31335	8152.975
2793.87041	8136.075
2796.42589	8140.675
2798.97979	8126.275
2801.53212	8107.475
2804.08288	8108.875
2806.63206	8089.275
2809.17967	8085.875
2811.72571	8104.275
2814.27018	8087.575
2816.81308	8077.575
2819.35442	8057.375
2821.89419	8049.775
2824.43239	8059.475
2826.96904	8040.575
2829.50412	8048.275
2832.03763	8024.975
2834.56959	8046.275
2837.1	8054.575
2839.62884	8049.575
2842.15613	8024.275
2844.68186	8054.975
2847.20604	8075.375
2849.72867	8093.575
2852.24974	8087.475
2854.76927	8093.275
2857.28724	8086.775
2859.80367	8104.875
2862.31855	8103.575
2864.83189	8103.375
2867.34368	8117.775
2869.85393	8130.775
2872.36264	8135.075
2874.8698	8155.675
2877.37543	8134.875
2879.87952	8180.875
2882.38207	8156.975
2884.88308	8145.675
2887.38256	8175.875
2889.88051	8178.775
2892.37692	8183.575
2894.8718	8180.175
2897.36515	8168.275
2899.85698	8196.375
2902.34727	8205.575
2904.83604	8189.775
2907.32328	8221.175
2909.809	8205.175
2912.29319	8212.075
2914.77587	8193.775
2917.25702	8229.475
2919.73665	8197.675
2922.21476	8205.775
2924.69136	8187.375
2927.16644	8211.375
2929.64	8183.575
2932.11205	8183.575
2934.58258	8176.275
2937.05161	8117.375
2939.51912	8149.475
2941.98513	8138.675
2944.44962	8098.175
2946.91261	8077.975
2949.37409	8091.575
2951.83407	8083.075
2954.29254	8079.675
2956.74951	8086.075
2959.20498	8060.775
2961.65895	8050.075
2964.11142	8064.275
2966.56239	8044.675
2969.01186	8080.875
2971.45984	8054.375
2973.90632	8016.675
2976.35131	7970.175
2978.7948	7964.775
2981.23681	7950.675
2983.67732	7917.375
2986.11635	7937.975
2988.55388	7905.675
2990.98993	7872.675
2993.4245	7867.775
2995.85758	7870.375
2998.28917	7826.875
3000.71928	7820.075
3003.14791	7808.975
3005.57506	7838.375
3008.00073	7799.675
3010.42493	7796.375
3012.84764	7787.075
3015.26888	7802.175
3017.68865	7799.775
3020.10694	7790.075
3022.52376	7752.875
3024.9391	7774.675
3027.35298	7748.575
3029.76539	7742.775
3032.17632	7775.275
3034.5858	7728.475
3036.9938	7718.275
3039.40034	7719.375
3041.80542	7697.175
3044.20903	7686.675
3046.61118	7706.575
3049.01187	7703.175
3051.4111	7688.075
3053.80888	7684.075
3056.20519	7694.975
3058.60005	7663.675
3060.99345	7680.475
3063.3854	7687.575
3065.7759	7651.975
3068.16494	7656.175
3070.55254	7635.675
3072.93868	7612.775
3075.32338	7566.675
3077.70662	7583.175
3080.08842	7579.575
3082.46878	7573.175
3084.84769	7565.475
3087.22515	7555.675
3089.60118	7547.175
3091.97576	7554.275
3094.3489	7592.375
3096.72061	7589.275
3099.09087	7585.575
3101.4597	7609.175
3103.82709	7610.875
3106.19305	7596.975
3108.55757	7613.875
3110.92066	7572.175
3113.28232	7567.975
3115.64255	7563.775
3118.00134	7554.975
3120.35871	7548.375
3122.71466	7543.375
3125.06917	7551.975
3127.42226	7546.675
3129.77393	7557.475
3132.12417	7524.175
3134.47299	7539.475
3136.82039	7538.775
3139.16636	7530.375
3141.51092	7540.875
3143.85406	7553.575
3146.19579	7583.075
3148.53609	7573.275
3150.87499	7549.575
3153.21246	7555.075
3155.54853	7597.775
3157.88318	7572.975
3160.21642	7611.675
3162.54826	7598.975
3164.87868	7620.375
3167.2077	7629.875
3169.5353	7635.675
3171.86151	7625.075
3174.18631	7638.975
3176.5097	7620.675
3178.83169	7608.475
3181.15228	7613.375
3183.47147	7611.675
3185.78926	7594.775
3188.10565	7603.675
