Data from AgNPs_FTO_APTES_UA_50uM_CRN_0uM_R6G_10uM_NaF_0.1M_Addition_RamanShift__21__10-34-44-647.txt Node

Date: Mon Feb 21 10:34:44 GMT 2022
User: TCL
Spectrometer: QEP01345
Trigger mode: 4
Integration Time (sec): 7.000000E0
Scans to average: 10
Electric dark correction enabled: true
Nonlinearity correction enabled: false
Boxcar width: 0
XAxis mode: Raman Shifts
Number of Pixels in Spectrum: 1044
>>>>>Begin Spectral Data<<<<<
46.04893	1.2125
50.45542	-0.9875
54.85868	0.2125
59.25871	-1.9875
63.6555	37.1125
68.04907	41.9125
72.43941	41.9125
76.82654	44.5125
81.21044	45.4125
85.59113	49.2125
89.96862	51.0125
94.34289	55.2125
98.71396	54.3125
103.08183	59.7125
107.4465	58.4125
111.80798	57.6125
116.16626	58.1125
120.52136	57.1125
124.87327	65.3125
129.222	59.4125
133.56755	61.9125
137.90993	67.6125
142.24913	69.9125
146.58517	76.2125
150.91804	87.1125
155.24774	96.8125
159.57429	119.7125
163.89768	140.4125
168.21792	184.8125
172.53501	248.0125
176.84895	340.6125
181.15975	466.9125
185.46741	659.0125
189.77193	902.1125
194.07331	1209.0125
198.37157	1552.5125
202.6667	1918.0125
206.9587	2281.6125
211.24758	2650.4125
215.53334	3012.8125
219.81599	3395.3125
224.09553	3813.9125
228.37195	4290.9125
232.64527	4803.0125
236.91549	5336.4125
241.18261	5857.1125
245.44663	6367.4125
249.70755	6782.6125
253.96539	7158.5125
258.22014	7499.9125
262.4718	7767.8125
266.72039	7957.0125
270.96589	8028.4125
275.20832	8011.0125
279.44768	7911.1125
283.68397	7756.0125
287.91719	7648.1125
292.14735	7545.9125
296.37445	7558.5125
300.59849	7605.9125
304.81948	7731.3125
309.03742	7828.7125
313.25231	7840.6125
317.46415	7767.5125
321.67296	7634.8125
325.87872	7527.9125
330.08145	7479.5125
334.28114	7487.3125
338.47781	7545.1125
342.67145	7635.6125
346.86207	7775.9125
351.04966	7917.5125
355.23424	8132.7125
359.4158	8284.9125
363.59435	8407.8125
367.76989	8499.2125
371.94243	8525.2125
376.11196	8603.5125
380.27849	8637.6125
384.44203	8661.0125
388.60257	8656.8125
392.76012	8659.0125
396.91468	8720.4125
401.06626	8810.1125
405.21485	8909.5125
409.36047	8878.7125
413.50311	8719.6125
417.64277	8581.5125
421.77947	8529.1125
425.9132	8497.3125
430.04396	8546.7125
434.17176	8625.3125
438.2966	8766.1125
442.41849	9054.0125
446.53742	9423.6125
450.6534	9798.4125
454.76644	9986.2125
458.87653	9994.6125
462.98368	9794.0125
467.08789	9559.0125
471.18916	9346.1125
475.2875	9107.1125
479.38291	8907.1125
483.4754	8813.7125
487.56496	8720.3125
491.6516	8691.4125
495.73531	8681.0125
499.81612	8729.7125
503.89401	8812.2125
507.96899	8794.1125
512.04106	8818.0125
516.11023	8819.4125
520.1765	8853.2125
524.23987	8932.9125
528.30034	8951.3125
532.35792	8954.5125
536.41261	8863.8125
540.46441	8727.5125
544.51333	8669.4125
548.55936	8690.3125
552.60252	8797.3125
556.64279	8975.8125
560.6802	9137.5125
564.71473	9122.4125
568.7464	9106.9125
572.7752	9162.3125
576.80114	9111.5125
580.82422	9154.6125
584.84444	9361.3125
588.86181	9805.7125
592.87633	10539.1125
596.888	10953.8125
600.89682	10685.0125
604.9028	10568.1125
608.90594	11437.7125
612.90624	12759.9125
616.90371	12395.6125
620.89834	10450.8125
624.89015	9455.0125
628.87913	9276.8125
632.86528	9238.5125
636.84862	9248.6125
640.82913	9108.2125
644.80683	8932.2125
648.78172	8775.0125
652.75379	8779.4125
656.72306	8924.0125
660.68952	9151.8125
664.65319	9109.2125
668.61405	8951.2125
672.57211	8901.0125
676.52738	8957.4125
680.47986	8927.6125
684.42955	8849.2125
688.37646	8802.1125
692.32058	8866.0125
696.26192	8985.4125
700.20048	9081.5125
704.13626	9114.8125
708.06928	9050.9125
711.99952	8970.7125
715.927	9023.1125
719.85171	9094.2125
723.77365	9116.0125
727.69284	9046.6125
731.60928	8978.8125
735.52295	8982.0125
739.43388	9013.6125
743.34206	9061.5125
747.24749	9083.5125
751.15017	9083.5125
755.05012	9158.4125
758.94733	9314.4125
762.8418	9664.1125
766.73354	10305.3125
770.62254	11028.1125
774.50882	11438.9125
778.39237	11254.8125
782.27321	10620.1125
786.15132	9953.2125
790.02671	9483.5125
793.89938	9246.9125
797.76935	9184.3125
801.6366	9124.8125
805.50115	9119.7125
809.36299	9110.4125
813.22213	9064.1125
817.07857	9075.5125
820.93231	9021.7125
824.78336	9026.5125
828.63172	9056.4125
832.47738	9060.8125
836.32036	9105.3125
840.16066	9122.8125
843.99827	9132.5125
847.8332	9115.5125
851.66546	9096.5125
855.49504	9106.1125
859.32195	9097.9125
863.1462	9083.8125
866.96777	9031.8125
870.78668	9026.8125
874.60293	9061.4125
878.41652	9095.5125
882.22745	9149.0125
886.03573	9217.5125
889.84136	9213.1125
893.64433	9163.5125
897.44466	9141.4125
901.24235	9097.0125
905.0374	9048.7125
908.8298	9028.8125
912.61957	9030.2125
916.40671	9034.6125
920.19121	9090.4125
923.97308	9191.8125
927.75233	9233.4125
931.52895	9318.6125
935.30295	9229.2125
939.07433	9115.4125
942.84309	9025.4125
946.60924	8964.9125
950.37278	8920.7125
954.13371	8902.2125
957.89203	8864.0125
961.64774	8814.0125
965.40086	8811.8125
969.15137	8813.4125
972.89929	8821.9125
976.64461	8821.0125
980.38733	8869.3125
984.12747	8901.7125
987.86502	8966.7125
991.59999	9085.5125
995.33237	9169.1125
999.06217	9372.2125
1002.78939	9590.0125
1006.51404	9702.3125
1010.23611	9760.3125
1013.95561	9847.2125
1017.67255	9873.4125
1021.38692	9786.5125
1025.09872	9671.1125
1028.80796	9675.7125
1032.51465	9828.1125
1036.21877	9973.8125
1039.92035	10035.1125
1043.61937	9969.9125
1047.31584	9847.2125
1051.00976	9694.8125
1054.70114	9596.5125
1058.38998	9541.7125
1062.07627	9532.6125
1065.76003	9534.5125
1069.44126	9533.3125
1073.11995	9611.5125
1076.79611	9744.2125
1080.46974	9857.8125
1084.14085	9983.5125
1087.80943	10074.1125
1091.47549	10102.3125
1095.13903	10046.0125
1098.80005	9882.8125
1102.45857	9740.6125
1106.11456	9680.9125
1109.76805	9721.7125
1113.41903	9780.9125
1117.06751	9891.0125
1120.71348	10022.0125
1124.35696	10154.8125
1127.99793	10306.2125
1131.63641	10335.1125
1135.2724	10217.8125
1138.90589	10047.0125
1142.5369	9918.1125
1146.16542	9861.4125
1149.79145	9852.7125
1153.415	9813.2125
1157.03607	9800.9125
1160.65467	9882.9125
1164.27079	10055.0125
1167.88443	10396.8125
1171.49561	10897.9125
1175.10432	11674.5125
1178.71056	12706.1125
1182.31434	13681.9125
1185.91565	14106.9125
1189.51451	13985.3125
1193.11091	13421.2125
1196.70485	12748.0125
1200.29634	12207.8125
1203.88538	11733.3125
1207.47197	11302.0125
1211.05612	10957.4125
1214.63782	10823.9125
1218.21708	10846.7125
1221.79391	10960.0125
1225.36829	11112.5125
1228.94024	11041.8125
1232.50976	10815.9125
1236.07685	10607.0125
1239.6415	10462.1125
1243.20374	10462.7125
1246.76355	10509.0125
1250.32093	10602.6125
1253.8759	10766.0125
1257.42845	10991.3125
1260.97859	11239.0125
1264.52631	11554.0125
1268.07163	11803.8125
1271.61453	12074.9125
1275.15503	12258.9125
1278.69312	12474.5125
1282.22882	12630.7125
1285.76211	12871.6125
1289.29301	13178.2125
1292.82151	13542.3125
1296.34761	14013.9125
1299.87133	14628.6125
1303.39266	15409.2125
1306.9116	16442.2125
1310.42815	17592.4125
1313.94233	18358.4125
1317.45412	18228.6125
1320.96354	17358.2125
1324.47058	16212.3125
1327.97525	15194.4125
1331.47754	14565.1125
1334.97747	14320.2125
1338.47502	14276.5125
1341.97022	14188.2125
1345.46305	14259.4125
1348.95352	14548.8125
1352.44163	15314.7125
1355.92738	16462.7125
1359.41078	17955.4125
1362.89183	19293.8125
1366.37053	19230.9125
1369.84688	17471.9125
1373.32088	15224.6125
1376.79254	13755.2125
1380.26186	13110.6125
1383.72883	12842.8125
1387.19347	12542.5125
1390.65578	12146.1125
1394.11575	11889.8125
1397.57339	11818.1125
1401.0287	11890.6125
1404.48168	11943.4125
1407.93234	12002.8125
1411.38068	12027.4125
1414.82669	12042.2125
1418.27039	11898.2125
1421.71177	11718.4125
1425.15083	11542.4125
1428.58758	11498.5125
1432.02203	11607.5125
1435.45416	11814.4125
1438.88399	11955.7125
1442.31151	11984.5125
1445.73673	11927.6125
1449.15965	11869.1125
1452.58027	11758.6125
1455.9986	11573.5125
1459.41463	11483.2125
1462.82837	11572.2125
1466.23982	11817.0125
1469.64898	12088.2125
1473.05586	12343.3125
1476.46045	12536.1125
1479.86276	12658.0125
1483.26279	12730.1125
1486.66054	12837.7125
1490.05602	13003.6125
1493.44922	13161.5125
1496.84016	13246.7125
1500.22882	13525.2125
1503.61521	13984.5125
1506.99934	14634.2125
1510.38121	15250.1125
1513.76081	15481.9125
1517.13816	15096.2125
1520.51324	14241.4125
1523.88607	13378.5125
1527.25665	12850.9125
1530.62498	12627.7125
1533.99105	12498.8125
1537.35488	12378.5125
1540.71647	12202.9125
1544.07581	12075.9125
1547.4329	11948.0125
1550.78776	11787.2125
1554.14038	11619.8125
1557.49077	11550.7125
1560.83892	11501.6125
1564.18484	11578.9125
1567.52853	11699.8125
1570.86999	11884.8125
1574.20922	12051.9125
1577.54624	12108.0125
1580.88103	11950.6125
1584.2136	11705.9125
1587.54395	11754.8125
1590.87208	12122.6125
1594.19801	12891.7125
1597.52172	13857.8125
1600.84321	14428.0125
1604.16251	14245.7125
1607.47959	13422.6125
1610.79447	12271.8125
1614.10715	11336.9125
1617.41763	10657.3125
1620.7259	10290.4125
1624.03199	10120.7125
1627.33587	10121.1125
1630.63757	10313.7125
1633.93707	10682.1125
1637.23439	11296.3125
1640.52951	12309.4125
1643.82246	13653.2125
1647.11321	14879.8125
1650.40179	15219.7125
1653.68819	14305.2125
1656.97241	12653.7125
1660.25446	11108.7125
1663.53433	10128.2125
1666.81203	9561.8125
1670.08756	9275.3125
1673.36092	9123.7125
1676.63211	9001.3125
1679.90115	8929.2125
1683.16801	8853.2125
1686.43272	8784.3125
1689.69527	8711.4125
1692.95567	8635.1125
1696.2139	8514.5125
1699.46999	8402.6125
1702.72392	8373.4125
1705.97571	8432.6125
1709.22535	8520.5125
1712.47284	8578.2125
1715.71819	8633.8125
1718.96139	8647.7125
1722.20246	8630.0125
1725.44139	8597.1125
1728.67818	8578.2125
1731.91284	8533.7125
1735.14537	8521.8125
1738.37576	8498.3125
1741.60403	8466.8125
1744.83017	8432.6125
1748.05418	8417.0125
1751.27607	8367.7125
1754.49584	8305.8125
1757.71349	8242.1125
1760.92903	8208.5125
1764.14244	8189.5125
1767.35375	8206.6125
1770.56294	8190.9125
1773.77002	8214.3125
1776.97499	8257.2125
1780.17785	8313.3125
1783.37861	8348.2125
1786.57727	8334.1125
1789.77382	8356.8125
1792.96828	8377.4125
1796.16064	8357.1125
1799.3509	8345.6125
1802.53907	8325.5125
1805.72514	8338.3125
1808.90913	8301.8125
1812.09102	8310.5125
1815.27083	8291.9125
1818.44856	8276.7125
1821.6242	8298.7125
1824.79776	8265.6125
1827.96924	8254.6125
1831.13864	8230.0125
1834.30597	8260.4125
1837.47122	8225.3125
1840.6344	8254.0125
1843.7955	8229.0125
1846.95454	8218.7125
1850.11151	8194.3125
1853.26642	8196.1125
1856.41926	8200.8125
1859.57004	8205.3125
1862.71876	8211.6125
1865.86542	8189.7125
1869.01003	8199.0125
1872.15258	8204.9125
1875.29308	8198.9125
1878.43152	8172.8125
1881.56792	8179.0125
1884.70227	8171.8125
1887.83457	8179.4125
1890.96482	8176.3125
1894.09304	8146.5125
1897.21921	8143.5125
1900.34335	8137.3125
1903.46544	8125.4125
1906.58551	8132.2125
1909.70353	8121.7125
1912.81953	8116.4125
1915.93349	8133.3125
1919.04543	8098.4125
1922.15534	8117.4125
1925.26322	8102.9125
1928.36908	8077.8125
1931.47292	8073.1125
1934.57473	8057.1125
1937.67453	8040.7125
1940.77232	8049.2125
1943.86808	8024.2125
1946.96184	8019.5125
1950.05358	7999.0125
1953.14331	7960.8125
1956.23103	7948.6125
1959.31675	7907.5125
1962.40046	7887.0125
1965.48217	7886.5125
1968.56188	7880.8125
1971.63959	7876.7125
1974.7153	7858.9125
1977.78901	7825.9125
1980.86073	7799.4125
1983.93046	7766.3125
1986.99819	7741.1125
1990.06394	7715.4125
1993.1277	7706.1125
1996.18947	7701.5125
1999.24925	7670.6125
2002.30706	7676.8125
2005.36288	7647.2125
2008.41672	7617.9125
2011.46859	7614.7125
2014.51848	7599.4125
2017.56639	7569.0125
2020.61233	7540.3125
2023.6563	7529.4125
2026.6983	7523.6125
2029.73833	7502.5125
2032.7764	7501.1125
2035.8125	7456.5125
2038.84664	7487.9125
2041.87881	7462.3125
2044.90903	7439.4125
2047.93729	7428.8125
2050.96359	7424.0125
2053.98794	7424.6125
2057.01034	7432.7125
2060.03078	7402.9125
2063.04927	7434.5125
2066.06582	7414.7125
2069.08042	7404.8125
2072.09307	7397.8125
2075.10378	7415.9125
2078.11255	7410.0125
2081.11938	7425.5125
2084.12426	7412.1125
2087.12722	7412.1125
2090.12824	7416.8125
2093.12732	7409.6125
2096.12447	7423.2125
2099.11969	7426.1125
2102.11299	7401.2125
2105.10435	7420.7125
2108.09379	7424.8125
2111.08131	7441.0125
2114.0669	7441.4125
2117.05057	7456.6125
2120.03233	7452.8125
2123.01216	7445.7125
2125.99008	7469.7125
2128.96609	7500.6125
2131.94018	7492.1125
2134.91236	7488.0125
2137.88263	7499.7125
2140.851	7510.4125
2143.81746	7528.2125
2146.78201	7535.3125
2149.74466	7518.2125
2152.7054	7516.0125
2155.66425	7536.2125
2158.6212	7510.7125
2161.57625	7515.3125
2164.52941	7535.6125
2167.48067	7536.6125
2170.43004	7506.5125
2173.37752	7512.1125
2176.32311	7507.5125
2179.26681	7527.2125
2182.20863	7512.2125
2185.14856	7544.1125
2188.08661	7524.4125
2191.02278	7531.5125
2193.95707	7542.4125
2196.88948	7509.2125
2199.82001	7527.6125
2202.74867	7531.3125
2205.67545	7519.4125
2208.60037	7504.6125
2211.52341	7510.4125
2214.44458	7490.4125
2217.36388	7491.1125
2220.28132	7480.4125
2223.1969	7477.1125
2226.11061	7446.0125
2229.02246	7422.7125
2231.93245	7430.9125
2234.84058	7407.2125
2237.74686	7403.7125
2240.65128	7408.8125
2243.55385	7391.4125
2246.45456	7378.0125
2249.35343	7376.0125
2252.25044	7356.6125
2255.14561	7347.1125
2258.03893	7344.8125
2260.93041	7318.1125
2263.82004	7316.2125
2266.70783	7322.1125
2269.59378	7306.3125
2272.4779	7297.2125
2275.36017	7281.3125
2278.24061	7262.9125
2281.11922	7261.6125
2283.996	7279.2125
2286.87094	7245.5125
2289.74405	7238.5125
2292.61534	7243.2125
2295.4848	7242.3125
2298.35243	7227.8125
2301.21824	7220.7125
2304.08223	7228.5125
2306.94439	7215.5125
2309.80474	7210.3125
2312.66327	7229.8125
2315.51999	7232.3125
2318.37489	7213.7125
2321.22797	7205.5125
2324.07925	7212.6125
2326.92871	7186.6125
2329.77637	7193.2125
2332.62222	7175.0125
2335.46626	7174.9125
2338.3085	7157.7125
2341.14893	7154.0125
2343.98756	7171.7125
2346.8244	7158.1125
2349.65943	7149.8125
2352.49267	7157.1125
2355.32411	7152.5125
2358.15376	7139.1125
2360.98161	7152.3125
2363.80768	7141.2125
2366.63195	7133.7125
2369.45444	7108.8125
2372.27514	7103.7125
2375.09405	7107.7125
2377.91118	7090.7125
2380.72652	7073.8125
2383.54009	7066.4125
2386.35187	7072.0125
2389.16188	7065.1125
2391.97011	7067.5125
2394.77657	7037.9125
2397.58125	7034.9125
2400.38416	7036.2125
2403.18529	7013.0125
2405.98466	7015.5125
2408.78226	6990.3125
2411.57809	6981.2125
2414.37216	6960.7125
2417.16446	6975.8125
2419.955	6965.6125
2422.74378	6948.4125
2425.5308	6934.7125
2428.31606	6940.8125
2431.09956	6939.9125
2433.88131	6947.9125
2436.6613	6974.8125
2439.43954	6949.8125
2442.21603	6927.5125
2444.99077	6926.8125
2447.76377	6946.3125
2450.53501	6926.6125
2453.30451	6938.8125
2456.07226	6920.5125
2458.83827	6912.8125
2461.60254	6901.8125
2464.36507	6891.1125
2467.12586	6878.3125
2469.88492	6877.7125
2472.64224	6879.8125
2475.39782	6891.2125
2478.15167	6880.1125
2480.90379	6910.5125
2483.65417	6912.1125
2486.40283	6887.3125
2489.14976	6917.9125
2491.89497	6907.8125
2494.63845	6906.8125
2497.3802	6884.9125
2500.12024	6923.4125
2502.85855	6897.0125
2505.59514	6873.8125
2508.33002	6881.7125
2511.06318	6859.5125
2513.79462	6861.4125
2516.52435	6843.3125
2519.25237	6849.0125
2521.97867	6817.8125
2524.70327	6819.2125
2527.42616	6803.3125
2530.14734	6831.0125
2532.86681	6821.6125
2535.58458	6836.4125
2538.30065	6799.9125
2541.01501	6795.9125
2543.72768	6801.7125
2546.43864	6764.0125
2549.14791	6772.5125
2551.85548	6773.2125
2554.56136	6751.0125
2557.26554	6743.2125
2559.96803	6735.0125
2562.66883	6719.5125
2565.36794	6742.8125
2568.06536	6731.5125
2570.7611	6722.6125
2573.45514	6715.2125
2576.14751	6712.3125
2578.83819	6708.1125
2581.52719	6701.7125
2584.21451	6692.7125
2586.90015	6677.4125
2589.58411	6651.9125
2592.2664	6644.2125
2594.94701	6667.6125
2597.62594	6654.7125
2600.30321	6633.6125
2602.9788	6635.3125
2605.65273	6615.7125
2608.32498	6629.8125
2610.99557	6642.2125
2613.66449	6611.1125
2616.33175	6623.5125
2618.99734	6614.9125
2621.66128	6597.2125
2624.32355	6599.6125
2626.98416	6589.5125
2629.64311	6594.1125
2632.30041	6565.1125
2634.95605	6574.3125
2637.61004	6549.9125
2640.26238	6543.1125
2642.91306	6553.7125
2645.56209	6523.8125
2648.20948	6515.9125
2650.85521	6512.6125
2653.4993	6522.9125
2656.14175	6530.5125
2658.78255	6531.4125
2661.42171	6549.3125
2664.05923	6541.9125
2666.6951	6559.2125
2669.32934	6564.5125
2671.96194	6557.5125
2674.59291	6549.2125
2677.22224	6568.9125
2679.84993	6569.0125
2682.476	6545.1125
2685.10043	6561.5125
2687.72324	6555.7125
2690.34441	6541.0125
2692.96396	6562.2125
2695.58188	6554.1125
2698.19818	6552.5125
2700.81285	6551.1125
2703.4259	6506.1125
2706.03733	6424.0125
2708.64714	6493.1125
2711.25533	6527.6125
2713.86191	6548.9125
2716.46687	6569.5125
2719.07021	6581.3125
2721.67194	6604.5125
2724.27206	6597.1125
2726.87057	6599.7125
2729.46747	6586.6125
2732.06276	6590.6125
2734.65644	6596.4125
2737.24852	6610.9125
2739.83899	6598.0125
2742.42786	6578.9125
2745.01513	6561.2125
2747.60079	6585.0125
2750.18486	6573.9125
2752.76733	6555.1125
2755.3482	6542.5125
2757.92747	6526.2125
2760.50515	6544.3125
2763.08123	6539.9125
2765.65573	6531.5125
2768.22863	6535.1125
2770.79994	6509.7125
2773.36967	6533.2125
2775.9378	6514.7125
2778.50435	6532.1125
2781.06932	6529.5125
2783.6327	6496.3125
2786.1945	6502.5125
2788.75471	6515.2125
2791.31335	6481.5125
2793.87041	6474.2125
2796.42589	6450.9125
2798.97979	6463.2125
2801.53212	6449.5125
2804.08288	6432.5125
2806.63206	6434.1125
2809.17967	6423.1125
2811.72571	6399.3125
2814.27018	6382.4125
2816.81308	6391.8125
2819.35442	6386.8125
2821.89419	6383.4125
2824.43239	6387.2125
2826.96904	6365.1125
2829.50412	6362.8125
2832.03763	6376.4125
2834.56959	6357.7125
2837.1	6348.3125
2839.62884	6398.7125
2842.15613	6377.9125
2844.68186	6420.1125
2847.20604	6448.9125
2849.72867	6426.6125
2852.24974	6451.5125
2854.76927	6436.7125
2857.28724	6408.8125
2859.80367	6416.6125
2862.31855	6405.5125
2864.83189	6421.8125
2867.34368	6391.2125
2869.85393	6426.1125
2872.36264	6431.4125
2874.8698	6399.2125
2877.37543	6441.3125
2879.87952	6420.4125
2882.38207	6432.0125
2884.88308	6438.3125
2887.38256	6436.3125
2889.88051	6436.3125
2892.37692	6435.0125
2894.8718	6441.2125
2897.36515	6467.1125
2899.85698	6445.2125
2902.34727	6467.2125
2904.83604	6451.7125
2907.32328	6469.1125
2909.809	6457.1125
2912.29319	6474.5125
2914.77587	6491.3125
2917.25702	6477.1125
2919.73665	6454.2125
2922.21476	6492.9125
2924.69136	6466.3125
2927.16644	6458.9125
2929.64	6460.8125
2932.11205	6457.0125
2934.58258	6406.9125
2937.05161	6427.8125
2939.51912	6422.2125
2941.98513	6399.3125
2944.44962	6380.8125
2946.91261	6350.4125
2949.37409	6354.2125
2951.83407	6348.9125
2954.29254	6339.5125
2956.74951	6338.4125
2959.20498	6317.2125
2961.65895	6330.8125
2964.11142	6317.5125
2966.56239	6304.5125
2969.01186	6294.8125
2971.45984	6278.6125
2973.90632	6260.5125
2976.35131	6280.4125
2978.7948	6228.9125
2981.23681	6244.9125
2983.67732	6226.7125
2986.11635	6206.2125
2988.55388	6192.9125
2990.98993	6195.4125
2993.4245	6186.6125
2995.85758	6162.8125
2998.28917	6160.5125
3000.71928	6136.1125
3003.14791	6128.9125
3005.57506	6124.1125
3008.00073	6101.4125
3010.42493	6087.1125
3012.84764	6099.7125
3015.26888	6097.2125
3017.68865	6096.2125
3020.10694	6082.1125
3022.52376	6105.7125
3024.9391	6084.0125
3027.35298	6070.3125
3029.76539	6072.3125
3032.17632	6077.9125
3034.5858	6052.3125
3036.9938	6053.5125
3039.40034	6052.4125
3041.80542	6050.3125
3044.20903	6024.8125
3046.61118	6042.2125
3049.01187	6024.2125
3051.4111	6035.4125
3053.80888	6027.3125
3056.20519	6016.0125
3058.60005	6017.9125
3060.99345	6016.9125
3063.3854	6002.6125
3065.7759	5973.2125
3068.16494	5988.6125
3070.55254	5986.2125
3072.93868	5960.4125
3075.32338	5940.7125
3077.70662	5939.8125
3080.08842	5917.7125
3082.46878	5910.3125
3084.84769	5924.9125
3087.22515	5946.3125
3089.60118	5947.3125
3091.97576	5959.6125
3094.3489	5925.0125
3096.72061	5947.2125
3099.09087	5955.2125
3101.4597	5949.4125
3103.82709	5940.3125
3106.19305	5923.6125
