Data from AgNPs_FTO_APTES_UA_50uM_CRN_1000uM_R6G_10uM_NaF_0.1M_Addition_RamanShift__0__17-22-43-566.txt Node

Date: Mon Feb 21 17:22:43 GMT 2022
User: TCL
Spectrometer: QEP01345
Trigger mode: 4
Integration Time (sec): 7.000000E0
Scans to average: 10
Electric dark correction enabled: true
Nonlinearity correction enabled: false
Boxcar width: 0
XAxis mode: Raman Shifts
Number of Pixels in Spectrum: 1044
>>>>>Begin Spectral Data<<<<<
46.04893	-0.925
50.45542	0.075
54.85868	-0.225
59.25871	-0.925
63.6555	26.175
68.04907	26.175
72.43941	28.475
76.82654	29.675
81.21044	27.575
85.59113	30.075
89.96862	35.275
94.34289	32.875
98.71396	35.675
103.08183	36.275
107.4465	36.775
111.80798	37.375
116.16626	39.175
120.52136	41.375
124.87327	36.875
129.222	43.875
133.56755	44.675
137.90993	45.375
142.24913	48.775
146.58517	55.275
150.91804	59.275
155.24774	70.975
159.57429	83.675
163.89768	105.375
168.21792	145.375
172.53501	192.975
176.84895	276.575
181.15975	383.375
185.46741	540.075
189.77193	738.875
194.07331	993.175
198.37157	1289.575
202.6667	1591.375
206.9587	1905.875
211.24758	2210.275
215.53334	2531.275
219.81599	2872.175
224.09553	3226.975
228.37195	3628.775
232.64527	4066.975
236.91549	4534.475
241.18261	4964.175
245.44663	5380.275
249.70755	5685.675
253.96539	5955.375
258.22014	6209.975
262.4718	6421.275
266.72039	6540.975
270.96589	6600.875
275.20832	6576.375
279.44768	6496.975
283.68397	6381.575
287.91719	6280.475
292.14735	6226.775
296.37445	6249.775
300.59849	6316.175
304.81948	6448.275
309.03742	6565.375
313.25231	6593.575
317.46415	6473.275
321.67296	6302.675
325.87872	6083.775
330.08145	6000.775
334.28114	6000.575
338.47781	6055.175
342.67145	6153.175
346.86207	6292.775
351.04966	6492.675
355.23424	6671.475
359.4158	6878.675
363.59435	6956.975
367.76989	7005.575
371.94243	7038.875
376.11196	7033.875
380.27849	7028.775
384.44203	7047.775
388.60257	7085.175
392.76012	7081.775
396.91468	7149.375
401.06626	7272.675
405.21485	7357.475
409.36047	7333.875
413.50311	7228.275
417.64277	7133.875
421.77947	7197.675
425.9132	7330.775
430.04396	7483.475
434.17176	7522.275
438.2966	7489.775
442.41849	7466.975
446.53742	7551.975
450.6534	7671.575
454.76644	7715.675
458.87653	7682.875
462.98368	7578.275
467.08789	7427.675
471.18916	7328.675
475.2875	7229.875
479.38291	7145.975
483.4754	7118.775
487.56496	7103.875
491.6516	7136.575
495.73531	7077.375
499.81612	7046.075
503.89401	7039.775
507.96899	7043.875
512.04106	7041.775
516.11023	7087.775
520.1765	7107.275
524.23987	7124.375
528.30034	7101.775
532.35792	7064.675
536.41261	6984.775
540.46441	6892.875
544.51333	6855.975
548.55936	6854.375
552.60252	6922.475
556.64279	7066.775
560.6802	7170.975
564.71473	7207.975
568.7464	7310.475
572.7752	7384.275
576.80114	7318.475
580.82422	7234.975
584.84444	7274.375
588.86181	7455.275
592.87633	7748.675
596.888	7951.575
600.89682	7963.075
604.9028	8193.075
608.90594	9167.875
612.90624	10555.775
616.90371	10198.375
620.89834	8223.075
624.89015	7264.875
628.87913	7089.675
632.86528	7128.875
636.84862	7220.075
640.82913	7165.275
644.80683	6971.375
648.78172	6833.175
652.75379	6853.675
656.72306	6939.275
660.68952	7091.075
664.65319	7060.875
668.61405	6888.875
672.57211	6822.475
676.52738	6851.675
680.47986	6885.275
684.42955	6845.175
688.37646	6856.075
692.32058	6926.275
696.26192	7083.375
700.20048	7289.775
704.13626	7461.175
708.06928	7505.875
711.99952	7417.675
715.927	7266.475
719.85171	7173.575
723.77365	7104.975
727.69284	7043.675
731.60928	6966.175
735.52295	6946.075
739.43388	6913.175
743.34206	6944.475
747.24749	6945.575
751.15017	6920.175
755.05012	6971.775
758.94733	7120.275
762.8418	7498.375
766.73354	8134.275
770.62254	8829.275
774.50882	9151.275
778.39237	8920.075
782.27321	8254.775
786.15132	7556.375
790.02671	7130.875
793.89938	6940.875
797.76935	6868.275
801.6366	6829.475
805.50115	6817.375
809.36299	6790.575
813.22213	6779.975
817.07857	6782.075
820.93231	6768.675
824.78336	6762.575
828.63172	6761.575
832.47738	6746.675
836.32036	6750.375
840.16066	6744.475
843.99827	6727.875
847.8332	6696.875
851.66546	6708.375
855.49504	6730.775
859.32195	6727.675
863.1462	6708.075
866.96777	6715.775
870.78668	6710.375
874.60293	6713.875
878.41652	6717.475
882.22745	6757.975
886.03573	6775.775
889.84136	6777.875
893.64433	6730.975
897.44466	6709.975
901.24235	6685.375
905.0374	6668.575
908.8298	6628.075
912.61957	6585.675
916.40671	6652.575
920.19121	6656.875
923.97308	6712.975
927.75233	6752.075
931.52895	6793.875
935.30295	6742.475
939.07433	6630.475
942.84309	6521.075
946.60924	6491.075
950.37278	6439.175
954.13371	6402.275
957.89203	6392.775
961.64774	6399.075
965.40086	6373.875
969.15137	6341.775
972.89929	6337.975
976.64461	6329.475
980.38733	6329.275
984.12747	6363.775
987.86502	6375.775
991.59999	6447.275
995.33237	6483.675
999.06217	6566.675
1002.78939	6651.575
1006.51404	6730.375
1010.23611	6815.775
1013.95561	6850.175
1017.67255	6839.075
1021.38692	6834.575
1025.09872	6747.675
1028.80796	6702.175
1032.51465	6735.875
1036.21877	6776.175
1039.92035	6803.175
1043.61937	6796.375
1047.31584	6776.475
1051.00976	6742.475
1054.70114	6703.275
1058.38998	6687.475
1062.07627	6714.075
1065.76003	6713.175
1069.44126	6764.775
1073.11995	6817.875
1076.79611	6886.775
1080.46974	6971.375
1084.14085	7047.175
1087.80943	7143.675
1091.47549	7195.175
1095.13903	7162.575
1098.80005	7080.375
1102.45857	6972.575
1106.11456	6898.175
1109.76805	6912.175
1113.41903	7009.575
1117.06751	7093.875
1120.71348	7241.875
1124.35696	7423.775
1127.99793	7582.475
1131.63641	7639.275
1135.2724	7439.575
1138.90589	7284.275
1142.5369	7158.775
1146.16542	7085.175
1149.79145	7033.475
1153.415	7010.975
1157.03607	7038.975
1160.65467	7108.875
1164.27079	7253.975
1167.88443	7487.875
1171.49561	7840.375
1175.10432	8408.275
1178.71056	9130.575
1182.31434	9758.475
1185.91565	9975.875
1189.51451	9812.975
1193.11091	9395.675
1196.70485	8992.675
1200.29634	8655.175
1203.88538	8356.375
1207.47197	8079.475
1211.05612	7827.075
1214.63782	7677.475
1218.21708	7628.775
1221.79391	7647.475
1225.36829	7708.475
1228.94024	7695.575
1232.50976	7666.775
1236.07685	7638.775
1239.6415	7625.175
1243.20374	7704.475
1246.76355	7803.075
1250.32093	7941.375
1253.8759	8084.275
1257.42845	8291.575
1260.97859	8464.675
1264.52631	8614.975
1268.07163	8763.975
1271.61453	8860.875
1275.15503	8904.175
1278.69312	8882.975
1282.22882	8884.975
1285.76211	8947.875
1289.29301	9111.975
1292.82151	9378.875
1296.34761	9686.775
1299.87133	10075.375
1303.39266	10603.375
1306.9116	11398.175
1310.42815	12214.575
1313.94233	12672.675
1317.45412	12475.875
1320.96354	11847.575
1324.47058	11205.975
1327.97525	10645.775
1331.47754	9959.475
1334.97747	9674.475
1338.47502	9597.275
1341.97022	9666.375
1345.46305	9892.175
1348.95352	10285.075
1352.44163	10908.275
1355.92738	11745.975
1359.41078	12951.275
1362.89183	14072.075
1366.37053	13921.575
1369.84688	12302.875
1373.32088	10573.675
1376.79254	9571.675
1380.26186	9259.475
1383.72883	9237.975
1387.19347	9252.075
1390.65578	9026.975
1394.11575	8664.275
1397.57339	8384.875
1401.0287	8288.475
1404.48168	8221.675
1407.93234	8137.675
1411.38068	8079.075
1414.82669	8009.975
1418.27039	7918.875
1421.71177	7814.875
1425.15083	7687.075
1428.58758	7621.275
1432.02203	7664.475
1435.45416	7746.075
1438.88399	7806.475
1442.31151	7840.475
1445.73673	7949.675
1449.15965	8006.575
1452.58027	7835.075
1455.9986	7740.375
1459.41463	7703.075
1462.82837	7751.975
1466.23982	7863.075
1469.64898	7989.075
1473.05586	8112.675
1476.46045	8166.075
1479.86276	8253.075
1483.26279	8290.275
1486.66054	8384.275
1490.05602	8552.275
1493.44922	8759.575
1496.84016	9074.175
1500.22882	9631.175
1503.61521	10403.875
1506.99934	11253.275
1510.38121	12041.575
1513.76081	12304.175
1517.13816	11760.175
1520.51324	10745.175
1523.88607	9733.775
1527.25665	9114.675
1530.62498	8798.575
1533.99105	8607.975
1537.35488	8461.075
1540.71647	8340.275
1544.07581	8214.775
1547.4329	8118.575
1550.78776	8071.875
1554.14038	8027.975
1557.49077	8040.275
1560.83892	8064.775
1564.18484	8192.675
1567.52853	8379.675
1570.86999	8555.975
1574.20922	8690.975
1577.54624	8745.375
1580.88103	8518.475
1584.2136	8228.275
1587.54395	8096.275
1590.87208	8241.075
1594.19801	8592.775
1597.52172	9076.475
1600.84321	9325.175
1604.16251	9150.975
1607.47959	8705.275
1610.79447	8196.575
1614.10715	7725.575
1617.41763	7355.675
1620.7259	7160.475
1624.03199	7115.075
1627.33587	7191.375
1630.63757	7365.675
1633.93707	7710.775
1637.23439	8230.675
1640.52951	9009.575
1643.82246	10081.975
1647.11321	11233.075
1650.40179	11934.375
1653.68819	11873.675
1656.97241	10821.075
1660.25446	9662.875
1663.53433	8815.675
1666.81203	8201.875
1670.08756	7704.475
1673.36092	7276.775
1676.63211	6947.575
1679.90115	6715.475
1683.16801	6620.875
1686.43272	6566.675
1689.69527	6706.475
1692.95567	7104.275
1696.2139	7817.475
1699.46999	8473.975
1702.72392	8512.575
1705.97571	7866.575
1709.22535	7072.175
1712.47284	6513.875
1715.71819	6238.775
1718.96139	6029.375
1722.20246	5939.675
1725.44139	5870.275
1728.67818	5832.175
1731.91284	5800.475
1735.14537	5798.975
1738.37576	5798.375
1741.60403	5833.275
1744.83017	5899.075
1748.05418	6023.075
1751.27607	6230.175
1754.49584	6623.075
1757.71349	7049.175
1760.92903	7307.875
1764.14244	7232.675
1767.35375	7174.375
1770.56294	7176.875
1773.77002	6978.775
1776.97499	6523.075
1780.17785	6079.575
1783.37861	5806.175
1786.57727	5673.475
1789.77382	5517.675
1792.96828	5483.675
1796.16064	5418.875
1799.3509	5393.475
1802.53907	5358.175
1805.72514	5335.275
1808.90913	5305.575
1812.09102	5285.675
1815.27083	5265.575
1818.44856	5238.775
1821.6242	5224.575
1824.79776	5200.575
1827.96924	5214.075
1831.13864	5186.275
1834.30597	5180.075
1837.47122	5189.675
1840.6344	5163.775
1843.7955	5162.075
1846.95454	5160.975
1850.11151	5153.575
1853.26642	5147.175
1856.41926	5125.975
1859.57004	5130.275
1862.71876	5135.475
1865.86542	5118.275
1869.01003	5118.075
1872.15258	5097.475
1875.29308	5116.175
1878.43152	5102.875
1881.56792	5087.575
1884.70227	5091.475
1887.83457	5097.475
1890.96482	5080.875
1894.09304	5080.775
1897.21921	5079.875
1900.34335	5084.875
1903.46544	5070.575
1906.58551	5066.575
1909.70353	5049.275
1912.81953	5048.275
1915.93349	5022.475
1919.04543	5027.175
1922.15534	5010.075
1925.26322	4995.275
1928.36908	4993.775
1931.47292	4968.775
1934.57473	4953.075
1937.67453	4948.775
1940.77232	4946.875
1943.86808	4937.675
1946.96184	4922.075
1950.05358	4904.875
1953.14331	4880.675
1956.23103	4887.175
1959.31675	4867.175
1962.40046	4850.275
1965.48217	4831.475
1968.56188	4832.575
1971.63959	4796.375
1974.7153	4802.675
1977.78901	4778.175
1980.86073	4771.975
1983.93046	4764.275
1986.99819	4729.575
1990.06394	4713.775
1993.1277	4701.475
1996.18947	4720.375
1999.24925	4683.675
2002.30706	4680.875
2005.36288	4659.875
2008.41672	4651.075
2011.46859	4640.875
2014.51848	4626.675
2017.56639	4608.375
2020.61233	4584.475
2023.6563	4577.575
2026.6983	4573.875
2029.73833	4549.675
2032.7764	4552.375
2035.8125	4536.975
2038.84664	4519.175
2041.87881	4505.875
2044.90903	4514.675
2047.93729	4493.575
2050.96359	4499.575
2053.98794	4523.575
2057.01034	4519.675
2060.03078	4492.775
2063.04927	4477.175
2066.06582	4478.175
2069.08042	4464.075
2072.09307	4465.775
2075.10378	4458.275
2078.11255	4451.175
2081.11938	4464.375
2084.12426	4461.375
2087.12722	4450.675
2090.12824	4447.375
2093.12732	4444.775
2096.12447	4433.275
2099.11969	4448.775
2102.11299	4445.075
2105.10435	4435.175
2108.09379	4445.475
2111.08131	4456.275
2114.0669	4463.875
2117.05057	4454.775
2120.03233	4441.275
2123.01216	4459.875
2125.99008	4461.275
2128.96609	4468.775
2131.94018	4485.675
2134.91236	4490.775
2137.88263	4478.575
2140.851	4472.975
2143.81746	4467.175
2146.78201	4486.375
2149.74466	4482.775
2152.7054	4478.575
2155.66425	4475.275
2158.6212	4472.575
2161.57625	4458.675
2164.52941	4465.675
2167.48067	4453.975
2170.43004	4470.075
2173.37752	4457.475
2176.32311	4461.475
2179.26681	4435.975
2182.20863	4456.875
2185.14856	4462.475
2188.08661	4459.675
2191.02278	4442.975
2193.95707	4452.975
2196.88948	4452.575
2199.82001	4445.375
2202.74867	4438.575
2205.67545	4447.275
2208.60037	4423.675
2211.52341	4426.175
2214.44458	4414.275
2217.36388	4404.075
2220.28132	4401.675
2223.1969	4379.075
2226.11061	4371.875
2229.02246	4366.975
2231.93245	4388.475
2234.84058	4348.275
2237.74686	4353.775
2240.65128	4347.775
2243.55385	4329.475
2246.45456	4323.775
2249.35343	4323.075
2252.25044	4317.375
2255.14561	4327.875
2258.03893	4412.475
2260.93041	4572.975
2263.82004	4446.375
2266.70783	4374.575
2269.59378	4316.575
2272.4779	4288.375
2275.36017	4271.675
2278.24061	4267.475
2281.11922	4247.175
2283.996	4220.575
2286.87094	4235.375
2289.74405	4238.575
2292.61534	4214.375
2295.4848	4210.275
2298.35243	4210.275
2301.21824	4217.475
2304.08223	4196.775
2306.94439	4205.775
2309.80474	4199.475
2312.66327	4211.375
2315.51999	4189.375
2318.37489	4199.575
2321.22797	4192.975
2324.07925	4190.675
2326.92871	4197.275
2329.77637	4196.975
2332.62222	4206.775
2335.46626	4216.375
2338.3085	4204.975
2341.14893	4187.975
2343.98756	4186.575
2346.8244	4187.775
2349.65943	4161.575
2352.49267	4159.175
2355.32411	4143.675
2358.15376	4152.875
2360.98161	4143.775
2363.80768	4125.575
2366.63195	4134.275
2369.45444	4120.975
2372.27514	4121.175
2375.09405	4094.375
2377.91118	4084.675
2380.72652	4097.875
2383.54009	4080.475
2386.35187	4076.675
2389.16188	4058.575
2391.97011	4057.475
2394.77657	4045.975
2397.58125	4041.075
2400.38416	4028.675
2403.18529	4014.475
2405.98466	4028.975
2408.78226	4030.475
2411.57809	4011.175
2414.37216	4003.375
2417.16446	4030.975
2419.955	4019.975
2422.74378	3998.675
2425.5308	3972.175
2428.31606	3992.775
2431.09956	3974.575
2433.88131	3967.175
2436.6613	3962.175
2439.43954	3962.675
2442.21603	3950.875
2444.99077	3962.875
2447.76377	3955.575
2450.53501	3952.075
2453.30451	3952.775
2456.07226	3943.275
2458.83827	3932.175
2461.60254	3946.175
2464.36507	3935.775
2467.12586	3933.575
2469.88492	3932.875
2472.64224	3954.975
2475.39782	4073.575
2478.15167	4126.175
2480.90379	4007.375
2483.65417	3984.875
2486.40283	3961.975
2489.14976	3949.275
2491.89497	3963.675
2494.63845	4111.975
2497.3802	4153.275
2500.12024	4032.375
2502.85855	3974.375
2505.59514	3960.875
2508.33002	3925.375
2511.06318	3895.675
2513.79462	3899.875
2516.52435	3888.475
2519.25237	3875.275
2521.97867	3875.975
2524.70327	3861.875
2527.42616	3846.375
2530.14734	3862.875
2532.86681	3840.775
2535.58458	3837.675
2538.30065	3850.175
2541.01501	3830.975
2543.72768	3813.675
2546.43864	3808.875
2549.14791	3816.475
2551.85548	3820.775
2554.56136	3800.775
2557.26554	3805.975
2559.96803	3796.475
2562.66883	3789.575
2565.36794	3790.675
2568.06536	3783.175
2570.7611	3784.775
2573.45514	3781.075
2576.14751	3776.575
2578.83819	3761.275
2581.52719	3756.475
2584.21451	3759.475
2586.90015	3727.475
2589.58411	3735.675
2592.2664	3718.475
2594.94701	3718.775
2597.62594	3715.175
2600.30321	3697.575
2602.9788	3707.075
2605.65273	3683.775
2608.32498	3704.575
2610.99557	3694.275
2613.66449	3697.275
2616.33175	3701.175
2618.99734	3676.075
2621.66128	3690.475
2624.32355	3693.375
2626.98416	3673.775
2629.64311	3669.275
2632.30041	3659.375
2634.95605	3647.175
2637.61004	3641.275
2640.26238	3636.175
2642.91306	3637.675
2645.56209	3648.375
2648.20948	3692.775
2650.85521	3651.875
2653.4993	3636.875
2656.14175	3645.675
2658.78255	3632.475
2661.42171	3629.275
2664.05923	3639.775
2666.6951	3641.675
2669.32934	3632.175
2671.96194	3632.775
2674.59291	3618.675
2677.22224	3638.075
2679.84993	3626.875
2682.476	3621.075
2685.10043	3629.275
2687.72324	3624.675
2690.34441	3616.475
2692.96396	3614.275
2695.58188	3627.475
2698.19818	3608.675
2700.81285	3671.375
2703.4259	3977.075
2706.03733	4634.875
2708.64714	4214.375
2711.25533	3925.675
2713.86191	3820.475
2716.46687	3783.275
2719.07021	3718.075
2721.67194	3666.175
2724.27206	3637.375
2726.87057	3627.375
2729.46747	3626.775
2732.06276	3606.075
2734.65644	3619.775
2737.24852	3614.375
2739.83899	3629.175
2742.42786	3621.475
2745.01513	3609.175
2747.60079	3596.775
2750.18486	3593.875
2752.76733	3582.175
2755.3482	3575.975
2757.92747	3577.975
2760.50515	3560.575
2763.08123	3569.975
2765.65573	3555.275
2768.22863	3564.275
2770.79994	3571.375
2773.36967	3551.475
2775.9378	3548.275
2778.50435	3562.775
2781.06932	3539.375
2783.6327	3546.675
2786.1945	3543.975
2788.75471	3536.175
2791.31335	3526.875
2793.87041	3528.775
2796.42589	3512.975
2798.97979	3504.475
2801.53212	3495.075
2804.08288	3499.075
2806.63206	3497.775
2809.17967	3477.375
2811.72571	3475.675
2814.27018	3475.275
2816.81308	3475.475
2819.35442	3471.175
2821.89419	3465.075
2824.43239	3460.775
2826.96904	3477.575
2829.50412	3459.775
2832.03763	3478.875
2834.56959	3472.475
2837.1	3473.275
2839.62884	3464.175
2842.15613	3463.975
2844.68186	3477.575
2847.20604	3475.975
2849.72867	3501.875
2852.24974	3507.875
2854.76927	3647.875
2857.28724	3812.375
2859.80367	3656.175
2862.31855	3574.275
2864.83189	3559.175
2867.34368	3527.975
2869.85393	3515.875
2872.36264	3484.275
2874.8698	3483.375
2877.37543	3470.975
2879.87952	3459.075
2882.38207	3472.475
2884.88308	3470.375
2887.38256	3463.175
2889.88051	3480.175
2892.37692	3469.475
2894.8718	3461.975
2897.36515	3457.075
2899.85698	3461.875
2902.34727	3479.575
2904.83604	3474.675
2907.32328	3490.075
2909.809	3481.975
2912.29319	3485.075
2914.77587	3491.975
2917.25702	3496.075
2919.73665	3491.375
2922.21476	3492.175
2924.69136	3480.075
2927.16644	3478.575
2929.64	3476.075
2932.11205	3473.075
2934.58258	3457.975
2937.05161	3481.775
2939.51912	3455.075
2941.98513	3465.675
2944.44962	3432.375
2946.91261	3425.975
2949.37409	3433.175
2951.83407	3417.675
2954.29254	3416.375
2956.74951	3412.675
2959.20498	3396.875
2961.65895	3398.875
2964.11142	3400.175
2966.56239	3386.875
2969.01186	3397.175
2971.45984	3363.875
2973.90632	3368.975
2976.35131	3350.875
2978.7948	3349.975
2981.23681	3336.975
2983.67732	3338.075
2986.11635	3316.075
2988.55388	3313.175
2990.98993	3309.975
2993.4245	3306.075
2995.85758	3297.175
2998.28917	3292.575
3000.71928	3286.675
3003.14791	3275.175
3005.57506	3284.375
3008.00073	3270.575
3010.42493	3269.975
3012.84764	3265.475
3015.26888	3266.875
3017.68865	3250.275
3020.10694	3249.575
3022.52376	3241.875
3024.9391	3234.975
3027.35298	3231.675
3029.76539	3221.375
3032.17632	3217.575
3034.5858	3210.175
3036.9938	3207.475
3039.40034	3203.475
3041.80542	3198.175
3044.20903	3182.275
3046.61118	3189.375
3049.01187	3192.375
3051.4111	3188.575
3053.80888	3190.175
3056.20519	3188.475
3058.60005	3179.475
3060.99345	3162.675
3063.3854	3151.375
3065.7759	3151.075
3068.16494	3151.375
3070.55254	3146.875
3072.93868	3141.275
3075.32338	3123.375
3077.70662	3094.275
3080.08842	3107.775
3082.46878	3103.475
3084.84769	3100.875
3087.22515	3104.475
3089.60118	3101.375
3091.97576	3103.775
3094.3489	3105.275
3096.72061	3110.975
3099.09087	3100.975
3101.4597	3094.475
3103.82709	3105.175
3106.19305	3091.175
3108.55757	3109.775
3110.92066	3086.575
3113.28232	3080.075
3115.64255	3089.375
3118.00134	3080.475
3120.35871	3059.175
3122.71466	3061.775
3125.06917	3063.475
3127.42226	3061.975
3129.77393	3045.475
3132.12417	3057.575
3134.47299	3055.275
3136.82039	3060.775
3139.16636	3063.175
3141.51092	3069.375
3143.85406	3062.975
3146.19579	3057.975
3148.53609	3064.575
3150.87499	3066.675
3153.21246	3058.775
3155.54853	3071.875
3157.88318	3065.575
3160.21642	3072.475
3162.54826	3073.175
3164.87868	3070.375
3167.2077	3075.175
3169.5353	3074.575
3171.86151	3060.075
3174.18631	3069.675
3176.5097	3066.075
3178.83169	3059.575
3181.15228	3047.175
3183.47147	3047.975
3185.78926	3054.275
3188.10565	3044.775
3190.42065	3042.675
3192.73424	3050.675
3195.04645	3050.975
3197.35725	3052.875
3199.66667	3061.775
3201.97469	3053.975
3204.28132	3056.075
3206.58656	3057.575
3208.8904	3056.675
3211.19287	3057.475
3213.49394	3055.775
3215.79363	3061.375
3218.09193	3071.975
3220.38884	3200.875
3222.68438	3351.075
3224.97853	3208.675
3227.2713	3145.675
3229.56269	3124.775
3231.8527	3106.475
