Data from AgNPs_FTO_APTES_UA_50uM_CRN_1uM_R6G_10uM_NaF_0.1M_Addition_RamanShift__2__11-17-54-705.txt Node

Date: Mon Feb 21 11:17:54 GMT 2022
User: TCL
Spectrometer: QEP01345
Trigger mode: 4
Integration Time (sec): 7.000000E0
Scans to average: 10
Electric dark correction enabled: true
Nonlinearity correction enabled: false
Boxcar width: 0
XAxis mode: Raman Shifts
Number of Pixels in Spectrum: 1044
>>>>>Begin Spectral Data<<<<<
46.04893	-0.125
50.45542	0.075
54.85868	-0.825
59.25871	-1.125
63.6555	64.575
68.04907	67.975
72.43941	66.775
76.82654	70.675
81.21044	76.275
85.59113	81.275
89.96862	80.775
94.34289	86.175
98.71396	84.875
103.08183	93.075
107.4465	93.775
111.80798	92.575
116.16626	92.875
120.52136	96.675
124.87327	105.875
129.222	105.675
133.56755	108.075
137.90993	114.975
142.24913	125.875
146.58517	141.875
150.91804	161.875
155.24774	187.775
159.57429	234.975
163.89768	298.075
168.21792	392.475
172.53501	533.175
176.84895	756.175
181.15975	1048.775
185.46741	1477.775
189.77193	2030.675
194.07331	2712.275
198.37157	3506.375
202.6667	4327.475
206.9587	5148.875
211.24758	5938.575
215.53334	6761.075
219.81599	7608.975
224.09553	8561.275
228.37195	9624.975
232.64527	10781.075
236.91549	11991.775
241.18261	13216.975
245.44663	14339.875
249.70755	15328.275
253.96539	16215.475
258.22014	16949.375
262.4718	17528.375
266.72039	17934.075
270.96589	18129.475
275.20832	18105.075
279.44768	17942.275
283.68397	17681.975
287.91719	17490.075
292.14735	17375.875
296.37445	17353.575
300.59849	17369.675
304.81948	17495.275
309.03742	17609.075
313.25231	17542.675
317.46415	17361.075
321.67296	17078.875
325.87872	16780.175
330.08145	16695.375
334.28114	16695.375
338.47781	16779.675
342.67145	16990.975
346.86207	17268.375
351.04966	17632.375
355.23424	18031.875
359.4158	18327.475
363.59435	18633.775
367.76989	18825.175
371.94243	18943.275
376.11196	19017.675
380.27849	19090.875
384.44203	19185.775
388.60257	19357.375
392.76012	19544.475
396.91468	19717.275
401.06626	20012.475
405.21485	20194.975
409.36047	20159.675
413.50311	19941.575
417.64277	19842.275
421.77947	19854.575
425.9132	19931.375
430.04396	20009.375
434.17176	20049.575
438.2966	20241.275
442.41849	20636.375
446.53742	21254.875
450.6534	21876.075
454.76644	22381.175
458.87653	22467.175
462.98368	22248.875
467.08789	21900.275
471.18916	21512.275
475.2875	21049.075
479.38291	20760.475
483.4754	20608.075
487.56496	20444.175
491.6516	20242.575
495.73531	20080.175
499.81612	20049.875
503.89401	20184.575
507.96899	20229.075
512.04106	20178.875
516.11023	20035.175
520.1765	19901.375
524.23987	19852.775
528.30034	19814.675
532.35792	19705.275
536.41261	19480.775
540.46441	19206.775
544.51333	19107.575
548.55936	19277.875
552.60252	19596.575
556.64279	20097.875
560.6802	20462.575
564.71473	20658.475
568.7464	20914.775
572.7752	21401.375
576.80114	21830.975
580.82422	22377.975
584.84444	23207.875
588.86181	24395.975
592.87633	25525.675
596.888	25714.675
600.89682	24591.775
604.9028	24143.075
608.90594	25654.575
612.90624	27556.875
616.90371	26184.675
620.89834	22345.275
624.89015	20543.975
628.87913	20240.875
632.86528	20278.375
636.84862	20205.675
640.82913	19867.675
644.80683	19395.075
648.78172	19149.675
652.75379	19124.575
656.72306	19412.775
660.68952	19754.575
664.65319	19682.375
668.61405	19384.875
672.57211	19343.275
676.52738	19512.375
680.47986	19440.375
684.42955	19271.875
688.37646	19214.575
692.32058	19379.075
696.26192	19703.475
700.20048	20010.375
704.13626	20118.775
708.06928	20007.375
711.99952	19881.475
715.927	19911.475
719.85171	20133.975
723.77365	20078.275
727.69284	19776.875
731.60928	19497.175
735.52295	19395.275
739.43388	19431.475
743.34206	19494.975
747.24749	19610.275
751.15017	19764.875
755.05012	20033.875
758.94733	20468.075
762.8418	21324.075
766.73354	22615.275
770.62254	23843.575
774.50882	24209.475
778.39237	23424.975
782.27321	22084.275
786.15132	20962.975
790.02671	20175.075
793.89938	19804.975
797.76935	19636.875
801.6366	19630.175
805.50115	19582.675
809.36299	19487.575
813.22213	19362.375
817.07857	19266.175
820.93231	19144.575
824.78336	19093.375
828.63172	19056.375
832.47738	19038.675
836.32036	19070.575
840.16066	19178.175
843.99827	19222.875
847.8332	19178.975
851.66546	19136.875
855.49504	19148.875
859.32195	19167.275
863.1462	19113.675
866.96777	19021.575
870.78668	18990.175
874.60293	19094.675
878.41652	19122.375
882.22745	19202.775
886.03573	19298.075
889.84136	19272.175
893.64433	19171.575
897.44466	19118.675
901.24235	19015.575
905.0374	18925.875
908.8298	18867.075
912.61957	18903.775
916.40671	18997.175
920.19121	19186.375
923.97308	19416.075
927.75233	19585.475
931.52895	19507.675
935.30295	19279.375
939.07433	19026.475
942.84309	18780.475
946.60924	18710.475
950.37278	18688.075
954.13371	18669.875
957.89203	18607.375
961.64774	18555.675
965.40086	18506.475
969.15137	18536.575
972.89929	18500.375
976.64461	18533.475
980.38733	18524.675
984.12747	18602.275
987.86502	18784.375
991.59999	18985.275
995.33237	19288.475
999.06217	19733.975
1002.78939	20293.575
1006.51404	20757.275
1010.23611	21079.075
1013.95561	21307.575
1017.67255	21333.875
1021.38692	21111.675
1025.09872	20771.575
1028.80796	20717.475
1032.51465	21035.675
1036.21877	21436.975
1039.92035	21580.375
1043.61937	21455.975
1047.31584	21118.775
1051.00976	20696.075
1054.70114	20435.275
1058.38998	20333.375
1062.07627	20393.375
1065.76003	20507.575
1069.44126	20649.075
1073.11995	20982.075
1076.79611	21363.375
1080.46974	21590.275
1084.14085	21796.275
1087.80943	22049.475
1091.47549	22192.075
1095.13903	22158.475
1098.80005	21817.775
1102.45857	21344.575
1106.11456	21077.075
1109.76805	20970.775
1113.41903	20998.575
1117.06751	21057.875
1120.71348	21269.975
1124.35696	21442.875
1127.99793	21686.975
1131.63641	21778.275
1135.2724	21726.175
1138.90589	21599.075
1142.5369	21603.175
1146.16542	21665.375
1149.79145	21769.975
1153.415	21909.175
1157.03607	22095.675
1160.65467	22627.375
1164.27079	23545.975
1167.88443	24640.275
1171.49561	25900.475
1175.10432	27595.575
1178.71056	29798.875
1182.31434	31917.975
1185.91565	32858.275
1189.51451	32527.075
1193.11091	31472.675
1196.70485	30214.275
1200.29634	29142.175
1203.88538	28268.175
1207.47197	27742.575
1211.05612	27345.475
1214.63782	26854.475
1218.21708	26439.675
1221.79391	26104.275
1225.36829	25972.075
1228.94024	25699.075
1232.50976	25315.075
1236.07685	24801.375
1239.6415	24405.675
1243.20374	24397.075
1246.76355	24511.075
1250.32093	24876.475
1253.8759	25400.975
1257.42845	26095.375
1260.97859	26859.275
1264.52631	27747.575
1268.07163	28675.275
1271.61453	29514.175
1275.15503	30353.275
1278.69312	31144.175
1282.22882	31975.375
1285.76211	32913.775
1289.29301	34056.175
1292.82151	35281.775
1296.34761	36957.975
1299.87133	39027.475
1303.39266	41348.175
1306.9116	43746.575
1310.42815	45642.575
1313.94233	46710.975
1317.45412	46276.175
1320.96354	44930.175
1324.47058	43422.875
1327.97525	42209.775
1331.47754	41552.075
1334.97747	40950.875
1338.47502	40439.575
1341.97022	39665.975
1345.46305	38741.775
1348.95352	38359.475
1352.44163	38854.875
1355.92738	40538.675
1359.41078	43085.475
1362.89183	45326.375
1366.37053	45168.675
1369.84688	41750.775
1373.32088	37034.075
1376.79254	33704.375
1380.26186	32387.975
1383.72883	32234.175
1387.19347	32095.775
1390.65578	31593.375
1394.11575	31344.575
1397.57339	31498.775
1401.0287	32035.875
1404.48168	32434.475
1407.93234	32537.775
1411.38068	32285.675
1414.82669	31662.975
1418.27039	30713.175
1421.71177	29724.175
1425.15083	28868.775
1428.58758	28543.475
1432.02203	28824.975
1435.45416	29629.775
1438.88399	30410.775
1442.31151	30854.575
1445.73673	30996.975
1449.15965	31034.575
1452.58027	30893.475
1455.9986	30583.875
1459.41463	30610.175
1462.82837	30966.275
1466.23982	31645.075
1469.64898	32325.475
1473.05586	32791.975
1476.46045	32999.475
1479.86276	32995.175
1483.26279	32926.575
1486.66054	32932.275
1490.05602	33167.875
1493.44922	33457.575
1496.84016	33635.175
1500.22882	33905.475
1503.61521	34482.075
1506.99934	35242.775
1510.38121	35947.775
1513.76081	36040.975
1517.13816	35322.375
1520.51324	34075.675
1523.88607	33009.675
1527.25665	32542.175
1530.62498	32439.375
1533.99105	32265.775
1537.35488	31902.575
1540.71647	31337.375
1544.07581	30644.475
1547.4329	29932.675
1550.78776	29333.375
1554.14038	28862.775
1557.49077	28611.275
1560.83892	28483.775
1564.18484	28459.575
1567.52853	28624.375
1570.86999	28891.375
1574.20922	29284.975
1577.54624	29659.675
1580.88103	29769.075
1584.2136	30070.675
1587.54395	31089.575
1590.87208	33023.175
1594.19801	35437.875
1597.52172	37681.675
1600.84321	38308.875
1604.16251	36583.375
1607.47959	33541.475
1610.79447	30263.775
1614.10715	27403.375
1617.41763	25401.575
1620.7259	24163.975
1624.03199	23671.575
1627.33587	23790.275
1630.63757	24567.675
1633.93707	26022.475
1637.23439	28577.775
1640.52951	32315.075
1643.82246	36792.675
1647.11321	40315.775
1650.40179	40624.375
1653.68819	37260.675
1656.97241	31992.875
1660.25446	27234.575
1663.53433	23973.275
1666.81203	22009.475
1670.08756	20866.475
1673.36092	20231.975
1676.63211	19755.575
1679.90115	19428.575
1683.16801	19215.675
1686.43272	19011.475
1689.69527	18842.275
1692.95567	18673.975
1696.2139	18495.875
1699.46999	18366.975
1702.72392	18355.475
1705.97571	18371.275
1709.22535	18461.875
1712.47284	18481.075
1715.71819	18502.775
1718.96139	18502.575
1722.20246	18452.175
1725.44139	18396.475
1728.67818	18282.575
1731.91284	18181.275
1735.14537	18121.275
1738.37576	18051.775
1741.60403	17976.375
1744.83017	17906.375
1748.05418	17868.275
1751.27607	17804.375
1754.49584	17723.075
1757.71349	17668.575
1760.92903	17595.875
1764.14244	17579.175
1767.35375	17574.575
1770.56294	17552.775
1773.77002	17575.675
1776.97499	17629.975
1780.17785	17611.575
1783.37861	17660.275
1786.57727	17663.175
1789.77382	17636.975
1792.96828	17643.675
1796.16064	17629.175
1799.3509	17605.475
1802.53907	17544.775
1805.72514	17530.275
1808.90913	17478.475
1812.09102	17498.775
1815.27083	17452.875
1818.44856	17444.375
1821.6242	17428.775
1824.79776	17437.575
1827.96924	17413.975
1831.13864	17442.475
1834.30597	17464.675
1837.47122	17432.875
1840.6344	17440.775
1843.7955	17442.875
1846.95454	17423.275
1850.11151	17425.975
1853.26642	17378.975
1856.41926	17370.175
1859.57004	17348.275
1862.71876	17351.975
1865.86542	17333.175
1869.01003	17370.375
1872.15258	17323.675
1875.29308	17305.175
1878.43152	17290.275
1881.56792	17333.975
1884.70227	17293.475
1887.83457	17300.875
1890.96482	17284.575
1894.09304	17241.975
1897.21921	17280.175
1900.34335	17211.375
1903.46544	17169.275
1906.58551	17186.175
1909.70353	17176.975
1912.81953	17162.475
1915.93349	17106.475
1919.04543	17111.475
1922.15534	17072.375
1925.26322	17043.475
1928.36908	17030.975
1931.47292	16952.475
1934.57473	16903.375
1937.67453	16922.875
1940.77232	16844.675
1943.86808	16798.275
1946.96184	16795.975
1950.05358	16769.175
1953.14331	16703.875
1956.23103	16632.675
1959.31675	16598.175
1962.40046	16581.375
1965.48217	16531.375
1968.56188	16525.575
1971.63959	16480.275
1974.7153	16489.275
1977.78901	16391.275
1980.86073	16369.175
1983.93046	16260.575
1986.99819	16214.275
1990.06394	16190.475
1993.1277	16199.175
1996.18947	16158.475
1999.24925	16116.875
2002.30706	16065.375
2005.36288	16032.975
2008.41672	16001.175
2011.46859	15944.775
2014.51848	15870.475
2017.56639	15854.775
2020.61233	15827.875
2023.6563	15830.875
2026.6983	15767.075
2029.73833	15748.475
2032.7764	15711.775
2035.8125	15705.775
2038.84664	15684.375
2041.87881	15715.875
2044.90903	15680.375
2047.93729	15622.775
2050.96359	15594.475
2053.98794	15590.675
2057.01034	15602.675
2060.03078	15584.575
2063.04927	15553.275
2066.06582	15558.775
2069.08042	15554.075
2072.09307	15550.875
2075.10378	15577.375
2078.11255	15559.875
2081.11938	15580.375
2084.12426	15539.375
2087.12722	15545.775
2090.12824	15551.775
2093.12732	15562.575
2096.12447	15532.875
2099.11969	15539.775
2102.11299	15540.375
2105.10435	15580.075
2108.09379	15561.475
2111.08131	15568.275
2114.0669	15622.575
2117.05057	15631.975
2120.03233	15637.075
2123.01216	15620.075
2125.99008	15678.575
2128.96609	15692.175
2131.94018	15703.575
2134.91236	15692.975
2137.88263	15711.175
2140.851	15760.375
2143.81746	15779.275
2146.78201	15779.475
2149.74466	15777.475
2152.7054	15789.775
2155.66425	15770.875
2158.6212	15789.275
2161.57625	15758.375
2164.52941	15800.475
2167.48067	15783.575
2170.43004	15755.775
2173.37752	15765.075
2176.32311	15758.575
2179.26681	15778.675
2182.20863	15765.375
2185.14856	15811.475
2188.08661	15793.275
2191.02278	15800.975
2193.95707	15803.775
2196.88948	15781.275
2199.82001	15805.375
2202.74867	15776.875
2205.67545	15776.275
2208.60037	15789.475
2211.52341	15778.875
2214.44458	15736.375
2217.36388	15704.275
2220.28132	15721.975
2223.1969	15674.375
2226.11061	15677.275
2229.02246	15622.575
2231.93245	15630.575
2234.84058	15611.275
2237.74686	15593.075
2240.65128	15553.475
2243.55385	15526.375
2246.45456	15530.075
2249.35343	15502.575
2252.25044	15496.175
2255.14561	15488.775
2258.03893	15456.675
2260.93041	15411.775
2263.82004	15391.575
2266.70783	15403.975
2269.59378	15365.975
2272.4779	15328.175
2275.36017	15297.675
2278.24061	15291.175
2281.11922	15253.475
2283.996	15273.675
2286.87094	15207.175
2289.74405	15204.675
2292.61534	15206.975
2295.4848	15213.475
2298.35243	15189.375
2301.21824	15169.075
2304.08223	15227.575
2306.94439	15237.875
2309.80474	15217.275
2312.66327	15221.875
2315.51999	15218.075
2318.37489	15220.275
2321.22797	15241.375
2324.07925	15206.175
2326.92871	15172.675
2329.77637	15189.775
2332.62222	15150.875
2335.46626	15152.175
2338.3085	15138.775
2341.14893	15141.075
2343.98756	15135.075
2346.8244	15126.575
2349.65943	15131.875
2352.49267	15113.275
2355.32411	15132.775
2358.15376	15121.375
2360.98161	15109.775
2363.80768	15068.375
2366.63195	15079.975
2369.45444	15044.475
2372.27514	15048.075
2375.09405	15056.475
2377.91118	14977.675
2380.72652	14963.775
2383.54009	14926.575
2386.35187	14923.975
2389.16188	14928.975
2391.97011	14901.475
2394.77657	14895.675
2397.58125	14887.275
2400.38416	14862.375
2403.18529	14846.775
2405.98466	14865.075
2408.78226	14812.475
2411.57809	14780.175
2414.37216	14761.075
2417.16446	14765.675
2419.955	14743.975
2422.74378	14740.075
2425.5308	14724.475
2428.31606	14725.475
2431.09956	14707.975
2433.88131	14709.375
2436.6613	14708.275
2439.43954	14761.275
2442.21603	14751.475
2444.99077	14715.775
2447.76377	14716.575
2450.53501	14719.875
2453.30451	14713.875
2456.07226	14712.675
2458.83827	14735.475
2461.60254	14685.675
2464.36507	14695.975
2467.12586	14653.675
2469.88492	14682.375
2472.64224	14671.775
2475.39782	14687.675
2478.15167	14663.775
2480.90379	14688.775
2483.65417	14723.275
2486.40283	14760.375
2489.14976	14755.875
2491.89497	14737.275
2494.63845	14727.175
2497.3802	14681.875
2500.12024	14741.675
2502.85855	14731.675
2505.59514	14709.275
2508.33002	14712.675
2511.06318	14694.075
2513.79462	14677.475
2516.52435	14665.775
2519.25237	14655.775
2521.97867	14651.775
2524.70327	14627.075
2527.42616	14657.275
2530.14734	14652.975
2532.86681	14633.875
2535.58458	14638.075
2538.30065	14645.375
2541.01501	14653.675
2543.72768	14601.775
2546.43864	14616.075
2549.14791	14639.075
2551.85548	14621.475
2554.56136	14575.975
2557.26554	14568.575
2559.96803	14565.975
2562.66883	14492.875
2565.36794	14471.775
2568.06536	14531.275
2570.7611	14501.775
2573.45514	14486.175
2576.14751	14503.575
2578.83819	14509.475
2581.52719	14481.775
2584.21451	14452.275
2586.90015	14467.175
2589.58411	14429.875
2592.2664	14450.875
2594.94701	14484.375
2597.62594	14445.575
2600.30321	14439.175
2602.9788	14428.275
2605.65273	14402.375
2608.32498	14463.575
2610.99557	14415.275
2613.66449	14422.675
2616.33175	14403.375
2618.99734	14422.475
2621.66128	14368.475
2624.32355	14357.275
2626.98416	14381.975
2629.64311	14396.675
2632.30041	14347.875
2634.95605	14345.475
2637.61004	14332.575
2640.26238	14311.975
2642.91306	14279.575
2645.56209	14301.275
2648.20948	14299.775
2650.85521	14253.275
2653.4993	14283.275
2656.14175	14291.675
2658.78255	14325.075
2661.42171	14336.475
2664.05923	14363.175
2666.6951	14365.775
2669.32934	14392.775
2671.96194	14366.075
2674.59291	14372.275
2677.22224	14357.775
2679.84993	14349.275
2682.476	14358.975
2685.10043	14392.675
2687.72324	14347.275
2690.34441	14354.675
2692.96396	14343.775
2695.58188	14337.575
2698.19818	14365.575
2700.81285	14357.775
2703.4259	14278.875
2706.03733	14250.175
2708.64714	14282.275
2711.25533	14359.275
2713.86191	14379.675
2716.46687	14455.975
2719.07021	14471.475
2721.67194	14475.675
2724.27206	14474.975
2726.87057	14481.075
2729.46747	14498.575
2732.06276	14524.875
2734.65644	14516.275
2737.24852	14502.175
2739.83899	14524.975
2742.42786	14507.675
2745.01513	14501.975
2747.60079	14533.375
2750.18486	14474.775
2752.76733	14474.875
2755.3482	14445.275
2757.92747	14430.675
2760.50515	14397.775
2763.08123	14393.175
2765.65573	14383.875
2768.22863	14399.775
2770.79994	14384.075
2773.36967	14393.875
2775.9378	14384.375
2778.50435	14356.875
2781.06932	14387.375
2783.6327	14399.375
2786.1945	14376.775
2788.75471	14385.775
2791.31335	14368.675
2793.87041	14352.875
2796.42589	14293.475
2798.97979	14287.075
2801.53212	14260.875
2804.08288	14257.475
2806.63206	14254.575
2809.17967	14235.975
2811.72571	14160.775
2814.27018	14156.875
2816.81308	14141.475
2819.35442	14145.275
2821.89419	14108.775
2824.43239	14087.775
2826.96904	14077.275
2829.50412	14070.375
2832.03763	14055.875
2834.56959	14040.175
2837.1	14057.675
2839.62884	14038.475
2842.15613	14032.975
2844.68186	14061.475
2847.20604	14044.875
2849.72867	13995.075
2852.24974	14021.875
2854.76927	13969.075
2857.28724	13951.575
2859.80367	13966.075
2862.31855	13946.175
2864.83189	13947.375
2867.34368	13921.575
2869.85393	13934.675
2872.36264	13966.475
2874.8698	13939.775
2877.37543	13964.075
2879.87952	13960.475
2882.38207	13958.275
2884.88308	13967.575
2887.38256	13971.975
2889.88051	13989.875
2892.37692	14017.875
2894.8718	14001.475
2897.36515	14030.575
2899.85698	14002.675
2902.34727	14058.075
2904.83604	14044.975
2907.32328	14059.575
2909.809	14042.375
2912.29319	14094.375
2914.77587	14080.075
2917.25702	14090.575
2919.73665	14067.475
2922.21476	14049.475
2924.69136	14012.475
2927.16644	14033.275
2929.64	14017.075
2932.11205	14024.775
2934.58258	13974.775
2937.05161	14036.475
2939.51912	13999.675
2941.98513	13997.975
2944.44962	13968.975
2946.91261	13973.175
2949.37409	13981.175
2951.83407	13974.575
2954.29254	13964.575
2956.74951	13973.375
2959.20498	13966.475
2961.65895	13934.875
2964.11142	13928.575
2966.56239	13923.975
2969.01186	13908.875
2971.45984	13897.675
2973.90632	13919.275
2976.35131	13876.675
2978.7948	13847.575
2981.23681	13823.875
2983.67732	13818.075
2986.11635	13771.575
2988.55388	13736.675
2990.98993	13712.075
2993.4245	13702.175
2995.85758	13681.175
2998.28917	13669.675
3000.71928	13663.775
3003.14791	13625.375
3005.57506	13596.775
3008.00073	13576.475
3010.42493	13560.075
3012.84764	13535.375
3015.26888	13542.575
3017.68865	13502.475
3020.10694	13499.675
3022.52376	13473.975
3024.9391	13463.175
3027.35298	13438.675
3029.76539	13458.775
3032.17632	13474.375
3034.5858	13433.375
3036.9938	13419.775
3039.40034	13417.875
3041.80542	13400.775
3044.20903	13346.175
3046.61118	13372.175
3049.01187	13345.475
3051.4111	13352.475
3053.80888	13307.075
3056.20519	13299.375
3058.60005	13258.075
3060.99345	13272.775
3063.3854	13236.675
3065.7759	13205.575
3068.16494	13199.175
3070.55254	13147.975
3072.93868	13099.975
3075.32338	13056.775
3077.70662	13039.175
3080.08842	13005.875
3082.46878	13017.275
3084.84769	12987.975
3087.22515	13010.675
3089.60118	12991.475
3091.97576	13010.375
3094.3489	13027.975
3096.72061	13024.175
3099.09087	13053.375
3101.4597	13009.775
3103.82709	12994.475
3106.19305	12987.275
3108.55757	13016.775
3110.92066	12960.875
3113.28232	12969.875
3115.64255	12935.875
3118.00134	12953.075
3120.35871	12892.675
3122.71466	12851.675
3125.06917	12837.575
3127.42226	12820.575
3129.77393	12820.075
