Data from AgNPs_FTO_APTES_UA_50uM_CRN_2uM_R6G_10uM_NaF_0.1M_Addition_RamanShift__25__12-23-14-792.txt Node

Date: Mon Feb 21 12:23:14 GMT 2022
User: TCL
Spectrometer: QEP01345
Trigger mode: 4
Integration Time (sec): 7.000000E0
Scans to average: 10
Electric dark correction enabled: true
Nonlinearity correction enabled: false
Boxcar width: 0
XAxis mode: Raman Shifts
Number of Pixels in Spectrum: 1044
>>>>>Begin Spectral Data<<<<<
46.04893	0.275
50.45542	-2.125
54.85868	-0.425
59.25871	-1.625
63.6555	77.475
68.04907	84.275
72.43941	82.075
76.82654	89.975
81.21044	90.475
85.59113	95.075
89.96862	97.375
94.34289	105.075
98.71396	104.475
103.08183	110.175
107.4465	112.075
111.80798	107.775
116.16626	111.975
120.52136	115.175
124.87327	123.075
129.222	122.875
133.56755	128.575
137.90993	142.175
142.24913	151.675
146.58517	168.575
150.91804	197.975
155.24774	234.375
159.57429	287.675
163.89768	363.475
168.21792	486.975
172.53501	666.575
176.84895	933.975
181.15975	1295.575
185.46741	1834.375
189.77193	2525.975
194.07331	3371.575
198.37157	4364.075
202.6667	5388.175
206.9587	6413.075
211.24758	7416.275
215.53334	8452.175
219.81599	9603.675
224.09553	10871.175
228.37195	12307.875
232.64527	13847.375
236.91549	15412.775
241.18261	16998.575
245.44663	18334.875
249.70755	19511.375
253.96539	20531.475
258.22014	21435.075
262.4718	22130.975
266.72039	22623.275
270.96589	22892.875
275.20832	22882.675
279.44768	22667.575
283.68397	22394.475
287.91719	22250.675
292.14735	22195.375
296.37445	22348.075
300.59849	22724.775
304.81948	23221.075
309.03742	23585.175
313.25231	23426.875
317.46415	22673.275
321.67296	21552.075
325.87872	20643.875
330.08145	20246.175
334.28114	20273.375
338.47781	20567.375
342.67145	21017.475
346.86207	21636.675
351.04966	22467.375
355.23424	23456.575
359.4158	24304.475
363.59435	24707.275
367.76989	24920.375
371.94243	24981.875
376.11196	24933.475
380.27849	24924.075
384.44203	24901.075
388.60257	24817.175
392.76012	24795.175
396.91468	25106.875
401.06626	25626.275
405.21485	25993.575
409.36047	25834.875
413.50311	25062.275
417.64277	24366.275
421.77947	24001.875
425.9132	23918.775
430.04396	23946.375
434.17176	24110.775
438.2966	24402.875
442.41849	24918.975
446.53742	25542.275
450.6534	26314.475
454.76644	26851.275
458.87653	27076.275
462.98368	26948.575
467.08789	26568.675
471.18916	26017.975
475.2875	25502.175
479.38291	25101.275
483.4754	24803.375
487.56496	24507.475
491.6516	24276.475
495.73531	24071.075
499.81612	24022.075
503.89401	24138.675
507.96899	24267.375
512.04106	24369.675
516.11023	24474.675
520.1765	24550.775
524.23987	24483.975
528.30034	24257.475
532.35792	23993.475
536.41261	23678.775
540.46441	23333.975
544.51333	23260.075
548.55936	23462.775
552.60252	23876.275
556.64279	24421.275
560.6802	24722.875
564.71473	25011.975
568.7464	25634.875
572.7752	26159.775
576.80114	25985.675
580.82422	25745.775
584.84444	25714.475
588.86181	25909.475
592.87633	26190.275
596.888	26519.175
600.89682	27033.875
604.9028	28969.675
608.90594	34039.675
612.90624	40114.575
616.90371	38066.875
620.89834	29654.075
624.89015	25863.175
628.87913	25274.075
632.86528	25310.375
636.84862	25311.175
640.82913	24829.775
644.80683	23924.175
648.78172	23288.875
652.75379	23235.575
656.72306	23846.175
660.68952	24674.275
664.65319	24539.075
668.61405	23832.375
672.57211	23529.475
676.52738	23523.075
680.47986	23500.975
684.42955	23369.875
688.37646	23314.275
692.32058	23484.275
696.26192	23691.075
700.20048	23945.675
704.13626	24102.675
708.06928	23972.575
711.99952	23762.275
715.927	23745.575
719.85171	23825.075
723.77365	23808.375
727.69284	23587.775
731.60928	23374.575
735.52295	23279.675
739.43388	23353.675
743.34206	23457.975
747.24749	23650.375
751.15017	23839.075
755.05012	24262.275
758.94733	25179.175
762.8418	27110.475
766.73354	30187.475
770.62254	33142.775
774.50882	34285.775
778.39237	32762.975
782.27321	29484.775
786.15132	26505.675
790.02671	24698.275
793.89938	23952.875
797.76935	23596.075
801.6366	23475.975
805.50115	23424.675
809.36299	23312.775
813.22213	23283.075
817.07857	23205.875
820.93231	23201.275
824.78336	23172.375
828.63172	23210.075
832.47738	23279.475
836.32036	23321.475
840.16066	23340.975
843.99827	23386.375
847.8332	23368.575
851.66546	23264.975
855.49504	23181.375
859.32195	23163.075
863.1462	23079.175
866.96777	22989.975
870.78668	22904.575
874.60293	22940.075
878.41652	23009.175
882.22745	23130.075
886.03573	23221.375
889.84136	23182.475
893.64433	23071.075
897.44466	23028.775
901.24235	22957.975
905.0374	22861.575
908.8298	22768.075
912.61957	22772.875
916.40671	22878.275
920.19121	23147.975
923.97308	23382.075
927.75233	23627.475
931.52895	23738.875
935.30295	23541.475
939.07433	22992.175
942.84309	22578.775
946.60924	22462.675
950.37278	22340.175
954.13371	22174.775
957.89203	22060.375
961.64774	21981.275
965.40086	21909.675
969.15137	21859.875
972.89929	21775.975
976.64461	21768.075
980.38733	21819.675
984.12747	21840.375
987.86502	22063.975
991.59999	22332.375
995.33237	22808.175
999.06217	23618.375
1002.78939	24588.075
1006.51404	25251.075
1010.23611	25654.575
1013.95561	25925.775
1017.67255	26003.475
1021.38692	25772.075
1025.09872	25641.975
1028.80796	25882.975
1032.51465	26605.175
1036.21877	27174.875
1039.92035	27280.475
1043.61937	26906.575
1047.31584	26134.075
1051.00976	25302.075
1054.70114	24797.875
1058.38998	24671.475
1062.07627	24702.675
1065.76003	24797.075
1069.44126	24939.375
1073.11995	25115.975
1076.79611	25388.075
1080.46974	25712.575
1084.14085	26056.875
1087.80943	26470.575
1091.47549	26603.375
1095.13903	26308.575
1098.80005	25734.675
1102.45857	25206.675
1106.11456	24942.475
1109.76805	25033.475
1113.41903	25399.675
1117.06751	25932.275
1120.71348	26646.975
1124.35696	27346.475
1127.99793	27943.275
1131.63641	27822.375
1135.2724	27093.675
1138.90589	26449.475
1142.5369	25982.575
1146.16542	25662.175
1149.79145	25507.375
1153.415	25626.375
1157.03607	25852.475
1160.65467	26303.575
1164.27079	27149.375
1167.88443	28480.575
1171.49561	30235.675
1175.10432	33013.875
1178.71056	36631.375
1182.31434	39849.475
1185.91565	41324.575
1189.51451	41006.575
1193.11091	39210.075
1196.70485	36944.675
1200.29634	35024.375
1203.88538	33450.975
1207.47197	31985.875
1211.05612	30787.275
1214.63782	30058.375
1218.21708	29965.975
1221.79391	30059.275
1225.36829	30183.575
1228.94024	30116.575
1232.50976	29849.775
1236.07685	29614.675
1239.6415	29498.775
1243.20374	29512.275
1246.76355	29673.975
1250.32093	30109.775
1253.8759	30799.875
1257.42845	31776.775
1260.97859	32612.475
1264.52631	33439.875
1268.07163	34298.375
1271.61453	35113.775
1275.15503	36013.375
1278.69312	36956.675
1282.22882	37821.075
1285.76211	38713.075
1289.29301	39577.275
1292.82151	40616.275
1296.34761	41909.475
1299.87133	43884.075
1303.39266	46961.575
1306.9116	51175.175
1310.42815	55553.375
1313.94233	57739.975
1317.45412	56788.475
1320.96354	54117.375
1324.47058	51177.875
1327.97525	48732.075
1331.47754	47387.875
1334.97747	47160.775
1338.47502	47873.975
1341.97022	48845.875
1345.46305	49565.275
1348.95352	50136.975
1352.44163	51061.375
1355.92738	53466.375
1359.41078	58169.275
1362.89183	62379.275
1366.37053	60372.375
1369.84688	52940.775
1373.32088	45831.975
1376.79254	41450.475
1380.26186	39105.075
1383.72883	37960.375
1387.19347	37164.175
1390.65578	36348.075
1394.11575	36017.475
1397.57339	36214.975
1401.0287	36795.175
1404.48168	37590.675
1407.93234	38413.075
1411.38068	38958.575
1414.82669	38966.175
1418.27039	38183.075
1421.71177	36951.775
1425.15083	35796.375
1428.58758	35239.175
1432.02203	35269.375
1435.45416	35531.675
1438.88399	35763.575
1442.31151	35889.875
1445.73673	36224.275
1449.15965	36582.575
1452.58027	36677.775
1455.9986	36581.675
1459.41463	36601.175
1462.82837	37009.175
1466.23982	37719.275
1469.64898	38428.875
1473.05586	38971.075
1476.46045	39272.175
1479.86276	39609.875
1483.26279	40050.775
1486.66054	40683.675
1490.05602	41640.875
1493.44922	42777.575
1496.84016	44320.875
1500.22882	46484.475
1503.61521	49673.175
1506.99934	53511.975
1510.38121	56344.075
1513.76081	56553.575
1517.13816	53438.775
1520.51324	48671.575
1523.88607	44507.275
1527.25665	41850.675
1530.62498	40358.575
1533.99105	39504.075
1537.35488	38968.175
1540.71647	38688.875
1544.07581	38446.275
1547.4329	38143.975
1550.78776	37871.375
1554.14038	37713.475
1557.49077	37711.475
1560.83892	37969.075
1564.18484	38279.275
1567.52853	38672.375
1570.86999	38956.275
1574.20922	39086.675
1577.54624	38912.075
1580.88103	37963.275
1584.2136	36993.475
1587.54395	37157.475
1590.87208	38621.675
1594.19801	41335.375
1597.52172	44315.275
1600.84321	45561.575
1604.16251	44094.775
1607.47959	41069.675
1610.79447	37717.575
1614.10715	34556.175
1617.41763	32148.675
1620.7259	30631.675
1624.03199	29963.875
1627.33587	30060.575
1630.63757	30919.475
1633.93707	32642.775
1637.23439	35127.475
1640.52951	38364.075
1643.82246	42113.375
1647.11321	45499.975
1650.40179	46769.675
1653.68819	44131.675
1656.97241	38669.375
1660.25446	33220.675
1663.53433	29366.975
1666.81203	27025.875
1670.08756	25622.575
1673.36092	24772.175
1676.63211	24245.675
1679.90115	23790.475
1683.16801	23457.875
1686.43272	23235.975
1689.69527	23029.675
1692.95567	22850.075
1696.2139	22700.975
1699.46999	22544.875
1702.72392	22509.875
1705.97571	22545.975
1709.22535	22616.675
1712.47284	22640.675
1715.71819	22688.175
1718.96139	22610.475
1722.20246	22585.375
1725.44139	22494.975
1728.67818	22342.575
1731.91284	22264.975
1735.14537	22143.675
1738.37576	22057.075
1741.60403	21982.875
1744.83017	21916.675
1748.05418	21869.675
1751.27607	21765.875
1754.49584	21681.775
1757.71349	21615.975
1760.92903	21578.175
1764.14244	21541.775
1767.35375	21574.675
1770.56294	21535.375
1773.77002	21546.275
1776.97499	21566.075
1780.17785	21565.675
1783.37861	21570.975
1786.57727	21583.575
1789.77382	21611.075
1792.96828	21568.775
1796.16064	21540.275
1799.3509	21566.375
1802.53907	21496.475
1805.72514	21480.175
1808.90913	21413.575
1812.09102	21338.775
1815.27083	21327.675
1818.44856	21332.975
1821.6242	21296.575
1824.79776	21280.175
1827.96924	21276.875
1831.13864	21232.575
1834.30597	21246.275
1837.47122	21214.575
1840.6344	21220.175
1843.7955	21207.575
1846.95454	21170.575
1850.11151	21224.375
1853.26642	21202.875
1856.41926	21249.075
1859.57004	21266.175
1862.71876	21268.575
1865.86542	21281.875
1869.01003	21273.275
1872.15258	21286.275
1875.29308	21285.275
1878.43152	21263.775
1881.56792	21326.075
1884.70227	21310.775
1887.83457	21308.475
1890.96482	21316.975
1894.09304	21280.975
1897.21921	21302.475
1900.34335	21304.575
1903.46544	21286.975
1906.58551	21278.475
1909.70353	21273.275
1912.81953	21256.375
1915.93349	21248.275
1919.04543	21233.175
1922.15534	21206.775
1925.26322	21183.675
1928.36908	21116.875
1931.47292	21074.575
1934.57473	21008.975
1937.67453	20937.075
1940.77232	20902.275
1943.86808	20839.475
1946.96184	20752.775
1950.05358	20642.575
1953.14331	20603.875
1956.23103	20557.175
1959.31675	20470.875
1962.40046	20409.375
1965.48217	20397.275
1968.56188	20376.475
1971.63959	20294.675
1974.7153	20254.175
1977.78901	20203.875
1980.86073	20071.975
1983.93046	20016.375
1986.99819	19960.775
1990.06394	19915.475
1993.1277	19894.675
1996.18947	19847.175
1999.24925	19768.675
2002.30706	19694.475
2005.36288	19659.275
2008.41672	19612.575
2011.46859	19544.475
2014.51848	19519.575
2017.56639	19458.875
2020.61233	19412.575
2023.6563	19354.075
2026.6983	19323.775
2029.73833	19260.575
2032.7764	19269.675
2035.8125	19261.075
2038.84664	19254.375
2041.87881	19201.175
2044.90903	19166.875
2047.93729	19128.375
2050.96359	19110.675
2053.98794	19092.475
2057.01034	19092.375
2060.03078	19087.175
2063.04927	19040.875
2066.06582	19035.575
2069.08042	19054.375
2072.09307	18979.475
2075.10378	18999.175
2078.11255	18979.075
2081.11938	18994.975
2084.12426	18955.575
2087.12722	18956.875
2090.12824	18918.175
2093.12732	18963.675
2096.12447	18966.275
2099.11969	18956.275
2102.11299	18965.875
2105.10435	18952.775
2108.09379	18960.675
2111.08131	19026.175
2114.0669	18998.975
2117.05057	19016.075
2120.03233	19040.275
2123.01216	19011.875
2125.99008	19051.375
2128.96609	19085.275
2131.94018	19072.475
2134.91236	19098.675
2137.88263	19169.275
2140.851	19143.975
2143.81746	19185.575
2146.78201	19158.975
2149.74466	19134.875
2152.7054	19149.175
2155.66425	19163.275
2158.6212	19132.775
2161.57625	19136.775
2164.52941	19135.775
2167.48067	19156.175
2170.43004	19126.375
2173.37752	19115.375
2176.32311	19105.675
2179.26681	19141.875
2182.20863	19149.975
2185.14856	19178.775
2188.08661	19145.275
2191.02278	19192.175
2193.95707	19162.675
2196.88948	19183.175
2199.82001	19126.075
2202.74867	19173.975
2205.67545	19169.075
2208.60037	19127.575
2211.52341	19124.775
2214.44458	19132.675
2217.36388	19130.475
2220.28132	19069.375
2223.1969	19062.075
2226.11061	19040.675
2229.02246	18965.675
2231.93245	18973.375
2234.84058	18912.775
2237.74686	18898.875
2240.65128	18873.475
2243.55385	18844.975
2246.45456	18829.675
2249.35343	18854.275
2252.25044	18857.175
2255.14561	18822.575
2258.03893	18798.175
2260.93041	18751.475
2263.82004	18733.275
2266.70783	18703.275
2269.59378	18661.675
2272.4779	18605.675
2275.36017	18582.475
2278.24061	18522.975
2281.11922	18456.275
2283.996	18456.275
2286.87094	18456.175
2289.74405	18430.175
2292.61534	18423.075
2295.4848	18405.975
2298.35243	18386.875
2301.21824	18395.075
2304.08223	18412.275
2306.94439	18460.975
2309.80474	18451.675
2312.66327	18455.775
2315.51999	18456.175
2318.37489	18446.975
2321.22797	18470.675
2324.07925	18469.575
2326.92871	18429.675
2329.77637	18422.875
2332.62222	18407.175
2335.46626	18415.475
2338.3085	18430.375
2341.14893	18448.975
2343.98756	18473.075
2346.8244	18488.275
2349.65943	18499.175
2352.49267	18461.775
2355.32411	18471.275
2358.15376	18481.075
2360.98161	18419.875
2363.80768	18440.275
2366.63195	18438.075
2369.45444	18373.975
2372.27514	18342.075
2375.09405	18314.475
2377.91118	18277.275
2380.72652	18232.675
2383.54009	18200.975
2386.35187	18166.175
2389.16188	18118.175
2391.97011	18091.975
2394.77657	18053.575
2397.58125	18019.475
2400.38416	18014.375
2403.18529	17964.175
2405.98466	17942.575
2408.78226	17909.175
2411.57809	17827.475
2414.37216	17833.075
2417.16446	17822.575
2419.955	17815.775
2422.74378	17767.775
2425.5308	17766.975
2428.31606	17809.575
2431.09956	17773.075
2433.88131	17753.675
2436.6613	17767.975
2439.43954	17771.675
2442.21603	17723.575
2444.99077	17732.575
2447.76377	17771.275
2450.53501	17752.075
2453.30451	17762.575
2456.07226	17743.175
2458.83827	17736.475
2461.60254	17733.975
2464.36507	17683.175
2467.12586	17712.075
2469.88492	17713.775
2472.64224	17712.275
2475.39782	17715.675
2478.15167	17727.275
2480.90379	17792.175
2483.65417	17849.675
2486.40283	17839.975
2489.14976	17866.475
2491.89497	17898.075
2494.63845	17895.275
2497.3802	17841.175
2500.12024	17872.775
2502.85855	17858.675
2505.59514	17847.275
2508.33002	17787.775
2511.06318	17848.675
2513.79462	17769.175
2516.52435	17736.675
2519.25237	17696.175
2521.97867	17683.475
2524.70327	17671.775
2527.42616	17673.675
2530.14734	17683.375
2532.86681	17676.575
2535.58458	17648.575
2538.30065	17632.975
2541.01501	17661.775
2543.72768	17641.775
2546.43864	17603.275
2549.14791	17618.775
2551.85548	17620.575
2554.56136	17609.075
2557.26554	17594.475
2559.96803	17563.675
2562.66883	17520.175
2565.36794	17534.275
2568.06536	17501.275
2570.7611	17519.175
2573.45514	17469.975
2576.14751	17452.175
2578.83819	17479.175
2581.52719	17472.875
2584.21451	17468.675
2586.90015	17474.275
2589.58411	17468.975
2592.2664	17461.775
2594.94701	17472.575
2597.62594	17466.875
2600.30321	17453.175
2602.9788	17442.175
2605.65273	17424.175
2608.32498	17444.675
2610.99557	17436.775
2613.66449	17450.275
2616.33175	17453.075
2618.99734	17483.775
2621.66128	17481.275
2624.32355	17451.575
2626.98416	17450.975
2629.64311	17516.075
2632.30041	17489.175
2634.95605	17453.975
2637.61004	17430.375
2640.26238	17424.275
2642.91306	17369.675
2645.56209	17338.075
2648.20948	17355.775
2650.85521	17328.075
2653.4993	17308.375
2656.14175	17320.075
2658.78255	17367.275
2661.42171	17414.175
2664.05923	17399.075
2666.6951	17402.275
2669.32934	17451.275
2671.96194	17472.075
2674.59291	17432.275
2677.22224	17465.075
2679.84993	17464.575
2682.476	17446.475
2685.10043	17462.375
2687.72324	17453.175
2690.34441	17463.175
2692.96396	17449.875
2695.58188	17433.275
2698.19818	17368.875
2700.81285	17378.575
2703.4259	17329.475
2706.03733	17255.975
2708.64714	17305.775
2711.25533	17385.675
2713.86191	17408.175
2716.46687	17428.275
2719.07021	17450.175
2721.67194	17494.675
2724.27206	17476.975
2726.87057	17498.675
2729.46747	17521.875
2732.06276	17533.875
2734.65644	17504.575
2737.24852	17525.275
2739.83899	17471.775
2742.42786	17507.675
2745.01513	17491.575
2747.60079	17506.875
2750.18486	17448.275
2752.76733	17452.475
2755.3482	17462.375
2757.92747	17474.575
2760.50515	17455.775
2763.08123	17431.975
2765.65573	17380.175
2768.22863	17399.975
2770.79994	17378.575
2773.36967	17384.475
2775.9378	17413.775
2778.50435	17387.575
2781.06932	17369.375
2783.6327	17383.375
2786.1945	17368.475
2788.75471	17357.375
2791.31335	17362.375
2793.87041	17349.675
2796.42589	17242.975
2798.97979	17240.075
2801.53212	17211.475
2804.08288	17219.975
2806.63206	17211.075
2809.17967	17178.075
2811.72571	17150.475
2814.27018	17162.075
2816.81308	17173.975
2819.35442	17132.375
2821.89419	17142.675
2824.43239	17099.975
2826.96904	17107.375
2829.50412	17121.175
2832.03763	17092.575
2834.56959	17081.075
2837.1	17099.375
2839.62884	17058.475
2842.15613	17022.775
2844.68186	16998.175
2847.20604	17009.075
2849.72867	16995.175
2852.24974	16995.175
2854.76927	16969.275
2857.28724	16961.975
2859.80367	16993.175
2862.31855	16952.475
2864.83189	16950.375
2867.34368	16937.675
2869.85393	16997.875
2872.36264	16954.075
2874.8698	16960.275
2877.37543	16980.975
2879.87952	16951.575
2882.38207	16932.675
2884.88308	16917.875
2887.38256	16940.475
2889.88051	16972.575
2892.37692	16953.275
2894.8718	16922.975
2897.36515	16974.675
2899.85698	16969.775
2902.34727	17021.075
2904.83604	17001.875
2907.32328	17021.775
2909.809	17029.975
2912.29319	17076.575
2914.77587	17093.075
2917.25702	17036.575
2919.73665	17012.775
2922.21476	17015.075
2924.69136	16978.975
2927.16644	16991.375
2929.64	16916.375
2932.11205	16923.375
2934.58258	16868.275
2937.05161	16911.475
2939.51912	16889.375
2941.98513	16870.375
2944.44962	16861.775
2946.91261	16801.075
2949.37409	16890.775
2951.83407	16853.875
2954.29254	16828.775
2956.74951	16849.375
2959.20498	16839.075
2961.65895	16823.475
2964.11142	16835.475
2966.56239	16788.675
2969.01186	16792.375
2971.45984	16737.075
2973.90632	16710.875
2976.35131	16652.875
2978.7948	16625.275
2981.23681	16603.675
2983.67732	16572.775
2986.11635	16521.775
2988.55388	16477.775
2990.98993	16459.875
2993.4245	16458.075
2995.85758	16434.575
2998.28917	16400.675
3000.71928	16366.675
3003.14791	16334.775
3005.57506	16334.575
3008.00073	16258.875
3010.42493	16256.175
3012.84764	16204.275
3015.26888	16226.775
3017.68865	16155.775
3020.10694	16162.575
3022.52376	16115.675
3024.9391	16101.575
3027.35298	16041.575
3029.76539	16044.675
3032.17632	16064.375
3034.5858	16007.375
3036.9938	15992.875
3039.40034	15992.475
3041.80542	15996.675
3044.20903	15949.775
3046.61118	15944.075
3049.01187	15903.475
3051.4111	15936.875
3053.80888	15861.175
3056.20519	15804.275
3058.60005	15830.075
3060.99345	15771.975
3063.3854	15742.675
3065.7759	15696.475
3068.16494	15606.175
3070.55254	15574.875
3072.93868	15520.075
3075.32338	15464.475
3077.70662	15480.875
3080.08842	15427.675
3082.46878	15379.775
3084.84769	15380.175
3087.22515	15367.775
3089.60118	15351.175
3091.97576	15375.275
3094.3489	15345.575
3096.72061	15365.975
3099.09087	15367.675
3101.4597	15335.875
3103.82709	15344.975
3106.19305	15296.675
3108.55757	15274.075
3110.92066	15197.375
3113.28232	15215.275
3115.64255	15168.775
3118.00134	15161.775
3120.35871	15116.575
3122.71466	15116.475
3125.06917	15065.675
3127.42226	15071.575
