Data from AgNPs_FTO_APTES_UA_50uM_CRN_1000uM_R6G_10uM_NaF_0.1M_Addition_RamanShift__22__17-51-53-603.txt Node

Date: Mon Feb 21 17:51:53 GMT 2022
User: TCL
Spectrometer: QEP01345
Trigger mode: 4
Integration Time (sec): 7.000000E0
Scans to average: 10
Electric dark correction enabled: true
Nonlinearity correction enabled: false
Boxcar width: 0
XAxis mode: Raman Shifts
Number of Pixels in Spectrum: 1044
>>>>>Begin Spectral Data<<<<<
46.04893	-1.075
50.45542	-1.675
54.85868	0.525
59.25871	-1.875
63.6555	59.425
68.04907	63.425
72.43941	70.825
76.82654	72.925
81.21044	74.025
85.59113	72.125
89.96862	79.225
94.34289	79.425
98.71396	82.025
103.08183	87.225
107.4465	89.425
111.80798	95.325
116.16626	93.225
120.52136	96.125
124.87327	98.525
129.222	105.225
133.56755	110.425
137.90993	115.725
142.24913	131.225
146.58517	148.325
150.91804	168.325
155.24774	203.625
159.57429	249.625
163.89768	324.625
168.21792	438.325
172.53501	606.225
176.84895	844.325
181.15975	1198.725
185.46741	1679.025
189.77193	2316.525
194.07331	3117.125
198.37157	4036.125
202.6667	5014.625
206.9587	5980.725
211.24758	6948.125
215.53334	7966.125
219.81599	9066.025
224.09553	10329.125
228.37195	11763.925
232.64527	13269.325
236.91549	14775.025
241.18261	16200.725
245.44663	17413.525
249.70755	18432.325
253.96539	19344.725
258.22014	20106.425
262.4718	20713.125
266.72039	21086.325
270.96589	21143.025
275.20832	20933.725
279.44768	20485.825
283.68397	19985.625
287.91719	19633.725
292.14735	19609.025
296.37445	19993.225
300.59849	20726.725
304.81948	21644.325
309.03742	22298.425
313.25231	22233.425
317.46415	21230.825
321.67296	19723.525
325.87872	18485.925
330.08145	17898.625
334.28114	17936.125
338.47781	18228.725
342.67145	18711.125
346.86207	19456.525
351.04966	20608.325
355.23424	21862.225
359.4158	22856.225
363.59435	23347.625
367.76989	23487.725
371.94243	23501.025
376.11196	23399.325
380.27849	23272.625
384.44203	23000.225
388.60257	22722.425
392.76012	22462.325
396.91468	22553.625
401.06626	22957.625
405.21485	23258.625
409.36047	22879.525
413.50311	21693.825
417.64277	20572.025
421.77947	19876.525
425.9132	19639.925
430.04396	19597.925
434.17176	19724.825
438.2966	20008.525
442.41849	20497.325
446.53742	21180.025
450.6534	21801.725
454.76644	22174.725
458.87653	22199.625
462.98368	21890.925
467.08789	21476.625
471.18916	21029.725
475.2875	20546.525
479.38291	20162.025
483.4754	19810.125
487.56496	19544.525
491.6516	19290.325
495.73531	19174.125
499.81612	19166.725
503.89401	19375.925
507.96899	19646.525
512.04106	19972.525
516.11023	20329.025
520.1765	20543.125
524.23987	20535.725
528.30034	20263.825
532.35792	19956.225
536.41261	19649.625
540.46441	19250.425
544.51333	19037.425
548.55936	19090.325
552.60252	19484.225
556.64279	19986.925
560.6802	20273.325
564.71473	20578.025
568.7464	21366.325
572.7752	21782.425
576.80114	21056.225
580.82422	20177.225
584.84444	19878.425
588.86181	20057.125
592.87633	20556.925
596.888	20871.625
600.89682	21271.825
604.9028	23294.725
608.90594	29574.525
612.90624	37847.925
616.90371	36249.025
620.89834	25691.025
624.89015	20568.725
628.87913	19640.125
632.86528	19834.425
636.84862	20164.525
640.82913	19907.625
644.80683	18981.525
648.78172	18308.525
652.75379	18282.825
656.72306	18951.025
660.68952	19820.125
664.65319	19610.625
668.61405	18667.825
672.57211	18307.725
676.52738	18323.125
680.47986	18352.325
684.42955	18171.025
688.37646	17956.425
692.32058	17952.325
696.26192	18083.025
700.20048	18265.425
704.13626	18414.425
708.06928	18285.925
711.99952	18118.125
715.927	18034.025
719.85171	18116.525
723.77365	18226.525
727.69284	18167.025
731.60928	18012.425
735.52295	18020.125
739.43388	18032.525
743.34206	18066.925
747.24749	18099.725
751.15017	18111.725
755.05012	18344.025
758.94733	19204.125
762.8418	21214.425
766.73354	24789.825
770.62254	28472.125
774.50882	30485.225
778.39237	29207.825
782.27321	25235.725
786.15132	21379.825
790.02671	19191.225
793.89938	18210.925
797.76935	17865.025
801.6366	17660.925
805.50115	17578.325
809.36299	17517.525
813.22213	17444.025
817.07857	17423.625
820.93231	17349.425
824.78336	17317.225
828.63172	17383.225
832.47738	17387.125
836.32036	17273.625
840.16066	17188.725
843.99827	17126.725
847.8332	17116.425
851.66546	17052.325
855.49504	17087.825
859.32195	17103.325
863.1462	17075.425
866.96777	17083.725
870.78668	16990.425
874.60293	17004.125
878.41652	17032.625
882.22745	17126.325
886.03573	17211.125
889.84136	17167.925
893.64433	17049.125
897.44466	16986.225
901.24235	16933.525
905.0374	16833.125
908.8298	16669.225
912.61957	16546.225
916.40671	16576.525
920.19121	16630.025
923.97308	16823.725
927.75233	17047.525
931.52895	17279.225
935.30295	17158.425
939.07433	16680.125
942.84309	16250.525
946.60924	15987.825
950.37278	15841.825
954.13371	15738.925
957.89203	15691.625
961.64774	15646.625
965.40086	15550.225
969.15137	15449.325
972.89929	15423.625
976.64461	15390.725
980.38733	15364.425
984.12747	15383.225
987.86502	15434.525
991.59999	15558.025
995.33237	15755.725
999.06217	16092.625
1002.78939	16468.325
1006.51404	16844.325
1010.23611	17124.525
1013.95561	17322.625
1017.67255	17298.425
1021.38692	17075.425
1025.09872	16739.825
1028.80796	16658.525
1032.51465	16725.925
1036.21877	16907.725
1039.92035	16983.925
1043.61937	16953.225
1047.31584	16876.725
1051.00976	16695.625
1054.70114	16557.225
1058.38998	16487.525
1062.07627	16477.225
1065.76003	16481.925
1069.44126	16500.125
1073.11995	16587.125
1076.79611	16823.725
1080.46974	17147.025
1084.14085	17653.925
1087.80943	18167.225
1091.47549	18369.725
1095.13903	18120.625
1098.80005	17540.725
1102.45857	17097.825
1106.11456	16982.925
1109.76805	17206.125
1113.41903	17720.125
1117.06751	18505.425
1120.71348	19450.025
1124.35696	20415.925
1127.99793	21141.125
1131.63641	20846.725
1135.2724	19785.925
1138.90589	18731.225
1142.5369	18110.425
1146.16542	17686.325
1149.79145	17408.825
1153.415	17333.425
1157.03607	17464.225
1160.65467	17798.825
1164.27079	18442.825
1167.88443	19434.425
1171.49561	21041.625
1175.10432	23437.525
1178.71056	26870.325
1182.31434	29801.325
1185.91565	30618.325
1189.51451	29536.325
1193.11091	27374.625
1196.70485	25240.025
1200.29634	23687.825
1203.88538	22562.425
1207.47197	21266.725
1211.05612	20096.925
1214.63782	19426.725
1218.21708	19190.225
1221.79391	19139.225
1225.36829	19085.825
1228.94024	18845.625
1232.50976	18610.225
1236.07685	18460.025
1239.6415	18479.225
1243.20374	18601.925
1246.76355	18734.925
1250.32093	19000.825
1253.8759	19368.825
1257.42845	19985.325
1260.97859	20563.925
1264.52631	21208.525
1268.07163	21877.525
1271.61453	22477.025
1275.15503	22917.025
1278.69312	23181.925
1282.22882	23352.025
1285.76211	23855.425
1289.29301	24676.525
1292.82151	25635.625
1296.34761	26790.425
1299.87133	28535.725
1303.39266	31376.925
1306.9116	35586.825
1310.42815	39926.525
1313.94233	41804.725
1317.45412	39808.325
1320.96354	36129.225
1324.47058	32633.725
1327.97525	29821.725
1331.47754	28147.325
1334.97747	27607.425
1338.47502	27961.925
1341.97022	28999.325
1345.46305	30527.525
1348.95352	32568.925
1352.44163	35246.625
1355.92738	39416.925
1359.41078	45644.025
1362.89183	51201.725
1366.37053	48900.425
1369.84688	40149.325
1373.32088	32242.425
1376.79254	27539.725
1380.26186	25168.925
1383.72883	23983.525
1387.19347	23186.925
1390.65578	22326.225
1394.11575	21765.625
1397.57339	21584.525
1401.0287	21735.025
1404.48168	22036.825
1407.93234	22340.525
1411.38068	22545.325
1414.82669	22567.425
1418.27039	22278.525
1421.71177	21715.125
1425.15083	21114.225
1428.58758	20804.525
1432.02203	20965.625
1435.45416	21219.925
1438.88399	21385.525
1442.31151	21475.825
1445.73673	21701.725
1449.15965	21886.325
1452.58027	21935.225
1455.9986	21806.825
1459.41463	21786.025
1462.82837	22030.525
1466.23982	22611.525
1469.64898	23157.025
1473.05586	23552.325
1476.46045	23648.825
1479.86276	23796.625
1483.26279	24047.425
1486.66054	24499.725
1490.05602	25202.725
1493.44922	26262.225
1496.84016	27854.725
1500.22882	30826.825
1503.61521	35468.725
1506.99934	41102.225
1510.38121	45724.625
1513.76081	46564.225
1517.13816	42639.125
1520.51324	36127.325
1523.88607	30458.125
1527.25665	26886.425
1530.62498	24960.525
1533.99105	23955.125
1537.35488	23352.425
1540.71647	23012.425
1544.07581	22897.225
1547.4329	22949.625
1550.78776	23042.125
1554.14038	23125.425
1557.49077	23400.525
1560.83892	23807.225
1564.18484	24517.125
1567.52853	25340.925
1570.86999	25974.425
1574.20922	26335.725
1577.54624	26121.025
1580.88103	24690.125
1584.2136	22919.325
1587.54395	21980.825
1590.87208	22310.325
1594.19801	23598.225
1597.52172	25538.825
1600.84321	26612.925
1604.16251	25961.825
1607.47959	24297.925
1610.79447	22276.525
1614.10715	20310.925
1617.41763	18739.825
1620.7259	17792.725
1624.03199	17315.825
1627.33587	17325.425
1630.63757	17783.425
1633.93707	18753.125
1637.23439	20392.425
1640.52951	22979.625
1643.82246	26784.925
1647.11321	31052.325
1650.40179	33708.325
1653.68819	32142.125
1656.97241	27161.925
1660.25446	22132.225
1663.53433	18759.925
1666.81203	16816.325
1670.08756	15671.625
1673.36092	14943.425
1676.63211	14507.525
1679.90115	14178.225
1683.16801	13947.725
1686.43272	13740.825
1689.69527	13603.025
1692.95567	13483.225
1696.2139	13405.325
1699.46999	13310.525
1702.72392	13256.525
1705.97571	13257.425
1709.22535	13221.525
1712.47284	13198.425
1715.71819	13206.025
1718.96139	13156.625
1722.20246	13110.725
1725.44139	13023.625
1728.67818	12918.625
1731.91284	12816.825
1735.14537	12740.925
1738.37576	12684.125
1741.60403	12608.625
1744.83017	12564.025
1748.05418	12563.125
1751.27607	12511.425
1754.49584	12499.225
1757.71349	12434.725
1760.92903	12387.825
1764.14244	12371.525
1767.35375	12309.125
1770.56294	12268.625
1773.77002	12213.625
1776.97499	12178.325
1780.17785	12122.125
1783.37861	12088.025
1786.57727	12080.025
1789.77382	12027.825
1792.96828	12009.525
1796.16064	11997.625
1799.3509	11970.525
1802.53907	11910.225
1805.72514	11905.025
1808.90913	11834.825
1812.09102	11801.525
1815.27083	11777.325
1818.44856	11744.825
1821.6242	11716.325
1824.79776	11700.125
1827.96924	11661.525
1831.13864	11632.925
1834.30597	11620.425
1837.47122	11604.825
1840.6344	11590.525
1843.7955	11534.625
1846.95454	11546.525
1850.11151	11536.625
1853.26642	11508.925
1856.41926	11492.525
1859.57004	11504.425
1862.71876	11493.025
1865.86542	11504.125
1869.01003	11493.925
1872.15258	11507.125
1875.29308	11509.225
1878.43152	11485.325
1881.56792	11458.125
1884.70227	11479.325
1887.83457	11463.725
1890.96482	11458.325
1894.09304	11420.925
1897.21921	11412.725
1900.34335	11397.225
1903.46544	11406.125
1906.58551	11372.125
1909.70353	11387.725
1912.81953	11362.925
1915.93349	11323.725
1919.04543	11287.825
1922.15534	11254.825
1925.26322	11209.825
1928.36908	11210.025
1931.47292	11148.925
1934.57473	11110.325
1937.67453	11085.225
1940.77232	11050.025
1943.86808	11047.525
1946.96184	11007.825
1950.05358	10940.225
1953.14331	10907.525
1956.23103	10891.225
1959.31675	10880.925
1962.40046	10841.525
1965.48217	10800.525
1968.56188	10774.525
1971.63959	10753.225
1974.7153	10716.225
1977.78901	10658.525
1980.86073	10631.925
1983.93046	10604.325
1986.99819	10555.525
1990.06394	10539.425
1993.1277	10488.625
1996.18947	10459.225
1999.24925	10418.825
2002.30706	10366.225
2005.36288	10338.125
2008.41672	10316.525
2011.46859	10281.025
2014.51848	10242.425
2017.56639	10208.825
2020.61233	10164.125
2023.6563	10141.325
2026.6983	10113.525
2029.73833	10103.425
2032.7764	10080.925
2035.8125	10033.725
2038.84664	10019.225
2041.87881	10011.025
2044.90903	9990.025
2047.93729	9960.525
2050.96359	9955.625
2053.98794	9934.925
2057.01034	9909.125
2060.03078	9910.525
2063.04927	9894.325
2066.06582	9895.425
2069.08042	9885.325
2072.09307	9844.025
2075.10378	9820.125
2078.11255	9831.225
2081.11938	9829.225
2084.12426	9833.225
2087.12722	9797.225
2090.12824	9775.325
2093.12732	9789.525
2096.12447	9795.825
2099.11969	9793.825
2102.11299	9787.425
2105.10435	9778.325
2108.09379	9765.825
2111.08131	9792.625
2114.0669	9781.225
2117.05057	9795.625
2120.03233	9782.525
2123.01216	9798.625
2125.99008	9826.025
2128.96609	9839.525
2131.94018	9844.225
2134.91236	9831.125
2137.88263	9828.225
2140.851	9813.825
2143.81746	9825.125
2146.78201	9799.425
2149.74466	9795.025
2152.7054	9783.225
2155.66425	9776.225
2158.6212	9788.625
2161.57625	9775.425
2164.52941	9762.625
2167.48067	9742.925
2170.43004	9726.325
2173.37752	9733.425
2176.32311	9747.125
2179.26681	9747.225
2182.20863	9754.725
2185.14856	9753.025
2188.08661	9733.225
2191.02278	9717.025
2193.95707	9718.225
2196.88948	9713.825
2199.82001	9715.625
2202.74867	9694.325
2205.67545	9679.025
2208.60037	9695.525
2211.52341	9648.825
2214.44458	9642.525
2217.36388	9613.325
2220.28132	9589.025
2223.1969	9565.225
2226.11061	9547.825
2229.02246	9543.425
2231.93245	9511.725
2234.84058	9475.325
2237.74686	9462.625
2240.65128	9467.825
2243.55385	9436.925
2246.45456	9416.825
2249.35343	9421.125
2252.25044	9385.525
2255.14561	9396.325
2258.03893	9430.025
2260.93041	9412.025
2263.82004	9403.425
2266.70783	9368.525
2269.59378	9339.625
2272.4779	9323.525
2275.36017	9285.725
2278.24061	9269.225
2281.11922	9240.925
2283.996	9203.925
2286.87094	9188.225
2289.74405	9167.325
2292.61534	9164.525
2295.4848	9130.225
2298.35243	9159.325
2301.21824	9133.625
2304.08223	9111.225
2306.94439	9105.925
2309.80474	9122.825
2312.66327	9133.525
2315.51999	9096.325
2318.37489	9096.125
2321.22797	9059.525
2324.07925	9066.625
2326.92871	9049.625
2329.77637	9046.425
2332.62222	9047.825
2335.46626	9028.425
2338.3085	9014.825
2341.14893	9018.125
2343.98756	9024.025
2346.8244	9028.425
2349.65943	9014.025
2352.49267	9020.325
2355.32411	9035.825
2358.15376	9034.425
2360.98161	9067.625
2363.80768	9057.925
2366.63195	9048.325
2369.45444	9049.225
2372.27514	9049.325
2375.09405	9049.325
2377.91118	8994.925
2380.72652	8964.625
2383.54009	8932.925
2386.35187	8891.325
2389.16188	8825.625
2391.97011	8818.325
2394.77657	8815.725
2397.58125	8764.325
2400.38416	8739.725
2403.18529	8733.125
2405.98466	8703.325
2408.78226	8689.725
2411.57809	8638.725
2414.37216	8654.625
2417.16446	8646.525
2419.955	8637.525
2422.74378	8624.125
2425.5308	8613.925
2428.31606	8633.925
2431.09956	8609.125
2433.88131	8592.725
2436.6613	8606.825
2439.43954	8624.225
2442.21603	8605.525
2444.99077	8611.725
2447.76377	8605.225
2450.53501	8602.025
2453.30451	8606.725
2456.07226	8600.625
2458.83827	8576.425
2461.60254	8603.525
2464.36507	8588.125
2467.12586	8588.225
2469.88492	8568.625
2472.64224	8555.125
2475.39782	8576.725
2478.15167	8593.725
2480.90379	8623.625
2483.65417	8616.025
2486.40283	8619.925
2489.14976	8661.925
2491.89497	8649.825
2494.63845	8636.525
2497.3802	8635.325
2500.12024	8624.525
2502.85855	8616.925
2505.59514	8582.925
2508.33002	8543.425
2511.06318	8502.625
2513.79462	8463.825
2516.52435	8448.325
2519.25237	8422.325
2521.97867	8399.225
2524.70327	8389.225
2527.42616	8351.625
2530.14734	8352.025
2532.86681	8343.525
2535.58458	8345.225
2538.30065	8355.725
2541.01501	8328.125
2543.72768	8340.125
2546.43864	8324.725
2549.14791	8308.725
2551.85548	8325.025
2554.56136	8314.025
2557.26554	8269.725
2559.96803	8284.625
2562.66883	8264.925
2565.36794	8242.225
2568.06536	8247.625
2570.7611	8224.025
2573.45514	8214.525
2576.14751	8199.725
2578.83819	8181.225
2581.52719	8170.925
2584.21451	8169.625
2586.90015	8149.425
2589.58411	8133.625
2592.2664	8117.625
2594.94701	8097.025
2597.62594	8104.425
2600.30321	8104.025
2602.9788	8088.925
2605.65273	8087.225
2608.32498	8082.725
2610.99557	8070.825
2613.66449	8101.825
2616.33175	8073.225
2618.99734	8087.525
2621.66128	8075.525
2624.32355	8074.825
2626.98416	8047.025
2629.64311	8030.225
2632.30041	8022.825
2634.95605	7984.725
2637.61004	8001.425
2640.26238	7972.325
2642.91306	7973.125
2645.56209	7960.025
2648.20948	7978.225
2650.85521	7941.225
2653.4993	7939.725
2656.14175	7948.025
2658.78255	7949.825
2661.42171	7961.625
2664.05923	7984.625
2666.6951	7968.025
2669.32934	8016.325
2671.96194	7998.825
2674.59291	7981.725
2677.22224	7987.925
2679.84993	7991.625
2682.476	7988.025
2685.10043	7985.225
2687.72324	7977.125
2690.34441	7951.725
2692.96396	7950.225
2695.58188	7962.525
2698.19818	7940.125
2700.81285	7946.825
2703.4259	7921.625
2706.03733	7942.225
2708.64714	7944.625
2711.25533	7952.325
2713.86191	7931.125
2716.46687	7955.325
2719.07021	7951.925
2721.67194	7959.725
2724.27206	7940.325
2726.87057	7947.425
2729.46747	7960.125
2732.06276	7950.025
2734.65644	7945.025
2737.24852	7934.325
2739.83899	7928.725
2742.42786	7924.325
2745.01513	7879.725
2747.60079	7895.925
2750.18486	7874.525
2752.76733	7857.525
2755.3482	7841.225
2757.92747	7841.725
2760.50515	7809.925
2763.08123	7821.525
2765.65573	7796.725
2768.22863	7803.125
2770.79994	7795.025
2773.36967	7791.025
2775.9378	7796.825
2778.50435	7793.025
2781.06932	7797.425
2783.6327	7775.725
2786.1945	7801.625
2788.75471	7801.425
2791.31335	7780.825
2793.87041	7777.425
2796.42589	7753.425
2798.97979	7745.525
2801.53212	7758.425
2804.08288	7712.525
2806.63206	7704.525
2809.17967	7706.725
2811.72571	7713.825
2814.27018	7716.725
2816.81308	7715.225
2819.35442	7714.625
2821.89419	7704.725
2824.43239	7725.825
2826.96904	7728.625
2829.50412	7713.025
2832.03763	7718.225
2834.56959	7706.625
2837.1	7702.125
2839.62884	7698.825
2842.15613	7691.625
2844.68186	7721.625
2847.20604	7725.325
2849.72867	7744.025
2852.24974	7744.625
2854.76927	7715.325
2857.28724	7737.925
2859.80367	7741.325
2862.31855	7742.825
2864.83189	7743.625
2867.34368	7720.225
2869.85393	7746.925
2872.36264	7723.025
2874.8698	7751.025
2877.37543	7719.225
2879.87952	7748.125
2882.38207	7737.825
2884.88308	7723.825
2887.38256	7723.525
2889.88051	7707.025
2892.37692	7712.525
2894.8718	7717.725
2897.36515	7719.525
2899.85698	7709.025
2902.34727	7727.925
2904.83604	7734.125
2907.32328	7763.825
2909.809	7770.125
2912.29319	7778.325
2914.77587	7763.225
2917.25702	7765.125
2919.73665	7757.625
2922.21476	7753.225
2924.69136	7737.325
2927.16644	7759.525
2929.64	7703.025
2932.11205	7684.525
2934.58258	7682.225
2937.05161	7681.125
2939.51912	7676.025
2941.98513	7654.925
2944.44962	7636.725
2946.91261	7601.525
2949.37409	7612.625
2951.83407	7594.625
2954.29254	7582.125
2956.74951	7565.125
2959.20498	7558.625
2961.65895	7521.025
2964.11142	7526.225
2966.56239	7506.025
2969.01186	7488.425
2971.45984	7455.925
2973.90632	7420.825
2976.35131	7392.925
2978.7948	7388.125
2981.23681	7365.525
2983.67732	7344.125
2986.11635	7329.125
2988.55388	7324.125
2990.98993	7293.625
2993.4245	7299.025
2995.85758	7282.025
2998.28917	7266.025
3000.71928	7256.025
3003.14791	7246.625
3005.57506	7248.025
3008.00073	7220.025
3010.42493	7224.825
3012.84764	7196.825
3015.26888	7192.925
3017.68865	7171.525
3020.10694	7186.925
3022.52376	7141.225
3024.9391	7140.025
3027.35298	7103.725
3029.76539	7104.925
3032.17632	7089.325
3034.5858	7056.625
3036.9938	7040.125
3039.40034	7028.825
3041.80542	7012.225
3044.20903	7000.625
3046.61118	6991.425
3049.01187	6988.525
3051.4111	6976.825
3053.80888	6973.125
3056.20519	6957.725
3058.60005	6930.725
3060.99345	6939.325
3063.3854	6901.225
3065.7759	6859.525
3068.16494	6864.325
3070.55254	6825.625
3072.93868	6816.325
3075.32338	6795.925
3077.70662	6762.925
3080.08842	6749.925
3082.46878	6757.625
3084.84769	6733.525
3087.22515	6748.925
3089.60118	6740.925
3091.97576	6737.125
3094.3489	6717.925
3096.72061	6736.025
3099.09087	6735.025
3101.4597	6726.925
3103.82709	6719.925
3106.19305	6708.825
3108.55757	6708.925
3110.92066	6682.225
3113.28232	6675.125
3115.64255	6666.825
3118.00134	6659.925
3120.35871	6635.525
3122.71466	6610.225
3125.06917	6605.125
3127.42226	6598.625
3129.77393	6594.925
3132.12417	6615.025
3134.47299	6617.425
3136.82039	6615.525
3139.16636	6615.325
3141.51092	6617.125
3143.85406	6612.125
3146.19579	6607.125
3148.53609	6592.525
3150.87499	6592.125
3153.21246	6625.425
3155.54853	6624.825
3157.88318	6634.825
3160.21642	6638.725
3162.54826	6615.425
3164.87868	6639.625
3167.2077	6629.425
3169.5353	6622.425
3171.86151	6625.125
3174.18631	6619.125
3176.5097	6604.525
