Data from AgNPs_FTO_APTES_UA_50uM_CRN_1uM_R6G_10uM_NaF_0.1M_Addition_RamanShift__10__11-27-14-718.txt Node

Date: Mon Feb 21 11:27:14 GMT 2022
User: TCL
Spectrometer: QEP01345
Trigger mode: 4
Integration Time (sec): 7.000000E0
Scans to average: 10
Electric dark correction enabled: true
Nonlinearity correction enabled: false
Boxcar width: 0
XAxis mode: Raman Shifts
Number of Pixels in Spectrum: 1044
>>>>>Begin Spectral Data<<<<<
46.04893	-0.1375
50.45542	-0.6375
54.85868	0.3625
59.25871	-2.0375
63.6555	60.7625
68.04907	63.2625
72.43941	65.0625
76.82654	68.8625
81.21044	73.1625
85.59113	76.8625
89.96862	78.7625
94.34289	83.0625
98.71396	82.9625
103.08183	87.4625
107.4465	87.3625
111.80798	88.7625
116.16626	86.7625
120.52136	88.1625
124.87327	99.8625
129.222	95.0625
133.56755	101.8625
137.90993	114.0625
142.24913	120.3625
146.58517	135.0625
150.91804	154.3625
155.24774	187.0625
159.57429	225.5625
163.89768	283.5625
168.21792	381.7625
172.53501	516.7625
176.84895	719.2625
181.15975	1017.4625
185.46741	1424.2625
189.77193	1954.4625
194.07331	2628.8625
198.37157	3389.9625
202.6667	4177.9625
206.9587	4984.4625
211.24758	5766.0625
215.53334	6541.3625
219.81599	7329.1625
224.09553	8216.8625
228.37195	9178.5625
232.64527	10291.0625
236.91549	11477.1625
241.18261	12662.4625
245.44663	13756.9625
249.70755	14751.1625
253.96539	15643.4625
258.22014	16387.9625
262.4718	16925.6625
266.72039	17263.6625
270.96589	17422.9625
275.20832	17477.8625
279.44768	17318.8625
283.68397	17100.5625
287.91719	16936.2625
292.14735	16809.7625
296.37445	16749.5625
300.59849	16717.5625
304.81948	16750.2625
309.03742	16820.2625
313.25231	16720.8625
317.46415	16568.4625
321.67296	16285.9625
325.87872	16019.1625
330.08145	15887.7625
334.28114	15908.4625
338.47781	15988.3625
342.67145	16166.2625
346.86207	16372.1625
351.04966	16637.9625
355.23424	16956.0625
359.4158	17181.3625
363.59435	17412.1625
367.76989	17580.7625
371.94243	17621.1625
376.11196	17635.7625
380.27849	17674.1625
384.44203	17704.8625
388.60257	17824.4625
392.76012	17998.8625
396.91468	18327.3625
401.06626	18605.3625
405.21485	18814.9625
409.36047	18774.3625
413.50311	18572.0625
417.64277	18472.2625
421.77947	18508.7625
425.9132	18561.5625
430.04396	18716.2625
434.17176	18738.0625
438.2966	18846.5625
442.41849	19066.3625
446.53742	19380.0625
450.6534	19812.5625
454.76644	20139.2625
458.87653	20302.7625
462.98368	20298.6625
467.08789	20188.0625
471.18916	20003.5625
475.2875	19755.0625
479.38291	19630.0625
483.4754	19524.6625
487.56496	19483.6625
491.6516	19269.9625
495.73531	19029.1625
499.81612	18914.6625
503.89401	18935.0625
507.96899	19057.6625
512.04106	19021.6625
516.11023	18998.3625
520.1765	18808.6625
524.23987	18674.9625
528.30034	18564.0625
532.35792	18392.4625
536.41261	18217.4625
540.46441	18060.1625
544.51333	18062.7625
548.55936	18229.5625
552.60252	18529.5625
556.64279	18858.9625
560.6802	19150.6625
564.71473	19387.8625
568.7464	19730.6625
572.7752	20346.1625
576.80114	21103.1625
580.82422	21831.3625
584.84444	22556.0625
588.86181	23462.5625
592.87633	24364.0625
596.888	24389.9625
600.89682	23395.8625
604.9028	22717.5625
608.90594	23437.2625
612.90624	24361.3625
616.90371	23017.7625
620.89834	20273.2625
624.89015	19052.4625
628.87913	18966.0625
632.86528	19194.4625
636.84862	19261.8625
640.82913	18926.6625
644.80683	18513.5625
648.78172	18214.1625
652.75379	18188.0625
656.72306	18348.1625
660.68952	18609.4625
664.65319	18573.2625
668.61405	18371.8625
672.57211	18364.2625
676.52738	18436.5625
680.47986	18415.8625
684.42955	18274.7625
688.37646	18265.8625
692.32058	18346.5625
696.26192	18571.8625
700.20048	18775.4625
704.13626	18875.9625
708.06928	18939.6625
711.99952	18936.4625
715.927	18926.0625
719.85171	18915.1625
723.77365	18803.8625
727.69284	18520.7625
731.60928	18293.7625
735.52295	18173.6625
739.43388	18141.5625
743.34206	18215.9625
747.24749	18333.6625
751.15017	18528.8625
755.05012	18828.6625
758.94733	19218.7625
762.8418	20004.4625
766.73354	21055.3625
770.62254	22040.1625
774.50882	22170.9625
778.39237	21390.2625
782.27321	20311.5625
786.15132	19410.4625
790.02671	18861.6625
793.89938	18463.7625
797.76935	18307.2625
801.6366	18220.8625
805.50115	18172.5625
809.36299	18105.4625
813.22213	18043.3625
817.07857	17980.9625
820.93231	17921.2625
824.78336	17876.0625
828.63172	17796.7625
832.47738	17770.2625
836.32036	17706.8625
840.16066	17747.7625
843.99827	17745.8625
847.8332	17758.2625
851.66546	17782.8625
855.49504	17842.0625
859.32195	17868.6625
863.1462	17795.1625
866.96777	17796.9625
870.78668	17781.0625
874.60293	17815.8625
878.41652	17829.2625
882.22745	17878.2625
886.03573	17924.5625
889.84136	17938.7625
893.64433	17846.4625
897.44466	17891.9625
901.24235	17832.6625
905.0374	17789.4625
908.8298	17757.1625
912.61957	17794.6625
916.40671	17879.3625
920.19121	18102.5625
923.97308	18308.8625
927.75233	18357.9625
931.52895	18166.4625
935.30295	17891.7625
939.07433	17631.0625
942.84309	17393.6625
946.60924	17306.6625
950.37278	17243.0625
954.13371	17245.9625
957.89203	17251.8625
961.64774	17199.0625
965.40086	17222.6625
969.15137	17192.0625
972.89929	17120.4625
976.64461	17108.2625
980.38733	17036.3625
984.12747	17079.1625
987.86502	17153.3625
991.59999	17227.5625
995.33237	17365.5625
999.06217	17593.1625
1002.78939	17857.2625
1006.51404	18157.4625
1010.23611	18489.7625
1013.95561	18696.3625
1017.67255	18779.2625
1021.38692	18588.8625
1025.09872	18336.4625
1028.80796	18090.3625
1032.51465	17987.8625
1036.21877	17978.9625
1039.92035	18003.3625
1043.61937	18156.0625
1047.31584	18211.2625
1051.00976	18232.2625
1054.70114	18268.4625
1058.38998	18382.4625
1062.07627	18565.0625
1065.76003	18784.1625
1069.44126	19057.4625
1073.11995	19401.8625
1076.79611	19715.7625
1080.46974	19845.6625
1084.14085	19934.8625
1087.80943	20159.4625
1091.47549	20321.4625
1095.13903	20415.0625
1098.80005	20202.8625
1102.45857	19763.8625
1106.11456	19348.2625
1109.76805	19144.5625
1113.41903	19078.0625
1117.06751	19082.4625
1120.71348	19221.9625
1124.35696	19400.0625
1127.99793	19505.1625
1131.63641	19654.5625
1135.2724	19711.2625
1138.90589	19705.4625
1142.5369	19733.3625
1146.16542	19831.4625
1149.79145	20026.4625
1153.415	20229.8625
1157.03607	20422.4625
1160.65467	20825.2625
1164.27079	21473.4625
1167.88443	22364.1625
1171.49561	23287.4625
1175.10432	24396.6625
1178.71056	25829.3625
1182.31434	27203.4625
1185.91565	27915.8625
1189.51451	28124.7625
1193.11091	27804.4625
1196.70485	27121.3625
1200.29634	26332.6625
1203.88538	25649.6625
1207.47197	25348.3625
1211.05612	25139.4625
1214.63782	24880.5625
1218.21708	24346.6625
1221.79391	23606.8625
1225.36829	23151.4625
1228.94024	22864.1625
1232.50976	22668.6625
1236.07685	22510.8625
1239.6415	22251.8625
1243.20374	22245.8625
1246.76355	22322.1625
1250.32093	22553.9625
1253.8759	22931.8625
1257.42845	23525.4625
1260.97859	24157.0625
1264.52631	24851.1625
1268.07163	25597.9625
1271.61453	26235.5625
1275.15503	26764.2625
1278.69312	27459.0625
1282.22882	28315.0625
1285.76211	29187.7625
1289.29301	30127.3625
1292.82151	31250.4625
1296.34761	32544.0625
1299.87133	34002.2625
1303.39266	35422.5625
1306.9116	36644.2625
1310.42815	37445.2625
1313.94233	37750.6625
1317.45412	37546.0625
1320.96354	37099.3625
1324.47058	36709.6625
1327.97525	36445.8625
1331.47754	36433.6625
1334.97747	36317.6625
1338.47502	36145.9625
1341.97022	36018.8625
1345.46305	35756.1625
1348.95352	35474.9625
1352.44163	35326.7625
1355.92738	35549.5625
1359.41078	36397.0625
1362.89183	37207.3625
1366.37053	36953.1625
1369.84688	34923.3625
1373.32088	31886.6625
1376.79254	29629.6625
1380.26186	28638.9625
1383.72883	28519.8625
1387.19347	28459.6625
1390.65578	28185.1625
1394.11575	27955.2625
1397.57339	28063.5625
1401.0287	28315.5625
1404.48168	28537.2625
1407.93234	28392.5625
1411.38068	27936.0625
1414.82669	27204.9625
1418.27039	26301.5625
1421.71177	25462.7625
1425.15083	24817.7625
1428.58758	24576.2625
1432.02203	24729.5625
1435.45416	25221.7625
1438.88399	25846.7625
1442.31151	26249.1625
1445.73673	26487.4625
1449.15965	26655.1625
1452.58027	26750.0625
1455.9986	26822.4625
1459.41463	27070.5625
1462.82837	27470.6625
1466.23982	27887.8625
1469.64898	28263.1625
1473.05586	28485.6625
1476.46045	28494.4625
1479.86276	28445.6625
1483.26279	28400.0625
1486.66054	28389.9625
1490.05602	28614.4625
1493.44922	29012.0625
1496.84016	29479.6625
1500.22882	30095.1625
1503.61521	30766.3625
1506.99934	31450.2625
1510.38121	31881.7625
1513.76081	31839.0625
1517.13816	31431.1625
1520.51324	30852.9625
1523.88607	30447.4625
1527.25665	30350.4625
1530.62498	30230.6625
1533.99105	29954.0625
1537.35488	29411.2625
1540.71647	28679.6625
1544.07581	27865.7625
1547.4329	27105.6625
1550.78776	26551.6625
1554.14038	26125.7625
1557.49077	25951.6625
1560.83892	25911.6625
1564.18484	25883.4625
1567.52853	25964.9625
1570.86999	26134.0625
1574.20922	26518.8625
1577.54624	26946.9625
1580.88103	27067.4625
1584.2136	27283.0625
1587.54395	27974.3625
1590.87208	29095.3625
1594.19801	30494.7625
1597.52172	31694.3625
1600.84321	31754.0625
1604.16251	30445.4625
1607.47959	28431.7625
1610.79447	26352.2625
1614.10715	24404.9625
1617.41763	22855.0625
1620.7259	21793.4625
1624.03199	21266.1625
1627.33587	21270.3625
1630.63757	21733.9625
1633.93707	22938.8625
1637.23439	25030.4625
1640.52951	28120.1625
1643.82246	31709.2625
1647.11321	34595.0625
1650.40179	35141.8625
1653.68819	32791.7625
1656.97241	28782.0625
1660.25446	24874.9625
1663.53433	21933.4625
1666.81203	20089.9625
1670.08756	18972.9625
1673.36092	18283.4625
1676.63211	17836.8625
1679.90115	17535.2625
1683.16801	17287.9625
1686.43272	17088.1625
1689.69527	16906.2625
1692.95567	16764.9625
1696.2139	16585.3625
1699.46999	16442.4625
1702.72392	16350.1625
1705.97571	16426.1625
1709.22535	16476.9625
1712.47284	16511.6625
1715.71819	16534.7625
1718.96139	16503.7625
1722.20246	16473.0625
1725.44139	16427.3625
1728.67818	16319.6625
1731.91284	16230.9625
1735.14537	16188.0625
1738.37576	16078.9625
1741.60403	16072.4625
1744.83017	15968.7625
1748.05418	15932.0625
1751.27607	15841.7625
1754.49584	15741.5625
1757.71349	15695.3625
1760.92903	15656.1625
1764.14244	15600.0625
1767.35375	15625.1625
1770.56294	15594.5625
1773.77002	15579.1625
1776.97499	15656.7625
1780.17785	15670.7625
1783.37861	15667.7625
1786.57727	15653.0625
1789.77382	15654.4625
1792.96828	15651.8625
1796.16064	15648.0625
1799.3509	15592.4625
1802.53907	15546.7625
1805.72514	15488.9625
1808.90913	15483.8625
1812.09102	15453.0625
1815.27083	15458.8625
1818.44856	15433.0625
1821.6242	15410.7625
1824.79776	15423.4625
1827.96924	15383.3625
1831.13864	15398.3625
1834.30597	15395.9625
1837.47122	15400.5625
1840.6344	15372.9625
1843.7955	15393.7625
1846.95454	15363.9625
1850.11151	15356.3625
1853.26642	15318.8625
1856.41926	15306.5625
1859.57004	15308.8625
1862.71876	15291.1625
1865.86542	15315.0625
1869.01003	15261.1625
1872.15258	15274.0625
1875.29308	15215.6625
1878.43152	15189.4625
1881.56792	15195.8625
1884.70227	15153.5625
1887.83457	15183.6625
1890.96482	15120.1625
1894.09304	15088.0625
1897.21921	15057.8625
1900.34335	15046.8625
1903.46544	15039.8625
1906.58551	15031.4625
1909.70353	15017.4625
1912.81953	14995.9625
1915.93349	14961.8625
1919.04543	14906.9625
1922.15534	14907.1625
1925.26322	14880.6625
1928.36908	14832.0625
1931.47292	14774.1625
1934.57473	14765.9625
1937.67453	14739.4625
1940.77232	14674.0625
1943.86808	14657.6625
1946.96184	14647.6625
1950.05358	14591.4625
1953.14331	14533.9625
1956.23103	14493.7625
1959.31675	14483.9625
1962.40046	14397.7625
1965.48217	14387.6625
1968.56188	14334.8625
1971.63959	14338.6625
1974.7153	14282.3625
1977.78901	14261.5625
1980.86073	14211.9625
1983.93046	14132.1625
1986.99819	14062.4625
1990.06394	14057.8625
1993.1277	14018.6625
1996.18947	13987.0625
1999.24925	13965.6625
2002.30706	13897.5625
2005.36288	13854.3625
2008.41672	13820.5625
2011.46859	13801.9625
2014.51848	13743.3625
2017.56639	13705.2625
2020.61233	13670.7625
2023.6563	13639.6625
2026.6983	13598.9625
2029.73833	13600.0625
2032.7764	13548.7625
2035.8125	13502.4625
2038.84664	13490.9625
2041.87881	13471.2625
2044.90903	13471.6625
2047.93729	13413.7625
2050.96359	13394.8625
2053.98794	13386.7625
2057.01034	13375.6625
2060.03078	13361.1625
2063.04927	13344.0625
2066.06582	13352.4625
2069.08042	13342.0625
2072.09307	13361.1625
2075.10378	13359.2625
2078.11255	13352.1625
2081.11938	13338.5625
2084.12426	13360.4625
2087.12722	13322.4625
2090.12824	13347.9625
2093.12732	13325.3625
2096.12447	13329.0625
2099.11969	13318.8625
2102.11299	13320.5625
2105.10435	13329.4625
2108.09379	13342.7625
2111.08131	13343.7625
2114.0669	13378.2625
2117.05057	13411.6625
2120.03233	13404.6625
2123.01216	13418.3625
2125.99008	13401.5625
2128.96609	13397.5625
2131.94018	13430.9625
2134.91236	13409.3625
2137.88263	13425.4625
2140.851	13452.0625
2143.81746	13458.1625
2146.78201	13465.7625
2149.74466	13433.3625
2152.7054	13473.5625
2155.66425	13439.0625
2158.6212	13430.5625
2161.57625	13434.1625
2164.52941	13441.1625
2167.48067	13429.7625
2170.43004	13399.2625
2173.37752	13386.3625
2176.32311	13402.6625
2179.26681	13401.5625
2182.20863	13406.2625
2185.14856	13424.2625
2188.08661	13426.0625
2191.02278	13388.7625
2193.95707	13376.4625
2196.88948	13370.5625
2199.82001	13366.4625
2202.74867	13345.5625
2205.67545	13361.0625
2208.60037	13308.3625
2211.52341	13318.7625
2214.44458	13277.0625
2217.36388	13236.3625
2220.28132	13275.6625
2223.1969	13211.6625
2226.11061	13179.7625
2229.02246	13169.6625
2231.93245	13162.9625
2234.84058	13167.4625
2237.74686	13108.2625
2240.65128	13085.6625
2243.55385	13071.2625
2246.45456	13071.3625
2249.35343	13069.6625
2252.25044	13028.5625
2255.14561	13013.3625
2258.03893	12970.1625
2260.93041	12906.0625
2263.82004	12942.8625
2266.70783	12926.8625
2269.59378	12900.1625
2272.4779	12866.7625
2275.36017	12821.7625
2278.24061	12802.3625
2281.11922	12775.5625
2283.996	12765.8625
2286.87094	12762.6625
2289.74405	12709.3625
2292.61534	12705.1625
2295.4848	12712.6625
2298.35243	12673.5625
2301.21824	12694.0625
2304.08223	12663.7625
2306.94439	12655.2625
2309.80474	12661.1625
2312.66327	12627.7625
2315.51999	12641.5625
2318.37489	12630.1625
2321.22797	12592.7625
2324.07925	12579.5625
2326.92871	12582.6625
2329.77637	12557.6625
2332.62222	12535.0625
2335.46626	12513.2625
2338.3085	12493.0625
2341.14893	12513.5625
2343.98756	12507.3625
2346.8244	12485.5625
2349.65943	12488.2625
2352.49267	12493.0625
2355.32411	12476.9625
2358.15376	12499.0625
2360.98161	12486.0625
2363.80768	12464.2625
2366.63195	12434.9625
2369.45444	12413.0625
2372.27514	12426.7625
2375.09405	12413.6625
2377.91118	12377.5625
2380.72652	12370.9625
2383.54009	12319.4625
2386.35187	12320.6625
2389.16188	12306.9625
2391.97011	12283.0625
2394.77657	12289.6625
2397.58125	12262.0625
2400.38416	12232.8625
2403.18529	12209.3625
2405.98466	12233.3625
2408.78226	12217.1625
2411.57809	12163.4625
2414.37216	12171.8625
2417.16446	12175.7625
2419.955	12149.9625
2422.74378	12164.6625
2425.5308	12126.9625
2428.31606	12132.0625
2431.09956	12095.2625
2433.88131	12107.3625
2436.6613	12116.4625
2439.43954	12095.1625
2442.21603	12105.2625
2444.99077	12088.7625
2447.76377	12096.3625
2450.53501	12073.7625
2453.30451	12068.8625
2456.07226	12068.4625
2458.83827	12074.8625
2461.60254	12022.8625
2464.36507	12029.8625
2467.12586	11996.4625
2469.88492	12002.5625
2472.64224	12016.5625
2475.39782	12004.4625
2478.15167	12011.1625
2480.90379	11983.6625
2483.65417	12029.6625
2486.40283	12027.0625
2489.14976	12028.2625
2491.89497	11996.6625
2494.63845	11997.0625
2497.3802	11974.8625
2500.12024	11990.3625
2502.85855	12013.4625
2505.59514	11977.8625
2508.33002	11940.5625
2511.06318	11969.5625
2513.79462	11929.0625
2516.52435	11933.5625
2519.25237	11899.0625
2521.97867	11890.3625
2524.70327	11883.5625
2527.42616	11873.6625
2530.14734	11898.7625
2532.86681	11877.0625
2535.58458	11890.1625
2538.30065	11863.2625
2541.01501	11859.9625
2543.72768	11840.8625
2546.43864	11829.3625
2549.14791	11820.4625
2551.85548	11824.1625
2554.56136	11813.5625
2557.26554	11767.7625
2559.96803	11756.2625
2562.66883	11733.0625
2565.36794	11710.3625
2568.06536	11698.2625
2570.7611	11691.0625
2573.45514	11699.7625
2576.14751	11685.0625
2578.83819	11681.5625
2581.52719	11644.0625
2584.21451	11640.2625
2586.90015	11623.7625
2589.58411	11594.0625
2592.2664	11593.9625
2594.94701	11592.3625
2597.62594	11590.6625
2600.30321	11561.7625
2602.9788	11556.4625
2605.65273	11537.3625
2608.32498	11567.1625
2610.99557	11516.6625
2613.66449	11540.1625
2616.33175	11503.5625
2618.99734	11528.9625
2621.66128	11466.0625
2624.32355	11471.0625
2626.98416	11474.4625
2629.64311	11461.0625
2632.30041	11456.6625
2634.95605	11427.5625
2637.61004	11413.9625
2640.26238	11407.1625
2642.91306	11417.5625
2645.56209	11408.9625
2648.20948	11412.8625
2650.85521	11395.2625
2653.4993	11397.0625
2656.14175	11401.8625
2658.78255	11455.3625
2661.42171	11411.8625
2664.05923	11426.0625
2666.6951	11430.6625
2669.32934	11459.2625
2671.96194	11450.7625
2674.59291	11439.0625
2677.22224	11434.1625
2679.84993	11422.9625
2682.476	11439.7625
2685.10043	11469.8625
2687.72324	11458.0625
2690.34441	11438.4625
2692.96396	11418.4625
2695.58188	11428.8625
2698.19818	11432.9625
2700.81285	11424.4625
2703.4259	11362.3625
2706.03733	11307.4625
2708.64714	11313.0625
2711.25533	11425.1625
2713.86191	11454.0625
2716.46687	11468.2625
2719.07021	11489.8625
2721.67194	11498.7625
2724.27206	11499.5625
2726.87057	11516.7625
2729.46747	11498.5625
2732.06276	11504.9625
2734.65644	11466.8625
2737.24852	11507.5625
2739.83899	11486.1625
2742.42786	11492.2625
2745.01513	11489.6625
2747.60079	11500.2625
2750.18486	11481.7625
2752.76733	11459.3625
2755.3482	11428.0625
2757.92747	11396.8625
2760.50515	11390.8625
2763.08123	11376.8625
2765.65573	11375.8625
2768.22863	11352.2625
2770.79994	11348.7625
2773.36967	11353.3625
2775.9378	11340.1625
2778.50435	11316.9625
2781.06932	11331.3625
2783.6327	11330.6625
2786.1945	11302.3625
2788.75471	11322.8625
2791.31335	11281.8625
2793.87041	11282.5625
2796.42589	11236.3625
2798.97979	11224.0625
2801.53212	11210.3625
2804.08288	11178.5625
2806.63206	11142.9625
2809.17967	11148.3625
2811.72571	11126.4625
2814.27018	11092.0625
2816.81308	11082.6625
2819.35442	11084.8625
2821.89419	11051.0625
2824.43239	11029.1625
2826.96904	11007.3625
2829.50412	11028.3625
2832.03763	10981.5625
2834.56959	10976.2625
2837.1	10974.0625
2839.62884	10960.9625
2842.15613	10961.9625
2844.68186	10968.2625
2847.20604	10963.7625
2849.72867	10920.9625
2852.24974	10920.8625
2854.76927	10888.8625
2857.28724	10853.2625
2859.80367	10861.4625
2862.31855	10849.2625
2864.83189	10850.4625
2867.34368	10843.6625
2869.85393	10865.8625
2872.36264	10826.8625
2874.8698	10838.4625
2877.37543	10832.2625
2879.87952	10833.7625
2882.38207	10823.0625
2884.88308	10824.1625
2887.38256	10845.9625
2889.88051	10823.7625
2892.37692	10848.2625
2894.8718	10837.7625
2897.36515	10865.3625
2899.85698	10846.8625
2902.34727	10863.5625
2904.83604	10837.4625
2907.32328	10859.0625
2909.809	10843.0625
2912.29319	10881.2625
2914.77587	10887.9625
2917.25702	10869.0625
2919.73665	10843.4625
2922.21476	10860.9625
2924.69136	10852.7625
2927.16644	10856.3625
2929.64	10816.0625
2932.11205	10828.0625
2934.58258	10799.2625
2937.05161	10796.7625
2939.51912	10794.9625
2941.98513	10773.1625
2944.44962	10786.9625
2946.91261	10741.7625
2949.37409	10757.3625
2951.83407	10748.7625
2954.29254	10762.6625
2956.74951	10744.5625
2959.20498	10743.2625
2961.65895	10721.1625
2964.11142	10696.6625
2966.56239	10693.3625
2969.01186	10700.1625
2971.45984	10673.0625
2973.90632	10699.8625
2976.35131	10653.9625
2978.7948	10621.3625
2981.23681	10639.8625
2983.67732	10631.6625
2986.11635	10571.8625
2988.55388	10575.7625
2990.98993	10529.2625
2993.4245	10503.0625
2995.85758	10497.1625
2998.28917	10479.0625
3000.71928	10450.4625
3003.14791	10415.9625
3005.57506	10395.8625
3008.00073	10374.8625
3010.42493	10356.5625
3012.84764	10349.2625
3015.26888	10340.1625
3017.68865	10314.1625
3020.10694	10307.0625
3022.52376	10273.2625
3024.9391	10274.0625
