Data from AgNPs_FTO_APTES_UA_50uM_CRN_500uM_R6G_10uM_NaF_0.1M_Addition_RamanShift__27__17-13-23-553.txt Node

Date: Mon Feb 21 17:13:23 GMT 2022
User: TCL
Spectrometer: QEP01345
Trigger mode: 4
Integration Time (sec): 7.000000E0
Scans to average: 10
Electric dark correction enabled: true
Nonlinearity correction enabled: false
Boxcar width: 0
XAxis mode: Raman Shifts
Number of Pixels in Spectrum: 1044
>>>>>Begin Spectral Data<<<<<
46.04893	-0.7375
50.45542	-1.2375
54.85868	0.1625
59.25871	-1.7375
63.6555	61.5625
68.04907	64.3625
72.43941	72.5625
76.82654	68.9625
81.21044	75.1625
85.59113	78.5625
89.96862	80.6625
94.34289	80.0625
98.71396	82.0625
103.08183	89.7625
107.4465	92.5625
111.80798	95.5625
116.16626	96.0625
120.52136	98.4625
124.87327	103.5625
129.222	104.7625
133.56755	113.7625
137.90993	116.5625
142.24913	125.2625
146.58517	140.0625
150.91804	161.4625
155.24774	195.5625
159.57429	239.7625
163.89768	309.3625
168.21792	413.6625
172.53501	563.0625
176.84895	790.0625
181.15975	1107.9625
185.46741	1558.0625
189.77193	2147.8625
194.07331	2878.9625
198.37157	3721.1625
202.6667	4606.8625
206.9587	5495.6625
211.24758	6427.6625
215.53334	7398.6625
219.81599	8465.8625
224.09553	9677.2625
228.37195	11020.6625
232.64527	12497.3625
236.91549	13959.7625
241.18261	15286.8625
245.44663	16343.8625
249.70755	17243.5625
253.96539	18062.3625
258.22014	18770.1625
262.4718	19332.3625
266.72039	19586.2625
270.96589	19565.0625
275.20832	19249.3625
279.44768	18739.3625
283.68397	18172.5625
287.91719	17819.0625
292.14735	17833.1625
296.37445	18334.6625
300.59849	19282.7625
304.81948	20397.4625
309.03742	21189.7625
313.25231	21150.2625
317.46415	20011.1625
321.67296	18296.7625
325.87872	16893.7625
330.08145	16182.3625
334.28114	16196.2625
338.47781	16509.2625
342.67145	17058.7625
346.86207	17941.8625
351.04966	19161.6625
355.23424	20666.8625
359.4158	21745.0625
363.59435	22206.4625
367.76989	22272.6625
371.94243	22200.8625
376.11196	22047.7625
380.27849	21836.6625
384.44203	21475.7625
388.60257	21062.0625
392.76012	20784.9625
396.91468	20869.6625
401.06626	21338.9625
405.21485	21643.4625
409.36047	21065.2625
413.50311	19723.2625
417.64277	18452.8625
421.77947	17622.7625
425.9132	17292.2625
430.04396	17215.5625
434.17176	17305.8625
438.2966	17603.5625
442.41849	18111.3625
446.53742	18680.9625
450.6534	19266.2625
454.76644	19588.7625
458.87653	19548.0625
462.98368	19262.3625
467.08789	18875.1625
471.18916	18434.0625
475.2875	17932.2625
479.38291	17487.0625
483.4754	17171.7625
487.56496	16899.8625
491.6516	16700.3625
495.73531	16602.2625
499.81612	16595.5625
503.89401	16827.6625
507.96899	17137.7625
512.04106	17547.8625
516.11023	17963.2625
520.1765	18277.3625
524.23987	18238.2625
528.30034	17949.7625
532.35792	17666.9625
536.41261	17270.7625
540.46441	16838.1625
544.51333	16595.5625
548.55936	16639.5625
552.60252	17006.3625
556.64279	17502.6625
560.6802	17768.1625
564.71473	18172.2625
568.7464	19066.2625
572.7752	19434.0625
576.80114	18521.4625
580.82422	17515.7625
584.84444	17150.6625
588.86181	17247.6625
592.87633	17621.9625
596.888	18006.8625
600.89682	18521.5625
604.9028	20972.7625
608.90594	28151.7625
612.90624	37583.5625
616.90371	35772.6625
620.89834	23944.5625
624.89015	18328.5625
628.87913	17310.3625
632.86528	17560.4625
636.84862	17960.9625
640.82913	17608.1625
644.80683	16596.0625
648.78172	15832.4625
652.75379	15831.8625
656.72306	16548.6625
660.68952	17524.1625
664.65319	17309.0625
668.61405	16237.6625
672.57211	15770.8625
676.52738	15762.9625
680.47986	15759.8625
684.42955	15577.0625
688.37646	15416.4625
692.32058	15445.1625
696.26192	15545.8625
700.20048	15776.3625
704.13626	15877.6625
708.06928	15756.0625
711.99952	15586.2625
715.927	15529.3625
719.85171	15688.9625
723.77365	15782.9625
727.69284	15711.2625
731.60928	15575.4625
735.52295	15523.3625
739.43388	15591.7625
743.34206	15656.1625
747.24749	15666.9625
751.15017	15671.9625
755.05012	15927.5625
758.94733	16833.0625
762.8418	19120.1625
766.73354	23105.9625
770.62254	27140.4625
774.50882	29324.6625
778.39237	27988.1625
782.27321	23628.9625
786.15132	19372.4625
790.02671	16937.4625
793.89938	15948.7625
797.76935	15518.8625
801.6366	15324.8625
805.50115	15250.0625
809.36299	15178.1625
813.22213	15119.9625
817.07857	15073.2625
820.93231	15054.2625
824.78336	15044.3625
828.63172	15099.3625
832.47738	15135.0625
836.32036	15019.7625
840.16066	14922.6625
843.99827	14839.6625
847.8332	14789.0625
851.66546	14770.1625
855.49504	14787.7625
859.32195	14767.0625
863.1462	14771.7625
866.96777	14698.2625
870.78668	14676.0625
874.60293	14686.5625
878.41652	14749.2625
882.22745	14825.1625
886.03573	14950.9625
889.84136	14881.5625
893.64433	14818.8625
897.44466	14773.1625
901.24235	14709.2625
905.0374	14642.9625
908.8298	14483.6625
912.61957	14339.9625
916.40671	14353.3625
920.19121	14451.2625
923.97308	14548.0625
927.75233	14829.1625
931.52895	15151.6625
935.30295	15074.6625
939.07433	14555.7625
942.84309	14075.8625
946.60924	13780.1625
950.37278	13634.4625
954.13371	13539.0625
957.89203	13497.8625
961.64774	13461.5625
965.40086	13358.7625
969.15137	13309.1625
972.89929	13257.0625
976.64461	13226.4625
980.38733	13227.0625
984.12747	13280.0625
987.86502	13306.5625
991.59999	13436.3625
995.33237	13635.3625
999.06217	13976.1625
1002.78939	14355.2625
1006.51404	14728.9625
1010.23611	15019.1625
1013.95561	15193.5625
1017.67255	15146.6625
1021.38692	14934.1625
1025.09872	14624.5625
1028.80796	14565.4625
1032.51465	14669.2625
1036.21877	14876.5625
1039.92035	14945.3625
1043.61937	14935.8625
1047.31584	14812.7625
1051.00976	14613.9625
1054.70114	14477.1625
1058.38998	14367.9625
1062.07627	14381.4625
1065.76003	14344.4625
1069.44126	14374.0625
1073.11995	14474.1625
1076.79611	14719.7625
1080.46974	15146.1625
1084.14085	15732.3625
1087.80943	16333.8625
1091.47549	16553.0625
1095.13903	16173.7625
1098.80005	15541.7625
1102.45857	15048.8625
1106.11456	14975.9625
1109.76805	15264.2625
1113.41903	15865.8625
1117.06751	16790.3625
1120.71348	17895.0625
1124.35696	19031.7625
1127.99793	19834.5625
1131.63641	19393.4625
1135.2724	18052.9625
1138.90589	16894.6625
1142.5369	16191.1625
1146.16542	15696.5625
1149.79145	15389.6625
1153.415	15286.0625
1157.03607	15360.6625
1160.65467	15691.7625
1164.27079	16325.8625
1167.88443	17339.3625
1171.49561	18950.1625
1175.10432	21552.3625
1178.71056	25246.4625
1182.31434	28372.0625
1185.91565	29120.2625
1189.51451	27751.7625
1193.11091	25315.7625
1196.70485	22977.7625
1200.29634	21417.1625
1203.88538	20339.0625
1207.47197	18973.1625
1211.05612	17717.2625
1214.63782	16967.3625
1218.21708	16718.1625
1221.79391	16625.1625
1225.36829	16611.9625
1228.94024	16462.6625
1232.50976	16240.0625
1236.07685	16125.0625
1239.6415	16195.2625
1243.20374	16318.6625
1246.76355	16517.5625
1250.32093	16762.9625
1253.8759	17151.1625
1257.42845	17767.5625
1260.97859	18417.9625
1264.52631	19116.4625
1268.07163	19825.6625
1271.61453	20403.7625
1275.15503	20785.5625
1278.69312	20907.6625
1282.22882	21061.9625
1285.76211	21611.0625
1289.29301	22499.3625
1292.82151	23506.9625
1296.34761	24648.0625
1299.87133	26501.3625
1303.39266	29568.4625
1306.9116	34289.4625
1310.42815	39037.6625
1313.94233	40685.2625
1317.45412	38112.0625
1320.96354	33778.1625
1324.47058	29829.9625
1327.97525	26783.4625
1331.47754	24902.5625
1334.97747	24289.1625
1338.47502	24741.5625
1341.97022	25935.4625
1345.46305	27800.6625
1348.95352	30377.8625
1352.44163	33629.9625
1355.92738	38492.9625
1359.41078	45866.0625
1362.89183	52150.6625
1366.37053	49180.1625
1369.84688	39276.7625
1373.32088	30778.5625
1376.79254	25818.7625
1380.26186	23180.7625
1383.72883	21826.3625
1387.19347	20825.3625
1390.65578	19926.8625
1394.11575	19237.2625
1397.57339	18959.6625
1401.0287	19038.6625
1404.48168	19219.9625
1407.93234	19444.9625
1411.38068	19663.4625
1414.82669	19831.3625
1418.27039	19651.8625
1421.71177	19246.9625
1425.15083	18719.9625
1428.58758	18553.4625
1432.02203	18781.4625
1435.45416	19052.3625
1438.88399	19136.1625
1442.31151	19149.9625
1445.73673	19307.0625
1449.15965	19556.1625
1452.58027	19518.9625
1455.9986	19241.6625
1459.41463	19161.6625
1462.82837	19467.1625
1466.23982	19979.0625
1469.64898	20541.1625
1473.05586	20870.5625
1476.46045	21036.4625
1479.86276	21273.8625
1483.26279	21679.7625
1486.66054	22299.2625
1490.05602	23108.8625
1493.44922	24488.0625
1496.84016	26539.0625
1500.22882	30114.9625
1503.61521	35625.2625
1506.99934	42351.4625
1510.38121	47758.2625
1513.76081	48549.2625
1517.13816	43763.8625
1520.51324	36178.2625
1523.88607	29529.9625
1527.25665	25424.0625
1530.62498	23186.6625
1533.99105	21942.9625
1537.35488	21199.7625
1540.71647	20816.4625
1544.07581	20719.8625
1547.4329	20828.9625
1550.78776	21023.3625
1554.14038	21239.0625
1557.49077	21597.5625
1560.83892	22116.2625
1564.18484	23003.9625
1567.52853	24006.6625
1570.86999	24754.4625
1574.20922	25135.3625
1577.54624	24850.2625
1580.88103	23209.5625
1584.2136	21071.8625
1587.54395	19925.4625
1590.87208	20106.2625
1594.19801	21389.9625
1597.52172	23301.4625
1600.84321	24217.9625
1604.16251	23472.9625
1607.47959	21867.2625
1610.79447	19996.4625
1614.10715	18151.6625
1617.41763	16731.9625
1620.7259	15853.7625
1624.03199	15497.1625
1627.33587	15603.1625
1630.63757	16060.9625
1633.93707	17069.2625
1637.23439	18755.2625
1640.52951	21385.4625
1643.82246	25397.5625
1647.11321	30115.2625
1650.40179	33127.4625
1653.68819	31592.2625
1656.97241	26228.7625
1660.25446	20828.8625
1663.53433	17294.8625
1666.81203	15314.5625
1670.08756	14144.2625
1673.36092	13452.2625
1676.63211	13011.8625
1679.90115	12701.2625
1683.16801	12494.9625
1686.43272	12289.6625
1689.69527	12115.6625
1692.95567	12016.7625
1696.2139	11955.6625
1699.46999	11882.5625
1702.72392	11826.8625
1705.97571	11838.2625
1709.22535	11796.7625
1712.47284	11764.7625
1715.71819	11769.5625
1718.96139	11739.1625
1722.20246	11664.7625
1725.44139	11586.8625
1728.67818	11490.9625
1731.91284	11401.2625
1735.14537	11289.9625
1738.37576	11234.1625
1741.60403	11179.7625
1744.83017	11164.1625
1748.05418	11111.6625
1751.27607	11092.5625
1754.49584	11064.6625
1757.71349	11032.3625
1760.92903	10989.6625
1764.14244	10941.7625
1767.35375	10924.6625
1770.56294	10877.8625
1773.77002	10796.7625
1776.97499	10768.1625
1780.17785	10717.8625
1783.37861	10706.3625
1786.57727	10677.7625
1789.77382	10630.8625
1792.96828	10616.3625
1796.16064	10610.4625
1799.3509	10584.9625
1802.53907	10541.0625
1805.72514	10500.6625
1808.90913	10456.9625
1812.09102	10430.7625
1815.27083	10419.6625
1818.44856	10349.8625
1821.6242	10369.7625
1824.79776	10319.6625
1827.96924	10299.6625
1831.13864	10271.7625
1834.30597	10264.3625
1837.47122	10232.8625
1840.6344	10232.4625
1843.7955	10204.3625
1846.95454	10226.1625
1850.11151	10171.6625
1853.26642	10173.2625
1856.41926	10163.8625
1859.57004	10160.4625
1862.71876	10166.6625
1865.86542	10160.1625
1869.01003	10140.5625
1872.15258	10161.1625
1875.29308	10163.5625
1878.43152	10183.1625
1881.56792	10162.4625
1884.70227	10151.0625
1887.83457	10130.4625
1890.96482	10133.0625
1894.09304	10119.9625
1897.21921	10085.8625
1900.34335	10095.1625
1903.46544	10087.3625
1906.58551	10109.2625
1909.70353	10069.2625
1912.81953	10056.8625
1915.93349	10027.1625
1919.04543	9998.0625
1922.15534	9966.3625
1925.26322	9944.5625
1928.36908	9909.1625
1931.47292	9899.0625
1934.57473	9850.3625
1937.67453	9822.7625
1940.77232	9797.4625
1943.86808	9775.5625
1946.96184	9725.3625
1950.05358	9727.8625
1953.14331	9690.9625
1956.23103	9670.4625
1959.31675	9635.9625
1962.40046	9635.3625
1965.48217	9573.3625
1968.56188	9569.5625
1971.63959	9533.9625
1974.7153	9528.3625
1977.78901	9478.5625
1980.86073	9446.6625
1983.93046	9390.5625
1986.99819	9379.6625
1990.06394	9334.6625
1993.1277	9279.0625
1996.18947	9246.4625
1999.24925	9222.7625
2002.30706	9178.0625
2005.36288	9149.4625
2008.41672	9138.8625
2011.46859	9082.0625
2014.51848	9083.4625
2017.56639	9059.8625
2020.61233	9033.3625
2023.6563	9011.7625
2026.6983	8962.1625
2029.73833	8940.3625
2032.7764	8902.8625
2035.8125	8919.8625
2038.84664	8911.5625
2041.87881	8877.1625
2044.90903	8863.4625
2047.93729	8831.3625
2050.96359	8805.9625
2053.98794	8821.7625
2057.01034	8814.7625
2060.03078	8790.1625
2063.04927	8776.0625
2066.06582	8781.5625
2069.08042	8768.1625
2072.09307	8738.4625
2075.10378	8718.8625
2078.11255	8699.2625
2081.11938	8717.1625
2084.12426	8703.4625
2087.12722	8708.5625
2090.12824	8685.1625
2093.12732	8695.3625
2096.12447	8703.5625
2099.11969	8689.3625
2102.11299	8691.1625
2105.10435	8712.4625
2108.09379	8702.0625
2111.08131	8682.1625
2114.0669	8722.9625
2117.05057	8694.0625
2120.03233	8713.0625
2123.01216	8731.7625
2125.99008	8733.8625
2128.96609	8739.3625
2131.94018	8736.5625
2134.91236	8756.7625
2137.88263	8734.5625
2140.851	8711.1625
2143.81746	8722.7625
2146.78201	8710.8625
2149.74466	8702.7625
2152.7054	8707.7625
2155.66425	8693.5625
2158.6212	8687.8625
2161.57625	8675.4625
2164.52941	8665.1625
2167.48067	8641.9625
2170.43004	8663.3625
2173.37752	8646.1625
2176.32311	8652.0625
2179.26681	8656.7625
2182.20863	8655.2625
2185.14856	8688.1625
2188.08661	8637.7625
2191.02278	8656.1625
2193.95707	8635.0625
2196.88948	8607.8625
2199.82001	8622.4625
2202.74867	8613.2625
2205.67545	8595.7625
2208.60037	8607.5625
2211.52341	8600.9625
2214.44458	8561.5625
2217.36388	8558.0625
2220.28132	8558.2625
2223.1969	8509.2625
2226.11061	8510.2625
2229.02246	8462.1625
2231.93245	8447.8625
2234.84058	8426.9625
2237.74686	8426.8625
2240.65128	8421.6625
2243.55385	8412.2625
2246.45456	8390.3625
2249.35343	8391.3625
2252.25044	8387.6625
2255.14561	8375.9625
2258.03893	8392.3625
2260.93041	8409.6625
2263.82004	8383.5625
2266.70783	8347.5625
2269.59378	8356.8625
2272.4779	8311.8625
2275.36017	8293.8625
2278.24061	8288.4625
2281.11922	8257.8625
2283.996	8221.2625
2286.87094	8196.9625
2289.74405	8188.6625
2292.61534	8172.9625
2295.4848	8163.1625
2298.35243	8150.9625
2301.21824	8163.4625
2304.08223	8121.4625
2306.94439	8128.4625
2309.80474	8149.9625
2312.66327	8118.8625
2315.51999	8128.7625
2318.37489	8112.0625
2321.22797	8109.1625
2324.07925	8112.2625
2326.92871	8087.0625
2329.77637	8069.8625
2332.62222	8083.0625
2335.46626	8088.5625
2338.3085	8069.7625
2341.14893	8056.1625
2343.98756	8073.5625
2346.8244	8075.5625
2349.65943	8076.7625
2352.49267	8089.4625
2355.32411	8110.3625
2358.15376	8128.4625
2360.98161	8138.4625
2363.80768	8147.7625
2366.63195	8145.8625
2369.45444	8147.7625
2372.27514	8144.4625
2375.09405	8134.2625
2377.91118	8107.2625
2380.72652	8074.4625
2383.54009	8017.6625
2386.35187	7978.8625
2389.16188	7942.6625
2391.97011	7923.7625
2394.77657	7885.1625
2397.58125	7879.2625
2400.38416	7829.7625
2403.18529	7807.8625
2405.98466	7786.3625
2408.78226	7789.8625
2411.57809	7753.9625
2414.37216	7748.7625
2417.16446	7764.6625
2419.955	7755.9625
2422.74378	7727.6625
2425.5308	7736.8625
2428.31606	7731.9625
2431.09956	7726.8625
2433.88131	7711.0625
2436.6613	7734.5625
2439.43954	7729.3625
2442.21603	7727.5625
2444.99077	7740.2625
2447.76377	7744.6625
2450.53501	7722.9625
2453.30451	7756.0625
2456.07226	7755.6625
2458.83827	7739.5625
2461.60254	7726.9625
2464.36507	7739.2625
2467.12586	7703.6625
2469.88492	7704.8625
2472.64224	7732.0625
2475.39782	7719.0625
2478.15167	7787.0625
2480.90379	7786.3625
2483.65417	7792.8625
2486.40283	7794.4625
2489.14976	7841.3625
2491.89497	7853.9625
2494.63845	7847.6625
2497.3802	7822.0625
2500.12024	7808.7625
2502.85855	7760.2625
2505.59514	7744.8625
2508.33002	7729.2625
2511.06318	7674.6625
2513.79462	7652.9625
2516.52435	7605.6625
2519.25237	7569.8625
2521.97867	7555.5625
2524.70327	7557.7625
2527.42616	7514.1625
2530.14734	7516.4625
2532.86681	7523.9625
2535.58458	7515.8625
2538.30065	7505.5625
2541.01501	7513.4625
2543.72768	7489.6625
2546.43864	7513.4625
2549.14791	7489.9625
2551.85548	7489.4625
2554.56136	7486.5625
2557.26554	7491.9625
2559.96803	7460.9625
2562.66883	7449.4625
2565.36794	7428.3625
2568.06536	7450.2625
2570.7611	7426.6625
2573.45514	7416.1625
2576.14751	7386.8625
2578.83819	7382.1625
2581.52719	7354.7625
2584.21451	7369.9625
2586.90015	7339.3625
2589.58411	7335.5625
2592.2664	7329.0625
2594.94701	7328.8625
2597.62594	7297.4625
2600.30321	7296.2625
2602.9788	7298.8625
2605.65273	7288.5625
2608.32498	7309.3625
2610.99557	7293.3625
2613.66449	7305.7625
2616.33175	7279.0625
2618.99734	7296.8625
2621.66128	7297.5625
2624.32355	7284.6625
2626.98416	7258.6625
2629.64311	7280.2625
2632.30041	7259.1625
2634.95605	7235.6625
2637.61004	7208.0625
2640.26238	7206.6625
2642.91306	7200.7625
2645.56209	7189.4625
2648.20948	7176.4625
2650.85521	7176.6625
2653.4993	7163.2625
2656.14175	7168.6625
2658.78255	7193.5625
2661.42171	7199.4625
2664.05923	7236.7625
2666.6951	7205.7625
2669.32934	7235.1625
2671.96194	7235.2625
2674.59291	7226.4625
2677.22224	7229.0625
2679.84993	7249.8625
2682.476	7219.1625
2685.10043	7234.5625
2687.72324	7242.4625
2690.34441	7208.6625
2692.96396	7201.6625
2695.58188	7208.6625
2698.19818	7217.0625
2700.81285	7181.9625
2703.4259	7187.7625
2706.03733	7200.2625
2708.64714	7195.2625
2711.25533	7204.4625
2713.86191	7209.0625
2716.46687	7220.1625
2719.07021	7205.3625
2721.67194	7211.4625
2724.27206	7209.6625
2726.87057	7211.2625
2729.46747	7203.3625
2732.06276	7206.9625
2734.65644	7193.3625
2737.24852	7201.4625
2739.83899	7181.2625
2742.42786	7172.3625
2745.01513	7143.4625
2747.60079	7133.0625
2750.18486	7133.8625
2752.76733	7121.5625
2755.3482	7103.6625
2757.92747	7111.3625
2760.50515	7091.9625
2763.08123	7094.7625
2765.65573	7085.2625
2768.22863	7082.2625
2770.79994	7067.9625
2773.36967	7050.1625
2775.9378	7061.4625
2778.50435	7064.9625
2781.06932	7053.2625
2783.6327	7068.1625
2786.1945	7067.4625
2788.75471	7071.6625
2791.31335	7062.2625
2793.87041	7047.5625
2796.42589	7042.7625
2798.97979	7049.3625
2801.53212	7031.3625
2804.08288	7036.0625
2806.63206	7044.0625
2809.17967	7015.9625
2811.72571	7016.6625
2814.27018	7038.5625
2816.81308	7021.5625
2819.35442	7026.1625
2821.89419	7027.3625
2824.43239	7057.1625
2826.96904	7049.7625
2829.50412	7052.2625
2832.03763	7033.8625
2834.56959	7047.3625
2837.1	7042.2625
2839.62884	7033.3625
2842.15613	7036.5625
2844.68186	7067.6625
2847.20604	7054.7625
2849.72867	7098.8625
2852.24974	7089.5625
2854.76927	7088.7625
2857.28724	7102.8625
2859.80367	7097.2625
2862.31855	7090.7625
2864.83189	7096.6625
2867.34368	7100.4625
2869.85393	7106.3625
2872.36264	7101.7625
2874.8698	7107.4625
2877.37543	7125.0625
2879.87952	7088.4625
2882.38207	7092.1625
2884.88308	7077.7625
2887.38256	7092.6625
2889.88051	7055.1625
2892.37692	7064.9625
2894.8718	7055.8625
2897.36515	7063.4625
2899.85698	7052.0625
2902.34727	7077.4625
2904.83604	7078.6625
2907.32328	7089.0625
2909.809	7088.8625
2912.29319	7102.9625
2914.77587	7109.8625
2917.25702	7108.8625
2919.73665	7091.5625
2922.21476	7082.3625
2924.69136	7077.0625
2927.16644	7052.2625
2929.64	7046.2625
2932.11205	7019.7625
2934.58258	7007.6625
2937.05161	7013.2625
2939.51912	7019.1625
2941.98513	7014.5625
2944.44962	6952.6625
2946.91261	6919.1625
2949.37409	6951.2625
2951.83407	6933.3625
2954.29254	6925.7625
2956.74951	6902.3625
2959.20498	6907.1625
2961.65895	6890.6625
2964.11142	6867.5625
2966.56239	6858.1625
2969.01186	6844.5625
2971.45984	6815.5625
2973.90632	6789.9625
2976.35131	6778.4625
2978.7948	6761.6625
2981.23681	6746.5625
2983.67732	6725.0625
2986.11635	6692.4625
2988.55388	6683.6625
2990.98993	6666.6625
2993.4245	6659.7625
2995.85758	6665.3625
2998.28917	6661.1625
3000.71928	6632.8625
3003.14791	6641.2625
3005.57506	6620.9625
3008.00073	6612.6625
3010.42493	6621.9625
3012.84764	6604.9625
3015.26888	6590.9625
3017.68865	6585.1625
3020.10694	6577.5625
3022.52376	6553.2625
3024.9391	6521.6625
3027.35298	6538.2625
3029.76539	6526.6625
3032.17632	6484.0625
3034.5858	6465.5625
3036.9938	6449.6625
3039.40034	6419.0625
3041.80542	6435.4625
3044.20903	6424.6625
3046.61118	6421.8625
3049.01187	6394.4625
3051.4111	6407.9625
3053.80888	6366.5625
3056.20519	6386.5625
3058.60005	6346.7625
3060.99345	6316.0625
3063.3854	6332.4625
3065.7759	6325.8625
3068.16494	6299.0625
3070.55254	6269.2625
