Data from AgNPs_FTO_APTES_UA_50uM_CRN_10uM_R6G_10uM_NaF_0.1M_Addition_RamanShift__2__13-15-44-860.txt Node

Date: Mon Feb 21 13:15:44 GMT 2022
User: TCL
Spectrometer: QEP01345
Trigger mode: 4
Integration Time (sec): 7.000000E0
Scans to average: 10
Electric dark correction enabled: true
Nonlinearity correction enabled: false
Boxcar width: 0
XAxis mode: Raman Shifts
Number of Pixels in Spectrum: 1044
>>>>>Begin Spectral Data<<<<<
46.04893	0.325
50.45542	-1.875
54.85868	-0.375
59.25871	-2.475
63.6555	73.225
68.04907	77.825
72.43941	78.725
76.82654	85.525
81.21044	89.125
85.59113	90.925
89.96862	94.825
94.34289	98.125
98.71396	100.725
103.08183	106.525
107.4465	106.325
111.80798	110.225
116.16626	107.325
120.52136	110.325
124.87327	119.525
129.222	120.425
133.56755	126.425
137.90993	142.125
142.24913	150.525
146.58517	163.725
150.91804	192.325
155.24774	227.625
159.57429	280.525
163.89768	366.525
168.21792	478.925
172.53501	648.425
176.84895	908.525
181.15975	1274.125
185.46741	1783.025
189.77193	2443.925
194.07331	3272.125
198.37157	4217.825
202.6667	5199.725
206.9587	6194.125
211.24758	7131.025
215.53334	8127.225
219.81599	9189.525
224.09553	10350.925
228.37195	11693.025
232.64527	13144.625
236.91549	14661.425
241.18261	16144.725
245.44663	17478.225
249.70755	18541.625
253.96539	19482.825
258.22014	20246.925
262.4718	20945.025
266.72039	21351.325
270.96589	21528.425
275.20832	21466.425
279.44768	21256.725
283.68397	20897.725
287.91719	20627.725
292.14735	20457.125
296.37445	20423.925
300.59849	20557.025
304.81948	20775.125
309.03742	20939.725
313.25231	20948.925
317.46415	20695.625
321.67296	20314.825
325.87872	20046.925
330.08145	19948.525
334.28114	19954.125
338.47781	20102.325
342.67145	20357.225
346.86207	20723.225
351.04966	21193.325
355.23424	21678.225
359.4158	22107.825
363.59435	22349.125
367.76989	22529.025
371.94243	22660.425
376.11196	22717.525
380.27849	22865.525
384.44203	22990.625
388.60257	23166.825
392.76012	23318.425
396.91468	23469.925
401.06626	23771.425
405.21485	24028.725
409.36047	23883.825
413.50311	23493.025
417.64277	23228.225
421.77947	23160.625
425.9132	23229.425
430.04396	23336.825
434.17176	23510.225
438.2966	23865.525
442.41849	24502.725
446.53742	25571.625
450.6534	26550.925
454.76644	27099.125
458.87653	27080.525
462.98368	26648.225
467.08789	26083.125
471.18916	25397.225
475.2875	24676.625
479.38291	24096.025
483.4754	23690.025
487.56496	23395.325
491.6516	23226.225
495.73531	23136.025
499.81612	23210.925
503.89401	23394.325
507.96899	23477.125
512.04106	23372.425
516.11023	23276.425
520.1765	23207.325
524.23987	23207.425
528.30034	23213.425
532.35792	23201.725
536.41261	22899.225
540.46441	22456.225
544.51333	22289.425
548.55936	22419.625
552.60252	22920.925
556.64279	23631.925
560.6802	24160.425
564.71473	24226.825
568.7464	24322.625
572.7752	24795.425
576.80114	25282.525
580.82422	25900.225
584.84444	27038.625
588.86181	29129.025
592.87633	31623.425
596.888	32648.825
600.89682	31127.325
604.9028	30033.025
608.90594	31975.525
612.90624	34710.825
616.90371	32411.725
620.89834	26720.225
624.89015	24149.925
628.87913	23723.525
632.86528	23860.625
636.84862	23802.225
640.82913	23283.325
644.80683	22592.625
648.78172	22211.825
652.75379	22179.225
656.72306	22646.225
660.68952	23169.025
664.65319	22962.725
668.61405	22428.025
672.57211	22401.625
676.52738	22632.725
680.47986	22586.625
684.42955	22327.825
688.37646	22173.725
692.32058	22352.925
696.26192	22788.225
700.20048	23177.725
704.13626	23360.425
708.06928	23158.425
711.99952	22901.125
715.927	22961.025
719.85171	23182.825
723.77365	23173.025
727.69284	22824.825
731.60928	22491.425
735.52295	22512.925
739.43388	22591.725
743.34206	22739.225
747.24749	22862.925
751.15017	22973.625
755.05012	23285.625
758.94733	23897.325
762.8418	25210.325
766.73354	27379.125
770.62254	29456.825
774.50882	30047.825
778.39237	28875.825
782.27321	26797.725
786.15132	24898.325
790.02671	23688.225
793.89938	23061.325
797.76935	22754.925
801.6366	22604.425
805.50115	22531.025
809.36299	22369.525
813.22213	22170.325
817.07857	22022.725
820.93231	21939.225
824.78336	21862.825
828.63172	21884.725
832.47738	21906.725
836.32036	21963.825
840.16066	22036.325
843.99827	22118.325
847.8332	22059.625
851.66546	21988.725
855.49504	21983.325
859.32195	21964.725
863.1462	21949.825
866.96777	21891.825
870.78668	21823.325
874.60293	21855.725
878.41652	21940.425
882.22745	22131.025
886.03573	22219.925
889.84136	22220.825
893.64433	22137.225
897.44466	22048.525
901.24235	21954.725
905.0374	21847.225
908.8298	21767.225
912.61957	21716.025
916.40671	21830.725
920.19121	22068.025
923.97308	22406.725
927.75233	22638.425
931.52895	22611.225
935.30295	22332.025
939.07433	21881.725
942.84309	21550.425
946.60924	21426.925
950.37278	21353.025
954.13371	21327.225
957.89203	21278.425
961.64774	21277.325
965.40086	21252.425
969.15137	21239.825
972.89929	21207.625
976.64461	21264.925
980.38733	21339.325
984.12747	21412.925
987.86502	21621.025
991.59999	21877.925
995.33237	22255.825
999.06217	22967.325
1002.78939	23803.725
1006.51404	24469.525
1010.23611	24969.525
1013.95561	25266.625
1017.67255	25320.025
1021.38692	24982.625
1025.09872	24458.925
1028.80796	24276.925
1032.51465	24583.425
1036.21877	25054.825
1039.92035	25156.625
1043.61937	24987.725
1047.31584	24552.425
1051.00976	23996.025
1054.70114	23697.325
1058.38998	23638.325
1062.07627	23632.325
1065.76003	23818.225
1069.44126	24033.125
1073.11995	24446.725
1076.79611	24895.625
1080.46974	25236.225
1084.14085	25657.025
1087.80943	26026.325
1091.47549	26194.025
1095.13903	26023.725
1098.80005	25571.525
1102.45857	25015.825
1106.11456	24758.825
1109.76805	24688.825
1113.41903	24838.525
1117.06751	25067.325
1120.71348	25417.225
1124.35696	25781.325
1127.99793	26103.925
1131.63641	26246.625
1135.2724	26039.125
1138.90589	25811.625
1142.5369	25738.125
1146.16542	25804.525
1149.79145	25927.925
1153.415	26061.625
1157.03607	26344.225
1160.65467	26949.125
1164.27079	28143.025
1167.88443	29784.725
1171.49561	31850.325
1175.10432	34713.625
1178.71056	38313.925
1182.31434	41593.325
1185.91565	42741.525
1189.51451	41889.725
1193.11091	40064.125
1196.70485	37988.125
1200.29634	36091.225
1203.88538	34546.225
1207.47197	33401.025
1211.05612	32493.025
1214.63782	31871.925
1218.21708	31570.125
1221.79391	31651.025
1225.36829	31950.425
1228.94024	31792.025
1232.50976	31049.925
1236.07685	30196.725
1239.6415	29665.225
1243.20374	29552.225
1246.76355	29637.925
1250.32093	29953.025
1253.8759	30599.925
1257.42845	31583.725
1260.97859	32650.125
1264.52631	33903.625
1268.07163	35199.325
1271.61453	36456.325
1275.15503	37492.325
1278.69312	38565.225
1282.22882	39716.825
1285.76211	41144.125
1289.29301	42758.325
1292.82151	44668.725
1296.34761	46999.025
1299.87133	49945.725
1303.39266	53390.025
1306.9116	57078.625
1310.42815	60431.425
1313.94233	62242.825
1317.45412	61341.725
1320.96354	58733.325
1324.47058	55904.525
1327.97525	53354.825
1331.47754	51658.425
1334.97747	50725.025
1338.47502	50129.925
1341.97022	49368.525
1345.46305	48793.325
1348.95352	48952.525
1352.44163	50394.825
1355.92738	53492.425
1359.41078	57828.225
1362.89183	61391.925
1366.37053	60760.525
1369.84688	54995.425
1373.32088	47754.525
1376.79254	42937.925
1380.26186	41078.325
1383.72883	40685.925
1387.19347	40261.825
1390.65578	39447.625
1394.11575	38986.825
1397.57339	39207.125
1401.0287	39689.525
1404.48168	40109.025
1407.93234	40149.225
1411.38068	39828.325
1414.82669	39233.325
1418.27039	38366.725
1421.71177	37188.325
1425.15083	36189.025
1428.58758	35749.825
1432.02203	36286.425
1435.45416	37308.325
1438.88399	38175.325
1442.31151	38599.125
1445.73673	38685.825
1449.15965	38617.025
1452.58027	38301.925
1455.9986	37847.225
1459.41463	37712.725
1462.82837	38297.025
1466.23982	39361.925
1469.64898	40438.825
1473.05586	41287.125
1476.46045	41821.825
1479.86276	42074.525
1483.26279	42053.125
1486.66054	42189.925
1490.05602	42644.425
1493.44922	43186.725
1496.84016	43598.725
1500.22882	44105.925
1503.61521	44998.125
1506.99934	46421.425
1510.38121	47514.825
1513.76081	47410.925
1517.13816	45959.625
1520.51324	43755.325
1523.88607	41948.725
1527.25665	41051.625
1530.62498	40708.525
1533.99105	40466.525
1537.35488	39843.725
1540.71647	38920.125
1544.07581	37916.125
1547.4329	37032.925
1550.78776	36215.825
1554.14038	35667.825
1557.49077	35374.125
1560.83892	35291.225
1564.18484	35405.625
1567.52853	35706.825
1570.86999	36138.025
1574.20922	36825.425
1577.54624	37145.325
1580.88103	36977.525
1584.2136	36915.425
1587.54395	38003.425
1590.87208	40427.225
1594.19801	43849.225
1597.52172	47321.025
1600.84321	48582.925
1604.16251	46564.025
1607.47959	42282.325
1610.79447	37724.325
1614.10715	33786.425
1617.41763	30964.625
1620.7259	29273.325
1624.03199	28618.725
1627.33587	28885.825
1630.63757	30018.225
1633.93707	32322.125
1637.23439	36082.325
1640.52951	41732.725
1643.82246	48548.725
1647.11321	53780.625
1650.40179	53941.825
1653.68819	48669.225
1656.97241	40883.325
1660.25446	34062.025
1663.53433	29468.625
1666.81203	26688.725
1670.08756	25137.225
1673.36092	24184.325
1676.63211	23519.525
1679.90115	23071.425
1683.16801	22769.825
1686.43272	22497.225
1689.69527	22247.925
1692.95567	22102.425
1696.2139	21898.325
1699.46999	21703.025
1702.72392	21641.125
1705.97571	21621.425
1709.22535	21754.625
1712.47284	21799.125
1715.71819	21788.725
1718.96139	21694.725
1722.20246	21636.725
1725.44139	21524.225
1728.67818	21411.825
1731.91284	21311.325
1735.14537	21189.025
1738.37576	21110.525
1741.60403	21031.525
1744.83017	20940.825
1748.05418	20901.125
1751.27607	20792.625
1754.49584	20739.425
1757.71349	20662.725
1760.92903	20591.025
1764.14244	20621.825
1767.35375	20598.925
1770.56294	20564.625
1773.77002	20533.425
1776.97499	20546.925
1780.17785	20522.025
1783.37861	20551.025
1786.57727	20554.425
1789.77382	20534.325
1792.96828	20509.525
1796.16064	20469.525
1799.3509	20405.025
1802.53907	20421.925
1805.72514	20372.925
1808.90913	20327.825
1812.09102	20308.225
1815.27083	20282.225
1818.44856	20275.025
1821.6242	20249.625
1824.79776	20248.325
1827.96924	20282.125
1831.13864	20291.525
1834.30597	20286.325
1837.47122	20298.625
1840.6344	20306.925
1843.7955	20303.325
1846.95454	20282.625
1850.11151	20285.625
1853.26642	20272.125
1856.41926	20236.625
1859.57004	20244.825
1862.71876	20198.025
1865.86542	20214.725
1869.01003	20209.825
1872.15258	20175.925
1875.29308	20132.725
1878.43152	20133.125
1881.56792	20181.325
1884.70227	20165.625
1887.83457	20179.725
1890.96482	20123.725
1894.09304	20079.125
1897.21921	20079.925
1900.34335	20066.525
1903.46544	20087.225
1906.58551	20045.425
1909.70353	20001.225
1912.81953	19965.225
1915.93349	19961.325
1919.04543	19895.925
1922.15534	19842.825
1925.26322	19793.425
1928.36908	19732.825
1931.47292	19722.625
1934.57473	19635.325
1937.67453	19628.825
1940.77232	19527.225
1943.86808	19495.425
1946.96184	19497.825
1950.05358	19442.525
1953.14331	19375.225
1956.23103	19369.025
1959.31675	19265.125
1962.40046	19281.625
1965.48217	19230.125
1968.56188	19182.925
1971.63959	19075.625
1974.7153	19086.825
1977.78901	19039.225
1980.86073	18968.025
1983.93046	18895.725
1986.99819	18840.425
1990.06394	18793.625
1993.1277	18772.025
1996.18947	18698.425
1999.24925	18630.625
2002.30706	18563.025
2005.36288	18524.625
2008.41672	18493.125
2011.46859	18470.325
2014.51848	18425.325
2017.56639	18359.725
2020.61233	18348.525
2023.6563	18287.525
2026.6983	18269.125
2029.73833	18253.325
2032.7764	18270.525
2035.8125	18216.925
2038.84664	18197.725
2041.87881	18166.325
2044.90903	18115.725
2047.93729	18119.725
2050.96359	18134.825
2053.98794	18112.725
2057.01034	18081.725
2060.03078	18083.125
2063.04927	18067.425
2066.06582	18090.425
2069.08042	18067.825
2072.09307	18052.425
2075.10378	18046.725
2078.11255	18046.325
2081.11938	18035.025
2084.12426	18006.525
2087.12722	18008.425
2090.12824	17997.725
2093.12732	18061.925
2096.12447	18047.925
2099.11969	18055.125
2102.11299	18023.225
2105.10435	18057.625
2108.09379	18049.525
2111.08131	18043.425
2114.0669	18078.625
2117.05057	18075.825
2120.03233	18108.425
2123.01216	18109.625
2125.99008	18131.625
2128.96609	18159.425
2131.94018	18203.525
2134.91236	18196.925
2137.88263	18248.425
2140.851	18266.625
2143.81746	18265.925
2146.78201	18226.425
2149.74466	18251.125
2152.7054	18270.025
2155.66425	18267.925
2158.6212	18255.925
2161.57625	18232.125
2164.52941	18266.625
2167.48067	18255.725
2170.43004	18217.325
2173.37752	18218.525
2176.32311	18211.825
2179.26681	18290.125
2182.20863	18263.025
2185.14856	18283.625
2188.08661	18269.025
2191.02278	18325.425
2193.95707	18300.325
2196.88948	18280.425
2199.82001	18339.225
2202.74867	18264.525
2205.67545	18271.725
2208.60037	18253.925
2211.52341	18203.125
2214.44458	18208.525
2217.36388	18168.325
2220.28132	18152.925
2223.1969	18104.225
2226.11061	18117.925
2229.02246	18065.825
2231.93245	18097.825
2234.84058	18056.325
2237.74686	18044.125
2240.65128	18020.425
2243.55385	18046.125
2246.45456	18033.525
2249.35343	17965.125
2252.25044	17926.825
2255.14561	17909.925
2258.03893	17925.925
2260.93041	17867.025
2263.82004	17824.825
2266.70783	17793.125
2269.59378	17772.625
2272.4779	17754.125
2275.36017	17701.425
2278.24061	17694.825
2281.11922	17660.525
2283.996	17606.225
2286.87094	17594.025
2289.74405	17576.625
2292.61534	17575.925
2295.4848	17560.825
2298.35243	17563.625
2301.21824	17600.125
2304.08223	17576.325
2306.94439	17615.425
2309.80474	17630.625
2312.66327	17628.225
2315.51999	17618.925
2318.37489	17596.325
2321.22797	17549.625
2324.07925	17574.225
2326.92871	17572.725
2329.77637	17504.525
2332.62222	17484.825
2335.46626	17464.625
2338.3085	17464.125
2341.14893	17490.625
2343.98756	17504.225
2346.8244	17516.425
2349.65943	17525.325
2352.49267	17509.725
2355.32411	17503.725
2358.15376	17511.925
2360.98161	17505.325
2363.80768	17504.925
2366.63195	17458.825
2369.45444	17460.125
2372.27514	17460.025
2375.09405	17434.125
2377.91118	17424.825
2380.72652	17338.025
2383.54009	17304.625
2386.35187	17316.425
2389.16188	17346.225
2391.97011	17319.425
2394.77657	17260.025
2397.58125	17299.125
2400.38416	17201.825
2403.18529	17205.025
2405.98466	17202.625
2408.78226	17129.525
2411.57809	17103.525
2414.37216	17092.425
2417.16446	17093.825
2419.955	17092.825
2422.74378	17106.225
2425.5308	17081.925
2428.31606	17074.825
2431.09956	17056.425
2433.88131	17026.125
2436.6613	17050.025
2439.43954	17058.625
2442.21603	17077.925
2444.99077	17065.725
2447.76377	17101.325
2450.53501	17067.525
2453.30451	17074.425
2456.07226	17085.725
2458.83827	17081.125
2461.60254	17093.125
2464.36507	17083.325
2467.12586	17070.925
2469.88492	17098.525
2472.64224	17105.225
2475.39782	17110.025
2478.15167	17090.825
2480.90379	17105.725
2483.65417	17152.225
2486.40283	17128.525
2489.14976	17154.025
2491.89497	17155.025
2494.63845	17161.425
2497.3802	17137.025
2500.12024	17153.925
2502.85855	17144.025
2505.59514	17145.425
2508.33002	17129.225
2511.06318	17095.425
2513.79462	17081.825
2516.52435	17063.725
2519.25237	17079.625
2521.97867	17072.625
2524.70327	17068.425
2527.42616	17045.225
2530.14734	17064.325
2532.86681	17019.825
2535.58458	17051.525
2538.30065	17061.325
2541.01501	17039.025
2543.72768	17010.925
2546.43864	16988.425
2549.14791	16985.925
2551.85548	16972.725
2554.56136	16944.625
2557.26554	16931.225
2559.96803	16954.925
2562.66883	16974.825
2565.36794	16987.125
2568.06536	16987.125
2570.7611	16971.125
2573.45514	16959.025
2576.14751	16955.125
2578.83819	16934.225
2581.52719	16940.325
2584.21451	16897.525
2586.90015	16901.825
2589.58411	16882.025
2592.2664	16907.525
2594.94701	16888.725
2597.62594	16923.625
2600.30321	16897.425
2602.9788	16904.425
2605.65273	16867.725
2608.32498	16860.825
2610.99557	16837.625
2613.66449	16890.725
2616.33175	16879.225
2618.99734	16904.625
2621.66128	16890.925
2624.32355	16826.325
2626.98416	16862.625
2629.64311	16797.825
2632.30041	16827.825
2634.95605	16830.525
2637.61004	16798.625
2640.26238	16752.925
2642.91306	16773.525
2645.56209	16724.425
2648.20948	16750.625
2650.85521	16774.525
2653.4993	16816.925
2656.14175	16796.125
2658.78255	16819.925
2661.42171	16835.425
2664.05923	16874.925
2666.6951	16880.725
2669.32934	16906.925
2671.96194	16905.725
2674.59291	16901.825
2677.22224	16889.625
2679.84993	16929.025
2682.476	16892.025
2685.10043	16891.125
2687.72324	16839.125
2690.34441	16834.125
2692.96396	16848.325
2695.58188	16842.125
2698.19818	16876.425
2700.81285	16878.125
2703.4259	16840.825
2706.03733	16794.425
2708.64714	16790.925
2711.25533	16881.625
2713.86191	16879.225
2716.46687	16895.125
2719.07021	16931.825
2721.67194	16955.525
2724.27206	16962.825
2726.87057	17003.625
2729.46747	17044.525
2732.06276	17013.225
2734.65644	16998.525
2737.24852	17010.425
2739.83899	16971.525
2742.42786	17015.025
2745.01513	17036.425
2747.60079	17004.025
2750.18486	16981.425
2752.76733	16949.325
2755.3482	16929.525
2757.92747	16959.325
2760.50515	16900.025
2763.08123	16959.025
2765.65573	16930.725
2768.22863	16925.625
2770.79994	16890.725
2773.36967	16938.825
2775.9378	16925.125
2778.50435	16941.925
2781.06932	16942.225
2783.6327	16994.225
2786.1945	16948.225
2788.75471	16927.225
2791.31335	16902.925
2793.87041	16908.925
2796.42589	16878.425
2798.97979	16831.725
2801.53212	16788.325
2804.08288	16799.825
2806.63206	16789.125
2809.17967	16728.625
2811.72571	16721.325
2814.27018	16646.025
2816.81308	16647.425
2819.35442	16650.125
2821.89419	16616.625
2824.43239	16628.225
2826.96904	16642.125
2829.50412	16620.625
2832.03763	16622.625
2834.56959	16602.825
2837.1	16576.425
2839.62884	16585.925
2842.15613	16522.825
2844.68186	16527.425
2847.20604	16526.625
2849.72867	16580.125
2852.24974	16564.525
2854.76927	16522.325
2857.28724	16497.125
2859.80367	16516.725
2862.31855	16497.925
2864.83189	16466.725
2867.34368	16462.425
2869.85393	16532.525
2872.36264	16529.325
2874.8698	16512.325
2877.37543	16492.125
2879.87952	16473.925
2882.38207	16492.625
2884.88308	16521.225
2887.38256	16522.725
2889.88051	16503.725
2892.37692	16515.425
2894.8718	16570.925
2897.36515	16582.725
2899.85698	16562.325
2902.34727	16620.925
2904.83604	16624.025
2907.32328	16644.825
2909.809	16686.325
2912.29319	16682.125
2914.77587	16680.225
2917.25702	16672.525
2919.73665	16633.325
2922.21476	16656.625
2924.69136	16675.625
2927.16644	16678.325
2929.64	16612.725
2932.11205	16603.425
2934.58258	16537.025
2937.05161	16567.325
2939.51912	16612.925
2941.98513	16571.425
2944.44962	16550.825
2946.91261	16501.725
2949.37409	16540.425
2951.83407	16509.625
2954.29254	16485.725
2956.74951	16512.325
2959.20498	16466.625
2961.65895	16465.525
2964.11142	16477.125
2966.56239	16454.725
2969.01186	16455.625
2971.45984	16413.025
2973.90632	16368.525
2976.35131	16340.625
2978.7948	16291.825
2981.23681	16313.425
2983.67732	16287.425
2986.11635	16251.125
2988.55388	16187.825
2990.98993	16187.825
2993.4245	16166.925
2995.85758	16163.225
2998.28917	16129.325
3000.71928	16093.425
3003.14791	16051.525
3005.57506	16031.325
3008.00073	16006.225
3010.42493	15998.025
3012.84764	15979.625
3015.26888	15955.325
3017.68865	15869.625
3020.10694	15870.525
3022.52376	15839.925
3024.9391	15830.925
3027.35298	15819.225
3029.76539	15811.625
3032.17632	15776.825
3034.5858	15789.625
3036.9938	15766.825
3039.40034	15757.625
3041.80542	15769.125
3044.20903	15750.125
3046.61118	15758.925
3049.01187	15696.525
3051.4111	15698.325
3053.80888	15702.725
3056.20519	15665.525
3058.60005	15652.025
3060.99345	15626.625
3063.3854	15568.925
3065.7759	15541.625
3068.16494	15488.625
3070.55254	15404.525
3072.93868	15405.525
3075.32338	15379.725
3077.70662	15347.125
3080.08842	15320.525
3082.46878	15319.625
3084.84769	15276.225
3087.22515	15317.325
3089.60118	15300.225
3091.97576	15310.225
3094.3489	15271.825
3096.72061	15308.225
3099.09087	15266.025
3101.4597	15270.825
3103.82709	15278.225
3106.19305	15257.325
3108.55757	15248.325
3110.92066	15210.425
3113.28232	15181.825
3115.64255	15168.125
3118.00134	15118.025
3120.35871	15087.225
3122.71466	15066.025
3125.06917	15039.425
3127.42226	15032.925
