Data from AgNPs_FTO_APTES_UA_50uM_CRN_50uM_R6G_10uM_NaF_0.1M_Addition_RamanShift__4__14-37-24-963.txt Node

Date: Mon Feb 21 14:37:24 GMT 2022
User: TCL
Spectrometer: QEP01345
Trigger mode: 4
Integration Time (sec): 7.000000E0
Scans to average: 10
Electric dark correction enabled: true
Nonlinearity correction enabled: false
Boxcar width: 0
XAxis mode: Raman Shifts
Number of Pixels in Spectrum: 1044
>>>>>Begin Spectral Data<<<<<
46.04893	-0.6375
50.45542	-1.1375
54.85868	-0.1375
59.25871	-1.7375
63.6555	67.8625
68.04907	75.2625
72.43941	73.2625
76.82654	82.1625
81.21044	83.0625
85.59113	88.7625
89.96862	87.6625
94.34289	96.1625
98.71396	89.7625
103.08183	98.7625
107.4465	100.6625
111.80798	102.3625
116.16626	100.8625
120.52136	106.2625
124.87327	113.6625
129.222	108.3625
133.56755	113.9625
137.90993	128.0625
142.24913	133.5625
146.58517	148.6625
150.91804	173.2625
155.24774	202.6625
159.57429	248.2625
163.89768	312.5625
168.21792	417.2625
172.53501	562.5625
176.84895	792.1625
181.15975	1097.3625
185.46741	1541.7625
189.77193	2122.1625
194.07331	2845.9625
198.37157	3647.1625
202.6667	4494.1625
206.9587	5341.1625
211.24758	6166.2625
215.53334	7014.8625
219.81599	7932.7625
224.09553	8951.5625
228.37195	10041.7625
232.64527	11256.0625
236.91549	12527.0625
241.18261	13763.9625
245.44663	14886.6625
249.70755	15876.3625
253.96539	16749.0625
258.22014	17449.1625
262.4718	18004.2625
266.72039	18408.9625
270.96589	18643.6625
275.20832	18583.5625
279.44768	18407.5625
283.68397	18107.1625
287.91719	17896.4625
292.14735	17756.0625
296.37445	17765.7625
300.59849	17859.1625
304.81948	17993.4625
309.03742	18070.2625
313.25231	17983.8625
317.46415	17743.1625
321.67296	17414.9625
325.87872	17147.7625
330.08145	17032.0625
334.28114	17027.9625
338.47781	17157.5625
342.67145	17401.6625
346.86207	17693.4625
351.04966	18066.2625
355.23424	18497.1625
359.4158	18843.5625
363.59435	19100.3625
367.76989	19259.1625
371.94243	19373.2625
376.11196	19458.6625
380.27849	19549.0625
384.44203	19688.8625
388.60257	19818.4625
392.76012	19942.3625
396.91468	20143.8625
401.06626	20395.7625
405.21485	20632.8625
409.36047	20533.9625
413.50311	20202.5625
417.64277	20028.5625
421.77947	20028.8625
425.9132	20075.0625
430.04396	20165.8625
434.17176	20263.8625
438.2966	20483.0625
442.41849	20929.8625
446.53742	21623.2625
450.6534	22385.2625
454.76644	22790.0625
458.87653	22841.2625
462.98368	22571.4625
467.08789	22133.4625
471.18916	21690.7625
475.2875	21180.2625
479.38291	20794.9625
483.4754	20575.7625
487.56496	20378.2625
491.6516	20188.8625
495.73531	20104.0625
499.81612	20076.2625
503.89401	20262.6625
507.96899	20345.7625
512.04106	20256.4625
516.11023	20160.4625
520.1765	19994.4625
524.23987	19940.7625
528.30034	19889.2625
532.35792	19801.9625
536.41261	19582.3625
540.46441	19340.9625
544.51333	19226.2625
548.55936	19343.0625
552.60252	19673.6625
556.64279	20187.9625
560.6802	20565.2625
564.71473	20697.1625
568.7464	20889.7625
572.7752	21385.7625
576.80114	21808.9625
580.82422	22393.4625
584.84444	23360.4625
588.86181	24781.8625
592.87633	26310.7625
596.888	26703.9625
600.89682	25520.7625
604.9028	25028.5625
608.90594	26630.8625
612.90624	28719.4625
616.90371	26866.8625
620.89834	22543.5625
624.89015	20675.8625
628.87913	20455.8625
632.86528	20508.5625
636.84862	20395.6625
640.82913	20009.5625
644.80683	19477.8625
648.78172	19101.9625
652.75379	19121.3625
656.72306	19410.2625
660.68952	19786.8625
664.65319	19634.9625
668.61405	19260.4625
672.57211	19233.7625
676.52738	19420.5625
680.47986	19381.6625
684.42955	19163.4625
688.37646	19039.8625
692.32058	19209.6625
696.26192	19553.5625
700.20048	19843.8625
704.13626	19956.6625
708.06928	19852.3625
711.99952	19673.1625
715.927	19723.8625
719.85171	19863.0625
723.77365	19865.2625
727.69284	19515.2625
731.60928	19247.9625
735.52295	19207.1625
739.43388	19313.8625
743.34206	19369.0625
747.24749	19515.3625
751.15017	19650.2625
755.05012	19923.8625
758.94733	20431.1625
762.8418	21333.0625
766.73354	22877.6625
770.62254	24376.1625
774.50882	24842.4625
778.39237	23922.2625
782.27321	22312.0625
786.15132	20928.7625
790.02671	20073.4625
793.89938	19618.7625
797.76935	19441.1625
801.6366	19401.8625
805.50115	19388.8625
809.36299	19224.4625
813.22213	19038.9625
817.07857	18950.8625
820.93231	18860.3625
824.78336	18764.1625
828.63172	18729.3625
832.47738	18767.4625
836.32036	18827.0625
840.16066	18957.2625
843.99827	19015.1625
847.8332	18947.0625
851.66546	18852.1625
855.49504	18822.1625
859.32195	18866.3625
863.1462	18767.3625
866.96777	18693.0625
870.78668	18669.6625
874.60293	18727.4625
878.41652	18734.1625
882.22745	18899.4625
886.03573	18970.5625
889.84136	18946.2625
893.64433	18869.9625
897.44466	18798.6625
901.24235	18708.0625
905.0374	18639.6625
908.8298	18555.6625
912.61957	18511.6625
916.40671	18668.0625
920.19121	18903.4625
923.97308	19195.8625
927.75233	19383.0625
931.52895	19336.0625
935.30295	19104.6625
939.07433	18765.6625
942.84309	18461.9625
946.60924	18349.0625
950.37278	18296.2625
954.13371	18281.1625
957.89203	18211.7625
961.64774	18174.1625
965.40086	18219.3625
969.15137	18163.9625
972.89929	18127.0625
976.64461	18104.0625
980.38733	18177.4625
984.12747	18246.5625
987.86502	18420.8625
991.59999	18685.8625
995.33237	19076.5625
999.06217	19699.2625
1002.78939	20376.9625
1006.51404	20866.4625
1010.23611	21160.3625
1013.95561	21432.9625
1017.67255	21434.0625
1021.38692	21168.7625
1025.09872	20818.2625
1028.80796	20899.5625
1032.51465	21539.6625
1036.21877	22129.2625
1039.92035	22287.5625
1043.61937	22000.8625
1047.31584	21516.6625
1051.00976	20863.8625
1054.70114	20434.6625
1058.38998	20278.1625
1062.07627	20243.4625
1065.76003	20337.5625
1069.44126	20490.7625
1073.11995	20834.8625
1076.79611	21158.4625
1080.46974	21372.1625
1084.14085	21666.9625
1087.80943	21893.5625
1091.47549	22042.0625
1095.13903	21946.1625
1098.80005	21546.3625
1102.45857	21046.8625
1106.11456	20843.4625
1109.76805	20762.6625
1113.41903	20878.2625
1117.06751	21000.6625
1120.71348	21255.6625
1124.35696	21461.8625
1127.99793	21737.1625
1131.63641	21844.4625
1135.2724	21802.5625
1138.90589	21648.8625
1142.5369	21617.5625
1146.16542	21626.0625
1149.79145	21733.9625
1153.415	21871.5625
1157.03607	22134.7625
1160.65467	22750.9625
1164.27079	23756.3625
1167.88443	25053.1625
1171.49561	26556.2625
1175.10432	28558.3625
1178.71056	31135.7625
1182.31434	33617.1625
1185.91565	34634.9625
1189.51451	34159.9625
1193.11091	32832.1625
1196.70485	31306.2625
1200.29634	29919.1625
1203.88538	28965.4625
1207.47197	28203.6625
1211.05612	27578.0625
1214.63782	26972.4625
1218.21708	26560.0625
1221.79391	26393.7625
1225.36829	26411.7625
1228.94024	26153.1625
1232.50976	25590.2625
1236.07685	25007.6625
1239.6415	24593.8625
1243.20374	24563.6625
1246.76355	24706.6625
1250.32093	25093.2625
1253.8759	25645.6625
1257.42845	26418.2625
1260.97859	27288.7625
1264.52631	28185.3625
1268.07163	29174.3625
1271.61453	30182.4625
1275.15503	31194.8625
1278.69312	32160.4625
1282.22882	33061.3625
1285.76211	34114.2625
1289.29301	35340.4625
1292.82151	36825.8625
1296.34761	38715.9625
1299.87133	41229.3625
1303.39266	44030.7625
1306.9116	46941.6625
1310.42815	49336.0625
1313.94233	50391.5625
1317.45412	49585.9625
1320.96354	47551.6625
1324.47058	45468.5625
1327.97525	43789.3625
1331.47754	42642.5625
1334.97747	41972.9625
1338.47502	41255.5625
1341.97022	40593.0625
1345.46305	39959.2625
1348.95352	39841.3625
1352.44163	40720.8625
1355.92738	42857.5625
1359.41078	46071.6625
1362.89183	48522.2625
1366.37053	48070.5625
1369.84688	43975.1625
1373.32088	38571.4625
1376.79254	34814.7625
1380.26186	33368.0625
1383.72883	33068.7625
1387.19347	32758.8625
1390.65578	32121.6625
1394.11575	31942.0625
1397.57339	32223.9625
1401.0287	32738.2625
1404.48168	33202.8625
1407.93234	33286.4625
1411.38068	32897.5625
1414.82669	32206.8625
1418.27039	31256.5625
1421.71177	30201.8625
1425.15083	29355.6625
1428.58758	29032.9625
1432.02203	29391.2625
1435.45416	30200.2625
1438.88399	30977.3625
1442.31151	31425.4625
1445.73673	31574.8625
1449.15965	31615.2625
1452.58027	31438.3625
1455.9986	31120.0625
1459.41463	31078.5625
1462.82837	31508.1625
1466.23982	32262.3625
1469.64898	33057.1625
1473.05586	33620.8625
1476.46045	34011.1625
1479.86276	34073.7625
1483.26279	33937.2625
1486.66054	33926.7625
1490.05602	34225.3625
1493.44922	34660.8625
1496.84016	34979.3625
1500.22882	35364.0625
1503.61521	36019.9625
1506.99934	36978.7625
1510.38121	37853.8625
1513.76081	37809.3625
1517.13816	36809.7625
1520.51324	35320.0625
1523.88607	34158.6625
1527.25665	33612.5625
1530.62498	33481.2625
1533.99105	33244.9625
1537.35488	32849.9625
1540.71647	32179.5625
1544.07581	31402.4625
1547.4329	30620.4625
1550.78776	30014.7625
1554.14038	29553.1625
1557.49077	29289.5625
1560.83892	29231.2625
1564.18484	29115.5625
1567.52853	29268.3625
1570.86999	29601.3625
1574.20922	30100.7625
1577.54624	30470.7625
1580.88103	30504.1625
1584.2136	30649.4625
1587.54395	31718.6625
1590.87208	33760.8625
1594.19801	36388.8625
1597.52172	38868.4625
1600.84321	39582.8625
1604.16251	37734.6625
1607.47959	34379.2625
1610.79447	30837.6625
1614.10715	27802.0625
1617.41763	25690.0625
1620.7259	24369.6625
1624.03199	23857.4625
1627.33587	24097.3625
1630.63757	24988.8625
1633.93707	26696.4625
1637.23439	29486.1625
1640.52951	33611.6625
1643.82246	38501.9625
1647.11321	42264.5625
1650.40179	42495.2625
1653.68819	38647.9625
1656.97241	32845.8625
1660.25446	27751.4625
1663.53433	24253.8625
1666.81203	22124.1625
1670.08756	20918.1625
1673.36092	20192.0625
1676.63211	19680.8625
1679.90115	19280.7625
1683.16801	19035.4625
1686.43272	18851.1625
1689.69527	18688.7625
1692.95567	18475.3625
1696.2139	18318.5625
1699.46999	18156.9625
1702.72392	18078.1625
1705.97571	18117.8625
1709.22535	18204.4625
1712.47284	18234.6625
1715.71819	18237.8625
1718.96139	18188.7625
1722.20246	18129.6625
1725.44139	18096.4625
1728.67818	17969.0625
1731.91284	17869.0625
1735.14537	17789.5625
1738.37576	17760.1625
1741.60403	17668.7625
1744.83017	17604.8625
1748.05418	17542.7625
1751.27607	17523.2625
1754.49584	17502.4625
1757.71349	17375.8625
1760.92903	17359.9625
1764.14244	17301.6625
1767.35375	17332.2625
1770.56294	17244.7625
1773.77002	17242.5625
1776.97499	17257.8625
1780.17785	17317.5625
1783.37861	17307.3625
1786.57727	17309.5625
1789.77382	17311.0625
1792.96828	17269.7625
1796.16064	17265.6625
1799.3509	17234.9625
1802.53907	17229.3625
1805.72514	17182.7625
1808.90913	17152.3625
1812.09102	17106.2625
1815.27083	17098.5625
1818.44856	17116.2625
1821.6242	17103.0625
1824.79776	17091.5625
1827.96924	17115.3625
1831.13864	17096.4625
1834.30597	17074.3625
1837.47122	17095.2625
1840.6344	17077.5625
1843.7955	17093.2625
1846.95454	17080.9625
1850.11151	17065.6625
1853.26642	17069.3625
1856.41926	17023.4625
1859.57004	17032.8625
1862.71876	17018.1625
1865.86542	16997.8625
1869.01003	16990.5625
1872.15258	16977.5625
1875.29308	16998.9625
1878.43152	16948.5625
1881.56792	16973.6625
1884.70227	16989.2625
1887.83457	16957.5625
1890.96482	16937.9625
1894.09304	16914.6625
1897.21921	16876.9625
1900.34335	16870.6625
1903.46544	16836.1625
1906.58551	16861.3625
1909.70353	16826.0625
1912.81953	16825.5625
1915.93349	16812.2625
1919.04543	16773.2625
1922.15534	16736.3625
1925.26322	16685.0625
1928.36908	16647.2625
1931.47292	16639.5625
1934.57473	16619.8625
1937.67453	16570.6625
1940.77232	16512.3625
1943.86808	16503.8625
1946.96184	16475.1625
1950.05358	16410.3625
1953.14331	16369.8625
1956.23103	16353.5625
1959.31675	16311.7625
1962.40046	16260.9625
1965.48217	16211.2625
1968.56188	16204.5625
1971.63959	16169.4625
1974.7153	16107.1625
1977.78901	16094.4625
1980.86073	15987.2625
1983.93046	15938.0625
1986.99819	15901.7625
1990.06394	15902.2625
1993.1277	15884.3625
1996.18947	15808.0625
1999.24925	15764.4625
2002.30706	15706.7625
2005.36288	15682.4625
2008.41672	15623.5625
2011.46859	15607.0625
2014.51848	15569.7625
2017.56639	15556.8625
2020.61233	15490.8625
2023.6563	15491.1625
2026.6983	15469.4625
2029.73833	15422.3625
2032.7764	15401.2625
2035.8125	15388.3625
2038.84664	15405.5625
2041.87881	15399.7625
2044.90903	15358.2625
2047.93729	15330.8625
2050.96359	15324.8625
2053.98794	15329.9625
2057.01034	15320.6625
2060.03078	15305.4625
2063.04927	15276.7625
2066.06582	15287.6625
2069.08042	15248.5625
2072.09307	15254.2625
2075.10378	15248.1625
2078.11255	15230.9625
2081.11938	15217.3625
2084.12426	15220.1625
2087.12722	15225.5625
2090.12824	15223.9625
2093.12732	15210.3625
2096.12447	15214.6625
2099.11969	15240.9625
2102.11299	15262.7625
2105.10435	15266.5625
2108.09379	15276.3625
2111.08131	15245.1625
2114.0669	15281.4625
2117.05057	15276.9625
2120.03233	15313.0625
2123.01216	15340.3625
2125.99008	15368.8625
2128.96609	15377.0625
2131.94018	15387.3625
2134.91236	15407.1625
2137.88263	15398.1625
2140.851	15417.2625
2143.81746	15449.6625
2146.78201	15441.5625
2149.74466	15468.8625
2152.7054	15456.3625
2155.66425	15430.8625
2158.6212	15434.9625
2161.57625	15460.3625
2164.52941	15450.6625
2167.48067	15418.3625
2170.43004	15458.6625
2173.37752	15455.9625
2176.32311	15457.4625
2179.26681	15458.8625
2182.20863	15458.7625
2185.14856	15488.0625
2188.08661	15506.0625
2191.02278	15522.5625
2193.95707	15533.1625
2196.88948	15494.0625
2199.82001	15515.8625
2202.74867	15528.0625
2205.67545	15489.6625
2208.60037	15444.9625
2211.52341	15434.8625
2214.44458	15447.9625
2217.36388	15424.8625
2220.28132	15440.1625
2223.1969	15419.0625
2226.11061	15418.5625
2229.02246	15369.2625
2231.93245	15346.7625
2234.84058	15346.5625
2237.74686	15331.0625
2240.65128	15319.4625
2243.55385	15318.3625
2246.45456	15330.5625
2249.35343	15290.5625
2252.25044	15246.8625
2255.14561	15228.3625
2258.03893	15201.1625
2260.93041	15186.4625
2263.82004	15168.8625
2266.70783	15131.8625
2269.59378	15094.4625
2272.4779	15056.1625
2275.36017	15035.1625
2278.24061	15010.8625
2281.11922	14966.5625
2283.996	14970.8625
2286.87094	14981.4625
2289.74405	14956.2625
2292.61534	14941.3625
2295.4848	14911.4625
2298.35243	14970.5625
2301.21824	14993.3625
2304.08223	15023.4625
2306.94439	14999.8625
2309.80474	15033.4625
2312.66327	15048.5625
2315.51999	15018.2625
2318.37489	15012.9625
2321.22797	14983.6625
2324.07925	15010.0625
2326.92871	15002.6625
2329.77637	14984.7625
2332.62222	14961.3625
2335.46626	14973.5625
2338.3085	14951.6625
2341.14893	14968.1625
2343.98756	14999.0625
2346.8244	14973.6625
2349.65943	14977.8625
2352.49267	14949.2625
2355.32411	14964.2625
2358.15376	14948.2625
2360.98161	14926.8625
2363.80768	14919.0625
2366.63195	14886.2625
2369.45444	14875.2625
2372.27514	14863.0625
2375.09405	14851.4625
2377.91118	14829.5625
2380.72652	14830.3625
2383.54009	14782.0625
2386.35187	14765.3625
2389.16188	14723.2625
2391.97011	14732.2625
2394.77657	14710.3625
2397.58125	14702.4625
2400.38416	14700.0625
2403.18529	14675.3625
2405.98466	14669.6625
2408.78226	14619.2625
2411.57809	14609.9625
2414.37216	14597.0625
2417.16446	14560.7625
2419.955	14545.5625
2422.74378	14573.1625
2425.5308	14558.8625
2428.31606	14552.5625
2431.09956	14563.4625
2433.88131	14531.8625
2436.6613	14549.6625
2439.43954	14541.0625
2442.21603	14550.7625
2444.99077	14556.4625
2447.76377	14551.0625
2450.53501	14586.1625
2453.30451	14570.2625
2456.07226	14565.3625
2458.83827	14536.6625
2461.60254	14575.1625
2464.36507	14569.0625
2467.12586	14568.9625
2469.88492	14590.1625
2472.64224	14605.7625
2475.39782	14601.6625
2478.15167	14627.9625
2480.90379	14630.4625
2483.65417	14623.6625
2486.40283	14634.3625
2489.14976	14636.2625
2491.89497	14618.0625
2494.63845	14644.6625
2497.3802	14630.8625
2500.12024	14648.3625
2502.85855	14642.5625
2505.59514	14652.6625
2508.33002	14601.7625
2511.06318	14617.6625
2513.79462	14596.2625
2516.52435	14593.8625
2519.25237	14577.3625
2521.97867	14579.5625
2524.70327	14614.8625
2527.42616	14576.2625
2530.14734	14573.7625
2532.86681	14586.5625
2535.58458	14598.6625
2538.30065	14585.0625
2541.01501	14586.3625
2543.72768	14521.5625
2546.43864	14561.9625
2549.14791	14539.2625
2551.85548	14528.7625
2554.56136	14513.2625
2557.26554	14499.1625
2559.96803	14519.3625
2562.66883	14537.8625
2565.36794	14523.7625
2568.06536	14521.5625
2570.7611	14490.0625
2573.45514	14504.3625
2576.14751	14528.0625
2578.83819	14476.1625
2581.52719	14486.0625
2584.21451	14481.6625
2586.90015	14468.5625
2589.58411	14449.3625
2592.2664	14457.2625
2594.94701	14424.8625
2597.62594	14450.9625
2600.30321	14434.3625
2602.9788	14475.6625
2605.65273	14483.2625
2608.32498	14470.3625
2610.99557	14484.1625
2613.66449	14480.1625
2616.33175	14485.4625
2618.99734	14474.8625
2621.66128	14468.5625
2624.32355	14485.6625
2626.98416	14478.4625
2629.64311	14469.7625
2632.30041	14440.6625
2634.95605	14418.9625
2637.61004	14372.7625
2640.26238	14379.5625
2642.91306	14372.8625
2645.56209	14373.8625
2648.20948	14379.4625
2650.85521	14357.8625
2653.4993	14382.6625
2656.14175	14390.1625
2658.78255	14365.7625
2661.42171	14388.5625
2664.05923	14446.9625
2666.6951	14451.6625
2669.32934	14517.0625
2671.96194	14507.2625
2674.59291	14486.4625
2677.22224	14463.6625
2679.84993	14475.8625
2682.476	14461.7625
2685.10043	14442.2625
2687.72324	14416.0625
2690.34441	14442.7625
2692.96396	14436.2625
2695.58188	14428.3625
2698.19818	14373.2625
2700.81285	14400.0625
2703.4259	14379.0625
2706.03733	14355.2625
2708.64714	14410.7625
2711.25533	14488.9625
2713.86191	14427.5625
2716.46687	14480.6625
2719.07021	14503.7625
2721.67194	14538.4625
2724.27206	14535.9625
2726.87057	14549.0625
2729.46747	14544.1625
2732.06276	14563.3625
2734.65644	14577.5625
2737.24852	14571.2625
2739.83899	14545.7625
2742.42786	14585.2625
2745.01513	14551.6625
2747.60079	14553.4625
2750.18486	14560.2625
2752.76733	14560.7625
2755.3482	14557.3625
2757.92747	14540.2625
2760.50515	14537.4625
2763.08123	14545.6625
2765.65573	14516.5625
2768.22863	14532.3625
2770.79994	14532.8625
2773.36967	14516.1625
2775.9378	14499.1625
2778.50435	14493.0625
2781.06932	14512.5625
2783.6327	14545.0625
2786.1945	14545.2625
2788.75471	14519.9625
2791.31335	14504.1625
2793.87041	14474.7625
2796.42589	14454.6625
2798.97979	14439.8625
2801.53212	14413.8625
2804.08288	14413.8625
2806.63206	14403.3625
2809.17967	14387.1625
2811.72571	14320.4625
2814.27018	14317.0625
2816.81308	14303.1625
2819.35442	14310.5625
2821.89419	14285.6625
2824.43239	14300.4625
2826.96904	14255.7625
2829.50412	14287.3625
2832.03763	14284.9625
2834.56959	14281.2625
2837.1	14270.2625
2839.62884	14267.9625
2842.15613	14229.5625
2844.68186	14211.8625
2847.20604	14228.3625
2849.72867	14254.6625
2852.24974	14230.5625
2854.76927	14241.9625
2857.28724	14207.7625
2859.80367	14202.9625
2862.31855	14218.7625
2864.83189	14197.9625
2867.34368	14159.5625
2869.85393	14181.4625
2872.36264	14196.5625
2874.8698	14202.6625
2877.37543	14193.1625
2879.87952	14183.8625
2882.38207	14190.2625
2884.88308	14163.5625
2887.38256	14235.3625
2889.88051	14210.7625
2892.37692	14258.0625
2894.8718	14251.3625
2897.36515	14294.5625
2899.85698	14288.5625
2902.34727	14281.7625
2904.83604	14345.6625
2907.32328	14328.0625
2909.809	14355.9625
2912.29319	14379.1625
2914.77587	14381.1625
2917.25702	14401.2625
2919.73665	14358.5625
2922.21476	14377.7625
2924.69136	14371.6625
2927.16644	14361.1625
2929.64	14354.2625
2932.11205	14321.5625
2934.58258	14287.6625
2937.05161	14301.3625
2939.51912	14330.2625
2941.98513	14329.0625
2944.44962	14285.6625
2946.91261	14247.5625
2949.37409	14295.7625
2951.83407	14265.0625
2954.29254	14292.0625
2956.74951	14278.7625
2959.20498	14239.3625
2961.65895	14254.4625
2964.11142	14228.4625
2966.56239	14189.1625
2969.01186	14177.6625
2971.45984	14189.3625
2973.90632	14173.7625
2976.35131	14145.9625
2978.7948	14114.9625
2981.23681	14076.3625
2983.67732	14073.2625
2986.11635	14032.9625
2988.55388	14005.7625
2990.98993	14011.7625
2993.4245	13978.9625
2995.85758	13957.5625
2998.28917	13914.5625
3000.71928	13930.2625
3003.14791	13895.5625
3005.57506	13879.7625
3008.00073	13831.7625
3010.42493	13820.6625
3012.84764	13815.4625
3015.26888	13823.3625
3017.68865	13789.6625
3020.10694	13777.7625
3022.52376	13757.3625
3024.9391	13736.4625
