Data from AgNPs_FTO_APTES_UA_50uM_CRN_10uM_R6G_10uM_NaF_0.1M_Addition_RamanShift__23__13-40-14-891.txt Node

Date: Mon Feb 21 13:40:14 GMT 2022
User: TCL
Spectrometer: QEP01345
Trigger mode: 4
Integration Time (sec): 7.000000E0
Scans to average: 10
Electric dark correction enabled: true
Nonlinearity correction enabled: false
Boxcar width: 0
XAxis mode: Raman Shifts
Number of Pixels in Spectrum: 1044
>>>>>Begin Spectral Data<<<<<
46.04893	1.025
50.45542	-1.775
54.85868	-0.875
59.25871	-1.275
63.6555	74.025
68.04907	81.225
72.43941	78.625
76.82654	83.725
81.21044	88.625
85.59113	93.025
89.96862	96.125
94.34289	101.525
98.71396	101.125
103.08183	107.825
107.4465	108.725
111.80798	109.625
116.16626	112.525
120.52136	111.125
124.87327	126.525
129.222	128.725
133.56755	135.825
137.90993	148.225
142.24913	162.025
146.58517	178.425
150.91804	209.925
155.24774	254.525
159.57429	310.225
163.89768	403.525
168.21792	546.925
172.53501	740.825
176.84895	1047.725
181.15975	1460.825
185.46741	2049.025
189.77193	2832.125
194.07331	3789.125
198.37157	4890.025
202.6667	6038.625
206.9587	7251.925
211.24758	8422.425
215.53334	9736.825
219.81599	11160.925
224.09553	12821.225
228.37195	14649.625
232.64527	16650.725
236.91549	18558.125
241.18261	20266.425
245.44663	21548.725
249.70755	22543.125
253.96539	23356.125
258.22014	24123.225
262.4718	24754.625
266.72039	25197.225
270.96589	25310.525
275.20832	25034.225
279.44768	24492.725
283.68397	23968.325
287.91719	23658.825
292.14735	23795.325
296.37445	24349.925
300.59849	25452.525
304.81948	26768.825
309.03742	27675.925
313.25231	27663.125
317.46415	26347.525
321.67296	24219.425
325.87872	22469.125
330.08145	21605.825
334.28114	21568.225
338.47781	21980.825
342.67145	22643.825
346.86207	23667.925
351.04966	25183.625
355.23424	26882.725
359.4158	28202.125
363.59435	28812.425
367.76989	28943.425
371.94243	28713.225
376.11196	28429.625
380.27849	28195.925
384.44203	27879.025
388.60257	27546.025
392.76012	27317.925
396.91468	27511.625
401.06626	28173.425
405.21485	28634.025
409.36047	27941.025
413.50311	26320.525
417.64277	24743.325
421.77947	23862.825
425.9132	23511.025
430.04396	23480.525
434.17176	23580.025
438.2966	23964.725
442.41849	24702.625
446.53742	25687.125
450.6534	26545.625
454.76644	27126.325
458.87653	27227.225
462.98368	26877.225
467.08789	26326.225
471.18916	25645.025
475.2875	24959.825
479.38291	24364.225
483.4754	23927.925
487.56496	23442.225
491.6516	23142.925
495.73531	22904.225
499.81612	22960.325
503.89401	23281.425
507.96899	23617.825
512.04106	23960.325
516.11023	24338.225
520.1765	24534.825
524.23987	24448.625
528.30034	24133.725
532.35792	23798.325
536.41261	23311.625
540.46441	22788.325
544.51333	22469.025
548.55936	22614.325
552.60252	23206.225
556.64279	23974.325
560.6802	24445.725
564.71473	25008.025
568.7464	26295.025
572.7752	27007.625
576.80114	26229.425
580.82422	25321.925
584.84444	25079.925
588.86181	25457.725
592.87633	26157.725
596.888	26808.425
600.89682	27449.025
604.9028	30411.525
608.90594	39454.225
612.90624	50891.725
616.90371	47468.425
620.89834	32135.825
624.89015	25081.525
628.87913	23989.325
632.86528	24303.725
636.84862	24758.425
640.82913	24199.025
644.80683	22649.025
648.78172	21579.825
652.75379	21508.725
656.72306	22553.525
660.68952	23826.925
664.65319	23459.325
668.61405	22099.125
672.57211	21624.825
676.52738	21734.825
680.47986	21749.925
684.42955	21415.025
688.37646	21179.225
692.32058	21196.725
696.26192	21391.625
700.20048	21704.825
704.13626	21897.225
708.06928	21744.725
711.99952	21427.425
715.927	21339.225
719.85171	21537.325
723.77365	21598.525
727.69284	21400.325
731.60928	21175.425
735.52295	21166.125
739.43388	21307.325
743.34206	21466.025
747.24749	21570.725
751.15017	21655.425
755.05012	22110.025
758.94733	23492.225
762.8418	26873.025
766.73354	32625.025
770.62254	38151.325
774.50882	40446.325
778.39237	38193.225
782.27321	32454.725
786.15132	26975.525
790.02671	23590.925
793.89938	22036.025
797.76935	21391.325
801.6366	21133.625
805.50115	20953.225
809.36299	20757.925
813.22213	20549.325
817.07857	20454.225
820.93231	20405.225
824.78336	20408.025
828.63172	20538.725
832.47738	20579.125
836.32036	20539.625
840.16066	20428.325
843.99827	20388.925
847.8332	20285.725
851.66546	20197.425
855.49504	20240.225
859.32195	20232.825
863.1462	20139.925
866.96777	20096.425
870.78668	20051.925
874.60293	20087.525
878.41652	20140.725
882.22745	20354.425
886.03573	20507.625
889.84136	20485.625
893.64433	20370.925
897.44466	20277.925
901.24235	20200.525
905.0374	20072.425
908.8298	19842.825
912.61957	19712.725
916.40671	19766.625
920.19121	20063.225
923.97308	20414.325
927.75233	20787.925
931.52895	21058.225
935.30295	20754.125
939.07433	20025.525
942.84309	19406.325
946.60924	19115.925
950.37278	18950.825
954.13371	18851.325
957.89203	18735.325
961.64774	18629.625
965.40086	18570.625
969.15137	18461.125
972.89929	18355.825
976.64461	18337.525
980.38733	18327.525
984.12747	18423.025
987.86502	18596.225
991.59999	18899.825
995.33237	19408.925
999.06217	20225.525
1002.78939	21193.525
1006.51404	22059.825
1010.23611	22635.925
1013.95561	22870.425
1017.67255	22840.325
1021.38692	22435.625
1025.09872	21985.025
1028.80796	21926.025
1032.51465	22385.925
1036.21877	22879.825
1039.92035	23079.325
1043.61937	22911.625
1047.31584	22432.925
1051.00976	21833.825
1054.70114	21443.025
1058.38998	21228.625
1062.07627	21294.725
1065.76003	21344.725
1069.44126	21471.725
1073.11995	21751.725
1076.79611	22201.525
1080.46974	22833.625
1084.14085	23667.125
1087.80943	24505.325
1091.47549	24844.925
1095.13903	24356.525
1098.80005	23454.025
1102.45857	22706.125
1106.11456	22430.625
1109.76805	22702.625
1113.41903	23472.525
1117.06751	24522.225
1120.71348	25946.125
1124.35696	27402.925
1127.99793	28558.225
1131.63641	28179.825
1135.2724	26632.225
1138.90589	25217.225
1142.5369	24287.825
1146.16542	23647.025
1149.79145	23325.425
1153.415	23269.825
1157.03607	23579.025
1160.65467	24234.825
1164.27079	25490.325
1167.88443	27415.725
1171.49561	30260.325
1175.10432	34638.325
1178.71056	40496.125
1182.31434	45591.725
1185.91565	47251.825
1189.51451	45630.425
1193.11091	42354.325
1196.70485	38798.425
1200.29634	36060.425
1203.88538	33829.125
1207.47197	31405.525
1211.05612	29339.625
1214.63782	28205.525
1218.21708	27850.125
1221.79391	28067.825
1225.36829	28260.125
1228.94024	28051.825
1232.50976	27428.425
1236.07685	27000.725
1239.6415	26718.425
1243.20374	26652.025
1246.76355	26849.025
1250.32093	27284.025
1253.8759	28063.325
1257.42845	29320.025
1260.97859	30638.925
1264.52631	32048.225
1268.07163	33528.925
1271.61453	34887.425
1275.15503	36041.825
1278.69312	36917.625
1282.22882	37689.825
1285.76211	38888.425
1289.29301	40441.725
1292.82151	42254.625
1296.34761	44478.125
1299.87133	47867.925
1303.39266	53003.225
1306.9116	60193.125
1310.42815	67500.025
1313.94233	70548.025
1317.45412	67582.425
1320.96354	61863.425
1324.47058	56313.425
1327.97525	51978.825
1331.47754	49223.925
1334.97747	48247.725
1338.47502	48544.825
1341.97022	49822.925
1345.46305	51790.225
1348.95352	54515.625
1352.44163	58265.325
1355.92738	64211.625
1359.41078	73883.625
1362.89183	82278.625
1366.37053	78261.725
1369.84688	64134.625
1373.32088	51569.925
1376.79254	44382.125
1380.26186	40751.725
1383.72883	38811.325
1387.19347	37377.625
1390.65578	36212.525
1394.11575	35664.325
1397.57339	35913.125
1401.0287	36343.925
1404.48168	36887.525
1407.93234	37198.525
1411.38068	37205.025
1414.82669	36798.225
1418.27039	35916.525
1421.71177	34687.925
1425.15083	33579.625
1428.58758	33166.325
1432.02203	33581.625
1435.45416	34260.325
1438.88399	34775.725
1442.31151	35020.125
1445.73673	35331.325
1449.15965	35762.825
1452.58027	35906.125
1455.9986	35845.025
1459.41463	36039.625
1462.82837	36704.025
1466.23982	37718.425
1469.64898	38592.725
1473.05586	38958.525
1476.46045	39046.925
1479.86276	39010.725
1483.26279	39422.825
1486.66054	40187.625
1490.05602	41403.725
1493.44922	43268.325
1496.84016	46090.525
1500.22882	50851.025
1503.61521	58098.125
1506.99934	66566.225
1510.38121	73056.225
1513.76081	73295.425
1517.13816	66609.525
1520.51324	56771.425
1523.88607	48574.025
1527.25665	43573.225
1530.62498	40901.325
1533.99105	39422.325
1537.35488	38366.725
1540.71647	37530.425
1544.07581	36977.425
1547.4329	36679.325
1550.78776	36461.725
1554.14038	36561.925
1557.49077	36904.125
1560.83892	37655.625
1564.18484	38730.625
1567.52853	40005.625
1570.86999	41031.325
1574.20922	41627.225
1577.54624	41222.925
1580.88103	39075.125
1584.2136	36590.025
1587.54395	35818.125
1590.87208	37105.225
1594.19801	40149.125
1597.52172	43766.025
1600.84321	45016.825
1604.16251	42892.025
1607.47959	39179.025
1610.79447	35292.525
1614.10715	31694.825
1617.41763	28853.525
1620.7259	27003.525
1624.03199	26230.225
1627.33587	26451.825
1630.63757	27644.025
1633.93707	30006.125
1637.23439	33649.725
1640.52951	39083.825
1643.82246	46115.325
1647.11321	53196.525
1650.40179	56411.425
1653.68819	52510.925
1656.97241	43378.725
1660.25446	34341.625
1663.53433	28129.625
1666.81203	24490.925
1670.08756	22421.125
1673.36092	21182.125
1676.63211	20374.025
1679.90115	19768.825
1683.16801	19337.725
1686.43272	19023.225
1689.69527	18787.725
1692.95567	18563.225
1696.2139	18323.425
1699.46999	18171.525
1702.72392	18100.425
1705.97571	18134.225
1709.22535	18181.725
1712.47284	18166.325
1715.71819	18200.025
1718.96139	18128.625
1722.20246	17996.025
1725.44139	17859.825
1728.67818	17687.325
1731.91284	17498.225
1735.14537	17388.025
1738.37576	17272.625
1741.60403	17213.525
1744.83017	17138.825
1748.05418	17075.425
1751.27607	16979.525
1754.49584	16927.725
1757.71349	16806.925
1760.92903	16754.925
1764.14244	16706.025
1767.35375	16640.025
1770.56294	16571.925
1773.77002	16550.325
1776.97499	16526.925
1780.17785	16478.025
1783.37861	16486.425
1786.57727	16459.125
1789.77382	16454.625
1792.96828	16406.125
1796.16064	16384.625
1799.3509	16327.325
1802.53907	16332.725
1805.72514	16274.625
1808.90913	16194.425
1812.09102	16140.125
1815.27083	16107.625
1818.44856	16039.925
1821.6242	16049.025
1824.79776	16046.825
1827.96924	16025.925
1831.13864	16047.525
1834.30597	15985.125
1837.47122	15980.525
1840.6344	15953.425
1843.7955	15967.125
1846.95454	15919.325
1850.11151	15966.725
1853.26642	15951.725
1856.41926	15919.125
1859.57004	15954.425
1862.71876	15956.325
1865.86542	15924.325
1869.01003	15954.725
1872.15258	15962.125
1875.29308	15965.225
1878.43152	15935.225
1881.56792	15986.325
1884.70227	16037.825
1887.83457	16026.425
1890.96482	16025.925
1894.09304	16015.025
1897.21921	16033.125
1900.34335	16028.025
1903.46544	16029.925
1906.58551	16028.225
1909.70353	15992.525
1912.81953	15949.425
1915.93349	15931.725
1919.04543	15882.825
1922.15534	15800.725
1925.26322	15755.125
1928.36908	15677.325
1931.47292	15655.225
1934.57473	15534.325
1937.67453	15472.225
1940.77232	15411.225
1943.86808	15327.125
1946.96184	15297.925
1950.05358	15232.525
1953.14331	15170.725
1956.23103	15123.025
1959.31675	15088.125
1962.40046	15077.325
1965.48217	15019.125
1968.56188	15006.825
1971.63959	14981.425
1974.7153	14923.425
1977.78901	14877.925
1980.86073	14818.125
1983.93046	14736.825
1986.99819	14680.925
1990.06394	14589.925
1993.1277	14575.725
1996.18947	14507.725
1999.24925	14496.825
2002.30706	14436.825
2005.36288	14378.125
2008.41672	14357.125
2011.46859	14298.225
2014.51848	14263.125
2017.56639	14210.025
2020.61233	14188.325
2023.6563	14150.325
2026.6983	14119.525
2029.73833	14103.725
2032.7764	14087.125
2035.8125	14073.525
2038.84664	14041.825
2041.87881	14057.125
2044.90903	13996.825
2047.93729	13992.725
2050.96359	13966.725
2053.98794	13945.825
2057.01034	13917.625
2060.03078	13899.725
2063.04927	13874.225
2066.06582	13876.125
2069.08042	13842.625
2072.09307	13808.025
2075.10378	13830.125
2078.11255	13809.125
2081.11938	13795.725
2084.12426	13774.325
2087.12722	13776.525
2090.12824	13744.025
2093.12732	13733.625
2096.12447	13767.225
2099.11969	13738.625
2102.11299	13763.425
2105.10435	13764.925
2108.09379	13766.025
2111.08131	13762.825
2114.0669	13781.425
2117.05057	13802.925
2120.03233	13828.625
2123.01216	13830.725
2125.99008	13855.225
2128.96609	13887.025
2131.94018	13854.025
2134.91236	13863.525
2137.88263	13832.825
2140.851	13853.225
2143.81746	13855.525
2146.78201	13804.425
2149.74466	13815.725
2152.7054	13799.125
2155.66425	13776.625
2158.6212	13776.125
2161.57625	13772.325
2164.52941	13786.725
2167.48067	13738.125
2170.43004	13732.225
2173.37752	13772.425
2176.32311	13750.825
2179.26681	13781.725
2182.20863	13759.325
2185.14856	13763.525
2188.08661	13799.125
2191.02278	13769.625
2193.95707	13756.225
2196.88948	13772.825
2199.82001	13764.025
2202.74867	13753.825
2205.67545	13773.325
2208.60037	13751.825
2211.52341	13726.825
2214.44458	13702.525
2217.36388	13688.125
2220.28132	13649.125
2223.1969	13647.725
2226.11061	13624.725
2229.02246	13579.425
2231.93245	13565.825
2234.84058	13507.125
2237.74686	13509.725
2240.65128	13510.025
2243.55385	13510.525
2246.45456	13481.225
2249.35343	13484.225
2252.25044	13453.025
2255.14561	13477.525
2258.03893	13459.325
2260.93041	13431.125
2263.82004	13436.925
2266.70783	13401.025
2269.59378	13349.425
2272.4779	13332.325
2275.36017	13292.525
2278.24061	13280.225
2281.11922	13217.625
2283.996	13185.625
2286.87094	13169.425
2289.74405	13159.425
2292.61534	13129.425
2295.4848	13111.325
2298.35243	13142.225
2301.21824	13126.025
2304.08223	13154.225
2306.94439	13163.225
2309.80474	13144.625
2312.66327	13187.925
2315.51999	13159.525
2318.37489	13155.225
2321.22797	13155.725
2324.07925	13159.625
2326.92871	13130.025
2329.77637	13102.625
2332.62222	13083.325
2335.46626	13100.425
2338.3085	13110.025
2341.14893	13133.525
2343.98756	13161.725
2346.8244	13150.225
2349.65943	13201.825
2352.49267	13193.625
2355.32411	13230.325
2358.15376	13250.325
2360.98161	13274.225
2363.80768	13262.225
2366.63195	13266.725
2369.45444	13255.325
2372.27514	13227.925
2375.09405	13188.525
2377.91118	13161.025
2380.72652	13118.625
2383.54009	13062.125
2386.35187	13003.125
2389.16188	12951.225
2391.97011	12925.725
2394.77657	12885.325
2397.58125	12845.425
2400.38416	12838.125
2403.18529	12808.025
2405.98466	12767.025
2408.78226	12738.325
2411.57809	12714.725
2414.37216	12694.425
2417.16446	12710.525
2419.955	12679.125
2422.74378	12678.525
2425.5308	12665.325
2428.31606	12664.225
2431.09956	12659.225
2433.88131	12663.925
2436.6613	12688.125
2439.43954	12727.925
2442.21603	12723.525
2444.99077	12678.325
2447.76377	12715.225
2450.53501	12718.825
2453.30451	12748.525
2456.07226	12778.825
2458.83827	12753.625
2461.60254	12752.225
2464.36507	12763.825
2467.12586	12740.725
2469.88492	12770.425
2472.64224	12749.625
2475.39782	12761.925
2478.15167	12757.425
2480.90379	12800.425
2483.65417	12849.825
2486.40283	12914.825
2489.14976	12956.625
2491.89497	12944.725
2494.63845	12979.025
2497.3802	12949.725
2500.12024	12960.625
2502.85855	12900.225
2505.59514	12879.625
2508.33002	12837.925
2511.06318	12804.725
2513.79462	12776.625
2516.52435	12732.925
2519.25237	12670.125
2521.97867	12638.825
2524.70327	12622.725
2527.42616	12607.325
2530.14734	12653.125
2532.86681	12625.925
2535.58458	12632.125
2538.30065	12631.825
2541.01501	12625.025
2543.72768	12592.125
2546.43864	12607.525
2549.14791	12638.325
2551.85548	12626.025
2554.56136	12603.625
2557.26554	12624.925
2559.96803	12604.725
2562.66883	12597.925
2565.36794	12600.925
2568.06536	12593.125
2570.7611	12586.525
2573.45514	12591.425
2576.14751	12582.525
2578.83819	12574.725
2581.52719	12561.625
2584.21451	12559.925
2586.90015	12572.825
2589.58411	12539.125
2592.2664	12542.125
2594.94701	12549.025
2597.62594	12525.425
2600.30321	12512.725
2602.9788	12537.825
2605.65273	12521.125
2608.32498	12551.325
2610.99557	12552.825
2613.66449	12579.425
2616.33175	12607.025
2618.99734	12626.625
2621.66128	12601.025
2624.32355	12583.025
2626.98416	12575.725
2629.64311	12559.325
2632.30041	12550.425
2634.95605	12560.025
2637.61004	12555.725
2640.26238	12535.325
2642.91306	12499.925
2645.56209	12463.525
2648.20948	12472.825
2650.85521	12439.325
2653.4993	12494.325
2656.14175	12481.725
2658.78255	12522.325
2661.42171	12511.325
2664.05923	12527.325
2666.6951	12555.225
2669.32934	12579.425
2671.96194	12551.225
2674.59291	12605.425
2677.22224	12608.325
2679.84993	12573.325
2682.476	12584.525
2685.10043	12565.725
2687.72324	12538.825
2690.34441	12511.125
2692.96396	12492.325
2695.58188	12509.325
2698.19818	12471.825
2700.81285	12472.225
2703.4259	12463.525
2706.03733	12422.125
2708.64714	12429.025
2711.25533	12476.825
2713.86191	12533.625
2716.46687	12528.925
2719.07021	12554.725
2721.67194	12586.525
2724.27206	12579.725
2726.87057	12600.725
2729.46747	12590.125
2732.06276	12597.825
2734.65644	12580.525
2737.24852	12562.825
2739.83899	12531.625
2742.42786	12517.725
2745.01513	12496.525
2747.60079	12540.425
2750.18486	12485.925
2752.76733	12508.425
2755.3482	12483.425
2757.92747	12487.325
2760.50515	12464.025
2763.08123	12497.525
2765.65573	12470.925
2768.22863	12484.825
2770.79994	12487.725
2773.36967	12459.225
2775.9378	12486.525
2778.50435	12475.725
2781.06932	12473.425
2783.6327	12517.425
2786.1945	12499.825
2788.75471	12471.025
2791.31335	12444.025
2793.87041	12464.825
2796.42589	12434.025
2798.97979	12456.525
2801.53212	12422.025
2804.08288	12423.825
2806.63206	12386.725
2809.17967	12353.325
2811.72571	12384.725
2814.27018	12381.725
2816.81308	12370.225
2819.35442	12394.925
2821.89419	12389.025
2824.43239	12402.225
2826.96904	12395.525
2829.50412	12397.925
2832.03763	12368.725
2834.56959	12369.025
2837.1	12357.625
2839.62884	12347.225
2842.15613	12336.425
2844.68186	12355.925
2847.20604	12361.125
2849.72867	12347.725
2852.24974	12317.625
2854.76927	12325.825
2857.28724	12342.425
2859.80367	12349.625
2862.31855	12379.625
2864.83189	12352.525
2867.34368	12375.025
2869.85393	12420.325
2872.36264	12421.125
2874.8698	12407.625
2877.37543	12417.725
2879.87952	12412.625
2882.38207	12420.025
2884.88308	12375.925
2887.38256	12396.525
2889.88051	12394.225
2892.37692	12416.925
2894.8718	12418.025
2897.36515	12441.325
2899.85698	12396.425
2902.34727	12435.225
2904.83604	12463.425
2907.32328	12459.425
2909.809	12478.025
2912.29319	12480.125
2914.77587	12476.125
2917.25702	12471.525
2919.73665	12422.725
2922.21476	12430.625
2924.69136	12402.325
2927.16644	12390.325
2929.64	12346.825
2932.11205	12311.425
2934.58258	12272.525
2937.05161	12276.925
2939.51912	12237.825
2941.98513	12242.925
2944.44962	12230.125
2946.91261	12193.725
2949.37409	12204.825
2951.83407	12206.025
2954.29254	12188.025
2956.74951	12162.025
2959.20498	12141.925
2961.65895	12121.225
2964.11142	12129.625
2966.56239	12082.125
2969.01186	12048.125
2971.45984	12028.425
2973.90632	11986.425
2976.35131	11957.825
2978.7948	11960.025
2981.23681	11925.325
2983.67732	11922.525
2986.11635	11861.925
2988.55388	11816.525
2990.98993	11823.925
2993.4245	11798.025
2995.85758	11771.525
2998.28917	11712.325
3000.71928	11720.925
3003.14791	11675.425
3005.57506	11700.725
3008.00073	11659.925
3010.42493	11644.625
3012.84764	11618.925
3015.26888	11620.625
3017.68865	11594.225
3020.10694	11572.425
3022.52376	11529.725
3024.9391	11505.925
3027.35298	11450.825
3029.76539	11477.625
3032.17632	11446.425
3034.5858	11401.625
3036.9938	11402.025
3039.40034	11378.325
3041.80542	11346.925
3044.20903	11322.725
3046.61118	11317.525
3049.01187	11305.025
3051.4111	11282.325
3053.80888	11240.225
3056.20519	11259.025
3058.60005	11219.025
3060.99345	11191.525
3063.3854	11166.325
3065.7759	11120.625
3068.16494	11069.325
3070.55254	11018.625
3072.93868	10992.525
3075.32338	10939.725
3077.70662	10921.025
3080.08842	10874.225
3082.46878	10873.125
3084.84769	10846.325
3087.22515	10829.025
3089.60118	10837.125
3091.97576	10844.525
3094.3489	10828.625
3096.72061	10821.525
3099.09087	10827.425
3101.4597	10775.425
3103.82709	10813.425
3106.19305	10775.425
3108.55757	10789.525
3110.92066	10734.325
3113.28232	10733.725
3115.64255	10704.725
3118.00134	10654.425
3120.35871	10665.825
3122.71466	10631.325
3125.06917	10605.725
3127.42226	10595.825
