Data from AgNPs_FTO_APTES_UA_50uM_CRN_0uM_R6G_10uM_NaF_0.1M_Addition_RamanShift__12__10-24-14-633.txt Node

Date: Mon Feb 21 10:24:14 GMT 2022
User: TCL
Spectrometer: QEP01345
Trigger mode: 4
Integration Time (sec): 7.000000E0
Scans to average: 10
Electric dark correction enabled: true
Nonlinearity correction enabled: false
Boxcar width: 0
XAxis mode: Raman Shifts
Number of Pixels in Spectrum: 1044
>>>>>Begin Spectral Data<<<<<
46.04893	1.6125
50.45542	-1.0875
54.85868	1.2125
59.25871	-1.7875
63.6555	26.2125
68.04907	32.8125
72.43941	31.2125
76.82654	35.7125
81.21044	36.0125
85.59113	40.7125
89.96862	38.7125
94.34289	45.2125
98.71396	42.8125
103.08183	48.1125
107.4465	47.1125
111.80798	42.8125
116.16626	44.2125
120.52136	42.0125
124.87327	49.3125
129.222	45.1125
133.56755	44.8125
137.90993	50.3125
142.24913	50.5125
146.58517	54.2125
150.91804	58.5125
155.24774	72.3125
159.57429	82.1125
163.89768	99.1125
168.21792	129.7125
172.53501	171.1125
176.84895	231.4125
181.15975	324.4125
185.46741	448.6125
189.77193	614.9125
194.07331	820.7125
198.37157	1053.8125
202.6667	1302.0125
206.9587	1545.9125
211.24758	1784.7125
215.53334	2029.4125
219.81599	2316.0125
224.09553	2603.5125
228.37195	2950.9125
232.64527	3312.7125
236.91549	3701.0125
241.18261	4030.4125
245.44663	4360.2125
249.70755	4626.8125
253.96539	4878.4125
258.22014	5066.6125
262.4718	5191.3125
266.72039	5269.8125
270.96589	5284.0125
275.20832	5247.3125
279.44768	5153.2125
283.68397	5031.1125
287.91719	4944.6125
292.14735	4905.0125
296.37445	4916.5125
300.59849	5042.4125
304.81948	5209.7125
309.03742	5362.2125
313.25231	5408.3125
317.46415	5273.9125
321.67296	4994.0125
325.87872	4732.5125
330.08145	4605.6125
334.28114	4595.4125
338.47781	4637.5125
342.67145	4732.2125
346.86207	4916.5125
351.04966	5120.7125
355.23424	5386.1125
359.4158	5625.8125
363.59435	5733.6125
367.76989	5769.9125
371.94243	5775.9125
376.11196	5737.1125
380.27849	5727.0125
384.44203	5697.9125
388.60257	5603.7125
392.76012	5584.8125
396.91468	5595.9125
401.06626	5690.2125
405.21485	5784.3125
409.36047	5695.2125
413.50311	5469.6125
417.64277	5244.2125
421.77947	5089.4125
425.9132	5027.4125
430.04396	4997.8125
434.17176	5048.1125
438.2966	5173.2125
442.41849	5340.2125
446.53742	5536.3125
450.6534	5726.4125
454.76644	5797.5125
458.87653	5779.9125
462.98368	5655.8125
467.08789	5546.7125
471.18916	5438.2125
475.2875	5291.1125
479.38291	5181.4125
483.4754	5090.4125
487.56496	5022.6125
491.6516	4987.2125
495.73531	4967.6125
499.81612	4970.8125
503.89401	4999.3125
507.96899	5065.2125
512.04106	5118.9125
516.11023	5218.7125
520.1765	5288.3125
524.23987	5311.8125
528.30034	5292.2125
532.35792	5236.0125
536.41261	5131.1125
540.46441	5039.4125
544.51333	4982.5125
548.55936	4979.4125
552.60252	5029.8125
556.64279	5115.2125
560.6802	5181.8125
564.71473	5208.8125
568.7464	5364.0125
572.7752	5456.8125
576.80114	5342.5125
580.82422	5173.3125
584.84444	5117.1125
588.86181	5233.0125
592.87633	5464.3125
596.888	5603.8125
600.89682	5591.2125
604.9028	5905.4125
608.90594	7157.8125
612.90624	8982.4125
616.90371	8897.2125
620.89834	6669.8125
624.89015	5419.1125
628.87913	5154.1125
632.86528	5166.0125
636.84862	5252.0125
640.82913	5172.4125
644.80683	4960.1125
648.78172	4827.8125
652.75379	4809.8125
656.72306	4928.4125
660.68952	5135.3125
664.65319	5084.6125
668.61405	4866.5125
672.57211	4771.9125
676.52738	4775.2125
680.47986	4751.2125
684.42955	4709.7125
688.37646	4649.2125
692.32058	4671.4125
696.26192	4715.5125
700.20048	4770.6125
704.13626	4769.1125
708.06928	4755.7125
711.99952	4729.8125
715.927	4732.0125
719.85171	4781.4125
723.77365	4806.3125
727.69284	4773.9125
731.60928	4736.3125
735.52295	4738.9125
739.43388	4758.4125
743.34206	4754.7125
747.24749	4788.5125
751.15017	4779.1125
755.05012	4812.5125
758.94733	4975.3125
762.8418	5363.5125
766.73354	6091.6125
770.62254	6851.4125
774.50882	7358.3125
778.39237	7267.2125
782.27321	6501.1125
786.15132	5620.9125
790.02671	5078.1125
793.89938	4831.5125
797.76935	4725.5125
801.6366	4702.2125
805.50115	4683.4125
809.36299	4698.8125
813.22213	4693.7125
817.07857	4667.1125
820.93231	4643.6125
824.78336	4635.9125
828.63172	4620.4125
832.47738	4616.0125
836.32036	4607.5125
840.16066	4599.8125
843.99827	4589.3125
847.8332	4596.9125
851.66546	4583.3125
855.49504	4560.0125
859.32195	4544.7125
863.1462	4550.7125
866.96777	4513.6125
870.78668	4518.8125
874.60293	4518.5125
878.41652	4541.0125
882.22745	4576.0125
886.03573	4606.4125
889.84136	4578.9125
893.64433	4547.8125
897.44466	4523.8125
901.24235	4488.0125
905.0374	4493.6125
908.8298	4439.3125
912.61957	4424.9125
916.40671	4413.2125
920.19121	4429.4125
923.97308	4466.6125
927.75233	4528.2125
931.52895	4575.8125
935.30295	4526.1125
939.07433	4413.3125
942.84309	4305.8125
946.60924	4260.3125
950.37278	4203.8125
954.13371	4192.0125
957.89203	4164.8125
961.64774	4151.9125
965.40086	4121.1125
969.15137	4121.6125
972.89929	4108.9125
976.64461	4099.0125
980.38733	4103.3125
984.12747	4094.5125
987.86502	4090.0125
991.59999	4110.6125
995.33237	4162.3125
999.06217	4225.6125
1002.78939	4333.8125
1006.51404	4384.6125
1010.23611	4435.6125
1013.95561	4485.8125
1017.67255	4461.0125
1021.38692	4398.3125
1025.09872	4294.1125
1028.80796	4247.9125
1032.51465	4208.5125
1036.21877	4207.0125
1039.92035	4239.1125
1043.61937	4259.6125
1047.31584	4279.9125
1051.00976	4287.7125
1054.70114	4271.9125
1058.38998	4271.9125
1062.07627	4267.0125
1065.76003	4283.0125
1069.44126	4279.4125
1073.11995	4289.6125
1076.79611	4357.1125
1080.46974	4439.7125
1084.14085	4555.6125
1087.80943	4652.0125
1091.47549	4672.5125
1095.13903	4595.2125
1098.80005	4431.8125
1102.45857	4289.0125
1106.11456	4280.5125
1109.76805	4302.5125
1113.41903	4393.7125
1117.06751	4540.3125
1120.71348	4764.6125
1124.35696	4996.2125
1127.99793	5187.7125
1131.63641	5185.7125
1135.2724	4957.5125
1138.90589	4717.8125
1142.5369	4532.1125
1146.16542	4424.7125
1149.79145	4363.0125
1153.415	4295.7125
1157.03607	4294.4125
1160.65467	4364.5125
1164.27079	4478.3125
1167.88443	4707.9125
1171.49561	5085.5125
1175.10432	5678.5125
1178.71056	6495.4125
1182.31434	7162.9125
1185.91565	7387.4125
1189.51451	7236.5125
1193.11091	6871.6125
1196.70485	6434.7125
1200.29634	6076.9125
1203.88538	5664.0125
1207.47197	5241.4125
1211.05612	4894.8125
1214.63782	4730.9125
1218.21708	4709.6125
1221.79391	4733.5125
1225.36829	4730.7125
1228.94024	4666.5125
1232.50976	4604.4125
1236.07685	4580.8125
1239.6415	4562.5125
1243.20374	4583.2125
1246.76355	4556.0125
1250.32093	4566.1125
1253.8759	4614.7125
1257.42845	4743.9125
1260.97859	4903.9125
1264.52631	5081.3125
1268.07163	5262.5125
1271.61453	5377.2125
1275.15503	5467.9125
1278.69312	5487.0125
1282.22882	5543.8125
1285.76211	5689.0125
1289.29301	5904.4125
1292.82151	6144.2125
1296.34761	6400.7125
1299.87133	6731.3125
1303.39266	7236.7125
1306.9116	8000.2125
1310.42815	8894.2125
1313.94233	9457.7125
1317.45412	9183.4125
1320.96354	8414.8125
1324.47058	7542.6125
1327.97525	6806.4125
1331.47754	6450.5125
1334.97747	6397.9125
1338.47502	6517.0125
1341.97022	6714.7125
1345.46305	6951.0125
1348.95352	7380.0125
1352.44163	8042.4125
1355.92738	9085.7125
1359.41078	10417.1125
1362.89183	11561.6125
1366.37053	11298.2125
1369.84688	9724.1125
1373.32088	8056.5125
1376.79254	6958.3125
1380.26186	6373.1125
1383.72883	5989.0125
1387.19347	5661.8125
1390.65578	5348.3125
1394.11575	5115.6125
1397.57339	5059.2125
1401.0287	5056.4125
1404.48168	5093.5125
1407.93234	5131.2125
1411.38068	5161.6125
1414.82669	5148.1125
1418.27039	5071.1125
1421.71177	4990.5125
1425.15083	4889.5125
1428.58758	4858.7125
1432.02203	4939.7125
1435.45416	5027.6125
1438.88399	5089.6125
1442.31151	5069.8125
1445.73673	5054.4125
1449.15965	5064.3125
1452.58027	5037.3125
1455.9986	4917.4125
1459.41463	4854.5125
1462.82837	4935.7125
1466.23982	5060.0125
1469.64898	5220.6125
1473.05586	5356.0125
1476.46045	5426.3125
1479.86276	5520.7125
1483.26279	5600.9125
1486.66054	5741.4125
1490.05602	5860.3125
1493.44922	6028.8125
1496.84016	6325.8125
1500.22882	6840.7125
1503.61521	7652.9125
1506.99934	8586.8125
1510.38121	9424.5125
1513.76081	9734.2125
1517.13816	9152.7125
1520.51324	7929.6125
1523.88607	6791.1125
1527.25665	6092.9125
1530.62498	5736.7125
1533.99105	5576.6125
1537.35488	5466.5125
1540.71647	5395.7125
1544.07581	5352.4125
1547.4329	5277.0125
1550.78776	5202.9125
1554.14038	5162.6125
1557.49077	5129.3125
1560.83892	5144.8125
1564.18484	5257.3125
1567.52853	5446.6125
1570.86999	5679.6125
1574.20922	5822.1125
1577.54624	5843.6125
1580.88103	5570.4125
1584.2136	5151.5125
1587.54395	4894.2125
1590.87208	4935.2125
1594.19801	5244.5125
1597.52172	5741.5125
1600.84321	6088.8125
1604.16251	6012.8125
1607.47959	5610.0125
1610.79447	5050.5125
1614.10715	4556.7125
1617.41763	4183.2125
1620.7259	3982.6125
1624.03199	3898.9125
1627.33587	3889.4125
1630.63757	3972.0125
1633.93707	4152.2125
1637.23439	4485.7125
1640.52951	5024.7125
1643.82246	5832.5125
1647.11321	6729.0125
1650.40179	7172.6125
1653.68819	6784.8125
1656.97241	5780.0125
1660.25446	4720.5125
1663.53433	3976.7125
1666.81203	3571.7125
1670.08756	3353.4125
1673.36092	3246.5125
1676.63211	3168.0125
1679.90115	3110.8125
1683.16801	3066.7125
1686.43272	3028.1125
1689.69527	2967.3125
1692.95567	2897.5125
1696.2139	2783.8125
1699.46999	2665.2125
1702.72392	2633.4125
1705.97571	2716.8125
1709.22535	2803.7125
1712.47284	2861.6125
1715.71819	2919.2125
1718.96139	2908.3125
1722.20246	2912.4125
1725.44139	2909.7125
1728.67818	2873.6125
1731.91284	2851.0125
1735.14537	2828.3125
1738.37576	2807.4125
1741.60403	2791.9125
1744.83017	2760.0125
1748.05418	2724.3125
1751.27607	2687.5125
1754.49584	2636.8125
1757.71349	2575.1125
1760.92903	2519.2125
1764.14244	2507.7125
1767.35375	2516.1125
1770.56294	2507.9125
1773.77002	2513.1125
1776.97499	2573.0125
1780.17785	2621.2125
1783.37861	2642.9125
1786.57727	2644.5125
1789.77382	2673.0125
1792.96828	2648.2125
1796.16064	2662.0125
1799.3509	2649.9125
1802.53907	2652.5125
1805.72514	2641.9125
1808.90913	2628.9125
1812.09102	2615.5125
1815.27083	2613.5125
1818.44856	2620.7125
1821.6242	2600.4125
1824.79776	2594.8125
1827.96924	2585.8125
1831.13864	2591.9125
1834.30597	2572.4125
1837.47122	2579.8125
1840.6344	2554.4125
1843.7955	2560.4125
1846.95454	2545.2125
1850.11151	2539.9125
1853.26642	2534.2125
1856.41926	2525.3125
1859.57004	2538.7125
1862.71876	2528.2125
1865.86542	2523.9125
1869.01003	2529.6125
1872.15258	2522.8125
1875.29308	2498.6125
1878.43152	2500.3125
1881.56792	2500.9125
1884.70227	2481.5125
1887.83457	2485.1125
1890.96482	2481.1125
1894.09304	2473.2125
1897.21921	2467.2125
1900.34335	2460.7125
1903.46544	2474.6125
1906.58551	2466.4125
1909.70353	2467.8125
1912.81953	2452.7125
1915.93349	2447.2125
1919.04543	2439.0125
1922.15534	2435.3125
1925.26322	2418.5125
1928.36908	2412.2125
1931.47292	2402.1125
1934.57473	2411.5125
1937.67453	2382.0125
1940.77232	2368.7125
1943.86808	2362.8125
1946.96184	2361.6125
1950.05358	2332.7125
1953.14331	2346.6125
1956.23103	2336.8125
1959.31675	2320.3125
1962.40046	2314.8125
1965.48217	2311.1125
1968.56188	2310.9125
1971.63959	2295.9125
1974.7153	2299.1125
1977.78901	2283.7125
1980.86073	2269.7125
1983.93046	2257.8125
1986.99819	2247.9125
1990.06394	2235.9125
1993.1277	2231.6125
1996.18947	2218.2125
1999.24925	2202.5125
2002.30706	2194.3125
2005.36288	2189.8125
2008.41672	2179.3125
2011.46859	2176.9125
2014.51848	2162.2125
2017.56639	2160.7125
2020.61233	2146.0125
2023.6563	2156.0125
2026.6983	2134.6125
2029.73833	2128.0125
2032.7764	2113.7125
2035.8125	2101.7125
2038.84664	2103.5125
2041.87881	2100.7125
2044.90903	2088.1125
2047.93729	2079.2125
2050.96359	2074.1125
2053.98794	2074.7125
2057.01034	2075.0125
2060.03078	2063.2125
2063.04927	2056.2125
2066.06582	2057.9125
2069.08042	2049.5125
2072.09307	2049.5125
2075.10378	2035.3125
2078.11255	2033.3125
2081.11938	2048.1125
2084.12426	2044.1125
2087.12722	2035.6125
2090.12824	2040.9125
2093.12732	2030.3125
2096.12447	2032.6125
2099.11969	2028.0125
2102.11299	2028.6125
2105.10435	2028.7125
2108.09379	2015.5125
2111.08131	2025.7125
2114.0669	2020.7125
2117.05057	2011.9125
2120.03233	2022.7125
2123.01216	2021.2125
2125.99008	2027.2125
2128.96609	2026.4125
2131.94018	2013.3125
2134.91236	2025.8125
2137.88263	2011.2125
2140.851	2025.7125
2143.81746	2006.0125
2146.78201	2006.4125
2149.74466	2006.3125
2152.7054	2007.1125
2155.66425	1994.9125
2158.6212	1995.0125
2161.57625	1984.0125
2164.52941	1987.0125
2167.48067	1980.8125
2170.43004	1983.9125
2173.37752	1971.5125
2176.32311	1967.1125
2179.26681	1968.2125
2182.20863	1963.7125
2185.14856	1976.9125
2188.08661	1965.0125
2191.02278	1965.3125
2193.95707	1978.4125
2196.88948	1962.8125
2199.82001	1961.0125
2202.74867	1948.4125
2205.67545	1953.7125
2208.60037	1951.7125
2211.52341	1944.2125
2214.44458	1928.2125
2217.36388	1920.1125
2220.28132	1917.2125
2223.1969	1915.8125
2226.11061	1901.8125
2229.02246	1903.5125
2231.93245	1884.6125
2234.84058	1892.7125
2237.74686	1879.9125
2240.65128	1871.9125
2243.55385	1887.2125
2246.45456	1872.7125
2249.35343	1875.8125
2252.25044	1868.4125
2255.14561	1859.0125
2258.03893	1855.5125
2260.93041	1826.8125
2263.82004	1833.7125
2266.70783	1845.2125
2269.59378	1847.5125
2272.4779	1844.7125
2275.36017	1838.6125
2278.24061	1825.1125
2281.11922	1829.6125
2283.996	1823.6125
2286.87094	1808.9125
2289.74405	1804.0125
2292.61534	1793.1125
2295.4848	1792.1125
2298.35243	1782.5125
2301.21824	1775.2125
2304.08223	1779.3125
2306.94439	1778.6125
2309.80474	1771.1125
2312.66327	1775.4125
2315.51999	1770.2125
2318.37489	1769.7125
2321.22797	1758.4125
2324.07925	1758.8125
2326.92871	1757.3125
2329.77637	1750.9125
2332.62222	1735.3125
2335.46626	1738.0125
2338.3085	1727.8125
2341.14893	1721.9125
2343.98756	1720.4125
2346.8244	1728.8125
2349.65943	1721.6125
2352.49267	1722.0125
2355.32411	1731.1125
2358.15376	1731.1125
2360.98161	1723.0125
2363.80768	1733.2125
2366.63195	1739.6125
2369.45444	1738.8125
2372.27514	1730.9125
2375.09405	1723.9125
2377.91118	1725.0125
2380.72652	1719.6125
2383.54009	1710.9125
2386.35187	1713.4125
2389.16188	1694.3125
2391.97011	1682.4125
2394.77657	1684.8125
2397.58125	1670.9125
2400.38416	1676.1125
2403.18529	1660.5125
2405.98466	1655.7125
2408.78226	1656.3125
2411.57809	1644.3125
2414.37216	1641.8125
2417.16446	1643.2125
2419.955	1643.1125
2422.74378	1636.0125
2425.5308	1631.6125
2428.31606	1632.6125
2431.09956	1626.6125
2433.88131	1627.7125
2436.6613	1632.8125
2439.43954	1630.5125
2442.21603	1632.9125
2444.99077	1632.6125
2447.76377	1623.8125
2450.53501	1620.9125
2453.30451	1624.1125
2456.07226	1624.3125
2458.83827	1622.4125
2461.60254	1618.5125
2464.36507	1612.6125
2467.12586	1602.0125
2469.88492	1613.7125
2472.64224	1604.3125
2475.39782	1589.5125
2478.15167	1583.7125
2480.90379	1601.9125
2483.65417	1603.2125
2486.40283	1609.6125
2489.14976	1619.3125
2491.89497	1621.6125
2494.63845	1603.7125
2497.3802	1584.4125
2500.12024	1602.8125
2502.85855	1598.7125
2505.59514	1592.9125
2508.33002	1588.7125
2511.06318	1587.3125
2513.79462	1574.0125
2516.52435	1573.0125
2519.25237	1562.0125
2521.97867	1548.5125
2524.70327	1550.3125
2527.42616	1548.1125
2530.14734	1548.4125
2532.86681	1542.4125
2535.58458	1536.9125
2538.30065	1537.6125
2541.01501	1537.9125
2543.72768	1535.6125
2546.43864	1535.0125
2549.14791	1530.7125
2551.85548	1530.8125
2554.56136	1528.8125
2557.26554	1524.1125
2559.96803	1516.5125
2562.66883	1515.8125
2565.36794	1517.0125
2568.06536	1518.8125
2570.7611	1506.5125
2573.45514	1512.2125
2576.14751	1508.4125
2578.83819	1496.6125
2581.52719	1502.6125
2584.21451	1488.4125
2586.90015	1483.2125
2589.58411	1478.2125
2592.2664	1482.0125
2594.94701	1480.4125
2597.62594	1479.9125
2600.30321	1472.9125
2602.9788	1472.4125
2605.65273	1463.3125
2608.32498	1480.2125
2610.99557	1468.1125
2613.66449	1467.7125
2616.33175	1468.4125
2618.99734	1468.7125
2621.66128	1461.0125
2624.32355	1452.8125
2626.98416	1448.9125
2629.64311	1454.6125
2632.30041	1444.0125
2634.95605	1445.3125
2637.61004	1441.4125
2640.26238	1437.5125
2642.91306	1438.2125
2645.56209	1426.5125
2648.20948	1418.8125
2650.85521	1421.0125
2653.4993	1427.8125
2656.14175	1429.4125
2658.78255	1438.5125
2661.42171	1435.8125
2664.05923	1435.0125
2666.6951	1430.2125
2669.32934	1444.8125
2671.96194	1445.3125
2674.59291	1446.1125
2677.22224	1448.0125
2679.84993	1447.6125
2682.476	1432.3125
2685.10043	1440.1125
2687.72324	1434.5125
2690.34441	1430.3125
2692.96396	1430.5125
2695.58188	1440.9125
2698.19818	1428.7125
2700.81285	1425.4125
2703.4259	1397.0125
2706.03733	1301.0125
2708.64714	1352.8125
2711.25533	1394.0125
2713.86191	1415.6125
2716.46687	1422.3125
2719.07021	1435.4125
2721.67194	1452.2125
2724.27206	1450.0125
2726.87057	1453.3125
2729.46747	1443.7125
2732.06276	1449.8125
2734.65644	1453.8125
2737.24852	1451.4125
2739.83899	1446.2125
2742.42786	1435.8125
2745.01513	1440.8125
2747.60079	1439.8125
2750.18486	1437.7125
2752.76733	1434.6125
2755.3482	1435.1125
2757.92747	1439.5125
2760.50515	1431.4125
2763.08123	1434.5125
2765.65573	1435.8125
2768.22863	1429.1125
2770.79994	1429.4125
2773.36967	1438.9125
2775.9378	1420.6125
2778.50435	1432.9125
2781.06932	1439.3125
2783.6327	1442.8125
2786.1945	1434.3125
2788.75471	1443.2125
2791.31335	1438.7125
2793.87041	1441.3125
2796.42589	1444.7125
2798.97979	1445.9125
2801.53212	1443.7125
2804.08288	1444.5125
2806.63206	1446.8125
2809.17967	1451.1125
2811.72571	1448.4125
2814.27018	1454.9125
2816.81308	1450.7125
2819.35442	1459.0125
2821.89419	1455.0125
2824.43239	1454.9125
2826.96904	1457.7125
2829.50412	1465.9125
2832.03763	1468.5125
2834.56959	1469.9125
2837.1	1474.4125
2839.62884	1478.2125
2842.15613	1492.6125
2844.68186	1512.8125
2847.20604	1529.6125
2849.72867	1556.1125
2852.24974	1549.7125
2854.76927	1549.2125
2857.28724	1534.5125
2859.80367	1539.5125
2862.31855	1546.9125
2864.83189	1548.7125
2867.34368	1548.9125
2869.85393	1561.8125
2872.36264	1560.7125
2874.8698	1563.5125
2877.37543	1558.1125
2879.87952	1555.9125
2882.38207	1557.5125
2884.88308	1550.9125
2887.38256	1553.0125
2889.88051	1541.6125
2892.37692	1547.6125
2894.8718	1547.2125
2897.36515	1555.1125
2899.85698	1551.2125
2902.34727	1546.3125
2904.83604	1548.3125
2907.32328	1545.3125
2909.809	1552.9125
2912.29319	1557.4125
2914.77587	1549.5125
2917.25702	1535.6125
2919.73665	1544.4125
2922.21476	1535.4125
2924.69136	1535.3125
2927.16644	1523.0125
2929.64	1510.9125
2932.11205	1506.3125
2934.58258	1496.8125
2937.05161	1493.0125
2939.51912	1483.0125
2941.98513	1465.7125
2944.44962	1437.0125
2946.91261	1422.6125
2949.37409	1420.9125
2951.83407	1404.5125
2954.29254	1395.6125
2956.74951	1381.2125
2959.20498	1384.0125
2961.65895	1359.2125
2964.11142	1358.0125
2966.56239	1353.9125
2969.01186	1347.4125
2971.45984	1345.4125
2973.90632	1331.1125
2976.35131	1328.0125
2978.7948	1323.1125
2981.23681	1313.2125
2983.67732	1300.6125
2986.11635	1301.5125
2988.55388	1294.3125
2990.98993	1288.3125
2993.4245	1292.9125
2995.85758	1287.4125
2998.28917	1270.1125
3000.71928	1277.8125
3003.14791	1273.0125
3005.57506	1273.0125
3008.00073	1261.6125
3010.42493	1273.7125
3012.84764	1265.6125
3015.26888	1267.5125
3017.68865	1266.7125
3020.10694	1262.3125
3022.52376	1255.8125
3024.9391	1260.9125
3027.35298	1245.1125
3029.76539	1253.3125
3032.17632	1254.3125
3034.5858	1254.4125
3036.9938	1250.4125
3039.40034	1251.8125
3041.80542	1242.0125
3044.20903	1243.1125
3046.61118	1243.0125
3049.01187	1246.8125
3051.4111	1243.5125
3053.80888	1246.2125
3056.20519	1244.4125
3058.60005	1245.2125
3060.99345	1246.7125
3063.3854	1238.1125
3065.7759	1245.4125
3068.16494	1254.3125
3070.55254	1249.5125
3072.93868	1231.4125
3075.32338	1228.1125
3077.70662	1238.4125
3080.08842	1229.0125
3082.46878	1232.9125
3084.84769	1234.5125
3087.22515	1235.3125
3089.60118	1236.4125
3091.97576	1234.2125
3094.3489	1246.7125
3096.72061	1233.9125
3099.09087	1243.7125
3101.4597	1250.0125
3103.82709	1246.0125
3106.19305	1251.4125
3108.55757	1243.4125
3110.92066	1243.5125
3113.28232	1259.8125
3115.64255	1256.5125
3118.00134	1253.8125
3120.35871	1254.2125
3122.71466	1255.9125
3125.06917	1267.2125
