Data from AgNPs_FTO_APTES_UA_50uM_CRN_100uM_R6G_10uM_NaF_0.1M_Addition_RamanShift__2__15-18-15-015.txt Node

Date: Mon Feb 21 15:18:15 GMT 2022
User: TCL
Spectrometer: QEP01345
Trigger mode: 4
Integration Time (sec): 7.000000E0
Scans to average: 10
Electric dark correction enabled: true
Nonlinearity correction enabled: false
Boxcar width: 0
XAxis mode: Raman Shifts
Number of Pixels in Spectrum: 1044
>>>>>Begin Spectral Data<<<<<
46.04893	0.075
50.45542	-1.125
54.85868	0.075
59.25871	-0.825
63.6555	60.475
68.04907	64.975
72.43941	68.475
76.82654	68.975
81.21044	76.375
85.59113	74.975
89.96862	77.275
94.34289	83.175
98.71396	84.375
103.08183	90.275
107.4465	90.875
111.80798	94.475
116.16626	91.975
120.52136	92.275
124.87327	101.675
129.222	99.175
133.56755	100.575
137.90993	111.175
142.24913	116.875
146.58517	129.875
150.91804	153.975
155.24774	174.475
159.57429	215.075
163.89768	268.275
168.21792	352.075
172.53501	478.975
176.84895	663.875
181.15975	928.875
185.46741	1290.975
189.77193	1792.175
194.07331	2389.675
198.37157	3068.075
202.6667	3779.575
206.9587	4504.675
211.24758	5191.475
215.53334	5931.775
219.81599	6668.575
224.09553	7494.975
228.37195	8437.775
232.64527	9463.175
236.91549	10536.575
241.18261	11601.275
245.44663	12553.575
249.70755	13367.675
253.96539	14101.975
258.22014	14660.475
262.4718	15139.175
266.72039	15468.475
270.96589	15665.375
275.20832	15684.875
279.44768	15504.075
283.68397	15279.975
287.91719	15101.475
292.14735	14980.475
296.37445	15006.875
300.59849	15116.175
304.81948	15276.975
309.03742	15376.275
313.25231	15339.375
317.46415	15071.675
321.67296	14716.075
325.87872	14421.175
330.08145	14272.975
334.28114	14265.575
338.47781	14383.375
342.67145	14599.875
346.86207	14863.475
351.04966	15221.275
355.23424	15580.475
359.4158	15899.475
363.59435	16125.375
367.76989	16274.775
371.94243	16372.175
376.11196	16454.575
380.27849	16514.675
384.44203	16614.175
388.60257	16661.775
392.76012	16755.575
396.91468	16891.475
401.06626	17149.575
405.21485	17292.675
409.36047	17140.675
413.50311	16838.575
417.64277	16542.175
421.77947	16429.775
425.9132	16394.575
430.04396	16462.675
434.17176	16545.475
438.2966	16739.675
442.41849	17061.475
446.53742	17529.875
450.6534	17992.675
454.76644	18318.675
458.87653	18372.675
462.98368	18245.875
467.08789	17977.375
471.18916	17689.175
475.2875	17336.875
479.38291	17067.675
483.4754	16844.675
487.56496	16691.575
491.6516	16576.575
495.73531	16536.375
499.81612	16578.375
503.89401	16707.675
507.96899	16782.875
512.04106	16766.075
516.11023	16767.475
520.1765	16707.275
524.23987	16667.975
528.30034	16624.175
532.35792	16555.775
536.41261	16385.775
540.46441	16198.175
544.51333	16102.575
548.55936	16198.675
552.60252	16437.375
556.64279	16793.675
560.6802	16987.575
564.71473	17037.375
568.7464	17152.775
572.7752	17445.475
576.80114	17662.675
580.82422	17896.975
584.84444	18404.175
588.86181	19158.175
592.87633	19980.375
596.888	20311.875
600.89682	19870.475
604.9028	20029.275
608.90594	21858.175
612.90624	24104.875
616.90371	22793.975
620.89834	18916.575
624.89015	17175.775
628.87913	16952.775
632.86528	17040.075
636.84862	17064.775
640.82913	16820.375
644.80683	16377.975
648.78172	16094.175
652.75379	16072.975
656.72306	16330.375
660.68952	16650.475
664.65319	16536.475
668.61405	16214.075
672.57211	16178.475
676.52738	16310.175
680.47986	16296.975
684.42955	16149.475
688.37646	16003.475
692.32058	16068.075
696.26192	16262.875
700.20048	16477.575
704.13626	16574.275
708.06928	16483.275
711.99952	16343.675
715.927	16336.675
719.85171	16438.175
723.77365	16431.675
727.69284	16259.775
731.60928	16094.275
735.52295	16018.175
739.43388	16085.375
743.34206	16140.575
747.24749	16198.475
751.15017	16285.075
755.05012	16513.475
758.94733	16881.575
762.8418	17691.875
766.73354	19112.475
770.62254	20591.475
774.50882	21142.875
778.39237	20431.175
782.27321	18944.575
786.15132	17623.875
790.02671	16837.975
793.89938	16398.375
797.76935	16245.375
801.6366	16157.775
805.50115	16090.375
809.36299	15978.875
813.22213	15864.975
817.07857	15794.675
820.93231	15732.275
824.78336	15724.275
828.63172	15682.975
832.47738	15687.475
836.32036	15750.475
840.16066	15801.475
843.99827	15860.175
847.8332	15820.775
851.66546	15763.275
855.49504	15741.675
859.32195	15747.575
863.1462	15738.975
866.96777	15708.075
870.78668	15668.075
874.60293	15702.075
878.41652	15746.175
882.22745	15853.575
886.03573	15928.075
889.84136	15911.275
893.64433	15789.075
897.44466	15736.375
901.24235	15670.775
905.0374	15612.475
908.8298	15526.375
912.61957	15508.575
916.40671	15595.975
920.19121	15742.775
923.97308	15981.675
927.75233	16092.675
931.52895	16109.675
935.30295	15945.275
939.07433	15684.275
942.84309	15442.275
946.60924	15335.375
950.37278	15276.775
954.13371	15252.975
957.89203	15180.775
961.64774	15132.375
965.40086	15134.875
969.15137	15086.275
972.89929	15111.875
976.64461	15086.975
980.38733	15150.075
984.12747	15209.275
987.86502	15326.175
991.59999	15484.975
995.33237	15768.375
999.06217	16157.175
1002.78939	16621.775
1006.51404	16937.675
1010.23611	17154.975
1013.95561	17315.375
1017.67255	17314.575
1021.38692	17169.575
1025.09872	16981.075
1028.80796	17040.075
1032.51465	17361.275
1036.21877	17777.475
1039.92035	17899.575
1043.61937	17770.375
1047.31584	17407.775
1051.00976	17005.675
1054.70114	16724.575
1058.38998	16629.675
1062.07627	16646.875
1065.76003	16730.275
1069.44126	16822.775
1073.11995	17040.075
1076.79611	17283.375
1080.46974	17510.275
1084.14085	17708.975
1087.80943	17884.875
1091.47549	18002.975
1095.13903	17948.375
1098.80005	17660.775
1102.45857	17317.075
1106.11456	17149.975
1109.76805	17099.875
1113.41903	17164.575
1117.06751	17317.075
1120.71348	17573.175
1124.35696	17824.775
1127.99793	18087.075
1131.63641	18120.875
1135.2724	17994.075
1138.90589	17810.775
1142.5369	17663.675
1146.16542	17605.975
1149.79145	17571.075
1153.415	17602.975
1157.03607	17742.975
1160.65467	18143.875
1164.27079	18760.175
1167.88443	19621.075
1171.49561	20723.675
1175.10432	22180.375
1178.71056	24161.475
1182.31434	25979.975
1185.91565	26839.475
1189.51451	26576.075
1193.11091	25608.075
1196.70485	24498.675
1200.29634	23412.475
1203.88538	22630.475
1207.47197	21885.475
1211.05612	21235.875
1214.63782	20698.175
1218.21708	20431.675
1221.79391	20301.775
1225.36829	20363.275
1228.94024	20230.775
1232.50976	19933.175
1236.07685	19583.975
1239.6415	19345.375
1243.20374	19371.575
1246.76355	19489.375
1250.32093	19740.975
1253.8759	20101.075
1257.42845	20589.175
1260.97859	21163.375
1264.52631	21763.175
1268.07163	22437.475
1271.61453	23136.575
1275.15503	23751.775
1278.69312	24309.175
1282.22882	24754.275
1285.76211	25345.275
1289.29301	26016.875
1292.82151	26899.975
1296.34761	28139.475
1299.87133	29646.575
1303.39266	31585.175
1306.9116	33706.475
1310.42815	35610.175
1313.94233	36502.575
1317.45412	35950.975
1320.96354	34491.575
1324.47058	32839.075
1327.97525	31426.475
1331.47754	30515.975
1334.97747	30031.575
1338.47502	29749.275
1341.97022	29640.675
1345.46305	29704.575
1348.95352	30157.375
1352.44163	31013.075
1355.92738	32661.875
1359.41078	35043.475
1362.89183	36997.975
1366.37053	36486.275
1369.84688	33043.275
1373.32088	28923.575
1376.79254	26198.575
1380.26186	24985.275
1383.72883	24555.075
1387.19347	24255.375
1390.65578	23773.575
1394.11575	23544.975
1397.57339	23524.575
1401.0287	23667.075
1404.48168	23832.575
1407.93234	23806.575
1411.38068	23623.575
1414.82669	23299.175
1418.27039	22881.975
1421.71177	22321.975
1425.15083	21787.375
1428.58758	21592.675
1432.02203	21836.775
1435.45416	22253.475
1438.88399	22698.875
1442.31151	22923.375
1445.73673	23019.775
1449.15965	23109.875
1452.58027	23026.775
1455.9986	22891.975
1459.41463	22894.775
1462.82837	23203.075
1466.23982	23706.075
1469.64898	24206.775
1473.05586	24619.775
1476.46045	24861.175
1479.86276	24946.775
1483.26279	24978.575
1486.66054	25012.775
1490.05602	25315.575
1493.44922	25796.975
1496.84016	26364.275
1500.22882	27175.875
1503.61521	28350.475
1506.99934	29709.975
1510.38121	30823.075
1513.76081	30953.375
1517.13816	29820.075
1520.51324	28036.575
1523.88607	26538.275
1527.25665	25647.875
1530.62498	25255.375
1533.99105	24949.075
1537.35488	24616.575
1540.71647	24217.875
1544.07581	23721.675
1547.4329	23287.175
1550.78776	22982.575
1554.14038	22761.375
1557.49077	22704.175
1560.83892	22721.075
1564.18484	22768.875
1567.52853	23007.175
1570.86999	23288.175
1574.20922	23616.675
1577.54624	23728.375
1580.88103	23480.575
1584.2136	23109.075
1587.54395	23412.875
1590.87208	24380.275
1594.19801	25860.075
1597.52172	27409.375
1600.84321	28035.975
1604.16251	27211.075
1607.47959	25360.775
1610.79447	23321.275
1614.10715	21507.275
1617.41763	20092.775
1620.7259	19136.975
1624.03199	18713.375
1627.33587	18740.075
1630.63757	19189.075
1633.93707	20196.775
1637.23439	21847.275
1640.52951	24272.575
1643.82246	27300.375
1647.11321	29845.175
1650.40179	30494.275
1653.68819	28411.975
1656.97241	24861.075
1660.25446	21412.475
1663.53433	18973.275
1666.81203	17544.175
1670.08756	16664.375
1673.36092	16120.575
1676.63211	15780.775
1679.90115	15505.275
1683.16801	15335.775
1686.43272	15166.675
1689.69527	15076.175
1692.95567	14892.575
1696.2139	14761.875
1699.46999	14599.275
1702.72392	14523.675
1705.97571	14601.575
1709.22535	14663.775
1712.47284	14726.075
1715.71819	14743.375
1718.96139	14726.275
1722.20246	14697.275
1725.44139	14632.475
1728.67818	14570.775
1731.91284	14474.075
1735.14537	14411.475
1738.37576	14368.275
1741.60403	14340.675
1744.83017	14268.575
1748.05418	14259.775
1751.27607	14198.375
1754.49584	14125.075
1757.71349	14090.375
1760.92903	14062.675
1764.14244	14035.875
1767.35375	14032.775
1770.56294	13971.175
1773.77002	13946.175
1776.97499	13986.575
1780.17785	14021.175
1783.37861	14022.475
1786.57727	14021.675
1789.77382	13999.675
1792.96828	13976.075
1796.16064	13979.275
1799.3509	13955.175
1802.53907	13952.275
1805.72514	13919.975
1808.90913	13879.775
1812.09102	13815.775
1815.27083	13835.275
1818.44856	13842.375
1821.6242	13799.275
1824.79776	13792.075
1827.96924	13800.675
1831.13864	13789.675
1834.30597	13750.775
1837.47122	13766.775
1840.6344	13754.675
1843.7955	13788.275
1846.95454	13741.375
1850.11151	13735.975
1853.26642	13713.575
1856.41926	13694.675
1859.57004	13722.475
1862.71876	13708.175
1865.86542	13691.575
1869.01003	13687.375
1872.15258	13650.275
1875.29308	13645.475
1878.43152	13643.375
1881.56792	13642.775
1884.70227	13635.775
1887.83457	13626.775
1890.96482	13623.975
1894.09304	13610.175
1897.21921	13595.075
1900.34335	13560.975
1903.46544	13550.975
1906.58551	13544.475
1909.70353	13549.475
1912.81953	13526.175
1915.93349	13508.375
1919.04543	13475.975
1922.15534	13465.675
1925.26322	13450.375
1928.36908	13437.175
1931.47292	13386.075
1934.57473	13359.875
1937.67453	13342.575
1940.77232	13322.775
1943.86808	13306.375
1946.96184	13255.275
1950.05358	13222.575
1953.14331	13177.975
1956.23103	13176.575
1959.31675	13123.475
1962.40046	13072.375
1965.48217	13075.175
1968.56188	13045.275
1971.63959	13011.775
1974.7153	12972.375
1977.78901	12943.175
1980.86073	12900.475
1983.93046	12841.675
1986.99819	12787.075
1990.06394	12810.275
1993.1277	12767.075
1996.18947	12710.375
1999.24925	12687.275
2002.30706	12631.575
2005.36288	12611.275
2008.41672	12572.375
2011.46859	12529.775
2014.51848	12500.675
2017.56639	12484.475
2020.61233	12482.875
2023.6563	12451.575
2026.6983	12417.375
2029.73833	12390.275
2032.7764	12376.175
2035.8125	12366.875
2038.84664	12358.175
2041.87881	12382.775
2044.90903	12317.875
2047.93729	12278.875
2050.96359	12303.875
2053.98794	12282.775
2057.01034	12270.875
2060.03078	12281.575
2063.04927	12264.375
2066.06582	12250.075
2069.08042	12226.775
2072.09307	12229.775
2075.10378	12230.275
2078.11255	12238.175
2081.11938	12231.775
2084.12426	12197.175
2087.12722	12221.475
2090.12824	12214.275
2093.12732	12207.075
2096.12447	12222.375
2099.11969	12233.675
2102.11299	12218.975
2105.10435	12245.175
2108.09379	12215.075
2111.08131	12247.475
2114.0669	12249.975
2117.05057	12247.475
2120.03233	12270.075
2123.01216	12296.675
2125.99008	12316.575
2128.96609	12334.175
2131.94018	12335.675
2134.91236	12326.975
2137.88263	12339.675
2140.851	12390.575
2143.81746	12386.975
2146.78201	12384.275
2149.74466	12405.175
2152.7054	12377.475
2155.66425	12389.175
2158.6212	12402.275
2161.57625	12376.875
2164.52941	12376.675
2167.48067	12375.675
2170.43004	12339.175
2173.37752	12383.475
2176.32311	12356.175
2179.26681	12354.875
2182.20863	12380.475
2185.14856	12383.375
2188.08661	12393.675
2191.02278	12408.075
2193.95707	12385.275
2196.88948	12356.175
2199.82001	12389.175
2202.74867	12409.775
2205.67545	12399.375
2208.60037	12350.175
2211.52341	12348.475
2214.44458	12351.775
2217.36388	12319.875
2220.28132	12319.775
2223.1969	12303.975
2226.11061	12324.575
2229.02246	12258.175
2231.93245	12270.675
2234.84058	12265.475
2237.74686	12243.875
2240.65128	12237.475
2243.55385	12233.475
2246.45456	12192.475
2249.35343	12184.675
2252.25044	12161.675
2255.14561	12133.775
2258.03893	12110.575
2260.93041	12099.475
2263.82004	12084.575
2266.70783	12068.475
2269.59378	12045.875
2272.4779	12012.075
2275.36017	12004.475
2278.24061	11979.675
2281.11922	11976.875
2283.996	11942.375
2286.87094	11919.975
2289.74405	11918.375
2292.61534	11928.275
2295.4848	11917.675
2298.35243	11929.175
2301.21824	11931.375
2304.08223	11959.175
2306.94439	11928.175
2309.80474	11947.675
2312.66327	11947.675
2315.51999	11914.775
2318.37489	11924.375
2321.22797	11922.375
2324.07925	11922.075
2326.92871	11939.975
2329.77637	11896.875
2332.62222	11885.675
2335.46626	11886.175
2338.3085	11839.475
2341.14893	11870.775
2343.98756	11876.375
2346.8244	11867.175
2349.65943	11873.275
2352.49267	11867.575
2355.32411	11857.775
2358.15376	11850.575
2360.98161	11846.375
2363.80768	11856.375
2366.63195	11829.275
2369.45444	11782.675
2372.27514	11788.675
2375.09405	11781.975
2377.91118	11777.375
2380.72652	11781.775
2383.54009	11730.175
2386.35187	11717.475
2389.16188	11676.575
2391.97011	11662.975
2394.77657	11661.675
2397.58125	11671.175
2400.38416	11626.675
2403.18529	11604.675
2405.98466	11608.275
2408.78226	11572.975
2411.57809	11562.875
2414.37216	11559.975
2417.16446	11559.575
2419.955	11498.175
2422.74378	11545.675
2425.5308	11531.975
2428.31606	11543.175
2431.09956	11519.075
2433.88131	11519.475
2436.6613	11522.375
2439.43954	11517.075
2442.21603	11524.575
2444.99077	11545.375
2447.76377	11543.875
2450.53501	11516.475
2453.30451	11532.175
2456.07226	11515.675
2458.83827	11497.075
2461.60254	11487.675
2464.36507	11519.875
2467.12586	11529.775
2469.88492	11552.075
2472.64224	11562.775
2475.39782	11521.175
2478.15167	11509.775
2480.90379	11552.375
2483.65417	11525.375
2486.40283	11549.675
2489.14976	11559.975
2491.89497	11552.275
2494.63845	11530.875
2497.3802	11507.175
2500.12024	11527.375
2502.85855	11529.975
2505.59514	11525.575
2508.33002	11530.575
2511.06318	11482.275
2513.79462	11499.675
2516.52435	11470.375
2519.25237	11458.375
2521.97867	11443.175
2524.70327	11424.975
2527.42616	11451.575
2530.14734	11428.775
2532.86681	11448.675
2535.58458	11457.675
2538.30065	11433.575
2541.01501	11443.675
2543.72768	11431.775
2546.43864	11415.875
2549.14791	11406.175
2551.85548	11406.675
2554.56136	11375.875
2557.26554	11374.375
2559.96803	11373.775
2562.66883	11373.575
2565.36794	11357.475
2568.06536	11370.275
2570.7611	11324.875
2573.45514	11349.175
2576.14751	11340.575
2578.83819	11327.975
2581.52719	11307.575
2584.21451	11288.275
2586.90015	11305.675
2589.58411	11270.775
2592.2664	11278.375
2594.94701	11281.175
2597.62594	11251.275
2600.30321	11252.875
2602.9788	11253.075
2605.65273	11280.675
2608.32498	11284.875
2610.99557	11252.475
2613.66449	11241.975
2616.33175	11261.975
2618.99734	11270.975
2621.66128	11246.775
2624.32355	11258.275
2626.98416	11225.775
2629.64311	11243.475
2632.30041	11232.075
2634.95605	11193.375
2637.61004	11171.075
2640.26238	11140.075
2642.91306	11156.775
2645.56209	11167.475
2648.20948	11135.575
2650.85521	11143.975
2653.4993	11181.075
2656.14175	11134.375
2658.78255	11142.175
2661.42171	11140.375
2664.05923	11161.675
2666.6951	11204.475
2669.32934	11226.175
2671.96194	11199.675
2674.59291	11232.775
2677.22224	11187.975
2679.84993	11213.475
2682.476	11197.575
2685.10043	11204.075
2687.72324	11158.975
2690.34441	11190.675
2692.96396	11170.975
2695.58188	11184.075
2698.19818	11186.975
2700.81285	11167.275
2703.4259	11159.975
2706.03733	11102.075
2708.64714	11104.275
2711.25533	11163.675
2713.86191	11198.975
2716.46687	11226.975
2719.07021	11208.775
2721.67194	11254.975
2724.27206	11224.075
2726.87057	11262.475
2729.46747	11247.475
2732.06276	11259.175
2734.65644	11265.275
2737.24852	11266.775
2739.83899	11259.275
2742.42786	11252.375
2745.01513	11214.675
2747.60079	11227.175
2750.18486	11217.475
2752.76733	11259.275
2755.3482	11220.875
2757.92747	11221.575
2760.50515	11199.475
2763.08123	11202.375
2765.65573	11174.675
2768.22863	11179.875
2770.79994	11146.575
2773.36967	11151.475
2775.9378	11148.875
2778.50435	11145.675
2781.06932	11148.075
2783.6327	11177.375
2786.1945	11160.675
2788.75471	11171.975
2791.31335	11169.575
2793.87041	11130.175
2796.42589	11101.175
2798.97979	11098.275
2801.53212	11095.175
2804.08288	11090.775
2806.63206	11038.975
2809.17967	11046.175
2811.72571	10998.175
2814.27018	11004.475
2816.81308	10991.875
2819.35442	10995.575
2821.89419	10963.175
2824.43239	10958.575
2826.96904	10974.475
2829.50412	10978.975
2832.03763	10935.875
2834.56959	10985.775
2837.1	10973.475
2839.62884	10948.075
2842.15613	10933.975
2844.68186	10969.075
2847.20604	10955.175
2849.72867	10951.975
2852.24974	10957.075
2854.76927	10947.475
2857.28724	10919.475
2859.80367	10910.275
2862.31855	10921.375
2864.83189	10895.975
2867.34368	10892.375
2869.85393	10909.175
2872.36264	10905.975
2874.8698	10895.375
2877.37543	10911.075
2879.87952	10924.275
2882.38207	10905.175
2884.88308	10916.275
2887.38256	10884.775
2889.88051	10922.175
2892.37692	10924.075
2894.8718	10945.275
2897.36515	10961.375
2899.85698	10953.975
2902.34727	10971.875
2904.83604	10982.975
2907.32328	11010.675
2909.809	11020.375
2912.29319	11031.875
2914.77587	11030.275
2917.25702	11039.275
2919.73665	11027.775
2922.21476	11037.675
2924.69136	11034.875
2927.16644	10997.475
2929.64	11007.675
2932.11205	10994.175
2934.58258	10975.575
2937.05161	10983.575
2939.51912	10991.475
2941.98513	10989.175
2944.44962	10983.075
2946.91261	10929.075
2949.37409	10945.075
2951.83407	10952.675
2954.29254	10929.075
2956.74951	10947.175
2959.20498	10914.075
2961.65895	10905.575
2964.11142	10909.875
2966.56239	10844.175
2969.01186	10851.975
2971.45984	10850.675
2973.90632	10838.275
2976.35131	10831.275
2978.7948	10803.875
2981.23681	10769.875
2983.67732	10761.275
2986.11635	10759.475
2988.55388	10712.775
2990.98993	10722.175
2993.4245	10689.775
2995.85758	10709.475
2998.28917	10648.775
3000.71928	10634.175
3003.14791	10615.875
3005.57506	10636.175
3008.00073	10599.775
3010.42493	10604.475
3012.84764	10595.575
3015.26888	10603.775
3017.68865	10580.675
3020.10694	10556.075
3022.52376	10533.075
3024.9391	10512.175
3027.35298	10494.075
3029.76539	10510.975
3032.17632	10502.375
3034.5858	10481.275
3036.9938	10488.775
3039.40034	10459.175
3041.80542	10468.575
3044.20903	10442.875
3046.61118	10448.375
3049.01187	10438.175
3051.4111	10458.875
3053.80888	10427.075
3056.20519	10413.175
3058.60005	10367.475
3060.99345	10372.675
3063.3854	10352.875
3065.7759	10347.975
3068.16494	10323.875
3070.55254	10305.075
3072.93868	10284.475
3075.32338	10257.675
3077.70662	10231.375
3080.08842	10218.475
3082.46878	10222.275
3084.84769	10176.075
3087.22515	10188.675
3089.60118	10187.375
3091.97576	10200.475
3094.3489	10205.175
3096.72061	10191.475
3099.09087	10189.775
3101.4597	10184.175
3103.82709	10201.175
3106.19305	10195.975
3108.55757	10194.775
3110.92066	10180.175
3113.28232	10160.675
3115.64255	10148.175
3118.00134	10112.175
3120.35871	10124.375
3122.71466	10094.475
3125.06917	10099.275
3127.42226	10084.175
3129.77393	10102.275
