Data from AgNPs_FTO_APTES_UA_0um_CRN_0.1mM_R6G_10uM_NaF_0.1M_Addition_RamanShift__27__10-42-48-924.txt Node

Date: Tue Dec 21 10:42:48 GMT 2021
User: TCL
Spectrometer: QEP01345
Trigger mode: 4
Integration Time (sec): 7.000000E0
Scans to average: 10
Electric dark correction enabled: true
Nonlinearity correction enabled: false
Boxcar width: 0
XAxis mode: Raman Shifts
Number of Pixels in Spectrum: 1044
>>>>>Begin Spectral Data<<<<<
46.04893	0.4
50.45542	-0.7
54.85868	-0.3
59.25871	-0.6
63.6555	16.6
68.04907	24.3
72.43941	23.3
76.82654	23.7
81.21044	28.5
85.59113	28.8
89.96862	30.4
94.34289	28.6
98.71396	31.4
103.08183	32.4
107.4465	35
111.80798	34.7
116.16626	33.9
120.52136	35.2
124.87327	31.9
129.222	34.7
133.56755	34.7
137.90993	38.3
142.24913	32.3
146.58517	38.3
150.91804	40.4
155.24774	41.9
159.57429	50.6
163.89768	61.6
168.21792	74.3
172.53501	91.2
176.84895	118.8
181.15975	169.7
185.46741	222.6
189.77193	303.8
194.07331	409.3
198.37157	520.7
202.6667	645.1
206.9587	770.2
211.24758	880.7
215.53334	989.1
219.81599	1111.5
224.09553	1239.1
228.37195	1382.5
232.64527	1544.9
236.91549	1712.3
241.18261	1868
245.44663	2036.5
249.70755	2174
253.96539	2280.2
258.22014	2323.6
262.4718	2336
266.72039	2318
270.96589	2288.9
275.20832	2239.7
279.44768	2172.4
283.68397	2117.9
287.91719	2079.6
292.14735	2044.3
296.37445	2058.7
300.59849	2102.2
304.81948	2174.9
309.03742	2250.3
313.25231	2255.5
317.46415	2154.7
321.67296	2016.8
325.87872	1884.5
330.08145	1811.7
334.28114	1817.9
338.47781	1849.7
342.67145	1890.6
346.86207	1989.5
351.04966	2103
355.23424	2239.3
359.4158	2336.8
363.59435	2413
367.76989	2425.5
371.94243	2413.4
376.11196	2392.9
380.27849	2368.3
384.44203	2346.4
388.60257	2289.8
392.76012	2275.3
396.91468	2280.6
401.06626	2326.5
405.21485	2371.4
409.36047	2342.3
413.50311	2249.2
417.64277	2136.8
421.77947	2089
425.9132	2055.5
430.04396	2067.6
434.17176	2097.7
438.2966	2144.1
442.41849	2200.5
446.53742	2291.3
450.6534	2377.1
454.76644	2408.6
458.87653	2403.8
462.98368	2376.4
467.08789	2324.9
471.18916	2260.7
475.2875	2200.9
479.38291	2140.4
483.4754	2098.6
487.56496	2057
491.6516	2053.1
495.73531	2032.2
499.81612	2042.7
503.89401	2050.1
507.96899	2074.5
512.04106	2116.5
516.11023	2160.5
520.1765	2193.5
524.23987	2198.7
528.30034	2146.3
532.35792	2087.7
536.41261	2041.8
540.46441	1974.5
544.51333	1957.2
548.55936	1953.1
552.60252	1975
556.64279	2026
560.6802	2062.7
564.71473	2100.1
568.7464	2183
572.7752	2237.9
576.80114	2182.2
580.82422	2082
584.84444	2017.9
588.86181	2003.6
592.87633	2024.7
596.888	2060.4
600.89682	2149.6
604.9028	2387.1
608.90594	2938
612.90624	3735.6
616.90371	3760.8
620.89834	2769.3
624.89015	2218.2
628.87913	2080.9
632.86528	2055.6
636.84862	2055.2
640.82913	2062.7
644.80683	2018.2
648.78172	2004
652.75379	2048.7
656.72306	2162.2
660.68952	2274.6
664.65319	2212.6
668.61405	2073
672.57211	2007.7
676.52738	2041.9
680.47986	2079.3
684.42955	2067.7
688.37646	2064.9
692.32058	2081.3
696.26192	2151.9
700.20048	2235.5
704.13626	2275.3
708.06928	2225.1
711.99952	2118.6
715.927	2037.7
719.85171	2007.4
723.77365	1997.2
727.69284	1981.4
731.60928	1972
735.52295	1975.9
739.43388	1985.6
743.34206	1981.4
747.24749	1997.5
751.15017	1992.4
755.05012	2040.1
758.94733	2123.8
762.8418	2284.1
766.73354	2551.1
770.62254	2842.1
774.50882	3068.2
778.39237	3050.1
782.27321	2732.2
786.15132	2337.9
790.02671	2123.7
793.89938	2022.6
797.76935	1999.4
801.6366	1987.1
805.50115	1984.2
809.36299	1986.1
813.22213	1976.6
817.07857	1967
820.93231	1956.3
824.78336	1953.2
828.63172	1948.7
832.47738	1953.1
836.32036	1952
840.16066	1940.2
843.99827	1940
847.8332	1952.2
851.66546	1974.8
855.49504	2021.9
859.32195	2043.6
863.1462	2037.1
866.96777	2000.1
870.78668	1958.9
874.60293	1919.1
878.41652	1897.7
882.22745	1903
886.03573	1896
889.84136	1901.1
893.64433	1892.1
897.44466	1891.1
901.24235	1891
905.0374	1890.2
908.8298	1864.4
912.61957	1881.3
916.40671	1900.6
920.19121	1947.9
923.97308	1992.3
927.75233	2044
931.52895	2075
935.30295	2035.9
939.07433	1966.8
942.84309	1862.6
946.60924	1786.6
950.37278	1748.7
954.13371	1717.6
957.89203	1692.9
961.64774	1680.6
965.40086	1656.5
969.15137	1649.2
972.89929	1640.6
976.64461	1633
980.38733	1644.2
984.12747	1644.4
987.86502	1638.1
991.59999	1636.8
995.33237	1636.7
999.06217	1656.5
1002.78939	1675.8
1006.51404	1698.4
1010.23611	1723.6
1013.95561	1759.7
1017.67255	1761.7
1021.38692	1756
1025.09872	1748.1
1028.80796	1757.9
1032.51465	1779.7
1036.21877	1872.4
1039.92035	1970
1043.61937	2014.3
1047.31584	2006.2
1051.00976	1954.3
1054.70114	1880.9
1058.38998	1828.4
1062.07627	1770
1065.76003	1752.9
1069.44126	1736.2
1073.11995	1740
1076.79611	1783.3
1080.46974	1848.6
1084.14085	1899.2
1087.80943	1916.7
1091.47549	1909.8
1095.13903	1865.4
1098.80005	1783.6
1102.45857	1728.7
1106.11456	1722.8
1109.76805	1754.5
1113.41903	1814.2
1117.06751	1884.2
1120.71348	1986.5
1124.35696	2116
1127.99793	2185.9
1131.63641	2160.9
1135.2724	2031.7
1138.90589	1917
1142.5369	1827.7
1146.16542	1778.6
1149.79145	1757.8
1153.415	1758.8
1157.03607	1773.8
1160.65467	1843.6
1164.27079	1885.9
1167.88443	1954.6
1171.49561	2083.8
1175.10432	2312.7
1178.71056	2611.7
1182.31434	2824.7
1185.91565	2857.4
1189.51451	2777
1193.11091	2680.9
1196.70485	2550
1200.29634	2424.9
1203.88538	2277.1
1207.47197	2095.1
1211.05612	1953.5
1214.63782	1878.1
1218.21708	1847.6
1221.79391	1841.8
1225.36829	1826.9
1228.94024	1819
1232.50976	1826.5
1236.07685	1839.3
1239.6415	1872.3
1243.20374	1915.6
1246.76355	1947.1
1250.32093	1982.7
1253.8759	2051.9
1257.42845	2140
1260.97859	2223.9
1264.52631	2299
1268.07163	2374.3
1271.61453	2412.6
1275.15503	2419
1278.69312	2386.9
1282.22882	2366.2
1285.76211	2405.6
1289.29301	2474.3
1292.82151	2549.6
1296.34761	2622.7
1299.87133	2712.5
1303.39266	2869.6
1306.9116	3137.5
1310.42815	3427.9
1313.94233	3558.1
1317.45412	3413.7
1320.96354	3127.6
1324.47058	2856
1327.97525	2635.7
1331.47754	2504.3
1334.97747	2500.1
1338.47502	2584.9
1341.97022	2682.5
1345.46305	2843.3
1348.95352	3082.8
1352.44163	3406
1355.92738	3872.8
1359.41078	4431.1
1362.89183	4800.7
1366.37053	4618.5
1369.84688	4027.7
1373.32088	3462.4
1376.79254	3007.2
1380.26186	2718
1383.72883	2510.7
1387.19347	2354.9
1390.65578	2229.5
1394.11575	2117.6
1397.57339	2076.7
1401.0287	2068
1404.48168	2072.2
1407.93234	2096.2
1411.38068	2144.2
1414.82669	2173.5
1418.27039	2224.6
1421.71177	2232.2
1425.15083	2246.3
1428.58758	2254.6
1432.02203	2275
1435.45416	2276.2
1438.88399	2266.2
1442.31151	2232.1
1445.73673	2191.4
1449.15965	2163.3
1452.58027	2099.8
1455.9986	2044.4
1459.41463	2004.2
1462.82837	2005.5
1466.23982	2030.4
1469.64898	2052
1473.05586	2072.6
1476.46045	2093.8
1479.86276	2123.1
1483.26279	2149.3
1486.66054	2176.5
1490.05602	2215.2
1493.44922	2278.3
1496.84016	2434.4
1500.22882	2670.1
1503.61521	3011
1506.99934	3382.4
1510.38121	3699.3
1513.76081	3814.9
1517.13816	3588.6
1520.51324	3113.5
1523.88607	2650.2
1527.25665	2367.2
1530.62498	2203.8
1533.99105	2135.3
1537.35488	2093.5
1540.71647	2082.4
1544.07581	2086
1547.4329	2098.1
1550.78776	2109.5
1554.14038	2115.6
1557.49077	2141.3
1560.83892	2163.7
1564.18484	2238.8
1567.52853	2327.1
1570.86999	2425.7
1574.20922	2526
1577.54624	2506.4
1580.88103	2359.5
1584.2136	2150.9
1587.54395	2022.6
1590.87208	2030.2
1594.19801	2127.8
1597.52172	2253
1600.84321	2313.5
1604.16251	2225.5
1607.47959	2088.8
1610.79447	1956.3
1614.10715	1825.2
1617.41763	1743
1620.7259	1699
1624.03199	1698.1
1627.33587	1698.5
1630.63757	1710.3
1633.93707	1754.7
1637.23439	1820
1640.52951	1959.6
1643.82246	2145.9
1647.11321	2402.8
1650.40179	2588.6
1653.68819	2538.1
1656.97241	2258.4
1660.25446	1942.5
1663.53433	1716.2
1666.81203	1585.8
1670.08756	1521.6
1673.36092	1463.4
1676.63211	1435.3
1679.90115	1418.3
1683.16801	1385.8
1686.43272	1358.6
1689.69527	1338.1
1692.95567	1329.5
1696.2139	1319.7
1699.46999	1313
1702.72392	1295.1
1705.97571	1301.1
1709.22535	1278.3
1712.47284	1282.4
1715.71819	1279.9
1718.96139	1301.4
1722.20246	1301.9
1725.44139	1294.5
1728.67818	1277.9
1731.91284	1253.6
1735.14537	1223.7
1738.37576	1198.7
1741.60403	1185.8
1744.83017	1173.7
1748.05418	1160.8
1751.27607	1147.2
1754.49584	1134.2
1757.71349	1128.3
1760.92903	1108
1764.14244	1082.1
1767.35375	1078.8
1770.56294	1059.1
1773.77002	1053.1
1776.97499	1042.9
1780.17785	1029.7
1783.37861	1016.8
1786.57727	1016.9
1789.77382	994.7
1792.96828	998.1
1796.16064	997.3
1799.3509	991.8
1802.53907	989.7
1805.72514	975.6
1808.90913	971.2
1812.09102	966.8
1815.27083	957
1818.44856	952.3
1821.6242	953.9
1824.79776	956.6
1827.96924	948.3
1831.13864	944.3
1834.30597	938.9
1837.47122	929
1840.6344	936.3
1843.7955	929.1
1846.95454	929.5
1850.11151	924.7
1853.26642	924.1
1856.41926	917.7
1859.57004	920.4
1862.71876	907.9
1865.86542	919.3
1869.01003	911.1
1872.15258	911.1
1875.29308	911.5
1878.43152	911.8
1881.56792	901.6
1884.70227	897.4
1887.83457	904
1890.96482	895.9
1894.09304	898.1
1897.21921	905.5
1900.34335	889.4
1903.46544	891.1
1906.58551	889.4
1909.70353	885.3
1912.81953	887.9
1915.93349	882.5
1919.04543	883
1922.15534	878.7
1925.26322	883.8
1928.36908	873.9
1931.47292	877.3
1934.57473	867.4
1937.67453	859.6
1940.77232	859.4
1943.86808	851.2
1946.96184	852.7
1950.05358	855.1
1953.14331	851.2
1956.23103	841.7
1959.31675	847.4
1962.40046	841.5
1965.48217	830.9
1968.56188	836.1
1971.63959	827.5
1974.7153	834.4
1977.78901	827.4
1980.86073	822.4
1983.93046	819.8
1986.99819	820.6
1990.06394	816.3
1993.1277	814.7
1996.18947	811
1999.24925	805.6
2002.30706	801.4
2005.36288	791.9
2008.41672	798.8
2011.46859	793.2
2014.51848	792.5
2017.56639	790.4
2020.61233	780.5
2023.6563	777.7
2026.6983	779.4
2029.73833	776.5
2032.7764	768
2035.8125	769.7
2038.84664	765.7
2041.87881	765.7
2044.90903	758.1
2047.93729	763.4
2050.96359	758
2053.98794	760.2
2057.01034	758.3
2060.03078	759.2
2063.04927	754.7
2066.06582	753.7
2069.08042	747.1
2072.09307	751
2075.10378	748
2078.11255	750.3
2081.11938	754.2
2084.12426	744.7
2087.12722	749.8
2090.12824	751
2093.12732	758.2
2096.12447	752.8
2099.11969	750.3
2102.11299	751.3
2105.10435	754.9
2108.09379	755.9
2111.08131	762.8
2114.0669	748
2117.05057	743.2
2120.03233	746.6
2123.01216	743.5
2125.99008	744.2
2128.96609	748.7
2131.94018	737.4
2134.91236	738.7
2137.88263	732.2
2140.851	740.2
2143.81746	732.7
2146.78201	729.7
2149.74466	738.8
2152.7054	733.7
2155.66425	725.3
2158.6212	731.9
2161.57625	727.4
2164.52941	728.1
2167.48067	730.3
2170.43004	730
2173.37752	728.4
2176.32311	722.5
2179.26681	726.3
2182.20863	714.7
2185.14856	717.8
2188.08661	719.7
2191.02278	719.3
2193.95707	719
2196.88948	717.5
2199.82001	722.7
2202.74867	710.3
2205.67545	713.5
2208.60037	716
2211.52341	718.3
2214.44458	715.8
2217.36388	702.6
2220.28132	701.3
2223.1969	696
2226.11061	700.6
2229.02246	698.3
2231.93245	687
2234.84058	693.8
2237.74686	692.2
2240.65128	687
2243.55385	685.5
2246.45456	691.7
2249.35343	679.2
2252.25044	682.6
2255.14561	682.2
2258.03893	680.7
2260.93041	692.1
2263.82004	684.5
2266.70783	676.7
2269.59378	671.3
2272.4779	672
2275.36017	667.1
2278.24061	667.7
2281.11922	673
2283.996	667.5
2286.87094	663.1
2289.74405	659.2
2292.61534	652.1
2295.4848	662.5
2298.35243	658.4
2301.21824	654.2
2304.08223	649.1
2306.94439	656.5
2309.80474	648.2
2312.66327	648.5
2315.51999	648.4
2318.37489	648
2321.22797	643.6
2324.07925	639.1
2326.92871	650.2
2329.77637	647.7
2332.62222	641.2
2335.46626	637.9
2338.3085	639.1
2341.14893	635.8
2343.98756	641.6
2346.8244	636
2349.65943	633.5
2352.49267	636
2355.32411	633.6
2358.15376	638
2360.98161	634.8
2363.80768	643.3
2366.63195	632.6
2369.45444	644.2
2372.27514	641.9
2375.09405	629.7
2377.91118	639.8
2380.72652	633.9
2383.54009	629.5
2386.35187	629.9
2389.16188	628
2391.97011	621.3
2394.77657	620.5
2397.58125	614
2400.38416	615.4
2403.18529	617.9
2405.98466	619.2
2408.78226	613.4
2411.57809	612.6
2414.37216	609.7
2417.16446	606.5
2419.955	610.6
2422.74378	612
2425.5308	603.5
2428.31606	601.1
2431.09956	604.3
2433.88131	602.5
2436.6613	608.5
2439.43954	608.6
2442.21603	598.4
2444.99077	599.3
2447.76377	604.9
2450.53501	607.3
2453.30451	606.7
2456.07226	602.4
2458.83827	598.8
2461.60254	602.8
2464.36507	600.1
2467.12586	589.9
2469.88492	598.8
2472.64224	594.5
2475.39782	606.2
2478.15167	608.6
2480.90379	600.5
2483.65417	605.7
2486.40283	601.5
2489.14976	603.5
2491.89497	610.4
2494.63845	620.4
2497.3802	610
2500.12024	608.5
2502.85855	603.9
2505.59514	600.4
2508.33002	593.8
2511.06318	595.4
2513.79462	587.7
2516.52435	584
2519.25237	583
2521.97867	580.7
2524.70327	582.1
2527.42616	586.8
2530.14734	579.6
2532.86681	581.9
2535.58458	583.4
2538.30065	573.4
2541.01501	579.6
2543.72768	585.2
2546.43864	576.9
2549.14791	585.5
2551.85548	576.6
2554.56136	583.6
2557.26554	579.2
2559.96803	579.2
2562.66883	580.7
2565.36794	581.1
2568.06536	579.5
2570.7611	580.1
2573.45514	585.4
2576.14751	579.5
2578.83819	580.8
2581.52719	584.8
2584.21451	579.3
2586.90015	576.5
2589.58411	582
2592.2664	580
2594.94701	579.9
2597.62594	579.8
2600.30321	575.5
2602.9788	571.8
2605.65273	571.7
2608.32498	573.4
2610.99557	569.3
2613.66449	568.4
2616.33175	570
2618.99734	568.4
2621.66128	568.9
2624.32355	567.6
2626.98416	576.9
2629.64311	568
2632.30041	564.9
2634.95605	573.5
2637.61004	572.1
2640.26238	566.5
2642.91306	564.7
2645.56209	567.6
2648.20948	572.3
2650.85521	564.4
2653.4993	570.9
2656.14175	577.3
2658.78255	572.5
2661.42171	580.5
2664.05923	586.4
2666.6951	585.9
2669.32934	590.3
2671.96194	598
2674.59291	604.2
2677.22224	605.8
2679.84993	608.7
2682.476	611
2685.10043	616.4
2687.72324	625.5
2690.34441	623.7
2692.96396	631.3
2695.58188	634.9
2698.19818	641.3
2700.81285	645.4
2703.4259	676.1
2706.03733	711.6
2708.64714	695.4
2711.25533	686
2713.86191	692.6
2716.46687	694.3
2719.07021	694
2721.67194	690
2724.27206	686
2726.87057	685.9
2729.46747	688.6
2732.06276	681.6
2734.65644	678.5
2737.24852	672.3
2739.83899	671.1
2742.42786	666.1
2745.01513	663
2747.60079	666.9
2750.18486	667.1
2752.76733	666.2
2755.3482	669.9
2757.92747	676.1
2760.50515	684.7
2763.08123	688
2765.65573	689.2
2768.22863	706.4
2770.79994	717
2773.36967	734.4
2775.9378	747.8
2778.50435	751.9
2781.06932	774.9
2783.6327	790.2
2786.1945	805.9
2788.75471	828.8
2791.31335	857.4
2793.87041	867.9
2796.42589	894.1
2798.97979	919.4
2801.53212	940.5
2804.08288	975.8
2806.63206	1014
2809.17967	1038.4
2811.72571	1054.5
2814.27018	1089.6
2816.81308	1106.4
2819.35442	1113.7
2821.89419	1121.3
2824.43239	1110.3
2826.96904	1112.9
2829.50412	1098.9
2832.03763	1098.3
2834.56959	1105.6
2837.1	1101.7
2839.62884	1126.7
2842.15613	1161.2
2844.68186	1218.3
2847.20604	1266.5
2849.72867	1307
2852.24974	1328.1
2854.76927	1328.5
2857.28724	1334.8
2859.80367	1310.4
2862.31855	1283.1
2864.83189	1268.7
2867.34368	1254.3
2869.85393	1245.1
2872.36264	1232.8
2874.8698	1223.7
2877.37543	1219.6
2879.87952	1216.7
2882.38207	1208.1
2884.88308	1215.1
2887.38256	1212.9
2889.88051	1204.8
2892.37692	1218.1
2894.8718	1222
2897.36515	1222.3
2899.85698	1232.6
2902.34727	1234.6
2904.83604	1227
2907.32328	1232.7
2909.809	1228
2912.29319	1228.2
2914.77587	1219.4
2917.25702	1211.4
2919.73665	1212.9
2922.21476	1202.5
2924.69136	1186
2927.16644	1179.5
2929.64	1162.2
2932.11205	1136.8
2934.58258	1110.1
2937.05161	1083.4
2939.51912	1047.8
2941.98513	1015.8
2944.44962	975.5
2946.91261	936.6
2949.37409	902.2
2951.83407	864.2
2954.29254	837.3
2956.74951	820.7
2959.20498	791.8
2961.65895	775.2
2964.11142	759.4
2966.56239	745.8
2969.01186	730.3
2971.45984	721.2
2973.90632	710.4
2976.35131	699
2978.7948	690.3
2981.23681	681.4
2983.67732	671.8
2986.11635	667.9
2988.55388	655.2
2990.98993	648.5
2993.4245	650.4
2995.85758	636.2
2998.28917	634.1
3000.71928	628.6
3003.14791	627.4
3005.57506	626.1
3008.00073	618.9
3010.42493	608.7
3012.84764	612.1
3015.26888	608.2
3017.68865	611.3
3020.10694	603.3
3022.52376	603.7
3024.9391	608
3027.35298	603
3029.76539	601.9
3032.17632	606.8
3034.5858	598.7
3036.9938	599.2
3039.40034	598.8
3041.80542	594.4
3044.20903	590.2
3046.61118	597
3049.01187	593.1
3051.4111	595.4
3053.80888	588.3
3056.20519	599.8
3058.60005	596.6
3060.99345	597.6
3063.3854	599.8
3065.7759	600.7
3068.16494	599
3070.55254	596.2
3072.93868	603.5
3075.32338	606.7
3077.70662	597.2
3080.08842	600.9
3082.46878	596.3
3084.84769	587
3087.22515	588.2
3089.60118	591.6
3091.97576	595
3094.3489	589.9
3096.72061	595.1
3099.09087	592.3
3101.4597	595.5
3103.82709	600.6
3106.19305	597.2
3108.55757	596.8
3110.92066	597.5
3113.28232	598.1
3115.64255	607.6
3118.00134	605.2
3120.35871	609.1
3122.71466	609.8
3125.06917	612.8
3127.42226	625.6
3129.77393	630.2
3132.12417	628.4
3134.47299	632.5
3136.82039	641
3139.16636	644.4
3141.51092	646.8
3143.85406	659.5
3146.19579	658.3
3148.53609	667
3150.87499	662.2
3153.21246	675.4
3155.54853	680.3
3157.88318	686.3
3160.21642	685.4
3162.54826	698.8
3164.87868	693.9
3167.2077	697.2
3169.5353	700.6
3171.86151	708.8
3174.18631	718.3
3176.5097	718
3178.83169	717.5
3181.15228	727.3
3183.47147	730.4
3185.78926	734.8
3188.10565	734.6
3190.42065	742
3192.73424	747.4
3195.04645	743.1
3197.35725	746.1
3199.66667	759.9
3201.97469	762.3
3204.28132	760.1
3206.58656	770.5
3208.8904	770.6
3211.19287	773.4
3213.49394	782.1
3215.79363	772.9
3218.09193	774.2
3220.38884	788.2
3222.68438	795.2
3224.97853	790
3227.2713	790.7
3229.56269	793.1
3231.8527	800.9
3234.14133	792.5
3236.42858	787.6
3238.71446	787.7
3240.99896	792.5
3243.28209	794.6
3245.56384	799.1
3247.84423	794.7
3250.12324	794.8
3252.40088	802
3254.67715	797.6
3256.95205	801
3259.22558	797
3261.49775	792.3
3263.76855	800.5
3266.03799	794.7
3268.30606	802.7
3270.57277	803.2
3272.83812	799.3
3275.10211	802.5
3277.36474	806.2
3279.62601	805
3281.88593	799.9
3284.14448	801.6
3286.40168	808.4
3288.65753	812.8
3290.91202	800.2
3293.16516	806.5
3295.41695	803
3297.66738	798.5
3299.91647	800.8
3302.16421	794.9
3304.4106	781.7
3306.65564	791.1
3308.89933	781.9
3311.14169	783.5
3313.38269	787.7
3315.62236	775.9
3317.86068	773.7
3320.09766	763.1
3322.3333	763.8
3324.5676	770.5
3326.80056	768
3329.03219	756.1
3331.26248	-0.2
3333.49143	-0.1
3335.71905	0
