Data from AgNPs_FTO_APTES_UA_20um_CRN_0.1mM_R6G_10uM_NaF_0.1M_Addition_RamanShift__27__14-47-49-204.txt Node

Date: Tue Dec 21 14:47:49 GMT 2021
User: TCL
Spectrometer: QEP01345
Trigger mode: 4
Integration Time (sec): 7.000000E0
Scans to average: 10
Electric dark correction enabled: true
Nonlinearity correction enabled: false
Boxcar width: 0
XAxis mode: Raman Shifts
Number of Pixels in Spectrum: 1044
>>>>>Begin Spectral Data<<<<<
46.04893	0.8125
50.45542	-1.5875
54.85868	-1.1875
59.25871	0.2125
63.6555	45.9125
68.04907	50.3125
72.43941	55.4125
76.82654	58.1125
81.21044	64.4125
85.59113	62.8125
89.96862	66.0125
94.34289	61.7125
98.71396	68.0125
103.08183	74.3125
107.4465	74.5125
111.80798	74.5125
116.16626	74.2125
120.52136	78.6125
124.87327	82.0125
129.222	82.1125
133.56755	89.5125
137.90993	95.5125
142.24913	101.0125
146.58517	116.0125
150.91804	130.5125
155.24774	157.2125
159.57429	188.7125
163.89768	238.9125
168.21792	315.3125
172.53501	423.8125
176.84895	582.7125
181.15975	828.0125
185.46741	1141.1125
189.77193	1569.4125
194.07331	2110.0125
198.37157	2746.2125
202.6667	3378.6125
206.9587	4053.7125
211.24758	4696.1125
215.53334	5379.0125
219.81599	6076.0125
224.09553	6888.3125
228.37195	7788.9125
232.64527	8767.3125
236.91549	9779.2125
241.18261	10771.5125
245.44663	11596.2125
249.70755	12337.1125
253.96539	12958.0125
258.22014	13516.7125
262.4718	13943.9125
266.72039	14235.2125
270.96589	14407.2125
275.20832	14363.3125
279.44768	14224.4125
283.68397	14039.8125
287.91719	13891.5125
292.14735	13890.6125
296.37445	14027.9125
300.59849	14366.2125
304.81948	14727.7125
309.03742	14938.4125
313.25231	14774.9125
317.46415	14197.6125
321.67296	13368.4125
325.87872	12637.8125
330.08145	12339.1125
334.28114	12282.9125
338.47781	12478.6125
342.67145	12736.5125
346.86207	13166.7125
351.04966	13739.7125
355.23424	14414.6125
359.4158	14936.6125
363.59435	15233.1125
367.76989	15377.9125
371.94243	15430.2125
376.11196	15398.3125
380.27849	15430.2125
384.44203	15389.3125
388.60257	15332.8125
392.76012	15266.8125
396.91468	15398.5125
401.06626	15721.6125
405.21485	15950.6125
409.36047	15775.3125
413.50311	15181.7125
417.64277	14591.5125
421.77947	14242.0125
425.9132	14140.2125
430.04396	14201.7125
434.17176	14261.6125
438.2966	14457.6125
442.41849	14789.8125
446.53742	15229.1125
450.6534	15712.9125
454.76644	16094.4125
458.87653	16147.5125
462.98368	16025.5125
467.08789	15805.7125
471.18916	15537.7125
475.2875	15328.0125
479.38291	15210.0125
483.4754	15021.2125
487.56496	14804.9125
491.6516	14538.2125
495.73531	14358.0125
499.81612	14241.1125
503.89401	14304.7125
507.96899	14377.7125
512.04106	14450.7125
516.11023	14561.2125
520.1765	14577.1125
524.23987	14555.1125
528.30034	14395.7125
532.35792	14199.3125
536.41261	13981.9125
540.46441	13701.7125
544.51333	13563.9125
548.55936	13601.6125
552.60252	13903.4125
556.64279	14248.2125
560.6802	14516.0125
564.71473	14743.0125
568.7464	15191.5125
572.7752	15576.2125
576.80114	15422.5125
580.82422	15086.0125
584.84444	14964.1125
588.86181	15050.0125
592.87633	15288.7125
596.888	15528.0125
600.89682	15757.9125
604.9028	16860.9125
608.90594	20044.3125
612.90624	24312.3125
616.90371	23535.4125
620.89834	17609.2125
624.89015	14663.2125
628.87913	14159.0125
632.86528	14298.5125
636.84862	14456.7125
640.82913	14218.0125
644.80683	13643.5125
648.78172	13145.6125
652.75379	13083.3125
656.72306	13359.1125
660.68952	13838.3125
664.65319	13821.7125
668.61405	13368.5125
672.57211	13173.0125
676.52738	13172.8125
680.47986	13156.2125
684.42955	13064.5125
688.37646	12939.9125
692.32058	12973.7125
696.26192	13013.6125
700.20048	13164.8125
704.13626	13295.5125
708.06928	13227.2125
711.99952	13099.6125
715.927	13040.2125
719.85171	13045.0125
723.77365	13068.8125
727.69284	12955.6125
731.60928	12872.7125
735.52295	12880.2125
739.43388	12908.1125
743.34206	12930.5125
747.24749	13009.8125
751.15017	13067.2125
755.05012	13269.2125
758.94733	13770.3125
762.8418	14928.6125
766.73354	16865.2125
770.62254	19007.9125
774.50882	20125.6125
778.39237	19368.9125
782.27321	17122.9125
786.15132	14896.6125
790.02671	13604.9125
793.89938	13022.3125
797.76935	12779.4125
801.6366	12708.8125
805.50115	12637.6125
809.36299	12666.1125
813.22213	12652.0125
817.07857	12585.7125
820.93231	12550.1125
824.78336	12482.0125
828.63172	12435.1125
832.47738	12453.9125
836.32036	12405.4125
840.16066	12397.2125
843.99827	12339.7125
847.8332	12310.4125
851.66546	12271.9125
855.49504	12212.4125
859.32195	12199.0125
863.1462	12162.2125
866.96777	12161.4125
870.78668	12137.0125
874.60293	12178.1125
878.41652	12180.2125
882.22745	12251.9125
886.03573	12319.4125
889.84136	12309.2125
893.64433	12219.2125
897.44466	12148.1125
901.24235	12079.8125
905.0374	11964.8125
908.8298	11910.3125
912.61957	11894.6125
916.40671	11938.0125
920.19121	12043.7125
923.97308	12193.0125
927.75233	12260.4125
931.52895	12319.3125
935.30295	12229.2125
939.07433	11932.4125
942.84309	11669.2125
946.60924	11517.9125
950.37278	11434.8125
954.13371	11375.1125
957.89203	11346.5125
961.64774	11304.5125
965.40086	11239.2125
969.15137	11184.2125
972.89929	11096.3125
976.64461	11076.9125
980.38733	11082.1125
984.12747	11109.5125
987.86502	11165.5125
991.59999	11270.6125
995.33237	11439.1125
999.06217	11715.5125
1002.78939	12072.7125
1006.51404	12460.4125
1010.23611	12725.9125
1013.95561	12913.1125
1017.67255	12899.0125
1021.38692	12715.3125
1025.09872	12497.3125
1028.80796	12420.1125
1032.51465	12553.0125
1036.21877	12752.3125
1039.92035	12796.1125
1043.61937	12731.7125
1047.31584	12588.9125
1051.00976	12374.9125
1054.70114	12257.7125
1058.38998	12216.6125
1062.07627	12237.5125
1065.76003	12353.2125
1069.44126	12405.8125
1073.11995	12485.3125
1076.79611	12591.1125
1080.46974	12750.1125
1084.14085	12950.9125
1087.80943	13216.5125
1091.47549	13331.8125
1095.13903	13220.8125
1098.80005	12912.6125
1102.45857	12569.9125
1106.11456	12431.7125
1109.76805	12447.6125
1113.41903	12643.3125
1117.06751	13009.2125
1120.71348	13433.3125
1124.35696	13911.8125
1127.99793	14368.0125
1131.63641	14441.5125
1135.2724	14030.0125
1138.90589	13581.5125
1142.5369	13232.2125
1146.16542	13000.0125
1149.79145	12841.9125
1153.415	12832.5125
1157.03607	12914.2125
1160.65467	13166.5125
1164.27079	13627.8125
1167.88443	14296.2125
1171.49561	15340.4125
1175.10432	16935.5125
1178.71056	19101.0125
1182.31434	20998.4125
1185.91565	21806.7125
1189.51451	21426.6125
1193.11091	20376.1125
1196.70485	19145.1125
1200.29634	18106.1125
1203.88538	17296.9125
1207.47197	16502.9125
1211.05612	15792.3125
1214.63782	15309.5125
1218.21708	15061.1125
1221.79391	14981.5125
1225.36829	14951.0125
1228.94024	14786.6125
1232.50976	14566.1125
1236.07685	14419.9125
1239.6415	14337.8125
1243.20374	14411.3125
1246.76355	14533.2125
1250.32093	14738.7125
1253.8759	15103.3125
1257.42845	15550.4125
1260.97859	15988.8125
1264.52631	16363.6125
1268.07163	16821.8125
1271.61453	17203.5125
1275.15503	17630.8125
1278.69312	17994.7125
1282.22882	18292.7125
1285.76211	18740.8125
1289.29301	19328.5125
1292.82151	20127.8125
1296.34761	21086.5125
1299.87133	22334.7125
1303.39266	24052.7125
1306.9116	26341.8125
1310.42815	28821.9125
1313.94233	30172.3125
1317.45412	29816.9125
1320.96354	28366.1125
1324.47058	26759.0125
1327.97525	25404.4125
1331.47754	24501.6125
1334.97747	24162.5125
1338.47502	24299.0125
1341.97022	24645.4125
1345.46305	25001.2125
1348.95352	25454.5125
1352.44163	26245.0125
1355.92738	27807.9125
1359.41078	30485.2125
1362.89183	33307.0125
1366.37053	32653.9125
1369.84688	28516.2125
1373.32088	24127.8125
1376.79254	21237.0125
1380.26186	19828.3125
1383.72883	19273.5125
1387.19347	18981.6125
1390.65578	18635.6125
1394.11575	18521.2125
1397.57339	18660.0125
1401.0287	19134.4125
1404.48168	19562.8125
1407.93234	19887.3125
1411.38068	19942.6125
1414.82669	19617.2125
1418.27039	18939.8125
1421.71177	18140.2125
1425.15083	17330.9125
1428.58758	16860.9125
1432.02203	16830.0125
1435.45416	16982.1125
1438.88399	17161.2125
1442.31151	17376.8125
1445.73673	17600.2125
1449.15965	17875.3125
1452.58027	18097.2125
1455.9986	18189.5125
1459.41463	18307.9125
1462.82837	18552.8125
1466.23982	18935.4125
1469.64898	19313.5125
1473.05586	19513.7125
1476.46045	19522.8125
1479.86276	19503.0125
1483.26279	19576.4125
1486.66054	19748.6125
1490.05602	20041.0125
1493.44922	20484.8125
1496.84016	21111.3125
1500.22882	22288.4125
1503.61521	24143.0125
1506.99934	26458.4125
1510.38121	28555.8125
1513.76081	29226.1125
1517.13816	27883.9125
1520.51324	25051.9125
1523.88607	22392.8125
1527.25665	20604.3125
1530.62498	19668.6125
1533.99105	19165.1125
1537.35488	18882.4125
1540.71647	18712.9125
1544.07581	18603.9125
1547.4329	18439.1125
1550.78776	18270.3125
1554.14038	18185.8125
1557.49077	18196.3125
1560.83892	18334.6125
1564.18484	18594.0125
1567.52853	18952.4125
1570.86999	19229.1125
1574.20922	19442.6125
1577.54624	19495.7125
1580.88103	19010.9125
1584.2136	18287.2125
1587.54395	18121.2125
1590.87208	18671.9125
1594.19801	19863.0125
1597.52172	21294.8125
1600.84321	22029.8125
1604.16251	21439.6125
1607.47959	19935.8125
1610.79447	18137.6125
1614.10715	16425.4125
1617.41763	15087.3125
1620.7259	14230.8125
1624.03199	13790.2125
1627.33587	13741.7125
1630.63757	14045.2125
1633.93707	14800.8125
1637.23439	15975.1125
1640.52951	17699.3125
1643.82246	19949.8125
1647.11321	22395.4125
1650.40179	23784.7125
1653.68819	23021.3125
1656.97241	20160.7125
1660.25446	16927.3125
1663.53433	14549.6125
1666.81203	13066.5125
1670.08756	12158.9125
1673.36092	11593.4125
1676.63211	11228.0125
1679.90115	10942.4125
1683.16801	10739.9125
1686.43272	10601.5125
1689.69527	10482.6125
1692.95567	10371.6125
1696.2139	10308.1125
1699.46999	10296.5125
1702.72392	10226.4125
1705.97571	10179.3125
1709.22535	10137.5125
1712.47284	10120.8125
1715.71819	10085.2125
1718.96139	10045.7125
1722.20246	10049.5125
1725.44139	9987.5125
1728.67818	9946.2125
1731.91284	9877.4125
1735.14537	9798.6125
1738.37576	9752.6125
1741.60403	9720.9125
1744.83017	9694.2125
1748.05418	9691.7125
1751.27607	9685.2125
1754.49584	9665.4125
1757.71349	9633.3125
1760.92903	9622.5125
1764.14244	9583.7125
1767.35375	9548.3125
1770.56294	9509.0125
1773.77002	9493.6125
1776.97499	9472.6125
1780.17785	9429.4125
1783.37861	9423.2125
1786.57727	9400.1125
1789.77382	9387.2125
1792.96828	9364.7125
1796.16064	9336.2125
1799.3509	9324.7125
1802.53907	9299.3125
1805.72514	9270.3125
1808.90913	9244.4125
1812.09102	9220.6125
1815.27083	9199.5125
1818.44856	9179.3125
1821.6242	9164.6125
1824.79776	9146.0125
1827.96924	9115.1125
1831.13864	9122.9125
1834.30597	9121.7125
1837.47122	9103.9125
1840.6344	9095.1125
1843.7955	9093.6125
1846.95454	9076.0125
1850.11151	9059.3125
1853.26642	9059.4125
1856.41926	9074.4125
1859.57004	9046.1125
1862.71876	9041.3125
1865.86542	9024.1125
1869.01003	9072.3125
1872.15258	9045.3125
1875.29308	9023.7125
1878.43152	9046.3125
1881.56792	9023.9125
1884.70227	9029.2125
1887.83457	9027.3125
1890.96482	9018.8125
1894.09304	9017.8125
1897.21921	9009.7125
1900.34335	8999.3125
1903.46544	8988.4125
1906.58551	9000.4125
1909.70353	8984.6125
1912.81953	8958.1125
1915.93349	8935.3125
1919.04543	8927.5125
1922.15534	8915.6125
1925.26322	8905.3125
1928.36908	8881.0125
1931.47292	8834.6125
1934.57473	8829.6125
1937.67453	8814.1125
1940.77232	8775.0125
1943.86808	8717.9125
1946.96184	8706.5125
1950.05358	8665.6125
1953.14331	8654.7125
1956.23103	8617.0125
1959.31675	8594.8125
1962.40046	8555.3125
1965.48217	8557.6125
1968.56188	8517.6125
1971.63959	8490.4125
1974.7153	8480.0125
1977.78901	8462.8125
1980.86073	8438.8125
1983.93046	8397.6125
1986.99819	8346.6125
1990.06394	8315.7125
1993.1277	8302.6125
1996.18947	8259.4125
1999.24925	8244.9125
2002.30706	8208.9125
2005.36288	8196.6125
2008.41672	8184.4125
2011.46859	8130.7125
2014.51848	8092.5125
2017.56639	8110.1125
2020.61233	8083.3125
2023.6563	8076.0125
2026.6983	8025.5125
2029.73833	8005.8125
2032.7764	8004.0125
2035.8125	7999.9125
2038.84664	7972.8125
2041.87881	7958.5125
2044.90903	7946.7125
2047.93729	7920.8125
2050.96359	7921.6125
2053.98794	7914.6125
2057.01034	7922.1125
2060.03078	7904.7125
2063.04927	7880.8125
2066.06582	7845.9125
2069.08042	7845.3125
2072.09307	7838.1125
2075.10378	7827.6125
2078.11255	7814.5125
2081.11938	7835.5125
2084.12426	7828.0125
2087.12722	7812.8125
2090.12824	7811.3125
2093.12732	7812.8125
2096.12447	7788.3125
2099.11969	7788.1125
2102.11299	7765.2125
2105.10435	7788.2125
2108.09379	7800.5125
2111.08131	7804.7125
2114.0669	7803.2125
2117.05057	7810.0125
2120.03233	7808.4125
2123.01216	7815.8125
2125.99008	7794.8125
2128.96609	7804.5125
2131.94018	7810.9125
2134.91236	7826.3125
2137.88263	7823.3125
2140.851	7820.1125
2143.81746	7807.2125
2146.78201	7803.1125
2149.74466	7813.8125
2152.7054	7794.5125
2155.66425	7772.3125
2158.6212	7793.2125
2161.57625	7776.5125
2164.52941	7805.0125
2167.48067	7801.4125
2170.43004	7786.1125
2173.37752	7755.4125
2176.32311	7776.6125
2179.26681	7770.5125
2182.20863	7766.5125
2185.14856	7769.4125
2188.08661	7755.0125
2191.02278	7737.5125
2193.95707	7774.8125
2196.88948	7749.5125
2199.82001	7721.1125
2202.74867	7724.3125
2205.67545	7718.5125
2208.60037	7722.1125
2211.52341	7723.9125
2214.44458	7713.2125
2217.36388	7690.0125
2220.28132	7660.6125
2223.1969	7644.2125
2226.11061	7646.5125
2229.02246	7619.5125
2231.93245	7607.0125
2234.84058	7568.0125
2237.74686	7583.1125
2240.65128	7560.3125
2243.55385	7525.1125
2246.45456	7545.7125
2249.35343	7524.1125
2252.25044	7507.5125
2255.14561	7510.8125
2258.03893	7503.2125
2260.93041	7505.8125
2263.82004	7481.8125
2266.70783	7467.6125
2269.59378	7432.7125
2272.4779	7422.5125
2275.36017	7423.4125
2278.24061	7385.2125
2281.11922	7379.4125
2283.996	7357.3125
2286.87094	7350.3125
2289.74405	7321.1125
2292.61534	7325.3125
2295.4848	7309.0125
2298.35243	7309.2125
2301.21824	7296.3125
2304.08223	7292.9125
2306.94439	7269.5125
2309.80474	7294.8125
2312.66327	7294.6125
2315.51999	7283.5125
2318.37489	7267.0125
2321.22797	7264.9125
2324.07925	7267.1125
2326.92871	7264.6125
2329.77637	7252.1125
2332.62222	7245.4125
2335.46626	7231.8125
2338.3085	7227.2125
2341.14893	7243.0125
2343.98756	7234.3125
2346.8244	7248.2125
2349.65943	7243.5125
2352.49267	7232.0125
2355.32411	7246.6125
2358.15376	7249.0125
2360.98161	7224.6125
2363.80768	7257.2125
2366.63195	7252.1125
2369.45444	7228.5125
2372.27514	7220.8125
2375.09405	7197.2125
2377.91118	7180.7125
2380.72652	7150.9125
2383.54009	7131.8125
2386.35187	7107.0125
2389.16188	7086.5125
2391.97011	7051.5125
2394.77657	7059.3125
2397.58125	7052.0125
2400.38416	7026.9125
2403.18529	7011.6125
2405.98466	6998.9125
2408.78226	6973.2125
2411.57809	6958.3125
2414.37216	6943.1125
2417.16446	6922.9125
2419.955	6935.1125
2422.74378	6920.8125
2425.5308	6924.3125
2428.31606	6930.1125
2431.09956	6918.5125
2433.88131	6898.5125
2436.6613	6917.0125
2439.43954	6903.2125
2442.21603	6889.3125
2444.99077	6886.0125
2447.76377	6899.2125
2450.53501	6906.6125
2453.30451	6890.8125
2456.07226	6878.5125
2458.83827	6882.1125
2461.60254	6869.9125
2464.36507	6884.4125
2467.12586	6866.4125
2469.88492	6874.2125
2472.64224	6854.7125
2475.39782	6877.3125
2478.15167	6896.2125
2480.90379	6869.8125
2483.65417	6888.0125
2486.40283	6876.2125
2489.14976	6891.4125
2491.89497	6887.2125
2494.63845	6935.0125
2497.3802	6888.0125
2500.12024	6907.3125
2502.85855	6903.6125
2505.59514	6880.3125
2508.33002	6866.2125
2511.06318	6854.3125
2513.79462	6831.0125
2516.52435	6832.0125
2519.25237	6796.1125
2521.97867	6794.3125
2524.70327	6788.1125
2527.42616	6771.3125
2530.14734	6753.9125
2532.86681	6750.9125
2535.58458	6727.6125
2538.30065	6733.2125
2541.01501	6739.6125
2543.72768	6723.4125
2546.43864	6732.0125
2549.14791	6735.2125
2551.85548	6718.8125
2554.56136	6702.9125
2557.26554	6684.8125
2559.96803	6701.6125
2562.66883	6671.3125
2565.36794	6675.8125
2568.06536	6666.1125
2570.7611	6667.8125
2573.45514	6654.7125
2576.14751	6653.5125
2578.83819	6636.1125
2581.52719	6642.2125
2584.21451	6630.7125
2586.90015	6626.2125
2589.58411	6626.4125
2592.2664	6618.4125
2594.94701	6597.2125
2597.62594	6598.8125
2600.30321	6594.6125
2602.9788	6583.6125
2605.65273	6563.7125
2608.32498	6581.8125
2610.99557	6570.8125
2613.66449	6585.3125
2616.33175	6569.7125
2618.99734	6597.6125
2621.66128	6590.1125
2624.32355	6591.4125
2626.98416	6577.7125
2629.64311	6583.4125
2632.30041	6579.6125
2634.95605	6566.4125
2637.61004	6557.2125
2640.26238	6553.6125
2642.91306	6544.6125
2645.56209	6517.8125
2648.20948	6522.3125
2650.85521	6502.0125
2653.4993	6518.4125
2656.14175	6519.5125
2658.78255	6531.4125
2661.42171	6543.5125
2664.05923	6525.8125
2666.6951	6537.9125
2669.32934	6536.5125
2671.96194	6545.7125
2674.59291	6546.1125
2677.22224	6552.7125
2679.84993	6546.3125
2682.476	6536.4125
2685.10043	6544.6125
2687.72324	6530.7125
2690.34441	6536.6125
2692.96396	6527.1125
2695.58188	6544.2125
2698.19818	6531.8125
2700.81285	6535.1125
2703.4259	6537.1125
2706.03733	6583.6125
2708.64714	6555.6125
2711.25533	6549.3125
2713.86191	6525.1125
2716.46687	6553.9125
2719.07021	6555.0125
2721.67194	6545.0125
2724.27206	6525.3125
2726.87057	6544.3125
2729.46747	6545.9125
2732.06276	6545.0125
2734.65644	6544.6125
2737.24852	6512.2125
2739.83899	6509.9125
2742.42786	6508.4125
2745.01513	6502.6125
2747.60079	6505.6125
2750.18486	6494.9125
2752.76733	6511.7125
2755.3482	6500.3125
2757.92747	6500.1125
2760.50515	6481.9125
2763.08123	6481.0125
2765.65573	6480.2125
2768.22863	6496.5125
2770.79994	6470.8125
2773.36967	6493.7125
2775.9378	6458.8125
2778.50435	6484.2125
2781.06932	6451.6125
2783.6327	6455.9125
2786.1945	6463.7125
2788.75471	6465.0125
2791.31335	6431.4125
2793.87041	6414.4125
2796.42589	6409.5125
2798.97979	6419.4125
2801.53212	6398.9125
2804.08288	6392.7125
2806.63206	6392.0125
2809.17967	6388.6125
2811.72571	6380.9125
2814.27018	6378.8125
2816.81308	6371.7125
2819.35442	6374.4125
2821.89419	6371.0125
2824.43239	6363.8125
2826.96904	6358.6125
2829.50412	6363.3125
2832.03763	6326.8125
2834.56959	6365.7125
2837.1	6353.3125
2839.62884	6350.5125
2842.15613	6355.9125
2844.68186	6358.8125
2847.20604	6374.1125
2849.72867	6380.8125
2852.24974	6359.4125
2854.76927	6375.2125
2857.28724	6370.3125
2859.80367	6360.4125
2862.31855	6328.9125
2864.83189	6347.4125
2867.34368	6346.5125
2869.85393	6322.5125
2872.36264	6329.7125
2874.8698	6339.3125
2877.37543	6331.3125
2879.87952	6328.0125
2882.38207	6337.2125
2884.88308	6331.7125
2887.38256	6336.2125
2889.88051	6345.5125
2892.37692	6336.7125
2894.8718	6338.3125
2897.36515	6326.6125
2899.85698	6326.9125
2902.34727	6342.8125
2904.83604	6343.3125
2907.32328	6333.3125
2909.809	6363.2125
2912.29319	6356.1125
2914.77587	6364.2125
2917.25702	6329.6125
2919.73665	6355.2125
2922.21476	6352.5125
2924.69136	6337.7125
2927.16644	6323.8125
2929.64	6323.1125
2932.11205	6325.8125
2934.58258	6297.3125
2937.05161	6295.3125
2939.51912	6301.2125
2941.98513	6255.4125
2944.44962	6258.3125
2946.91261	6240.4125
2949.37409	6232.6125
2951.83407	6235.1125
2954.29254	6217.6125
2956.74951	6228.1125
2959.20498	6202.2125
2961.65895	6174.0125
2964.11142	6176.8125
2966.56239	6147.6125
2969.01186	6143.6125
2971.45984	6131.5125
2973.90632	6107.4125
2976.35131	6085.0125
2978.7948	6080.6125
2981.23681	6066.7125
2983.67732	6041.8125
2986.11635	6033.1125
2988.55388	6000.9125
2990.98993	6004.9125
2993.4245	5997.6125
2995.85758	5983.8125
2998.28917	5940.5125
3000.71928	5949.1125
3003.14791	5939.3125
3005.57506	5948.6125
3008.00073	5929.0125
3010.42493	5914.5125
3012.84764	5903.4125
3015.26888	5916.7125
3017.68865	5906.0125
3020.10694	5878.3125
3022.52376	5861.9125
3024.9391	5849.4125
3027.35298	5858.5125
3029.76539	5834.4125
3032.17632	5813.1125
3034.5858	5818.0125
3036.9938	5810.2125
3039.40034	5790.5125
3041.80542	5777.2125
3044.20903	5784.1125
3046.61118	5769.6125
3049.01187	5750.9125
3051.4111	5767.3125
3053.80888	5735.3125
3056.20519	5719.4125
3058.60005	5704.0125
3060.99345	5701.5125
3063.3854	5700.2125
3065.7759	5665.4125
3068.16494	5645.1125
3070.55254	5635.7125
3072.93868	5627.4125
3075.32338	5601.3125
3077.70662	5588.6125
3080.08842	5593.3125
