Data from AgNPs_FTO_APTES_UA_5um_CRN_0.1mM_R6G_10uM_NaF_0.1M_Addition_RamanShift__22__13-22-39-107.txt Node

Date: Tue Dec 21 13:22:39 GMT 2021
User: TCL
Spectrometer: QEP01345
Trigger mode: 4
Integration Time (sec): 7.000000E0
Scans to average: 10
Electric dark correction enabled: true
Nonlinearity correction enabled: false
Boxcar width: 0
XAxis mode: Raman Shifts
Number of Pixels in Spectrum: 1044
>>>>>Begin Spectral Data<<<<<
46.04893	-0.3875
50.45542	-0.4875
54.85868	-0.3875
59.25871	-0.3875
63.6555	51.0125
68.04907	56.3125
72.43941	59.3125
76.82654	55.5125
81.21044	65.9125
85.59113	79.5125
89.96862	72.9125
94.34289	70.0125
98.71396	72.9125
103.08183	74.6125
107.4465	78.5125
111.80798	81.3125
116.16626	80.5125
120.52136	81.4125
124.87327	86.0125
129.222	87.7125
133.56755	94.9125
137.90993	105.5125
142.24913	111.8125
146.58517	125.0125
150.91804	140.4125
155.24774	169.8125
159.57429	208.0125
163.89768	268.3125
168.21792	348.5125
172.53501	471.8125
176.84895	665.3125
181.15975	929.9125
185.46741	1301.0125
189.77193	1792.8125
194.07331	2396.2125
198.37157	3089.5125
202.6667	3851.4125
206.9587	4583.8125
211.24758	5327.2125
215.53334	6053.1125
219.81599	6837.2125
224.09553	7720.3125
228.37195	8685.0125
232.64527	9710.1125
236.91549	10788.2125
241.18261	11916.3125
245.44663	12917.8125
249.70755	13878.8125
253.96539	14598.5125
258.22014	15258.8125
262.4718	15801.7125
266.72039	16177.4125
270.96589	16277.7125
275.20832	16311.2125
279.44768	16220.0125
283.68397	16088.3125
287.91719	15986.5125
292.14735	15940.7125
296.37445	15963.5125
300.59849	15989.8125
304.81948	16035.7125
309.03742	15923.0125
313.25231	15674.6125
317.46415	15280.8125
321.67296	14789.5125
325.87872	14477.0125
330.08145	14272.9125
334.28114	14251.2125
338.47781	14344.1125
342.67145	14527.7125
346.86207	14738.4125
351.04966	15055.3125
355.23424	15396.6125
359.4158	15641.2125
363.59435	15880.0125
367.76989	16002.6125
371.94243	16102.2125
376.11196	16193.5125
380.27849	16334.9125
384.44203	16446.2125
388.60257	16615.2125
392.76012	16760.9125
396.91468	16955.8125
401.06626	17245.7125
405.21485	17471.7125
409.36047	17409.3125
413.50311	17199.9125
417.64277	16993.2125
421.77947	16911.6125
425.9132	16959.5125
430.04396	17084.1125
434.17176	17226.3125
438.2966	17454.2125
442.41849	17792.5125
446.53742	18345.0125
450.6534	19043.9125
454.76644	19561.7125
458.87653	19690.7125
462.98368	19579.8125
467.08789	19286.3125
471.18916	19018.4125
475.2875	18838.4125
479.38291	18871.4125
483.4754	18778.2125
487.56496	18582.1125
491.6516	18216.0125
495.73531	17834.0125
499.81612	17652.2125
503.89401	17593.3125
507.96899	17615.8125
512.04106	17501.0125
516.11023	17295.1125
520.1765	17119.6125
524.23987	17023.3125
528.30034	16990.6125
532.35792	16948.9125
536.41261	16837.5125
540.46441	16653.7125
544.51333	16505.7125
548.55936	16603.6125
552.60252	16838.9125
556.64279	17224.8125
560.6802	17563.3125
564.71473	17773.2125
568.7464	18158.5125
572.7752	18579.0125
576.80114	18816.9125
580.82422	18985.5125
584.84444	19201.5125
588.86181	19578.7125
592.87633	20151.3125
596.888	20560.0125
600.89682	20524.9125
604.9028	20794.1125
608.90594	22154.7125
612.90624	23642.4125
616.90371	22052.3125
620.89834	18510.2125
624.89015	16903.3125
628.87913	16752.5125
632.86528	16943.8125
636.84862	17038.5125
640.82913	16863.9125
644.80683	16390.6125
648.78172	15965.2125
652.75379	15759.0125
656.72306	15839.2125
660.68952	16088.7125
664.65319	16108.0125
668.61405	15981.4125
672.57211	16026.6125
676.52738	16155.1125
680.47986	16186.8125
684.42955	16087.6125
688.37646	15905.6125
692.32058	15807.4125
696.26192	15855.8125
700.20048	15978.5125
704.13626	16081.5125
708.06928	16049.7125
711.99952	15921.8125
715.927	15832.7125
719.85171	15818.8125
723.77365	15815.7125
727.69284	15725.6125
731.60928	15709.8125
735.52295	15705.1125
739.43388	15727.4125
743.34206	15805.0125
747.24749	15817.3125
751.15017	15889.9125
755.05012	16057.4125
758.94733	16494.0125
762.8418	17314.2125
766.73354	18631.6125
770.62254	20025.4125
774.50882	20493.7125
778.39237	19670.4125
782.27321	18125.5125
786.15132	16738.9125
790.02671	15868.3125
793.89938	15430.9125
797.76935	15220.9125
801.6366	15200.4125
805.50115	15209.2125
809.36299	15141.4125
813.22213	15030.6125
817.07857	14999.6125
820.93231	14948.3125
824.78336	14794.6125
828.63172	14784.7125
832.47738	14738.4125
836.32036	14735.5125
840.16066	14703.7125
843.99827	14684.5125
847.8332	14674.6125
851.66546	14584.2125
855.49504	14588.8125
859.32195	14651.0125
863.1462	14664.8125
866.96777	14679.2125
870.78668	14661.2125
874.60293	14623.1125
878.41652	14588.4125
882.22745	14636.6125
886.03573	14665.4125
889.84136	14676.9125
893.64433	14612.6125
897.44466	14475.6125
901.24235	14353.1125
905.0374	14276.2125
908.8298	14178.4125
912.61957	14187.1125
916.40671	14255.3125
920.19121	14468.7125
923.97308	14662.5125
927.75233	14729.7125
931.52895	14668.5125
935.30295	14486.3125
939.07433	14250.2125
942.84309	14006.5125
946.60924	13864.6125
950.37278	13805.8125
954.13371	13756.8125
957.89203	13691.1125
961.64774	13655.5125
965.40086	13606.1125
969.15137	13509.3125
972.89929	13401.8125
976.64461	13325.8125
980.38733	13304.4125
984.12747	13342.5125
987.86502	13412.6125
991.59999	13558.3125
995.33237	13786.4125
999.06217	14226.1125
1002.78939	14755.3125
1006.51404	15142.7125
1010.23611	15427.9125
1013.95561	15531.7125
1017.67255	15582.3125
1021.38692	15381.8125
1025.09872	15064.3125
1028.80796	14932.4125
1032.51465	15137.8125
1036.21877	15360.9125
1039.92035	15487.8125
1043.61937	15421.7125
1047.31584	15195.3125
1051.00976	14925.7125
1054.70114	14765.0125
1058.38998	14730.4125
1062.07627	14801.8125
1065.76003	14885.5125
1069.44126	14978.2125
1073.11995	15163.1125
1076.79611	15306.6125
1080.46974	15362.4125
1084.14085	15402.0125
1087.80943	15508.4125
1091.47549	15715.8125
1095.13903	15769.7125
1098.80005	15598.2125
1102.45857	15289.9125
1106.11456	14982.7125
1109.76805	14922.0125
1113.41903	14950.7125
1117.06751	15089.8125
1120.71348	15298.5125
1124.35696	15561.6125
1127.99793	15838.8125
1131.63641	16050.9125
1135.2724	16017.3125
1138.90589	15932.1125
1142.5369	15805.9125
1146.16542	15721.8125
1149.79145	15713.0125
1153.415	15767.8125
1157.03607	15974.1125
1160.65467	16356.1125
1164.27079	17039.6125
1167.88443	17995.7125
1171.49561	19165.9125
1175.10432	20721.5125
1178.71056	22638.7125
1182.31434	24396.8125
1185.91565	25356.9125
1189.51451	25346.9125
1193.11091	24628.0125
1196.70485	23607.0125
1200.29634	22508.3125
1203.88538	21563.4125
1207.47197	20919.4125
1211.05612	20342.8125
1214.63782	19874.8125
1218.21708	19648.2125
1221.79391	19492.8125
1225.36829	19395.2125
1228.94024	19150.0125
1232.50976	18680.6125
1236.07685	18312.7125
1239.6415	18082.6125
1243.20374	18059.7125
1246.76355	18124.7125
1250.32093	18379.5125
1253.8759	18781.1125
1257.42845	19393.3125
1260.97859	19979.3125
1264.52631	20481.3125
1268.07163	21025.3125
1271.61453	21652.9125
1275.15503	22310.5125
1278.69312	23031.0125
1282.22882	23738.9125
1285.76211	24417.4125
1289.29301	25308.7125
1292.82151	26439.7125
1296.34761	27832.6125
1299.87133	29540.4125
1303.39266	31370.1125
1306.9116	33248.9125
1310.42815	35133.5125
1313.94233	36429.0125
1317.45412	36705.0125
1320.96354	36189.9125
1324.47058	35444.9125
1327.97525	34691.7125
1331.47754	34089.8125
1334.97747	33784.2125
1338.47502	33680.0125
1341.97022	33461.4125
1345.46305	32940.5125
1348.95352	32262.9125
1352.44163	32022.6125
1355.92738	32457.4125
1359.41078	33522.5125
1362.89183	34506.4125
1366.37053	34075.3125
1369.84688	31621.0125
1373.32088	28398.7125
1376.79254	25923.3125
1380.26186	24790.5125
1383.72883	24567.8125
1387.19347	24563.8125
1390.65578	24487.2125
1394.11575	24719.6125
1397.57339	25390.1125
1401.0287	26375.9125
1404.48168	27222.0125
1407.93234	27708.5125
1411.38068	27444.7125
1414.82669	26616.9125
1418.27039	25355.5125
1421.71177	23882.7125
1425.15083	22569.2125
1428.58758	21827.8125
1432.02203	21719.9125
1435.45416	22027.1125
1438.88399	22605.7125
1442.31151	23103.4125
1445.73673	23694.7125
1449.15965	24280.7125
1452.58027	24714.6125
1455.9986	24922.0125
1459.41463	25211.4125
1462.82837	25688.9125
1466.23982	26269.3125
1469.64898	26817.6125
1473.05586	27052.7125
1476.46045	26981.0125
1479.86276	26708.7125
1483.26279	26378.5125
1486.66054	26102.6125
1490.05602	25940.4125
1493.44922	25859.7125
1496.84016	25707.2125
1500.22882	25593.9125
1503.61521	25755.5125
1506.99934	26297.3125
1510.38121	26850.7125
1513.76081	26986.4125
1517.13816	26481.5125
1520.51324	25575.3125
1523.88607	24546.8125
1527.25665	24025.5125
1530.62498	23870.7125
1533.99105	23886.7125
1537.35488	23907.4125
1540.71647	23691.3125
1544.07581	23367.9125
1547.4329	22875.2125
1550.78776	22420.9125
1554.14038	22087.1125
1557.49077	21924.0125
1560.83892	21932.9125
1564.18484	21934.9125
1567.52853	21928.1125
1570.86999	22018.6125
1574.20922	22231.4125
1577.54624	22445.0125
1580.88103	22474.0125
1584.2136	22635.5125
1587.54395	23302.5125
1590.87208	24582.1125
1594.19801	26367.8125
1597.52172	28229.8125
1600.84321	29097.7125
1604.16251	28166.7125
1607.47959	25901.7125
1610.79447	23199.7125
1614.10715	20773.6125
1617.41763	18866.8125
1620.7259	17609.7125
1624.03199	16977.3125
1627.33587	16879.7125
1630.63757	17309.6125
1633.93707	18446.2125
1637.23439	20257.1125
1640.52951	22876.4125
1643.82246	26114.6125
1647.11321	28820.9125
1650.40179	29629.4125
1653.68819	27902.1125
1656.97241	24416.0125
1660.25446	20674.1125
1663.53433	17809.4125
1666.81203	15897.7125
1670.08756	14678.6125
1673.36092	13933.6125
1676.63211	13432.7125
1679.90115	13068.5125
1683.16801	12806.0125
1686.43272	12596.2125
1689.69527	12484.2125
1692.95567	12342.7125
1696.2139	12264.8125
1699.46999	12239.1125
1702.72392	12185.5125
1705.97571	12130.7125
1709.22535	12047.0125
1712.47284	12016.7125
1715.71819	11983.5125
1718.96139	11915.6125
1722.20246	11860.9125
1725.44139	11799.9125
1728.67818	11758.0125
1731.91284	11693.2125
1735.14537	11652.5125
1738.37576	11602.7125
1741.60403	11545.2125
1744.83017	11537.6125
1748.05418	11516.6125
1751.27607	11515.8125
1754.49584	11514.5125
1757.71349	11485.9125
1760.92903	11458.4125
1764.14244	11412.3125
1767.35375	11370.7125
1770.56294	11328.4125
1773.77002	11285.5125
1776.97499	11258.3125
1780.17785	11217.3125
1783.37861	11219.5125
1786.57727	11172.8125
1789.77382	11117.7125
1792.96828	11143.3125
1796.16064	11072.6125
1799.3509	11046.6125
1802.53907	11052.2125
1805.72514	10980.1125
1808.90913	10968.9125
1812.09102	10938.0125
1815.27083	10928.5125
1818.44856	10888.1125
1821.6242	10879.9125
1824.79776	10877.3125
1827.96924	10836.4125
1831.13864	10804.2125
1834.30597	10826.9125
1837.47122	10823.0125
1840.6344	10816.5125
1843.7955	10800.9125
1846.95454	10799.0125
1850.11151	10797.9125
1853.26642	10788.0125
1856.41926	10798.8125
1859.57004	10805.7125
1862.71876	10790.5125
1865.86542	10786.1125
1869.01003	10783.7125
1872.15258	10772.8125
1875.29308	10780.3125
1878.43152	10765.5125
1881.56792	10746.5125
1884.70227	10734.1125
1887.83457	10757.4125
1890.96482	10726.5125
1894.09304	10735.5125
1897.21921	10737.1125
1900.34335	10737.3125
1903.46544	10726.9125
1906.58551	10727.3125
1909.70353	10684.8125
1912.81953	10682.9125
1915.93349	10648.0125
1919.04543	10617.3125
1922.15534	10594.4125
1925.26322	10562.7125
1928.36908	10524.3125
1931.47292	10507.9125
1934.57473	10459.9125
1937.67453	10428.7125
1940.77232	10414.2125
1943.86808	10364.8125
1946.96184	10349.5125
1950.05358	10308.9125
1953.14331	10240.6125
1956.23103	10231.3125
1959.31675	10186.5125
1962.40046	10153.2125
1965.48217	10117.4125
1968.56188	10099.5125
1971.63959	10056.6125
1974.7153	10049.6125
1977.78901	9983.7125
1980.86073	9961.2125
1983.93046	9930.1125
1986.99819	9889.8125
1990.06394	9857.6125
1993.1277	9820.9125
1996.18947	9800.9125
1999.24925	9788.4125
2002.30706	9725.5125
2005.36288	9705.2125
2008.41672	9679.6125
2011.46859	9661.7125
2014.51848	9625.0125
2017.56639	9599.9125
2020.61233	9595.4125
2023.6563	9554.3125
2026.6983	9553.6125
2029.73833	9520.9125
2032.7764	9507.0125
2035.8125	9499.0125
2038.84664	9450.0125
2041.87881	9462.0125
2044.90903	9469.4125
2047.93729	9441.7125
2050.96359	9446.1125
2053.98794	9410.6125
2057.01034	9390.9125
2060.03078	9385.1125
2063.04927	9358.7125
2066.06582	9329.7125
2069.08042	9319.8125
2072.09307	9338.3125
2075.10378	9310.6125
2078.11255	9302.2125
2081.11938	9324.3125
2084.12426	9287.4125
2087.12722	9299.1125
2090.12824	9274.4125
2093.12732	9261.3125
2096.12447	9241.9125
2099.11969	9260.9125
2102.11299	9285.4125
2105.10435	9243.9125
2108.09379	9269.9125
2111.08131	9264.2125
2114.0669	9268.2125
2117.05057	9263.1125
2120.03233	9278.0125
2123.01216	9247.4125
2125.99008	9256.3125
2128.96609	9287.6125
2131.94018	9279.9125
2134.91236	9291.5125
2137.88263	9280.2125
2140.851	9259.8125
2143.81746	9278.7125
2146.78201	9284.8125
2149.74466	9279.9125
2152.7054	9275.1125
2155.66425	9250.4125
2158.6212	9272.0125
2161.57625	9236.7125
2164.52941	9231.0125
2167.48067	9206.5125
2170.43004	9234.0125
2173.37752	9219.7125
2176.32311	9231.4125
2179.26681	9216.3125
2182.20863	9206.8125
2185.14856	9209.6125
2188.08661	9215.3125
2191.02278	9179.7125
2193.95707	9211.0125
2196.88948	9200.4125
2199.82001	9195.7125
2202.74867	9177.0125
2205.67545	9171.4125
2208.60037	9160.3125
2211.52341	9171.5125
2214.44458	9149.9125
2217.36388	9123.7125
2220.28132	9104.0125
2223.1969	9079.0125
2226.11061	9074.4125
2229.02246	9062.2125
2231.93245	9060.6125
2234.84058	9041.9125
2237.74686	9027.5125
2240.65128	9013.8125
2243.55385	9010.6125
2246.45456	8983.0125
2249.35343	8962.1125
2252.25044	8939.3125
2255.14561	8904.5125
2258.03893	8893.8125
2260.93041	8900.1125
2263.82004	8871.9125
2266.70783	8837.8125
2269.59378	8802.7125
2272.4779	8776.5125
2275.36017	8753.5125
2278.24061	8757.2125
2281.11922	8713.8125
2283.996	8705.1125
2286.87094	8697.4125
2289.74405	8690.2125
2292.61534	8658.4125
2295.4848	8658.6125
2298.35243	8643.1125
2301.21824	8642.3125
2304.08223	8657.3125
2306.94439	8632.6125
2309.80474	8636.6125
2312.66327	8642.7125
2315.51999	8606.4125
2318.37489	8621.5125
2321.22797	8630.2125
2324.07925	8614.7125
2326.92871	8606.8125
2329.77637	8598.1125
2332.62222	8582.2125
2335.46626	8563.8125
2338.3085	8572.2125
2341.14893	8586.4125
2343.98756	8588.9125
2346.8244	8590.2125
2349.65943	8574.5125
2352.49267	8557.8125
2355.32411	8575.7125
2358.15376	8571.7125
2360.98161	8556.3125
2363.80768	8552.9125
2366.63195	8543.5125
2369.45444	8508.1125
2372.27514	8485.6125
2375.09405	8485.3125
2377.91118	8462.4125
2380.72652	8444.4125
2383.54009	8418.5125
2386.35187	8405.7125
2389.16188	8388.9125
2391.97011	8368.1125
2394.77657	8353.9125
2397.58125	8364.6125
2400.38416	8331.3125
2403.18529	8322.8125
2405.98466	8299.1125
2408.78226	8268.3125
2411.57809	8261.3125
2414.37216	8250.6125
2417.16446	8246.9125
2419.955	8222.0125
2422.74378	8233.5125
2425.5308	8222.4125
2428.31606	8190.3125
2431.09956	8198.7125
2433.88131	8186.3125
2436.6613	8183.0125
2439.43954	8167.7125
2442.21603	8155.2125
2444.99077	8163.0125
2447.76377	8120.0125
2450.53501	8169.9125
2453.30451	8167.4125
2456.07226	8153.2125
2458.83827	8166.8125
2461.60254	8150.8125
2464.36507	8158.8125
2467.12586	8149.9125
2469.88492	8149.0125
2472.64224	8133.3125
2475.39782	8143.4125
2478.15167	8140.7125
2480.90379	8149.0125
2483.65417	8155.8125
2486.40283	8148.9125
2489.14976	8139.6125
2491.89497	8142.1125
2494.63845	8165.0125
2497.3802	8161.9125
2500.12024	8146.2125
2502.85855	8136.6125
2505.59514	8139.0125
2508.33002	8124.8125
2511.06318	8135.4125
2513.79462	8093.4125
2516.52435	8103.9125
2519.25237	8093.8125
2521.97867	8055.1125
2524.70327	8079.2125
2527.42616	8065.6125
2530.14734	8057.0125
2532.86681	8057.4125
2535.58458	8059.1125
2538.30065	8030.7125
2541.01501	8031.2125
2543.72768	8016.1125
2546.43864	8014.0125
2549.14791	8001.1125
2551.85548	7994.3125
2554.56136	7976.5125
2557.26554	7958.0125
2559.96803	7975.6125
2562.66883	7993.2125
2565.36794	7976.7125
2568.06536	7966.2125
2570.7611	7934.0125
2573.45514	7947.6125
2576.14751	7970.5125
2578.83819	7958.4125
2581.52719	7972.4125
2584.21451	7938.2125
2586.90015	7934.4125
2589.58411	7944.5125
2592.2664	7912.5125
2594.94701	7921.5125
2597.62594	7913.0125
2600.30321	7897.1125
2602.9788	7903.3125
2605.65273	7876.8125
2608.32498	7890.1125
2610.99557	7891.7125
2613.66449	7902.4125
2616.33175	7876.5125
2618.99734	7878.5125
2621.66128	7878.0125
2624.32355	7909.6125
2626.98416	7881.6125
2629.64311	7907.3125
2632.30041	7884.5125
2634.95605	7877.6125
2637.61004	7885.7125
2640.26238	7864.7125
2642.91306	7854.2125
2645.56209	7852.1125
2648.20948	7853.9125
2650.85521	7860.4125
2653.4993	7836.5125
2656.14175	7853.0125
2658.78255	7833.4125
2661.42171	7848.3125
2664.05923	7862.4125
2666.6951	7873.1125
2669.32934	7867.0125
2671.96194	7869.5125
2674.59291	7873.6125
2677.22224	7849.4125
2679.84993	7856.6125
2682.476	7826.4125
2685.10043	7840.3125
2687.72324	7847.3125
2690.34441	7812.2125
2692.96396	7833.0125
2695.58188	7811.7125
2698.19818	7829.3125
2700.81285	7814.4125
2703.4259	7839.3125
2706.03733	7889.5125
2708.64714	7869.4125
2711.25533	7874.7125
2713.86191	7843.0125
2716.46687	7836.5125
2719.07021	7837.3125
2721.67194	7857.7125
2724.27206	7840.9125
2726.87057	7861.1125
2729.46747	7855.7125
2732.06276	7858.0125
2734.65644	7857.5125
2737.24852	7853.9125
2739.83899	7833.0125
2742.42786	7834.0125
2745.01513	7843.4125
2747.60079	7823.6125
2750.18486	7836.5125
2752.76733	7838.3125
2755.3482	7823.6125
2757.92747	7825.7125
2760.50515	7838.8125
2763.08123	7836.8125
2765.65573	7842.0125
2768.22863	7831.8125
2770.79994	7819.9125
2773.36967	7813.4125
2775.9378	7825.0125
2778.50435	7836.3125
2781.06932	7815.8125
2783.6327	7844.4125
2786.1945	7813.3125
2788.75471	7805.4125
2791.31335	7800.0125
2793.87041	7794.7125
2796.42589	7751.0125
2798.97979	7774.8125
2801.53212	7750.5125
2804.08288	7749.3125
2806.63206	7739.8125
2809.17967	7736.9125
2811.72571	7709.7125
2814.27018	7701.5125
2816.81308	7696.5125
2819.35442	7685.3125
2821.89419	7693.8125
2824.43239	7673.7125
2826.96904	7669.8125
2829.50412	7682.6125
2832.03763	7650.7125
2834.56959	7662.5125
2837.1	7662.9125
2839.62884	7646.3125
2842.15613	7655.1125
2844.68186	7668.8125
2847.20604	7654.1125
2849.72867	7659.3125
2852.24974	7643.0125
2854.76927	7646.4125
2857.28724	7658.7125
2859.80367	7608.2125
2862.31855	7608.5125
2864.83189	7609.4125
2867.34368	7581.4125
2869.85393	7584.1125
2872.36264	7589.6125
2874.8698	7566.0125
2877.37543	7584.7125
2879.87952	7604.6125
2882.38207	7594.1125
2884.88308	7605.0125
2887.38256	7606.6125
2889.88051	7596.3125
2892.37692	7628.7125
2894.8718	7619.5125
2897.36515	7626.0125
2899.85698	7635.1125
2902.34727	7638.6125
2904.83604	7644.3125
2907.32328	7664.7125
2909.809	7678.7125
2912.29319	7697.3125
2914.77587	7687.3125
2917.25702	7707.6125
2919.73665	7675.3125
2922.21476	7707.2125
2924.69136	7693.5125
2927.16644	7684.9125
2929.64	7686.1125
2932.11205	7684.9125
2934.58258	7648.0125
2937.05161	7663.0125
2939.51912	7668.1125
2941.98513	7651.7125
2944.44962	7632.1125
2946.91261	7613.0125
2949.37409	7613.1125
2951.83407	7598.2125
2954.29254	7589.5125
2956.74951	7552.3125
2959.20498	7535.4125
2961.65895	7519.0125
2964.11142	7519.3125
2966.56239	7474.2125
2969.01186	7461.2125
2971.45984	7425.1125
2973.90632	7402.3125
2976.35131	7390.3125
2978.7948	7378.9125
2981.23681	7366.2125
2983.67732	7329.6125
2986.11635	7314.7125
2988.55388	7285.7125
2990.98993	7271.8125
2993.4245	7254.2125
2995.85758	7236.6125
2998.28917	7211.3125
3000.71928	7217.3125
3003.14791	7225.4125
3005.57506	7192.8125
3008.00073	7165.1125
3010.42493	7162.3125
3012.84764	7143.7125
3015.26888	7148.6125
3017.68865	7098.2125
3020.10694	7094.5125
3022.52376	7083.1125
3024.9391	7081.5125
3027.35298	7060.1125
3029.76539	7048.4125
3032.17632	7044.7125
3034.5858	7011.1125
3036.9938	7002.8125
3039.40034	7014.3125
3041.80542	7002.6125
3044.20903	6981.6125
3046.61118	6988.6125
3049.01187	6974.0125
3051.4111	6970.4125
3053.80888	6927.3125
3056.20519	6918.6125
3058.60005	6920.5125
3060.99345	6888.7125
3063.3854	6867.5125
3065.7759	6840.3125
3068.16494	6825.8125
3070.55254	6811.0125
