Data from AgNPs_FTO_APTES_UA_100um_CRN_0.1mM_R6G_10uM_NaF_0.1M_Addition_RamanShift__5__15-50-49-276.txt Node

Date: Tue Dec 21 15:50:49 GMT 2021
User: TCL
Spectrometer: QEP01345
Trigger mode: 4
Integration Time (sec): 7.000000E0
Scans to average: 10
Electric dark correction enabled: true
Nonlinearity correction enabled: false
Boxcar width: 0
XAxis mode: Raman Shifts
Number of Pixels in Spectrum: 1044
>>>>>Begin Spectral Data<<<<<
46.04893	0.775
50.45542	-1.425
54.85868	-1.625
59.25871	0.575
63.6555	34.075
68.04907	39.975
72.43941	44.675
76.82654	43.075
81.21044	48.775
85.59113	50.375
89.96862	52.875
94.34289	51.875
98.71396	53.575
103.08183	57.675
107.4465	59.475
111.80798	61.575
116.16626	58.975
120.52136	58.175
124.87327	60.475
129.222	61.475
133.56755	67.575
137.90993	75.075
142.24913	75.075
146.58517	78.975
150.91804	91.375
155.24774	101.775
159.57429	124.075
163.89768	159.375
168.21792	207.175
172.53501	272.375
176.84895	375.875
181.15975	528.075
185.46741	735.675
189.77193	1019.175
194.07331	1359.575
198.37157	1757.875
202.6667	2168.775
206.9587	2594.275
211.24758	3005.475
215.53334	3434.275
219.81599	3887.675
224.09553	4361.675
228.37195	4913.675
232.64527	5511.575
236.91549	6166.275
241.18261	6786.275
245.44663	7344.375
249.70755	7870.375
253.96539	8289.175
258.22014	8640.575
262.4718	8919.875
266.72039	9139.175
270.96589	9263.975
275.20832	9246.775
279.44768	9186.275
283.68397	9070.275
287.91719	8959.275
292.14735	8905.975
296.37445	8943.475
300.59849	9028.975
304.81948	9089.675
309.03742	9119.475
313.25231	9026.275
317.46415	8776.875
321.67296	8491.175
325.87872	8217.875
330.08145	8061.975
334.28114	8046.775
338.47781	8102.275
342.67145	8202.275
346.86207	8357.975
351.04966	8554.975
355.23424	8748.375
359.4158	8924.675
363.59435	9054.975
367.76989	9190.975
371.94243	9251.875
376.11196	9273.975
380.27849	9300.475
384.44203	9392.175
388.60257	9419.275
392.76012	9461.775
396.91468	9542.075
401.06626	9679.475
405.21485	9774.975
409.36047	9718.575
413.50311	9477.875
417.64277	9247.875
421.77947	9083.975
425.9132	9048.975
430.04396	9028.675
434.17176	9088.275
438.2966	9116.775
442.41849	9185.375
446.53742	9324.375
450.6534	9497.075
454.76644	9612.875
458.87653	9675.475
462.98368	9687.775
467.08789	9670.975
471.18916	9640.275
475.2875	9577.075
479.38291	9544.375
483.4754	9484.275
487.56496	9425.375
491.6516	9333.675
495.73531	9276.175
499.81612	9211.875
503.89401	9227.475
507.96899	9220.575
512.04106	9257.175
516.11023	9248.175
520.1765	9273.975
524.23987	9231.475
528.30034	9166.275
532.35792	9083.875
536.41261	9027.575
540.46441	8924.675
544.51333	8901.475
548.55936	8943.175
552.60252	9083.375
556.64279	9222.475
560.6802	9324.875
564.71473	9373.375
568.7464	9488.975
572.7752	9667.375
576.80114	9712.075
580.82422	9732.975
584.84444	9765.975
588.86181	9789.375
592.87633	9798.775
596.888	9778.075
600.89682	9829.275
604.9028	10209.375
608.90594	11411.275
612.90624	12954.975
616.90371	12629.075
620.89834	10398.975
624.89015	9259.375
628.87913	9117.775
632.86528	9277.675
636.84862	9480.375
640.82913	9434.275
644.80683	9151.975
648.78172	8870.175
652.75379	8752.375
656.72306	8776.475
660.68952	8924.075
664.65319	8911.075
668.61405	8709.275
672.57211	8605.675
676.52738	8608.475
680.47986	8591.575
684.42955	8591.775
688.37646	8551.875
692.32058	8529.575
696.26192	8538.975
700.20048	8597.475
704.13626	8630.375
708.06928	8650.275
711.99952	8605.875
715.927	8602.675
719.85171	8583.775
723.77365	8604.975
727.69284	8553.575
731.60928	8494.275
735.52295	8435.775
739.43388	8431.175
743.34206	8430.375
747.24749	8426.575
751.15017	8465.175
755.05012	8547.975
758.94733	8767.475
762.8418	9193.775
766.73354	9981.075
770.62254	10892.375
774.50882	11370.875
778.39237	10981.975
782.27321	10003.975
786.15132	9117.675
790.02671	8643.875
793.89938	8396.175
797.76935	8255.075
801.6366	8229.175
805.50115	8214.675
809.36299	8250.575
813.22213	8239.975
817.07857	8222.475
820.93231	8223.175
824.78336	8124.375
828.63172	8081.475
832.47738	8069.775
836.32036	8048.675
840.16066	7998.175
843.99827	7973.675
847.8332	7945.775
851.66546	7929.975
855.49504	7935.675
859.32195	7883.975
863.1462	7898.475
866.96777	7883.675
870.78668	7873.275
874.60293	7882.775
878.41652	7911.575
882.22745	7922.775
886.03573	7972.375
889.84136	7990.275
893.64433	7970.075
897.44466	7911.775
901.24235	7836.175
905.0374	7786.275
908.8298	7760.275
912.61957	7719.975
916.40671	7722.275
920.19121	7774.275
923.97308	7818.375
927.75233	7833.875
931.52895	7792.275
935.30295	7740.275
939.07433	7616.475
942.84309	7480.775
946.60924	7414.275
950.37278	7367.675
954.13371	7327.675
957.89203	7337.875
961.64774	7296.175
965.40086	7275.775
969.15137	7248.375
972.89929	7205.675
976.64461	7193.175
980.38733	7162.375
984.12747	7156.275
987.86502	7173.675
991.59999	7190.675
995.33237	7199.275
999.06217	7260.975
1002.78939	7323.875
1006.51404	7408.375
1010.23611	7517.575
1013.95561	7575.675
1017.67255	7578.275
1021.38692	7562.875
1025.09872	7494.475
1028.80796	7409.075
1032.51465	7390.375
1036.21877	7367.775
1039.92035	7406.675
1043.61937	7439.375
1047.31584	7444.075
1051.00976	7467.275
1054.70114	7493.375
1058.38998	7527.375
1062.07627	7563.975
1065.76003	7629.275
1069.44126	7695.475
1073.11995	7773.375
1076.79611	7838.175
1080.46974	7883.275
1084.14085	7905.575
1087.80943	7943.075
1091.47549	8012.875
1095.13903	8024.075
1098.80005	7923.075
1102.45857	7781.375
1106.11456	7636.375
1109.76805	7608.175
1113.41903	7608.875
1117.06751	7740.175
1120.71348	7921.575
1124.35696	8105.075
1127.99793	8285.175
1131.63641	8446.775
1135.2724	8393.475
1138.90589	8200.175
1142.5369	8075.375
1146.16542	7955.975
1149.79145	7863.075
1153.415	7832.975
1157.03607	7848.675
1160.65467	7918.075
1164.27079	8105.875
1167.88443	8393.875
1171.49561	8823.175
1175.10432	9459.375
1178.71056	10286.775
1182.31434	10991.575
1185.91565	11238.375
1189.51451	11170.175
1193.11091	10792.275
1196.70485	10337.875
1200.29634	9940.875
1203.88538	9646.575
1207.47197	9357.975
1211.05612	9067.075
1214.63782	8814.675
1218.21708	8600.475
1221.79391	8415.675
1225.36829	8321.675
1228.94024	8256.675
1232.50976	8213.875
1236.07685	8189.175
1239.6415	8168.875
1243.20374	8175.275
1246.76355	8222.575
1250.32093	8312.075
1253.8759	8432.575
1257.42845	8575.675
1260.97859	8765.475
1264.52631	8941.975
1268.07163	9130.475
1271.61453	9279.775
1275.15503	9450.775
1278.69312	9593.075
1282.22882	9702.775
1285.76211	9901.275
1289.29301	10190.775
1292.82151	10529.375
1296.34761	10935.175
1299.87133	11400.375
1303.39266	11956.675
1306.9116	12660.875
1310.42815	13354.575
1313.94233	13792.275
1317.45412	13674.275
1320.96354	13331.075
1324.47058	12919.775
1327.97525	12523.675
1331.47754	12189.475
1334.97747	11959.375
1338.47502	11859.375
1341.97022	11892.575
1345.46305	11990.675
1348.95352	12203.075
1352.44163	12574.775
1355.92738	13143.275
1359.41078	14094.175
1362.89183	15224.375
1366.37053	15276.775
1369.84688	13885.575
1373.32088	12101.875
1376.79254	10836.675
1380.26186	10247.875
1383.72883	9959.475
1387.19347	9801.975
1390.65578	9652.775
1394.11575	9508.475
1397.57339	9379.275
1401.0287	9336.375
1404.48168	9281.275
1407.93234	9171.175
1411.38068	9012.075
1414.82669	8814.875
1418.27039	8565.475
1421.71177	8339.775
1425.15083	8147.675
1428.58758	8015.975
1432.02203	8000.775
1435.45416	8059.175
1438.88399	8162.875
1442.31151	8233.575
1445.73673	8319.575
1449.15965	8437.675
1452.58027	8516.075
1455.9986	8571.475
1459.41463	8619.875
1462.82837	8695.075
1466.23982	8823.575
1469.64898	8923.575
1473.05586	9040.075
1476.46045	9068.975
1479.86276	9117.575
1483.26279	9164.775
1486.66054	9265.875
1490.05602	9408.975
1493.44922	9685.875
1496.84016	10129.975
1500.22882	10818.475
1503.61521	11782.575
1506.99934	12826.975
1510.38121	13739.675
1513.76081	14018.075
1517.13816	13455.175
1520.51324	12366.575
1523.88607	11337.675
1527.25665	10616.475
1530.62498	10185.675
1533.99105	9927.775
1537.35488	9745.175
1540.71647	9515.375
1544.07581	9306.075
1547.4329	9110.175
1550.78776	8964.075
1554.14038	8916.975
1557.49077	8949.475
1560.83892	9035.975
1564.18484	9169.475
1567.52853	9366.175
1570.86999	9555.775
1574.20922	9724.175
1577.54624	9750.475
1580.88103	9614.475
1584.2136	9282.875
1587.54395	9067.475
1590.87208	9072.375
1594.19801	9261.375
1597.52172	9589.875
1600.84321	9722.675
1604.16251	9484.775
1607.47959	9037.875
1610.79447	8540.975
1614.10715	8079.375
1617.41763	7673.175
1620.7259	7368.875
1624.03199	7206.675
1627.33587	7146.375
1630.63757	7229.075
1633.93707	7437.975
1637.23439	7850.975
1640.52951	8532.775
1643.82246	9415.475
1647.11321	10457.975
1650.40179	11192.975
1653.68819	11118.075
1656.97241	10149.375
1660.25446	8889.975
1663.53433	7863.075
1666.81203	7187.875
1670.08756	6769.075
1673.36092	6481.375
1676.63211	6296.275
1679.90115	6158.175
1683.16801	6078.875
1686.43272	6002.775
1689.69527	5964.475
1692.95567	5920.175
1696.2139	5925.775
1699.46999	5890.475
1702.72392	5872.075
1705.97571	5784.775
1709.22535	5701.375
1712.47284	5655.775
1715.71819	5605.275
1718.96139	5573.475
1722.20246	5535.475
1725.44139	5493.175
1728.67818	5451.675
1731.91284	5426.175
1735.14537	5381.175
1738.37576	5360.975
1741.60403	5331.975
1744.83017	5318.675
1748.05418	5301.775
1751.27607	5303.975
1754.49584	5304.375
1757.71349	5311.075
1760.92903	5291.875
1764.14244	5261.875
1767.35375	5273.375
1770.56294	5248.575
1773.77002	5204.675
1776.97499	5173.075
1780.17785	5159.475
1783.37861	5133.675
1786.57727	5114.575
1789.77382	5098.175
1792.96828	5084.975
1796.16064	5058.475
1799.3509	5050.075
1802.53907	5018.575
1805.72514	5010.375
1808.90913	4977.675
1812.09102	4963.875
1815.27083	4950.875
1818.44856	4927.375
1821.6242	4922.375
1824.79776	4922.775
1827.96924	4896.775
1831.13864	4888.575
1834.30597	4885.275
1837.47122	4860.575
1840.6344	4855.175
1843.7955	4865.375
1846.95454	4839.275
1850.11151	4843.775
1853.26642	4825.575
1856.41926	4813.375
1859.57004	4810.175
1862.71876	4787.675
1865.86542	4782.375
1869.01003	4792.175
1872.15258	4802.775
1875.29308	4790.175
1878.43152	4769.475
1881.56792	4752.275
1884.70227	4746.175
1887.83457	4742.275
1890.96482	4720.375
1894.09304	4708.575
1897.21921	4708.375
1900.34335	4687.775
1903.46544	4676.275
1906.58551	4678.775
1909.70353	4665.975
1912.81953	4656.275
1915.93349	4640.275
1919.04543	4644.775
1922.15534	4624.875
1925.26322	4595.475
1928.36908	4590.875
1931.47292	4584.975
1934.57473	4575.175
1937.67453	4551.775
1940.77232	4541.575
1943.86808	4524.275
1946.96184	4518.075
1950.05358	4505.775
1953.14331	4478.175
1956.23103	4471.675
1959.31675	4459.975
1962.40046	4429.975
1965.48217	4426.875
1968.56188	4396.375
1971.63959	4390.275
1974.7153	4374.875
1977.78901	4361.175
1980.86073	4337.375
1983.93046	4331.875
1986.99819	4302.875
1990.06394	4286.275
1993.1277	4279.275
1996.18947	4251.575
1999.24925	4242.575
2002.30706	4232.275
2005.36288	4208.875
2008.41672	4189.175
2011.46859	4180.875
2014.51848	4165.675
2017.56639	4130.675
2020.61233	4125.375
2023.6563	4123.175
2026.6983	4101.375
2029.73833	4093.675
2032.7764	4088.875
2035.8125	4070.375
2038.84664	4060.375
2041.87881	4055.175
2044.90903	4027.975
2047.93729	4024.775
2050.96359	4006.275
2053.98794	4017.575
2057.01034	4018.175
2060.03078	3995.475
2063.04927	3997.175
2066.06582	3982.575
2069.08042	3954.775
2072.09307	3971.775
2075.10378	3963.075
2078.11255	3945.475
2081.11938	3943.275
2084.12426	3944.275
2087.12722	3939.075
2090.12824	3951.875
2093.12732	3939.375
2096.12447	3944.275
2099.11969	3949.975
2102.11299	3920.275
2105.10435	3946.375
2108.09379	3931.775
2111.08131	3925.275
2114.0669	3914.575
2117.05057	3930.075
2120.03233	3937.275
2123.01216	3921.475
2125.99008	3941.875
2128.96609	3934.275
2131.94018	3922.875
2134.91236	3939.275
2137.88263	3913.375
2140.851	3922.675
2143.81746	3923.275
2146.78201	3915.875
2149.74466	3913.075
2152.7054	3920.575
2155.66425	3905.475
2158.6212	3900.075
2161.57625	3899.875
2164.52941	3884.175
2167.48067	3893.375
2170.43004	3889.475
2173.37752	3900.375
2176.32311	3860.875
2179.26681	3874.075
2182.20863	3869.675
2185.14856	3862.975
2188.08661	3865.975
2191.02278	3858.775
2193.95707	3845.875
2196.88948	3859.175
2199.82001	3837.575
2202.74867	3827.375
2205.67545	3827.075
2208.60037	3814.175
2211.52341	3812.975
2214.44458	3792.575
2217.36388	3790.075
2220.28132	3780.575
2223.1969	3773.375
2226.11061	3750.375
2229.02246	3751.275
2231.93245	3731.475
2234.84058	3722.975
2237.74686	3723.175
2240.65128	3719.775
2243.55385	3711.575
2246.45456	3696.875
2249.35343	3694.875
2252.25044	3686.975
2255.14561	3688.975
2258.03893	3687.975
2260.93041	3679.675
2263.82004	3656.575
2266.70783	3645.175
2269.59378	3623.175
2272.4779	3616.575
2275.36017	3616.975
2278.24061	3596.675
2281.11922	3596.375
2283.996	3585.575
2286.87094	3591.075
2289.74405	3576.075
2292.61534	3561.975
2295.4848	3544.275
2298.35243	3538.075
2301.21824	3534.475
2304.08223	3524.075
2306.94439	3526.275
2309.80474	3524.175
2312.66327	3511.075
2315.51999	3505.175
2318.37489	3518.875
2321.22797	3508.975
2324.07925	3490.675
2326.92871	3497.475
2329.77637	3478.875
2332.62222	3471.275
2335.46626	3467.075
2338.3085	3450.875
2341.14893	3459.675
2343.98756	3448.175
2346.8244	3444.875
2349.65943	3433.175
2352.49267	3441.075
2355.32411	3443.075
2358.15376	3435.775
2360.98161	3440.875
2363.80768	3437.975
2366.63195	3440.375
2369.45444	3430.275
2372.27514	3433.175
2375.09405	3430.975
2377.91118	3407.475
2380.72652	3398.575
2383.54009	3393.575
2386.35187	3373.775
2389.16188	3352.575
2391.97011	3355.475
2394.77657	3339.175
2397.58125	3343.575
2400.38416	3338.675
2403.18529	3320.675
2405.98466	3317.575
2408.78226	3300.275
2411.57809	3288.875
2414.37216	3288.975
2417.16446	3279.175
2419.955	3286.675
2422.74378	3273.575
2425.5308	3272.575
2428.31606	3272.375
2431.09956	3258.275
2433.88131	3254.175
2436.6613	3264.975
2439.43954	3247.575
2442.21603	3250.875
2444.99077	3235.575
2447.76377	3247.375
2450.53501	3232.475
2453.30451	3227.075
2456.07226	3228.975
2458.83827	3228.475
2461.60254	3222.375
2464.36507	3215.875
2467.12586	3200.775
2469.88492	3210.975
2472.64224	3206.275
2475.39782	3213.475
2478.15167	3211.975
2480.90379	3195.875
2483.65417	3210.875
2486.40283	3202.775
2489.14976	3197.775
2491.89497	3192.475
2494.63845	3212.175
2497.3802	3205.475
2500.12024	3189.075
2502.85855	3179.575
2505.59514	3173.475
2508.33002	3173.775
2511.06318	3147.675
2513.79462	3149.075
2516.52435	3139.075
2519.25237	3134.875
2521.97867	3120.975
2524.70327	3125.875
2527.42616	3116.975
2530.14734	3106.175
2532.86681	3088.375
2535.58458	3085.575
2538.30065	3082.975
2541.01501	3080.575
2543.72768	3078.875
2546.43864	3074.975
2549.14791	3070.275
2551.85548	3060.275
2554.56136	3058.375
2557.26554	3048.875
2559.96803	3050.075
2562.66883	3056.875
2565.36794	3032.975
2568.06536	3031.675
2570.7611	3003.675
2573.45514	3020.175
2576.14751	3009.775
2578.83819	3002.775
2581.52719	3004.375
2584.21451	2990.175
2586.90015	2988.975
2589.58411	2972.275
2592.2664	2988.975
2594.94701	2967.075
2597.62594	2957.175
2600.30321	2953.175
2602.9788	2939.775
2605.65273	2937.475
2608.32498	2934.175
2610.99557	2941.675
2613.66449	2922.575
2616.33175	2918.175
2618.99734	2927.375
2621.66128	2911.275
2624.32355	2904.175
2626.98416	2893.175
2629.64311	2881.575
2632.30041	2893.475
2634.95605	2876.075
2637.61004	2874.975
2640.26238	2867.575
2642.91306	2862.475
2645.56209	2868.775
2648.20948	2867.875
2650.85521	2871.375
2653.4993	2866.575
2656.14175	2862.675
2658.78255	2862.075
2661.42171	2862.475
2664.05923	2858.575
2666.6951	2862.975
2669.32934	2849.675
2671.96194	2850.675
2674.59291	2853.875
2677.22224	2859.375
2679.84993	2859.275
2682.476	2841.175
2685.10043	2863.175
2687.72324	2841.775
2690.34441	2850.075
2692.96396	2848.075
2695.58188	2859.275
2698.19818	2836.475
2700.81285	2845.875
2703.4259	2872.475
2706.03733	2920.975
2708.64714	2871.075
2711.25533	2855.375
2713.86191	2844.175
2716.46687	2846.975
2719.07021	2839.275
2721.67194	2834.075
2724.27206	2820.375
2726.87057	2829.675
2729.46747	2832.675
2732.06276	2833.675
2734.65644	2825.475
2737.24852	2831.975
2739.83899	2812.675
2742.42786	2811.375
2745.01513	2797.775
2747.60079	2795.275
2750.18486	2797.875
2752.76733	2799.375
2755.3482	2788.075
2757.92747	2786.375
2760.50515	2787.875
2763.08123	2782.075
2765.65573	2781.175
2768.22863	2783.175
2770.79994	2762.075
2773.36967	2770.375
2775.9378	2763.175
2778.50435	2761.275
2781.06932	2750.375
2783.6327	2756.775
2786.1945	2740.775
2788.75471	2729.575
2791.31335	2731.375
2793.87041	2716.175
2796.42589	2709.575
2798.97979	2727.475
2801.53212	2715.775
2804.08288	2702.875
2806.63206	2714.075
2809.17967	2695.775
2811.72571	2694.575
2814.27018	2688.175
2816.81308	2689.075
2819.35442	2682.375
2821.89419	2684.175
2824.43239	2680.875
2826.96904	2677.375
2829.50412	2678.075
2832.03763	2665.475
2834.56959	2668.075
2837.1	2672.075
2839.62884	2668.575
2842.15613	2672.775
2844.68186	2686.875
2847.20604	2684.475
2849.72867	2695.775
2852.24974	2685.075
2854.76927	2685.475
2857.28724	2694.375
2859.80367	2673.375
2862.31855	2675.575
2864.83189	2671.275
2867.34368	2663.075
2869.85393	2660.875
2872.36264	2653.175
2874.8698	2646.575
2877.37543	2649.375
2879.87952	2665.375
2882.38207	2661.475
2884.88308	2659.475
2887.38256	2643.775
2889.88051	2641.875
2892.37692	2638.675
2894.8718	2646.475
2897.36515	2645.775
2899.85698	2638.675
2902.34727	2643.775
2904.83604	2649.875
2907.32328	2645.575
2909.809	2650.475
2912.29319	2642.875
2914.77587	2654.475
2917.25702	2654.975
2919.73665	2654.675
2922.21476	2655.175
2924.69136	2643.375
2927.16644	2654.175
2929.64	2655.175
2932.11205	2636.675
2934.58258	2625.875
2937.05161	2641.075
2939.51912	2644.375
2941.98513	2625.575
2944.44962	2620.975
2946.91261	2613.775
2949.37409	2619.175
2951.83407	2609.275
2954.29254	2605.175
2956.74951	2613.475
2959.20498	2598.275
2961.65895	2586.975
2964.11142	2579.875
2966.56239	2575.575
2969.01186	2576.775
2971.45984	2568.475
2973.90632	2557.675
2976.35131	2543.675
2978.7948	2543.875
2981.23681	2532.475
2983.67732	2528.975
2986.11635	2532.075
2988.55388	2523.175
2990.98993	2514.475
2993.4245	2520.375
2995.85758	2511.175
2998.28917	2504.775
3000.71928	2501.175
3003.14791	2493.675
3005.57506	2500.375
3008.00073	2490.875
3010.42493	2483.575
3012.84764	2480.675
3015.26888	2496.275
3017.68865	2486.475
3020.10694	2471.775
3022.52376	2468.975
3024.9391	2476.075
3027.35298	2471.175
3029.76539	2460.975
3032.17632	2464.175
3034.5858	2445.675
3036.9938	2461.975
3039.40034	2448.975
3041.80542	2458.275
3044.20903	2437.075
3046.61118	2438.775
3049.01187	2434.575
3051.4111	2447.675
3053.80888	2429.675
3056.20519	2417.975
3058.60005	2435.375
3060.99345	2431.775
3063.3854	2417.875
3065.7759	2419.175
3068.16494	2425.275
3070.55254	2417.675
3072.93868	2421.075
3075.32338	2404.175
3077.70662	2403.275
3080.08842	2410.375
3082.46878	2404.375
3084.84769	2396.875
3087.22515	2407.475
3089.60118	2404.475
3091.97576	2398.375
3094.3489	2401.675
3096.72061	2400.675
3099.09087	2409.975
3101.4597	2408.275
3103.82709	2413.375
3106.19305	2408.775
3108.55757	2407.575
3110.92066	2407.175
3113.28232	2402.275
3115.64255	2405.975
3118.00134	2405.075
3120.35871	2391.975
3122.71466	2398.175
3125.06917	2396.075
3127.42226	2391.075
3129.77393	2403.475
3132.12417	2407.675
3134.47299	2406.475
3136.82039	2396.275
3139.16636	2403.775
3141.51092	2414.975
3143.85406	2418.775
3146.19579	2421.675
3148.53609	2430.875
3150.87499	2431.475
3153.21246	2431.275
3155.54853	2442.775
3157.88318	2436.875
3160.21642	2452.475
3162.54826	2451.875
3164.87868	2443.575
3167.2077	2460.675
3169.5353	2470.475
3171.86151	2456.975
3174.18631	2476.675
3176.5097	2454.675
3178.83169	2461.075
3181.15228	2469.375
3183.47147	2463.275
3185.78926	2460.375
3188.10565	2457.775
3190.42065	2453.675
3192.73424	2472.375
3195.04645	2468.375
3197.35725	2470.675
3199.66667	2475.675
3201.97469	2488.875
3204.28132	2477.175
3206.58656	2487.275
3208.8904	2489.575
3211.19287	2497.875
3213.49394	2498.575
3215.79363	2510.775
3218.09193	2508.275
3220.38884	2510.875
3222.68438	2529.975
3224.97853	2523.275
3227.2713	2511.875
3229.56269	2505.375
