Data from AgNPs_FTO_APTES_UA_20um_CRN_0.1mM_R6G_10uM_NaF_0.1M_Addition_RamanShift__31__14-52-29-209.txt Node

Date: Tue Dec 21 14:52:29 GMT 2021
User: TCL
Spectrometer: QEP01345
Trigger mode: 4
Integration Time (sec): 7.000000E0
Scans to average: 10
Electric dark correction enabled: true
Nonlinearity correction enabled: false
Boxcar width: 0
XAxis mode: Raman Shifts
Number of Pixels in Spectrum: 1044
>>>>>Begin Spectral Data<<<<<
46.04893	0.4125
50.45542	-0.2875
54.85868	-1.7875
59.25871	-0.0875
63.6555	28.3125
68.04907	34.0125
72.43941	35.7125
76.82654	37.3125
81.21044	45.0125
85.59113	44.4125
89.96862	45.4125
94.34289	47.3125
98.71396	47.9125
103.08183	50.8125
107.4465	55.9125
111.80798	51.1125
116.16626	53.4125
120.52136	51.6125
124.87327	52.1125
129.222	51.9125
133.56755	55.0125
137.90993	60.4125
142.24913	59.1125
146.58517	64.7125
150.91804	69.8125
155.24774	81.3125
159.57429	95.8125
163.89768	118.4125
168.21792	143.8125
172.53501	190.1125
176.84895	249.3125
181.15975	351.7125
185.46741	488.7125
189.77193	659.0125
194.07331	873.1125
198.37157	1132.4125
202.6667	1391.9125
206.9587	1665.6125
211.24758	1921.3125
215.53334	2195.0125
219.81599	2484.6125
224.09553	2825.0125
228.37195	3214.8125
232.64527	3627.4125
236.91549	4063.7125
241.18261	4446.8125
245.44663	4766.0125
249.70755	5043.7125
253.96539	5252.7125
258.22014	5406.4125
262.4718	5515.0125
266.72039	5608.3125
270.96589	5655.0125
275.20832	5626.5125
279.44768	5582.7125
283.68397	5510.7125
287.91719	5463.0125
292.14735	5496.6125
296.37445	5611.6125
300.59849	5794.9125
304.81948	6039.2125
309.03742	6224.7125
313.25231	6216.5125
317.46415	5922.8125
321.67296	5450.4125
325.87872	5035.7125
330.08145	4823.1125
334.28114	4806.2125
338.47781	4899.9125
342.67145	5029.5125
346.86207	5272.7125
351.04966	5593.7125
355.23424	5985.6125
359.4158	6266.2125
363.59435	6392.7125
367.76989	6433.4125
371.94243	6415.1125
376.11196	6347.2125
380.27849	6292.3125
384.44203	6210.7125
388.60257	6119.6125
392.76012	6084.0125
396.91468	6139.6125
401.06626	6315.0125
405.21485	6468.3125
409.36047	6382.5125
413.50311	6030.1125
417.64277	5686.2125
421.77947	5478.0125
425.9132	5391.5125
430.04396	5376.0125
434.17176	5375.2125
438.2966	5428.2125
442.41849	5527.4125
446.53742	5682.4125
450.6534	5839.1125
454.76644	5959.9125
458.87653	5956.8125
462.98368	5895.9125
467.08789	5812.9125
471.18916	5680.1125
475.2875	5539.9125
479.38291	5447.6125
483.4754	5326.5125
487.56496	5285.4125
491.6516	5261.8125
495.73531	5253.6125
499.81612	5253.3125
503.89401	5294.7125
507.96899	5360.9125
512.04106	5408.8125
516.11023	5512.2125
520.1765	5572.5125
524.23987	5554.4125
528.30034	5463.1125
532.35792	5335.3125
536.41261	5184.9125
540.46441	5020.3125
544.51333	4931.4125
548.55936	4943.1125
552.60252	5050.0125
556.64279	5193.4125
560.6802	5291.2125
564.71473	5411.1125
568.7464	5661.0125
572.7752	5871.8125
576.80114	5714.2125
580.82422	5519.4125
584.84444	5432.4125
588.86181	5409.1125
592.87633	5392.6125
596.888	5423.0125
600.89682	5635.0125
604.9028	6282.0125
608.90594	8063.3125
612.90624	10525.2125
616.90371	10346.5125
620.89834	7209.5125
624.89015	5643.7125
628.87913	5371.3125
632.86528	5462.3125
636.84862	5594.3125
640.82913	5511.6125
644.80683	5216.2125
648.78172	4953.9125
652.75379	4917.5125
656.72306	5104.7125
660.68952	5385.9125
664.65319	5334.6125
668.61405	5023.2125
672.57211	4863.9125
676.52738	4856.3125
680.47986	4866.8125
684.42955	4822.0125
688.37646	4778.4125
692.32058	4791.5125
696.26192	4835.6125
700.20048	4911.2125
704.13626	4973.7125
708.06928	5001.8125
711.99952	4950.4125
715.927	4897.9125
719.85171	4867.3125
723.77365	4894.4125
727.69284	4809.4125
731.60928	4739.5125
735.52295	4701.3125
739.43388	4697.6125
743.34206	4741.6125
747.24749	4778.6125
751.15017	4842.7125
755.05012	4964.1125
758.94733	5238.6125
762.8418	5835.8125
766.73354	6871.7125
770.62254	7972.7125
774.50882	8584.9125
778.39237	8322.9125
782.27321	7208.3125
786.15132	5993.9125
790.02671	5261.9125
793.89938	4946.2125
797.76935	4808.7125
801.6366	4774.3125
805.50115	4793.6125
809.36299	4824.4125
813.22213	4816.7125
817.07857	4803.1125
820.93231	4745.3125
824.78336	4698.9125
828.63172	4667.1125
832.47738	4669.2125
836.32036	4641.0125
840.16066	4614.1125
843.99827	4572.2125
847.8332	4542.5125
851.66546	4543.4125
855.49504	4520.6125
859.32195	4518.1125
863.1462	4477.2125
866.96777	4458.4125
870.78668	4477.8125
874.60293	4506.7125
878.41652	4541.8125
882.22745	4608.0125
886.03573	4656.8125
889.84136	4674.8125
893.64433	4616.0125
897.44466	4569.5125
901.24235	4512.7125
905.0374	4470.7125
908.8298	4410.3125
912.61957	4384.4125
916.40671	4408.7125
920.19121	4475.7125
923.97308	4491.4125
927.75233	4544.9125
931.52895	4572.6125
935.30295	4513.5125
939.07433	4365.1125
942.84309	4236.5125
946.60924	4146.2125
950.37278	4098.3125
954.13371	4080.1125
957.89203	4062.7125
961.64774	4064.7125
965.40086	4024.4125
969.15137	4014.8125
972.89929	3995.7125
976.64461	3997.5125
980.38733	3983.9125
984.12747	3988.1125
987.86502	3997.7125
991.59999	4022.1125
995.33237	4061.6125
999.06217	4136.7125
1002.78939	4254.8125
1006.51404	4369.8125
1010.23611	4536.3125
1013.95561	4699.7125
1017.67255	4634.2125
1021.38692	4533.1125
1025.09872	4456.5125
1028.80796	4360.1125
1032.51465	4356.9125
1036.21877	4398.9125
1039.92035	4479.1125
1043.61937	4520.1125
1047.31584	4516.3125
1051.00976	4517.3125
1054.70114	4507.3125
1058.38998	4493.6125
1062.07627	4513.8125
1065.76003	4574.8125
1069.44126	4632.0125
1073.11995	4692.8125
1076.79611	4743.9125
1080.46974	4815.4125
1084.14085	4919.1125
1087.80943	5052.8125
1091.47549	5117.0125
1095.13903	5015.0125
1098.80005	4819.2125
1102.45857	4628.1125
1106.11456	4533.9125
1109.76805	4533.7125
1113.41903	4641.9125
1117.06751	4832.9125
1120.71348	5091.1125
1124.35696	5389.6125
1127.99793	5678.7125
1131.63641	5677.9125
1135.2724	5431.0125
1138.90589	5179.3125
1142.5369	4989.7125
1146.16542	4844.7125
1149.79145	4723.9125
1153.415	4698.8125
1157.03607	4708.1125
1160.65467	4794.9125
1164.27079	4941.9125
1167.88443	5227.8125
1171.49561	5655.0125
1175.10432	6431.3125
1178.71056	7445.5125
1182.31434	8160.5125
1185.91565	8327.4125
1189.51451	8072.8125
1193.11091	7646.2125
1196.70485	7133.9125
1200.29634	6773.4125
1203.88538	6472.6125
1207.47197	6047.7125
1211.05612	5648.1125
1214.63782	5376.7125
1218.21708	5258.7125
1221.79391	5205.2125
1225.36829	5204.1125
1228.94024	5208.8125
1232.50976	5219.4125
1236.07685	5231.0125
1239.6415	5249.7125
1243.20374	5249.8125
1246.76355	5289.9125
1250.32093	5342.7125
1253.8759	5445.2125
1257.42845	5616.8125
1260.97859	5776.5125
1264.52631	5935.0125
1268.07163	6095.7125
1271.61453	6278.4125
1275.15503	6397.0125
1278.69312	6441.8125
1282.22882	6492.6125
1285.76211	6637.1125
1289.29301	6834.5125
1292.82151	7092.3125
1296.34761	7348.6125
1299.87133	7741.5125
1303.39266	8400.1125
1306.9116	9364.0125
1310.42815	10448.5125
1313.94233	11029.1125
1317.45412	10802.7125
1320.96354	10040.7125
1324.47058	9270.0125
1327.97525	8629.0125
1331.47754	8238.3125
1334.97747	8114.1125
1338.47502	8186.8125
1341.97022	8427.6125
1345.46305	8754.1125
1348.95352	9243.1125
1352.44163	9914.2125
1355.92738	10869.4125
1359.41078	12348.7125
1362.89183	13635.1125
1366.37053	13274.8125
1369.84688	11430.9125
1373.32088	9528.2125
1376.79254	8223.2125
1380.26186	7463.8125
1383.72883	7033.1125
1387.19347	6750.1125
1390.65578	6473.2125
1394.11575	6253.9125
1397.57339	6172.9125
1401.0287	6202.9125
1404.48168	6251.8125
1407.93234	6309.0125
1411.38068	6347.6125
1414.82669	6297.4125
1418.27039	6174.0125
1421.71177	5988.9125
1425.15083	5839.8125
1428.58758	5736.0125
1432.02203	5718.9125
1435.45416	5768.5125
1438.88399	5782.9125
1442.31151	5770.4125
1445.73673	5796.5125
1449.15965	5855.9125
1452.58027	5829.5125
1455.9986	5818.7125
1459.41463	5812.5125
1462.82837	5910.9125
1466.23982	6022.3125
1469.64898	6154.9125
1473.05586	6238.6125
1476.46045	6299.9125
1479.86276	6427.8125
1483.26279	6559.3125
1486.66054	6777.3125
1490.05602	7067.0125
1493.44922	7435.9125
1496.84016	8038.6125
1500.22882	8950.9125
1503.61521	10115.3125
1506.99934	11321.9125
1510.38121	12403.6125
1513.76081	12752.9125
1517.13816	12047.4125
1520.51324	10545.8125
1523.88607	9050.1125
1527.25665	8029.2125
1530.62498	7475.1125
1533.99105	7183.0125
1537.35488	6981.7125
1540.71647	6873.2125
1544.07581	6815.9125
1547.4329	6788.1125
1550.78776	6753.4125
1554.14038	6709.3125
1557.49077	6716.7125
1560.83892	6788.5125
1564.18484	7004.7125
1567.52853	7269.6125
1570.86999	7473.4125
1574.20922	7622.1125
1577.54624	7585.3125
1580.88103	7187.0125
1584.2136	6631.1125
1587.54395	6341.6125
1590.87208	6355.1125
1594.19801	6682.4125
1597.52172	7158.2125
1600.84321	7400.2125
1604.16251	7205.5125
1607.47959	6753.4125
1610.79447	6224.5125
1614.10715	5708.9125
1617.41763	5317.1125
1620.7259	5048.7125
1624.03199	4921.0125
1627.33587	4889.9125
1630.63757	4972.3125
1633.93707	5156.9125
1637.23439	5525.0125
1640.52951	6079.0125
1643.82246	6853.9125
1647.11321	7825.2125
1650.40179	8560.1125
1653.68819	8497.2125
1656.97241	7536.6125
1660.25446	6300.4125
1663.53433	5356.4125
1666.81203	4778.4125
1670.08756	4413.3125
1673.36092	4202.1125
1676.63211	4044.0125
1679.90115	3953.0125
1683.16801	3852.8125
1686.43272	3799.2125
1689.69527	3734.5125
1692.95567	3688.6125
1696.2139	3688.9125
1699.46999	3666.5125
1702.72392	3649.9125
1705.97571	3613.8125
1709.22535	3570.7125
1712.47284	3581.0125
1715.71819	3572.7125
1718.96139	3574.9125
1722.20246	3569.2125
1725.44139	3552.7125
1728.67818	3514.0125
1731.91284	3490.3125
1735.14537	3459.7125
1738.37576	3425.9125
1741.60403	3398.9125
1744.83017	3398.9125
1748.05418	3382.1125
1751.27607	3374.0125
1754.49584	3358.7125
1757.71349	3370.4125
1760.92903	3354.8125
1764.14244	3331.4125
1767.35375	3313.5125
1770.56294	3304.3125
1773.77002	3271.7125
1776.97499	3274.5125
1780.17785	3241.6125
1783.37861	3216.8125
1786.57727	3219.4125
1789.77382	3213.6125
1792.96828	3196.1125
1796.16064	3177.0125
1799.3509	3168.8125
1802.53907	3170.4125
1805.72514	3145.4125
1808.90913	3133.4125
1812.09102	3124.5125
1815.27083	3116.6125
1818.44856	3106.2125
1821.6242	3090.9125
1824.79776	3087.8125
1827.96924	3084.4125
1831.13864	3064.0125
1834.30597	3078.8125
1837.47122	3068.2125
1840.6344	3056.6125
1843.7955	3054.2125
1846.95454	3057.7125
1850.11151	3050.3125
1853.26642	3051.9125
1856.41926	3039.7125
1859.57004	3034.6125
1862.71876	3049.4125
1865.86542	3034.4125
1869.01003	3023.3125
1872.15258	3041.6125
1875.29308	3032.3125
1878.43152	3024.8125
1881.56792	3016.2125
1884.70227	3028.1125
1887.83457	3022.5125
1890.96482	3022.0125
1894.09304	3009.3125
1897.21921	3017.3125
1900.34335	3014.6125
1903.46544	3003.2125
1906.58551	3012.0125
1909.70353	3008.5125
1912.81953	3004.0125
1915.93349	2998.6125
1919.04543	2983.8125
1922.15534	2985.8125
1925.26322	2974.4125
1928.36908	2973.1125
1931.47292	2949.1125
1934.57473	2947.4125
1937.67453	2923.4125
1940.77232	2920.9125
1943.86808	2900.7125
1946.96184	2895.5125
1950.05358	2890.5125
1953.14331	2872.1125
1956.23103	2873.0125
1959.31675	2863.2125
1962.40046	2842.9125
1965.48217	2831.5125
1968.56188	2823.3125
1971.63959	2823.3125
1974.7153	2827.5125
1977.78901	2815.0125
1980.86073	2797.1125
1983.93046	2792.9125
1986.99819	2781.0125
1990.06394	2757.4125
1993.1277	2746.2125
1996.18947	2740.9125
1999.24925	2742.1125
2002.30706	2724.5125
2005.36288	2715.1125
2008.41672	2696.0125
2011.46859	2693.7125
2014.51848	2689.7125
2017.56639	2669.0125
2020.61233	2664.8125
2023.6563	2658.0125
2026.6983	2652.8125
2029.73833	2655.8125
2032.7764	2642.7125
2035.8125	2624.1125
2038.84664	2616.6125
2041.87881	2617.8125
2044.90903	2600.2125
2047.93729	2595.1125
2050.96359	2598.5125
2053.98794	2592.4125
2057.01034	2602.0125
2060.03078	2592.3125
2063.04927	2586.1125
2066.06582	2578.4125
2069.08042	2583.6125
2072.09307	2576.6125
2075.10378	2565.7125
2078.11255	2565.1125
2081.11938	2558.0125
2084.12426	2558.5125
2087.12722	2555.2125
2090.12824	2554.3125
2093.12732	2567.5125
2096.12447	2553.8125
2099.11969	2548.6125
2102.11299	2545.6125
2105.10435	2553.7125
2108.09379	2547.9125
2111.08131	2557.6125
2114.0669	2544.7125
2117.05057	2557.8125
2120.03233	2564.7125
2123.01216	2559.5125
2125.99008	2560.3125
2128.96609	2552.4125
2131.94018	2554.1125
2134.91236	2548.4125
2137.88263	2546.1125
2140.851	2553.2125
2143.81746	2556.1125
2146.78201	2538.9125
2149.74466	2543.0125
2152.7054	2548.7125
2155.66425	2539.2125
2158.6212	2533.3125
2161.57625	2532.7125
2164.52941	2543.9125
2167.48067	2526.1125
2170.43004	2524.5125
2173.37752	2534.1125
2176.32311	2515.2125
2179.26681	2525.4125
2182.20863	2519.1125
2185.14856	2528.0125
2188.08661	2517.0125
2191.02278	2517.5125
2193.95707	2508.1125
2196.88948	2506.2125
2199.82001	2501.2125
2202.74867	2497.7125
2205.67545	2491.6125
2208.60037	2484.7125
2211.52341	2499.5125
2214.44458	2481.2125
2217.36388	2459.5125
2220.28132	2459.3125
2223.1969	2455.7125
2226.11061	2448.8125
2229.02246	2450.1125
2231.93245	2442.0125
2234.84058	2437.4125
2237.74686	2435.8125
2240.65128	2424.4125
2243.55385	2429.8125
2246.45456	2424.3125
2249.35343	2417.4125
2252.25044	2415.1125
2255.14561	2410.6125
2258.03893	2418.3125
2260.93041	2409.0125
2263.82004	2406.0125
2266.70783	2399.4125
2269.59378	2390.0125
2272.4779	2390.0125
2275.36017	2395.7125
2278.24061	2375.4125
2281.11922	2369.5125
2283.996	2353.5125
2286.87094	2352.5125
2289.74405	2348.1125
2292.61534	2340.1125
2295.4848	2335.9125
2298.35243	2336.5125
2301.21824	2335.1125
2304.08223	2320.9125
2306.94439	2330.5125
2309.80474	2319.9125
2312.66327	2322.4125
2315.51999	2311.0125
2318.37489	2318.6125
2321.22797	2307.6125
2324.07925	2304.6125
2326.92871	2307.8125
2329.77637	2303.7125
2332.62222	2299.9125
2335.46626	2301.2125
2338.3085	2280.9125
2341.14893	2291.9125
2343.98756	2290.7125
2346.8244	2273.5125
2349.65943	2277.8125
2352.49267	2278.6125
2355.32411	2296.7125
2358.15376	2291.2125
2360.98161	2294.8125
2363.80768	2292.6125
2366.63195	2302.1125
2369.45444	2310.9125
2372.27514	2302.4125
2375.09405	2290.6125
2377.91118	2292.8125
2380.72652	2275.8125
2383.54009	2264.2125
2386.35187	2260.9125
2389.16188	2255.8125
2391.97011	2241.2125
2394.77657	2233.9125
2397.58125	2227.1125
2400.38416	2225.2125
2403.18529	2210.9125
2405.98466	2212.2125
2408.78226	2209.5125
2411.57809	2198.4125
2414.37216	2193.4125
2417.16446	2185.6125
2419.955	2191.3125
2422.74378	2184.9125
2425.5308	2181.6125
2428.31606	2180.9125
2431.09956	2173.1125
2433.88131	2172.1125
2436.6613	2185.6125
2439.43954	2167.1125
2442.21603	2168.4125
2444.99077	2174.0125
2447.76377	2166.5125
2450.53501	2171.4125
2453.30451	2176.4125
2456.07226	2172.2125
2458.83827	2174.0125
2461.60254	2171.4125
2464.36507	2167.0125
2467.12586	2167.1125
2469.88492	2161.3125
2472.64224	2158.6125
2475.39782	2165.1125
2478.15167	2183.1125
2480.90379	2168.9125
2483.65417	2179.2125
2486.40283	2172.5125
2489.14976	2178.1125
2491.89497	2176.2125
2494.63845	2193.8125
2497.3802	2196.7125
2500.12024	2190.8125
2502.85855	2153.1125
2505.59514	2162.2125
2508.33002	2152.6125
2511.06318	2145.4125
2513.79462	2144.0125
2516.52435	2127.2125
2519.25237	2125.8125
2521.97867	2105.1125
2524.70327	2111.7125
2527.42616	2104.4125
2530.14734	2100.8125
2532.86681	2096.6125
2535.58458	2098.0125
2538.30065	2091.3125
2541.01501	2098.4125
2543.72768	2081.7125
2546.43864	2088.5125
2549.14791	2076.4125
2551.85548	2091.4125
2554.56136	2085.5125
2557.26554	2072.7125
2559.96803	2075.7125
2562.66883	2067.9125
2565.36794	2072.1125
2568.06536	2068.8125
2570.7611	2069.6125
2573.45514	2060.4125
2576.14751	2059.0125
2578.83819	2050.2125
2581.52719	2067.4125
2584.21451	2031.1125
2586.90015	2045.6125
2589.58411	2040.4125
2592.2664	2034.8125
2594.94701	2028.0125
2597.62594	2028.0125
2600.30321	2028.0125
2602.9788	2018.4125
2605.65273	2024.1125
2608.32498	2024.8125
2610.99557	2016.7125
2613.66449	2022.8125
2616.33175	2014.5125
2618.99734	2010.4125
2621.66128	2009.8125
2624.32355	2010.8125
2626.98416	2018.6125
2629.64311	2000.8125
2632.30041	2003.0125
2634.95605	2001.1125
2637.61004	1989.1125
2640.26238	1995.3125
2642.91306	1979.8125
2645.56209	1985.2125
2648.20948	1995.4125
2650.85521	1984.8125
2653.4993	1994.3125
2656.14175	1989.1125
2658.78255	1988.5125
2661.42171	1988.1125
2664.05923	1996.4125
2666.6951	1991.5125
2669.32934	1997.3125
2671.96194	2000.6125
2674.59291	2007.8125
2677.22224	2004.3125
2679.84993	2012.1125
2682.476	2003.1125
2685.10043	1996.8125
2687.72324	1992.0125
2690.34441	2001.1125
2692.96396	2001.5125
2695.58188	2001.9125
2698.19818	2001.8125
2700.81285	2013.6125
2703.4259	2034.4125
2706.03733	2075.2125
2708.64714	2042.9125
2711.25533	2024.5125
2713.86191	2023.5125
2716.46687	2024.1125
2719.07021	2026.4125
2721.67194	2031.8125
2724.27206	2029.3125
2726.87057	2027.8125
2729.46747	2029.4125
2732.06276	2023.1125
2734.65644	2025.6125
2737.24852	2015.0125
2739.83899	2004.5125
2742.42786	2015.9125
2745.01513	1999.0125
2747.60079	2001.3125
2750.18486	1991.8125
2752.76733	1992.6125
2755.3482	1995.9125
2757.92747	1992.1125
2760.50515	1984.5125
2763.08123	1980.3125
2765.65573	1978.2125
2768.22863	1973.2125
2770.79994	1979.7125
2773.36967	1983.7125
2775.9378	1984.5125
2778.50435	1981.1125
2781.06932	1970.4125
2783.6327	1974.8125
2786.1945	1974.9125
2788.75471	1990.8125
2791.31335	1987.6125
2793.87041	1981.4125
2796.42589	1976.6125
2798.97979	1978.6125
2801.53212	1985.6125
2804.08288	1981.9125
2806.63206	1985.3125
2809.17967	1982.8125
2811.72571	1997.0125
2814.27018	2002.5125
2816.81308	2000.7125
2819.35442	1993.6125
2821.89419	2001.2125
2824.43239	2003.1125
2826.96904	2017.2125
2829.50412	2021.2125
2832.03763	2021.3125
2834.56959	2028.5125
2837.1	2024.6125
2839.62884	2052.4125
2842.15613	2082.2125
2844.68186	2116.1125
2847.20604	2143.6125
2849.72867	2189.8125
2852.24974	2208.9125
2854.76927	2208.3125
2857.28724	2222.4125
2859.80367	2192.5125
2862.31855	2175.3125
2864.83189	2166.0125
2867.34368	2168.1125
2869.85393	2146.8125
2872.36264	2141.5125
2874.8698	2141.4125
2877.37543	2157.5125
2879.87952	2163.3125
2882.38207	2147.2125
2884.88308	2147.9125
2887.38256	2138.0125
2889.88051	2144.6125
2892.37692	2140.5125
2894.8718	2136.9125
2897.36515	2146.1125
2899.85698	2138.8125
2902.34727	2157.7125
2904.83604	2141.7125
2907.32328	2139.2125
2909.809	2148.1125
2912.29319	2146.4125
2914.77587	2142.5125
2917.25702	2141.8125
2919.73665	2142.6125
2922.21476	2129.6125
2924.69136	2128.0125
2927.16644	2125.2125
2929.64	2126.4125
2932.11205	2122.9125
2934.58258	2104.4125
2937.05161	2107.3125
2939.51912	2093.2125
2941.98513	2071.2125
2944.44962	2044.3125
2946.91261	2021.5125
2949.37409	2008.7125
2951.83407	2005.0125
2954.29254	1990.6125
2956.74951	1973.3125
2959.20498	1966.0125
2961.65895	1956.9125
2964.11142	1949.0125
2966.56239	1920.4125
2969.01186	1911.8125
2971.45984	1921.6125
2973.90632	1917.1125
2976.35131	1905.9125
2978.7948	1888.2125
2981.23681	1895.8125
2983.67732	1871.4125
2986.11635	1874.2125
2988.55388	1872.1125
2990.98993	1866.1125
2993.4245	1859.1125
2995.85758	1838.6125
2998.28917	1840.8125
3000.71928	1847.6125
3003.14791	1842.0125
3005.57506	1847.4125
3008.00073	1840.6125
3010.42493	1830.5125
3012.84764	1834.0125
3015.26888	1843.4125
3017.68865	1831.7125
3020.10694	1820.8125
3022.52376	1825.5125
3024.9391	1825.4125
3027.35298	1817.4125
3029.76539	1814.5125
3032.17632	1816.9125
3034.5858	1814.4125
3036.9938	1816.5125
3039.40034	1799.2125
3041.80542	1809.3125
3044.20903	1798.6125
3046.61118	1809.2125
3049.01187	1798.9125
3051.4111	1803.2125
3053.80888	1796.3125
3056.20519	1802.9125
3058.60005	1799.4125
3060.99345	1787.5125
3063.3854	1791.1125
3065.7759	1793.1125
3068.16494	1781.4125
3070.55254	1781.1125
3072.93868	1789.3125
3075.32338	1787.5125
3077.70662	1773.7125
3080.08842	1769.3125
3082.46878	1773.5125
3084.84769	1765.3125
3087.22515	1750.4125
3089.60118	1770.4125
3091.97576	1776.6125
3094.3489	1761.9125
3096.72061	1760.3125
3099.09087	1770.0125
3101.4597	1764.8125
3103.82709	1774.7125
3106.19305	1764.8125
3108.55757	1769.3125
3110.92066	1765.2125
3113.28232	1767.5125
3115.64255	1761.4125
3118.00134	1770.1125
3120.35871	1761.7125
3122.71466	1765.4125
