Data from AgNPs_FTO_APTES_UA_100um_CRN_0.1mM_R6G_10uM_NaF_0.1M_Addition_RamanShift__8__15-54-19-280.txt Node

Date: Tue Dec 21 15:54:19 GMT 2021
User: TCL
Spectrometer: QEP01345
Trigger mode: 4
Integration Time (sec): 7.000000E0
Scans to average: 10
Electric dark correction enabled: true
Nonlinearity correction enabled: false
Boxcar width: 0
XAxis mode: Raman Shifts
Number of Pixels in Spectrum: 1044
>>>>>Begin Spectral Data<<<<<
46.04893	-0.225
50.45542	-0.925
54.85868	-0.625
59.25871	-0.225
63.6555	33.875
68.04907	38.975
72.43941	72.175
76.82654	44.775
81.21044	44.175
85.59113	46.975
89.96862	48.875
94.34289	49.575
98.71396	49.175
103.08183	51.575
107.4465	55.175
111.80798	54.275
116.16626	52.475
120.52136	55.575
124.87327	55.975
129.222	54.975
133.56755	62.775
137.90993	63.175
142.24913	68.475
146.58517	74.375
150.91804	85.275
155.24774	97.875
159.57429	118.275
163.89768	152.575
168.21792	191.675
172.53501	265.875
176.84895	361.175
181.15975	508.675
185.46741	707.275
189.77193	968.675
194.07331	1298.175
198.37157	1680.875
202.6667	2079.575
206.9587	2467.375
211.24758	2881.775
215.53334	3285.075
219.81599	3712.675
224.09553	4188.175
228.37195	4713.375
232.64527	5292.475
236.91549	5899.475
241.18261	6502.575
245.44663	7065.875
249.70755	7563.975
253.96539	7933.575
258.22014	8296.775
262.4718	8557.175
266.72039	8759.475
270.96589	8877.775
275.20832	8910.075
279.44768	8803.475
283.68397	8708.375
287.91719	8596.075
292.14735	8532.575
296.37445	8546.275
300.59849	8606.675
304.81948	8685.375
309.03742	8693.475
313.25231	8610.375
317.46415	8413.575
321.67296	8138.675
325.87872	7851.475
330.08145	7725.875
334.28114	7706.475
338.47781	7779.875
342.67145	7876.475
346.86207	8002.675
351.04966	8174.475
355.23424	8357.675
359.4158	8528.175
363.59435	8651.475
367.76989	8733.875
371.94243	8796.375
376.11196	8858.675
380.27849	8885.675
384.44203	8932.975
388.60257	8948.675
392.76012	9017.675
396.91468	9109.075
401.06626	9225.475
405.21485	9309.675
409.36047	9255.475
413.50311	9047.775
417.64277	8833.975
421.77947	8717.375
425.9132	8655.775
430.04396	8673.775
434.17176	8692.875
438.2966	8729.675
442.41849	8801.075
446.53742	8902.175
450.6534	9053.775
454.76644	9151.775
458.87653	9243.675
462.98368	9265.275
467.08789	9247.675
471.18916	9191.575
475.2875	9167.875
479.38291	9135.175
483.4754	9084.475
487.56496	9019.075
491.6516	8956.675
495.73531	8860.575
499.81612	8830.875
503.89401	8836.575
507.96899	8880.875
512.04106	8873.775
516.11023	8887.075
520.1765	8906.475
524.23987	8881.175
528.30034	8780.175
532.35792	8711.275
536.41261	8658.275
540.46441	8580.075
544.51333	8559.975
548.55936	8616.775
552.60252	8755.375
556.64279	8877.575
560.6802	8961.575
564.71473	8978.775
568.7464	9103.375
572.7752	9222.375
576.80114	9320.075
580.82422	9322.275
584.84444	9370.775
588.86181	9348.575
592.87633	9322.775
596.888	9300.475
600.89682	9339.775
604.9028	9701.775
608.90594	10764.775
612.90624	12111.475
616.90371	11850.575
620.89834	9886.875
624.89015	8864.175
628.87913	8732.775
632.86528	8895.275
636.84862	9053.475
640.82913	9047.275
644.80683	8801.075
648.78172	8548.975
652.75379	8431.575
656.72306	8469.875
660.68952	8599.375
664.65319	8590.275
668.61405	8416.675
672.57211	8308.275
676.52738	8332.675
680.47986	8347.475
684.42955	8310.775
688.37646	8256.175
692.32058	8225.775
696.26192	8229.675
700.20048	8288.475
704.13626	8324.775
708.06928	8363.175
711.99952	8313.675
715.927	8301.775
719.85171	8291.375
723.77365	8302.075
727.69284	8261.875
731.60928	8191.975
735.52295	8135.075
739.43388	8106.875
743.34206	8113.875
747.24749	8133.775
751.15017	8167.175
755.05012	8233.375
758.94733	8420.775
762.8418	8801.375
766.73354	9527.175
770.62254	10333.475
774.50882	10738.675
778.39237	10399.875
782.27321	9516.775
786.15132	8754.175
790.02671	8315.675
793.89938	8074.075
797.76935	7998.375
801.6366	7931.275
805.50115	7918.275
809.36299	7918.475
813.22213	7924.875
817.07857	7957.475
820.93231	7900.575
824.78336	7862.775
828.63172	7804.175
832.47738	7770.875
836.32036	7761.975
840.16066	7725.075
843.99827	7706.375
847.8332	7667.975
851.66546	7658.575
855.49504	7630.975
859.32195	7613.875
863.1462	7626.675
866.96777	7606.075
870.78668	7583.775
874.60293	7602.075
878.41652	7631.075
882.22745	7625.175
886.03573	7678.075
889.84136	7680.775
893.64433	7644.775
897.44466	7620.975
901.24235	7587.775
905.0374	7519.775
908.8298	7486.875
912.61957	7482.075
916.40671	7508.475
920.19121	7564.775
923.97308	7563.275
927.75233	7555.775
931.52895	7533.375
935.30295	7463.275
939.07433	7343.575
942.84309	7252.175
946.60924	7157.475
950.37278	7130.075
954.13371	7073.975
957.89203	7065.475
961.64774	7066.075
965.40086	7036.575
969.15137	7031.375
972.89929	6977.575
976.64461	6948.875
980.38733	6933.175
984.12747	6931.475
987.86502	6945.275
991.59999	6967.675
995.33237	6954.275
999.06217	6989.075
1002.78939	7060.175
1006.51404	7138.975
1010.23611	7223.875
1013.95561	7277.475
1017.67255	7277.575
1021.38692	7241.575
1025.09872	7208.875
1028.80796	7153.575
1032.51465	7084.975
1036.21877	7081.975
1039.92035	7134.075
1043.61937	7153.475
1047.31584	7180.375
1051.00976	7222.175
1054.70114	7229.075
1058.38998	7264.275
1062.07627	7301.575
1065.76003	7363.075
1069.44126	7427.075
1073.11995	7505.075
1076.79611	7556.275
1080.46974	7579.875
1084.14085	7612.875
1087.80943	7646.075
1091.47549	7677.775
1095.13903	7684.975
1098.80005	7646.875
1102.45857	7500.975
1106.11456	7362.775
1109.76805	7300.875
1113.41903	7341.075
1117.06751	7443.675
1120.71348	7598.975
1124.35696	7744.275
1127.99793	7927.775
1131.63641	8060.375
1135.2724	7990.575
1138.90589	7831.575
1142.5369	7698.975
1146.16542	7613.075
1149.79145	7545.775
1153.415	7498.975
1157.03607	7499.375
1160.65467	7544.775
1164.27079	7708.775
1167.88443	7988.075
1171.49561	8349.475
1175.10432	8886.975
1178.71056	9624.675
1182.31434	10251.475
1185.91565	10504.675
1189.51451	10450.275
1193.11091	10132.475
1196.70485	9764.075
1200.29634	9402.575
1203.88538	9133.975
1207.47197	8850.175
1211.05612	8567.275
1214.63782	8334.275
1218.21708	8134.775
1221.79391	7972.375
1225.36829	7875.575
1228.94024	7795.775
1232.50976	7773.875
1236.07685	7746.475
1239.6415	7762.675
1243.20374	7779.875
1246.76355	7793.575
1250.32093	7879.575
1253.8759	7959.375
1257.42845	8117.675
1260.97859	8284.375
1264.52631	8441.175
1268.07163	8611.175
1271.61453	8751.975
1275.15503	8869.875
1278.69312	8978.875
1282.22882	9114.375
1285.76211	9250.475
1289.29301	9476.775
1292.82151	9781.075
1296.34761	10092.575
1299.87133	10470.375
1303.39266	10937.275
1306.9116	11523.475
1310.42815	12112.375
1313.94233	12478.075
1317.45412	12407.175
1320.96354	12070.975
1324.47058	11761.775
1327.97525	11430.875
1331.47754	11148.175
1334.97747	11004.975
1338.47502	10938.675
1341.97022	11023.075
1345.46305	11165.275
1348.95352	11404.375
1352.44163	11690.175
1355.92738	12163.475
1359.41078	12955.275
1362.89183	13927.775
1366.37053	13981.075
1369.84688	12727.375
1373.32088	11180.175
1376.79254	10093.275
1380.26186	9516.575
1383.72883	9280.675
1387.19347	9109.975
1390.65578	8961.075
1394.11575	8793.575
1397.57339	8657.975
1401.0287	8541.375
1404.48168	8506.875
1407.93234	8387.475
1411.38068	8238.675
1414.82669	8080.575
1418.27039	7899.875
1421.71177	7712.275
1425.15083	7553.175
1428.58758	7437.475
1432.02203	7401.275
1435.45416	7451.875
1438.88399	7524.775
1442.31151	7584.175
1445.73673	7667.875
1449.15965	7768.075
1452.58027	7845.175
1455.9986	7891.475
1459.41463	7936.675
1462.82837	8020.475
1466.23982	8128.675
1469.64898	8248.875
1473.05586	8336.575
1476.46045	8392.275
1479.86276	8445.275
1483.26279	8519.375
1486.66054	8593.775
1490.05602	8747.875
1493.44922	8992.675
1496.84016	9394.975
1500.22882	10035.375
1503.61521	10925.075
1506.99934	11907.375
1510.38121	12699.875
1513.76081	12950.375
1517.13816	12438.575
1520.51324	11466.175
1523.88607	10529.775
1527.25665	9909.275
1530.62498	9532.575
1533.99105	9293.475
1537.35488	9087.275
1540.71647	8887.375
1544.07581	8668.275
1547.4329	8505.575
1550.78776	8417.775
1554.14038	8373.775
1557.49077	8383.575
1560.83892	8469.775
1564.18484	8600.675
1567.52853	8757.375
1570.86999	8908.075
1574.20922	9038.675
1577.54624	9068.175
1580.88103	8930.975
1584.2136	8623.575
1587.54395	8359.575
1590.87208	8329.275
1594.19801	8468.575
1597.52172	8724.675
1600.84321	8842.275
1604.16251	8641.775
1607.47959	8275.975
1610.79447	7910.275
1614.10715	7520.975
1617.41763	7169.275
1620.7259	6912.075
1624.03199	6730.675
1627.33587	6693.075
1630.63757	6732.575
1633.93707	6912.075
1637.23439	7242.975
1640.52951	7792.775
1643.82246	8557.575
1647.11321	9442.775
1650.40179	10089.175
1653.68819	10089.975
1656.97241	9302.475
1660.25446	8241.975
1663.53433	7370.175
1666.81203	6759.975
1670.08756	6368.275
1673.36092	6118.975
1676.63211	5951.175
1679.90115	5840.475
1683.16801	5760.675
1686.43272	5684.175
1689.69527	5637.975
1692.95567	5619.375
1696.2139	5610.975
1699.46999	5629.975
1702.72392	5579.475
1705.97571	5509.575
1709.22535	5454.675
1712.47284	5411.075
1715.71819	5347.475
1718.96139	5282.075
1722.20246	5251.275
1725.44139	5199.675
1728.67818	5164.775
1731.91284	5131.175
1735.14537	5089.175
1738.37576	5066.875
1741.60403	5043.875
1744.83017	5030.475
1748.05418	5030.175
1751.27607	5016.875
1754.49584	5016.875
1757.71349	5022.575
1760.92903	5023.475
1764.14244	4989.975
1767.35375	4976.475
1770.56294	4965.475
1773.77002	4938.075
1776.97499	4896.475
1780.17785	4886.375
1783.37861	4856.675
1786.57727	4837.875
1789.77382	4810.275
1792.96828	4813.275
1796.16064	4768.675
1799.3509	4756.775
1802.53907	4744.475
1805.72514	4708.375
1808.90913	4710.375
1812.09102	4701.875
1815.27083	4669.275
1818.44856	4657.875
1821.6242	4652.875
1824.79776	4639.575
1827.96924	4614.475
1831.13864	4617.275
1834.30597	4611.675
1837.47122	4600.575
1840.6344	4598.275
1843.7955	4583.175
1846.95454	4569.575
1850.11151	4559.175
1853.26642	4569.475
1856.41926	4544.375
1859.57004	4546.275
1862.71876	4517.375
1865.86542	4522.775
1869.01003	4511.375
1872.15258	4501.875
1875.29308	4499.175
1878.43152	4478.875
1881.56792	4471.875
1884.70227	4465.575
1887.83457	4457.675
1890.96482	4441.675
1894.09304	4433.775
1897.21921	4426.375
1900.34335	4410.775
1903.46544	4409.875
1906.58551	4391.475
1909.70353	4394.675
1912.81953	4388.475
1915.93349	4376.275
1919.04543	4357.075
1922.15534	4345.475
1925.26322	4323.575
1928.36908	4299.375
1931.47292	4313.775
1934.57473	4295.475
1937.67453	4281.375
1940.77232	4265.475
1943.86808	4252.275
1946.96184	4246.175
1950.05358	4240.375
1953.14331	4206.475
1956.23103	4194.575
1959.31675	4184.775
1962.40046	4164.975
1965.48217	4138.775
1968.56188	4136.475
1971.63959	4119.575
1974.7153	4103.875
1977.78901	4087.175
1980.86073	4087.975
1983.93046	4056.275
1986.99819	4040.775
1990.06394	4020.775
1993.1277	4010.375
1996.18947	3985.375
1999.24925	3980.775
2002.30706	3974.775
2005.36288	3943.375
2008.41672	3928.975
2011.46859	3908.975
2014.51848	3892.275
2017.56639	3879.175
2020.61233	3871.675
2023.6563	3855.775
2026.6983	3856.475
2029.73833	3832.075
2032.7764	3817.875
2035.8125	3803.875
2038.84664	3802.575
2041.87881	3786.575
2044.90903	3776.975
2047.93729	3758.475
2050.96359	3763.675
2053.98794	3767.275
2057.01034	3730.475
2060.03078	3728.875
2063.04927	3727.775
2066.06582	3707.775
2069.08042	3712.175
2072.09307	3716.075
2075.10378	3703.675
2078.11255	3693.675
2081.11938	3687.175
2084.12426	3698.675
2087.12722	3693.275
2090.12824	3674.475
2093.12732	3679.575
2096.12447	3676.775
2099.11969	3684.975
2102.11299	3674.275
2105.10435	3668.275
2108.09379	3662.575
2111.08131	3666.675
2114.0669	3654.575
2117.05057	3658.875
2120.03233	3664.475
2123.01216	3665.775
2125.99008	3668.775
2128.96609	3670.175
2131.94018	3662.275
2134.91236	3663.775
2137.88263	3651.675
2140.851	3649.375
2143.81746	3659.175
2146.78201	3656.875
2149.74466	3651.575
2152.7054	3651.875
2155.66425	3651.775
2158.6212	3639.775
2161.57625	3625.375
2164.52941	3617.575
2167.48067	3628.675
2170.43004	3602.775
2173.37752	3601.375
2176.32311	3611.375
2179.26681	3596.175
2182.20863	3589.875
2185.14856	3614.875
2188.08661	3589.375
2191.02278	3583.075
2193.95707	3582.275
2196.88948	3565.075
2199.82001	3570.375
2202.74867	3561.375
2205.67545	3553.275
2208.60037	3545.775
2211.52341	3546.775
2214.44458	3522.975
2217.36388	3526.475
2220.28132	3513.475
2223.1969	3501.375
2226.11061	3488.275
2229.02246	3477.475
2231.93245	3474.575
2234.84058	3459.175
2237.74686	3451.975
2240.65128	3444.375
2243.55385	3444.075
2246.45456	3427.975
2249.35343	3419.375
2252.25044	3411.475
2255.14561	3414.975
2258.03893	3406.375
2260.93041	3407.075
2263.82004	3398.775
2266.70783	3379.775
2269.59378	3372.775
2272.4779	3351.775
2275.36017	3344.075
2278.24061	3332.875
2281.11922	3332.075
2283.996	3337.475
2286.87094	3322.675
2289.74405	3281.875
2292.61534	3286.275
2295.4848	3282.675
2298.35243	3284.775
2301.21824	3267.275
2304.08223	3271.375
2306.94439	3258.875
2309.80474	3265.775
2312.66327	3242.775
2315.51999	3241.575
2318.37489	3236.475
2321.22797	3232.975
2324.07925	3224.575
2326.92871	3222.275
2329.77637	3220.775
2332.62222	3221.275
2335.46626	3194.075
2338.3085	3207.975
2341.14893	3179.875
2343.98756	3194.575
2346.8244	3175.375
2349.65943	3173.075
2352.49267	3165.675
2355.32411	3162.975
2358.15376	3171.575
2360.98161	3180.875
2363.80768	3176.775
2366.63195	3172.775
2369.45444	3163.275
2372.27514	3160.775
2375.09405	3151.675
2377.91118	3144.075
2380.72652	3131.375
2383.54009	3107.175
2386.35187	3107.975
2389.16188	3090.775
2391.97011	3076.175
2394.77657	3081.175
2397.58125	3053.375
2400.38416	3061.175
2403.18529	3053.875
2405.98466	3046.375
2408.78226	3033.275
2411.57809	3029.575
2414.37216	3026.675
2417.16446	3009.475
2419.955	3019.875
2422.74378	3005.275
2425.5308	3003.775
2428.31606	3002.275
2431.09956	2991.775
2433.88131	2991.175
2436.6613	2986.075
2439.43954	2994.075
2442.21603	2968.675
2444.99077	2965.975
2447.76377	2973.575
2450.53501	2972.675
2453.30451	2956.675
2456.07226	2958.775
2458.83827	2960.475
2461.60254	2949.375
2464.36507	2949.275
2467.12586	2948.075
2469.88492	2949.775
2472.64224	2939.175
2475.39782	2937.275
2478.15167	2947.975
2480.90379	2936.375
2483.65417	2946.175
2486.40283	2930.675
2489.14976	2932.075
2491.89497	2922.475
2494.63845	2936.575
2497.3802	2938.175
2500.12024	2925.675
2502.85855	2905.275
2505.59514	2909.875
2508.33002	2885.375
2511.06318	2870.475
2513.79462	2866.875
2516.52435	2865.075
2519.25237	2862.875
2521.97867	2850.975
2524.70327	2846.375
2527.42616	2839.875
2530.14734	2820.175
2532.86681	2818.475
2535.58458	2826.175
2538.30065	2804.575
2541.01501	2823.475
2543.72768	2815.475
2546.43864	2802.575
2549.14791	2789.275
2551.85548	2791.375
2554.56136	2792.775
2557.26554	2788.575
2559.96803	2791.675
2562.66883	2766.575
2565.36794	2759.775
2568.06536	2754.775
2570.7611	2753.775
2573.45514	2740.675
2576.14751	2741.475
2578.83819	2728.475
2581.52719	2719.275
2584.21451	2718.875
2586.90015	2717.575
2589.58411	2707.775
2592.2664	2703.075
2594.94701	2680.875
2597.62594	2682.975
2600.30321	2684.475
2602.9788	2671.975
2605.65273	2665.375
2608.32498	2659.675
2610.99557	2659.875
2613.66449	2660.975
2616.33175	2657.375
2618.99734	2653.675
2621.66128	2634.575
2624.32355	2632.875
2626.98416	2633.875
2629.64311	2620.475
2632.30041	2619.875
2634.95605	2622.375
2637.61004	2613.875
2640.26238	2604.675
2642.91306	2599.775
2645.56209	2608.775
2648.20948	2594.975
2650.85521	2586.575
2653.4993	2582.175
2656.14175	2575.175
2658.78255	2574.175
2661.42171	2581.975
2664.05923	2584.275
2666.6951	2583.275
2669.32934	2580.975
2671.96194	2589.875
2674.59291	2584.675
2677.22224	2585.175
2679.84993	2571.175
2682.476	2573.475
2685.10043	2584.575
2687.72324	2571.875
2690.34441	2579.775
2692.96396	2569.975
2695.58188	2568.275
2698.19818	2567.975
2700.81285	2570.375
2703.4259	2587.975
2706.03733	2634.275
2708.64714	2599.375
2711.25533	2568.175
2713.86191	2571.675
2716.46687	2567.075
2719.07021	2569.975
2721.67194	2545.675
2724.27206	2547.075
2726.87057	2551.075
2729.46747	2553.475
2732.06276	2543.675
2734.65644	2550.875
2737.24852	2545.375
2739.83899	2541.875
2742.42786	2528.175
2745.01513	2525.875
2747.60079	2515.275
2750.18486	2515.875
2752.76733	2517.075
2755.3482	2504.075
2757.92747	2501.875
2760.50515	2510.375
2763.08123	2502.275
2765.65573	2496.675
2768.22863	2499.575
2770.79994	2491.875
2773.36967	2491.575
2775.9378	2482.675
2778.50435	2465.475
2781.06932	2464.375
2783.6327	2464.075
2786.1945	2456.175
2788.75471	2456.375
2791.31335	2451.675
2793.87041	2443.375
2796.42589	2446.475
2798.97979	2424.275
2801.53212	2442.075
2804.08288	2434.875
2806.63206	2415.075
2809.17967	2413.075
2811.72571	2415.575
2814.27018	2421.775
2816.81308	2402.875
2819.35442	2391.575
2821.89419	2395.475
2824.43239	2394.375
2826.96904	2401.775
2829.50412	2395.275
2832.03763	2394.175
2834.56959	2380.475
2837.1	2378.475
2839.62884	2384.275
2842.15613	2385.775
2844.68186	2391.375
2847.20604	2393.675
2849.72867	2400.575
2852.24974	2391.875
2854.76927	2399.875
2857.28724	2412.375
2859.80367	2395.975
2862.31855	2392.175
2864.83189	2381.775
2867.34368	2378.775
2869.85393	2366.275
2872.36264	2369.875
2874.8698	2366.375
2877.37543	2369.775
2879.87952	2374.175
2882.38207	2369.575
2884.88308	2369.375
2887.38256	2363.175
2889.88051	2350.575
2892.37692	2356.775
2894.8718	2338.675
2897.36515	2349.975
2899.85698	2356.775
2902.34727	2358.375
2904.83604	2354.575
2907.32328	2360.075
2909.809	2363.275
2912.29319	2365.575
2914.77587	2367.175
2917.25702	2357.975
2919.73665	2365.175
2922.21476	2358.175
2924.69136	2350.775
2927.16644	2344.175
2929.64	2348.575
2932.11205	2349.575
2934.58258	2343.975
2937.05161	2344.275
2939.51912	2343.475
2941.98513	2347.275
2944.44962	2326.875
2946.91261	2319.475
2949.37409	2327.475
2951.83407	2320.375
2954.29254	2314.775
2956.74951	2308.575
2959.20498	2319.875
2961.65895	2300.275
2964.11142	2289.675
2966.56239	2290.175
2969.01186	2281.675
2971.45984	2278.975
2973.90632	2271.675
2976.35131	2260.675
2978.7948	2258.675
2981.23681	2260.975
2983.67732	2259.175
2986.11635	2254.475
2988.55388	2234.575
2990.98993	2238.975
2993.4245	2231.075
2995.85758	2223.075
2998.28917	2234.475
3000.71928	2215.475
3003.14791	2214.575
3005.57506	2214.575
3008.00073	2200.375
3010.42493	2199.175
3012.84764	2217.575
3015.26888	2190.675
3017.68865	2207.775
3020.10694	2191.075
3022.52376	2195.275
3024.9391	2189.075
3027.35298	2185.175
3029.76539	2188.775
3032.17632	2191.075
3034.5858	2178.375
3036.9938	2171.575
3039.40034	2168.175
3041.80542	2172.275
3044.20903	2162.775
3046.61118	2171.275
3049.01187	2154.475
3051.4111	2157.875
3053.80888	2158.075
3056.20519	2162.575
3058.60005	2148.875
3060.99345	2152.675
3063.3854	2146.175
3065.7759	2154.175
3068.16494	2154.175
3070.55254	2135.075
3072.93868	2136.675
3075.32338	2136.475
3077.70662	2139.275
3080.08842	2132.275
3082.46878	2130.675
3084.84769	2125.475
3087.22515	2147.575
3089.60118	2142.875
3091.97576	2129.075
3094.3489	2132.375
3096.72061	2133.175
3099.09087	2146.175
3101.4597	2137.275
3103.82709	2144.375
3106.19305	2143.175
3108.55757	2133.875
3110.92066	2133.675
3113.28232	2125.375
3115.64255	2137.375
3118.00134	2122.275
3120.35871	2133.575
3122.71466	2125.275
3125.06917	2130.975
3127.42226	2132.275
3129.77393	2125.175
3132.12417	2134.875
3134.47299	2142.075
3136.82039	2140.075
3139.16636	2138.975
3141.51092	2138.875
3143.85406	2166.175
3146.19579	2154.775
3148.53609	2166.175
3150.87499	2162.775
3153.21246	2168.775
3155.54853	2191.175
3157.88318	2181.975
3160.21642	2193.775
3162.54826	2192.075
3164.87868	2185.075
3167.2077	2187.875
3169.5353	2188.775
3171.86151	2185.975
3174.18631	2191.875
3176.5097	2202.575
3178.83169	2188.975
3181.15228	2187.575
3183.47147	2197.875
3185.78926	2202.975
3188.10565	2197.475
3190.42065	2201.075
3192.73424	2216.975
3195.04645	2206.475
3197.35725	2204.675
3199.66667	2215.675
3201.97469	2223.475
3204.28132	2225.375
3206.58656	2226.375
3208.8904	2226.375
3211.19287	2229.375
3213.49394	2234.675
3215.79363	2235.675
3218.09193	2239.475
3220.38884	2255.675
3222.68438	2261.675
3224.97853	2242.275
3227.2713	2254.975
3229.56269	2243.075
