Data from AgNPs_FTO_APTES_UA_100um_CRN_0.1mM_R6G_10uM_NaF_0.1M_Addition_RamanShift__6__15-51-59-278.txt Node

Date: Tue Dec 21 15:51:59 GMT 2021
User: TCL
Spectrometer: QEP01345
Trigger mode: 4
Integration Time (sec): 7.000000E0
Scans to average: 10
Electric dark correction enabled: true
Nonlinearity correction enabled: false
Boxcar width: 0
XAxis mode: Raman Shifts
Number of Pixels in Spectrum: 1044
>>>>>Begin Spectral Data<<<<<
46.04893	0.6125
50.45542	-0.8875
54.85868	-1.4875
59.25871	1.2125
63.6555	33.8125
68.04907	38.8125
72.43941	41.7125
76.82654	44.1125
81.21044	48.8125
85.59113	48.2125
89.96862	49.0125
94.34289	49.9125
98.71396	50.8125
103.08183	55.0125
107.4465	56.7125
111.80798	57.4125
116.16626	54.9125
120.52136	57.5125
124.87327	57.4125
129.222	58.8125
133.56755	65.3125
137.90993	69.6125
142.24913	70.7125
146.58517	76.3125
150.91804	86.2125
155.24774	101.2125
159.57429	122.0125
163.89768	159.7125
168.21792	204.0125
172.53501	267.4125
176.84895	369.1125
181.15975	525.8125
185.46741	725.7125
189.77193	1002.2125
194.07331	1351.5125
198.37157	1733.4125
202.6667	2143.3125
206.9587	2556.9125
211.24758	2980.9125
215.53334	3392.1125
219.81599	3836.6125
224.09553	4324.7125
228.37195	4861.7125
232.64527	5474.4125
236.91549	6110.9125
241.18261	6714.1125
245.44663	7292.0125
249.70755	7808.3125
253.96539	8229.6125
258.22014	8570.5125
262.4718	8859.9125
266.72039	9042.3125
270.96589	9168.3125
275.20832	9187.9125
279.44768	9099.6125
283.68397	8995.3125
287.91719	8856.3125
292.14735	8825.3125
296.37445	8819.2125
300.59849	8889.8125
304.81948	8977.4125
309.03742	8981.9125
313.25231	8900.3125
317.46415	8692.4125
321.67296	8403.0125
325.87872	8125.7125
330.08145	7990.7125
334.28114	7966.4125
338.47781	8012.0125
342.67145	8110.5125
346.86207	8254.1125
351.04966	8452.3125
355.23424	8642.6125
359.4158	8837.5125
363.59435	8955.4125
367.76989	9060.6125
371.94243	9103.2125
376.11196	9168.5125
380.27849	9208.6125
384.44203	9268.6125
388.60257	9279.8125
392.76012	9353.3125
396.91468	9418.8125
401.06626	9548.3125
405.21485	9648.3125
409.36047	9574.1125
413.50311	9361.3125
417.64277	9154.5125
421.77947	9029.0125
425.9132	8978.6125
430.04396	8985.9125
434.17176	9004.6125
438.2966	9049.7125
442.41849	9124.0125
446.53742	9247.3125
450.6534	9414.1125
454.76644	9537.5125
458.87653	9589.0125
462.98368	9618.0125
467.08789	9599.4125
471.18916	9580.1125
475.2875	9536.7125
479.38291	9484.8125
483.4754	9462.2125
487.56496	9378.7125
491.6516	9278.9125
495.73531	9204.1125
499.81612	9138.6125
503.89401	9146.4125
507.96899	9188.1125
512.04106	9183.1125
516.11023	9225.2125
520.1765	9197.5125
524.23987	9167.3125
528.30034	9090.0125
532.35792	9027.7125
536.41261	8974.0125
540.46441	8881.6125
544.51333	8854.6125
548.55936	8925.9125
552.60252	9027.1125
556.64279	9191.0125
560.6802	9277.3125
564.71473	9315.4125
568.7464	9426.6125
572.7752	9602.4125
576.80114	9666.1125
580.82422	9720.1125
584.84444	9731.3125
588.86181	9752.9125
592.87633	9750.5125
596.888	9714.6125
600.89682	9775.8125
604.9028	10130.6125
608.90594	11200.4125
612.90624	12617.0125
616.90371	12323.8125
620.89834	10236.1125
624.89015	9192.7125
628.87913	9032.3125
632.86528	9183.1125
636.84862	9384.0125
640.82913	9356.3125
644.80683	9113.5125
648.78172	8840.3125
652.75379	8722.0125
656.72306	8777.3125
660.68952	8889.1125
664.65319	8865.7125
668.61405	8682.4125
672.57211	8595.5125
676.52738	8570.2125
680.47986	8604.5125
684.42955	8570.9125
688.37646	8528.5125
692.32058	8540.6125
696.26192	8519.9125
700.20048	8565.0125
704.13626	8612.0125
708.06928	8624.7125
711.99952	8614.5125
715.927	8572.8125
719.85171	8584.9125
723.77365	8563.0125
727.69284	8559.6125
731.60928	8467.2125
735.52295	8430.2125
739.43388	8406.8125
743.34206	8406.5125
747.24749	8427.9125
751.15017	8448.2125
755.05012	8506.2125
758.94733	8738.8125
762.8418	9149.5125
766.73354	9881.6125
770.62254	10737.8125
774.50882	11153.3125
778.39237	10782.8125
782.27321	9889.5125
786.15132	9086.3125
790.02671	8590.7125
793.89938	8373.2125
797.76935	8272.4125
801.6366	8204.9125
805.50115	8220.6125
809.36299	8206.2125
813.22213	8211.6125
817.07857	8232.2125
820.93231	8203.5125
824.78336	8138.4125
828.63172	8064.7125
832.47738	8036.6125
836.32036	8008.6125
840.16066	7993.7125
843.99827	7957.1125
847.8332	7950.9125
851.66546	7934.6125
855.49504	7900.1125
859.32195	7902.9125
863.1462	7879.3125
866.96777	7861.6125
870.78668	7884.1125
874.60293	7906.6125
878.41652	7914.7125
882.22745	7915.6125
886.03573	7964.2125
889.84136	7975.1125
893.64433	7935.3125
897.44466	7891.8125
901.24235	7854.1125
905.0374	7785.0125
908.8298	7759.6125
912.61957	7743.4125
916.40671	7747.6125
920.19121	7798.9125
923.97308	7820.5125
927.75233	7818.0125
931.52895	7791.5125
935.30295	7727.0125
939.07433	7616.0125
942.84309	7511.2125
946.60924	7407.1125
950.37278	7364.2125
954.13371	7356.4125
957.89203	7346.5125
961.64774	7315.5125
965.40086	7293.3125
969.15137	7263.7125
972.89929	7241.1125
976.64461	7197.3125
980.38733	7195.9125
984.12747	7181.9125
987.86502	7188.3125
991.59999	7211.5125
995.33237	7227.1125
999.06217	7263.7125
1002.78939	7339.7125
1006.51404	7413.4125
1010.23611	7497.2125
1013.95561	7569.6125
1017.67255	7580.8125
1021.38692	7561.2125
1025.09872	7509.7125
1028.80796	7404.9125
1032.51465	7362.3125
1036.21877	7361.3125
1039.92035	7395.0125
1043.61937	7412.3125
1047.31584	7433.8125
1051.00976	7472.6125
1054.70114	7496.8125
1058.38998	7514.3125
1062.07627	7552.5125
1065.76003	7632.9125
1069.44126	7692.6125
1073.11995	7756.7125
1076.79611	7843.2125
1080.46974	7894.9125
1084.14085	7893.7125
1087.80943	7934.0125
1091.47549	8005.8125
1095.13903	8012.5125
1098.80005	7950.8125
1102.45857	7795.7125
1106.11456	7671.1125
1109.76805	7592.8125
1113.41903	7635.4125
1117.06751	7742.6125
1120.71348	7892.8125
1124.35696	8080.7125
1127.99793	8243.5125
1131.63641	8393.9125
1135.2724	8332.6125
1138.90589	8176.0125
1142.5369	8042.9125
1146.16542	7924.1125
1149.79145	7883.1125
1153.415	7844.8125
1157.03607	7812.3125
1160.65467	7897.1125
1164.27079	8082.2125
1167.88443	8385.0125
1171.49561	8765.5125
1175.10432	9340.7125
1178.71056	10149.2125
1182.31434	10797.0125
1185.91565	11052.4125
1189.51451	10973.8125
1193.11091	10644.6125
1196.70485	10232.1125
1200.29634	9871.9125
1203.88538	9579.1125
1207.47197	9299.3125
1211.05612	9019.1125
1214.63782	8797.2125
1218.21708	8564.9125
1221.79391	8392.5125
1225.36829	8290.6125
1228.94024	8232.1125
1232.50976	8177.2125
1236.07685	8150.2125
1239.6415	8130.7125
1243.20374	8134.9125
1246.76355	8162.0125
1250.32093	8255.8125
1253.8759	8372.9125
1257.42845	8519.7125
1260.97859	8733.9125
1264.52631	8872.2125
1268.07163	9063.9125
1271.61453	9201.2125
1275.15503	9343.5125
1278.69312	9493.9125
1282.22882	9602.9125
1285.76211	9818.4125
1289.29301	10061.5125
1292.82151	10391.9125
1296.34761	10740.2125
1299.87133	11220.3125
1303.39266	11735.6125
1306.9116	12356.4125
1310.42815	13015.7125
1313.94233	13383.9125
1317.45412	13307.8125
1320.96354	12979.0125
1324.47058	12616.9125
1327.97525	12278.4125
1331.47754	11975.6125
1334.97747	11772.9125
1338.47502	11689.5125
1341.97022	11708.0125
1345.46305	11843.4125
1348.95352	12065.2125
1352.44163	12381.5125
1355.92738	12864.9125
1359.41078	13711.6125
1362.89183	14710.4125
1366.37053	14811.9125
1369.84688	13461.1125
1373.32088	11842.5125
1376.79254	10676.8125
1380.26186	10113.1125
1383.72883	9842.5125
1387.19347	9692.4125
1390.65578	9539.5125
1394.11575	9368.3125
1397.57339	9268.3125
1401.0287	9186.7125
1404.48168	9103.3125
1407.93234	9012.5125
1411.38068	8868.8125
1414.82669	8620.1125
1418.27039	8431.9125
1421.71177	8229.3125
1425.15083	8031.3125
1428.58758	7891.9125
1432.02203	7873.6125
1435.45416	7930.6125
1438.88399	8022.5125
1442.31151	8103.9125
1445.73673	8172.1125
1449.15965	8319.0125
1452.58027	8394.9125
1455.9986	8412.0125
1459.41463	8471.2125
1462.82837	8554.0125
1466.23982	8689.4125
1469.64898	8789.7125
1473.05586	8892.3125
1476.46045	8914.4125
1479.86276	8981.7125
1483.26279	9016.2125
1486.66054	9131.6125
1490.05602	9292.3125
1493.44922	9511.4125
1496.84016	9957.4125
1500.22882	10600.7125
1503.61521	11488.3125
1506.99934	12495.8125
1510.38121	13279.2125
1513.76081	13550.6125
1517.13816	13045.5125
1520.51324	12066.4125
1523.88607	11059.5125
1527.25665	10438.2125
1530.62498	10051.9125
1533.99105	9827.3125
1537.35488	9613.8125
1540.71647	9401.4125
1544.07581	9181.7125
1547.4329	8975.6125
1550.78776	8854.4125
1554.14038	8812.8125
1557.49077	8838.0125
1560.83892	8913.2125
1564.18484	9041.8125
1567.52853	9184.7125
1570.86999	9383.7125
1574.20922	9511.2125
1577.54624	9583.6125
1580.88103	9403.1125
1584.2136	9121.2125
1587.54395	8935.4125
1590.87208	8915.4125
1594.19801	9072.6125
1597.52172	9352.9125
1600.84321	9499.8125
1604.16251	9263.4125
1607.47959	8826.1125
1610.79447	8419.9125
1614.10715	7958.7125
1617.41763	7547.7125
1620.7259	7248.4125
1624.03199	7075.9125
1627.33587	7039.4125
1630.63757	7104.8125
1633.93707	7307.9125
1637.23439	7742.6125
1640.52951	8344.5125
1643.82246	9183.5125
1647.11321	10164.3125
1650.40179	10854.0125
1653.68819	10787.4125
1656.97241	9879.0125
1660.25446	8690.6125
1663.53433	7745.7125
1666.81203	7078.0125
1670.08756	6657.8125
1673.36092	6404.7125
1676.63211	6233.9125
1679.90115	6100.1125
1683.16801	6010.8125
1686.43272	5945.9125
1689.69527	5899.9125
1692.95567	5872.4125
1696.2139	5867.4125
1699.46999	5853.6125
1702.72392	5837.6125
1705.97571	5767.9125
1709.22535	5699.1125
1712.47284	5648.7125
1715.71819	5568.0125
1718.96139	5520.9125
1722.20246	5490.1125
1725.44139	5443.2125
1728.67818	5389.9125
1731.91284	5366.0125
1735.14537	5321.9125
1738.37576	5290.1125
1741.60403	5270.2125
1744.83017	5264.8125
1748.05418	5252.0125
1751.27607	5240.1125
1754.49584	5244.5125
1757.71349	5230.8125
1760.92903	5241.2125
1764.14244	5226.2125
1767.35375	5212.5125
1770.56294	5177.0125
1773.77002	5138.0125
1776.97499	5101.9125
1780.17785	5086.1125
1783.37861	5073.1125
1786.57727	5063.5125
1789.77382	5037.7125
1792.96828	5018.3125
1796.16064	4998.3125
1799.3509	4972.7125
1802.53907	4966.3125
1805.72514	4944.0125
1808.90913	4908.2125
1812.09102	4909.6125
1815.27083	4895.0125
1818.44856	4866.3125
1821.6242	4864.5125
1824.79776	4845.7125
1827.96924	4826.2125
1831.13864	4816.7125
1834.30597	4827.2125
1837.47122	4806.5125
1840.6344	4808.7125
1843.7955	4790.0125
1846.95454	4768.9125
1850.11151	4772.7125
1853.26642	4766.5125
1856.41926	4749.0125
1859.57004	4749.0125
1862.71876	4729.9125
1865.86542	4728.7125
1869.01003	4709.8125
1872.15258	4715.7125
1875.29308	4712.4125
1878.43152	4685.5125
1881.56792	4679.7125
1884.70227	4678.6125
1887.83457	4668.5125
1890.96482	4651.4125
1894.09304	4642.4125
1897.21921	4621.4125
1900.34335	4606.2125
1903.46544	4609.4125
1906.58551	4604.7125
1909.70353	4597.6125
1912.81953	4586.9125
1915.93349	4565.5125
1919.04543	4565.6125
1922.15534	4549.0125
1925.26322	4546.1125
1928.36908	4518.0125
1931.47292	4511.0125
1934.57473	4511.7125
1937.67453	4475.2125
1940.77232	4455.4125
1943.86808	4445.0125
1946.96184	4446.1125
1950.05358	4422.9125
1953.14331	4398.3125
1956.23103	4386.9125
1959.31675	4380.1125
1962.40046	4354.8125
1965.48217	4335.6125
1968.56188	4320.5125
1971.63959	4322.1125
1974.7153	4294.3125
1977.78901	4285.7125
1980.86073	4269.4125
1983.93046	4233.0125
1986.99819	4234.5125
1990.06394	4198.1125
1993.1277	4189.6125
1996.18947	4193.1125
1999.24925	4177.4125
2002.30706	4147.9125
2005.36288	4124.7125
2008.41672	4116.6125
2011.46859	4088.7125
2014.51848	4077.0125
2017.56639	4058.1125
2020.61233	4026.3125
2023.6563	4032.8125
2026.6983	4027.7125
2029.73833	4010.4125
2032.7764	3987.1125
2035.8125	3983.2125
2038.84664	3967.9125
2041.87881	3966.8125
2044.90903	3943.4125
2047.93729	3931.9125
2050.96359	3931.3125
2053.98794	3925.6125
2057.01034	3923.1125
2060.03078	3918.8125
2063.04927	3912.2125
2066.06582	3883.8125
2069.08042	3888.3125
2072.09307	3889.1125
2075.10378	3876.0125
2078.11255	3866.1125
2081.11938	3868.2125
2084.12426	3855.6125
2087.12722	3859.1125
2090.12824	3869.9125
2093.12732	3850.5125
2096.12447	3855.7125
2099.11969	3840.3125
2102.11299	3831.1125
2105.10435	3849.9125
2108.09379	3851.9125
2111.08131	3841.4125
2114.0669	3847.6125
2117.05057	3831.3125
2120.03233	3834.0125
2123.01216	3830.0125
2125.99008	3835.8125
2128.96609	3837.5125
2131.94018	3828.6125
2134.91236	3827.8125
2137.88263	3822.3125
2140.851	3824.1125
2143.81746	3833.4125
2146.78201	3830.9125
2149.74466	3816.9125
2152.7054	3822.1125
2155.66425	3807.6125
2158.6212	3808.3125
2161.57625	3793.0125
2164.52941	3802.5125
2167.48067	3792.9125
2170.43004	3792.3125
2173.37752	3780.9125
2176.32311	3778.4125
2179.26681	3770.7125
2182.20863	3771.5125
2185.14856	3776.4125
2188.08661	3758.7125
2191.02278	3772.6125
2193.95707	3737.0125
2196.88948	3746.9125
2199.82001	3755.5125
2202.74867	3723.2125
2205.67545	3723.2125
2208.60037	3717.2125
2211.52341	3699.0125
2214.44458	3701.1125
2217.36388	3677.8125
2220.28132	3684.6125
2223.1969	3658.7125
2226.11061	3665.5125
2229.02246	3636.9125
2231.93245	3628.0125
2234.84058	3624.0125
2237.74686	3624.3125
2240.65128	3618.7125
2243.55385	3616.3125
2246.45456	3602.1125
2249.35343	3590.5125
2252.25044	3568.2125
2255.14561	3569.7125
2258.03893	3576.0125
2260.93041	3571.4125
2263.82004	3566.6125
2266.70783	3542.0125
2269.59378	3535.3125
2272.4779	3522.6125
2275.36017	3504.6125
2278.24061	3507.3125
2281.11922	3496.4125
2283.996	3466.0125
2286.87094	3465.7125
2289.74405	3461.3125
2292.61534	3436.5125
2295.4848	3435.7125
2298.35243	3430.9125
2301.21824	3424.6125
2304.08223	3422.4125
2306.94439	3407.7125
2309.80474	3410.2125
2312.66327	3396.1125
2315.51999	3395.6125
2318.37489	3409.4125
2321.22797	3375.8125
2324.07925	3380.9125
2326.92871	3380.6125
2329.77637	3380.8125
2332.62222	3369.2125
2335.46626	3340.8125
2338.3085	3346.6125
2341.14893	3343.9125
2343.98756	3333.9125
2346.8244	3328.7125
2349.65943	3334.5125
2352.49267	3326.8125
2355.32411	3324.1125
2358.15376	3332.4125
2360.98161	3340.5125
2363.80768	3321.8125
2366.63195	3326.8125
2369.45444	3314.0125
2372.27514	3310.2125
2375.09405	3303.3125
2377.91118	3312.1125
2380.72652	3276.4125
2383.54009	3263.9125
2386.35187	3264.7125
2389.16188	3243.3125
2391.97011	3237.7125
2394.77657	3221.3125
2397.58125	3213.9125
2400.38416	3211.3125
2403.18529	3224.3125
2405.98466	3228.5125
2408.78226	3196.6125
2411.57809	3178.0125
2414.37216	3158.2125
2417.16446	3170.0125
2419.955	3167.5125
2422.74378	3163.4125
2425.5308	3148.1125
2428.31606	3143.1125
2431.09956	3138.6125
2433.88131	3152.2125
2436.6613	3137.9125
2439.43954	3129.4125
2442.21603	3131.3125
2444.99077	3126.2125
2447.76377	3120.0125
2450.53501	3128.1125
2453.30451	3115.9125
2456.07226	3106.8125
2458.83827	3106.3125
2461.60254	3110.7125
2464.36507	3098.4125
2467.12586	3088.9125
2469.88492	3084.7125
2472.64224	3086.9125
2475.39782	3098.4125
2478.15167	3097.5125
2480.90379	3091.5125
2483.65417	3082.2125
2486.40283	3062.6125
2489.14976	3072.5125
2491.89497	3069.2125
2494.63845	3088.9125
2497.3802	3077.1125
2500.12024	3067.6125
2502.85855	3059.2125
2505.59514	3047.2125
2508.33002	3038.2125
2511.06318	3015.1125
2513.79462	3021.4125
2516.52435	3009.1125
2519.25237	3005.6125
2521.97867	2994.5125
2524.70327	2992.5125
2527.42616	2988.6125
2530.14734	2973.2125
2532.86681	2975.9125
2535.58458	2965.0125
2538.30065	2966.7125
2541.01501	2948.1125
2543.72768	2947.9125
2546.43864	2955.0125
2549.14791	2943.3125
2551.85548	2929.5125
2554.56136	2926.5125
2557.26554	2924.9125
2559.96803	2920.4125
2562.66883	2908.9125
2565.36794	2896.8125
2568.06536	2894.9125
2570.7611	2895.6125
2573.45514	2875.3125
2576.14751	2888.0125
2578.83819	2873.0125
2581.52719	2877.0125
2584.21451	2856.7125
2586.90015	2855.1125
2589.58411	2853.4125
2592.2664	2847.4125
2594.94701	2829.3125
2597.62594	2826.4125
2600.30321	2816.1125
2602.9788	2813.4125
2605.65273	2813.6125
2608.32498	2796.0125
2610.99557	2802.6125
2613.66449	2796.2125
2616.33175	2792.7125
2618.99734	2789.0125
2621.66128	2789.1125
2624.32355	2774.1125
2626.98416	2762.6125
2629.64311	2774.1125
2632.30041	2761.0125
2634.95605	2761.8125
2637.61004	2742.5125
2640.26238	2747.4125
2642.91306	2736.4125
2645.56209	2731.5125
2648.20948	2729.9125
2650.85521	2729.9125
2653.4993	2738.1125
2656.14175	2727.2125
2658.78255	2726.9125
2661.42171	2721.3125
2664.05923	2724.4125
2666.6951	2726.0125
2669.32934	2725.9125
2671.96194	2721.6125
2674.59291	2718.5125
2677.22224	2727.7125
2679.84993	2725.7125
2682.476	2710.9125
2685.10043	2715.6125
2687.72324	2710.1125
2690.34441	2709.4125
2692.96396	2716.7125
2695.58188	2710.4125
2698.19818	2714.1125
2700.81285	2710.9125
2703.4259	2729.2125
2706.03733	2777.2125
2708.64714	2736.2125
2711.25533	2702.9125
2713.86191	2709.6125
2716.46687	2692.1125
2719.07021	2711.9125
2721.67194	2691.2125
2724.27206	2700.1125
2726.87057	2691.9125
2729.46747	2681.8125
2732.06276	2685.8125
2734.65644	2686.2125
2737.24852	2680.6125
2739.83899	2675.2125
2742.42786	2681.0125
2745.01513	2660.5125
2747.60079	2670.9125
2750.18486	2655.5125
2752.76733	2647.5125
2755.3482	2650.1125
2757.92747	2643.5125
2760.50515	2637.8125
2763.08123	2636.7125
2765.65573	2626.3125
2768.22863	2625.7125
2770.79994	2617.8125
2773.36967	2624.5125
2775.9378	2621.0125
2778.50435	2611.6125
2781.06932	2601.6125
2783.6327	2602.2125
2786.1945	2596.5125
2788.75471	2596.6125
2791.31335	2574.6125
2793.87041	2585.2125
2796.42589	2575.8125
2798.97979	2569.7125
2801.53212	2559.5125
2804.08288	2565.2125
2806.63206	2567.7125
2809.17967	2549.7125
2811.72571	2537.5125
2814.27018	2545.3125
2816.81308	2547.3125
2819.35442	2540.4125
2821.89419	2536.8125
2824.43239	2541.9125
2826.96904	2529.6125
2829.50412	2526.9125
2832.03763	2520.0125
2834.56959	2524.8125
2837.1	2517.5125
2839.62884	2520.8125
2842.15613	2514.8125
2844.68186	2524.8125
2847.20604	2532.5125
2849.72867	2524.4125
2852.24974	2533.7125
2854.76927	2541.1125
2857.28724	2548.1125
2859.80367	2523.7125
2862.31855	2530.7125
2864.83189	2517.1125
2867.34368	2524.5125
2869.85393	2517.1125
2872.36264	2491.5125
2874.8698	2501.6125
2877.37543	2515.1125
2879.87952	2512.5125
2882.38207	2497.1125
2884.88308	2492.7125
2887.38256	2493.6125
2889.88051	2484.2125
2892.37692	2500.5125
2894.8718	2482.7125
2897.36515	2486.6125
2899.85698	2482.4125
2902.34727	2484.9125
2904.83604	2493.3125
2907.32328	2497.1125
2909.809	2488.9125
2912.29319	2500.0125
2914.77587	2495.7125
2917.25702	2489.8125
2919.73665	2498.9125
2922.21476	2502.9125
2924.69136	2493.4125
2927.16644	2495.3125
2929.64	2494.8125
2932.11205	2491.2125
2934.58258	2485.2125
2937.05161	2470.3125
2939.51912	2490.4125
2941.98513	2476.6125
2944.44962	2461.6125
2946.91261	2449.2125
2949.37409	2460.2125
2951.83407	2459.9125
2954.29254	2448.1125
2956.74951	2431.0125
2959.20498	2430.8125
2961.65895	2424.1125
2964.11142	2423.4125
2966.56239	2418.3125
2969.01186	2419.0125
2971.45984	2405.0125
2973.90632	2395.3125
2976.35131	2376.1125
2978.7948	2395.2125
2981.23681	2385.4125
2983.67732	2371.6125
2986.11635	2383.2125
2988.55388	2378.2125
2990.98993	2354.3125
2993.4245	2361.3125
2995.85758	2360.7125
2998.28917	2351.1125
3000.71928	2353.1125
3003.14791	2346.8125
3005.57506	2357.0125
3008.00073	2329.5125
3010.42493	2333.9125
3012.84764	2331.4125
3015.26888	2330.8125
3017.68865	2325.4125
3020.10694	2325.8125
3022.52376	2316.1125
3024.9391	2308.4125
3027.35298	2314.9125
3029.76539	2307.9125
3032.17632	2309.0125
3034.5858	2306.2125
3036.9938	2306.1125
3039.40034	2293.8125
3041.80542	2290.8125
3044.20903	2284.1125
3046.61118	2289.1125
3049.01187	2276.2125
3051.4111	2289.1125
3053.80888	2279.4125
3056.20519	2277.0125
3058.60005	2276.4125
3060.99345	2276.1125
3063.3854	2270.2125
3065.7759	2269.0125
3068.16494	2261.2125
3070.55254	2250.4125
3072.93868	2260.5125
3075.32338	2259.0125
3077.70662	2251.5125
3080.08842	2246.0125
3082.46878	2245.8125
3084.84769	2251.6125
3087.22515	2230.8125
3089.60118	2242.1125
3091.97576	2254.9125
3094.3489	2249.1125
3096.72061	2263.7125
3099.09087	2253.6125
3101.4597	2254.8125
3103.82709	2253.3125
3106.19305	2247.6125
3108.55757	2252.1125
3110.92066	2243.7125
3113.28232	2258.8125
3115.64255	2240.5125
3118.00134	2247.6125
