Data from AgNPs_FTO_APTES_UA_0um_CRN_0.1mM_R6G_10uM_NaF_0.1M_Addition_RamanShift__10__10-22-58-901.txt Node

Date: Tue Dec 21 10:22:58 GMT 2021
User: TCL
Spectrometer: QEP01345
Trigger mode: 4
Integration Time (sec): 7.000000E0
Scans to average: 10
Electric dark correction enabled: true
Nonlinearity correction enabled: false
Boxcar width: 0
XAxis mode: Raman Shifts
Number of Pixels in Spectrum: 1044
>>>>>Begin Spectral Data<<<<<
46.04893	1.25
50.45542	-0.55
54.85868	-1.35
59.25871	0.65
63.6555	15.25
68.04907	23.15
72.43941	23.25
76.82654	22.35
81.21044	28.05
85.59113	25.35
89.96862	27.95
94.34289	27.65
98.71396	30.35
103.08183	33.85
107.4465	32.75
111.80798	31.85
116.16626	30.25
120.52136	30.35
124.87327	31.95
129.222	29.05
133.56755	31.75
137.90993	34.25
142.24913	30.95
146.58517	36.65
150.91804	40.15
155.24774	43.45
159.57429	46.95
163.89768	55.65
168.21792	66.65
172.53501	86.25
176.84895	112.85
181.15975	153.25
185.46741	205.15
189.77193	281.25
194.07331	383.65
198.37157	500.65
202.6667	647.85
206.9587	792.05
211.24758	943.05
215.53334	1107.95
219.81599	1268.15
224.09553	1451.95
228.37195	1633.55
232.64527	1810.95
236.91549	1980.65
241.18261	2155.75
245.44663	2292.15
249.70755	2417.15
253.96539	2507.25
258.22014	2554.65
262.4718	2580.95
266.72039	2552.35
270.96589	2529.75
275.20832	2438.55
279.44768	2332.35
283.68397	2256.45
287.91719	2138.85
292.14735	2051.75
296.37445	1967.75
300.59849	1888.55
304.81948	1820.35
309.03742	1773.35
313.25231	1725.75
317.46415	1700.45
321.67296	1655.45
325.87872	1626.65
330.08145	1611.95
334.28114	1605.05
338.47781	1601.85
342.67145	1604.65
346.86207	1596.95
351.04966	1601.45
355.23424	1598.75
359.4158	1590.95
363.59435	1580.45
367.76989	1571.15
371.94243	1559.25
376.11196	1550.85
380.27849	1543.15
384.44203	1526.85
388.60257	1532.85
392.76012	1533.75
396.91468	1514.35
401.06626	1521.55
405.21485	1516.55
409.36047	1515.45
413.50311	1513.25
417.64277	1509.95
421.77947	1523.25
425.9132	1519.25
430.04396	1533.55
434.17176	1549.85
438.2966	1561.65
442.41849	1567.25
446.53742	1590.95
450.6534	1609.35
454.76644	1621.55
458.87653	1630.55
462.98368	1637.75
467.08789	1636.05
471.18916	1630.45
475.2875	1624.55
479.38291	1618.85
483.4754	1608.85
487.56496	1616.85
491.6516	1619.55
495.73531	1619.45
499.81612	1615.95
503.89401	1618.15
507.96899	1607.25
512.04106	1593.85
516.11023	1592.55
520.1765	1572.25
524.23987	1578.85
528.30034	1568.25
532.35792	1568.35
536.41261	1568.15
540.46441	1566.05
544.51333	1566.45
548.55936	1573.75
552.60252	1564.05
556.64279	1565.15
560.6802	1575.15
564.71473	1575.85
568.7464	1577.15
572.7752	1586.85
576.80114	1581.75
580.82422	1580.65
584.84444	1564.05
588.86181	1554.15
592.87633	1544.65
596.888	1555.75
600.89682	1558.05
604.9028	1574.25
608.90594	1611.95
612.90624	1666.55
616.90371	1691.05
620.89834	1640.95
624.89015	1604.05
628.87913	1608.85
632.86528	1613.95
636.84862	1614.55
640.82913	1639.65
644.80683	1662.15
648.78172	1682.95
652.75379	1709.95
656.72306	1700.05
660.68952	1695.55
664.65319	1720.35
668.61405	1766.75
672.57211	1852.25
676.52738	1994.55
680.47986	2115.85
684.42955	2194.15
688.37646	2176.75
692.32058	2090.55
696.26192	1990.75
700.20048	1916.55
704.13626	1869.65
708.06928	1831.25
711.99952	1804.55
715.927	1788.95
719.85171	1757.95
723.77365	1761.45
727.69284	1764.85
731.60928	1763.65
735.52295	1747.95
739.43388	1732.45
743.34206	1709.45
747.24749	1703.15
751.15017	1705.85
755.05012	1697.65
758.94733	1716.75
762.8418	1722.55
766.73354	1735.15
770.62254	1743.45
774.50882	1746.55
778.39237	1720.65
782.27321	1695.65
786.15132	1667.05
790.02671	1648.45
793.89938	1645.15
797.76935	1652.05
801.6366	1659.95
805.50115	1659.65
809.36299	1679.15
813.22213	1668.05
817.07857	1658.55
820.93231	1649.25
824.78336	1648.45
828.63172	1637.75
832.47738	1627.65
836.32036	1629.45
840.16066	1629.05
843.99827	1624.05
847.8332	1624.25
851.66546	1615.45
855.49504	1608.55
859.32195	1608.85
863.1462	1606.95
866.96777	1617.95
870.78668	1640.85
874.60293	1634.15
878.41652	1647.15
882.22745	1649.05
886.03573	1645.55
889.84136	1665.85
893.64433	1675.35
897.44466	1686.65
901.24235	1709.95
905.0374	1715.85
908.8298	1735.65
912.61957	1750.55
916.40671	1810.05
920.19121	1858.35
923.97308	1910.85
927.75233	1954.55
931.52895	1968.85
935.30295	1955.35
939.07433	1932.75
942.84309	1885.25
946.60924	1858.95
950.37278	1825.95
954.13371	1806.05
957.89203	1785.95
961.64774	1761.15
965.40086	1748.05
969.15137	1737.05
972.89929	1732.35
976.64461	1705.45
980.38733	1694.55
984.12747	1695.35
987.86502	1677.75
991.59999	1675.65
995.33237	1673.25
999.06217	1663.85
1002.78939	1675.35
1006.51404	1674.05
1010.23611	1674.05
1013.95561	1670.65
1017.67255	1694.85
1021.38692	1692.45
1025.09872	1708.75
1028.80796	1703.15
1032.51465	1715.15
1036.21877	1723.85
1039.92035	1780.55
1043.61937	1792.25
1047.31584	1802.65
1051.00976	1796.35
1054.70114	1813.85
1058.38998	1799.85
1062.07627	1756.35
1065.76003	1740.85
1069.44126	1689.85
1073.11995	1654.05
1076.79611	1630.25
1080.46974	1605.95
1084.14085	1591.45
1087.80943	1572.85
1091.47549	1557.95
1095.13903	1550.65
1098.80005	1544.05
1102.45857	1531.35
1106.11456	1533.15
1109.76805	1519.25
1113.41903	1532.85
1117.06751	1529.15
1120.71348	1532.35
1124.35696	1545.85
1127.99793	1568.45
1131.63641	1585.15
1135.2724	1584.65
1138.90589	1584.85
1142.5369	1580.65
1146.16542	1578.15
1149.79145	1563.25
1153.415	1561.45
1157.03607	1562.65
1160.65467	1561.25
1164.27079	1557.25
1167.88443	1559.95
1171.49561	1575.55
1175.10432	1584.55
1178.71056	1600.25
1182.31434	1626.95
1185.91565	1640.05
1189.51451	1636.55
1193.11091	1627.95
1196.70485	1619.95
1200.29634	1617.15
1203.88538	1590.35
1207.47197	1594.85
1211.05612	1586.25
1214.63782	1577.45
1218.21708	1592.65
1221.79391	1599.55
1225.36829	1598.65
1228.94024	1610.45
1232.50976	1620.05
1236.07685	1630.35
1239.6415	1649.45
1243.20374	1667.05
1246.76355	1677.15
1250.32093	1693.95
1253.8759	1698.35
1257.42845	1719.35
1260.97859	1731.25
1264.52631	1731.95
1268.07163	1740.05
1271.61453	1746.35
1275.15503	1754.65
1278.69312	1766.25
1282.22882	1773.95
1285.76211	1790.85
1289.29301	1802.85
1292.82151	1836.05
1296.34761	1860.25
1299.87133	1881.95
1303.39266	1918.35
1306.9116	1950.25
1310.42815	1989.15
1313.94233	2008.25
1317.45412	2011.55
1320.96354	1986.15
1324.47058	1976.75
1327.97525	1962.55
1331.47754	1971.75
1334.97747	1959.25
1338.47502	1982.25
1341.97022	2011.65
1345.46305	2047.35
1348.95352	2088.05
1352.44163	2147.95
1355.92738	2192.45
1359.41078	2254.95
1362.89183	2323.15
1366.37053	2338.35
1369.84688	2316.45
1373.32088	2257.05
1376.79254	2217.15
1380.26186	2177.95
1383.72883	2167.75
1387.19347	2158.35
1390.65578	2138.25
1394.11575	2138.55
1397.57339	2129.15
1401.0287	2124.05
1404.48168	2120.65
1407.93234	2125.05
1411.38068	2138.55
1414.82669	2161.25
1418.27039	2175.45
1421.71177	2178.95
1425.15083	2169.95
1428.58758	2115.25
1432.02203	2063.65
1435.45416	2016.75
1438.88399	1988.45
1442.31151	1983.75
1445.73673	1979.15
1449.15965	1978.05
1452.58027	1967.15
1455.9986	1963.15
1459.41463	1953.05
1462.82837	1959.25
1466.23982	1942.35
1469.64898	1937.05
1473.05586	1924.95
1476.46045	1891.45
1479.86276	1877.75
1483.26279	1856.05
1486.66054	1847.45
1490.05602	1841.45
1493.44922	1836.95
1496.84016	1831.85
1500.22882	1846.65
1503.61521	1874.85
1506.99934	1892.15
1510.38121	1923.55
1513.76081	1930.15
1517.13816	1911.55
1520.51324	1880.35
1523.88607	1840.75
1527.25665	1805.35
1530.62498	1796.55
1533.99105	1793.55
1537.35488	1784.45
1540.71647	1791.35
1544.07581	1777.75
1547.4329	1780.15
1550.78776	1779.05
1554.14038	1768.55
1557.49077	1775.85
1560.83892	1779.45
1564.18484	1760.55
1567.52853	1754.95
1570.86999	1747.15
1574.20922	1741.15
1577.54624	1733.45
1580.88103	1713.05
1584.2136	1691.45
1587.54395	1659.05
1590.87208	1655.35
1594.19801	1653.35
1597.52172	1644.15
1600.84321	1639.05
1604.16251	1633.35
1607.47959	1621.55
1610.79447	1614.75
1614.10715	1609.55
1617.41763	1596.05
1620.7259	1592.85
1624.03199	1602.45
1627.33587	1592.35
1630.63757	1593.75
1633.93707	1588.65
1637.23439	1585.85
1640.52951	1573.55
1643.82246	1590.15
1647.11321	1607.55
1650.40179	1597.45
1653.68819	1592.15
1656.97241	1543.05
1660.25446	1506.05
1663.53433	1464.55
1666.81203	1433.25
1670.08756	1407.75
1673.36092	1381.65
1676.63211	1372.65
1679.90115	1343.95
1683.16801	1313.05
1686.43272	1308.35
1689.69527	1278.05
1692.95567	1265.65
1696.2139	1257.05
1699.46999	1227.95
1702.72392	1222.95
1705.97571	1208.05
1709.22535	1206.85
1712.47284	1209.25
1715.71819	1200.95
1718.96139	1193.15
1722.20246	1182.25
1725.44139	1180.15
1728.67818	1170.55
1731.91284	1176.65
1735.14537	1169.95
1738.37576	1171.25
1741.60403	1175.25
1744.83017	1189.65
1748.05418	1196.55
1751.27607	1221.25
1754.49584	1254.35
1757.71349	1280.55
1760.92903	1285.95
1764.14244	1281.95
1767.35375	1258.85
1770.56294	1218.45
1773.77002	1189.15
1776.97499	1154.75
1780.17785	1141.35
1783.37861	1114.75
1786.57727	1110.65
1789.77382	1093.35
1792.96828	1076.85
1796.16064	1060.55
1799.3509	1046.15
1802.53907	1033.65
1805.72514	1019.55
1808.90913	1011.35
1812.09102	1008.25
1815.27083	1000.85
1818.44856	997.95
1821.6242	995.85
1824.79776	993.15
1827.96924	989.55
1831.13864	989.75
1834.30597	983.75
1837.47122	981.55
1840.6344	976.35
1843.7955	973.65
1846.95454	978.15
1850.11151	977.35
1853.26642	971.95
1856.41926	980.15
1859.57004	974.05
1862.71876	967.95
1865.86542	963.95
1869.01003	966.15
1872.15258	971.05
1875.29308	963.15
1878.43152	963.85
1881.56792	961.05
1884.70227	948.95
1887.83457	956.25
1890.96482	945.65
1894.09304	949.15
1897.21921	950.35
1900.34335	947.55
1903.46544	954.35
1906.58551	939.65
1909.70353	945.25
1912.81953	945.25
1915.93349	938.75
1919.04543	949.85
1922.15534	936.45
1925.26322	943.45
1928.36908	932.45
1931.47292	932.95
1934.57473	938.05
1937.67453	933.85
1940.77232	927.55
1943.86808	938.05
1946.96184	921.15
1950.05358	919.75
1953.14331	922.95
1956.23103	912.65
1959.31675	921.55
1962.40046	909.45
1965.48217	904.85
1968.56188	899.65
1971.63959	901.75
1974.7153	906.35
1977.78901	898.75
1980.86073	892.15
1983.93046	896.25
1986.99819	890.95
1990.06394	881.35
1993.1277	881.85
1996.18947	871.65
1999.24925	871.65
2002.30706	875.95
2005.36288	866.85
2008.41672	869.75
2011.46859	864.95
2014.51848	860.75
2017.56639	854.85
2020.61233	859.35
2023.6563	858.75
2026.6983	855.65
2029.73833	851.15
2032.7764	853.55
2035.8125	848.25
2038.84664	849.05
2041.87881	853.05
2044.90903	845.75
2047.93729	847.55
2050.96359	854.75
2053.98794	854.15
2057.01034	855.15
2060.03078	864.35
2063.04927	856.25
2066.06582	866.85
2069.08042	865.45
2072.09307	878.55
2075.10378	878.95
2078.11255	878.85
2081.11938	886.15
2084.12426	889.55
2087.12722	903.65
2090.12824	898.05
2093.12732	910.65
2096.12447	902.55
2099.11969	901.35
2102.11299	907.05
2105.10435	906.35
2108.09379	907.15
2111.08131	903.55
2114.0669	902.45
2117.05057	897.35
2120.03233	899.65
2123.01216	889.25
2125.99008	893.45
2128.96609	883.25
2131.94018	875.95
2134.91236	888.05
2137.88263	866.85
2140.851	869.35
2143.81746	862.15
2146.78201	850.25
2149.74466	853.45
2152.7054	847.65
2155.66425	848.35
2158.6212	840.65
2161.57625	831.15
2164.52941	837.35
2167.48067	831.95
2170.43004	822.05
2173.37752	830.95
2176.32311	820.75
2179.26681	817.55
2182.20863	822.05
2185.14856	818.45
2188.08661	811.05
2191.02278	817.55
2193.95707	811.05
2196.88948	811.05
2199.82001	809.65
2202.74867	803.95
2205.67545	808.25
2208.60037	801.65
2211.52341	808.15
2214.44458	799.35
2217.36388	792.85
2220.28132	796.35
2223.1969	792.75
2226.11061	798.05
2229.02246	793.05
2231.93245	789.05
2234.84058	789.75
2237.74686	787.35
2240.65128	780.65
2243.55385	785.25
2246.45456	785.55
2249.35343	773.25
2252.25044	775.65
2255.14561	771.05
2258.03893	773.85
2260.93041	766.95
2263.82004	765.45
2266.70783	767.15
2269.59378	762.75
2272.4779	763.15
2275.36017	763.05
2278.24061	762.65
2281.11922	762.05
2283.996	751.95
2286.87094	755.05
2289.74405	748.05
2292.61534	755.35
2295.4848	748.05
2298.35243	751.35
2301.21824	746.95
2304.08223	750.15
2306.94439	747.95
2309.80474	744.95
2312.66327	742.35
2315.51999	741.35
2318.37489	743.65
2321.22797	739.25
2324.07925	742.05
2326.92871	741.35
2329.77637	745.15
2332.62222	740.65
2335.46626	736.15
2338.3085	729.75
2341.14893	729.65
2343.98756	726.45
2346.8244	721.85
2349.65943	726.95
2352.49267	720.45
2355.32411	724.05
2358.15376	718.45
2360.98161	726.05
2363.80768	717.75
2366.63195	725.05
2369.45444	721.75
2372.27514	723.05
2375.09405	711.75
2377.91118	714.55
2380.72652	709.95
2383.54009	714.15
2386.35187	705.95
2389.16188	703.25
2391.97011	712.15
2394.77657	707.25
2397.58125	703.65
2400.38416	705.15
2403.18529	707.85
2405.98466	700.55
2408.78226	698.75
2411.57809	695.05
2414.37216	699.45
2417.16446	697.55
2419.955	694.85
2422.74378	696.65
2425.5308	693.15
2428.31606	692.45
2431.09956	695.95
2433.88131	687.05
2436.6613	688.85
2439.43954	691.35
2442.21603	687.65
2444.99077	689.55
2447.76377	691.25
2450.53501	682.95
2453.30451	681.85
2456.07226	682.75
2458.83827	679.35
2461.60254	677.35
2464.36507	679.95
2467.12586	676.75
2469.88492	671.95
2472.64224	670.55
2475.39782	672.95
2478.15167	676.85
2480.90379	676.65
2483.65417	680.45
2486.40283	667.15
2489.14976	668.95
2491.89497	669.25
2494.63845	662.95
2497.3802	672.45
2500.12024	670.45
2502.85855	668.15
2505.59514	667.55
2508.33002	663.55
2511.06318	668.85
2513.79462	666.25
2516.52435	663.35
2519.25237	654.35
2521.97867	657.35
2524.70327	660.55
2527.42616	657.25
2530.14734	657.25
2532.86681	655.35
2535.58458	654.95
2538.30065	651.55
2541.01501	653.15
2543.72768	654.55
2546.43864	652.55
2549.14791	649.75
2551.85548	650.55
2554.56136	645.25
2557.26554	643.05
2559.96803	651.45
2562.66883	643.95
2565.36794	643.85
2568.06536	640.35
2570.7611	638.55
2573.45514	639.75
2576.14751	640.15
2578.83819	640.35
2581.52719	639.05
2584.21451	632.05
2586.90015	635.25
2589.58411	631.85
2592.2664	633.35
2594.94701	627.85
2597.62594	628.95
2600.30321	619.35
2602.9788	622.05
2605.65273	619.45
2608.32498	616.15
2610.99557	619.05
2613.66449	621.95
2616.33175	611.15
2618.99734	619.35
2621.66128	615.45
2624.32355	619.25
2626.98416	613.15
2629.64311	613.35
2632.30041	609.55
2634.95605	622.25
2637.61004	609.05
2640.26238	613.15
2642.91306	611.45
2645.56209	614.55
2648.20948	605.25
2650.85521	612.25
2653.4993	608.75
2656.14175	614.85
2658.78255	611.45
2661.42171	619.15
2664.05923	615.85
2666.6951	611.85
2669.32934	613.25
2671.96194	613.45
2674.59291	611.35
2677.22224	615.15
2679.84993	618.95
2682.476	615.05
2685.10043	616.05
2687.72324	614.45
2690.34441	609.85
2692.96396	613.05
2695.58188	619.25
2698.19818	621.05
2700.81285	621.05
2703.4259	620.95
2706.03733	633.25
2708.64714	622.15
2711.25533	620.25
2713.86191	624.05
2716.46687	620.15
2719.07021	626.15
2721.67194	625.85
2724.27206	620.25
2726.87057	617.05
2729.46747	619.85
2732.06276	621.65
2734.65644	619.85
2737.24852	622.95
2739.83899	608.65
2742.42786	613.15
2745.01513	614.75
2747.60079	614.75
2750.18486	612.25
2752.76733	609.55
2755.3482	611.15
2757.92747	605.95
2760.50515	604.35
2763.08123	606.65
2765.65573	609.55
2768.22863	605.45
2770.79994	603.55
2773.36967	603.95
2775.9378	605.55
2778.50435	608.85
2781.06932	603.65
2783.6327	602.95
2786.1945	607.35
2788.75471	602.75
2791.31335	595.55
2793.87041	600.75
2796.42589	599.05
2798.97979	597.05
2801.53212	605.25
2804.08288	607.85
2806.63206	606.35
2809.17967	598.95
2811.72571	602.55
2814.27018	604.65
2816.81308	600.75
2819.35442	599.25
2821.89419	600.85
2824.43239	607.95
2826.96904	607.55
2829.50412	603.75
2832.03763	597.45
2834.56959	599.35
2837.1	604.35
2839.62884	603.85
2842.15613	610.15
2844.68186	609.65
2847.20604	606.95
2849.72867	609.45
2852.24974	611.15
2854.76927	611.15
2857.28724	608.95
2859.80367	608.95
2862.31855	610.35
2864.83189	609.65
2867.34368	621.65
2869.85393	613.45
2872.36264	614.05
2874.8698	617.15
2877.37543	620.05
2879.87952	631.55
2882.38207	623.75
2884.88308	631.55
2887.38256	636.65
2889.88051	644.85
2892.37692	646.65
2894.8718	649.15
2897.36515	662.55
2899.85698	671.65
2902.34727	681.25
2904.83604	682.95
2907.32328	691.65
2909.809	699.65
2912.29319	711.95
2914.77587	721.05
2917.25702	728.35
2919.73665	739.45
2922.21476	745.55
2924.69136	742.45
2927.16644	760.55
2929.64	769.55
2932.11205	779.25
2934.58258	780.45
2937.05161	789.15
2939.51912	806.45
2941.98513	809.55
2944.44962	804.05
2946.91261	807.75
2949.37409	803.45
2951.83407	801.35
2954.29254	798.35
2956.74951	789.15
2959.20498	787.65
2961.65895	766.55
2964.11142	747.55
2966.56239	735.75
2969.01186	730.55
2971.45984	718.85
2973.90632	707.45
2976.35131	692.85
2978.7948	691.25
2981.23681	685.65
2983.67732	674.05
2986.11635	673.05
2988.55388	672.15
2990.98993	666.15
2993.4245	662.85
2995.85758	649.35
2998.28917	658.35
3000.71928	660.05
3003.14791	658.05
3005.57506	654.35
3008.00073	655.25
3010.42493	644.15
3012.84764	659.15
3015.26888	649.15
3017.68865	660.45
3020.10694	641.65
3022.52376	646.25
3024.9391	647.15
3027.35298	647.95
3029.76539	634.25
3032.17632	634.15
3034.5858	629.25
3036.9938	626.15
3039.40034	626.15
3041.80542	624.35
3044.20903	618.75
3046.61118	621.15
3049.01187	610.85
3051.4111	616.45
3053.80888	615.35
3056.20519	611.35
3058.60005	614.85
3060.99345	618.15
3063.3854	609.75
3065.7759	619.75
3068.16494	614.15
3070.55254	610.75
3072.93868	612.35
3075.32338	616.05
3077.70662	622.45
3080.08842	622.95
3082.46878	624.25
3084.84769	619.35
3087.22515	625.15
3089.60118	633.55
3091.97576	633.95
3094.3489	631.15
3096.72061	641.35
3099.09087	637.65
3101.4597	646.95
3103.82709	644.95
3106.19305	646.95
3108.55757	654.65
3110.92066	654.05
3113.28232	655.55
3115.64255	657.85
3118.00134	663.35
3120.35871	667.75
3122.71466	664.05
3125.06917	678.55
3127.42226	676.05
3129.77393	683.15
3132.12417	683.05
3134.47299	690.15
3136.82039	690.05
3139.16636	688.35
3141.51092	701.75
3143.85406	706.45
3146.19579	704.85
3148.53609	714.65
3150.87499	718.95
3153.21246	722.15
3155.54853	727.85
3157.88318	732.95
3160.21642	737.95
3162.54826	739.75
3164.87868	752.85
3167.2077	754.85
3169.5353	753.95
3171.86151	756.25
3174.18631	766.45
3176.5097	761.75
3178.83169	761.75
3181.15228	782.05
3183.47147	775.85
3185.78926	773.85
3188.10565	787.85
3190.42065	783.65
3192.73424	780.85
3195.04645	791.25
3197.35725	796.85
3199.66667	803.65
3201.97469	797.65
3204.28132	805.65
3206.58656	814.05
3208.8904	815.45
3211.19287	812.95
3213.49394	823.15
3215.79363	821.05
3218.09193	822.35
3220.38884	824.75
3222.68438	822.85
3224.97853	822.15
3227.2713	828.15
3229.56269	829.45
3231.8527	842.95
3234.14133	835.15
3236.42858	835.05
3238.71446	843.05
3240.99896	832.85
3243.28209	836.55
3245.56384	839.65
3247.84423	837.35
3250.12324	837.95
3252.40088	839.65
3254.67715	843.45
3256.95205	844.85
3259.22558	837.55
3261.49775	845.35
3263.76855	837.45
3266.03799	840.25
3268.30606	834.75
3270.57277	832.35
3272.83812	840.25
3275.10211	838.25
3277.36474	838.15
3279.62601	838.95
3281.88593	832.65
3284.14448	844.15
3286.40168	843.95
3288.65753	843.65
3290.91202	838.35
3293.16516	844.35
3295.41695	836.25
3297.66738	831.35
3299.91647	831.95
3302.16421	825.75
3304.4106	827.55
3306.65564	823.55
3308.89933	816.65
3311.14169	822.65
3313.38269	810.65
3315.62236	800.05
3317.86068	805.05
3320.09766	794.05
3322.3333	796.85
3324.5676	792.75
3326.80056	776.65
3329.03219	779.45
3331.26248	0.55
3333.49143	-0.15
3335.71905	-0.75
