Data from AgNPs_FTO_APTES_UA_5um_CRN_0.1mM_R6G_10uM_NaF_0.1M_Addition_RamanShift__29__13-30-49-115.txt Node

Date: Tue Dec 21 13:30:49 GMT 2021
User: TCL
Spectrometer: QEP01345
Trigger mode: 4
Integration Time (sec): 7.000000E0
Scans to average: 10
Electric dark correction enabled: true
Nonlinearity correction enabled: false
Boxcar width: 0
XAxis mode: Raman Shifts
Number of Pixels in Spectrum: 1044
>>>>>Begin Spectral Data<<<<<
46.04893	-0.575
50.45542	-0.675
54.85868	-0.975
59.25871	0.525
63.6555	31.125
68.04907	36.525
72.43941	36.125
76.82654	41.125
81.21044	42.225
85.59113	42.725
89.96862	47.425
94.34289	43.325
98.71396	47.525
103.08183	51.225
107.4465	52.125
111.80798	50.925
116.16626	51.625
120.52136	52.825
124.87327	51.925
129.222	50.125
133.56755	57.025
137.90993	63.025
142.24913	61.925
146.58517	70.325
150.91804	76.725
155.24774	88.025
159.57429	107.925
163.89768	132.525
168.21792	168.325
172.53501	224.225
176.84895	302.125
181.15975	424.425
185.46741	591.325
189.77193	810.225
194.07331	1081.325
198.37157	1394.425
202.6667	1722.025
206.9587	2042.225
211.24758	2368.625
215.53334	2711.225
219.81599	3076.325
224.09553	3499.425
228.37195	3961.025
232.64527	4468.925
236.91549	4965.425
241.18261	5456.325
245.44663	5886.325
249.70755	6226.025
253.96539	6479.225
258.22014	6713.425
262.4718	6860.825
266.72039	6936.825
270.96589	7012.925
275.20832	6969.125
279.44768	6909.225
283.68397	6830.725
287.91719	6792.225
292.14735	6807.125
296.37445	6914.225
300.59849	7125.125
304.81948	7398.325
309.03742	7613.125
313.25231	7624.125
317.46415	7305.925
321.67296	6742.425
325.87872	6265.225
330.08145	6015.425
334.28114	5993.525
338.47781	6116.725
342.67145	6282.825
346.86207	6559.325
351.04966	6938.525
355.23424	7412.325
359.4158	7742.025
363.59435	7888.725
367.76989	7908.725
371.94243	7872.725
376.11196	7784.125
380.27849	7706.925
384.44203	7638.425
388.60257	7525.325
392.76012	7487.725
396.91468	7584.925
401.06626	7834.825
405.21485	8033.725
409.36047	7972.125
413.50311	7559.525
417.64277	7189.025
421.77947	6945.225
425.9132	6841.725
430.04396	6845.725
434.17176	6849.025
438.2966	6923.525
442.41849	7078.125
446.53742	7317.325
450.6534	7514.925
454.76644	7667.325
458.87653	7678.025
462.98368	7634.825
467.08789	7488.225
471.18916	7321.025
475.2875	7118.925
479.38291	6986.425
483.4754	6846.025
487.56496	6784.225
491.6516	6723.825
495.73531	6692.625
499.81612	6692.525
503.89401	6760.825
507.96899	6813.125
512.04106	6870.025
516.11023	6951.925
520.1765	6998.125
524.23987	6995.725
528.30034	6877.625
532.35792	6715.625
536.41261	6570.925
540.46441	6358.725
544.51333	6281.425
548.55936	6292.225
552.60252	6461.425
556.64279	6617.325
560.6802	6714.825
564.71473	6875.225
568.7464	7218.625
572.7752	7474.125
576.80114	7329.625
580.82422	7155.725
584.84444	7088.725
588.86181	7053.725
592.87633	7071.425
596.888	7128.125
600.89682	7346.725
604.9028	8092.025
608.90594	10143.625
612.90624	12900.325
616.90371	12618.825
620.89834	8932.025
624.89015	7087.925
628.87913	6742.825
632.86528	6793.325
636.84862	6914.825
640.82913	6805.425
644.80683	6473.125
648.78172	6223.025
652.75379	6208.925
656.72306	6475.525
660.68952	6835.625
664.65319	6767.925
668.61405	6424.925
672.57211	6272.625
676.52738	6254.225
680.47986	6266.525
684.42955	6228.425
688.37646	6178.225
692.32058	6174.825
696.26192	6228.525
700.20048	6339.325
704.13626	6447.425
708.06928	6453.725
711.99952	6379.525
715.927	6295.225
719.85171	6286.125
723.77365	6249.025
727.69284	6163.325
731.60928	6084.125
735.52295	6053.925
739.43388	6067.325
743.34206	6115.025
747.24749	6172.025
751.15017	6254.725
755.05012	6420.525
758.94733	6753.525
762.8418	7485.225
766.73354	8706.925
770.62254	9977.025
774.50882	10627.325
778.39237	10293.325
782.27321	8994.925
786.15132	7551.325
790.02671	6723.225
793.89938	6327.525
797.76935	6169.225
801.6366	6112.625
805.50115	6111.125
809.36299	6109.625
813.22213	6089.325
817.07857	6070.825
820.93231	6031.325
824.78336	5989.825
828.63172	6009.325
832.47738	6031.125
836.32036	6004.125
840.16066	5969.725
843.99827	5921.825
847.8332	5897.625
851.66546	5873.725
855.49504	5878.825
859.32195	5866.025
863.1462	5825.525
866.96777	5772.625
870.78668	5804.725
874.60293	5820.825
878.41652	5831.625
882.22745	5887.325
886.03573	5936.125
889.84136	5932.525
893.64433	5888.025
897.44466	5844.625
901.24235	5828.725
905.0374	5768.125
908.8298	5748.925
912.61957	5715.125
916.40671	5825.025
920.19121	5898.825
923.97308	5905.425
927.75233	5964.325
931.52895	6004.025
935.30295	5917.725
939.07433	5706.825
942.84309	5560.225
946.60924	5429.325
950.37278	5369.625
954.13371	5346.425
957.89203	5322.825
961.64774	5304.325
965.40086	5279.325
969.15137	5264.125
972.89929	5247.725
976.64461	5235.025
980.38733	5221.925
984.12747	5234.425
987.86502	5258.025
991.59999	5271.625
995.33237	5348.225
999.06217	5464.925
1002.78939	5636.425
1006.51404	5793.225
1010.23611	5967.825
1013.95561	6067.225
1017.67255	6068.325
1021.38692	5928.125
1025.09872	5823.325
1028.80796	5759.125
1032.51465	5774.225
1036.21877	5879.225
1039.92035	5996.725
1043.61937	6040.525
1047.31584	6011.525
1051.00976	5978.925
1054.70114	5936.625
1058.38998	5920.325
1062.07627	5959.025
1065.76003	6005.425
1069.44126	6079.225
1073.11995	6156.125
1076.79611	6250.625
1080.46974	6323.125
1084.14085	6458.025
1087.80943	6598.925
1091.47549	6674.325
1095.13903	6551.625
1098.80005	6318.325
1102.45857	6062.025
1106.11456	5934.925
1109.76805	5941.525
1113.41903	6031.725
1117.06751	6269.325
1120.71348	6539.225
1124.35696	6915.325
1127.99793	7196.025
1131.63641	7192.825
1135.2724	6857.025
1138.90589	6532.625
1142.5369	6340.325
1146.16542	6206.225
1149.79145	6091.025
1153.415	6090.925
1157.03607	6130.225
1160.65467	6279.725
1164.27079	6496.525
1167.88443	6822.725
1171.49561	7418.225
1175.10432	8359.125
1178.71056	9585.925
1182.31434	10510.225
1185.91565	10712.625
1189.51451	10433.825
1193.11091	9947.425
1196.70485	9316.425
1200.29634	8790.625
1203.88538	8318.725
1207.47197	7764.225
1211.05612	7277.325
1214.63782	7003.025
1218.21708	6882.425
1221.79391	6867.925
1225.36829	6912.725
1228.94024	6938.425
1232.50976	6964.625
1236.07685	6977.825
1239.6415	6976.925
1243.20374	6979.525
1246.76355	7025.225
1250.32093	7103.925
1253.8759	7239.125
1257.42845	7482.925
1260.97859	7694.625
1264.52631	7937.925
1268.07163	8145.725
1271.61453	8363.425
1275.15503	8537.425
1278.69312	8633.625
1282.22882	8742.925
1285.76211	8972.225
1289.29301	9253.125
1292.82151	9558.625
1296.34761	9940.425
1299.87133	10439.925
1303.39266	11246.425
1306.9116	12422.225
1310.42815	13730.725
1313.94233	14504.225
1317.45412	14234.925
1320.96354	13340.025
1324.47058	12383.225
1327.97525	11628.525
1331.47754	11186.725
1334.97747	11063.225
1338.47502	11143.125
1341.97022	11432.125
1345.46305	11791.125
1348.95352	12269.725
1352.44163	12960.425
1355.92738	14026.025
1359.41078	15695.525
1362.89183	17161.025
1366.37053	16678.525
1369.84688	14608.625
1373.32088	12401.525
1376.79254	10860.125
1380.26186	9904.525
1383.72883	9388.525
1387.19347	9027.425
1390.65578	8697.925
1394.11575	8487.725
1397.57339	8412.025
1401.0287	8461.725
1404.48168	8591.525
1407.93234	8690.925
1411.38068	8777.025
1414.82669	8690.025
1418.27039	8488.925
1421.71177	8237.125
1425.15083	8001.725
1428.58758	7892.625
1432.02203	7912.825
1435.45416	7939.225
1438.88399	7974.725
1442.31151	7938.225
1445.73673	7984.825
1449.15965	8021.425
1452.58027	7999.825
1455.9986	7948.825
1459.41463	7991.525
1462.82837	8078.425
1466.23982	8238.425
1469.64898	8399.525
1473.05586	8556.525
1476.46045	8609.925
1479.86276	8772.225
1483.26279	8953.725
1486.66054	9203.625
1490.05602	9521.525
1493.44922	9996.425
1496.84016	10669.425
1500.22882	11668.525
1503.61521	12964.125
1506.99934	14372.825
1510.38121	15529.625
1513.76081	15965.625
1517.13816	15124.525
1520.51324	13388.225
1523.88607	11686.725
1527.25665	10521.225
1530.62498	9874.825
1533.99105	9518.625
1537.35488	9301.525
1540.71647	9164.525
1544.07581	9080.525
1547.4329	9030.825
1550.78776	8936.425
1554.14038	8836.925
1557.49077	8841.025
1560.83892	8936.825
1564.18484	9165.925
1567.52853	9431.825
1570.86999	9687.325
1574.20922	9817.825
1577.54624	9780.025
1580.88103	9315.725
1584.2136	8700.625
1587.54395	8404.525
1590.87208	8533.225
1594.19801	9067.525
1597.52172	9737.925
1600.84321	10071.425
1604.16251	9766.525
1607.47959	9104.525
1610.79447	8307.825
1614.10715	7602.125
1617.41763	7057.525
1620.7259	6704.325
1624.03199	6531.625
1627.33587	6495.125
1630.63757	6638.825
1633.93707	6948.125
1637.23439	7434.625
1640.52951	8186.725
1643.82246	9210.525
1647.11321	10370.525
1650.40179	11215.225
1653.68819	11002.625
1656.97241	9715.125
1660.25446	8156.625
1663.53433	6992.125
1666.81203	6245.925
1670.08756	5822.325
1673.36092	5544.525
1676.63211	5366.825
1679.90115	5221.925
1683.16801	5123.125
1686.43272	5061.725
1689.69527	4994.325
1692.95567	4947.425
1696.2139	4929.825
1699.46999	4918.325
1702.72392	4901.425
1705.97571	4860.125
1709.22535	4837.525
1712.47284	4844.625
1715.71819	4828.725
1718.96139	4836.825
1722.20246	4828.725
1725.44139	4801.925
1728.67818	4777.425
1731.91284	4733.825
1735.14537	4692.725
1738.37576	4659.725
1741.60403	4636.325
1744.83017	4599.425
1748.05418	4605.125
1751.27607	4580.025
1754.49584	4565.725
1757.71349	4575.925
1760.92903	4547.225
1764.14244	4532.325
1767.35375	4517.825
1770.56294	4486.225
1773.77002	4465.125
1776.97499	4440.525
1780.17785	4409.525
1783.37861	4399.125
1786.57727	4373.625
1789.77382	4369.125
1792.96828	4351.825
1796.16064	4335.725
1799.3509	4338.925
1802.53907	4329.025
1805.72514	4316.325
1808.90913	4299.825
1812.09102	4273.825
1815.27083	4263.825
1818.44856	4259.225
1821.6242	4243.225
1824.79776	4246.925
1827.96924	4226.625
1831.13864	4229.925
1834.30597	4214.025
1837.47122	4208.025
1840.6344	4191.825
1843.7955	4192.125
1846.95454	4189.825
1850.11151	4197.225
1853.26642	4171.125
1856.41926	4184.325
1859.57004	4193.425
1862.71876	4190.225
1865.86542	4178.625
1869.01003	4174.025
1872.15258	4189.925
1875.29308	4187.125
1878.43152	4173.825
1881.56792	4170.125
1884.70227	4164.525
1887.83457	4167.925
1890.96482	4157.725
1894.09304	4157.225
1897.21921	4149.825
1900.34335	4149.825
1903.46544	4162.025
1906.58551	4160.425
1909.70353	4145.725
1912.81953	4163.925
1915.93349	4150.625
1919.04543	4146.025
1922.15534	4136.225
1925.26322	4128.325
1928.36908	4107.725
1931.47292	4090.325
1934.57473	4085.925
1937.67453	4066.725
1940.77232	4050.325
1943.86808	4034.225
1946.96184	4011.025
1950.05358	4006.125
1953.14331	3966.725
1956.23103	3962.225
1959.31675	3948.525
1962.40046	3945.025
1965.48217	3921.525
1968.56188	3905.925
1971.63959	3908.525
1974.7153	3904.325
1977.78901	3874.825
1980.86073	3854.625
1983.93046	3849.025
1986.99819	3836.625
1990.06394	3803.225
1993.1277	3793.425
1996.18947	3782.325
1999.24925	3780.825
2002.30706	3771.125
2005.36288	3753.625
2008.41672	3749.925
2011.46859	3720.025
2014.51848	3707.725
2017.56639	3703.625
2020.61233	3687.025
2023.6563	3684.625
2026.6983	3670.125
2029.73833	3664.825
2032.7764	3661.525
2035.8125	3644.725
2038.84664	3626.325
2041.87881	3642.225
2044.90903	3616.625
2047.93729	3597.025
2050.96359	3612.825
2053.98794	3606.725
2057.01034	3591.925
2060.03078	3593.725
2063.04927	3583.225
2066.06582	3556.725
2069.08042	3574.825
2072.09307	3557.125
2075.10378	3567.325
2078.11255	3559.425
2081.11938	3562.125
2084.12426	3554.325
2087.12722	3543.425
2090.12824	3549.625
2093.12732	3546.925
2096.12447	3538.425
2099.11969	3528.025
2102.11299	3540.525
2105.10435	3547.125
2108.09379	3542.125
2111.08131	3538.925
2114.0669	3532.625
2117.05057	3534.625
2120.03233	3535.925
2123.01216	3545.725
2125.99008	3539.525
2128.96609	3542.325
2131.94018	3554.525
2134.91236	3548.625
2137.88263	3555.725
2140.851	3542.525
2143.81746	3536.725
2146.78201	3533.825
2149.74466	3536.825
2152.7054	3536.725
2155.66425	3522.125
2158.6212	3531.525
2161.57625	3526.825
2164.52941	3518.725
2167.48067	3519.825
2170.43004	3503.825
2173.37752	3503.025
2176.32311	3508.025
2179.26681	3503.125
2182.20863	3505.725
2185.14856	3498.825
2188.08661	3513.725
2191.02278	3488.725
2193.95707	3485.625
2196.88948	3487.425
2199.82001	3488.425
2202.74867	3471.425
2205.67545	3478.725
2208.60037	3455.325
2211.52341	3460.725
2214.44458	3455.125
2217.36388	3440.025
2220.28132	3435.725
2223.1969	3419.125
2226.11061	3419.625
2229.02246	3402.825
2231.93245	3415.425
2234.84058	3392.025
2237.74686	3397.625
2240.65128	3383.625
2243.55385	3391.525
2246.45456	3369.425
2249.35343	3371.725
2252.25044	3363.825
2255.14561	3364.025
2258.03893	3369.725
2260.93041	3374.225
2263.82004	3363.525
2266.70783	3340.825
2269.59378	3337.625
2272.4779	3335.125
2275.36017	3315.925
2278.24061	3305.925
2281.11922	3315.025
2283.996	3289.425
2286.87094	3284.825
2289.74405	3260.925
2292.61534	3260.025
2295.4848	3239.125
2298.35243	3246.325
2301.21824	3253.925
2304.08223	3238.325
2306.94439	3245.925
2309.80474	3226.925
2312.66327	3223.025
2315.51999	3232.425
2318.37489	3226.725
2321.22797	3220.825
2324.07925	3219.425
2326.92871	3209.625
2329.77637	3208.525
2332.62222	3214.625
2335.46626	3208.625
2338.3085	3197.125
2341.14893	3205.725
2343.98756	3204.125
2346.8244	3202.125
2349.65943	3193.225
2352.49267	3207.925
2355.32411	3205.725
2358.15376	3214.325
2360.98161	3197.025
2363.80768	3204.825
2366.63195	3221.725
2369.45444	3208.525
2372.27514	3220.425
2375.09405	3191.925
2377.91118	3188.525
2380.72652	3191.225
2383.54009	3171.825
2386.35187	3156.925
2389.16188	3145.425
2391.97011	3128.825
2394.77657	3122.925
2397.58125	3116.225
2400.38416	3109.925
2403.18529	3094.725
2405.98466	3092.925
2408.78226	3085.225
2411.57809	3066.225
2414.37216	3066.025
2417.16446	3058.925
2419.955	3055.725
2422.74378	3060.125
2425.5308	3057.025
2428.31606	3048.425
2431.09956	3061.825
2433.88131	3047.325
2436.6613	3051.925
2439.43954	3046.625
2442.21603	3028.525
2444.99077	3046.525
2447.76377	3037.525
2450.53501	3044.025
2453.30451	3049.625
2456.07226	3032.225
2458.83827	3030.325
2461.60254	3023.225
2464.36507	3024.825
2467.12586	3023.425
2469.88492	3030.025
2472.64224	3021.925
2475.39782	3028.425
2478.15167	3047.225
2480.90379	3033.125
2483.65417	3055.525
2486.40283	3041.925
2489.14976	3039.525
2491.89497	3050.525
2494.63845	3062.725
2497.3802	3060.225
2500.12024	3038.625
2502.85855	3034.625
2505.59514	3025.525
2508.33002	3002.225
2511.06318	2998.325
2513.79462	2989.625
2516.52435	2982.825
2519.25237	2988.225
2521.97867	2962.825
2524.70327	2963.725
2527.42616	2946.925
2530.14734	2947.225
2532.86681	2949.225
2535.58458	2944.425
2538.30065	2935.225
2541.01501	2921.525
2543.72768	2933.325
2546.43864	2936.925
2549.14791	2933.725
2551.85548	2933.225
2554.56136	2917.625
2557.26554	2920.425
2559.96803	2922.725
2562.66883	2917.525
2565.36794	2900.825
2568.06536	2900.925
2570.7611	2905.525
2573.45514	2908.125
2576.14751	2889.725
2578.83819	2882.225
2581.52719	2892.925
2584.21451	2881.125
2586.90015	2873.425
2589.58411	2878.525
2592.2664	2868.525
2594.94701	2860.525
2597.62594	2860.625
2600.30321	2849.525
2602.9788	2855.425
2605.65273	2848.325
2608.32498	2851.625
2610.99557	2861.725
2613.66449	2856.325
2616.33175	2849.425
2618.99734	2850.625
2621.66128	2839.425
2624.32355	2842.725
2626.98416	2837.425
2629.64311	2831.625
2632.30041	2821.625
2634.95605	2819.125
2637.61004	2811.125
2640.26238	2801.525
2642.91306	2801.425
2645.56209	2797.725
2648.20948	2806.025
2650.85521	2818.725
2653.4993	2805.025
2656.14175	2795.225
2658.78255	2803.725
2661.42171	2812.125
2664.05923	2808.825
2666.6951	2798.325
2669.32934	2812.525
2671.96194	2809.825
2674.59291	2813.325
2677.22224	2814.325
2679.84993	2820.225
2682.476	2819.325
2685.10043	2829.025
2687.72324	2822.325
2690.34441	2835.525
2692.96396	2816.925
2695.58188	2811.725
2698.19818	2812.125
2700.81285	2823.425
2703.4259	2859.125
2706.03733	2896.025
2708.64714	2860.325
2711.25533	2855.725
2713.86191	2854.825
2716.46687	2843.825
2719.07021	2853.625
2721.67194	2860.725
2724.27206	2848.125
2726.87057	2863.425
2729.46747	2847.125
2732.06276	2840.925
2734.65644	2839.725
2737.24852	2828.325
2739.83899	2819.425
2742.42786	2825.625
2745.01513	2823.125
2747.60079	2808.925
2750.18486	2807.025
2752.76733	2807.525
2755.3482	2801.925
2757.92747	2810.225
2760.50515	2807.425
2763.08123	2803.025
2765.65573	2792.625
2768.22863	2802.625
2770.79994	2791.125
2773.36967	2804.025
2775.9378	2794.025
2778.50435	2808.325
2781.06932	2799.225
2783.6327	2799.625
2786.1945	2792.525
2788.75471	2804.525
2791.31335	2812.125
2793.87041	2798.725
2796.42589	2793.825
2798.97979	2806.825
2801.53212	2796.625
2804.08288	2813.025
2806.63206	2818.625
2809.17967	2818.425
2811.72571	2822.925
2814.27018	2836.125
2816.81308	2836.625
2819.35442	2843.925
2821.89419	2848.625
2824.43239	2846.325
2826.96904	2847.325
2829.50412	2854.525
2832.03763	2850.925
2834.56959	2863.725
2837.1	2863.325
2839.62884	2881.725
2842.15613	2902.125
2844.68186	2953.125
2847.20604	3019.825
2849.72867	3063.225
2852.24974	3070.925
2854.76927	3077.525
2857.28724	3086.725
2859.80367	3058.425
2862.31855	3030.525
2864.83189	3020.325
2867.34368	3007.125
2869.85393	2996.025
2872.36264	2979.525
2874.8698	3000.225
2877.37543	2977.325
2879.87952	2974.725
2882.38207	2981.725
2884.88308	2980.525
2887.38256	2981.425
2889.88051	2977.225
2892.37692	2965.125
2894.8718	2968.425
2897.36515	2970.425
2899.85698	2990.225
2902.34727	2989.025
2904.83604	2979.925
2907.32328	2989.225
2909.809	2990.325
2912.29319	2983.225
2914.77587	2981.525
2917.25702	2986.125
2919.73665	2963.425
2922.21476	2970.625
2924.69136	2956.725
2927.16644	2955.625
2929.64	2942.425
2932.11205	2937.025
2934.58258	2917.225
2937.05161	2919.725
2939.51912	2902.025
2941.98513	2873.625
2944.44962	2842.925
2946.91261	2823.425
2949.37409	2801.725
2951.83407	2772.625
2954.29254	2751.725
2956.74951	2736.925
2959.20498	2723.525
2961.65895	2704.525
2964.11142	2704.425
2966.56239	2678.625
2969.01186	2678.525
2971.45984	2671.525
2973.90632	2641.925
2976.35131	2641.325
2978.7948	2633.125
2981.23681	2628.525
2983.67732	2612.325
2986.11635	2608.625
2988.55388	2594.825
2990.98993	2592.825
2993.4245	2573.825
2995.85758	2573.825
2998.28917	2560.325
3000.71928	2555.125
3003.14791	2556.025
3005.57506	2555.625
3008.00073	2544.625
3010.42493	2546.025
3012.84764	2539.125
3015.26888	2537.325
3017.68865	2521.125
3020.10694	2520.025
3022.52376	2529.125
3024.9391	2519.825
3027.35298	2505.825
3029.76539	2514.825
3032.17632	2503.725
3034.5858	2499.225
3036.9938	2488.725
3039.40034	2490.025
3041.80542	2492.025
3044.20903	2484.825
3046.61118	2477.625
3049.01187	2476.325
3051.4111	2477.425
3053.80888	2460.325
3056.20519	2461.225
3058.60005	2448.525
3060.99345	2454.125
3063.3854	2448.825
3065.7759	2447.525
3068.16494	2439.425
3070.55254	2433.225
3072.93868	2436.625
3075.32338	2416.125
3077.70662	2419.625
3080.08842	2410.525
3082.46878	2398.925
3084.84769	2394.025
3087.22515	2401.125
3089.60118	2390.725
3091.97576	2380.825
3094.3489	2383.025
3096.72061	2393.525
3099.09087	2386.525
3101.4597	2383.325
3103.82709	2371.325
3106.19305	2384.925
3108.55757	2374.325
3110.92066	2375.025
3113.28232	2375.225
3115.64255	2366.525
3118.00134	2354.425
3120.35871	2365.825
3122.71466	2356.125
3125.06917	2360.925
3127.42226	2366.125
3129.77393	2359.225
3132.12417	2372.725
3134.47299	2373.425
3136.82039	2364.925
3139.16636	2372.425
3141.51092	2367.325
3143.85406	2378.425
3146.19579	2380.825
3148.53609	2384.825
3150.87499	2393.325
3153.21246	2388.925
3155.54853	2390.225
3157.88318	2404.525
3160.21642	2391.825
3162.54826	2401.225
3164.87868	2410.825
3167.2077	2413.825
3169.5353	2409.325
3171.86151	2404.425
3174.18631	2408.725
3176.5097	2410.025
3178.83169	2406.825
3181.15228	2421.825
3183.47147	2419.225
3185.78926	2410.925
3188.10565	2421.825
3190.42065	2424.425
3192.73424	2413.525
3195.04645	2411.425
3197.35725	2428.325
3199.66667	2423.225
3201.97469	2429.125
3204.28132	2442.225
3206.58656	2448.025
3208.8904	2448.525
3211.19287	2438.125
3213.49394	2437.025
3215.79363	2439.825
3218.09193	2449.425
3220.38884	2449.825
3222.68438	2462.025
3224.97853	2449.425
3227.2713	2445.025
3229.56269	2436.025
3231.8527	2443.625
