Data from AgNPs_FTO_APTES_UA_10um_CRN_0.1mM_R6G_10uM_NaF_0.1M_Addition_RamanShift__6__13-42-29-129.txt Node

Date: Tue Dec 21 13:42:29 GMT 2021
User: TCL
Spectrometer: QEP01345
Trigger mode: 4
Integration Time (sec): 7.000000E0
Scans to average: 10
Electric dark correction enabled: true
Nonlinearity correction enabled: false
Boxcar width: 0
XAxis mode: Raman Shifts
Number of Pixels in Spectrum: 1044
>>>>>Begin Spectral Data<<<<<
46.04893	-0.3875
50.45542	-1.0875
54.85868	-0.1875
59.25871	0.5125
63.6555	43.9125
68.04907	49.8125
72.43941	51.9125
76.82654	55.1125
81.21044	58.1125
85.59113	59.4125
89.96862	61.5125
94.34289	63.5125
98.71396	63.5125
103.08183	69.5125
107.4465	73.5125
111.80798	69.2125
116.16626	73.1125
120.52136	73.7125
124.87327	78.5125
129.222	79.7125
133.56755	88.4125
137.90993	95.7125
142.24913	103.4125
146.58517	118.3125
150.91804	136.2125
155.24774	159.9125
159.57429	195.6125
163.89768	256.3125
168.21792	334.5125
172.53501	453.7125
176.84895	628.1125
181.15975	887.6125
185.46741	1242.3125
189.77193	1706.1125
194.07331	2291.0125
198.37157	2946.9125
202.6667	3650.3125
206.9587	4350.4125
211.24758	5045.8125
215.53334	5763.2125
219.81599	6519.2125
224.09553	7310.5125
228.37195	8203.8125
232.64527	9170.6125
236.91549	10190.4125
241.18261	11221.8125
245.44663	12142.4125
249.70755	13015.9125
253.96539	13709.5125
258.22014	14323.4125
262.4718	14803.4125
266.72039	15107.1125
270.96589	15241.3125
275.20832	15210.1125
279.44768	15091.1125
283.68397	14942.3125
287.91719	14794.6125
292.14735	14732.0125
296.37445	14704.1125
300.59849	14736.8125
304.81948	14831.3125
309.03742	14823.7125
313.25231	14763.4125
317.46415	14507.2125
321.67296	14162.0125
325.87872	13867.9125
330.08145	13689.1125
334.28114	13604.5125
338.47781	13657.3125
342.67145	13801.3125
346.86207	13984.8125
351.04966	14203.6125
355.23424	14441.4125
359.4158	14675.9125
363.59435	14840.5125
367.76989	14936.2125
371.94243	14994.1125
376.11196	15053.9125
380.27849	15113.8125
384.44203	15222.5125
388.60257	15365.8125
392.76012	15555.1125
396.91468	15802.1125
401.06626	16066.3125
405.21485	16258.0125
409.36047	16200.3125
413.50311	15984.9125
417.64277	15852.6125
421.77947	15850.5125
425.9132	15848.3125
430.04396	15940.7125
434.17176	16019.9125
438.2966	16105.7125
442.41849	16340.9125
446.53742	16801.3125
450.6534	17312.1125
454.76644	17649.2125
458.87653	17706.8125
462.98368	17618.9125
467.08789	17453.6125
471.18916	17223.5125
475.2875	17021.2125
479.38291	16943.7125
483.4754	16926.3125
487.56496	16743.2125
491.6516	16436.6125
495.73531	16126.8125
499.81612	15971.1125
503.89401	15974.4125
507.96899	16002.0125
512.04106	15930.7125
516.11023	15768.3125
520.1765	15580.1125
524.23987	15445.9125
528.30034	15348.6125
532.35792	15270.5125
536.41261	15094.3125
540.46441	14907.6125
544.51333	14855.9125
548.55936	14999.9125
552.60252	15283.8125
556.64279	15688.4125
560.6802	15997.6125
564.71473	16206.0125
568.7464	16477.5125
572.7752	16955.8125
576.80114	17543.3125
580.82422	18077.3125
584.84444	18774.2125
588.86181	19663.2125
592.87633	20414.7125
596.888	20371.6125
600.89682	19466.6125
604.9028	18972.5125
608.90594	19837.9125
612.90624	20954.6125
616.90371	19670.6125
620.89834	16615.8125
624.89015	15206.8125
628.87913	15054.0125
632.86528	15229.4125
636.84862	15265.9125
640.82913	15021.8125
644.80683	14672.0125
648.78172	14411.8125
652.75379	14354.3125
656.72306	14465.0125
660.68952	14640.0125
664.65319	14563.6125
668.61405	14322.0125
672.57211	14306.4125
676.52738	14440.0125
680.47986	14460.5125
684.42955	14401.8125
688.37646	14287.4125
692.32058	14295.0125
696.26192	14415.9125
700.20048	14639.5125
704.13626	14771.1125
708.06928	14789.9125
711.99952	14741.6125
715.927	14710.4125
719.85171	14760.1125
723.77365	14723.9125
727.69284	14502.1125
731.60928	14310.0125
735.52295	14230.2125
739.43388	14225.0125
743.34206	14290.4125
747.24749	14344.7125
751.15017	14467.2125
755.05012	14690.3125
758.94733	15123.3125
762.8418	15833.4125
766.73354	16964.6125
770.62254	18048.2125
774.50882	18251.7125
778.39237	17532.6125
782.27321	16327.4125
786.15132	15232.6125
790.02671	14585.6125
793.89938	14203.5125
797.76935	14077.2125
801.6366	14044.2125
805.50115	13990.9125
809.36299	13948.1125
813.22213	13797.6125
817.07857	13740.5125
820.93231	13660.4125
824.78336	13543.8125
828.63172	13471.9125
832.47738	13426.9125
836.32036	13413.0125
840.16066	13408.1125
843.99827	13386.7125
847.8332	13351.5125
851.66546	13307.7125
855.49504	13328.9125
859.32195	13361.2125
863.1462	13281.3125
866.96777	13221.1125
870.78668	13222.5125
874.60293	13245.8125
878.41652	13281.3125
882.22745	13322.6125
886.03573	13386.3125
889.84136	13393.0125
893.64433	13362.3125
897.44466	13270.9125
901.24235	13201.7125
905.0374	13092.4125
908.8298	13027.2125
912.61957	13052.5125
916.40671	13125.9125
920.19121	13332.5125
923.97308	13503.2125
927.75233	13544.3125
931.52895	13402.7125
935.30295	13199.8125
939.07433	12928.2125
942.84309	12692.6125
946.60924	12580.2125
950.37278	12550.9125
954.13371	12540.6125
957.89203	12548.2125
961.64774	12550.8125
965.40086	12532.8125
969.15137	12487.0125
972.89929	12422.1125
976.64461	12345.2125
980.38733	12322.1125
984.12747	12309.4125
987.86502	12379.2125
991.59999	12469.8125
995.33237	12582.1125
999.06217	12841.6125
1002.78939	13149.3125
1006.51404	13440.9125
1010.23611	13704.5125
1013.95561	13918.5125
1017.67255	13966.6125
1021.38692	13854.3125
1025.09872	13566.7125
1028.80796	13327.4125
1032.51465	13311.7125
1036.21877	13398.4125
1039.92035	13505.0125
1043.61937	13567.7125
1047.31584	13554.9125
1051.00976	13503.0125
1054.70114	13482.5125
1058.38998	13510.0125
1062.07627	13599.1125
1065.76003	13788.5125
1069.44126	13964.8125
1073.11995	14237.8125
1076.79611	14482.5125
1080.46974	14547.3125
1084.14085	14577.9125
1087.80943	14700.0125
1091.47549	14905.6125
1095.13903	15003.0125
1098.80005	14835.7125
1102.45857	14399.9125
1106.11456	14056.5125
1109.76805	13831.1125
1113.41903	13828.0125
1117.06751	13883.8125
1120.71348	14047.5125
1124.35696	14255.8125
1127.99793	14484.9125
1131.63641	14671.2125
1135.2724	14629.6125
1138.90589	14580.6125
1142.5369	14584.4125
1146.16542	14734.4125
1149.79145	14895.5125
1153.415	15041.6125
1157.03607	15242.4125
1160.65467	15660.8125
1164.27079	16398.0125
1167.88443	17418.1125
1171.49561	18453.0125
1175.10432	19731.2125
1178.71056	21382.4125
1182.31434	22882.5125
1185.91565	23521.5125
1189.51451	23365.4125
1193.11091	22668.5125
1196.70485	21795.2125
1200.29634	20905.6125
1203.88538	20281.4125
1207.47197	19896.8125
1211.05612	19652.3125
1214.63782	19209.2125
1218.21708	18714.7125
1221.79391	18182.5125
1225.36829	17878.9125
1228.94024	17653.4125
1232.50976	17436.2125
1236.07685	17115.6125
1239.6415	16897.6125
1243.20374	16822.5125
1246.76355	16950.7125
1250.32093	17200.4125
1253.8759	17575.1125
1257.42845	18120.9125
1260.97859	18685.4125
1264.52631	19326.0125
1268.07163	19887.5125
1271.61453	20460.8125
1275.15503	21088.9125
1278.69312	21775.3125
1282.22882	22544.9125
1285.76211	23461.1125
1289.29301	24628.0125
1292.82151	25904.6125
1296.34761	27293.9125
1299.87133	28860.5125
1303.39266	30447.4125
1306.9116	31837.9125
1310.42815	32932.5125
1313.94233	33590.4125
1317.45412	33407.6125
1320.96354	32738.4125
1324.47058	32067.1125
1327.97525	31573.9125
1331.47754	31232.3125
1334.97747	30971.1125
1338.47502	30533.9125
1341.97022	29987.4125
1345.46305	29429.1125
1348.95352	29021.2125
1352.44163	29074.8125
1355.92738	29826.4125
1359.41078	31125.4125
1362.89183	32296.5125
1366.37053	32232.3125
1369.84688	30094.9125
1373.32088	26863.6125
1376.79254	24413.6125
1380.26186	23412.7125
1383.72883	23307.1125
1387.19347	23236.5125
1390.65578	22984.7125
1394.11575	22890.1125
1397.57339	23143.0125
1401.0287	23491.1125
1404.48168	23808.6125
1407.93234	23766.1125
1411.38068	23221.8125
1414.82669	22394.2125
1418.27039	21397.5125
1421.71177	20411.9125
1425.15083	19644.6125
1428.58758	19193.8125
1432.02203	19374.0125
1435.45416	19866.9125
1438.88399	20477.8125
1442.31151	20935.7125
1445.73673	21288.0125
1449.15965	21584.0125
1452.58027	21716.1125
1455.9986	21679.8125
1459.41463	21807.8125
1462.82837	22068.7125
1466.23982	22523.0125
1469.64898	22997.0125
1473.05586	23257.9125
1476.46045	23342.5125
1479.86276	23226.6125
1483.26279	23038.1125
1486.66054	22984.1125
1490.05602	23110.3125
1493.44922	23391.8125
1496.84016	23684.0125
1500.22882	24046.9125
1503.61521	24574.5125
1506.99934	25252.2125
1510.38121	25729.6125
1513.76081	25730.7125
1517.13816	25258.4125
1520.51324	24465.2125
1523.88607	23863.6125
1527.25665	23627.8125
1530.62498	23539.4125
1533.99105	23394.1125
1537.35488	23073.9125
1540.71647	22476.7125
1544.07581	21704.0125
1547.4329	20964.4125
1550.78776	20356.4125
1554.14038	19923.7125
1557.49077	19707.7125
1560.83892	19635.7125
1564.18484	19693.5125
1567.52853	19797.8125
1570.86999	20082.6125
1574.20922	20481.9125
1577.54624	20865.9125
1580.88103	21060.7125
1584.2136	21275.4125
1587.54395	21857.7125
1590.87208	22961.3125
1594.19801	24385.6125
1597.52172	25781.2125
1600.84321	26151.5125
1604.16251	25022.0125
1607.47959	22811.2125
1610.79447	20514.1125
1614.10715	18518.4125
1617.41763	16972.4125
1620.7259	15969.7125
1624.03199	15450.6125
1627.33587	15427.1125
1630.63757	15913.2125
1633.93707	17055.3125
1637.23439	18921.8125
1640.52951	21804.1125
1643.82246	25416.0125
1647.11321	28485.6125
1650.40179	29249.1125
1653.68819	27186.1125
1656.97241	23354.7125
1660.25446	19526.1125
1663.53433	16656.2125
1666.81203	14802.7125
1670.08756	13632.9125
1673.36092	12891.0125
1676.63211	12462.4125
1679.90115	12102.2125
1683.16801	11871.4125
1686.43272	11687.7125
1689.69527	11544.9125
1692.95567	11451.3125
1696.2139	11383.0125
1699.46999	11369.8125
1702.72392	11297.1125
1705.97571	11211.1125
1709.22535	11152.5125
1712.47284	11110.0125
1715.71819	11068.7125
1718.96139	11050.0125
1722.20246	10954.5125
1725.44139	10916.7125
1728.67818	10839.1125
1731.91284	10793.8125
1735.14537	10731.3125
1738.37576	10689.1125
1741.60403	10624.3125
1744.83017	10589.1125
1748.05418	10557.5125
1751.27607	10580.6125
1754.49584	10576.9125
1757.71349	10589.5125
1760.92903	10589.9125
1764.14244	10528.3125
1767.35375	10521.0125
1770.56294	10480.0125
1773.77002	10413.4125
1776.97499	10381.4125
1780.17785	10346.5125
1783.37861	10305.6125
1786.57727	10283.5125
1789.77382	10232.7125
1792.96828	10217.5125
1796.16064	10166.4125
1799.3509	10168.0125
1802.53907	10121.3125
1805.72514	10091.3125
1808.90913	10079.2125
1812.09102	10066.7125
1815.27083	10012.8125
1818.44856	9991.9125
1821.6242	9983.3125
1824.79776	9971.0125
1827.96924	9951.1125
1831.13864	9960.1125
1834.30597	9941.5125
1837.47122	9950.5125
1840.6344	9923.2125
1843.7955	9934.8125
1846.95454	9906.9125
1850.11151	9927.5125
1853.26642	9885.4125
1856.41926	9893.9125
1859.57004	9909.6125
1862.71876	9889.8125
1865.86542	9882.2125
1869.01003	9847.6125
1872.15258	9859.6125
1875.29308	9834.9125
1878.43152	9807.8125
1881.56792	9782.3125
1884.70227	9775.7125
1887.83457	9744.3125
1890.96482	9739.3125
1894.09304	9719.0125
1897.21921	9739.3125
1900.34335	9725.7125
1903.46544	9698.3125
1906.58551	9697.2125
1909.70353	9669.7125
1912.81953	9639.7125
1915.93349	9618.6125
1919.04543	9602.2125
1922.15534	9560.5125
1925.26322	9558.1125
1928.36908	9524.6125
1931.47292	9495.2125
1934.57473	9471.8125
1937.67453	9468.4125
1940.77232	9425.5125
1943.86808	9390.3125
1946.96184	9391.0125
1950.05358	9318.4125
1953.14331	9312.3125
1956.23103	9273.2125
1959.31675	9271.5125
1962.40046	9245.3125
1965.48217	9192.9125
1968.56188	9171.2125
1971.63959	9132.4125
1974.7153	9104.3125
1977.78901	9078.3125
1980.86073	9035.7125
1983.93046	9016.7125
1986.99819	8990.9125
1990.06394	8957.2125
1993.1277	8925.0125
1996.18947	8889.4125
1999.24925	8883.0125
2002.30706	8858.9125
2005.36288	8823.7125
2008.41672	8794.8125
2011.46859	8757.9125
2014.51848	8743.9125
2017.56639	8707.3125
2020.61233	8713.8125
2023.6563	8681.6125
2026.6983	8642.5125
2029.73833	8649.3125
2032.7764	8615.1125
2035.8125	8587.6125
2038.84664	8575.8125
2041.87881	8578.3125
2044.90903	8529.6125
2047.93729	8531.5125
2050.96359	8536.7125
2053.98794	8525.5125
2057.01034	8515.0125
2060.03078	8491.6125
2063.04927	8492.2125
2066.06582	8468.5125
2069.08042	8471.2125
2072.09307	8455.1125
2075.10378	8449.6125
2078.11255	8458.2125
2081.11938	8449.2125
2084.12426	8417.3125
2087.12722	8406.8125
2090.12824	8428.2125
2093.12732	8423.4125
2096.12447	8426.6125
2099.11969	8405.1125
2102.11299	8427.1125
2105.10435	8407.8125
2108.09379	8408.2125
2111.08131	8408.6125
2114.0669	8422.3125
2117.05057	8424.0125
2120.03233	8435.6125
2123.01216	8425.1125
2125.99008	8415.6125
2128.96609	8443.4125
2131.94018	8430.0125
2134.91236	8438.7125
2137.88263	8431.1125
2140.851	8434.8125
2143.81746	8426.7125
2146.78201	8424.1125
2149.74466	8436.2125
2152.7054	8414.7125
2155.66425	8413.3125
2158.6212	8414.0125
2161.57625	8401.7125
2164.52941	8389.4125
2167.48067	8412.7125
2170.43004	8398.8125
2173.37752	8380.5125
2176.32311	8389.6125
2179.26681	8383.4125
2182.20863	8358.6125
2185.14856	8373.4125
2188.08661	8377.1125
2191.02278	8349.7125
2193.95707	8363.4125
2196.88948	8355.3125
2199.82001	8360.4125
2202.74867	8321.8125
2205.67545	8340.9125
2208.60037	8303.3125
2211.52341	8286.5125
2214.44458	8312.8125
2217.36388	8293.5125
2220.28132	8265.0125
2223.1969	8226.4125
2226.11061	8243.3125
2229.02246	8191.5125
2231.93245	8198.7125
2234.84058	8191.2125
2237.74686	8182.5125
2240.65128	8154.4125
2243.55385	8153.2125
2246.45456	8124.3125
2249.35343	8107.3125
2252.25044	8113.0125
2255.14561	8082.8125
2258.03893	8084.6125
2260.93041	8080.8125
2263.82004	8049.7125
2266.70783	8010.0125
2269.59378	7981.4125
2272.4779	7967.1125
2275.36017	7966.4125
2278.24061	7915.5125
2281.11922	7921.2125
2283.996	7900.5125
2286.87094	7886.6125
2289.74405	7865.3125
2292.61534	7875.0125
2295.4848	7863.7125
2298.35243	7849.0125
2301.21824	7833.2125
2304.08223	7827.7125
2306.94439	7842.7125
2309.80474	7823.1125
2312.66327	7811.8125
2315.51999	7798.8125
2318.37489	7806.5125
2321.22797	7776.6125
2324.07925	7778.5125
2326.92871	7784.0125
2329.77637	7771.7125
2332.62222	7754.2125
2335.46626	7764.4125
2338.3085	7759.9125
2341.14893	7746.8125
2343.98756	7766.1125
2346.8244	7745.1125
2349.65943	7723.3125
2352.49267	7736.9125
2355.32411	7742.8125
2358.15376	7713.4125
2360.98161	7728.5125
2363.80768	7729.0125
2366.63195	7704.3125
2369.45444	7699.2125
2372.27514	7664.8125
2375.09405	7689.4125
2377.91118	7658.4125
2380.72652	7631.0125
2383.54009	7616.3125
2386.35187	7608.1125
2389.16188	7588.4125
2391.97011	7542.8125
2394.77657	7573.2125
2397.58125	7545.8125
2400.38416	7579.4125
2403.18529	7515.1125
2405.98466	7532.2125
2408.78226	7505.2125
2411.57809	7502.4125
2414.37216	7479.9125
2417.16446	7473.9125
2419.955	7468.7125
2422.74378	7465.5125
2425.5308	7448.3125
2428.31606	7414.8125
2431.09956	7461.4125
2433.88131	7427.9125
2436.6613	7424.4125
2439.43954	7419.0125
2442.21603	7415.0125
2444.99077	7417.1125
2447.76377	7415.0125
2450.53501	7396.7125
2453.30451	7410.1125
2456.07226	7413.4125
2458.83827	7415.1125
2461.60254	7401.0125
2464.36507	7392.9125
2467.12586	7387.3125
2469.88492	7394.2125
2472.64224	7399.9125
2475.39782	7396.3125
2478.15167	7409.8125
2480.90379	7387.8125
2483.65417	7409.1125
2486.40283	7387.8125
2489.14976	7398.3125
2491.89497	7375.7125
2494.63845	7399.3125
2497.3802	7398.7125
2500.12024	7397.5125
2502.85855	7381.7125
2505.59514	7361.4125
2508.33002	7365.0125
2511.06318	7354.5125
2513.79462	7337.3125
2516.52435	7313.5125
2519.25237	7335.5125
2521.97867	7317.9125
2524.70327	7315.2125
2527.42616	7298.3125
2530.14734	7293.2125
2532.86681	7277.1125
2535.58458	7285.7125
2538.30065	7269.0125
2541.01501	7284.8125
2543.72768	7272.3125
2546.43864	7248.3125
2549.14791	7244.6125
2551.85548	7221.3125
2554.56136	7241.7125
2557.26554	7224.5125
2559.96803	7241.9125
2562.66883	7205.0125
2565.36794	7223.1125
2568.06536	7220.2125
2570.7611	7201.7125
2573.45514	7204.9125
2576.14751	7190.1125
2578.83819	7183.8125
2581.52719	7178.5125
2584.21451	7181.5125
2586.90015	7149.5125
2589.58411	7158.6125
2592.2664	7131.1125
2594.94701	7148.2125
2597.62594	7137.6125
2600.30321	7114.1125
2602.9788	7120.1125
2605.65273	7109.2125
2608.32498	7111.1125
2610.99557	7091.3125
2613.66449	7122.4125
2616.33175	7086.5125
2618.99734	7092.5125
2621.66128	7079.7125
2624.32355	7062.9125
2626.98416	7082.8125
2629.64311	7051.7125
2632.30041	7060.1125
2634.95605	7062.2125
2637.61004	7063.9125
2640.26238	7039.9125
2642.91306	7032.9125
2645.56209	7046.2125
2648.20948	7037.1125
2650.85521	7024.6125
2653.4993	7025.3125
2656.14175	7027.8125
2658.78255	7034.7125
2661.42171	7039.0125
2664.05923	7053.3125
2666.6951	7062.0125
2669.32934	7048.2125
2671.96194	7052.3125
2674.59291	7070.1125
2677.22224	7049.8125
2679.84993	7050.4125
2682.476	7019.5125
2685.10043	7041.4125
2687.72324	7033.1125
2690.34441	7043.9125
2692.96396	6998.0125
2695.58188	7011.2125
2698.19818	7029.2125
2700.81285	7020.9125
2703.4259	7058.4125
2706.03733	7108.5125
2708.64714	7064.9125
2711.25533	7081.2125
2713.86191	7053.8125
2716.46687	7071.6125
2719.07021	7047.6125
2721.67194	7061.1125
2724.27206	7072.6125
2726.87057	7065.3125
2729.46747	7056.5125
2732.06276	7066.6125
2734.65644	7048.2125
2737.24852	7068.5125
2739.83899	7054.5125
2742.42786	7063.0125
2745.01513	7053.2125
2747.60079	7032.1125
2750.18486	7030.1125
2752.76733	7026.2125
2755.3482	7038.4125
2757.92747	7029.8125
2760.50515	7028.3125
2763.08123	7026.5125
2765.65573	7011.9125
2768.22863	7037.9125
2770.79994	7014.2125
2773.36967	7018.2125
2775.9378	7012.9125
2778.50435	7024.0125
2781.06932	6996.3125
2783.6327	7006.4125
2786.1945	6997.2125
2788.75471	6963.3125
2791.31335	6986.0125
2793.87041	6952.9125
2796.42589	6938.0125
2798.97979	6941.5125
2801.53212	6915.8125
2804.08288	6906.7125
2806.63206	6906.7125
2809.17967	6901.3125
2811.72571	6884.9125
2814.27018	6875.1125
2816.81308	6854.4125
2819.35442	6860.0125
2821.89419	6851.9125
2824.43239	6858.0125
2826.96904	6843.4125
2829.50412	6852.6125
2832.03763	6821.9125
2834.56959	6841.4125
2837.1	6829.6125
2839.62884	6829.8125
2842.15613	6814.2125
2844.68186	6837.5125
2847.20604	6827.4125
2849.72867	6862.3125
2852.24974	6847.0125
2854.76927	6846.2125
2857.28724	6853.5125
2859.80367	6847.1125
2862.31855	6805.1125
2864.83189	6802.9125
2867.34368	6787.9125
2869.85393	6795.6125
2872.36264	6781.9125
2874.8698	6770.0125
2877.37543	6771.8125
2879.87952	6775.9125
2882.38207	6753.1125
2884.88308	6773.1125
2887.38256	6780.5125
2889.88051	6775.8125
2892.37692	6790.2125
2894.8718	6772.1125
2897.36515	6783.5125
2899.85698	6783.5125
2902.34727	6784.9125
2904.83604	6793.0125
2907.32328	6812.9125
2909.809	6819.0125
2912.29319	6815.2125
2914.77587	6828.2125
2917.25702	6810.9125
2919.73665	6827.5125
2922.21476	6815.7125
2924.69136	6812.3125
2927.16644	6811.5125
2929.64	6805.6125
2932.11205	6820.7125
2934.58258	6796.6125
2937.05161	6816.9125
2939.51912	6807.0125
2941.98513	6772.7125
2944.44962	6784.5125
2946.91261	6759.5125
2949.37409	6769.6125
2951.83407	6740.7125
2954.29254	6724.6125
2956.74951	6721.1125
2959.20498	6710.5125
2961.65895	6695.3125
2964.11142	6670.6125
2966.56239	6654.2125
2969.01186	6647.5125
2971.45984	6631.3125
2973.90632	6600.0125
2976.35131	6587.2125
2978.7948	6562.9125
2981.23681	6572.2125
2983.67732	6542.9125
2986.11635	6517.8125
2988.55388	6490.5125
2990.98993	6490.8125
2993.4245	6466.3125
2995.85758	6460.3125
2998.28917	6428.2125
3000.71928	6420.9125
3003.14791	6414.1125
3005.57506	6418.6125
3008.00073	6409.3125
3010.42493	6406.8125
3012.84764	6379.5125
3015.26888	6381.0125
3017.68865	6337.4125
3020.10694	6345.9125
3022.52376	6329.3125
3024.9391	6333.9125
3027.35298	6310.0125
3029.76539	6309.9125
3032.17632	6302.3125
3034.5858	6262.2125
3036.9938	6268.1125
3039.40034	6263.5125
3041.80542	6245.3125
3044.20903	6232.7125
3046.61118	6229.7125
3049.01187	6219.1125
3051.4111	6215.0125
3053.80888	6195.3125
3056.20519	6197.5125
3058.60005	6171.8125
3060.99345	6177.6125
3063.3854	6167.4125
3065.7759	6146.8125
3068.16494	6118.0125
3070.55254	6100.5125
3072.93868	6093.6125
3075.32338	6073.1125
