Data from AgNPs_FTO_APTES_UA_5um_CRN_0.1mM_R6G_10uM_NaF_0.1M_Addition_RamanShift__0__12-56-59-077.txt Node

Date: Tue Dec 21 12:56:59 GMT 2021
User: TCL
Spectrometer: QEP01345
Trigger mode: 4
Integration Time (sec): 7.000000E0
Scans to average: 10
Electric dark correction enabled: true
Nonlinearity correction enabled: false
Boxcar width: 0
XAxis mode: Raman Shifts
Number of Pixels in Spectrum: 1044
>>>>>Begin Spectral Data<<<<<
46.04893	-0.425
50.45542	-0.825
54.85868	-0.825
59.25871	-0.225
63.6555	43.475
68.04907	50.975
72.43941	52.975
76.82654	53.475
81.21044	60.775
85.59113	59.075
89.96862	62.775
94.34289	62.875
98.71396	63.675
103.08183	69.575
107.4465	72.675
111.80798	74.275
116.16626	75.275
120.52136	76.675
124.87327	78.275
129.222	79.475
133.56755	87.175
137.90993	96.975
142.24913	104.275
146.58517	115.975
150.91804	130.875
155.24774	153.175
159.57429	193.175
163.89768	246.975
168.21792	326.675
172.53501	443.875
176.84895	614.775
181.15975	868.275
185.46741	1202.975
189.77193	1657.275
194.07331	2231.575
198.37157	2881.875
202.6667	3582.575
206.9587	4261.475
211.24758	4960.175
215.53334	5660.275
219.81599	6394.375
224.09553	7203.575
228.37195	8100.875
232.64527	9094.075
236.91549	10090.975
241.18261	11111.475
245.44663	12022.775
249.70755	12834.875
253.96539	13486.075
258.22014	14044.275
262.4718	14458.475
266.72039	14740.775
270.96589	14812.775
275.20832	14758.275
279.44768	14632.475
283.68397	14434.775
287.91719	14259.475
292.14735	14119.075
296.37445	14081.175
300.59849	14170.475
304.81948	14292.975
309.03742	14411.575
313.25231	14370.875
317.46415	14134.675
321.67296	13801.975
325.87872	13492.875
330.08145	13303.075
334.28114	13254.475
338.47781	13318.775
342.67145	13459.575
346.86207	13677.075
351.04966	13960.175
355.23424	14225.775
359.4158	14447.675
363.59435	14651.775
367.76989	14710.175
371.94243	14761.675
376.11196	14762.275
380.27849	14834.875
384.44203	14916.675
388.60257	15049.675
392.76012	15252.375
396.91468	15490.975
401.06626	15785.375
405.21485	16027.775
409.36047	16014.275
413.50311	15777.275
417.64277	15550.275
421.77947	15435.175
425.9132	15376.075
430.04396	15390.975
434.17176	15471.775
438.2966	15505.475
442.41849	15777.875
446.53742	16212.075
450.6534	16717.575
454.76644	17019.675
458.87653	17030.975
462.98368	16862.875
467.08789	16644.875
471.18916	16406.675
475.2875	16179.275
479.38291	16029.775
483.4754	15973.075
487.56496	15833.875
491.6516	15640.275
495.73531	15455.175
499.81612	15348.375
503.89401	15366.275
507.96899	15373.175
512.04106	15273.375
516.11023	15167.075
520.1765	15057.775
524.23987	14995.375
528.30034	14996.375
532.35792	14913.875
536.41261	14730.875
540.46441	14520.175
544.51333	14381.575
548.55936	14453.475
552.60252	14740.575
556.64279	15065.075
560.6802	15355.675
564.71473	15526.775
568.7464	15774.475
572.7752	16172.475
576.80114	16607.375
580.82422	17067.975
584.84444	17809.375
588.86181	18811.275
592.87633	19724.475
596.888	19761.775
600.89682	18798.375
604.9028	18324.475
608.90594	19622.375
612.90624	21399.475
616.90371	20205.575
620.89834	16626.675
624.89015	14884.875
628.87913	14635.875
632.86528	14838.775
636.84862	14926.375
640.82913	14697.475
644.80683	14296.275
648.78172	13986.975
652.75379	13957.675
656.72306	14103.775
660.68952	14344.475
664.65319	14264.275
668.61405	14024.175
672.57211	13977.275
676.52738	14066.675
680.47986	14125.775
684.42955	14018.275
688.37646	13871.175
692.32058	13873.475
696.26192	14026.775
700.20048	14204.075
704.13626	14367.575
708.06928	14378.175
711.99952	14312.375
715.927	14291.975
719.85171	14367.775
723.77365	14313.675
727.69284	14147.175
731.60928	13966.275
735.52295	13926.175
739.43388	13954.775
743.34206	13976.675
747.24749	14047.475
751.15017	14188.375
755.05012	14333.775
758.94733	14703.475
762.8418	15449.175
766.73354	16718.375
770.62254	18028.275
774.50882	18485.175
778.39237	17831.475
782.27321	16507.575
786.15132	15275.075
790.02671	14402.075
793.89938	13990.175
797.76935	13763.675
801.6366	13714.375
805.50115	13690.475
809.36299	13612.575
813.22213	13493.275
817.07857	13404.375
820.93231	13318.375
824.78336	13240.675
828.63172	13200.375
832.47738	13177.175
836.32036	13232.375
840.16066	13213.875
843.99827	13196.175
847.8332	13132.775
851.66546	13104.875
855.49504	13122.375
859.32195	13117.975
863.1462	13084.875
866.96777	13054.075
870.78668	13043.675
874.60293	13050.475
878.41652	13061.275
882.22745	13120.175
886.03573	13198.775
889.84136	13196.975
893.64433	13163.375
897.44466	13077.675
901.24235	12990.275
905.0374	12897.375
908.8298	12817.575
912.61957	12811.775
916.40671	12897.375
920.19121	13065.875
923.97308	13211.275
927.75233	13368.175
931.52895	13335.175
935.30295	13139.775
939.07433	12823.475
942.84309	12587.775
946.60924	12460.675
950.37278	12399.075
954.13371	12376.975
957.89203	12369.875
961.64774	12350.275
965.40086	12354.875
969.15137	12334.275
972.89929	12281.675
976.64461	12231.975
980.38733	12216.575
984.12747	12208.175
987.86502	12284.775
991.59999	12393.975
995.33237	12525.075
999.06217	12811.275
1002.78939	13143.775
1006.51404	13470.175
1010.23611	13731.475
1013.95561	13898.875
1017.67255	13968.375
1021.38692	13793.575
1025.09872	13519.375
1028.80796	13351.175
1032.51465	13375.475
1036.21877	13543.075
1039.92035	13678.775
1043.61937	13711.375
1047.31584	13653.975
1051.00976	13569.775
1054.70114	13497.475
1058.38998	13461.075
1062.07627	13486.075
1065.76003	13614.275
1069.44126	13836.875
1073.11995	14188.975
1076.79611	14440.275
1080.46974	14540.775
1084.14085	14555.475
1087.80943	14722.575
1091.47549	14886.675
1095.13903	14954.675
1098.80005	14727.975
1102.45857	14296.975
1106.11456	13918.875
1109.76805	13722.575
1113.41903	13715.375
1117.06751	13803.275
1120.71348	13989.375
1124.35696	14249.975
1127.99793	14498.475
1131.63641	14683.175
1135.2724	14640.075
1138.90589	14511.375
1142.5369	14448.275
1146.16542	14507.975
1149.79145	14562.375
1153.415	14624.375
1157.03607	14774.375
1160.65467	15122.475
1164.27079	15803.075
1167.88443	16756.275
1171.49561	17812.475
1175.10432	19226.775
1178.71056	20979.775
1182.31434	22564.775
1185.91565	23247.475
1189.51451	22939.375
1193.11091	22072.075
1196.70485	21036.875
1200.29634	20039.975
1203.88538	19233.175
1207.47197	18706.275
1211.05612	18335.375
1214.63782	17973.275
1218.21708	17572.575
1221.79391	17251.875
1225.36829	17141.475
1228.94024	17075.875
1232.50976	16860.475
1236.07685	16540.175
1239.6415	16309.175
1243.20374	16229.675
1246.76355	16310.375
1250.32093	16515.975
1253.8759	16888.075
1257.42845	17433.675
1260.97859	18034.875
1264.52631	18673.175
1268.07163	19253.175
1271.61453	19866.475
1275.15503	20416.375
1278.69312	21102.675
1282.22882	21816.375
1285.76211	22784.775
1289.29301	23863.175
1292.82151	24945.975
1296.34761	26207.075
1299.87133	27607.075
1303.39266	29100.375
1306.9116	30563.875
1310.42815	31979.175
1313.94233	32783.675
1317.45412	32486.075
1320.96354	31439.175
1324.47058	30292.575
1327.97525	29417.575
1331.47754	28767.175
1334.97747	28231.275
1338.47502	27700.175
1341.97022	27100.575
1345.46305	26619.675
1348.95352	26561.375
1352.44163	27204.875
1355.92738	28594.175
1359.41078	30541.775
1362.89183	32358.975
1366.37053	32367.775
1369.84688	30006.575
1373.32088	26442.475
1376.79254	23697.575
1380.26186	22457.075
1383.72883	22036.375
1387.19347	21687.375
1390.65578	21221.675
1394.11575	20979.975
1397.57339	21145.575
1401.0287	21425.475
1404.48168	21641.175
1407.93234	21563.575
1411.38068	21169.975
1414.82669	20531.075
1418.27039	19778.775
1421.71177	19112.875
1425.15083	18521.075
1428.58758	18256.375
1432.02203	18392.175
1435.45416	18830.875
1438.88399	19276.775
1442.31151	19567.375
1445.73673	19797.975
1449.15965	19965.575
1452.58027	20030.475
1455.9986	20000.475
1459.41463	19977.275
1462.82837	20299.475
1466.23982	20779.375
1469.64898	21239.175
1473.05586	21551.475
1476.46045	21665.175
1479.86276	21699.175
1483.26279	21672.175
1486.66054	21775.775
1490.05602	22107.875
1493.44922	22597.675
1496.84016	23097.675
1500.22882	23765.575
1503.61521	24682.975
1506.99934	25626.975
1510.38121	26440.675
1513.76081	26486.775
1517.13816	25696.075
1520.51324	24408.975
1523.88607	23266.675
1527.25665	22605.775
1530.62498	22300.975
1533.99105	22029.575
1537.35488	21597.975
1540.71647	21006.175
1544.07581	20361.675
1547.4329	19723.475
1550.78776	19213.375
1554.14038	18833.475
1557.49077	18653.775
1560.83892	18706.775
1564.18484	18829.575
1567.52853	19046.575
1570.86999	19315.075
1574.20922	19680.975
1577.54624	19884.375
1580.88103	19827.875
1584.2136	19811.175
1587.54395	20135.375
1590.87208	21107.175
1594.19801	22430.875
1597.52172	23818.275
1600.84321	24310.475
1604.16251	23284.975
1607.47959	21318.975
1610.79447	19180.775
1614.10715	17316.575
1617.41763	15998.675
1620.7259	15141.975
1624.03199	14805.275
1627.33587	14807.275
1630.63757	15209.775
1633.93707	16169.075
1637.23439	17823.775
1640.52951	20426.075
1643.82246	23796.475
1647.11321	26805.575
1650.40179	27879.475
1653.68819	26138.375
1656.97241	22542.175
1660.25446	18856.775
1663.53433	16121.575
1666.81203	14388.875
1670.08756	13345.075
1673.36092	12693.975
1676.63211	12270.675
1679.90115	11991.675
1683.16801	11767.475
1686.43272	11623.375
1689.69527	11513.375
1692.95567	11410.375
1696.2139	11365.175
1699.46999	11333.275
1702.72392	11288.875
1705.97571	11252.175
1709.22535	11192.175
1712.47284	11184.175
1715.71819	11129.075
1718.96139	11100.875
1722.20246	11057.375
1725.44139	10988.575
1728.67818	10950.975
1731.91284	10916.575
1735.14537	10829.475
1738.37576	10794.275
1741.60403	10739.175
1744.83017	10721.875
1748.05418	10720.575
1751.27607	10710.875
1754.49584	10696.375
1757.71349	10731.975
1760.92903	10674.875
1764.14244	10662.775
1767.35375	10627.775
1770.56294	10585.475
1773.77002	10556.475
1776.97499	10530.775
1780.17785	10478.475
1783.37861	10456.975
1786.57727	10412.675
1789.77382	10372.875
1792.96828	10364.075
1796.16064	10351.575
1799.3509	10327.275
1802.53907	10281.775
1805.72514	10271.475
1808.90913	10238.975
1812.09102	10202.375
1815.27083	10185.175
1818.44856	10164.475
1821.6242	10152.875
1824.79776	10160.375
1827.96924	10155.275
1831.13864	10122.275
1834.30597	10141.975
1837.47122	10107.175
1840.6344	10091.975
1843.7955	10099.875
1846.95454	10097.175
1850.11151	10107.075
1853.26642	10099.675
1856.41926	10092.775
1859.57004	10080.175
1862.71876	10076.075
1865.86542	10079.075
1869.01003	10047.275
1872.15258	10048.875
1875.29308	10032.075
1878.43152	10002.375
1881.56792	10002.775
1884.70227	9978.875
1887.83457	9980.075
1890.96482	9962.775
1894.09304	9944.375
1897.21921	9938.475
1900.34335	9920.675
1903.46544	9918.675
1906.58551	9878.775
1909.70353	9862.875
1912.81953	9841.575
1915.93349	9812.775
1919.04543	9819.175
1922.15534	9786.775
1925.26322	9767.975
1928.36908	9756.275
1931.47292	9717.375
1934.57473	9690.075
1937.67453	9668.575
1940.77232	9648.675
1943.86808	9626.675
1946.96184	9572.775
1950.05358	9564.375
1953.14331	9531.375
1956.23103	9521.675
1959.31675	9473.375
1962.40046	9439.175
1965.48217	9413.875
1968.56188	9393.075
1971.63959	9371.775
1974.7153	9346.975
1977.78901	9301.275
1980.86073	9291.675
1983.93046	9258.275
1986.99819	9203.075
1990.06394	9198.975
1993.1277	9165.175
1996.18947	9120.975
1999.24925	9113.975
2002.30706	9087.575
2005.36288	9077.275
2008.41672	9039.975
2011.46859	9015.575
2014.51848	8975.775
2017.56639	8975.175
2020.61233	8938.675
2023.6563	8918.975
2026.6983	8896.475
2029.73833	8890.675
2032.7764	8873.175
2035.8125	8857.775
2038.84664	8841.475
2041.87881	8817.875
2044.90903	8808.575
2047.93729	8780.375
2050.96359	8789.975
2053.98794	8765.175
2057.01034	8768.375
2060.03078	8745.875
2063.04927	8744.775
2066.06582	8724.275
2069.08042	8701.075
2072.09307	8705.175
2075.10378	8681.575
2078.11255	8710.175
2081.11938	8702.475
2084.12426	8699.475
2087.12722	8676.275
2090.12824	8689.375
2093.12732	8700.375
2096.12447	8685.575
2099.11969	8679.175
2102.11299	8668.675
2105.10435	8695.975
2108.09379	8692.775
2111.08131	8699.975
2114.0669	8696.175
2117.05057	8705.575
2120.03233	8717.075
2123.01216	8683.375
2125.99008	8698.675
2128.96609	8728.775
2131.94018	8729.475
2134.91236	8741.775
2137.88263	8735.275
2140.851	8710.375
2143.81746	8726.775
2146.78201	8731.875
2149.74466	8739.775
2152.7054	8721.475
2155.66425	8714.375
2158.6212	8693.175
2161.57625	8683.975
2164.52941	8702.375
2167.48067	8684.175
2170.43004	8711.375
2173.37752	8692.975
2176.32311	8688.075
2179.26681	8689.775
2182.20863	8682.875
2185.14856	8692.275
2188.08661	8662.575
2191.02278	8674.675
2193.95707	8669.875
2196.88948	8667.175
2199.82001	8682.775
2202.74867	8665.875
2205.67545	8640.575
2208.60037	8648.175
2211.52341	8634.675
2214.44458	8615.875
2217.36388	8587.575
2220.28132	8565.275
2223.1969	8535.075
2226.11061	8567.075
2229.02246	8549.175
2231.93245	8539.575
2234.84058	8519.675
2237.74686	8526.775
2240.65128	8508.675
2243.55385	8482.075
2246.45456	8481.575
2249.35343	8452.075
2252.25044	8442.675
2255.14561	8419.175
2258.03893	8433.175
2260.93041	8420.975
2263.82004	8401.575
2266.70783	8380.775
2269.59378	8342.175
2272.4779	8311.775
2275.36017	8293.575
2278.24061	8307.075
2281.11922	8275.275
2283.996	8250.375
2286.87094	8241.175
2289.74405	8231.375
2292.61534	8222.475
2295.4848	8219.575
2298.35243	8183.175
2301.21824	8192.875
2304.08223	8200.175
2306.94439	8210.975
2309.80474	8209.775
2312.66327	8183.975
2315.51999	8167.475
2318.37489	8158.775
2321.22797	8168.075
2324.07925	8147.675
2326.92871	8146.175
2329.77637	8128.475
2332.62222	8113.675
2335.46626	8120.575
2338.3085	8117.275
2341.14893	8111.575
2343.98756	8125.875
2346.8244	8110.375
2349.65943	8111.975
2352.49267	8107.875
2355.32411	8108.975
2358.15376	8098.475
2360.98161	8102.075
2363.80768	8095.975
2366.63195	8087.675
2369.45444	8080.175
2372.27514	8063.975
2375.09405	8054.975
2377.91118	8038.975
2380.72652	8033.375
2383.54009	8031.175
2386.35187	7996.675
2389.16188	7982.275
2391.97011	7955.775
2394.77657	7932.275
2397.58125	7942.775
2400.38416	7918.775
2403.18529	7892.875
2405.98466	7902.675
2408.78226	7887.875
2411.57809	7862.175
2414.37216	7866.575
2417.16446	7854.275
2419.955	7849.075
2422.74378	7857.975
2425.5308	7814.975
2428.31606	7836.775
2431.09956	7853.375
2433.88131	7833.675
2436.6613	7805.275
2439.43954	7805.275
2442.21603	7771.075
2444.99077	7771.175
2447.76377	7793.375
2450.53501	7791.275
2453.30451	7792.275
2456.07226	7786.475
2458.83827	7802.375
2461.60254	7794.175
2464.36507	7777.575
2467.12586	7790.575
2469.88492	7779.275
2472.64224	7780.875
2475.39782	7781.175
2478.15167	7793.975
2480.90379	7783.475
2483.65417	7778.475
2486.40283	7795.475
2489.14976	7777.375
2491.89497	7770.575
2494.63845	7768.975
2497.3802	7790.975
2500.12024	7768.075
2502.85855	7750.175
2505.59514	7763.875
2508.33002	7750.675
2511.06318	7747.375
2513.79462	7707.775
2516.52435	7705.375
2519.25237	7715.175
2521.97867	7683.675
2524.70327	7690.575
2527.42616	7694.075
2530.14734	7685.975
2532.86681	7661.175
2535.58458	7655.675
2538.30065	7660.775
2541.01501	7640.675
2543.72768	7627.575
2546.43864	7614.275
2549.14791	7614.775
2551.85548	7615.575
2554.56136	7620.475
2557.26554	7604.675
2559.96803	7589.675
2562.66883	7604.575
2565.36794	7578.175
2568.06536	7574.375
2570.7611	7584.075
2573.45514	7584.375
2576.14751	7571.875
2578.83819	7569.575
2581.52719	7576.675
2584.21451	7547.475
2586.90015	7509.675
2589.58411	7520.475
2592.2664	7503.575
2594.94701	7504.575
2597.62594	7490.675
2600.30321	7497.475
2602.9788	7482.975
2605.65273	7446.075
2608.32498	7455.475
2610.99557	7466.175
2613.66449	7473.275
2616.33175	7471.875
2618.99734	7449.075
2621.66128	7436.575
2624.32355	7435.175
2626.98416	7431.875
2629.64311	7407.475
2632.30041	7421.975
2634.95605	7407.775
2637.61004	7396.975
2640.26238	7400.475
2642.91306	7394.075
2645.56209	7374.775
2648.20948	7371.675
2650.85521	7375.675
2653.4993	7377.375
2656.14175	7372.975
2658.78255	7382.375
2661.42171	7375.275
2664.05923	7380.775
2666.6951	7399.975
2669.32934	7421.275
2671.96194	7408.275
2674.59291	7394.075
2677.22224	7396.875
2679.84993	7392.575
2682.476	7369.575
2685.10043	7391.375
2687.72324	7361.775
2690.34441	7373.875
2692.96396	7354.775
2695.58188	7373.775
2698.19818	7371.075
2700.81285	7364.375
2703.4259	7399.975
2706.03733	7453.675
2708.64714	7413.075
2711.25533	7403.275
2713.86191	7407.275
2716.46687	7397.575
2719.07021	7413.675
2721.67194	7398.475
2724.27206	7421.975
2726.87057	7419.175
2729.46747	7407.675
2732.06276	7416.175
2734.65644	7401.275
2737.24852	7406.075
2739.83899	7386.275
2742.42786	7415.275
2745.01513	7365.775
2747.60079	7370.775
2750.18486	7345.075
2752.76733	7380.075
2755.3482	7347.175
2757.92747	7370.575
2760.50515	7350.975
2763.08123	7358.575
2765.65573	7349.475
2768.22863	7356.675
2770.79994	7327.175
2773.36967	7342.475
2775.9378	7327.675
2778.50435	7335.675
2781.06932	7322.575
2783.6327	7291.575
2786.1945	7307.575
2788.75471	7323.175
2791.31335	7279.975
2793.87041	7273.875
2796.42589	7268.175
2798.97979	7237.075
2801.53212	7228.875
2804.08288	7234.475
2806.63206	7226.875
2809.17967	7219.675
2811.72571	7191.375
2814.27018	7199.575
2816.81308	7184.275
2819.35442	7167.875
2821.89419	7184.575
2824.43239	7180.675
2826.96904	7175.975
2829.50412	7172.275
2832.03763	7171.275
2834.56959	7169.675
2837.1	7153.675
2839.62884	7169.975
2842.15613	7160.475
2844.68186	7166.275
2847.20604	7214.675
2849.72867	7197.375
2852.24974	7181.675
2854.76927	7180.375
2857.28724	7208.075
2859.80367	7186.075
2862.31855	7167.175
2864.83189	7158.875
2867.34368	7161.275
2869.85393	7153.875
2872.36264	7139.175
2874.8698	7133.475
2877.37543	7139.775
2879.87952	7138.575
2882.38207	7135.675
2884.88308	7139.675
2887.38256	7151.275
2889.88051	7137.375
2892.37692	7142.075
2894.8718	7142.775
2897.36515	7164.775
2899.85698	7144.775
2902.34727	7151.675
2904.83604	7192.675
2907.32328	7183.675
2909.809	7190.175
2912.29319	7192.675
2914.77587	7219.675
2917.25702	7192.275
2919.73665	7193.375
2922.21476	7186.975
2924.69136	7183.875
2927.16644	7208.575
2929.64	7177.675
2932.11205	7167.075
2934.58258	7157.375
2937.05161	7178.375
2939.51912	7177.075
2941.98513	7154.775
2944.44962	7148.475
2946.91261	7120.975
2949.37409	7129.375
2951.83407	7114.775
2954.29254	7088.975
2956.74951	7078.675
2959.20498	7067.675
2961.65895	7038.575
2964.11142	7027.275
2966.56239	7002.475
2969.01186	7009.475
2971.45984	6975.275
2973.90632	6963.275
2976.35131	6938.075
2978.7948	6937.475
2981.23681	6919.775
2983.67732	6888.975
2986.11635	6874.075
2988.55388	6862.975
2990.98993	6841.975
2993.4245	6840.475
2995.85758	6834.675
2998.28917	6784.375
3000.71928	6804.975
3003.14791	6774.975
3005.57506	6780.175
3008.00073	6773.575
3010.42493	6748.775
3012.84764	6749.475
3015.26888	6746.575
3017.68865	6738.775
3020.10694	6713.975
3022.52376	6691.175
3024.9391	6693.675
3027.35298	6694.975
3029.76539	6656.475
3032.17632	6656.875
3034.5858	6637.275
3036.9938	6630.975
3039.40034	6632.675
3041.80542	6611.875
3044.20903	6597.275
3046.61118	6595.175
3049.01187	6580.675
3051.4111	6571.275
3053.80888	6560.675
3056.20519	6552.275
3058.60005	6552.975
3060.99345	6533.475
3063.3854	6521.575
3065.7759	6511.375
3068.16494	6496.775
3070.55254	6458.775
3072.93868	6462.275
3075.32338	6455.875
3077.70662	6427.075
3080.08842	6424.775
3082.46878	6414.175
3084.84769	6398.575
3087.22515	6400.675
3089.60118	6398.475
3091.97576	6412.275
3094.3489	6394.275
3096.72061	6392.775
3099.09087	6389.675
3101.4597	6370.275
3103.82709	6375.575
3106.19305	6368.675
3108.55757	6350.275
3110.92066	6353.475
3113.28232	6308.175
3115.64255	6303.275
3118.00134	6305.675
3120.35871	6288.975
3122.71466	6280.975
3125.06917	6271.975
3127.42226	6258.375
3129.77393	6274.875
3132.12417	6251.575
3134.47299	6270.475
3136.82039	6266.375
3139.16636	6261.475
3141.51092	6253.275
3143.85406	6257.475
3146.19579	6267.575
3148.53609	6269.775
3150.87499	6274.375
3153.21246	6275.875
3155.54853	6272.575
3157.88318	6255.675
3160.21642	6270.975
3162.54826	6273.375
3164.87868	6259.275
3167.2077	6264.075
3169.5353	6258.875
3171.86151	6260.875
3174.18631	6236.975
3176.5097	6241.575
3178.83169	6225.075
3181.15228	6247.075
3183.47147	6213.475
