Data from AgNPs_FTO_APTES_UA_0um_CRN_0.1mM_R6G_10uM_NaF_0.1M_Addition_RamanShift__20__10-34-38-915.txt Node

Date: Tue Dec 21 10:34:38 GMT 2021
User: TCL
Spectrometer: QEP01345
Trigger mode: 4
Integration Time (sec): 7.000000E0
Scans to average: 10
Electric dark correction enabled: true
Nonlinearity correction enabled: false
Boxcar width: 0
XAxis mode: Raman Shifts
Number of Pixels in Spectrum: 1044
>>>>>Begin Spectral Data<<<<<
46.04893	-0.1875
50.45542	-0.4875
54.85868	-1.0875
59.25871	1.8125
63.6555	16.4125
68.04907	21.3125
72.43941	20.8125
76.82654	22.4125
81.21044	29.1125
85.59113	28.1125
89.96862	29.2125
94.34289	30.5125
98.71396	27.4125
103.08183	33.1125
107.4465	31.2125
111.80798	30.7125
116.16626	32.8125
120.52136	33.5125
124.87327	31.7125
129.222	33.6125
133.56755	32.5125
137.90993	38.5125
142.24913	37.3125
146.58517	39.0125
150.91804	44.5125
155.24774	49.8125
159.57429	58.3125
163.89768	72.4125
168.21792	91.6125
172.53501	115.4125
176.84895	155.5125
181.15975	215.1125
185.46741	287.3125
189.77193	401.0125
194.07331	545.6125
198.37157	719.5125
202.6667	918.5125
206.9587	1136.0125
211.24758	1342.8125
215.53334	1568.9125
219.81599	1777.8125
224.09553	1995.6125
228.37195	2211.1125
232.64527	2417.1125
236.91549	2598.9125
241.18261	2766.4125
245.44663	2892.9125
249.70755	2981.9125
253.96539	3058.6125
258.22014	3110.6125
262.4718	3110.0125
266.72039	3072.3125
270.96589	3013.2125
275.20832	2935.5125
279.44768	2840.2125
283.68397	2742.6125
287.91719	2641.1125
292.14735	2578.0125
296.37445	2540.0125
300.59849	2522.4125
304.81948	2539.3125
309.03742	2553.9125
313.25231	2526.7125
317.46415	2487.8125
321.67296	2421.1125
325.87872	2352.5125
330.08145	2321.0125
334.28114	2322.7125
338.47781	2338.9125
342.67145	2374.4125
346.86207	2422.5125
351.04966	2466.0125
355.23424	2533.5125
359.4158	2590.4125
363.59435	2625.8125
367.76989	2648.7125
371.94243	2661.7125
376.11196	2661.6125
380.27849	2662.7125
384.44203	2658.1125
388.60257	2660.8125
392.76012	2642.7125
396.91468	2656.8125
401.06626	2676.7125
405.21485	2705.7125
409.36047	2697.3125
413.50311	2656.7125
417.64277	2617.8125
421.77947	2583.6125
425.9132	2592.3125
430.04396	2609.9125
434.17176	2652.1125
438.2966	2709.5125
442.41849	2756.1125
446.53742	2838.3125
450.6534	2902.1125
454.76644	2960.3125
458.87653	2955.6125
462.98368	2944.7125
467.08789	2887.0125
471.18916	2838.1125
475.2875	2784.1125
479.38291	2749.4125
483.4754	2720.1125
487.56496	2695.8125
491.6516	2698.9125
495.73531	2688.4125
499.81612	2687.2125
503.89401	2687.6125
507.96899	2706.1125
512.04106	2697.2125
516.11023	2706.5125
520.1765	2703.6125
524.23987	2709.1125
528.30034	2697.9125
532.35792	2686.3125
536.41261	2674.4125
540.46441	2648.6125
544.51333	2647.3125
548.55936	2648.1125
552.60252	2655.6125
556.64279	2667.5125
560.6802	2694.3125
564.71473	2719.2125
568.7464	2775.2125
572.7752	2822.5125
576.80114	2833.1125
580.82422	2796.7125
584.84444	2754.0125
588.86181	2732.8125
592.87633	2785.6125
596.888	2848.8125
600.89682	2898.0125
604.9028	2984.9125
608.90594	3266.7125
612.90624	3680.7125
616.90371	3689.9125
620.89834	3187.7125
624.89015	2870.5125
628.87913	2823.8125
632.86528	2845.8125
636.84862	2911.1125
640.82913	2980.4125
644.80683	3029.5125
648.78172	3049.7125
652.75379	3065.0125
656.72306	3019.3125
660.68952	2955.3125
664.65319	2938.3125
668.61405	2932.2125
672.57211	3002.4125
676.52738	3181.3125
680.47986	3342.9125
684.42955	3380.5125
688.37646	3285.4125
692.32058	3174.8125
696.26192	3114.1125
700.20048	3102.7125
704.13626	3096.0125
708.06928	3025.2125
711.99952	2934.7125
715.927	2865.7125
719.85171	2840.0125
723.77365	2841.4125
727.69284	2844.9125
731.60928	2855.9125
735.52295	2847.8125
739.43388	2835.7125
743.34206	2828.2125
747.24749	2834.3125
751.15017	2849.2125
755.05012	2882.7125
758.94733	2909.5125
762.8418	2954.5125
766.73354	3045.9125
770.62254	3173.4125
774.50882	3238.4125
778.39237	3169.6125
782.27321	2984.3125
786.15132	2812.4125
790.02671	2707.2125
793.89938	2658.9125
797.76935	2645.1125
801.6366	2638.2125
805.50115	2652.1125
809.36299	2652.3125
813.22213	2626.1125
817.07857	2606.8125
820.93231	2582.9125
824.78336	2574.9125
828.63172	2570.1125
832.47738	2563.4125
836.32036	2566.0125
840.16066	2559.5125
843.99827	2562.0125
847.8332	2569.2125
851.66546	2595.6125
855.49504	2634.9125
859.32195	2713.3125
863.1462	2773.2125
866.96777	2793.4125
870.78668	2746.4125
874.60293	2675.8125
878.41652	2642.1125
882.22745	2607.8125
886.03573	2573.2125
889.84136	2557.6125
893.64433	2547.6125
897.44466	2542.1125
901.24235	2539.5125
905.0374	2540.6125
908.8298	2540.4125
912.61957	2542.0125
916.40671	2595.0125
920.19121	2694.2125
923.97308	2795.0125
927.75233	2919.9125
931.52895	3005.2125
935.30295	3018.2125
939.07433	2942.0125
942.84309	2821.7125
946.60924	2715.8125
950.37278	2617.1125
954.13371	2552.6125
957.89203	2523.2125
961.64774	2505.3125
965.40086	2483.2125
969.15137	2458.3125
972.89929	2442.8125
976.64461	2406.7125
980.38733	2393.8125
984.12747	2393.8125
987.86502	2382.3125
991.59999	2353.3125
995.33237	2360.3125
999.06217	2386.1125
1002.78939	2400.7125
1006.51404	2412.8125
1010.23611	2408.6125
1013.95561	2457.0125
1017.67255	2449.4125
1021.38692	2448.4125
1025.09872	2438.3125
1028.80796	2419.5125
1032.51465	2434.5125
1036.21877	2438.1125
1039.92035	2462.5125
1043.61937	2479.8125
1047.31584	2517.3125
1051.00976	2531.4125
1054.70114	2525.8125
1058.38998	2505.0125
1062.07627	2468.0125
1065.76003	2440.7125
1069.44126	2389.0125
1073.11995	2365.1125
1076.79611	2354.0125
1080.46974	2362.6125
1084.14085	2363.3125
1087.80943	2382.8125
1091.47549	2391.1125
1095.13903	2371.7125
1098.80005	2341.9125
1102.45857	2317.8125
1106.11456	2311.4125
1109.76805	2313.2125
1113.41903	2357.5125
1117.06751	2387.9125
1120.71348	2421.1125
1124.35696	2474.9125
1127.99793	2514.5125
1131.63641	2531.6125
1135.2724	2506.3125
1138.90589	2464.2125
1142.5369	2425.2125
1146.16542	2407.8125
1149.79145	2388.8125
1153.415	2372.5125
1157.03607	2365.2125
1160.65467	2361.1125
1164.27079	2377.9125
1167.88443	2404.2125
1171.49561	2476.3125
1175.10432	2590.2125
1178.71056	2749.7125
1182.31434	2899.3125
1185.91565	2930.6125
1189.51451	2894.0125
1193.11091	2784.5125
1196.70485	2693.0125
1200.29634	2611.5125
1203.88538	2563.8125
1207.47197	2499.9125
1211.05612	2452.2125
1214.63782	2419.8125
1218.21708	2411.2125
1221.79391	2429.5125
1225.36829	2449.4125
1228.94024	2442.5125
1232.50976	2432.3125
1236.07685	2431.8125
1239.6415	2450.4125
1243.20374	2466.3125
1246.76355	2480.1125
1250.32093	2507.0125
1253.8759	2524.9125
1257.42845	2557.5125
1260.97859	2596.8125
1264.52631	2618.9125
1268.07163	2655.6125
1271.61453	2680.3125
1275.15503	2674.8125
1278.69312	2695.5125
1282.22882	2678.0125
1285.76211	2694.7125
1289.29301	2728.9125
1292.82151	2782.0125
1296.34761	2832.3125
1299.87133	2909.6125
1303.39266	2996.3125
1306.9116	3137.5125
1310.42815	3358.3125
1313.94233	3513.6125
1317.45412	3506.3125
1320.96354	3353.8125
1324.47058	3202.2125
1327.97525	3051.8125
1331.47754	2988.7125
1334.97747	2982.7125
1338.47502	3059.4125
1341.97022	3155.0125
1345.46305	3240.1125
1348.95352	3367.2125
1352.44163	3562.2125
1355.92738	3812.2125
1359.41078	4120.4125
1362.89183	4449.4125
1366.37053	4467.8125
1369.84688	4114.6125
1373.32088	3656.0125
1376.79254	3325.1125
1380.26186	3129.8125
1383.72883	3020.7125
1387.19347	2952.3125
1390.65578	2872.6125
1394.11575	2840.5125
1397.57339	2830.4125
1401.0287	2848.3125
1404.48168	2896.0125
1407.93234	2957.1125
1411.38068	3033.3125
1414.82669	3128.3125
1418.27039	3233.5125
1421.71177	3324.8125
1425.15083	3348.6125
1428.58758	3328.5125
1432.02203	3301.8125
1435.45416	3255.6125
1438.88399	3200.5125
1442.31151	3096.0125
1445.73673	3042.8125
1449.15965	2987.9125
1452.58027	2937.7125
1455.9986	2882.9125
1459.41463	2809.7125
1462.82837	2791.5125
1466.23982	2773.2125
1469.64898	2777.7125
1473.05586	2774.8125
1476.46045	2760.2125
1479.86276	2749.4125
1483.26279	2734.4125
1486.66054	2718.8125
1490.05602	2714.2125
1493.44922	2726.9125
1496.84016	2743.7125
1500.22882	2797.1125
1503.61521	2941.2125
1506.99934	3135.0125
1510.38121	3332.7125
1513.76081	3446.1125
1517.13816	3379.0125
1520.51324	3146.9125
1523.88607	2894.7125
1527.25665	2724.1125
1530.62498	2621.7125
1533.99105	2591.8125
1537.35488	2564.2125
1540.71647	2564.1125
1544.07581	2546.7125
1547.4329	2567.6125
1550.78776	2566.8125
1554.14038	2579.4125
1557.49077	2571.0125
1560.83892	2578.0125
1564.18484	2604.4125
1567.52853	2643.2125
1570.86999	2658.4125
1574.20922	2675.4125
1577.54624	2669.4125
1580.88103	2611.0125
1584.2136	2526.4125
1587.54395	2461.4125
1590.87208	2440.8125
1594.19801	2482.1125
1597.52172	2568.4125
1600.84321	2657.8125
1604.16251	2643.1125
1607.47959	2573.9125
1610.79447	2479.0125
1614.10715	2392.5125
1617.41763	2337.0125
1620.7259	2309.8125
1624.03199	2309.0125
1627.33587	2319.7125
1630.63757	2348.6125
1633.93707	2393.8125
1637.23439	2451.0125
1640.52951	2563.0125
1643.82246	2732.1125
1647.11321	2919.4125
1650.40179	3046.6125
1653.68819	3005.2125
1656.97241	2823.3125
1660.25446	2583.4125
1663.53433	2415.3125
1666.81203	2317.5125
1670.08756	2241.1125
1673.36092	2174.2125
1676.63211	2122.2125
1679.90115	2069.6125
1683.16801	1999.3125
1686.43272	1928.4125
1689.69527	1878.7125
1692.95567	1832.4125
1696.2139	1801.7125
1699.46999	1780.7125
1702.72392	1767.9125
1705.97571	1785.7125
1709.22535	1808.9125
1712.47284	1839.2125
1715.71819	1867.1125
1718.96139	1887.2125
1722.20246	1881.5125
1725.44139	1881.5125
1728.67818	1860.3125
1731.91284	1836.7125
1735.14537	1808.4125
1738.37576	1787.2125
1741.60403	1770.7125
1744.83017	1765.7125
1748.05418	1765.5125
1751.27607	1758.2125
1754.49584	1743.1125
1757.71349	1689.6125
1760.92903	1638.3125
1764.14244	1588.9125
1767.35375	1545.8125
1770.56294	1503.1125
1773.77002	1472.3125
1776.97499	1457.1125
1780.17785	1450.2125
1783.37861	1436.5125
1786.57727	1426.1125
1789.77382	1416.7125
1792.96828	1402.3125
1796.16064	1383.6125
1799.3509	1373.0125
1802.53907	1364.5125
1805.72514	1348.3125
1808.90913	1345.9125
1812.09102	1348.1125
1815.27083	1334.7125
1818.44856	1328.1125
1821.6242	1323.2125
1824.79776	1321.1125
1827.96924	1312.5125
1831.13864	1313.7125
1834.30597	1305.6125
1837.47122	1306.6125
1840.6344	1290.4125
1843.7955	1299.1125
1846.95454	1285.3125
1850.11151	1287.9125
1853.26642	1290.3125
1856.41926	1283.4125
1859.57004	1286.6125
1862.71876	1277.1125
1865.86542	1270.1125
1869.01003	1274.2125
1872.15258	1270.4125
1875.29308	1264.8125
1878.43152	1263.9125
1881.56792	1259.0125
1884.70227	1253.4125
1887.83457	1253.1125
1890.96482	1245.9125
1894.09304	1243.2125
1897.21921	1239.9125
1900.34335	1244.2125
1903.46544	1235.5125
1906.58551	1235.9125
1909.70353	1232.4125
1912.81953	1228.7125
1915.93349	1227.1125
1919.04543	1224.4125
1922.15534	1219.8125
1925.26322	1217.5125
1928.36908	1212.4125
1931.47292	1212.8125
1934.57473	1205.2125
1937.67453	1201.2125
1940.77232	1187.4125
1943.86808	1187.4125
1946.96184	1181.1125
1950.05358	1182.1125
1953.14331	1181.1125
1956.23103	1163.6125
1959.31675	1170.7125
1962.40046	1158.3125
1965.48217	1154.0125
1968.56188	1153.1125
1971.63959	1151.1125
1974.7153	1152.8125
1977.78901	1142.2125
1980.86073	1130.3125
1983.93046	1135.7125
1986.99819	1122.2125
1990.06394	1122.4125
1993.1277	1121.7125
1996.18947	1116.1125
1999.24925	1110.2125
2002.30706	1110.7125
2005.36288	1100.4125
2008.41672	1090.8125
2011.46859	1097.9125
2014.51848	1095.0125
2017.56639	1088.3125
2020.61233	1083.8125
2023.6563	1083.8125
2026.6983	1082.0125
2029.73833	1073.2125
2032.7764	1074.5125
2035.8125	1062.5125
2038.84664	1065.1125
2041.87881	1065.0125
2044.90903	1068.3125
2047.93729	1052.2125
2050.96359	1061.5125
2053.98794	1055.8125
2057.01034	1055.6125
2060.03078	1047.9125
2063.04927	1047.0125
2066.06582	1044.7125
2069.08042	1054.8125
2072.09307	1054.0125
2075.10378	1042.9125
2078.11255	1056.5125
2081.11938	1050.6125
2084.12426	1046.5125
2087.12722	1050.8125
2090.12824	1044.8125
2093.12732	1054.9125
2096.12447	1044.6125
2099.11969	1049.1125
2102.11299	1054.3125
2105.10435	1051.1125
2108.09379	1061.5125
2111.08131	1055.8125
2114.0669	1047.0125
2117.05057	1044.2125
2120.03233	1046.7125
2123.01216	1036.4125
2125.99008	1032.5125
2128.96609	1030.1125
2131.94018	1019.8125
2134.91236	1018.5125
2137.88263	1021.3125
2140.851	1024.2125
2143.81746	1019.2125
2146.78201	1013.1125
2149.74466	1014.5125
2152.7054	1017.1125
2155.66425	1010.0125
2158.6212	1012.3125
2161.57625	1011.2125
2164.52941	1009.4125
2167.48067	1006.3125
2170.43004	1000.4125
2173.37752	1001.9125
2176.32311	1002.1125
2179.26681	993.9125
2182.20863	1008.6125
2185.14856	996.1125
2188.08661	993.7125
2191.02278	1002.8125
2193.95707	994.9125
2196.88948	993.9125
2199.82001	990.3125
2202.74867	983.9125
2205.67545	988.6125
2208.60037	991.0125
2211.52341	986.8125
2214.44458	980.4125
2217.36388	972.2125
2220.28132	973.9125
2223.1969	964.7125
2226.11061	964.3125
2229.02246	962.1125
2231.93245	957.5125
2234.84058	952.2125
2237.74686	950.1125
2240.65128	949.8125
2243.55385	946.2125
2246.45456	947.6125
2249.35343	947.1125
2252.25044	947.1125
2255.14561	933.8125
2258.03893	936.1125
2260.93041	933.3125
2263.82004	939.1125
2266.70783	931.3125
2269.59378	925.3125
2272.4779	928.8125
2275.36017	920.7125
2278.24061	922.9125
2281.11922	925.7125
2283.996	910.3125
2286.87094	909.4125
2289.74405	906.1125
2292.61534	912.2125
2295.4848	904.7125
2298.35243	903.9125
2301.21824	899.1125
2304.08223	897.1125
2306.94439	897.0125
2309.80474	893.7125
2312.66327	895.0125
2315.51999	893.3125
2318.37489	886.9125
2321.22797	882.2125
2324.07925	882.5125
2326.92871	888.5125
2329.77637	882.4125
2332.62222	890.6125
2335.46626	884.3125
2338.3085	877.2125
2341.14893	881.2125
2343.98756	870.5125
2346.8244	873.2125
2349.65943	867.9125
2352.49267	864.0125
2355.32411	868.0125
2358.15376	864.2125
2360.98161	866.1125
2363.80768	864.7125
2366.63195	871.9125
2369.45444	862.0125
2372.27514	863.4125
2375.09405	865.5125
2377.91118	863.5125
2380.72652	857.8125
2383.54009	854.9125
2386.35187	856.3125
2389.16188	849.6125
2391.97011	844.0125
2394.77657	843.5125
2397.58125	843.4125
2400.38416	840.5125
2403.18529	846.4125
2405.98466	835.1125
2408.78226	835.8125
2411.57809	833.1125
2414.37216	835.6125
2417.16446	839.8125
2419.955	827.4125
2422.74378	825.1125
2425.5308	829.7125
2428.31606	817.1125
2431.09956	822.4125
2433.88131	819.6125
2436.6613	821.6125
2439.43954	814.4125
2442.21603	812.0125
2444.99077	809.7125
2447.76377	808.1125
2450.53501	812.6125
2453.30451	814.5125
2456.07226	801.3125
2458.83827	805.2125
2461.60254	804.0125
2464.36507	799.5125
2467.12586	797.4125
2469.88492	806.1125
2472.64224	794.0125
2475.39782	797.3125
2478.15167	799.5125
2480.90379	792.1125
2483.65417	797.0125
2486.40283	796.1125
2489.14976	795.5125
2491.89497	793.6125
2494.63845	793.0125
2497.3802	795.8125
2500.12024	793.9125
2502.85855	783.8125
2505.59514	785.0125
2508.33002	784.8125
2511.06318	776.5125
2513.79462	777.9125
2516.52435	775.2125
2519.25237	775.3125
2521.97867	772.9125
2524.70327	761.9125
2527.42616	761.1125
2530.14734	757.6125
2532.86681	763.5125
2535.58458	756.6125
2538.30065	752.2125
2541.01501	755.3125
2543.72768	759.9125
2546.43864	751.1125
2549.14791	756.4125
2551.85548	750.2125
2554.56136	748.2125
2557.26554	745.1125
2559.96803	749.7125
2562.66883	748.9125
2565.36794	737.5125
2568.06536	743.7125
2570.7611	741.0125
2573.45514	738.9125
2576.14751	740.8125
2578.83819	735.3125
2581.52719	732.6125
2584.21451	728.4125
2586.90015	727.8125
2589.58411	728.0125
2592.2664	731.7125
2594.94701	721.2125
2597.62594	719.5125
2600.30321	714.0125
2602.9788	717.5125
2605.65273	712.1125
2608.32498	719.7125
2610.99557	710.1125
2613.66449	713.2125
2616.33175	710.4125
2618.99734	714.7125
2621.66128	710.5125
2624.32355	706.1125
2626.98416	711.6125
2629.64311	712.0125
2632.30041	711.2125
2634.95605	713.2125
2637.61004	700.1125
2640.26238	706.4125
2642.91306	696.2125
2645.56209	698.7125
2648.20948	698.4125
2650.85521	696.3125
2653.4993	699.6125
2656.14175	695.2125
2658.78255	703.0125
2661.42171	705.1125
2664.05923	700.2125
2666.6951	706.6125
2669.32934	700.4125
2671.96194	708.3125
2674.59291	698.6125
2677.22224	700.9125
2679.84993	701.4125
2682.476	700.2125
2685.10043	702.4125
2687.72324	705.3125
2690.34441	703.2125
2692.96396	703.1125
2695.58188	709.2125
2698.19818	705.3125
2700.81285	706.0125
2703.4259	704.1125
2706.03733	715.2125
2708.64714	711.0125
2711.25533	713.1125
2713.86191	708.0125
2716.46687	714.2125
2719.07021	709.0125
2721.67194	716.0125
2724.27206	710.9125
2726.87057	714.6125
2729.46747	717.7125
2732.06276	713.8125
2734.65644	716.3125
2737.24852	718.6125
2739.83899	708.3125
2742.42786	714.3125
2745.01513	719.6125
2747.60079	716.9125
2750.18486	718.4125
2752.76733	719.0125
2755.3482	717.5125
2757.92747	726.1125
2760.50515	725.2125
2763.08123	726.6125
2765.65573	722.6125
2768.22863	734.7125
2770.79994	727.3125
2773.36967	741.6125
2775.9378	739.1125
2778.50435	743.5125
2781.06932	744.7125
2783.6327	743.6125
2786.1945	748.2125
2788.75471	752.5125
2791.31335	757.6125
2793.87041	759.5125
2796.42589	766.1125
2798.97979	768.5125
2801.53212	774.2125
2804.08288	784.1125
2806.63206	795.7125
2809.17967	797.4125
2811.72571	802.4125
2814.27018	815.0125
2816.81308	824.1125
2819.35442	817.8125
2821.89419	829.1125
2824.43239	837.9125
2826.96904	834.7125
2829.50412	837.6125
2832.03763	854.3125
2834.56959	851.4125
2837.1	853.5125
2839.62884	855.7125
2842.15613	868.6125
2844.68186	876.7125
2847.20604	886.5125
2849.72867	892.0125
2852.24974	896.8125
2854.76927	897.1125
2857.28724	904.1125
2859.80367	900.0125
2862.31855	900.3125
2864.83189	906.4125
2867.34368	925.1125
2869.85393	928.4125
2872.36264	940.0125
2874.8698	956.2125
2877.37543	970.8125
2879.87952	990.5125
2882.38207	1020.1125
2884.88308	1025.3125
2887.38256	1038.0125
2889.88051	1054.4125
2892.37692	1075.7125
2894.8718	1088.9125
2897.36515	1112.9125
2899.85698	1123.3125
2902.34727	1151.2125
2904.83604	1156.5125
2907.32328	1177.3125
2909.809	1186.7125
2912.29319	1208.2125
2914.77587	1213.7125
2917.25702	1227.1125
2919.73665	1238.9125
2922.21476	1240.4125
2924.69136	1248.5125
2927.16644	1255.8125
2929.64	1249.6125
2932.11205	1242.4125
2934.58258	1229.7125
2937.05161	1228.0125
2939.51912	1216.7125
2941.98513	1194.3125
2944.44962	1179.6125
2946.91261	1162.7125
2949.37409	1142.6125
2951.83407	1123.0125
2954.29254	1092.4125
2956.74951	1077.0125
2959.20498	1052.6125
2961.65895	1027.4125
2964.11142	991.1125
2966.56239	975.7125
2969.01186	954.0125
2971.45984	933.2125
2973.90632	909.0125
2976.35131	890.0125
2978.7948	875.2125
2981.23681	868.6125
2983.67732	854.3125
2986.11635	844.8125
2988.55388	832.4125
2990.98993	825.2125
2993.4245	830.7125
2995.85758	810.9125
2998.28917	814.5125
3000.71928	814.8125
3003.14791	818.2125
3005.57506	816.1125
3008.00073	800.0125
3010.42493	797.9125
3012.84764	800.0125
3015.26888	794.8125
3017.68865	777.2125
3020.10694	775.3125
3022.52376	770.2125
3024.9391	759.4125
3027.35298	746.5125
3029.76539	740.1125
3032.17632	741.6125
3034.5858	722.9125
3036.9938	716.1125
3039.40034	712.4125
3041.80542	702.0125
3044.20903	702.5125
3046.61118	703.0125
3049.01187	692.1125
3051.4111	690.6125
3053.80888	682.0125
3056.20519	683.2125
3058.60005	690.5125
3060.99345	680.7125
3063.3854	677.5125
3065.7759	682.3125
3068.16494	671.3125
3070.55254	676.3125
3072.93868	679.6125
3075.32338	680.4125
3077.70662	673.9125
3080.08842	673.9125
3082.46878	682.1125
3084.84769	675.0125
3087.22515	675.9125
3089.60118	676.8125
3091.97576	681.7125
3094.3489	692.5125
3096.72061	689.4125
3099.09087	696.1125
3101.4597	694.0125
3103.82709	702.3125
3106.19305	700.4125
3108.55757	697.5125
3110.92066	699.4125
3113.28232	705.5125
3115.64255	703.1125
3118.00134	707.3125
3120.35871	711.8125
3122.71466	709.5125
3125.06917	711.8125
3127.42226	713.8125
3129.77393	726.5125
3132.12417	729.0125
3134.47299	732.0125
3136.82039	731.3125
3139.16636	734.7125
3141.51092	738.2125
3143.85406	748.8125
3146.19579	752.9125
3148.53609	754.9125
3150.87499	759.3125
3153.21246	764.6125
3155.54853	770.4125
3157.88318	779.2125
3160.21642	780.8125
3162.54826	790.8125
