Data from AgNPs_FTO_APTES_UA_100um_CRN_0.1mM_R6G_10uM_NaF_0.1M_Addition_RamanShift__17__16-04-49-292.txt Node

Date: Tue Dec 21 16:04:49 GMT 2021
User: TCL
Spectrometer: QEP01345
Trigger mode: 4
Integration Time (sec): 7.000000E0
Scans to average: 10
Electric dark correction enabled: true
Nonlinearity correction enabled: false
Boxcar width: 0
XAxis mode: Raman Shifts
Number of Pixels in Spectrum: 1044
>>>>>Begin Spectral Data<<<<<
46.04893	1.125
50.45542	-1.275
54.85868	-0.075
59.25871	0.525
63.6555	31.625
68.04907	35.625
72.43941	39.525
76.82654	41.625
81.21044	46.125
85.59113	42.925
89.96862	45.925
94.34289	43.125
98.71396	43.425
103.08183	51.925
107.4465	54.125
111.80798	54.425
116.16626	52.825
120.52136	56.925
124.87327	55.025
129.222	57.925
133.56755	62.525
137.90993	65.225
142.24913	63.125
146.58517	72.825
150.91804	85.125
155.24774	99.125
159.57429	118.425
163.89768	150.625
168.21792	191.325
172.53501	259.925
176.84895	353.225
181.15975	488.925
185.46741	688.525
189.77193	951.725
194.07331	1286.225
198.37157	1665.225
202.6667	2055.625
206.9587	2447.225
211.24758	2861.225
215.53334	3246.525
219.81599	3669.125
224.09553	4124.925
228.37195	4636.025
232.64527	5175.525
236.91549	5776.725
241.18261	6345.325
245.44663	6890.625
249.70755	7367.525
253.96539	7776.825
258.22014	8125.425
262.4718	8390.525
266.72039	8598.525
270.96589	8692.625
275.20832	8702.125
279.44768	8600.325
283.68397	8503.025
287.91719	8383.525
292.14735	8330.625
296.37445	8307.425
300.59849	8356.025
304.81948	8405.225
309.03742	8387.925
313.25231	8289.425
317.46415	8086.425
321.67296	7840.925
325.87872	7632.225
330.08145	7536.725
334.28114	7517.825
338.47781	7599.825
342.67145	7674.425
346.86207	7813.625
351.04966	7963.425
355.23424	8155.625
359.4158	8325.025
363.59435	8444.225
367.76989	8524.825
371.94243	8602.725
376.11196	8671.725
380.27849	8744.025
384.44203	8775.425
388.60257	8822.025
392.76012	8868.525
396.91468	8928.825
401.06626	9049.325
405.21485	9140.725
409.36047	9087.325
413.50311	8917.225
417.64277	8735.425
421.77947	8618.925
425.9132	8554.625
430.04396	8581.425
434.17176	8603.125
438.2966	8653.825
442.41849	8719.925
446.53742	8882.925
450.6534	9036.225
454.76644	9163.825
458.87653	9245.925
462.98368	9244.925
467.08789	9193.125
471.18916	9159.225
475.2875	9112.725
479.38291	9101.425
483.4754	9057.025
487.56496	8982.325
491.6516	8907.725
495.73531	8850.825
499.81612	8797.725
503.89401	8851.525
507.96899	8857.825
512.04106	8860.325
516.11023	8868.025
520.1765	8884.025
524.23987	8853.025
528.30034	8798.125
532.35792	8775.525
536.41261	8703.625
540.46441	8632.425
544.51333	8599.425
548.55936	8628.425
552.60252	8692.125
556.64279	8791.925
560.6802	8855.925
564.71473	8874.125
568.7464	8928.025
572.7752	9033.725
576.80114	9045.025
580.82422	9058.825
584.84444	9110.225
588.86181	9144.425
592.87633	9170.125
596.888	9176.325
600.89682	9246.925
604.9028	9594.025
608.90594	10536.625
612.90624	11746.825
616.90371	11444.825
620.89834	9693.925
624.89015	8797.525
628.87913	8712.825
632.86528	8846.425
636.84862	8991.025
640.82913	8938.725
644.80683	8712.125
648.78172	8486.125
652.75379	8393.925
656.72306	8442.025
660.68952	8546.025
664.65319	8552.925
668.61405	8438.325
672.57211	8405.525
676.52738	8446.325
680.47986	8474.325
684.42955	8471.425
688.37646	8385.925
692.32058	8348.025
696.26192	8309.325
700.20048	8334.025
704.13626	8368.825
708.06928	8332.925
711.99952	8271.125
715.927	8246.325
719.85171	8245.625
723.77365	8240.225
727.69284	8212.025
731.60928	8192.625
735.52295	8147.025
739.43388	8153.725
743.34206	8133.025
747.24749	8138.125
751.15017	8114.725
755.05012	8185.025
758.94733	8327.425
762.8418	8646.725
766.73354	9268.525
770.62254	10048.025
774.50882	10423.025
778.39237	10164.025
782.27321	9376.525
786.15132	8668.325
790.02671	8251.325
793.89938	8024.025
797.76935	7927.425
801.6366	7912.925
805.50115	7863.925
809.36299	7863.425
813.22213	7845.325
817.07857	7816.025
820.93231	7774.225
824.78336	7731.525
828.63172	7702.725
832.47738	7646.025
836.32036	7633.525
840.16066	7594.625
843.99827	7575.425
847.8332	7555.125
851.66546	7524.825
855.49504	7514.925
859.32195	7535.825
863.1462	7537.625
866.96777	7520.225
870.78668	7542.425
874.60293	7571.525
878.41652	7560.025
882.22745	7567.525
886.03573	7598.925
889.84136	7607.525
893.64433	7557.525
897.44466	7516.025
901.24235	7448.925
905.0374	7397.025
908.8298	7337.025
912.61957	7304.725
916.40671	7321.725
920.19121	7353.125
923.97308	7387.125
927.75233	7388.025
931.52895	7370.925
935.30295	7319.025
939.07433	7235.125
942.84309	7120.225
946.60924	7072.725
950.37278	7021.525
954.13371	7022.325
957.89203	6997.125
961.64774	6965.325
965.40086	6932.425
969.15137	6919.525
972.89929	6862.125
976.64461	6822.425
980.38733	6812.325
984.12747	6810.125
987.86502	6844.125
991.59999	6841.525
995.33237	6893.425
999.06217	6940.925
1002.78939	7016.625
1006.51404	7085.425
1010.23611	7158.125
1013.95561	7212.025
1017.67255	7250.025
1021.38692	7214.725
1025.09872	7148.825
1028.80796	7089.425
1032.51465	7031.725
1036.21877	7058.225
1039.92035	7082.725
1043.61937	7098.925
1047.31584	7090.025
1051.00976	7097.025
1054.70114	7119.925
1058.38998	7115.225
1062.07627	7148.425
1065.76003	7204.825
1069.44126	7256.525
1073.11995	7300.525
1076.79611	7345.825
1080.46974	7354.725
1084.14085	7372.825
1087.80943	7400.325
1091.47549	7446.425
1095.13903	7445.625
1098.80005	7400.125
1102.45857	7282.425
1106.11456	7205.325
1109.76805	7158.825
1113.41903	7212.925
1117.06751	7303.825
1120.71348	7415.825
1124.35696	7544.825
1127.99793	7714.225
1131.63641	7832.225
1135.2724	7811.725
1138.90589	7702.325
1142.5369	7578.525
1146.16542	7451.125
1149.79145	7391.325
1153.415	7332.825
1157.03607	7337.325
1160.65467	7400.825
1164.27079	7545.425
1167.88443	7805.825
1171.49561	8138.225
1175.10432	8619.825
1178.71056	9265.925
1182.31434	9849.125
1185.91565	10085.825
1189.51451	10046.725
1193.11091	9757.825
1196.70485	9375.525
1200.29634	9051.825
1203.88538	8783.325
1207.47197	8511.525
1211.05612	8260.525
1214.63782	8046.325
1218.21708	7878.625
1221.79391	7771.525
1225.36829	7708.125
1228.94024	7665.725
1232.50976	7592.825
1236.07685	7563.025
1239.6415	7551.425
1243.20374	7567.425
1246.76355	7596.625
1250.32093	7672.225
1253.8759	7759.425
1257.42845	7912.725
1260.97859	8064.425
1264.52631	8184.925
1268.07163	8337.625
1271.61453	8500.925
1275.15503	8633.525
1278.69312	8772.525
1282.22882	8897.525
1285.76211	9060.125
1289.29301	9275.625
1292.82151	9542.825
1296.34761	9871.825
1299.87133	10280.525
1303.39266	10707.125
1306.9116	11271.925
1310.42815	11821.825
1313.94233	12182.325
1317.45412	12129.225
1320.96354	11859.725
1324.47058	11520.325
1327.97525	11219.225
1331.47754	10952.025
1334.97747	10777.825
1338.47502	10732.225
1341.97022	10758.925
1345.46305	10878.425
1348.95352	11054.825
1352.44163	11365.825
1355.92738	11872.725
1359.41078	12556.925
1362.89183	13321.825
1366.37053	13274.025
1369.84688	12130.325
1373.32088	10690.225
1376.79254	9723.625
1380.26186	9230.625
1383.72883	9016.925
1387.19347	8914.125
1390.65578	8774.025
1394.11575	8666.325
1397.57339	8592.325
1401.0287	8599.525
1404.48168	8603.625
1407.93234	8548.325
1411.38068	8462.525
1414.82669	8287.625
1418.27039	8081.325
1421.71177	7854.725
1425.15083	7665.525
1428.58758	7523.625
1432.02203	7486.925
1435.45416	7560.125
1438.88399	7663.825
1442.31151	7725.725
1445.73673	7823.225
1449.15965	7904.925
1452.58027	7970.625
1455.9986	8026.825
1459.41463	8084.625
1462.82837	8185.525
1466.23982	8292.825
1469.64898	8410.625
1473.05586	8484.825
1476.46045	8519.925
1479.86276	8536.225
1483.26279	8504.125
1486.66054	8552.425
1490.05602	8642.025
1493.44922	8751.425
1496.84016	9042.525
1500.22882	9451.425
1503.61521	10053.925
1506.99934	10807.425
1510.38121	11426.325
1513.76081	11670.425
1517.13816	11304.225
1520.51324	10542.125
1523.88607	9796.025
1527.25665	9265.025
1530.62498	8954.625
1533.99105	8771.425
1537.35488	8647.025
1540.71647	8502.125
1544.07581	8369.025
1547.4329	8239.025
1550.78776	8151.125
1554.14038	8116.525
1557.49077	8165.625
1560.83892	8236.125
1564.18484	8306.625
1567.52853	8457.325
1570.86999	8539.525
1574.20922	8680.625
1577.54624	8694.025
1580.88103	8551.625
1584.2136	8337.125
1587.54395	8201.325
1590.87208	8250.425
1594.19801	8436.925
1597.52172	8784.625
1600.84321	8926.025
1604.16251	8747.825
1607.47959	8358.725
1610.79447	7944.725
1614.10715	7513.225
1617.41763	7145.525
1620.7259	6868.925
1624.03199	6699.725
1627.33587	6647.525
1630.63757	6717.425
1633.93707	6893.625
1637.23439	7243.325
1640.52951	7773.225
1643.82246	8521.925
1647.11321	9295.125
1650.40179	9857.425
1653.68819	9803.225
1656.97241	8996.325
1660.25446	8014.525
1663.53433	7225.225
1666.81203	6674.125
1670.08756	6316.525
1673.36092	6094.925
1676.63211	5941.825
1679.90115	5816.325
1683.16801	5754.325
1686.43272	5683.625
1689.69527	5617.125
1692.95567	5583.525
1696.2139	5571.725
1699.46999	5549.525
1702.72392	5492.525
1705.97571	5441.925
1709.22535	5367.525
1712.47284	5324.925
1715.71819	5310.925
1718.96139	5275.025
1722.20246	5234.725
1725.44139	5221.725
1728.67818	5189.025
1731.91284	5151.225
1735.14537	5122.825
1738.37576	5100.225
1741.60403	5083.425
1744.83017	5060.325
1748.05418	5071.225
1751.27607	5059.625
1754.49584	5062.925
1757.71349	5083.325
1760.92903	5051.925
1764.14244	5040.125
1767.35375	5025.125
1770.56294	5003.925
1773.77002	4969.225
1776.97499	4924.425
1780.17785	4896.125
1783.37861	4868.825
1786.57727	4858.525
1789.77382	4810.625
1792.96828	4797.625
1796.16064	4782.525
1799.3509	4774.425
1802.53907	4760.625
1805.72514	4732.825
1808.90913	4699.225
1812.09102	4710.725
1815.27083	4669.325
1818.44856	4672.225
1821.6242	4650.825
1824.79776	4663.125
1827.96924	4623.625
1831.13864	4630.625
1834.30597	4617.925
1837.47122	4609.025
1840.6344	4594.425
1843.7955	4600.125
1846.95454	4567.425
1850.11151	4585.925
1853.26642	4566.225
1856.41926	4564.925
1859.57004	4558.425
1862.71876	4536.425
1865.86542	4546.325
1869.01003	4542.125
1872.15258	4537.225
1875.29308	4519.925
1878.43152	4496.025
1881.56792	4506.325
1884.70227	4486.125
1887.83457	4471.725
1890.96482	4469.325
1894.09304	4454.525
1897.21921	4451.225
1900.34335	4445.225
1903.46544	4443.525
1906.58551	4450.025
1909.70353	4413.525
1912.81953	4418.425
1915.93349	4414.025
1919.04543	4386.125
1922.15534	4380.925
1925.26322	4374.225
1928.36908	4364.925
1931.47292	4349.525
1934.57473	4346.325
1937.67453	4327.325
1940.77232	4318.725
1943.86808	4290.025
1946.96184	4292.725
1950.05358	4266.225
1953.14331	4257.325
1956.23103	4245.925
1959.31675	4247.725
1962.40046	4221.925
1965.48217	4202.725
1968.56188	4184.025
1971.63959	4181.425
1974.7153	4149.825
1977.78901	4136.425
1980.86073	4130.125
1983.93046	4125.225
1986.99819	4098.125
1990.06394	4067.525
1993.1277	4066.525
1996.18947	4046.525
1999.24925	4028.625
2002.30706	4021.725
2005.36288	4013.725
2008.41672	3991.925
2011.46859	3978.425
2014.51848	3968.525
2017.56639	3958.525
2020.61233	3927.725
2023.6563	3920.125
2026.6983	3913.325
2029.73833	3913.225
2032.7764	3886.725
2035.8125	3881.625
2038.84664	3882.025
2041.87881	3856.225
2044.90903	3854.925
2047.93729	3840.825
2050.96359	3825.825
2053.98794	3828.925
2057.01034	3843.625
2060.03078	3827.925
2063.04927	3814.625
2066.06582	3800.225
2069.08042	3782.925
2072.09307	3779.225
2075.10378	3768.225
2078.11255	3772.225
2081.11938	3766.725
2084.12426	3767.725
2087.12722	3765.825
2090.12824	3764.825
2093.12732	3760.925
2096.12447	3758.725
2099.11969	3761.925
2102.11299	3754.825
2105.10435	3757.325
2108.09379	3761.225
2111.08131	3754.625
2114.0669	3747.125
2117.05057	3749.325
2120.03233	3760.025
2123.01216	3754.025
2125.99008	3761.825
2128.96609	3754.325
2131.94018	3748.925
2134.91236	3764.225
2137.88263	3754.825
2140.851	3740.225
2143.81746	3756.725
2146.78201	3765.525
2149.74466	3738.925
2152.7054	3760.625
2155.66425	3731.425
2158.6212	3744.125
2161.57625	3745.825
2164.52941	3725.525
2167.48067	3727.325
2170.43004	3723.225
2173.37752	3730.925
2176.32311	3713.925
2179.26681	3718.325
2182.20863	3714.725
2185.14856	3705.525
2188.08661	3705.925
2191.02278	3687.925
2193.95707	3676.025
2196.88948	3691.125
2199.82001	3691.725
2202.74867	3675.325
2205.67545	3660.825
2208.60037	3671.625
2211.52341	3654.625
2214.44458	3653.725
2217.36388	3632.525
2220.28132	3620.925
2223.1969	3631.725
2226.11061	3602.725
2229.02246	3607.425
2231.93245	3577.925
2234.84058	3582.425
2237.74686	3585.325
2240.65128	3568.925
2243.55385	3561.125
2246.45456	3553.625
2249.35343	3547.725
2252.25044	3541.825
2255.14561	3544.225
2258.03893	3541.925
2260.93041	3535.825
2263.82004	3518.825
2266.70783	3499.425
2269.59378	3501.025
2272.4779	3478.225
2275.36017	3472.425
2278.24061	3475.325
2281.11922	3459.525
2283.996	3435.925
2286.87094	3446.325
2289.74405	3438.125
2292.61534	3427.225
2295.4848	3407.425
2298.35243	3412.025
2301.21824	3406.225
2304.08223	3401.525
2306.94439	3398.125
2309.80474	3374.625
2312.66327	3384.525
2315.51999	3380.125
2318.37489	3378.025
2321.22797	3374.325
2324.07925	3374.125
2326.92871	3361.325
2329.77637	3360.325
2332.62222	3345.525
2335.46626	3352.925
2338.3085	3331.025
2341.14893	3327.725
2343.98756	3327.225
2346.8244	3325.725
2349.65943	3317.325
2352.49267	3315.325
2355.32411	3321.325
2358.15376	3324.925
2360.98161	3321.625
2363.80768	3318.325
2366.63195	3321.625
2369.45444	3288.425
2372.27514	3288.725
2375.09405	3289.625
2377.91118	3285.625
2380.72652	3265.225
2383.54009	3266.525
2386.35187	3268.925
2389.16188	3251.225
2391.97011	3235.525
2394.77657	3221.325
2397.58125	3221.925
2400.38416	3203.225
2403.18529	3207.325
2405.98466	3198.625
2408.78226	3186.125
2411.57809	3183.225
2414.37216	3177.725
2417.16446	3172.925
2419.955	3158.725
2422.74378	3167.725
2425.5308	3166.425
2428.31606	3156.725
2431.09956	3151.025
2433.88131	3154.325
2436.6613	3143.025
2439.43954	3140.825
2442.21603	3131.725
2444.99077	3137.225
2447.76377	3119.225
2450.53501	3118.025
2453.30451	3107.725
2456.07226	3119.225
2458.83827	3116.725
2461.60254	3114.425
2464.36507	3102.025
2467.12586	3089.525
2469.88492	3096.525
2472.64224	3086.625
2475.39782	3099.325
2478.15167	3107.825
2480.90379	3091.025
2483.65417	3092.025
2486.40283	3083.325
2489.14976	3078.425
2491.89497	3084.525
2494.63845	3098.325
2497.3802	3088.525
2500.12024	3079.925
2502.85855	3066.825
2505.59514	3065.825
2508.33002	3066.325
2511.06318	3043.925
2513.79462	3037.325
2516.52435	3033.225
2519.25237	3026.325
2521.97867	3022.425
2524.70327	3026.825
2527.42616	3021.325
2530.14734	2998.325
2532.86681	3015.125
2535.58458	3007.125
2538.30065	2998.025
2541.01501	2989.225
2543.72768	2981.625
2546.43864	2983.125
2549.14791	2964.125
2551.85548	2960.825
2554.56136	2961.525
2557.26554	2943.825
2559.96803	2949.125
2562.66883	2939.225
2565.36794	2933.925
2568.06536	2932.725
2570.7611	2922.725
2573.45514	2915.325
2576.14751	2921.925
2578.83819	2909.925
2581.52719	2903.425
2584.21451	2897.425
2586.90015	2905.225
2589.58411	2892.925
2592.2664	2888.625
2594.94701	2871.525
2597.62594	2868.625
2600.30321	2871.225
2602.9788	2857.925
2605.65273	2861.225
2608.32498	2853.025
2610.99557	2862.225
2613.66449	2845.025
2616.33175	2839.325
2618.99734	2847.825
2621.66128	2835.925
2624.32355	2833.925
2626.98416	2833.525
2629.64311	2831.225
2632.30041	2829.025
2634.95605	2817.525
2637.61004	2813.825
2640.26238	2806.625
2642.91306	2803.325
2645.56209	2799.225
2648.20948	2791.525
2650.85521	2794.525
2653.4993	2796.825
2656.14175	2786.025
2658.78255	2782.425
2661.42171	2798.725
2664.05923	2782.525
2666.6951	2788.825
2669.32934	2782.025
2671.96194	2783.425
2674.59291	2792.325
2677.22224	2777.825
2679.84993	2778.125
2682.476	2776.925
2685.10043	2777.625
2687.72324	2770.025
2690.34441	2775.925
2692.96396	2764.625
2695.58188	2774.725
2698.19818	2772.125
2700.81285	2773.225
2703.4259	2798.825
2706.03733	2856.325
2708.64714	2804.425
2711.25533	2781.125
2713.86191	2777.725
2716.46687	2789.625
2719.07021	2769.825
2721.67194	2754.025
2724.27206	2756.525
2726.87057	2758.725
2729.46747	2759.325
2732.06276	2762.725
2734.65644	2765.425
2737.24852	2750.825
2739.83899	2740.625
2742.42786	2754.025
2745.01513	2738.525
2747.60079	2741.625
2750.18486	2739.625
2752.76733	2732.025
2755.3482	2732.125
2757.92747	2721.025
2760.50515	2707.225
2763.08123	2722.825
2765.65573	2720.425
2768.22863	2711.125
2770.79994	2708.225
2773.36967	2709.925
2775.9378	2704.825
2778.50435	2698.025
2781.06932	2694.625
2783.6327	2683.125
2786.1945	2680.625
2788.75471	2677.425
2791.31335	2658.925
2793.87041	2660.325
2796.42589	2657.525
2798.97979	2661.125
2801.53212	2653.125
2804.08288	2655.925
2806.63206	2646.625
2809.17967	2643.125
2811.72571	2632.425
2814.27018	2631.525
2816.81308	2618.925
2819.35442	2616.325
2821.89419	2624.225
2824.43239	2619.425
2826.96904	2608.725
2829.50412	2606.625
2832.03763	2615.925
2834.56959	2605.025
2837.1	2605.725
2839.62884	2599.325
2842.15613	2592.625
2844.68186	2604.725
2847.20604	2606.525
2849.72867	2599.825
2852.24974	2595.525
2854.76927	2611.025
2857.28724	2611.125
2859.80367	2605.525
2862.31855	2598.725
2864.83189	2586.325
2867.34368	2585.725
2869.85393	2575.725
2872.36264	2568.925
2874.8698	2574.225
2877.37543	2575.225
2879.87952	2589.625
2882.38207	2581.225
2884.88308	2577.125
2887.38256	2575.425
2889.88051	2564.725
2892.37692	2571.225
2894.8718	2563.125
2897.36515	2570.525
2899.85698	2572.625
2902.34727	2585.925
2904.83604	2579.225
2907.32328	2585.925
2909.809	2579.525
2912.29319	2581.725
2914.77587	2582.625
2917.25702	2585.625
2919.73665	2586.925
2922.21476	2582.325
2924.69136	2580.525
2927.16644	2599.125
2929.64	2579.025
2932.11205	2585.025
2934.58258	2567.925
2937.05161	2565.525
2939.51912	2586.225
2941.98513	2569.725
2944.44962	2567.325
2946.91261	2563.125
2949.37409	2562.625
2951.83407	2553.425
2954.29254	2552.625
2956.74951	2559.525
2959.20498	2550.525
2961.65895	2530.325
2964.11142	2534.725
2966.56239	2520.125
2969.01186	2515.025
2971.45984	2516.525
2973.90632	2497.925
2976.35131	2502.125
2978.7948	2501.425
2981.23681	2491.925
2983.67732	2480.525
2986.11635	2485.825
2988.55388	2478.925
2990.98993	2472.525
2993.4245	2464.825
2995.85758	2448.425
2998.28917	2462.525
3000.71928	2460.025
3003.14791	2447.725
3005.57506	2451.625
3008.00073	2432.525
3010.42493	2435.725
3012.84764	2444.225
3015.26888	2437.125
3017.68865	2427.625
3020.10694	2419.025
3022.52376	2427.325
3024.9391	2421.325
3027.35298	2422.325
3029.76539	2406.525
3032.17632	2408.625
3034.5858	2397.225
3036.9938	2405.825
3039.40034	2409.525
3041.80542	2395.225
3044.20903	2386.425
3046.61118	2389.825
3049.01187	2389.125
3051.4111	2391.825
3053.80888	2372.725
3056.20519	2377.125
3058.60005	2383.225
3060.99345	2377.525
3063.3854	2366.925
3065.7759	2374.625
3068.16494	2362.325
3070.55254	2359.725
3072.93868	2358.325
3075.32338	2345.925
3077.70662	2346.125
3080.08842	2347.925
3082.46878	2355.625
3084.84769	2339.925
3087.22515	2349.825
3089.60118	2357.625
3091.97576	2347.725
3094.3489	2351.325
3096.72061	2348.825
3099.09087	2345.525
3101.4597	2347.725
3103.82709	2367.325
3106.19305	2359.825
3108.55757	2356.325
3110.92066	2348.025
3113.28232	2361.425
3115.64255	2343.725
3118.00134	2337.725
3120.35871	2342.225
3122.71466	2333.625
3125.06917	2347.425
3127.42226	2338.825
3129.77393	2344.025
3132.12417	2331.925
3134.47299	2360.425
3136.82039	2353.025
3139.16636	2356.925
3141.51092	2355.625
3143.85406	2360.725
3146.19579	2366.825
3148.53609	2369.025
3150.87499	2368.625
3153.21246	2378.725
3155.54853	2378.625
3157.88318	2392.725
3160.21642	2387.025
3162.54826	2392.225
3164.87868	2389.725
3167.2077	2400.825
3169.5353	2395.125
3171.86151	2402.525
3174.18631	2393.125
3176.5097	2395.925
3178.83169	2400.425
3181.15228	2409.125
3183.47147	2395.525
3185.78926	2404.025
3188.10565	2393.925
3190.42065	2413.625
3192.73424	2406.025
3195.04645	2410.125
3197.35725	2417.425
3199.66667	2419.925
3201.97469	2421.925
3204.28132	2426.925
3206.58656	2430.425
3208.8904	2433.025
3211.19287	2435.025
3213.49394	2441.125
3215.79363	2430.925
3218.09193	2439.525
3220.38884	2447.125
3222.68438	2461.425
3224.97853	2445.825
3227.2713	2451.725
3229.56269	2449.025
3231.8527	2453.925
