Data from AgNPs_FTO_APTES_UA_1um_CRN_0.1mM_R6G_10uM_NaF_0.1M_Addition_RamanShift__25__12-03-19-016.txt Node

Date: Tue Dec 21 12:03:19 GMT 2021
User: TCL
Spectrometer: QEP01345
Trigger mode: 4
Integration Time (sec): 7.000000E0
Scans to average: 10
Electric dark correction enabled: true
Nonlinearity correction enabled: false
Boxcar width: 0
XAxis mode: Raman Shifts
Number of Pixels in Spectrum: 1044
>>>>>Begin Spectral Data<<<<<
46.04893	-0.925
50.45542	-0.925
54.85868	-0.225
59.25871	-0.025
63.6555	45.175
68.04907	50.775
72.43941	52.675
76.82654	55.475
81.21044	61.775
85.59113	61.375
89.96862	63.475
94.34289	63.075
98.71396	65.475
103.08183	71.075
107.4465	70.275
111.80798	73.075
116.16626	73.375
120.52136	78.075
124.87327	77.175
129.222	77.475
133.56755	87.875
137.90993	97.575
142.24913	97.475
146.58517	111.875
150.91804	130.875
155.24774	153.475
159.57429	185.475
163.89768	235.875
168.21792	317.975
172.53501	422.175
176.84895	581.775
181.15975	812.575
185.46741	1131.575
189.77193	1566.475
194.07331	2100.375
198.37157	2711.575
202.6667	3373.675
206.9587	4013.675
211.24758	4682.275
215.53334	5355.675
219.81599	6058.475
224.09553	6882.375
228.37195	7771.175
232.64527	8745.475
236.91549	9750.275
241.18261	10696.575
245.44663	11539.175
249.70755	12235.975
253.96539	12847.875
258.22014	13339.375
262.4718	13722.375
266.72039	13947.975
270.96589	14019.075
275.20832	13968.975
279.44768	13829.875
283.68397	13623.175
287.91719	13569.375
292.14735	13539.475
296.37445	13672.675
300.59849	13973.975
304.81948	14352.075
309.03742	14580.175
313.25231	14503.675
317.46415	13948.675
321.67296	13116.575
325.87872	12416.275
330.08145	12112.075
334.28114	12089.275
338.47781	12273.875
342.67145	12561.775
346.86207	12930.175
351.04966	13522.875
355.23424	14218.175
359.4158	14794.175
363.59435	15032.975
367.76989	15144.075
371.94243	15118.275
376.11196	15039.775
380.27849	14981.975
384.44203	14888.775
388.60257	14815.675
392.76012	14742.275
396.91468	14922.475
401.06626	15288.875
405.21485	15559.175
409.36047	15419.375
413.50311	14852.975
417.64277	14300.075
421.77947	14037.075
425.9132	13989.975
430.04396	14064.475
434.17176	14210.875
438.2966	14469.575
442.41849	14923.775
446.53742	15558.075
450.6534	16205.375
454.76644	16596.875
458.87653	16572.175
462.98368	16252.875
467.08789	15876.075
471.18916	15513.475
475.2875	15189.975
479.38291	14972.675
483.4754	14773.975
487.56496	14519.775
491.6516	14275.575
495.73531	14071.275
499.81612	14010.275
503.89401	14119.975
507.96899	14217.875
512.04106	14266.275
516.11023	14263.075
520.1765	14209.575
524.23987	14139.375
528.30034	14027.775
532.35792	13874.975
536.41261	13626.875
540.46441	13274.175
544.51333	13071.775
548.55936	13082.175
552.60252	13343.775
556.64279	13771.775
560.6802	14118.275
564.71473	14467.975
568.7464	15151.275
572.7752	15651.675
576.80114	15547.275
580.82422	15288.375
584.84444	15302.475
588.86181	15546.875
592.87633	16143.875
596.888	16632.075
600.89682	16812.375
604.9028	17584.175
608.90594	20485.675
612.90624	24390.575
616.90371	23212.575
620.89834	17083.375
624.89015	14093.575
628.87913	13637.275
632.86528	13739.775
636.84862	13801.575
640.82913	13594.475
644.80683	13015.175
648.78172	12535.875
652.75379	12484.375
656.72306	12821.675
660.68952	13287.075
664.65319	13292.375
668.61405	12893.275
672.57211	12774.275
676.52738	12780.075
680.47986	12755.675
684.42955	12574.675
688.37646	12398.475
692.32058	12357.675
696.26192	12448.975
700.20048	12633.275
704.13626	12788.875
708.06928	12755.775
711.99952	12587.875
715.927	12483.175
719.85171	12461.675
723.77365	12462.075
727.69284	12360.775
731.60928	12287.875
735.52295	12290.675
739.43388	12362.575
743.34206	12405.875
747.24749	12510.675
751.15017	12640.375
755.05012	12862.275
758.94733	13418.275
762.8418	14652.275
766.73354	16750.375
770.62254	18919.775
774.50882	19890.075
778.39237	19075.375
782.27321	16803.875
786.15132	14497.575
790.02671	13071.575
793.89938	12432.575
797.76935	12176.875
801.6366	12078.275
805.50115	12012.775
809.36299	11965.375
813.22213	11842.175
817.07857	11771.275
820.93231	11752.975
824.78336	11744.475
828.63172	11787.175
832.47738	11792.675
836.32036	11824.275
840.16066	11761.675
843.99827	11733.375
847.8332	11676.875
851.66546	11634.275
855.49504	11615.175
859.32195	11653.275
863.1462	11662.675
866.96777	11606.575
870.78668	11563.575
874.60293	11557.875
878.41652	11554.575
882.22745	11593.675
886.03573	11641.775
889.84136	11620.375
893.64433	11539.675
897.44466	11478.075
901.24235	11443.475
905.0374	11352.375
908.8298	11266.875
912.61957	11217.975
916.40671	11282.275
920.19121	11486.675
923.97308	11700.475
927.75233	11865.675
931.52895	11927.475
935.30295	11774.975
939.07433	11407.875
942.84309	11081.975
946.60924	10903.075
950.37278	10807.675
954.13371	10763.075
957.89203	10665.775
961.64774	10626.175
965.40086	10588.575
969.15137	10515.675
972.89929	10459.675
976.64461	10407.775
980.38733	10411.975
984.12747	10454.975
987.86502	10536.775
991.59999	10675.975
995.33237	10885.075
999.06217	11325.175
1002.78939	11850.575
1006.51404	12314.275
1010.23611	12598.075
1013.95561	12747.075
1017.67255	12651.075
1021.38692	12373.975
1025.09872	12007.175
1028.80796	11857.175
1032.51465	12017.875
1036.21877	12267.375
1039.92035	12377.975
1043.61937	12329.175
1047.31584	12164.275
1051.00976	11919.375
1054.70114	11773.775
1058.38998	11704.175
1062.07627	11712.675
1065.76003	11739.375
1069.44126	11829.075
1073.11995	12067.875
1076.79611	12238.475
1080.46974	12386.175
1084.14085	12613.775
1087.80943	12898.375
1091.47549	13095.275
1095.13903	12968.775
1098.80005	12571.175
1102.45857	12132.775
1106.11456	11935.775
1109.76805	11928.475
1113.41903	12133.275
1117.06751	12478.175
1120.71348	12931.775
1124.35696	13480.975
1127.99793	13905.675
1131.63641	13914.475
1135.2724	13453.075
1138.90589	12952.675
1142.5369	12663.175
1146.16542	12503.075
1149.79145	12407.975
1153.415	12433.375
1157.03607	12554.675
1160.65467	12844.275
1164.27079	13390.475
1167.88443	14294.875
1171.49561	15687.175
1175.10432	17641.175
1178.71056	20273.675
1182.31434	22514.075
1185.91565	23380.275
1189.51451	22887.175
1193.11091	21659.375
1196.70485	20120.475
1200.29634	18698.375
1203.88538	17511.975
1207.47197	16468.175
1211.05612	15638.475
1214.63782	15210.575
1218.21708	15206.175
1221.79391	15374.475
1225.36829	15483.075
1228.94024	15327.075
1232.50976	14945.675
1236.07685	14607.075
1239.6415	14393.775
1243.20374	14355.575
1246.76355	14384.475
1250.32093	14537.175
1253.8759	14928.075
1257.42845	15499.575
1260.97859	16073.475
1264.52631	16587.075
1268.07163	17208.975
1271.61453	17790.875
1275.15503	18324.575
1278.69312	18827.475
1282.22882	19266.775
1285.76211	19863.575
1289.29301	20658.975
1292.82151	21553.575
1296.34761	22686.075
1299.87133	24231.475
1303.39266	26357.975
1306.9116	29200.175
1310.42815	32267.575
1313.94233	34105.475
1317.45412	33753.275
1320.96354	32058.275
1324.47058	30039.075
1327.97525	28294.875
1331.47754	27007.675
1334.97747	26356.875
1338.47502	26283.675
1341.97022	26558.475
1345.46305	26741.775
1348.95352	27117.175
1352.44163	27923.175
1355.92738	29824.175
1359.41078	32822.475
1362.89183	35457.175
1366.37053	34678.875
1369.84688	30621.475
1373.32088	26105.375
1376.79254	22928.575
1380.26186	21212.675
1383.72883	20431.275
1387.19347	19867.175
1390.65578	19577.475
1394.11575	19572.875
1397.57339	20133.375
1401.0287	20889.075
1404.48168	21599.675
1407.93234	22059.075
1411.38068	22040.775
1414.82669	21552.675
1418.27039	20618.275
1421.71177	19487.475
1425.15083	18529.675
1428.58758	17978.275
1432.02203	17929.175
1435.45416	18150.075
1438.88399	18394.875
1442.31151	18630.275
1445.73673	18914.775
1449.15965	19218.475
1452.58027	19396.475
1455.9986	19362.775
1459.41463	19521.975
1462.82837	19981.475
1466.23982	20605.075
1469.64898	21212.475
1473.05586	21503.075
1476.46045	21560.675
1479.86276	21560.975
1483.26279	21489.575
1486.66054	21554.675
1490.05602	21874.175
1493.44922	22214.875
1496.84016	22575.475
1500.22882	23376.275
1503.61521	24903.475
1506.99934	26991.975
1510.38121	28775.975
1513.76081	29299.275
1517.13816	27888.075
1520.51324	25135.275
1523.88607	22589.475
1527.25665	20971.175
1530.62498	20149.775
1533.99105	19755.775
1537.35488	19618.975
1540.71647	19472.475
1544.07581	19329.475
1547.4329	19085.675
1550.78776	18801.275
1554.14038	18546.375
1557.49077	18438.875
1560.83892	18503.875
1564.18484	18718.375
1567.52853	18977.075
1570.86999	19217.075
1574.20922	19416.875
1577.54624	19419.575
1580.88103	18809.575
1584.2136	18165.875
1587.54395	18137.675
1590.87208	19118.175
1594.19801	20827.275
1597.52172	22984.475
1600.84321	24169.675
1604.16251	23581.475
1607.47959	21555.775
1610.79447	19008.075
1614.10715	16683.775
1617.41763	14967.175
1620.7259	13898.875
1624.03199	13395.875
1627.33587	13352.775
1630.63757	13749.275
1633.93707	14723.075
1637.23439	16335.075
1640.52951	18702.575
1643.82246	21769.675
1647.11321	24794.275
1650.40179	26258.075
1653.68819	24881.975
1656.97241	21241.675
1660.25446	17355.775
1663.53433	14490.075
1666.81203	12738.975
1670.08756	11720.475
1673.36092	11053.575
1676.63211	10673.675
1679.90115	10417.275
1683.16801	10186.075
1686.43272	10014.975
1689.69527	9910.475
1692.95567	9817.975
1696.2139	9781.275
1699.46999	9721.075
1702.72392	9707.075
1705.97571	9648.575
1709.22535	9625.375
1712.47284	9591.875
1715.71819	9597.775
1718.96139	9588.175
1722.20246	9551.775
1725.44139	9487.875
1728.67818	9441.975
1731.91284	9376.075
1735.14537	9314.575
1738.37576	9276.475
1741.60403	9231.275
1744.83017	9202.975
1748.05418	9211.175
1751.27607	9203.275
1754.49584	9153.475
1757.71349	9155.675
1760.92903	9123.375
1764.14244	9062.975
1767.35375	9055.075
1770.56294	9008.975
1773.77002	8952.475
1776.97499	8911.575
1780.17785	8881.675
1783.37861	8858.975
1786.57727	8844.375
1789.77382	8814.875
1792.96828	8780.275
1796.16064	8774.475
1799.3509	8735.275
1802.53907	8725.175
1805.72514	8701.575
1808.90913	8677.275
1812.09102	8645.475
1815.27083	8624.275
1818.44856	8608.575
1821.6242	8593.475
1824.79776	8574.875
1827.96924	8571.975
1831.13864	8550.175
1834.30597	8557.075
1837.47122	8530.775
1840.6344	8539.975
1843.7955	8528.375
1846.95454	8538.675
1850.11151	8540.275
1853.26642	8525.775
1856.41926	8519.575
1859.57004	8529.175
1862.71876	8548.375
1865.86542	8550.075
1869.01003	8521.775
1872.15258	8526.875
1875.29308	8531.775
1878.43152	8524.175
1881.56792	8541.575
1884.70227	8522.475
1887.83457	8540.075
1890.96482	8524.375
1894.09304	8523.775
1897.21921	8530.575
1900.34335	8523.775
1903.46544	8541.975
1906.58551	8519.775
1909.70353	8521.275
1912.81953	8519.775
1915.93349	8511.775
1919.04543	8473.975
1922.15534	8452.675
1925.26322	8438.575
1928.36908	8406.075
1931.47292	8360.875
1934.57473	8333.175
1937.67453	8300.975
1940.77232	8264.875
1943.86808	8234.275
1946.96184	8233.575
1950.05358	8178.675
1953.14331	8144.675
1956.23103	8087.875
1959.31675	8084.475
1962.40046	8059.375
1965.48217	8009.775
1968.56188	8006.375
1971.63959	7980.175
1974.7153	7959.675
1977.78901	7927.375
1980.86073	7881.175
1983.93046	7871.875
1986.99819	7861.775
1990.06394	7809.575
1993.1277	7788.575
1996.18947	7760.875
1999.24925	7750.875
2002.30706	7727.775
2005.36288	7687.875
2008.41672	7659.775
2011.46859	7621.275
2014.51848	7630.475
2017.56639	7573.475
2020.61233	7571.075
2023.6563	7550.775
2026.6983	7553.175
2029.73833	7539.075
2032.7764	7497.775
2035.8125	7496.775
2038.84664	7495.775
2041.87881	7469.575
2044.90903	7457.375
2047.93729	7428.875
2050.96359	7465.475
2053.98794	7410.975
2057.01034	7390.775
2060.03078	7398.675
2063.04927	7404.975
2066.06582	7379.075
2069.08042	7376.275
2072.09307	7360.075
2075.10378	7349.875
2078.11255	7362.675
2081.11938	7344.075
2084.12426	7327.075
2087.12722	7323.975
2090.12824	7318.975
2093.12732	7319.875
2096.12447	7326.975
2099.11969	7314.275
2102.11299	7304.675
2105.10435	7317.575
2108.09379	7318.975
2111.08131	7309.075
2114.0669	7324.075
2117.05057	7316.875
2120.03233	7330.675
2123.01216	7300.075
2125.99008	7321.275
2128.96609	7310.175
2131.94018	7307.475
2134.91236	7327.875
2137.88263	7318.375
2140.851	7326.775
2143.81746	7308.275
2146.78201	7318.575
2149.74466	7304.675
2152.7054	7296.875
2155.66425	7285.075
2158.6212	7314.875
2161.57625	7313.175
2164.52941	7278.275
2167.48067	7280.875
2170.43004	7285.275
2173.37752	7262.075
2176.32311	7271.475
2179.26681	7256.375
2182.20863	7272.375
2185.14856	7280.075
2188.08661	7284.775
2191.02278	7288.375
2193.95707	7262.475
2196.88948	7266.275
2199.82001	7270.875
2202.74867	7255.575
2205.67545	7249.175
2208.60037	7240.075
2211.52341	7228.675
2214.44458	7223.575
2217.36388	7184.675
2220.28132	7179.075
2223.1969	7156.475
2226.11061	7164.575
2229.02246	7146.175
2231.93245	7125.975
2234.84058	7133.575
2237.74686	7116.375
2240.65128	7096.975
2243.55385	7088.475
2246.45456	7084.275
2249.35343	7062.575
2252.25044	7053.175
2255.14561	7027.175
2258.03893	7040.475
2260.93041	7035.475
2263.82004	7024.475
2266.70783	6987.375
2269.59378	6968.175
2272.4779	6949.375
2275.36017	6930.875
2278.24061	6909.775
2281.11922	6884.875
2283.996	6867.275
2286.87094	6878.875
2289.74405	6843.075
2292.61534	6857.375
2295.4848	6853.775
2298.35243	6829.275
2301.21824	6818.075
2304.08223	6844.975
2306.94439	6829.375
2309.80474	6848.075
2312.66327	6821.175
2315.51999	6835.675
2318.37489	6827.675
2321.22797	6800.575
2324.07925	6803.675
2326.92871	6787.775
2329.77637	6804.275
2332.62222	6800.775
2335.46626	6782.775
2338.3085	6804.175
2341.14893	6801.675
2343.98756	6803.575
2346.8244	6810.075
2349.65943	6792.575
2352.49267	6797.275
2355.32411	6811.975
2358.15376	6803.375
2360.98161	6806.975
2363.80768	6800.775
2366.63195	6786.475
2369.45444	6775.775
2372.27514	6770.575
2375.09405	6760.675
2377.91118	6744.675
2380.72652	6712.375
2383.54009	6692.575
2386.35187	6679.675
2389.16188	6648.875
2391.97011	6656.775
2394.77657	6638.575
2397.58125	6620.875
2400.38416	6609.975
2403.18529	6602.675
2405.98466	6580.975
2408.78226	6557.275
2411.57809	6549.675
2414.37216	6555.975
2417.16446	6532.775
2419.955	6530.675
2422.74378	6500.175
2425.5308	6512.375
2428.31606	6501.075
2431.09956	6505.775
2433.88131	6492.375
2436.6613	6484.675
2439.43954	6487.775
2442.21603	6474.475
2444.99077	6477.575
2447.76377	6478.175
2450.53501	6479.775
2453.30451	6480.375
2456.07226	6495.375
2458.83827	6472.475
2461.60254	6472.575
2464.36507	6482.875
2467.12586	6493.275
2469.88492	6484.075
2472.64224	6468.975
2475.39782	6497.675
2478.15167	6498.475
2480.90379	6504.475
2483.65417	6523.675
2486.40283	6523.275
2489.14976	6531.675
2491.89497	6532.275
2494.63845	6548.675
2497.3802	6536.775
2500.12024	6522.675
2502.85855	6528.975
2505.59514	6520.475
2508.33002	6500.275
2511.06318	6489.275
2513.79462	6473.275
2516.52435	6455.575
2519.25237	6451.275
2521.97867	6430.675
2524.70327	6413.575
2527.42616	6418.575
2530.14734	6401.575
2532.86681	6386.675
2535.58458	6388.375
2538.30065	6369.675
2541.01501	6377.075
2543.72768	6370.775
2546.43864	6367.375
2549.14791	6364.075
2551.85548	6352.575
2554.56136	6369.475
2557.26554	6347.975
2559.96803	6355.375
2562.66883	6340.075
2565.36794	6339.875
2568.06536	6343.175
2570.7611	6326.075
2573.45514	6318.275
2576.14751	6330.575
2578.83819	6319.475
2581.52719	6328.275
2584.21451	6312.975
2586.90015	6289.375
2589.58411	6298.475
2592.2664	6295.775
2594.94701	6288.275
2597.62594	6295.775
2600.30321	6290.275
2602.9788	6287.875
2605.65273	6268.375
2608.32498	6286.575
2610.99557	6284.475
2613.66449	6286.175
2616.33175	6274.975
2618.99734	6290.575
2621.66128	6284.675
2624.32355	6296.675
2626.98416	6300.575
2629.64311	6261.175
2632.30041	6259.875
2634.95605	6285.475
2637.61004	6250.775
2640.26238	6275.375
2642.91306	6236.275
2645.56209	6244.575
2648.20948	6246.975
2650.85521	6233.275
2653.4993	6235.775
2656.14175	6236.675
2658.78255	6247.375
2661.42171	6243.975
2664.05923	6257.075
2666.6951	6262.975
2669.32934	6262.775
2671.96194	6265.575
2674.59291	6276.075
2677.22224	6269.275
2679.84993	6278.375
2682.476	6259.575
2685.10043	6257.575
2687.72324	6244.575
2690.34441	6245.975
2692.96396	6228.775
2695.58188	6217.375
2698.19818	6225.475
2700.81285	6245.675
2703.4259	6260.575
2706.03733	6315.575
2708.64714	6274.475
2711.25533	6275.675
2713.86191	6257.175
2716.46687	6273.475
2719.07021	6257.375
2721.67194	6275.375
2724.27206	6280.875
2726.87057	6278.675
2729.46747	6252.775
2732.06276	6271.175
2734.65644	6273.275
2737.24852	6254.175
2739.83899	6271.575
2742.42786	6253.175
2745.01513	6250.975
2747.60079	6258.375
2750.18486	6244.375
2752.76733	6231.775
2755.3482	6231.275
2757.92747	6247.975
2760.50515	6247.375
2763.08123	6241.275
2765.65573	6227.875
2768.22863	6248.375
2770.79994	6235.175
2773.36967	6244.575
2775.9378	6253.675
2778.50435	6251.775
2781.06932	6233.975
2783.6327	6246.175
2786.1945	6241.975
2788.75471	6244.175
2791.31335	6240.775
2793.87041	6220.775
2796.42589	6211.975
2798.97979	6195.275
2801.53212	6197.375
2804.08288	6204.675
2806.63206	6191.975
2809.17967	6185.975
2811.72571	6189.975
2814.27018	6183.275
2816.81308	6195.275
2819.35442	6183.175
2821.89419	6211.775
2824.43239	6200.875
2826.96904	6198.275
2829.50412	6195.575
2832.03763	6174.975
2834.56959	6187.775
2837.1	6171.575
2839.62884	6198.075
2842.15613	6178.775
2844.68186	6199.675
2847.20604	6239.075
2849.72867	6234.875
2852.24974	6255.375
2854.76927	6246.775
2857.28724	6235.775
2859.80367	6230.375
2862.31855	6215.975
2864.83189	6194.375
2867.34368	6224.675
2869.85393	6222.675
2872.36264	6210.475
2874.8698	6204.675
2877.37543	6220.875
2879.87952	6214.875
2882.38207	6228.475
2884.88308	6226.675
2887.38256	6225.175
2889.88051	6236.075
2892.37692	6218.675
2894.8718	6240.475
2897.36515	6265.275
2899.85698	6258.275
2902.34727	6264.975
2904.83604	6256.475
2907.32328	6289.275
2909.809	6270.275
2912.29319	6280.875
2914.77587	6287.275
2917.25702	6289.775
2919.73665	6294.875
2922.21476	6286.475
2924.69136	6267.875
2927.16644	6260.975
2929.64	6251.775
2932.11205	6249.975
2934.58258	6223.375
2937.05161	6230.275
2939.51912	6227.375
2941.98513	6208.875
2944.44962	6178.775
2946.91261	6160.675
2949.37409	6145.675
2951.83407	6146.375
2954.29254	6129.275
2956.74951	6097.275
2959.20498	6095.275
2961.65895	6068.775
2964.11142	6044.375
2966.56239	6009.275
2969.01186	6007.275
2971.45984	5973.075
2973.90632	5943.875
2976.35131	5936.675
2978.7948	5911.675
2981.23681	5888.375
2983.67732	5878.475
2986.11635	5866.075
2988.55388	5831.475
2990.98993	5817.775
2993.4245	5812.475
2995.85758	5799.375
2998.28917	5775.075
3000.71928	5775.075
3003.14791	5777.375
3005.57506	5763.475
3008.00073	5754.775
3010.42493	5758.875
3012.84764	5732.475
3015.26888	5740.175
3017.68865	5723.875
3020.10694	5698.875
3022.52376	5692.875
3024.9391	5663.475
3027.35298	5644.675
3029.76539	5628.275
3032.17632	5634.875
3034.5858	5620.875
3036.9938	5622.475
3039.40034	5607.075
3041.80542	5605.675
3044.20903	5573.375
3046.61118	5577.075
3049.01187	5561.775
3051.4111	5560.775
3053.80888	5534.975
3056.20519	5522.275
3058.60005	5527.275
3060.99345	5496.875
3063.3854	5470.875
3065.7759	5473.075
3068.16494	5447.275
3070.55254	5430.475
3072.93868	5415.975
3075.32338	5406.275
3077.70662	5395.275
3080.08842	5388.375
3082.46878	5376.975
3084.84769	5343.675
3087.22515	5352.775
3089.60118	5367.175
3091.97576	5360.075
3094.3489	5352.175
3096.72061	5357.975
3099.09087	5359.475
3101.4597	5350.175
3103.82709	5336.975
3106.19305	5323.675
3108.55757	5314.875
3110.92066	5284.675
3113.28232	5281.975
3115.64255	5290.675
3118.00134	5280.475
3120.35871	5254.475
3122.71466	5234.275
3125.06917	5245.275
3127.42226	5223.175
3129.77393	5238.975
3132.12417	5241.875
3134.47299	5236.875
3136.82039	5237.275
3139.16636	5229.875
3141.51092	5238.575
3143.85406	5230.675
3146.19579	5254.075
3148.53609	5246.975
3150.87499	5229.375
3153.21246	5215.075
3155.54853	5245.975
3157.88318	5237.875
3160.21642	5244.375
3162.54826	5221.675
3164.87868	5229.775
3167.2077	5232.875
3169.5353	5244.175
3171.86151	5217.575
3174.18631	5212.375
3176.5097	5219.675
3178.83169	5216.275
3181.15228	5232.675
3183.47147	5223.475
3185.78926	5214.575
3188.10565	5211.275
3190.42065	5235.175
