Data from AgNPs_FTO_APTES_UA_1um_CRN_0.1mM_R6G_10uM_NaF_0.1M_Addition_RamanShift__31__12-10-19-024.txt Node

Date: Tue Dec 21 12:10:19 GMT 2021
User: TCL
Spectrometer: QEP01345
Trigger mode: 4
Integration Time (sec): 7.000000E0
Scans to average: 10
Electric dark correction enabled: true
Nonlinearity correction enabled: false
Boxcar width: 0
XAxis mode: Raman Shifts
Number of Pixels in Spectrum: 1044
>>>>>Begin Spectral Data<<<<<
46.04893	-0.3625
50.45542	-0.0625
54.85868	-0.8625
59.25871	0.0375
63.6555	25.4375
68.04907	35.2375
72.43941	36.8375
76.82654	37.6375
81.21044	43.9375
85.59113	44.4375
89.96862	45.7375
94.34289	46.9375
98.71396	47.8375
103.08183	52.0375
107.4465	54.8375
111.80798	52.5375
116.16626	53.4375
120.52136	54.9375
124.87327	53.5375
129.222	54.5375
133.56755	57.2375
137.90993	61.2375
142.24913	60.5375
146.58517	67.0375
150.91804	76.7375
155.24774	90.0375
159.57429	103.7375
163.89768	133.4375
168.21792	166.2375
172.53501	220.4375
176.84895	303.8375
181.15975	422.5375
185.46741	577.4375
189.77193	799.0375
194.07331	1068.9375
198.37157	1371.8375
202.6667	1707.1375
206.9587	2026.0375
211.24758	2352.1375
215.53334	2698.0375
219.81599	3079.1375
224.09553	3524.6375
228.37195	4027.0375
232.64527	4542.6375
236.91549	5067.6375
241.18261	5549.3375
245.44663	5913.3375
249.70755	6233.8375
253.96539	6472.5375
258.22014	6604.0375
262.4718	6705.1375
266.72039	6719.0375
270.96589	6707.5375
275.20832	6645.6375
279.44768	6524.5375
283.68397	6413.9375
287.91719	6367.0375
292.14735	6411.9375
296.37445	6613.2375
300.59849	6938.9375
304.81948	7380.1375
309.03742	7734.2375
313.25231	7793.5375
317.46415	7362.4375
321.67296	6622.4375
325.87872	5969.5375
330.08145	5672.2375
334.28114	5636.8375
338.47781	5780.9375
342.67145	5994.8375
346.86207	6335.2375
351.04966	6859.2375
355.23424	7488.9375
359.4158	7914.9375
363.59435	8094.6375
367.76989	8061.0375
371.94243	7937.5375
376.11196	7779.4375
380.27849	7639.6375
384.44203	7476.3375
388.60257	7281.5375
392.76012	7210.3375
396.91468	7307.3375
401.06626	7585.3375
405.21485	7806.4375
409.36047	7635.4375
413.50311	7084.8375
417.64277	6563.8375
421.77947	6256.2375
425.9132	6110.3375
430.04396	6093.0375
434.17176	6114.3375
438.2966	6212.8375
442.41849	6445.6375
446.53742	6715.9375
450.6534	6980.4375
454.76644	7086.9375
458.87653	7056.9375
462.98368	6888.7375
467.08789	6719.5375
471.18916	6510.7375
475.2875	6287.2375
479.38291	6119.1375
483.4754	5958.3375
487.56496	5851.0375
491.6516	5769.9375
495.73531	5753.4375
499.81612	5796.2375
503.89401	5874.4375
507.96899	5991.9375
512.04106	6092.9375
516.11023	6211.1375
520.1765	6310.5375
524.23987	6303.5375
528.30034	6141.2375
532.35792	5975.4375
536.41261	5762.8375
540.46441	5504.4375
544.51333	5372.2375
548.55936	5355.4375
552.60252	5519.6375
556.64279	5735.6375
560.6802	5887.3375
564.71473	6119.4375
568.7464	6565.9375
572.7752	6908.7375
576.80114	6672.2375
580.82422	6358.3375
584.84444	6217.9375
588.86181	6190.7375
592.87633	6189.9375
596.888	6316.8375
600.89682	6606.8375
604.9028	7532.3375
608.90594	10175.2375
612.90624	13890.8375
616.90371	13609.7375
620.89834	8711.8375
624.89015	6172.1375
628.87913	5701.6375
632.86528	5770.2375
636.84862	5904.4375
640.82913	5772.8375
644.80683	5375.8375
648.78172	5121.5375
652.75379	5155.2375
656.72306	5522.5375
660.68952	5962.7375
664.65319	5910.6375
668.61405	5439.9375
672.57211	5188.4375
676.52738	5200.2375
680.47986	5204.7375
684.42955	5109.8375
688.37646	5038.7375
692.32058	5070.6375
696.26192	5124.2375
700.20048	5253.6375
704.13626	5370.6375
708.06928	5384.4375
711.99952	5280.7375
715.927	5191.0375
719.85171	5178.4375
723.77365	5156.8375
727.69284	5058.8375
731.60928	4979.2375
735.52295	4996.6375
739.43388	5025.7375
743.34206	5069.0375
747.24749	5112.5375
751.15017	5163.2375
755.05012	5355.2375
758.94733	5784.2375
762.8418	6737.4375
766.73354	8302.7375
770.62254	9897.4375
774.50882	10770.9375
778.39237	10489.2375
782.27321	8894.3375
786.15132	6990.4375
790.02671	5853.0375
793.89938	5349.9375
797.76935	5153.5375
801.6366	5090.9375
805.50115	5020.6375
809.36299	4983.7375
813.22213	4927.0375
817.07857	4913.6375
820.93231	4907.4375
824.78336	4919.4375
828.63172	4977.9375
832.47738	4987.2375
836.32036	4953.3375
840.16066	4899.7375
843.99827	4851.2375
847.8332	4818.7375
851.66546	4802.2375
855.49504	4817.0375
859.32195	4809.6375
863.1462	4745.3375
866.96777	4721.2375
870.78668	4701.4375
874.60293	4711.8375
878.41652	4731.2375
882.22745	4787.7375
886.03573	4840.7375
889.84136	4801.3375
893.64433	4750.0375
897.44466	4737.6375
901.24235	4737.3375
905.0374	4703.1375
908.8298	4668.9375
912.61957	4618.5375
916.40671	4648.3375
920.19121	4712.9375
923.97308	4837.4375
927.75233	4960.6375
931.52895	5029.7375
935.30295	4954.8375
939.07433	4682.2375
942.84309	4449.0375
946.60924	4309.4375
950.37278	4251.2375
954.13371	4203.4375
957.89203	4190.5375
961.64774	4159.2375
965.40086	4143.8375
969.15137	4139.8375
972.89929	4105.1375
976.64461	4095.0375
980.38733	4102.5375
984.12747	4102.3375
987.86502	4104.0375
991.59999	4158.8375
995.33237	4201.5375
999.06217	4310.8375
1002.78939	4478.8375
1006.51404	4679.7375
1010.23611	4811.6375
1013.95561	4922.3375
1017.67255	4875.5375
1021.38692	4746.0375
1025.09872	4599.3375
1028.80796	4501.6375
1032.51465	4526.4375
1036.21877	4645.4375
1039.92035	4787.3375
1043.61937	4865.3375
1047.31584	4852.2375
1051.00976	4831.2375
1054.70114	4778.5375
1058.38998	4735.7375
1062.07627	4722.7375
1065.76003	4744.2375
1069.44126	4806.8375
1073.11995	4951.1375
1076.79611	5091.9375
1080.46974	5233.4375
1084.14085	5429.9375
1087.80943	5662.2375
1091.47549	5719.9375
1095.13903	5540.1375
1098.80005	5223.9375
1102.45857	4925.8375
1106.11456	4805.6375
1109.76805	4844.9375
1113.41903	5011.3375
1117.06751	5295.3375
1120.71348	5721.9375
1124.35696	6207.5375
1127.99793	6605.8375
1131.63641	6464.6375
1135.2724	5949.5375
1138.90589	5487.9375
1142.5369	5212.9375
1146.16542	5048.4375
1149.79145	4966.6375
1153.415	4967.9375
1157.03607	5020.9375
1160.65467	5164.1375
1164.27079	5439.5375
1167.88443	5885.3375
1171.49561	6628.3375
1175.10432	7889.1375
1178.71056	9487.7375
1182.31434	10585.6375
1185.91565	10692.3375
1189.51451	10288.9375
1193.11091	9552.7375
1196.70485	8679.6375
1200.29634	7991.0375
1203.88538	7357.5375
1207.47197	6639.4375
1211.05612	6067.0375
1214.63782	5752.2375
1218.21708	5650.7375
1221.79391	5660.6375
1225.36829	5727.5375
1228.94024	5763.3375
1232.50976	5746.9375
1236.07685	5748.5375
1239.6415	5728.8375
1243.20374	5740.1375
1246.76355	5777.7375
1250.32093	5826.9375
1253.8759	5998.0375
1257.42845	6256.5375
1260.97859	6565.8375
1264.52631	6897.6375
1268.07163	7212.8375
1271.61453	7492.6375
1275.15503	7659.1375
1278.69312	7709.7375
1282.22882	7829.0375
1285.76211	8070.8375
1289.29301	8439.1375
1292.82151	8857.4375
1296.34761	9272.6375
1299.87133	9901.7375
1303.39266	10963.7375
1306.9116	12598.0375
1310.42815	14433.5375
1313.94233	15422.7375
1317.45412	14956.8375
1320.96354	13583.7375
1324.47058	12120.9375
1327.97525	10905.9375
1331.47754	10179.2375
1334.97747	9890.2375
1338.47502	9892.2375
1341.97022	10205.5375
1345.46305	10711.7375
1348.95352	11527.4375
1352.44163	12666.1375
1355.92738	14387.6375
1359.41078	16856.7375
1362.89183	18889.8375
1366.37053	18167.3375
1369.84688	15374.1375
1373.32088	12569.9375
1376.79254	10563.4375
1380.26186	9354.6375
1383.72883	8624.9375
1387.19347	8083.8375
1390.65578	7661.1375
1394.11575	7392.0375
1397.57339	7323.1375
1401.0287	7415.5375
1404.48168	7508.7375
1407.93234	7573.1375
1411.38068	7579.0375
1414.82669	7478.0375
1418.27039	7287.7375
1421.71177	7057.5375
1425.15083	6859.5375
1428.58758	6785.8375
1432.02203	6827.0375
1435.45416	6895.0375
1438.88399	6922.9375
1442.31151	6899.1375
1445.73673	6924.3375
1449.15965	6948.8375
1452.58027	6896.7375
1455.9986	6802.6375
1459.41463	6830.3375
1462.82837	6935.1375
1466.23982	7174.0375
1469.64898	7363.4375
1473.05586	7497.4375
1476.46045	7614.4375
1479.86276	7766.4375
1483.26279	7942.2375
1486.66054	8193.9375
1490.05602	8560.5375
1493.44922	9111.5375
1496.84016	9886.1375
1500.22882	11176.5375
1503.61521	12989.4375
1506.99934	14912.8375
1510.38121	16607.3375
1513.76081	17316.7375
1517.13816	16246.2375
1520.51324	13761.5375
1523.88607	11328.8375
1527.25665	9752.0375
1530.62498	8914.6375
1533.99105	8444.9375
1537.35488	8195.4375
1540.71647	8024.2375
1544.07581	7930.5375
1547.4329	7857.9375
1550.78776	7758.2375
1554.14038	7687.4375
1557.49077	7691.1375
1560.83892	7794.7375
1564.18484	8106.0375
1567.52853	8507.3375
1570.86999	8879.4375
1574.20922	9089.5375
1577.54624	9056.1375
1580.88103	8415.3375
1584.2136	7583.4375
1587.54395	7119.5375
1590.87208	7222.3375
1594.19801	7800.0375
1597.52172	8612.0375
1600.84321	9077.4375
1604.16251	8760.3375
1607.47959	7979.7375
1610.79447	7092.1375
1614.10715	6244.8375
1617.41763	5633.4375
1620.7259	5296.0375
1624.03199	5146.7375
1627.33587	5123.1375
1630.63757	5283.0375
1633.93707	5598.9375
1637.23439	6192.8375
1640.52951	7106.0375
1643.82246	8477.9375
1647.11321	10081.2375
1650.40179	11290.5375
1653.68819	11122.5375
1656.97241	9442.3375
1660.25446	7455.4375
1663.53433	5992.7375
1666.81203	5143.9375
1670.08756	4662.4375
1673.36092	4375.4375
1676.63211	4189.1375
1679.90115	4064.4375
1683.16801	3961.2375
1686.43272	3889.1375
1689.69527	3840.4375
1692.95567	3797.8375
1696.2139	3780.3375
1699.46999	3766.6375
1702.72392	3770.4375
1705.97571	3725.4375
1709.22535	3711.1375
1712.47284	3723.3375
1715.71819	3730.7375
1718.96139	3739.8375
1722.20246	3750.9375
1725.44139	3725.5375
1728.67818	3675.5375
1731.91284	3616.9375
1735.14537	3565.3375
1738.37576	3523.7375
1741.60403	3497.9375
1744.83017	3465.2375
1748.05418	3465.2375
1751.27607	3447.4375
1754.49584	3436.3375
1757.71349	3419.9375
1760.92903	3408.8375
1764.14244	3385.0375
1767.35375	3358.4375
1770.56294	3342.6375
1773.77002	3295.5375
1776.97499	3277.4375
1780.17785	3236.6375
1783.37861	3209.8375
1786.57727	3195.7375
1789.77382	3186.1375
1792.96828	3187.1375
1796.16064	3169.5375
1799.3509	3147.9375
1802.53907	3137.9375
1805.72514	3128.5375
1808.90913	3106.1375
1812.09102	3093.8375
1815.27083	3084.6375
1818.44856	3073.7375
1821.6242	3060.7375
1824.79776	3042.7375
1827.96924	3051.7375
1831.13864	3043.8375
1834.30597	3032.0375
1837.47122	3029.0375
1840.6344	3021.9375
1843.7955	3008.0375
1846.95454	3004.2375
1850.11151	3020.8375
1853.26642	3005.3375
1856.41926	3006.9375
1859.57004	3013.3375
1862.71876	2995.7375
1865.86542	3006.5375
1869.01003	2997.1375
1872.15258	3001.0375
1875.29308	3005.2375
1878.43152	3004.7375
1881.56792	3004.0375
1884.70227	2999.0375
1887.83457	3008.4375
1890.96482	2999.0375
1894.09304	2986.9375
1897.21921	2996.8375
1900.34335	2984.7375
1903.46544	2997.5375
1906.58551	3000.7375
1909.70353	2995.1375
1912.81953	2992.7375
1915.93349	2986.9375
1919.04543	2984.7375
1922.15534	2976.1375
1925.26322	2968.9375
1928.36908	2953.7375
1931.47292	2938.4375
1934.57473	2933.4375
1937.67453	2908.4375
1940.77232	2897.1375
1943.86808	2873.9375
1946.96184	2862.4375
1950.05358	2847.2375
1953.14331	2827.5375
1956.23103	2818.0375
1959.31675	2818.0375
1962.40046	2802.9375
1965.48217	2793.3375
1968.56188	2784.6375
1971.63959	2782.1375
1974.7153	2770.8375
1977.78901	2769.5375
1980.86073	2740.0375
1983.93046	2733.5375
1986.99819	2722.5375
1990.06394	2707.6375
1993.1277	2691.7375
1996.18947	2683.8375
1999.24925	2679.2375
2002.30706	2660.8375
2005.36288	2647.7375
2008.41672	2654.3375
2011.46859	2633.9375
2014.51848	2615.3375
2017.56639	2620.6375
2020.61233	2605.0375
2023.6563	2596.5375
2026.6983	2595.3375
2029.73833	2591.9375
2032.7764	2572.2375
2035.8125	2571.8375
2038.84664	2569.8375
2041.87881	2558.5375
2044.90903	2547.9375
2047.93729	2543.6375
2050.96359	2546.0375
2053.98794	2537.6375
2057.01034	2530.1375
2060.03078	2529.8375
2063.04927	2511.8375
2066.06582	2515.2375
2069.08042	2504.4375
2072.09307	2509.9375
2075.10378	2497.8375
2078.11255	2506.5375
2081.11938	2504.9375
2084.12426	2498.9375
2087.12722	2498.2375
2090.12824	2496.7375
2093.12732	2492.7375
2096.12447	2492.7375
2099.11969	2497.4375
2102.11299	2483.6375
2105.10435	2488.2375
2108.09379	2493.7375
2111.08131	2496.3375
2114.0669	2487.2375
2117.05057	2483.8375
2120.03233	2491.7375
2123.01216	2492.1375
2125.99008	2488.2375
2128.96609	2497.3375
2131.94018	2497.0375
2134.91236	2488.9375
2137.88263	2493.1375
2140.851	2481.1375
2143.81746	2484.4375
2146.78201	2488.8375
2149.74466	2485.1375
2152.7054	2468.0375
2155.66425	2467.4375
2158.6212	2457.4375
2161.57625	2467.1375
2164.52941	2457.6375
2167.48067	2462.1375
2170.43004	2454.4375
2173.37752	2459.8375
2176.32311	2449.4375
2179.26681	2450.0375
2182.20863	2446.6375
2185.14856	2446.0375
2188.08661	2448.7375
2191.02278	2436.2375
2193.95707	2446.0375
2196.88948	2423.3375
2199.82001	2430.0375
2202.74867	2410.2375
2205.67545	2423.8375
2208.60037	2427.1375
2211.52341	2417.5375
2214.44458	2402.1375
2217.36388	2389.9375
2220.28132	2388.4375
2223.1969	2380.8375
2226.11061	2382.3375
2229.02246	2370.3375
2231.93245	2361.8375
2234.84058	2371.6375
2237.74686	2359.2375
2240.65128	2353.8375
2243.55385	2356.4375
2246.45456	2359.7375
2249.35343	2342.4375
2252.25044	2351.6375
2255.14561	2341.2375
2258.03893	2345.3375
2260.93041	2357.0375
2263.82004	2350.3375
2266.70783	2329.5375
2269.59378	2321.2375
2272.4779	2315.8375
2275.36017	2313.8375
2278.24061	2306.6375
2281.11922	2301.1375
2283.996	2291.3375
2286.87094	2297.0375
2289.74405	2276.5375
2292.61534	2275.9375
2295.4848	2266.8375
2298.35243	2264.9375
2301.21824	2252.7375
2304.08223	2255.5375
2306.94439	2244.9375
2309.80474	2245.1375
2312.66327	2239.8375
2315.51999	2252.6375
2318.37489	2236.6375
2321.22797	2241.9375
2324.07925	2235.5375
2326.92871	2234.1375
2329.77637	2232.2375
2332.62222	2225.2375
2335.46626	2227.4375
2338.3085	2224.9375
2341.14893	2236.7375
2343.98756	2217.8375
2346.8244	2223.8375
2349.65943	2223.6375
2352.49267	2233.2375
2355.32411	2233.7375
2358.15376	2234.5375
2360.98161	2242.9375
2363.80768	2248.3375
2366.63195	2255.3375
2369.45444	2253.1375
2372.27514	2272.1375
2375.09405	2255.5375
2377.91118	2245.2375
2380.72652	2229.5375
2383.54009	2214.9375
2386.35187	2214.0375
2389.16188	2190.3375
2391.97011	2185.1375
2394.77657	2180.9375
2397.58125	2170.2375
2400.38416	2158.7375
2403.18529	2159.6375
2405.98466	2156.7375
2408.78226	2141.1375
2411.57809	2133.2375
2414.37216	2132.3375
2417.16446	2131.7375
2419.955	2130.4375
2422.74378	2125.5375
2425.5308	2114.5375
2428.31606	2131.2375
2431.09956	2121.4375
2433.88131	2118.9375
2436.6613	2124.4375
2439.43954	2131.0375
2442.21603	2114.7375
2444.99077	2125.0375
2447.76377	2120.2375
2450.53501	2122.9375
2453.30451	2135.6375
2456.07226	2134.2375
2458.83827	2132.6375
2461.60254	2129.1375
2464.36507	2127.0375
2467.12586	2123.5375
2469.88492	2123.9375
2472.64224	2118.9375
2475.39782	2126.4375
2478.15167	2138.3375
2480.90379	2141.1375
2483.65417	2150.1375
2486.40283	2151.8375
2489.14976	2150.3375
2491.89497	2164.5375
2494.63845	2178.7375
2497.3802	2169.5375
2500.12024	2163.9375
2502.85855	2166.6375
2505.59514	2141.1375
2508.33002	2139.1375
2511.06318	2115.2375
2513.79462	2105.1375
2516.52435	2089.2375
2519.25237	2081.3375
2521.97867	2061.0375
2524.70327	2060.9375
2527.42616	2061.8375
2530.14734	2059.0375
2532.86681	2053.2375
2535.58458	2047.7375
2538.30065	2037.4375
2541.01501	2048.9375
2543.72768	2056.6375
2546.43864	2046.7375
2549.14791	2059.7375
2551.85548	2050.8375
2554.56136	2051.6375
2557.26554	2050.3375
2559.96803	2051.2375
2562.66883	2047.9375
2565.36794	2056.1375
2568.06536	2045.1375
2570.7611	2037.5375
2573.45514	2034.8375
2576.14751	2029.4375
2578.83819	2035.0375
2581.52719	2041.8375
2584.21451	2026.3375
2586.90015	2017.4375
2589.58411	2012.4375
2592.2664	2010.2375
2594.94701	2013.3375
2597.62594	2017.5375
2600.30321	2011.6375
2602.9788	2006.0375
2605.65273	2002.3375
2608.32498	2005.5375
2610.99557	2002.5375
2613.66449	2004.3375
2616.33175	2002.0375
2618.99734	2015.5375
2621.66128	1999.8375
2624.32355	2000.0375
2626.98416	1992.3375
2629.64311	1985.3375
2632.30041	1991.2375
2634.95605	1985.9375
2637.61004	1976.7375
2640.26238	1980.8375
2642.91306	1975.9375
2645.56209	1963.0375
2648.20948	1973.2375
2650.85521	1966.2375
2653.4993	1971.1375
2656.14175	1972.8375
2658.78255	1967.0375
2661.42171	1974.7375
2664.05923	1986.1375
2666.6951	1986.9375
2669.32934	1995.1375
2671.96194	1988.2375
2674.59291	2004.8375
2677.22224	2006.6375
2679.84993	2002.3375
2682.476	1998.2375
2685.10043	2011.2375
2687.72324	2001.5375
2690.34441	2002.3375
2692.96396	2007.0375
2695.58188	2010.3375
2698.19818	2013.2375
2700.81285	2018.4375
2703.4259	2035.9375
2706.03733	2098.7375
2708.64714	2074.6375
2711.25533	2053.0375
2713.86191	2057.7375
2716.46687	2053.0375
2719.07021	2050.8375
2721.67194	2057.9375
2724.27206	2052.5375
2726.87057	2045.4375
2729.46747	2044.9375
2732.06276	2051.7375
2734.65644	2043.1375
2737.24852	2034.8375
2739.83899	2021.2375
2742.42786	2019.2375
2745.01513	2014.5375
2747.60079	2011.3375
2750.18486	2005.0375
2752.76733	2004.3375
2755.3482	1999.5375
2757.92747	2011.3375
2760.50515	2005.1375
2763.08123	2013.6375
2765.65573	1990.9375
2768.22863	2010.6375
2770.79994	2008.0375
2773.36967	2020.5375
2775.9378	2018.1375
2778.50435	2024.8375
2781.06932	2034.1375
2783.6327	2040.4375
2786.1945	2039.9375
2788.75471	2060.2375
2791.31335	2064.2375
2793.87041	2085.7375
2796.42589	2069.3375
2798.97979	2090.7375
2801.53212	2087.2375
2804.08288	2115.9375
2806.63206	2129.4375
2809.17967	2129.0375
2811.72571	2141.7375
2814.27018	2184.1375
2816.81308	2179.7375
2819.35442	2173.2375
2821.89419	2184.6375
2824.43239	2186.6375
2826.96904	2199.8375
2829.50412	2199.6375
2832.03763	2206.3375
2834.56959	2206.3375
2837.1	2220.9375
2839.62884	2242.0375
2842.15613	2281.9375
2844.68186	2341.3375
2847.20604	2405.2375
2849.72867	2456.3375
2852.24974	2481.1375
2854.76927	2492.6375
2857.28724	2500.9375
2859.80367	2467.2375
2862.31855	2443.3375
2864.83189	2425.2375
2867.34368	2419.7375
2869.85393	2404.7375
2872.36264	2386.6375
2874.8698	2394.5375
2877.37543	2401.9375
2879.87952	2384.9375
2882.38207	2376.7375
2884.88308	2378.1375
2887.38256	2381.1375
2889.88051	2376.9375
2892.37692	2390.0375
2894.8718	2372.4375
2897.36515	2371.1375
2899.85698	2379.6375
2902.34727	2404.0375
2904.83604	2390.5375
2907.32328	2403.3375
2909.809	2387.8375
2912.29319	2387.1375
2914.77587	2383.2375
2917.25702	2375.2375
2919.73665	2364.0375
2922.21476	2362.2375
2924.69136	2352.3375
2927.16644	2345.8375
2929.64	2338.6375
2932.11205	2329.4375
2934.58258	2294.4375
2937.05161	2294.0375
2939.51912	2256.5375
2941.98513	2229.7375
2944.44962	2194.9375
2946.91261	2160.8375
2949.37409	2122.4375
2951.83407	2098.8375
2954.29254	2078.3375
2956.74951	2054.2375
2959.20498	2031.2375
2961.65895	2014.7375
2964.11142	2005.9375
2966.56239	1990.2375
2969.01186	1977.6375
2971.45984	1956.7375
2973.90632	1949.0375
2976.35131	1932.4375
2978.7948	1920.0375
2981.23681	1909.0375
2983.67732	1895.4375
2986.11635	1902.3375
2988.55388	1890.6375
2990.98993	1885.3375
2993.4245	1873.4375
2995.85758	1872.3375
2998.28917	1848.2375
3000.71928	1853.3375
3003.14791	1842.1375
3005.57506	1850.7375
3008.00073	1834.4375
3010.42493	1837.2375
3012.84764	1836.5375
3015.26888	1825.1375
3017.68865	1818.1375
3020.10694	1813.5375
3022.52376	1820.4375
3024.9391	1806.7375
3027.35298	1816.1375
3029.76539	1794.9375
3032.17632	1809.6375
3034.5858	1792.1375
3036.9938	1792.0375
3039.40034	1797.2375
3041.80542	1788.4375
3044.20903	1789.7375
3046.61118	1778.3375
3049.01187	1768.1375
3051.4111	1779.2375
3053.80888	1764.2375
3056.20519	1769.0375
3058.60005	1767.1375
3060.99345	1759.6375
3063.3854	1753.8375
3065.7759	1755.9375
3068.16494	1753.7375
3070.55254	1752.8375
3072.93868	1746.3375
3075.32338	1744.8375
3077.70662	1730.7375
3080.08842	1725.7375
3082.46878	1729.9375
3084.84769	1709.9375
3087.22515	1721.1375
3089.60118	1709.6375
3091.97576	1707.1375
3094.3489	1696.6375
3096.72061	1707.5375
3099.09087	1701.8375
3101.4597	1695.9375
3103.82709	1702.3375
3106.19305	1711.4375
3108.55757	1698.4375
3110.92066	1693.1375
3113.28232	1686.2375
3115.64255	1695.6375
3118.00134	1695.1375
3120.35871	1679.4375
