Data from AgNPs_FTO_APTES_UA_5um_CRN_0.1mM_R6G_10uM_NaF_0.1M_Addition_RamanShift__18__13-17-59-101.txt Node

Date: Tue Dec 21 13:17:59 GMT 2021
User: TCL
Spectrometer: QEP01345
Trigger mode: 4
Integration Time (sec): 7.000000E0
Scans to average: 10
Electric dark correction enabled: true
Nonlinearity correction enabled: false
Boxcar width: 0
XAxis mode: Raman Shifts
Number of Pixels in Spectrum: 1044
>>>>>Begin Spectral Data<<<<<
46.04893	-0.5875
50.45542	-1.3875
54.85868	-0.6875
59.25871	0.3125
63.6555	43.1125
68.04907	49.1125
72.43941	53.3125
76.82654	54.2125
81.21044	59.8125
85.59113	60.7125
89.96862	59.2125
94.34289	62.4125
98.71396	61.9125
103.08183	67.8125
107.4465	69.4125
111.80798	73.6125
116.16626	71.0125
120.52136	75.4125
124.87327	75.4125
129.222	77.8125
133.56755	85.6125
137.90993	93.9125
142.24913	99.5125
146.58517	111.0125
150.91804	125.9125
155.24774	157.9125
159.57429	187.4125
163.89768	240.3125
168.21792	310.8125
172.53501	420.3125
176.84895	590.3125
181.15975	828.6125
185.46741	1157.9125
189.77193	1594.8125
194.07331	2142.8125
198.37157	2772.2125
202.6667	3418.3125
206.9587	4080.1125
211.24758	4750.4125
215.53334	5415.5125
219.81599	6110.0125
224.09553	6857.8125
228.37195	7704.6125
232.64527	8592.2125
236.91549	9557.9125
241.18261	10538.2125
245.44663	11452.5125
249.70755	12217.2125
253.96539	12898.2125
258.22014	13476.0125
262.4718	13878.0125
266.72039	14173.1125
270.96589	14303.5125
275.20832	14306.8125
279.44768	14204.7125
283.68397	14067.2125
287.91719	13994.1125
292.14735	13904.0125
296.37445	13946.4125
300.59849	13965.2125
304.81948	13997.8125
309.03742	13928.4125
313.25231	13745.9125
317.46415	13417.6125
321.67296	13016.9125
325.87872	12690.2125
330.08145	12456.7125
334.28114	12441.4125
338.47781	12493.7125
342.67145	12645.8125
346.86207	12822.2125
351.04966	13049.8125
355.23424	13299.7125
359.4158	13488.8125
363.59435	13639.8125
367.76989	13713.8125
371.94243	13821.8125
376.11196	13847.2125
380.27849	13945.8125
384.44203	14017.9125
388.60257	14195.3125
392.76012	14366.2125
396.91468	14539.5125
401.06626	14781.0125
405.21485	14946.0125
409.36047	14923.1125
413.50311	14718.6125
417.64277	14553.7125
421.77947	14509.8125
425.9132	14513.8125
430.04396	14635.3125
434.17176	14701.3125
438.2966	14838.7125
442.41849	15074.2125
446.53742	15536.1125
450.6534	15994.1125
454.76644	16395.5125
458.87653	16515.2125
462.98368	16449.7125
467.08789	16277.4125
471.18916	16090.6125
475.2875	15983.3125
479.38291	16043.0125
483.4754	16013.3125
487.56496	15850.8125
491.6516	15561.6125
495.73531	15220.8125
499.81612	15055.3125
503.89401	15065.3125
507.96899	15038.3125
512.04106	14922.4125
516.11023	14744.2125
520.1765	14549.4125
524.23987	14418.7125
528.30034	14348.4125
532.35792	14291.6125
536.41261	14178.4125
540.46441	14009.6125
544.51333	13986.3125
548.55936	14090.3125
552.60252	14367.2125
556.64279	14707.7125
560.6802	14960.3125
564.71473	15138.4125
568.7464	15434.9125
572.7752	15866.6125
576.80114	16240.3125
580.82422	16535.9125
584.84444	16830.8125
588.86181	17176.6125
592.87633	17483.9125
596.888	17600.5125
600.89682	17393.6125
604.9028	17591.3125
608.90594	18721.7125
612.90624	19811.0125
616.90371	18379.2125
620.89834	15435.9125
624.89015	14084.2125
628.87913	14018.7125
632.86528	14214.2125
636.84862	14343.3125
640.82913	14167.7125
644.80683	13783.2125
648.78172	13438.6125
652.75379	13311.2125
656.72306	13355.1125
660.68952	13535.3125
664.65319	13522.9125
668.61405	13377.8125
672.57211	13445.9125
676.52738	13588.0125
680.47986	13655.7125
684.42955	13587.9125
688.37646	13431.4125
692.32058	13362.7125
696.26192	13359.7125
700.20048	13449.2125
704.13626	13553.9125
708.06928	13511.4125
711.99952	13444.3125
715.927	13388.1125
719.85171	13413.5125
723.77365	13365.8125
727.69284	13317.4125
731.60928	13201.7125
735.52295	13193.6125
739.43388	13169.1125
743.34206	13200.2125
747.24749	13221.4125
751.15017	13303.1125
755.05012	13481.3125
758.94733	13883.6125
762.8418	14595.2125
766.73354	15750.8125
770.62254	16886.9125
774.50882	17186.4125
778.39237	16434.5125
782.27321	15143.4125
786.15132	14024.3125
790.02671	13327.7125
793.89938	12930.9125
797.76935	12781.7125
801.6366	12769.0125
805.50115	12748.7125
809.36299	12715.2125
813.22213	12517.0125
817.07857	12485.6125
820.93231	12419.9125
824.78336	12329.7125
828.63172	12247.6125
832.47738	12193.1125
836.32036	12197.7125
840.16066	12174.0125
843.99827	12175.1125
847.8332	12137.9125
851.66546	12083.6125
855.49504	12067.3125
859.32195	12105.2125
863.1462	12091.9125
866.96777	12126.2125
870.78668	12116.5125
874.60293	12108.7125
878.41652	12090.5125
882.22745	12103.2125
886.03573	12152.6125
889.84136	12168.2125
893.64433	12085.4125
897.44466	12022.2125
901.24235	11954.4125
905.0374	11826.4125
908.8298	11775.8125
912.61957	11748.3125
916.40671	11826.4125
920.19121	11994.4125
923.97308	12183.1125
927.75233	12215.2125
931.52895	12103.0125
935.30295	11935.2125
939.07433	11684.7125
942.84309	11475.3125
946.60924	11393.4125
950.37278	11333.4125
954.13371	11304.8125
957.89203	11258.4125
961.64774	11291.3125
965.40086	11253.5125
969.15137	11179.7125
972.89929	11081.9125
976.64461	10991.2125
980.38733	10934.7125
984.12747	10961.8125
987.86502	11018.4125
991.59999	11091.6125
995.33237	11280.0125
999.06217	11548.7125
1002.78939	11931.6125
1006.51404	12197.6125
1010.23611	12409.2125
1013.95561	12546.6125
1017.67255	12605.3125
1021.38692	12453.0125
1025.09872	12207.4125
1028.80796	12017.4125
1032.51465	12099.3125
1036.21877	12275.6125
1039.92035	12371.8125
1043.61937	12358.1125
1047.31584	12307.6125
1051.00976	12194.3125
1054.70114	12123.1125
1058.38998	12146.5125
1062.07627	12217.8125
1065.76003	12318.4125
1069.44126	12452.4125
1073.11995	12637.8125
1076.79611	12806.8125
1080.46974	12843.6125
1084.14085	12865.8125
1087.80943	12963.4125
1091.47549	13159.0125
1095.13903	13239.4125
1098.80005	13093.9125
1102.45857	12787.7125
1106.11456	12471.9125
1109.76805	12322.1125
1113.41903	12299.6125
1117.06751	12397.9125
1120.71348	12551.4125
1124.35696	12749.2125
1127.99793	13005.9125
1131.63641	13162.5125
1135.2724	13202.1125
1138.90589	13118.7125
1142.5369	13096.0125
1146.16542	13084.1125
1149.79145	13135.6125
1153.415	13260.9125
1157.03607	13449.1125
1160.65467	13839.4125
1164.27079	14508.8125
1167.88443	15378.2125
1171.49561	16454.2125
1175.10432	17784.8125
1178.71056	19417.8125
1182.31434	20894.2125
1185.91565	21721.1125
1189.51451	21667.4125
1193.11091	21010.4125
1196.70485	20138.4125
1200.29634	19115.1125
1203.88538	18352.9125
1207.47197	17799.8125
1211.05612	17342.3125
1214.63782	16959.6125
1218.21708	16625.4125
1221.79391	16407.4125
1225.36829	16249.6125
1228.94024	16030.4125
1232.50976	15667.1125
1236.07685	15359.0125
1239.6415	15147.5125
1243.20374	15097.2125
1246.76355	15168.2125
1250.32093	15343.7125
1253.8759	15712.6125
1257.42845	16168.9125
1260.97859	16684.6125
1264.52631	17211.8125
1268.07163	17766.2125
1271.61453	18295.3125
1275.15503	18902.7125
1278.69312	19561.7125
1282.22882	20254.7125
1285.76211	20974.5125
1289.29301	21844.8125
1292.82151	22903.6125
1296.34761	24140.3125
1299.87133	25552.1125
1303.39266	27061.9125
1306.9116	28479.9125
1310.42815	29904.8125
1313.94233	30856.6125
1317.45412	31091.4125
1320.96354	30760.2125
1324.47058	30280.1125
1327.97525	29846.4125
1331.47754	29391.2125
1334.97747	29103.3125
1338.47502	28801.1125
1341.97022	28368.0125
1345.46305	27822.5125
1348.95352	27235.4125
1352.44163	26980.0125
1355.92738	27339.8125
1359.41078	28191.3125
1362.89183	28989.8125
1366.37053	28734.5125
1369.84688	26858.7125
1373.32088	24111.8125
1376.79254	22046.1125
1380.26186	21092.3125
1383.72883	20919.2125
1387.19347	20937.4125
1390.65578	20809.9125
1394.11575	20929.0125
1397.57339	21323.2125
1401.0287	21977.9125
1404.48168	22515.2125
1407.93234	22650.5125
1411.38068	22190.7125
1414.82669	21363.1125
1418.27039	20211.8125
1421.71177	19096.6125
1425.15083	18153.2125
1428.58758	17605.6125
1432.02203	17552.8125
1435.45416	17936.3125
1438.88399	18506.0125
1442.31151	19073.6125
1445.73673	19584.7125
1449.15965	20076.5125
1452.58027	20411.0125
1455.9986	20605.0125
1459.41463	20847.9125
1462.82837	21165.4125
1466.23982	21635.1125
1469.64898	22024.4125
1473.05586	22196.7125
1476.46045	22112.1125
1479.86276	21913.0125
1483.26279	21599.8125
1486.66054	21353.5125
1490.05602	21321.9125
1493.44922	21375.7125
1496.84016	21424.1125
1500.22882	21610.9125
1503.61521	22027.1125
1506.99934	22601.3125
1510.38121	23122.4125
1513.76081	23199.1125
1517.13816	22659.0125
1520.51324	21832.6125
1523.88607	21129.5125
1527.25665	20718.4125
1530.62498	20569.6125
1533.99105	20541.9125
1537.35488	20380.8125
1540.71647	20086.9125
1544.07581	19611.5125
1547.4329	19086.6125
1550.78776	18605.9125
1554.14038	18252.0125
1557.49077	18091.0125
1560.83892	18074.6125
1564.18484	18139.5125
1567.52853	18220.7125
1570.86999	18361.5125
1574.20922	18652.3125
1577.54624	18932.3125
1580.88103	19039.3125
1584.2136	19173.8125
1587.54395	19698.7125
1590.87208	20641.7125
1594.19801	21962.9125
1597.52172	23349.2125
1600.84321	23836.6125
1604.16251	22961.4125
1607.47959	21059.3125
1610.79447	18949.4125
1614.10715	16993.5125
1617.41763	15480.7125
1620.7259	14450.6125
1624.03199	13880.6125
1627.33587	13812.6125
1630.63757	14192.3125
1633.93707	15135.3125
1637.23439	16777.7125
1640.52951	19250.0125
1643.82246	22301.4125
1647.11321	24876.1125
1650.40179	25656.3125
1653.68819	24054.7125
1656.97241	20882.8125
1660.25446	17539.3125
1663.53433	14945.5125
1666.81203	13172.8125
1670.08756	12098.0125
1673.36092	11411.1125
1676.63211	10959.6125
1679.90115	10631.6125
1683.16801	10408.1125
1686.43272	10204.7125
1689.69527	10092.8125
1692.95567	9965.4125
1696.2139	9900.7125
1699.46999	9880.8125
1702.72392	9827.2125
1705.97571	9761.9125
1709.22535	9717.9125
1712.47284	9652.4125
1715.71819	9623.0125
1718.96139	9563.9125
1722.20246	9515.0125
1725.44139	9488.4125
1728.67818	9434.2125
1731.91284	9375.2125
1735.14537	9320.5125
1738.37576	9269.2125
1741.60403	9236.3125
1744.83017	9214.2125
1748.05418	9228.4125
1751.27607	9231.8125
1754.49584	9232.5125
1757.71349	9248.4125
1760.92903	9217.1125
1764.14244	9130.0125
1767.35375	9127.7125
1770.56294	9047.7125
1773.77002	9029.0125
1776.97499	8965.3125
1780.17785	8929.2125
1783.37861	8914.5125
1786.57727	8868.2125
1789.77382	8820.3125
1792.96828	8793.7125
1796.16064	8762.2125
1799.3509	8722.2125
1802.53907	8716.0125
1805.72514	8663.4125
1808.90913	8632.2125
1812.09102	8623.1125
1815.27083	8599.0125
1818.44856	8572.4125
1821.6242	8559.1125
1824.79776	8550.1125
1827.96924	8551.1125
1831.13864	8529.1125
1834.30597	8523.5125
1837.47122	8519.1125
1840.6344	8506.6125
1843.7955	8513.7125
1846.95454	8499.7125
1850.11151	8477.2125
1853.26642	8494.5125
1856.41926	8455.9125
1859.57004	8488.7125
1862.71876	8469.8125
1865.86542	8458.0125
1869.01003	8447.3125
1872.15258	8455.9125
1875.29308	8427.2125
1878.43152	8433.8125
1881.56792	8403.6125
1884.70227	8402.4125
1887.83457	8396.8125
1890.96482	8369.4125
1894.09304	8367.4125
1897.21921	8368.8125
1900.34335	8362.0125
1903.46544	8345.8125
1906.58551	8321.1125
1909.70353	8276.5125
1912.81953	8291.8125
1915.93349	8284.5125
1919.04543	8247.0125
1922.15534	8219.4125
1925.26322	8225.0125
1928.36908	8151.9125
1931.47292	8154.9125
1934.57473	8123.9125
1937.67453	8108.8125
1940.77232	8072.5125
1943.86808	8049.3125
1946.96184	8028.3125
1950.05358	7990.7125
1953.14331	7960.9125
1956.23103	7939.8125
1959.31675	7915.7125
1962.40046	7851.6125
1965.48217	7874.1125
1968.56188	7823.2125
1971.63959	7806.6125
1974.7153	7775.8125
1977.78901	7748.2125
1980.86073	7726.0125
1983.93046	7711.6125
1986.99819	7668.7125
1990.06394	7634.4125
1993.1277	7620.4125
1996.18947	7580.1125
1999.24925	7561.1125
2002.30706	7547.3125
2005.36288	7509.0125
2008.41672	7512.3125
2011.46859	7474.2125
2014.51848	7452.6125
2017.56639	7450.3125
2020.61233	7429.4125
2023.6563	7402.9125
2026.6983	7410.7125
2029.73833	7357.3125
2032.7764	7341.3125
2035.8125	7331.1125
2038.84664	7340.0125
2041.87881	7311.6125
2044.90903	7311.9125
2047.93729	7284.5125
2050.96359	7284.2125
2053.98794	7279.8125
2057.01034	7248.6125
2060.03078	7258.0125
2063.04927	7242.1125
2066.06582	7230.4125
2069.08042	7231.1125
2072.09307	7206.7125
2075.10378	7188.2125
2078.11255	7200.2125
2081.11938	7200.7125
2084.12426	7191.6125
2087.12722	7164.3125
2090.12824	7169.3125
2093.12732	7178.6125
2096.12447	7159.4125
2099.11969	7157.7125
2102.11299	7179.3125
2105.10435	7166.6125
2108.09379	7155.8125
2111.08131	7175.6125
2114.0669	7143.0125
2117.05057	7163.8125
2120.03233	7174.5125
2123.01216	7143.2125
2125.99008	7160.5125
2128.96609	7182.3125
2131.94018	7177.9125
2134.91236	7179.4125
2137.88263	7161.4125
2140.851	7154.4125
2143.81746	7157.9125
2146.78201	7162.5125
2149.74466	7147.4125
2152.7054	7147.0125
2155.66425	7150.8125
2158.6212	7144.3125
2161.57625	7135.3125
2164.52941	7108.6125
2167.48067	7122.8125
2170.43004	7114.1125
2173.37752	7109.3125
2176.32311	7124.5125
2179.26681	7083.4125
2182.20863	7092.4125
2185.14856	7087.5125
2188.08661	7083.9125
2191.02278	7076.8125
2193.95707	7093.2125
2196.88948	7071.8125
2199.82001	7092.2125
2202.74867	7062.9125
2205.67545	7072.3125
2208.60037	7050.1125
2211.52341	7033.4125
2214.44458	7022.3125
2217.36388	7022.3125
2220.28132	7008.9125
2223.1969	6971.9125
2226.11061	6985.2125
2229.02246	6952.4125
2231.93245	6948.5125
2234.84058	6934.4125
2237.74686	6909.9125
2240.65128	6906.0125
2243.55385	6886.7125
2246.45456	6882.4125
2249.35343	6850.8125
2252.25044	6855.5125
2255.14561	6846.9125
2258.03893	6850.6125
2260.93041	6842.5125
2263.82004	6787.5125
2266.70783	6790.5125
2269.59378	6756.7125
2272.4779	6720.3125
2275.36017	6729.4125
2278.24061	6700.5125
2281.11922	6685.7125
2283.996	6677.2125
2286.87094	6661.3125
2289.74405	6648.1125
2292.61534	6639.8125
2295.4848	6639.3125
2298.35243	6639.9125
2301.21824	6593.4125
2304.08223	6619.5125
2306.94439	6611.9125
2309.80474	6613.7125
2312.66327	6611.2125
2315.51999	6596.8125
2318.37489	6592.6125
2321.22797	6584.3125
2324.07925	6578.6125
2326.92871	6572.8125
2329.77637	6567.7125
2332.62222	6547.2125
2335.46626	6531.3125
2338.3085	6539.4125
2341.14893	6531.2125
2343.98756	6545.2125
2346.8244	6559.3125
2349.65943	6542.3125
2352.49267	6551.4125
2355.32411	6550.0125
2358.15376	6549.4125
2360.98161	6525.2125
2363.80768	6535.3125
2366.63195	6516.4125
2369.45444	6511.3125
2372.27514	6489.6125
2375.09405	6478.3125
2377.91118	6471.6125
2380.72652	6452.9125
2383.54009	6437.4125
2386.35187	6425.7125
2389.16188	6386.4125
2391.97011	6371.4125
2394.77657	6375.7125
2397.58125	6379.5125
2400.38416	6379.8125
2403.18529	6343.4125
2405.98466	6330.8125
2408.78226	6321.9125
2411.57809	6308.1125
2414.37216	6299.8125
2417.16446	6310.8125
2419.955	6268.9125
2422.74378	6281.7125
2425.5308	6266.4125
2428.31606	6257.5125
2431.09956	6257.6125
2433.88131	6279.9125
2436.6613	6262.4125
2439.43954	6236.7125
2442.21603	6242.9125
2444.99077	6229.9125
2447.76377	6237.6125
2450.53501	6245.8125
2453.30451	6229.3125
2456.07226	6215.9125
2458.83827	6243.6125
2461.60254	6228.2125
2464.36507	6214.6125
2467.12586	6233.5125
2469.88492	6220.8125
2472.64224	6205.5125
2475.39782	6230.2125
2478.15167	6234.7125
2480.90379	6216.0125
2483.65417	6229.2125
2486.40283	6242.1125
2489.14976	6227.1125
2491.89497	6212.8125
2494.63845	6238.3125
2497.3802	6235.9125
2500.12024	6238.5125
2502.85855	6222.3125
2505.59514	6208.7125
2508.33002	6198.4125
2511.06318	6206.3125
2513.79462	6198.1125
2516.52435	6177.9125
2519.25237	6194.3125
2521.97867	6159.1125
2524.70327	6145.7125
2527.42616	6152.7125
2530.14734	6142.4125
2532.86681	6145.9125
2535.58458	6140.0125
2538.30065	6127.9125
2541.01501	6133.6125
2543.72768	6120.3125
2546.43864	6105.8125
2549.14791	6099.8125
2551.85548	6106.2125
2554.56136	6096.0125
2557.26554	6076.7125
2559.96803	6088.2125
2562.66883	6070.5125
2565.36794	6080.7125
2568.06536	6062.3125
2570.7611	6058.2125
2573.45514	6072.6125
2576.14751	6073.5125
2578.83819	6059.1125
2581.52719	6068.8125
2584.21451	6060.7125
2586.90015	6047.0125
2589.58411	6041.1125
2592.2664	6021.6125
2594.94701	6032.4125
2597.62594	6027.4125
2600.30321	5995.1125
2602.9788	6015.6125
2605.65273	5991.8125
2608.32498	6003.8125
2610.99557	6001.5125
2613.66449	5993.1125
2616.33175	5986.3125
2618.99734	5985.7125
2621.66128	5987.6125
2624.32355	5991.9125
2626.98416	5999.4125
2629.64311	5988.7125
2632.30041	5994.4125
2634.95605	5992.2125
2637.61004	5974.9125
2640.26238	5968.0125
2642.91306	5972.6125
2645.56209	5951.9125
2648.20948	5973.2125
2650.85521	5955.3125
2653.4993	5955.5125
2656.14175	5952.6125
2658.78255	5961.7125
2661.42171	5962.3125
2664.05923	5958.2125
2666.6951	5953.0125
2669.32934	5975.9125
2671.96194	5975.2125
2674.59291	5983.5125
2677.22224	5973.2125
2679.84993	5961.2125
2682.476	5957.7125
2685.10043	5933.0125
2687.72324	5941.4125
2690.34441	5935.3125
2692.96396	5947.6125
2695.58188	5958.8125
2698.19818	5925.4125
2700.81285	5938.2125
2703.4259	5962.3125
2706.03733	6014.7125
2708.64714	5973.7125
2711.25533	5964.0125
2713.86191	5946.1125
2716.46687	5963.7125
2719.07021	5952.8125
2721.67194	5950.4125
2724.27206	5965.7125
2726.87057	5974.9125
2729.46747	5981.3125
2732.06276	5977.4125
2734.65644	5953.8125
2737.24852	5969.3125
2739.83899	5953.4125
2742.42786	5948.3125
2745.01513	5971.0125
2747.60079	5958.3125
2750.18486	5945.9125
2752.76733	5949.2125
2755.3482	5946.2125
2757.92747	5938.3125
2760.50515	5919.4125
2763.08123	5937.5125
2765.65573	5927.3125
2768.22863	5953.0125
2770.79994	5927.5125
2773.36967	5934.1125
2775.9378	5949.0125
2778.50435	5937.7125
2781.06932	5925.8125
2783.6327	5926.2125
2786.1945	5939.4125
2788.75471	5940.4125
2791.31335	5929.4125
2793.87041	5913.8125
2796.42589	5898.9125
2798.97979	5909.3125
2801.53212	5875.7125
2804.08288	5894.7125
2806.63206	5870.6125
2809.17967	5870.1125
2811.72571	5854.5125
2814.27018	5841.6125
2816.81308	5839.5125
2819.35442	5822.8125
2821.89419	5833.2125
2824.43239	5826.1125
2826.96904	5820.6125
2829.50412	5836.7125
2832.03763	5811.0125
2834.56959	5809.7125
2837.1	5804.6125
2839.62884	5805.9125
2842.15613	5799.7125
2844.68186	5810.4125
2847.20604	5825.9125
2849.72867	5820.2125
2852.24974	5798.7125
2854.76927	5802.7125
2857.28724	5799.3125
2859.80367	5783.2125
2862.31855	5771.4125
2864.83189	5779.3125
2867.34368	5754.1125
2869.85393	5795.1125
2872.36264	5757.5125
2874.8698	5758.5125
2877.37543	5766.0125
2879.87952	5780.0125
2882.38207	5769.1125
2884.88308	5771.9125
2887.38256	5773.3125
2889.88051	5772.3125
2892.37692	5784.6125
2894.8718	5778.8125
2897.36515	5782.8125
2899.85698	5812.2125
2902.34727	5817.2125
2904.83604	5816.4125
2907.32328	5814.2125
2909.809	5846.4125
2912.29319	5838.0125
2914.77587	5851.2125
2917.25702	5865.6125
2919.73665	5833.7125
2922.21476	5866.0125
2924.69136	5871.0125
2927.16644	5855.0125
2929.64	5856.7125
2932.11205	5849.6125
2934.58258	5843.7125
2937.05161	5856.4125
2939.51912	5849.4125
2941.98513	5845.1125
2944.44962	5839.8125
2946.91261	5813.7125
2949.37409	5821.5125
2951.83407	5779.0125
2954.29254	5785.2125
2956.74951	5772.6125
2959.20498	5771.1125
2961.65895	5761.4125
2964.11142	5737.4125
2966.56239	5689.4125
2969.01186	5692.1125
2971.45984	5664.6125
2973.90632	5649.7125
2976.35131	5634.7125
2978.7948	5614.9125
2981.23681	5620.0125
2983.67732	5582.6125
2986.11635	5575.4125
2988.55388	5520.0125
2990.98993	5540.9125
2993.4245	5514.7125
2995.85758	5489.5125
2998.28917	5501.3125
3000.71928	5469.9125
3003.14791	5467.7125
3005.57506	5494.7125
3008.00073	5474.0125
3010.42493	5458.5125
3012.84764	5444.5125
3015.26888	5419.7125
3017.68865	5426.0125
3020.10694	5418.6125
3022.52376	5381.7125
3024.9391	5388.3125
3027.35298	5369.2125
3029.76539	5359.3125
3032.17632	5364.2125
3034.5858	5328.3125
3036.9938	5321.9125
3039.40034	5329.4125
3041.80542	5334.4125
3044.20903	5317.4125
3046.61118	5316.9125
3049.01187	5304.6125
3051.4111	5274.3125
3053.80888	5264.7125
3056.20519	5282.0125
3058.60005	5242.6125
3060.99345	5249.4125
3063.3854	5227.2125
3065.7759	5227.8125
3068.16494	5201.3125
3070.55254	5165.2125
3072.93868	5162.2125
3075.32338	5157.8125
3077.70662	5153.0125
3080.08842	5133.7125
