Data from AgNPs_FTO_APTES_UA_10um_CRN_0.1mM_R6G_10uM_NaF_0.1M_Addition_RamanShift__13__13-50-39-139.txt Node

Date: Tue Dec 21 13:50:39 GMT 2021
User: TCL
Spectrometer: QEP01345
Trigger mode: 4
Integration Time (sec): 7.000000E0
Scans to average: 10
Electric dark correction enabled: true
Nonlinearity correction enabled: false
Boxcar width: 0
XAxis mode: Raman Shifts
Number of Pixels in Spectrum: 1044
>>>>>Begin Spectral Data<<<<<
46.04893	-1.2
50.45542	-1.8
54.85868	-0.8
59.25871	0.3
63.6555	37
68.04907	39.7
72.43941	44.6
76.82654	45.3
81.21044	49.2
85.59113	49.8
89.96862	53.7
94.34289	52.3
98.71396	53.7
103.08183	54.7
107.4465	56.8
111.80798	60.2
116.16626	60.6
120.52136	63.9
124.87327	65.3
129.222	62.6
133.56755	74.1
137.90993	75.9
142.24913	85.9
146.58517	92.4
150.91804	107.5
155.24774	123.6
159.57429	152.7
163.89768	199.7
168.21792	262.3
172.53501	348.7
176.84895	479.1
181.15975	682.7
185.46741	954.2
189.77193	1315.5
194.07331	1779.5
198.37157	2280.9
202.6667	2843.2
206.9587	3403.3
211.24758	3955.5
215.53334	4531
219.81599	5092.8
224.09553	5729.5
228.37195	6416.2
232.64527	7161
236.91549	7965.2
241.18261	8788.9
245.44663	9526
249.70755	10203.5
253.96539	10786.2
258.22014	11240.7
262.4718	11628.9
266.72039	11876.3
270.96589	11974.4
275.20832	11944.8
279.44768	11865.6
283.68397	11746.6
287.91719	11650.5
292.14735	11600.8
296.37445	11539.6
300.59849	11523
304.81948	11551
309.03742	11576.3
313.25231	11490.6
317.46415	11265.2
321.67296	10989.9
325.87872	10720.8
330.08145	10543
334.28114	10523.6
338.47781	10572.1
342.67145	10686.7
346.86207	10833.3
351.04966	10980.2
355.23424	11138.5
359.4158	11277.4
363.59435	11372.4
367.76989	11449.7
371.94243	11475.1
376.11196	11525.9
380.27849	11549.3
384.44203	11601.2
388.60257	11685.4
392.76012	11829
396.91468	11968.6
401.06626	12186.4
405.21485	12328.8
409.36047	12325.4
413.50311	12180.2
417.64277	12052.9
421.77947	11965.3
425.9132	11978.1
430.04396	12032.7
434.17176	12071.3
438.2966	12122.1
442.41849	12227.1
446.53742	12435.7
450.6534	12629.1
454.76644	12799
458.87653	12908.4
462.98368	12885.8
467.08789	12902.8
471.18916	12829.8
475.2875	12762.3
479.38291	12689.2
483.4754	12651
487.56496	12598.8
491.6516	12458.8
495.73531	12360.7
499.81612	12299
503.89401	12256.7
507.96899	12315.6
512.04106	12317.3
516.11023	12274.2
520.1765	12195.7
524.23987	12099.2
528.30034	11978
532.35792	11893.1
536.41261	11785.7
540.46441	11675.5
544.51333	11696.9
548.55936	11814.7
552.60252	12003.9
556.64279	12198.6
560.6802	12319.7
564.71473	12427.1
568.7464	12580.2
572.7752	12887.7
576.80114	13245.6
580.82422	13623.2
584.84444	13884.4
588.86181	14053.4
592.87633	14081
596.888	14007.7
600.89682	13890.7
604.9028	14017.1
608.90594	14751.9
612.90624	15611
616.90371	14862.1
620.89834	12894.3
624.89015	11944.5
628.87913	11867.1
632.86528	12010.1
636.84862	12086.8
640.82913	11997.7
644.80683	11733.3
648.78172	11523.3
652.75379	11489.1
656.72306	11557.8
660.68952	11725.4
664.65319	11740.7
668.61405	11665
672.57211	11659.7
676.52738	11717.5
680.47986	11724.3
684.42955	11700.7
688.37646	11653.7
692.32058	11640.8
696.26192	11664.6
700.20048	11740.5
704.13626	11838.4
708.06928	11877.3
711.99952	11837.9
715.927	11823.5
719.85171	11753.4
723.77365	11669.5
727.69284	11551.5
731.60928	11433.1
735.52295	11382.6
739.43388	11353
743.34206	11340.4
747.24749	11394.4
751.15017	11473.4
755.05012	11615.6
758.94733	11922.5
762.8418	12438
766.73354	13230.1
770.62254	14016.5
774.50882	14199.3
778.39237	13688.6
782.27321	12851.7
786.15132	12148
790.02671	11634.9
793.89938	11347.4
797.76935	11227.4
801.6366	11185.2
805.50115	11118
809.36299	11052.7
813.22213	11004.2
817.07857	10988.7
820.93231	10949
824.78336	10923.7
828.63172	10897
832.47738	10865.5
836.32036	10829.9
840.16066	10820
843.99827	10795.2
847.8332	10758.2
851.66546	10775.3
855.49504	10753.8
859.32195	10782.5
863.1462	10759.9
866.96777	10702.1
870.78668	10737.6
874.60293	10753
878.41652	10728.7
882.22745	10788.4
886.03573	10803.3
889.84136	10792.1
893.64433	10806.7
897.44466	10783.3
901.24235	10765.4
905.0374	10729.4
908.8298	10703.5
912.61957	10730.3
916.40671	10781.3
920.19121	10891.5
923.97308	10979.7
927.75233	10953.3
931.52895	10875.5
935.30295	10748.2
939.07433	10565.2
942.84309	10427
946.60924	10285.1
950.37278	10255.3
954.13371	10226.1
957.89203	10237.3
961.64774	10189.2
965.40086	10197
969.15137	10184.5
972.89929	10127.4
976.64461	10088.3
980.38733	10073.6
984.12747	10033.3
987.86502	10045.1
991.59999	10108.9
995.33237	10132.5
999.06217	10217
1002.78939	10314.6
1006.51404	10465
1010.23611	10604.3
1013.95561	10692.8
1017.67255	10728.8
1021.38692	10696.3
1025.09872	10579.5
1028.80796	10489.6
1032.51465	10447
1036.21877	10460
1039.92035	10488.1
1043.61937	10558.6
1047.31584	10644.1
1051.00976	10687
1054.70114	10721.5
1058.38998	10798
1062.07627	10903.7
1065.76003	11039.7
1069.44126	11151.2
1073.11995	11328.5
1076.79611	11469.6
1080.46974	11492.4
1084.14085	11507.7
1087.80943	11543.9
1091.47549	11680.5
1095.13903	11745.1
1098.80005	11672.7
1102.45857	11463.4
1106.11456	11182.8
1109.76805	10995.9
1113.41903	10932.5
1117.06751	10927
1120.71348	11039.1
1124.35696	11162.2
1127.99793	11308.8
1131.63641	11388.4
1135.2724	11384.2
1138.90589	11307.5
1142.5369	11268.2
1146.16542	11328.9
1149.79145	11388.1
1153.415	11434.1
1157.03607	11561
1160.65467	11755.5
1164.27079	12055.6
1167.88443	12508
1171.49561	13094
1175.10432	13772.2
1178.71056	14643.4
1182.31434	15445.2
1185.91565	15995.7
1189.51451	16148.7
1193.11091	16052.3
1196.70485	15605.4
1200.29634	15030.2
1203.88538	14549.5
1207.47197	14169.1
1211.05612	13828.2
1214.63782	13540.9
1218.21708	13268.8
1221.79391	12941.5
1225.36829	12723.4
1228.94024	12539.8
1232.50976	12480.2
1236.07685	12429.2
1239.6415	12406.1
1243.20374	12430.3
1246.76355	12480.5
1250.32093	12614.6
1253.8759	12770.6
1257.42845	13068.5
1260.97859	13380.3
1264.52631	13679.1
1268.07163	13998.9
1271.61453	14296.5
1275.15503	14590.8
1278.69312	14894.7
1282.22882	15207.9
1285.76211	15606.4
1289.29301	15986.1
1292.82151	16459
1296.34761	16958.7
1299.87133	17554.7
1303.39266	18182
1306.9116	18844
1310.42815	19397.2
1313.94233	19771.7
1317.45412	19744.5
1320.96354	19558.5
1324.47058	19431.4
1327.97525	19344.1
1331.47754	19355.4
1334.97747	19403.6
1338.47502	19519.4
1341.97022	19655.8
1345.46305	19775.6
1348.95352	19854
1352.44163	19809.4
1355.92738	19848.4
1359.41078	20030.7
1362.89183	20362
1366.37053	20125.9
1369.84688	18996.3
1373.32088	17477.6
1376.79254	16313.9
1380.26186	15669.6
1383.72883	15384.5
1387.19347	15186.9
1390.65578	14990.4
1394.11575	14823.9
1397.57339	14699.9
1401.0287	14711
1404.48168	14677.1
1407.93234	14625.4
1411.38068	14436.1
1414.82669	14099.8
1418.27039	13718.5
1421.71177	13282.4
1425.15083	12931.9
1428.58758	12697.3
1432.02203	12684.9
1435.45416	12782.7
1438.88399	12945.6
1442.31151	13078.7
1445.73673	13274.2
1449.15965	13490.3
1452.58027	13639
1455.9986	13777.8
1459.41463	13910.5
1462.82837	14163
1466.23982	14392.5
1469.64898	14675.7
1473.05586	14823.7
1476.46045	14887.9
1479.86276	14976.5
1483.26279	15007.6
1486.66054	15099.3
1490.05602	15299.6
1493.44922	15659.9
1496.84016	16140.9
1500.22882	16774.2
1503.61521	17544.4
1506.99934	18269.5
1510.38121	18708.6
1513.76081	18735.1
1517.13816	18244.3
1520.51324	17547.5
1523.88607	16906.4
1527.25665	16483.4
1530.62498	16217.8
1533.99105	15941.3
1537.35488	15650
1540.71647	15280.4
1544.07581	14866.4
1547.4329	14470.3
1550.78776	14156.6
1554.14038	13967.2
1557.49077	13905.3
1560.83892	13937.7
1564.18484	14059.3
1567.52853	14222.8
1570.86999	14347.5
1574.20922	14527.5
1577.54624	14585.4
1580.88103	14527.2
1584.2136	14327.3
1587.54395	14256.3
1590.87208	14482.7
1594.19801	14893.6
1597.52172	15453.7
1600.84321	15633.5
1604.16251	15259.7
1607.47959	14570.2
1610.79447	13723.5
1614.10715	12928.1
1617.41763	12179.6
1620.7259	11605.5
1624.03199	11247.9
1627.33587	11132.9
1630.63757	11199.2
1633.93707	11599
1637.23439	12288
1640.52951	13394.9
1643.82246	14820.7
1647.11321	16291.5
1650.40179	17165.7
1653.68819	17011.5
1656.97241	15717
1660.25446	13984.2
1663.53433	12393.2
1666.81203	11187.2
1670.08756	10422
1673.36092	9907
1676.63211	9547.4
1679.90115	9324.5
1683.16801	9136.5
1686.43272	9021.3
1689.69527	8927.9
1692.95567	8846.6
1696.2139	8849.6
1699.46999	8799.3
1702.72392	8760.1
1705.97571	8723.9
1709.22535	8678.9
1712.47284	8636.6
1715.71819	8601
1718.96139	8577.1
1722.20246	8542.7
1725.44139	8476.8
1728.67818	8445
1731.91284	8389
1735.14537	8362.1
1738.37576	8302.7
1741.60403	8283.5
1744.83017	8257.7
1748.05418	8244.8
1751.27607	8235.7
1754.49584	8229.9
1757.71349	8285.3
1760.92903	8267.9
1764.14244	8260.7
1767.35375	8239.7
1770.56294	8190
1773.77002	8156.5
1776.97499	8104.8
1780.17785	8050.8
1783.37861	7999.8
1786.57727	7990.2
1789.77382	7957.1
1792.96828	7917.5
1796.16064	7918
1799.3509	7878.9
1802.53907	7850.9
1805.72514	7820.3
1808.90913	7812
1812.09102	7781.7
1815.27083	7758.3
1818.44856	7757
1821.6242	7724.3
1824.79776	7720
1827.96924	7708.3
1831.13864	7689.9
1834.30597	7692
1837.47122	7660.5
1840.6344	7661.2
1843.7955	7659.2
1846.95454	7663.1
1850.11151	7643.3
1853.26642	7628.7
1856.41926	7619.1
1859.57004	7633.1
1862.71876	7590
1865.86542	7612.4
1869.01003	7584.9
1872.15258	7579.6
1875.29308	7553
1878.43152	7536.3
1881.56792	7513.6
1884.70227	7496.5
1887.83457	7523.2
1890.96482	7493.4
1894.09304	7446.5
1897.21921	7468.5
1900.34335	7436.8
1903.46544	7430.8
1906.58551	7428.3
1909.70353	7392.9
1912.81953	7392.2
1915.93349	7369.2
1919.04543	7378.8
1922.15534	7330.2
1925.26322	7313.6
1928.36908	7301.4
1931.47292	7277.5
1934.57473	7248.9
1937.67453	7222.8
1940.77232	7208.1
1943.86808	7186
1946.96184	7172.4
1950.05358	7123.4
1953.14331	7126.8
1956.23103	7081.4
1959.31675	7063.7
1962.40046	7048.1
1965.48217	7026.1
1968.56188	7021.9
1971.63959	6981.9
1974.7153	6956.2
1977.78901	6931.1
1980.86073	6900.6
1983.93046	6874.2
1986.99819	6871.2
1990.06394	6849.6
1993.1277	6790.4
1996.18947	6779.3
1999.24925	6766.3
2002.30706	6741.7
2005.36288	6701
2008.41672	6693.7
2011.46859	6674.7
2014.51848	6656.3
2017.56639	6626.2
2020.61233	6598.6
2023.6563	6570
2026.6983	6565.8
2029.73833	6556.8
2032.7764	6560.2
2035.8125	6523.6
2038.84664	6498.5
2041.87881	6476.6
2044.90903	6460.3
2047.93729	6464.6
2050.96359	6460.8
2053.98794	6441
2057.01034	6427
2060.03078	6420.8
2063.04927	6403.3
2066.06582	6388.3
2069.08042	6388.9
2072.09307	6382
2075.10378	6368.4
2078.11255	6357
2081.11938	6369.8
2084.12426	6363.1
2087.12722	6350.5
2090.12824	6340.7
2093.12732	6345
2096.12447	6364
2099.11969	6343.6
2102.11299	6359.5
2105.10435	6346.2
2108.09379	6347.1
2111.08131	6341.3
2114.0669	6332.1
2117.05057	6342.5
2120.03233	6345.7
2123.01216	6353.1
2125.99008	6350.4
2128.96609	6351.2
2131.94018	6343.9
2134.91236	6360
2137.88263	6345.7
2140.851	6352.7
2143.81746	6340.2
2146.78201	6350
2149.74466	6342.6
2152.7054	6344.4
2155.66425	6333.1
2158.6212	6327.9
2161.57625	6311.8
2164.52941	6317.4
2167.48067	6307.9
2170.43004	6299.9
2173.37752	6295.8
2176.32311	6287.8
2179.26681	6285.8
2182.20863	6274.5
2185.14856	6259.1
2188.08661	6265.8
2191.02278	6266.9
2193.95707	6245.4
2196.88948	6267.3
2199.82001	6244.8
2202.74867	6234.3
2205.67545	6230.8
2208.60037	6207.1
2211.52341	6197
2214.44458	6197
2217.36388	6177.2
2220.28132	6167.9
2223.1969	6145.1
2226.11061	6129.6
2229.02246	6130.9
2231.93245	6102.3
2234.84058	6096.7
2237.74686	6084.9
2240.65128	6086.4
2243.55385	6070.9
2246.45456	6065.8
2249.35343	6052.9
2252.25044	6051.7
2255.14561	6027.9
2258.03893	6022.2
2260.93041	6028.4
2263.82004	6009.4
2266.70783	5959.2
2269.59378	5942.6
2272.4779	5921.4
2275.36017	5926.4
2278.24061	5917.8
2281.11922	5899.8
2283.996	5885.8
2286.87094	5881
2289.74405	5854.4
2292.61534	5844.3
2295.4848	5841.5
2298.35243	5823.1
2301.21824	5799.7
2304.08223	5819.4
2306.94439	5804.8
2309.80474	5772.6
2312.66327	5771
2315.51999	5767.6
2318.37489	5760.6
2321.22797	5753.1
2324.07925	5752
2326.92871	5742.4
2329.77637	5736.3
2332.62222	5719.6
2335.46626	5721
2338.3085	5696.5
2341.14893	5693.4
2343.98756	5696
2346.8244	5686.6
2349.65943	5682.1
2352.49267	5679.3
2355.32411	5662.9
2358.15376	5686.6
2360.98161	5663.7
2363.80768	5662.6
2366.63195	5656.5
2369.45444	5658.7
2372.27514	5642.9
2375.09405	5641
2377.91118	5630.6
2380.72652	5606.2
2383.54009	5597
2386.35187	5597
2389.16188	5555.5
2391.97011	5546
2394.77657	5540.1
2397.58125	5534.9
2400.38416	5519.9
2403.18529	5496.9
2405.98466	5482.4
2408.78226	5477.6
2411.57809	5478.3
2414.37216	5465.8
2417.16446	5462.7
2419.955	5448.7
2422.74378	5459.9
2425.5308	5428.7
2428.31606	5426.7
2431.09956	5423.8
2433.88131	5406.4
2436.6613	5423.1
2439.43954	5397.8
2442.21603	5400.3
2444.99077	5391.5
2447.76377	5382.5
2450.53501	5380.3
2453.30451	5390
2456.07226	5377.8
2458.83827	5381.3
2461.60254	5372
2464.36507	5358.8
2467.12586	5370.8
2469.88492	5348
2472.64224	5342.3
2475.39782	5356.6
2478.15167	5344.3
2480.90379	5330.1
2483.65417	5324
2486.40283	5319.2
2489.14976	5331.4
2491.89497	5315.7
2494.63845	5340.4
2497.3802	5321.7
2500.12024	5308.7
2502.85855	5301.6
2505.59514	5295
2508.33002	5290
2511.06318	5276.9
2513.79462	5266.5
2516.52435	5243.4
2519.25237	5255.4
2521.97867	5231.7
2524.70327	5231
2527.42616	5244.5
2530.14734	5225.7
2532.86681	5196.4
2535.58458	5206.8
2538.30065	5178.3
2541.01501	5196
2543.72768	5174.4
2546.43864	5157.2
2549.14791	5159.1
2551.85548	5154
2554.56136	5145.3
2557.26554	5143.6
2559.96803	5116.8
2562.66883	5120.2
2565.36794	5109.8
2568.06536	5109.9
2570.7611	5088.2
2573.45514	5096.5
2576.14751	5088.8
2578.83819	5078.8
2581.52719	5069.9
2584.21451	5059
2586.90015	5051.3
2589.58411	5028
2592.2664	5019.3
2594.94701	5038.2
2597.62594	5017.2
2600.30321	4999
2602.9788	4996.2
2605.65273	4978.4
2608.32498	4976.6
2610.99557	4957.9
2613.66449	4955.1
2616.33175	4956.8
2618.99734	4956.7
2621.66128	4943
2624.32355	4933.2
2626.98416	4940.3
2629.64311	4926.8
2632.30041	4913.5
2634.95605	4911.5
2637.61004	4901.5
2640.26238	4892.5
2642.91306	4886.3
2645.56209	4900.1
2648.20948	4901.3
2650.85521	4897.3
2653.4993	4857.5
2656.14175	4878.4
2658.78255	4861.9
2661.42171	4881.1
2664.05923	4855.2
2666.6951	4871
2669.32934	4871.6
2671.96194	4884.2
2674.59291	4882.6
2677.22224	4869
2679.84993	4864.9
2682.476	4853.4
2685.10043	4849.5
2687.72324	4853.2
2690.34441	4866.1
2692.96396	4853.1
2695.58188	4867
2698.19818	4846.7
2700.81285	4857.2
2703.4259	4884.1
2706.03733	4942.6
2708.64714	4879
2711.25533	4863.1
2713.86191	4862.1
2716.46687	4878.1
2719.07021	4864.9
2721.67194	4861
2724.27206	4842.6
2726.87057	4836.4
2729.46747	4885.9
2732.06276	4851.9
2734.65644	4845.8
2737.24852	4843.9
2739.83899	4819.8
2742.42786	4830.9
2745.01513	4810.7
2747.60079	4817.2
2750.18486	4807.7
2752.76733	4778.7
2755.3482	4789.8
2757.92747	4797.9
2760.50515	4794.6
2763.08123	4778
2765.65573	4774.4
2768.22863	4776.1
2770.79994	4762.7
2773.36967	4755.9
2775.9378	4745.4
2778.50435	4743.5
2781.06932	4725.4
2783.6327	4727.9
2786.1945	4728.2
2788.75471	4722.1
2791.31335	4701.7
2793.87041	4692.8
2796.42589	4671.3
2798.97979	4682.5
2801.53212	4666.3
2804.08288	4682.8
2806.63206	4647.1
2809.17967	4655.1
2811.72571	4647.3
2814.27018	4632.3
2816.81308	4636.6
2819.35442	4629
2821.89419	4623.8
2824.43239	4625.9
2826.96904	4611
2829.50412	4606
2832.03763	4606.8
2834.56959	4608.7
2837.1	4595.9
2839.62884	4607
2842.15613	4589.4
2844.68186	4611.1
2847.20604	4606
2849.72867	4617
2852.24974	4609.7
2854.76927	4602.3
2857.28724	4620.7
2859.80367	4601.5
2862.31855	4588.2
2864.83189	4589.6
2867.34368	4570.9
2869.85393	4562.4
2872.36264	4562.9
2874.8698	4547.1
2877.37543	4536.1
2879.87952	4556.5
2882.38207	4548.7
2884.88308	4527.7
2887.38256	4532.8
2889.88051	4527.5
2892.37692	4532.3
2894.8718	4533.1
2897.36515	4542.3
2899.85698	4535.3
2902.34727	4542.8
2904.83604	4532.5
2907.32328	4544.9
2909.809	4541.1
2912.29319	4547.5
2914.77587	4549.4
2917.25702	4551.6
2919.73665	4540.4
2922.21476	4559.5
2924.69136	4549
2927.16644	4558.6
2929.64	4547.2
2932.11205	4554.4
2934.58258	4537.2
2937.05161	4548.3
2939.51912	4553.5
2941.98513	4540.6
2944.44962	4529.8
2946.91261	4525.2
2949.37409	4529
2951.83407	4519
2954.29254	4506.6
2956.74951	4483.6
2959.20498	4476.9
2961.65895	4455
2964.11142	4464
2966.56239	4420.1
2969.01186	4425.4
2971.45984	4421.2
2973.90632	4421.8
2976.35131	4387.4
2978.7948	4386.6
2981.23681	4382.7
2983.67732	4353.5
2986.11635	4347.2
2988.55388	4333.2
2990.98993	4327.4
2993.4245	4331.2
2995.85758	4319.2
2998.28917	4295.3
3000.71928	4291.5
3003.14791	4269
3005.57506	4282.1
3008.00073	4270.3
3010.42493	4284.4
3012.84764	4264.5
3015.26888	4248.4
3017.68865	4238.1
3020.10694	4221.8
3022.52376	4207.6
3024.9391	4215.2
3027.35298	4198.2
3029.76539	4204.4
3032.17632	4196.7
3034.5858	4174.6
3036.9938	4167.5
3039.40034	4161.6
3041.80542	4148.3
3044.20903	4153.8
3046.61118	4141.6
3049.01187	4136.1
3051.4111	4135.8
3053.80888	4110
3056.20519	4110.3
3058.60005	4108.7
3060.99345	4111.1
3063.3854	4088.3
3065.7759	4082.3
3068.16494	4088.3
3070.55254	4067.4
3072.93868	4060.8
3075.32338	4046.8
3077.70662	4046.9
3080.08842	4016
3082.46878	4044.3
3084.84769	4002.6
3087.22515	4037.3
3089.60118	4013.6
3091.97576	4010.2
3094.3489	4016.3
3096.72061	4019.4
3099.09087	4023
3101.4597	4003.2
3103.82709	3982.2
3106.19305	3999.9
3108.55757	4012.8
3110.92066	3989.2
3113.28232	3990.1
3115.64255	3980.1
3118.00134	3956.2
3120.35871	3962.9
3122.71466	3954.5
3125.06917	3950.6
3127.42226	3956.6
3129.77393	3954.6
3132.12417	3942.2
3134.47299	3947.1
3136.82039	3958.3
3139.16636	3946.1
3141.51092	3947.4
3143.85406	3963.8
3146.19579	3946.6
3148.53609	3953.1
3150.87499	3959.2
3153.21246	3948.5
3155.54853	3964.8
3157.88318	3965.3
3160.21642	3968.8
3162.54826	3968.1
3164.87868	3968.6
3167.2077	3957.1
3169.5353	3947.2
3171.86151	3944.7
3174.18631	3960.9
3176.5097	3958.3
3178.83169	3948
3181.15228	3951
3183.47147	3946.6
3185.78926	3945.2
3188.10565	3935.4
3190.42065	3941
3192.73424	3941.5
3195.04645	3927.6
3197.35725	3922.3
3199.66667	3945.4
3201.97469	3941
3204.28132	3944.5
3206.58656	3945.1
3208.8904	3947.4
3211.19287	3947
3213.49394	3943.8
3215.79363	3923.8
3218.09193	3945.1
3220.38884	3957.3
3222.68438	3955.9
3224.97853	3943.6
3227.2713	3939.1
3229.56269	3937.5
3231.8527	3934.3
3234.14133	3923.3
3236.42858	3927.2
3238.71446	3912.5
3240.99896	3900.7
3243.28209	3900.7
3245.56384	3896.3
3247.84423	3872.6
3250.12324	3882.4
3252.40088	3881.2
3254.67715	3892.7
3256.95205	3873.7
3259.22558	3866.1
3261.49775	3864.1
3263.76855	3853.6
3266.03799	3837.2
3268.30606	3851.4
3270.57277	3829.5
3272.83812	3808.5
3275.10211	3821.7
3277.36474	3808.8
3279.62601	3810.8
3281.88593	3817.4
3284.14448	3806.1
3286.40168	3797.2
3288.65753	3787.3
3290.91202	3791.4
3293.16516	3792.2
3295.41695	3771.6
3297.66738	3748.2
3299.91647	3732.8
3302.16421	3707.7
3304.4106	3695
3306.65564	3673.3
3308.89933	3668.8
3311.14169	3638.3
3313.38269	3612.7
3315.62236	3603.3
3317.86068	3572.3
3320.09766	3526.3
3322.3333	3495.6
3324.5676	3510.2
3326.80056	3452.2
3329.03219	3429.6
3331.26248	1.8
3333.49143	0
3335.71905	1.1
