Data from AgNPs_FTO_APTES_UA_0um_CRN_0.1mM_R6G_10uM_NaF_0.1M_Addition_RamanShift__19__10-33-28-913.txt Node

Date: Tue Dec 21 10:33:28 GMT 2021
User: TCL
Spectrometer: QEP01345
Trigger mode: 4
Integration Time (sec): 7.000000E0
Scans to average: 10
Electric dark correction enabled: true
Nonlinearity correction enabled: false
Boxcar width: 0
XAxis mode: Raman Shifts
Number of Pixels in Spectrum: 1044
>>>>>Begin Spectral Data<<<<<
46.04893	0.025
50.45542	-0.875
54.85868	-0.775
59.25871	0.625
63.6555	18.225
68.04907	21.725
72.43941	23.725
76.82654	20.625
81.21044	28.625
85.59113	26.125
89.96862	30.525
94.34289	26.725
98.71396	30.025
103.08183	31.825
107.4465	33.125
111.80798	35.125
116.16626	34.025
120.52136	33.525
124.87327	34.725
129.222	35.525
133.56755	34.725
137.90993	38.525
142.24913	33.725
146.58517	40.425
150.91804	44.125
155.24774	52.425
159.57429	57.325
163.89768	75.225
168.21792	94.025
172.53501	114.525
176.84895	153.725
181.15975	207.325
185.46741	281.725
189.77193	390.825
194.07331	525.125
198.37157	699.325
202.6667	891.525
206.9587	1099.025
211.24758	1312.025
215.53334	1508.425
219.81599	1709.025
224.09553	1929.825
228.37195	2145.125
232.64527	2324.325
236.91549	2504.825
241.18261	2657.725
245.44663	2783.125
249.70755	2873.125
253.96539	2935.125
258.22014	2973.125
262.4718	2972.025
266.72039	2952.225
270.96589	2894.525
275.20832	2806.025
279.44768	2716.025
283.68397	2617.925
287.91719	2536.225
292.14735	2466.625
296.37445	2428.925
300.59849	2425.125
304.81948	2419.125
309.03742	2445.025
313.25231	2419.725
317.46415	2383.825
321.67296	2303.325
325.87872	2245.025
330.08145	2211.325
334.28114	2208.325
338.47781	2226.725
342.67145	2253.425
346.86207	2288.625
351.04966	2351.625
355.23424	2402.525
359.4158	2475.125
363.59435	2515.725
367.76989	2531.525
371.94243	2526.625
376.11196	2532.825
380.27849	2538.025
384.44203	2533.825
388.60257	2523.525
392.76012	2533.125
396.91468	2541.625
401.06626	2557.125
405.21485	2578.325
409.36047	2568.825
413.50311	2526.625
417.64277	2475.425
421.77947	2466.325
425.9132	2464.625
430.04396	2478.025
434.17176	2498.125
438.2966	2550.125
442.41849	2604.225
446.53742	2662.625
450.6534	2732.725
454.76644	2779.725
458.87653	2802.825
462.98368	2769.625
467.08789	2727.825
471.18916	2673.125
475.2875	2638.125
479.38291	2603.625
483.4754	2587.025
487.56496	2558.825
491.6516	2558.925
495.73531	2557.225
499.81612	2559.425
503.89401	2569.425
507.96899	2573.725
512.04106	2581.125
516.11023	2579.325
520.1765	2567.625
524.23987	2571.225
528.30034	2562.025
532.35792	2543.725
536.41261	2529.125
540.46441	2510.125
544.51333	2505.225
548.55936	2500.225
552.60252	2516.925
556.64279	2541.325
560.6802	2566.725
564.71473	2589.825
568.7464	2639.325
572.7752	2712.725
576.80114	2708.125
580.82422	2659.125
584.84444	2602.025
588.86181	2587.425
592.87633	2607.925
596.888	2640.425
600.89682	2703.925
604.9028	2803.325
608.90594	3086.725
612.90624	3483.425
616.90371	3519.925
620.89834	3029.625
624.89015	2750.525
628.87913	2698.925
632.86528	2740.925
636.84862	2802.625
640.82913	2869.625
644.80683	2934.325
648.78172	2996.125
652.75379	3006.225
656.72306	2962.525
660.68952	2881.325
664.65319	2842.425
668.61405	2828.225
672.57211	2928.025
676.52738	3109.425
680.47986	3276.925
684.42955	3333.525
688.37646	3232.025
692.32058	3101.425
696.26192	3017.525
700.20048	2998.025
704.13626	2966.625
708.06928	2914.625
711.99952	2824.825
715.927	2740.425
719.85171	2735.225
723.77365	2747.825
727.69284	2753.025
731.60928	2747.725
735.52295	2742.225
739.43388	2736.125
743.34206	2724.225
747.24749	2730.425
751.15017	2757.625
755.05012	2782.725
758.94733	2805.825
762.8418	2854.625
766.73354	2933.225
770.62254	3047.625
774.50882	3117.025
778.39237	3053.025
782.27321	2864.825
786.15132	2695.325
790.02671	2597.825
793.89938	2549.825
797.76935	2544.725
801.6366	2543.825
805.50115	2560.225
809.36299	2555.625
813.22213	2531.825
817.07857	2500.325
820.93231	2471.825
824.78336	2448.825
828.63172	2461.925
832.47738	2455.225
836.32036	2454.725
840.16066	2453.925
843.99827	2450.625
847.8332	2459.125
851.66546	2488.625
855.49504	2510.125
859.32195	2575.025
863.1462	2621.425
866.96777	2651.925
870.78668	2612.925
874.60293	2565.125
878.41652	2540.625
882.22745	2506.225
886.03573	2471.625
889.84136	2477.825
893.64433	2447.925
897.44466	2456.625
901.24235	2444.425
905.0374	2461.325
908.8298	2439.925
912.61957	2478.225
916.40671	2509.425
920.19121	2593.725
923.97308	2678.325
927.75233	2791.225
931.52895	2887.225
935.30295	2894.225
939.07433	2835.225
942.84309	2720.425
946.60924	2636.225
950.37278	2525.225
954.13371	2483.725
957.89203	2433.525
961.64774	2417.525
965.40086	2395.725
969.15137	2374.225
972.89929	2355.025
976.64461	2314.325
980.38733	2311.225
984.12747	2301.925
987.86502	2277.525
991.59999	2285.125
995.33237	2286.925
999.06217	2288.625
1002.78939	2294.925
1006.51404	2319.225
1010.23611	2328.225
1013.95561	2346.425
1017.67255	2365.825
1021.38692	2350.225
1025.09872	2360.325
1028.80796	2343.625
1032.51465	2344.825
1036.21877	2373.125
1039.92035	2385.025
1043.61937	2406.925
1047.31584	2442.825
1051.00976	2455.325
1054.70114	2462.025
1058.38998	2427.125
1062.07627	2400.125
1065.76003	2363.225
1069.44126	2307.025
1073.11995	2293.625
1076.79611	2276.225
1080.46974	2271.025
1084.14085	2280.025
1087.80943	2289.225
1091.47549	2289.725
1095.13903	2277.325
1098.80005	2261.325
1102.45857	2236.325
1106.11456	2215.125
1109.76805	2226.425
1113.41903	2258.225
1117.06751	2297.525
1120.71348	2338.325
1124.35696	2389.025
1127.99793	2427.325
1131.63641	2460.325
1135.2724	2428.025
1138.90589	2376.125
1142.5369	2339.825
1146.16542	2325.825
1149.79145	2295.725
1153.415	2286.325
1157.03607	2271.725
1160.65467	2280.625
1164.27079	2290.725
1167.88443	2321.825
1171.49561	2378.625
1175.10432	2482.525
1178.71056	2630.825
1182.31434	2769.825
1185.91565	2797.625
1189.51451	2740.525
1193.11091	2655.725
1196.70485	2565.925
1200.29634	2501.225
1203.88538	2464.525
1207.47197	2404.125
1211.05612	2365.225
1214.63782	2324.625
1218.21708	2325.525
1221.79391	2329.125
1225.36829	2343.925
1228.94024	2350.925
1232.50976	2346.925
1236.07685	2357.825
1239.6415	2374.625
1243.20374	2385.825
1246.76355	2413.325
1250.32093	2427.025
1253.8759	2443.025
1257.42845	2485.025
1260.97859	2507.725
1264.52631	2545.525
1268.07163	2566.725
1271.61453	2583.425
1275.15503	2595.225
1278.69312	2604.625
1282.22882	2594.225
1285.76211	2595.925
1289.29301	2646.725
1292.82151	2694.325
1296.34761	2736.725
1299.87133	2789.325
1303.39266	2900.125
1306.9116	3043.625
1310.42815	3259.725
1313.94233	3390.125
1317.45412	3374.625
1320.96354	3253.325
1324.47058	3085.025
1327.97525	2953.725
1331.47754	2891.825
1334.97747	2899.025
1338.47502	2974.125
1341.97022	3051.325
1345.46305	3173.525
1348.95352	3320.425
1352.44163	3519.025
1355.92738	3743.025
1359.41078	4064.525
1362.89183	4370.325
1366.37053	4397.225
1369.84688	4037.225
1373.32088	3589.625
1376.79254	3275.325
1380.26186	3096.025
1383.72883	2979.625
1387.19347	2891.725
1390.65578	2819.125
1394.11575	2779.625
1397.57339	2752.225
1401.0287	2777.825
1404.48168	2814.325
1407.93234	2850.625
1411.38068	2920.825
1414.82669	3016.325
1418.27039	3110.925
1421.71177	3208.925
1425.15083	3225.225
1428.58758	3201.025
1432.02203	3163.625
1435.45416	3117.225
1438.88399	3060.525
1442.31151	2983.525
1445.73673	2929.125
1449.15965	2887.425
1452.58027	2845.425
1455.9986	2787.625
1459.41463	2745.725
1462.82837	2722.325
1466.23982	2698.125
1469.64898	2700.125
1473.05586	2698.725
1476.46045	2669.825
1479.86276	2649.025
1483.26279	2633.625
1486.66054	2615.625
1490.05602	2604.825
1493.44922	2636.325
1496.84016	2646.825
1500.22882	2724.525
1503.61521	2866.025
1506.99934	3059.525
1510.38121	3281.725
1513.76081	3396.925
1517.13816	3347.725
1520.51324	3104.625
1523.88607	2827.625
1527.25665	2654.225
1530.62498	2557.725
1533.99105	2517.925
1537.35488	2498.925
1540.71647	2489.625
1544.07581	2483.825
1547.4329	2483.525
1550.78776	2498.925
1554.14038	2507.425
1557.49077	2521.025
1560.83892	2534.125
1564.18484	2556.425
1567.52853	2578.125
1570.86999	2610.825
1574.20922	2621.425
1577.54624	2619.325
1580.88103	2567.925
1584.2136	2468.025
1587.54395	2404.225
1590.87208	2380.625
1594.19801	2405.225
1597.52172	2466.525
1600.84321	2528.725
1604.16251	2528.025
1607.47959	2467.425
1610.79447	2383.925
1614.10715	2326.425
1617.41763	2273.725
1620.7259	2257.925
1624.03199	2254.825
1627.33587	2269.225
1630.63757	2297.225
1633.93707	2342.825
1637.23439	2384.525
1640.52951	2478.425
1643.82246	2630.325
1647.11321	2790.525
1650.40179	2935.925
1653.68819	2935.825
1656.97241	2745.325
1660.25446	2538.425
1663.53433	2390.125
1666.81203	2289.925
1670.08756	2225.425
1673.36092	2161.225
1676.63211	2116.125
1679.90115	2032.825
1683.16801	1981.025
1686.43272	1918.225
1689.69527	1857.125
1692.95567	1816.225
1696.2139	1776.325
1699.46999	1759.525
1702.72392	1744.525
1705.97571	1766.025
1709.22535	1789.125
1712.47284	1825.225
1715.71819	1853.725
1718.96139	1862.125
1722.20246	1869.025
1725.44139	1861.125
1728.67818	1837.725
1731.91284	1821.025
1735.14537	1788.025
1738.37576	1772.325
1741.60403	1761.925
1744.83017	1748.725
1748.05418	1751.425
1751.27607	1732.225
1754.49584	1723.125
1757.71349	1679.525
1760.92903	1615.825
1764.14244	1554.025
1767.35375	1522.425
1770.56294	1473.925
1773.77002	1438.025
1776.97499	1425.725
1780.17785	1407.425
1783.37861	1402.025
1786.57727	1382.425
1789.77382	1382.525
1792.96828	1350.925
1796.16064	1338.925
1799.3509	1329.725
1802.53907	1322.225
1805.72514	1308.225
1808.90913	1303.325
1812.09102	1290.625
1815.27083	1281.525
1818.44856	1278.125
1821.6242	1279.525
1824.79776	1272.225
1827.96924	1266.025
1831.13864	1272.525
1834.30597	1255.325
1837.47122	1261.025
1840.6344	1246.525
1843.7955	1254.325
1846.95454	1249.625
1850.11151	1242.625
1853.26642	1250.525
1856.41926	1235.225
1859.57004	1240.225
1862.71876	1235.325
1865.86542	1229.725
1869.01003	1228.425
1872.15258	1227.025
1875.29308	1225.525
1878.43152	1225.025
1881.56792	1221.025
1884.70227	1204.825
1887.83457	1208.025
1890.96482	1200.325
1894.09304	1196.125
1897.21921	1209.525
1900.34335	1199.025
1903.46544	1199.025
1906.58551	1190.025
1909.70353	1193.625
1912.81953	1182.925
1915.93349	1183.225
1919.04543	1185.525
1922.15534	1183.625
1925.26322	1177.525
1928.36908	1170.825
1931.47292	1163.725
1934.57473	1164.125
1937.67453	1165.325
1940.77232	1151.025
1943.86808	1153.625
1946.96184	1153.325
1950.05358	1140.925
1953.14331	1137.125
1956.23103	1134.025
1959.31675	1128.825
1962.40046	1122.725
1965.48217	1116.425
1968.56188	1108.725
1971.63959	1114.025
1974.7153	1113.225
1977.78901	1101.725
1980.86073	1102.425
1983.93046	1099.425
1986.99819	1086.825
1990.06394	1078.925
1993.1277	1074.125
1996.18947	1078.625
1999.24925	1070.525
2002.30706	1067.225
2005.36288	1059.725
2008.41672	1064.025
2011.46859	1056.125
2014.51848	1063.525
2017.56639	1057.225
2020.61233	1055.825
2023.6563	1049.825
2026.6983	1035.725
2029.73833	1041.225
2032.7764	1032.525
2035.8125	1032.525
2038.84664	1035.425
2041.87881	1032.525
2044.90903	1027.325
2047.93729	1024.225
2050.96359	1027.025
2053.98794	1018.325
2057.01034	1028.425
2060.03078	1022.425
2063.04927	1024.125
2066.06582	1012.725
2069.08042	1013.225
2072.09307	1007.925
2075.10378	1006.625
2078.11255	1012.925
2081.11938	1008.625
2084.12426	1011.425
2087.12722	1010.025
2090.12824	1015.025
2093.12732	1013.125
2096.12447	1018.125
2099.11969	1004.425
2102.11299	1006.825
2105.10435	1025.225
2108.09379	1019.225
2111.08131	1011.225
2114.0669	1009.325
2117.05057	1004.125
2120.03233	1009.525
2123.01216	999.125
2125.99008	1000.625
2128.96609	997.325
2131.94018	987.025
2134.91236	991.925
2137.88263	989.725
2140.851	990.325
2143.81746	987.725
2146.78201	991.925
2149.74466	991.525
2152.7054	987.725
2155.66425	981.625
2158.6212	978.725
2161.57625	978.325
2164.52941	979.625
2167.48067	979.025
2170.43004	967.925
2173.37752	970.925
2176.32311	970.625
2179.26681	971.725
2182.20863	968.125
2185.14856	970.525
2188.08661	967.725
2191.02278	964.925
2193.95707	963.525
2196.88948	958.525
2199.82001	959.725
2202.74867	962.125
2205.67545	953.825
2208.60037	955.425
2211.52341	960.925
2214.44458	946.425
2217.36388	952.825
2220.28132	940.625
2223.1969	939.525
2226.11061	939.325
2229.02246	941.525
2231.93245	932.625
2234.84058	929.325
2237.74686	930.925
2240.65128	927.225
2243.55385	916.225
2246.45456	924.225
2249.35343	913.025
2252.25044	916.725
2255.14561	909.325
2258.03893	917.525
2260.93041	908.125
2263.82004	904.125
2266.70783	902.325
2269.59378	896.325
2272.4779	892.925
2275.36017	894.225
2278.24061	894.625
2281.11922	893.525
2283.996	887.425
2286.87094	887.525
2289.74405	879.125
2292.61534	884.625
2295.4848	883.725
2298.35243	877.725
2301.21824	872.925
2304.08223	873.425
2306.94439	874.925
2309.80474	868.125
2312.66327	864.925
2315.51999	873.325
2318.37489	857.825
2321.22797	869.525
2324.07925	857.625
2326.92871	864.325
2329.77637	861.325
2332.62222	864.825
2335.46626	853.825
2338.3085	857.225
2341.14893	852.025
2343.98756	850.125
2346.8244	845.325
2349.65943	846.425
2352.49267	850.325
2355.32411	839.325
2358.15376	851.225
2360.98161	843.325
2363.80768	838.625
2366.63195	845.925
2369.45444	843.125
2372.27514	834.825
2375.09405	838.125
2377.91118	839.125
2380.72652	830.625
2383.54009	832.825
2386.35187	831.525
2389.16188	823.825
2391.97011	825.625
2394.77657	821.625
2397.58125	822.025
2400.38416	816.725
2403.18529	815.725
2405.98466	813.325
2408.78226	815.225
2411.57809	809.025
2414.37216	814.725
2417.16446	811.025
2419.955	806.025
2422.74378	805.125
2425.5308	798.125
2428.31606	801.925
2431.09956	796.625
2433.88131	798.725
2436.6613	798.225
2439.43954	788.325
2442.21603	784.825
2444.99077	788.425
2447.76377	790.625
2450.53501	787.625
2453.30451	788.225
2456.07226	788.125
2458.83827	779.925
2461.60254	778.025
2464.36507	778.925
2467.12586	779.625
2469.88492	775.425
2472.64224	780.025
2475.39782	776.325
2478.15167	778.425
2480.90379	770.725
2483.65417	774.825
2486.40283	773.925
2489.14976	775.625
2491.89497	772.125
2494.63845	774.525
2497.3802	771.425
2500.12024	771.925
2502.85855	769.125
2505.59514	761.425
2508.33002	761.325
2511.06318	753.025
2513.79462	757.125
2516.52435	752.125
2519.25237	749.725
2521.97867	744.425
2524.70327	748.225
2527.42616	744.925
2530.14734	742.225
2532.86681	747.425
2535.58458	738.825
2538.30065	732.925
2541.01501	739.925
2543.72768	739.025
2546.43864	733.125
2549.14791	735.725
2551.85548	728.225
2554.56136	731.125
2557.26554	727.425
2559.96803	732.725
2562.66883	727.425
2565.36794	722.325
2568.06536	724.725
2570.7611	720.725
2573.45514	718.725
2576.14751	723.925
2578.83819	719.525
2581.52719	717.025
2584.21451	709.025
2586.90015	709.625
2589.58411	708.125
2592.2664	705.625
2594.94701	710.625
2597.62594	704.425
2600.30321	700.425
2602.9788	698.125
2605.65273	693.925
2608.32498	700.425
2610.99557	700.825
2613.66449	697.125
2616.33175	694.025
2618.99734	698.425
2621.66128	688.825
2624.32355	693.225
2626.98416	696.025
2629.64311	690.125
2632.30041	688.925
2634.95605	692.325
2637.61004	687.525
2640.26238	684.525
2642.91306	687.025
2645.56209	684.025
2648.20948	676.225
2650.85521	681.225
2653.4993	678.125
2656.14175	690.925
2658.78255	680.425
2661.42171	685.725
2664.05923	681.025
2666.6951	681.125
2669.32934	686.325
2671.96194	687.125
2674.59291	690.125
2677.22224	690.425
2679.84993	688.625
2682.476	686.525
2685.10043	692.125
2687.72324	690.125
2690.34441	686.625
2692.96396	688.125
2695.58188	686.025
2698.19818	686.025
2700.81285	690.525
2703.4259	696.325
2706.03733	695.125
2708.64714	686.325
2711.25533	693.125
2713.86191	681.125
2716.46687	697.125
2719.07021	699.125
2721.67194	699.925
2724.27206	702.225
2726.87057	696.625
2729.46747	702.925
2732.06276	698.825
2734.65644	698.025
2737.24852	702.425
2739.83899	697.925
2742.42786	701.225
2745.01513	700.325
2747.60079	709.725
2750.18486	699.625
2752.76733	706.025
2755.3482	703.725
2757.92747	704.325
2760.50515	714.825
2763.08123	702.625
2765.65573	708.225
2768.22863	716.825
2770.79994	715.025
2773.36967	725.425
2775.9378	720.725
2778.50435	724.625
2781.06932	719.625
2783.6327	730.125
2786.1945	727.225
2788.75471	731.825
2791.31335	734.125
2793.87041	739.125
2796.42589	741.925
2798.97979	754.625
2801.53212	752.325
2804.08288	760.925
2806.63206	762.625
2809.17967	776.825
2811.72571	784.325
2814.27018	790.425
2816.81308	793.225
2819.35442	795.525
2821.89419	807.525
2824.43239	806.925
2826.96904	813.925
2829.50412	815.425
2832.03763	820.125
2834.56959	818.025
2837.1	831.625
2839.62884	836.725
2842.15613	839.425
2844.68186	849.025
2847.20604	857.425
2849.72867	858.925
2852.24974	863.925
2854.76927	863.625
2857.28724	870.725
2859.80367	865.925
2862.31855	879.525
2864.83189	896.225
2867.34368	960.025
2869.85393	928.825
2872.36264	904.025
2874.8698	915.625
2877.37543	937.025
2879.87952	958.625
2882.38207	964.825
2884.88308	987.825
2887.38256	1001.825
2889.88051	1007.325
2892.37692	1034.425
2894.8718	1037.625
2897.36515	1067.325
2899.85698	1074.525
2902.34727	1095.425
2904.83604	1112.125
2907.32328	1125.225
2909.809	1148.225
2912.29319	1166.725
2914.77587	1186.025
2917.25702	1185.925
2919.73665	1194.225
2922.21476	1199.925
2924.69136	1210.925
2927.16644	1212.625
2929.64	1215.925
2932.11205	1214.925
2934.58258	1203.325
2937.05161	1204.525
2939.51912	1201.625
2941.98513	1179.225
2944.44962	1171.825
2946.91261	1158.925
2949.37409	1152.325
2951.83407	1145.425
2954.29254	1106.425
2956.74951	1073.325
2959.20498	1045.025
2961.65895	1013.025
2964.11142	990.725
2966.56239	966.325
2969.01186	942.025
2971.45984	924.325
2973.90632	895.025
2976.35131	882.725
2978.7948	866.725
2981.23681	861.025
2983.67732	846.125
2986.11635	834.825
2988.55388	831.125
2990.98993	808.725
2993.4245	818.825
2995.85758	806.425
2998.28917	808.225
3000.71928	803.325
3003.14791	801.125
3005.57506	802.225
3008.00073	796.425
3010.42493	788.325
3012.84764	783.625
3015.26888	781.425
3017.68865	776.725
3020.10694	758.225
3022.52376	762.625
3024.9391	755.925
3027.35298	747.825
3029.76539	735.725
3032.17632	729.225
3034.5858	716.225
3036.9938	709.125
3039.40034	697.725
3041.80542	698.725
3044.20903	696.125
3046.61118	684.625
3049.01187	686.525
3051.4111	677.325
3053.80888	673.425
3056.20519	679.025
3058.60005	678.025
3060.99345	672.625
3063.3854	667.125
3065.7759	669.325
3068.16494	665.925
3070.55254	660.225
3072.93868	663.425
3075.32338	664.625
3077.70662	670.925
3080.08842	664.025
3082.46878	672.325
3084.84769	667.425
3087.22515	671.325
3089.60118	670.425
3091.97576	681.325
3094.3489	675.425
3096.72061	684.025
3099.09087	683.525
3101.4597	682.625
3103.82709	684.825
3106.19305	690.725
3108.55757	688.425
3110.92066	695.525
3113.28232	693.325
3115.64255	692.725
3118.00134	696.025
3120.35871	701.425
3122.71466	701.025
3125.06917	703.525
3127.42226	715.125
3129.77393	713.525
3132.12417	716.225
3134.47299	719.925
3136.82039	720.025
3139.16636	725.325
3141.51092	740.025
3143.85406	738.525
3146.19579	741.525
3148.53609	743.525
3150.87499	749.825
3153.21246	756.425
3155.54853	764.625
3157.88318	770.825
3160.21642	762.925
3162.54826	774.825
3164.87868	776.725
3167.2077	777.925
3169.5353	781.025
3171.86151	793.825
3174.18631	801.725
3176.5097	800.525
3178.83169	803.825
3181.15228	803.025
3183.47147	815.625
3185.78926	806.225
3188.10565	818.025
3190.42065	823.725
3192.73424	821.225
3195.04645	824.125
3197.35725	832.825
3199.66667	832.525
3201.97469	837.125
3204.28132	833.925
3206.58656	847.825
3208.8904	848.625
3211.19287	850.425
3213.49394	846.625
3215.79363	850.725
3218.09193	862.525
3220.38884	861.225
3222.68438	854.825
3224.97853	856.725
3227.2713	857.125
3229.56269	866.225
3231.8527	872.925
3234.14133	863.625
3236.42858	868.525
3238.71446	868.825
3240.99896	869.925
3243.28209	869.825
3245.56384	871.325
3247.84423	866.725
3250.12324	868.625
3252.40088	868.625
3254.67715	871.225
3256.95205	873.725
3259.22558	879.225
3261.49775	878.725
3263.76855	874.425
3266.03799	882.325
3268.30606	874.325
3270.57277	876.725
3272.83812	871.825
3275.10211	877.125
3277.36474	877.425
3279.62601	873.625
3281.88593	871.225
3284.14448	876.325
