Data from AgNPs_FTO_APTES_UA_100um_CRN_0.1mM_R6G_10uM_NaF_0.1M_Addition_RamanShift__19__16-07-09-295.txt Node

Date: Tue Dec 21 16:07:09 GMT 2021
User: TCL
Spectrometer: QEP01345
Trigger mode: 4
Integration Time (sec): 7.000000E0
Scans to average: 10
Electric dark correction enabled: true
Nonlinearity correction enabled: false
Boxcar width: 0
XAxis mode: Raman Shifts
Number of Pixels in Spectrum: 1044
>>>>>Begin Spectral Data<<<<<
46.04893	0.4
50.45542	-1.7
54.85868	-0.5
59.25871	1.2
63.6555	32.5
68.04907	38.8
72.43941	39
76.82654	43.7
81.21044	47.7
85.59113	43.3
89.96862	45.8
94.34289	47.2
98.71396	48.3
103.08183	53.8
107.4465	53
111.80798	54.9
116.16626	52.3
120.52136	53.9
124.87327	55.7
129.222	55.2
133.56755	59.4
137.90993	65
142.24913	67.9
146.58517	77.6
150.91804	83.3
155.24774	99.3
159.57429	115.1
163.89768	151.7
168.21792	194.2
172.53501	256
176.84895	354.5
181.15975	492.9
185.46741	688.4
189.77193	948.8
194.07331	1280.4
198.37157	1654.5
202.6667	2062.7
206.9587	2462.2
211.24758	2841
215.53334	3248.3
219.81599	3662.5
224.09553	4117.4
228.37195	4616
232.64527	5161.8
236.91549	5734.1
241.18261	6332.2
245.44663	6867.2
249.70755	7371.2
253.96539	7790.8
258.22014	8121.3
262.4718	8400.1
266.72039	8592.1
270.96589	8734.7
275.20832	8702.8
279.44768	8646.2
283.68397	8515.3
287.91719	8404.2
292.14735	8340.5
296.37445	8332.4
300.59849	8373.2
304.81948	8414.6
309.03742	8388.6
313.25231	8283.7
317.46415	8066
321.67296	7861.2
325.87872	7661
330.08145	7541.6
334.28114	7544.7
338.47781	7628
342.67145	7697.7
346.86207	7816.8
351.04966	7989
355.23424	8172.1
359.4158	8340.8
363.59435	8466.6
367.76989	8554
371.94243	8636.8
376.11196	8696.3
380.27849	8766.4
384.44203	8806.7
388.60257	8831.3
392.76012	8878.5
396.91468	8951.2
401.06626	9069
405.21485	9149.7
409.36047	9103.8
413.50311	8930.2
417.64277	8759.2
421.77947	8667.6
425.9132	8599.3
430.04396	8609.1
434.17176	8657.3
438.2966	8696.3
442.41849	8772.9
446.53742	8930.4
450.6534	9077.6
454.76644	9247.5
458.87653	9340.2
462.98368	9340
467.08789	9279.2
471.18916	9215.4
475.2875	9179.2
479.38291	9148.8
483.4754	9126.7
487.56496	9049.2
491.6516	8963.5
495.73531	8900.9
499.81612	8840.8
503.89401	8898.5
507.96899	8891.1
512.04106	8901.9
516.11023	8925.4
520.1765	8918.5
524.23987	8896.7
528.30034	8828.9
532.35792	8809.3
536.41261	8746
540.46441	8652.3
544.51333	8629.9
548.55936	8655.6
552.60252	8724.5
556.64279	8813
560.6802	8889.6
564.71473	8923.2
568.7464	8978.5
572.7752	9062.9
576.80114	9100.2
580.82422	9125.8
584.84444	9149.5
588.86181	9194.3
592.87633	9231.2
596.888	9278.4
600.89682	9324.1
604.9028	9647.7
608.90594	10560.4
612.90624	11732
616.90371	11423.4
620.89834	9696.1
624.89015	8839.4
628.87913	8763.7
632.86528	8898.5
636.84862	9019.2
640.82913	8993.3
644.80683	8770.5
648.78172	8503.7
652.75379	8410.8
656.72306	8453.2
660.68952	8556.9
664.65319	8578.1
668.61405	8450.1
672.57211	8431
676.52738	8479.1
680.47986	8490.7
684.42955	8457.9
688.37646	8386.5
692.32058	8343.3
696.26192	8342.2
700.20048	8342.2
704.13626	8355.6
708.06928	8358.9
711.99952	8288.8
715.927	8267
719.85171	8276.4
723.77365	8250.6
727.69284	8231.4
731.60928	8186.5
735.52295	8181.6
739.43388	8153.9
743.34206	8154.6
747.24749	8156.9
751.15017	8150.8
755.05012	8181.2
758.94733	8347.9
762.8418	8666.1
766.73354	9281.1
770.62254	9991.6
774.50882	10423.4
778.39237	10138.3
782.27321	9346.5
786.15132	8668.1
790.02671	8227.5
793.89938	8024.7
797.76935	7939.2
801.6366	7887.8
805.50115	7879.8
809.36299	7900.7
813.22213	7851.9
817.07857	7831.5
820.93231	7810
824.78336	7744
828.63172	7681.2
832.47738	7641.2
836.32036	7633
840.16066	7602.8
843.99827	7591
847.8332	7570.6
851.66546	7538.6
855.49504	7517.4
859.32195	7525.5
863.1462	7526.8
866.96777	7539
870.78668	7531.5
874.60293	7557.6
878.41652	7560.5
882.22745	7562.8
886.03573	7600.8
889.84136	7606.8
893.64433	7573.4
897.44466	7512.4
901.24235	7443.5
905.0374	7361.8
908.8298	7349.6
912.61957	7289.1
916.40671	7311.6
920.19121	7362.9
923.97308	7394.5
927.75233	7378.2
931.52895	7359.6
935.30295	7323.9
939.07433	7218.1
942.84309	7104.9
946.60924	7078.9
950.37278	7029
954.13371	7005.6
957.89203	6988.5
961.64774	6955.2
965.40086	6924.4
969.15137	6895.1
972.89929	6837.5
976.64461	6799.8
980.38733	6797.7
984.12747	6788.3
987.86502	6813.6
991.59999	6826.6
995.33237	6850
999.06217	6926.8
1002.78939	7005
1006.51404	7072.5
1010.23611	7156.9
1013.95561	7222.5
1017.67255	7252.9
1021.38692	7219.5
1025.09872	7113.7
1028.80796	7043.8
1032.51465	7028.2
1036.21877	7057.6
1039.92035	7070
1043.61937	7083.3
1047.31584	7079.4
1051.00976	7077.8
1054.70114	7078.5
1058.38998	7093.9
1062.07627	7133.9
1065.76003	7176.9
1069.44126	7211.1
1073.11995	7265.3
1076.79611	7301.1
1080.46974	7319.8
1084.14085	7330.6
1087.80943	7369.1
1091.47549	7397.6
1095.13903	7415.9
1098.80005	7364.5
1102.45857	7224.7
1106.11456	7148.4
1109.76805	7125.5
1113.41903	7188.8
1117.06751	7266.6
1120.71348	7381.1
1124.35696	7503.2
1127.99793	7684.6
1131.63641	7823.7
1135.2724	7778.2
1138.90589	7683.9
1142.5369	7560.6
1146.16542	7461.8
1149.79145	7372.8
1153.415	7322.9
1157.03607	7318.6
1160.65467	7396.7
1164.27079	7551.6
1167.88443	7794.9
1171.49561	8142.8
1175.10432	8613.2
1178.71056	9249.6
1182.31434	9862.2
1185.91565	10118.6
1189.51451	10031.8
1193.11091	9759.7
1196.70485	9387.7
1200.29634	9057.9
1203.88538	8822.5
1207.47197	8556
1211.05612	8295.3
1214.63782	8077.1
1218.21708	7889.5
1221.79391	7799.7
1225.36829	7714.5
1228.94024	7675.6
1232.50976	7600.9
1236.07685	7564
1239.6415	7549.4
1243.20374	7547.3
1246.76355	7593
1250.32093	7674.6
1253.8759	7760.3
1257.42845	7910.7
1260.97859	8049.7
1264.52631	8201.6
1268.07163	8347.8
1271.61453	8498.4
1275.15503	8649.3
1278.69312	8788.1
1282.22882	8906.1
1285.76211	9070.2
1289.29301	9303.2
1292.82151	9600.9
1296.34761	9932.1
1299.87133	10361.9
1303.39266	10823.7
1306.9116	11347.1
1310.42815	11901.4
1313.94233	12270.9
1317.45412	12236.6
1320.96354	11973.3
1324.47058	11656.4
1327.97525	11342.4
1331.47754	11102.3
1334.97747	10916.1
1338.47502	10883.9
1341.97022	10927.8
1345.46305	11021.3
1348.95352	11177.9
1352.44163	11435.1
1355.92738	11908.3
1359.41078	12583.2
1362.89183	13330.5
1366.37053	13286.9
1369.84688	12162.5
1373.32088	10739.9
1376.79254	9732.1
1380.26186	9275.9
1383.72883	9088.4
1387.19347	8969.2
1390.65578	8860.8
1394.11575	8742.9
1397.57339	8719.9
1401.0287	8730.1
1404.48168	8740.5
1407.93234	8716.9
1411.38068	8604.8
1414.82669	8430.9
1418.27039	8181.9
1421.71177	7945.4
1425.15083	7718.8
1428.58758	7570.9
1432.02203	7525.1
1435.45416	7604.3
1438.88399	7694.9
1442.31151	7792.3
1445.73673	7872
1449.15965	7988.5
1452.58027	8074.5
1455.9986	8122.8
1459.41463	8189.8
1462.82837	8273.5
1466.23982	8378.3
1469.64898	8491.7
1473.05586	8583.9
1476.46045	8590.1
1479.86276	8604
1483.26279	8588.3
1486.66054	8621.1
1490.05602	8691.8
1493.44922	8814.1
1496.84016	9033.7
1500.22882	9440.2
1503.61521	10005.8
1506.99934	10708.5
1510.38121	11314.8
1513.76081	11557.4
1517.13816	11203.5
1520.51324	10473.4
1523.88607	9740.3
1527.25665	9226.7
1530.62498	8974.6
1533.99105	8807.4
1537.35488	8686.2
1540.71647	8552.9
1544.07581	8413.6
1547.4329	8255
1550.78776	8188.7
1554.14038	8139.7
1557.49077	8146.3
1560.83892	8223.9
1564.18484	8344.4
1567.52853	8421.1
1570.86999	8536.3
1574.20922	8662.6
1577.54624	8699.5
1580.88103	8569.7
1584.2136	8372.6
1587.54395	8268.3
1590.87208	8330.4
1594.19801	8580.1
1597.52172	8925.5
1600.84321	9063.7
1604.16251	8854.3
1607.47959	8453.5
1610.79447	7978.3
1614.10715	7539.3
1617.41763	7146.7
1620.7259	6835.1
1624.03199	6709.9
1627.33587	6619.1
1630.63757	6710.4
1633.93707	6912.9
1637.23439	7263.7
1640.52951	7837.1
1643.82246	8605.2
1647.11321	9414.4
1650.40179	9946.2
1653.68819	9844.9
1656.97241	9010.3
1660.25446	8014.4
1663.53433	7199.2
1666.81203	6621.9
1670.08756	6282.8
1673.36092	6047.7
1676.63211	5888.7
1679.90115	5775.9
1683.16801	5688.9
1686.43272	5615.6
1689.69527	5573.4
1692.95567	5544
1696.2139	5518.6
1699.46999	5489.3
1702.72392	5446.6
1705.97571	5358.5
1709.22535	5304.9
1712.47284	5264.6
1715.71819	5234.5
1718.96139	5214
1722.20246	5168.1
1725.44139	5173.7
1728.67818	5130.8
1731.91284	5083.6
1735.14537	5058.1
1738.37576	5051.7
1741.60403	5009.9
1744.83017	5013.7
1748.05418	4995.7
1751.27607	4999.5
1754.49584	5000.1
1757.71349	5002.4
1760.92903	4993.3
1764.14244	4978.4
1767.35375	4985.9
1770.56294	4932.8
1773.77002	4902
1776.97499	4858.9
1780.17785	4850
1783.37861	4829
1786.57727	4812.2
1789.77382	4774.8
1792.96828	4750.2
1796.16064	4737.6
1799.3509	4714.6
1802.53907	4709
1805.72514	4669.9
1808.90913	4654.8
1812.09102	4650.4
1815.27083	4632.2
1818.44856	4622
1821.6242	4598.2
1824.79776	4581.9
1827.96924	4582.6
1831.13864	4577.8
1834.30597	4576
1837.47122	4567.9
1840.6344	4542
1843.7955	4547.7
1846.95454	4546
1850.11151	4524.8
1853.26642	4517.6
1856.41926	4518.2
1859.57004	4509.3
1862.71876	4487.4
1865.86542	4499
1869.01003	4492.5
1872.15258	4486.7
1875.29308	4468.7
1878.43152	4457.5
1881.56792	4433.6
1884.70227	4456.7
1887.83457	4438.1
1890.96482	4423.4
1894.09304	4418.5
1897.21921	4411.6
1900.34335	4383.4
1903.46544	4390.9
1906.58551	4405.4
1909.70353	4395.5
1912.81953	4371.4
1915.93349	4360.2
1919.04543	4350
1922.15534	4350.3
1925.26322	4332
1928.36908	4315
1931.47292	4300.2
1934.57473	4290.7
1937.67453	4273.8
1940.77232	4261.3
1943.86808	4253.7
1946.96184	4252.9
1950.05358	4230.8
1953.14331	4209.3
1956.23103	4195.2
1959.31675	4192
1962.40046	4156.8
1965.48217	4161.1
1968.56188	4141.1
1971.63959	4124.7
1974.7153	4107
1977.78901	4094.9
1980.86073	4083
1983.93046	4063.4
1986.99819	4064.2
1990.06394	4037.6
1993.1277	4026.1
1996.18947	3995.5
1999.24925	3998.3
2002.30706	3981.8
2005.36288	3949.3
2008.41672	3955.6
2011.46859	3934.6
2014.51848	3924.3
2017.56639	3904.1
2020.61233	3899.5
2023.6563	3873.1
2026.6983	3871.9
2029.73833	3859.2
2032.7764	3839.5
2035.8125	3829.6
2038.84664	3833.7
2041.87881	3824.9
2044.90903	3806.3
2047.93729	3800.7
2050.96359	3791.4
2053.98794	3792.2
2057.01034	3790
2060.03078	3781.9
2063.04927	3756.4
2066.06582	3762.6
2069.08042	3750.5
2072.09307	3741.4
2075.10378	3752
2078.11255	3734.8
2081.11938	3737.4
2084.12426	3735.5
2087.12722	3727
2090.12824	3733.1
2093.12732	3727.8
2096.12447	3720.5
2099.11969	3717.8
2102.11299	3712.9
2105.10435	3723
2108.09379	3722.7
2111.08131	3717.4
2114.0669	3708.6
2117.05057	3725.6
2120.03233	3730.4
2123.01216	3716.1
2125.99008	3715.5
2128.96609	3701
2131.94018	3707.5
2134.91236	3721
2137.88263	3724.2
2140.851	3714.8
2143.81746	3700.7
2146.78201	3717
2149.74466	3718.9
2152.7054	3696.3
2155.66425	3703.4
2158.6212	3693.3
2161.57625	3691.4
2164.52941	3687.9
2167.48067	3689.6
2170.43004	3669.6
2173.37752	3669.9
2176.32311	3660.9
2179.26681	3677.7
2182.20863	3672.5
2185.14856	3660.2
2188.08661	3654.1
2191.02278	3653.3
2193.95707	3648.9
2196.88948	3643.6
2199.82001	3647.8
2202.74867	3633.6
2205.67545	3614.2
2208.60037	3618.4
2211.52341	3617.9
2214.44458	3605.2
2217.36388	3591.5
2220.28132	3588.6
2223.1969	3577.1
2226.11061	3569.6
2229.02246	3557
2231.93245	3544.1
2234.84058	3547
2237.74686	3547
2240.65128	3527.7
2243.55385	3512.5
2246.45456	3519.8
2249.35343	3494
2252.25044	3516.3
2255.14561	3489.3
2258.03893	3498.5
2260.93041	3495.9
2263.82004	3470
2266.70783	3472.6
2269.59378	3447.9
2272.4779	3449.2
2275.36017	3429.6
2278.24061	3435.8
2281.11922	3419.7
2283.996	3407.4
2286.87094	3398.7
2289.74405	3369.8
2292.61534	3379.9
2295.4848	3376.1
2298.35243	3368
2301.21824	3369
2304.08223	3353.6
2306.94439	3367.4
2309.80474	3347.8
2312.66327	3349.5
2315.51999	3343.8
2318.37489	3330.1
2321.22797	3328.6
2324.07925	3322.8
2326.92871	3321.9
2329.77637	3322
2332.62222	3307.3
2335.46626	3298.1
2338.3085	3292.7
2341.14893	3301.4
2343.98756	3279.6
2346.8244	3295.5
2349.65943	3290.7
2352.49267	3285.6
2355.32411	3275.2
2358.15376	3289.9
2360.98161	3282.9
2363.80768	3261.3
2366.63195	3268.4
2369.45444	3269.3
2372.27514	3268
2375.09405	3262.2
2377.91118	3239.3
2380.72652	3241.3
2383.54009	3218.6
2386.35187	3218.9
2389.16188	3208.8
2391.97011	3204.4
2394.77657	3186.4
2397.58125	3181.3
2400.38416	3170.8
2403.18529	3170.6
2405.98466	3167.1
2408.78226	3149.3
2411.57809	3149.8
2414.37216	3134.4
2417.16446	3142
2419.955	3139.5
2422.74378	3132.1
2425.5308	3124.1
2428.31606	3112.4
2431.09956	3101.4
2433.88131	3098.8
2436.6613	3111.3
2439.43954	3113.6
2442.21603	3090.6
2444.99077	3090.5
2447.76377	3092.9
2450.53501	3095.8
2453.30451	3083
2456.07226	3083.1
2458.83827	3073.8
2461.60254	3077
2464.36507	3074.1
2467.12586	3068.5
2469.88492	3067.3
2472.64224	3054.2
2475.39782	3071.3
2478.15167	3064.4
2480.90379	3061.3
2483.65417	3062.3
2486.40283	3061.9
2489.14976	3052.3
2491.89497	3041.5
2494.63845	3059.8
2497.3802	3059.6
2500.12024	3034.1
2502.85855	3033.6
2505.59514	3024.2
2508.33002	3030.2
2511.06318	3010.9
2513.79462	3005.7
2516.52435	3007.3
2519.25237	2989.7
2521.97867	2993.2
2524.70327	2983.9
2527.42616	2985.5
2530.14734	2976
2532.86681	2957.7
2535.58458	2968.8
2538.30065	2957.3
2541.01501	2955.3
2543.72768	2938.2
2546.43864	2956.9
2549.14791	2940.6
2551.85548	2934.4
2554.56136	2923
2557.26554	2935.4
2559.96803	2918.8
2562.66883	2903
2565.36794	2907.2
2568.06536	2905.4
2570.7611	2893.8
2573.45514	2901.1
2576.14751	2879.3
2578.83819	2882.6
2581.52719	2869.9
2584.21451	2874.6
2586.90015	2876.3
2589.58411	2854.3
2592.2664	2854.5
2594.94701	2848.4
2597.62594	2845.1
2600.30321	2839.3
2602.9788	2838
2605.65273	2841.6
2608.32498	2825.2
2610.99557	2827.2
2613.66449	2824.9
2616.33175	2796.8
2618.99734	2816
2621.66128	2809.9
2624.32355	2800.9
2626.98416	2808.4
2629.64311	2792.7
2632.30041	2786.3
2634.95605	2783.4
2637.61004	2778.7
2640.26238	2766.7
2642.91306	2768.1
2645.56209	2770.7
2648.20948	2779.8
2650.85521	2770.2
2653.4993	2761.4
2656.14175	2770.4
2658.78255	2764
2661.42171	2756.1
2664.05923	2769.6
2666.6951	2770.4
2669.32934	2767.2
2671.96194	2752.9
2674.59291	2749.4
2677.22224	2762.8
2679.84993	2758.4
2682.476	2754.5
2685.10043	2760.7
2687.72324	2750
2690.34441	2753.3
2692.96396	2742.3
2695.58188	2739.9
2698.19818	2737.4
2700.81285	2746.6
2703.4259	2759.9
2706.03733	2811.1
2708.64714	2781.1
2711.25533	2745.4
2713.86191	2739
2716.46687	2755.9
2719.07021	2752.9
2721.67194	2743.6
2724.27206	2740.1
2726.87057	2736.2
2729.46747	2724.7
2732.06276	2737.2
2734.65644	2727.7
2737.24852	2730.7
2739.83899	2727.3
2742.42786	2722.5
2745.01513	2712.5
2747.60079	2713.1
2750.18486	2706.6
2752.76733	2709.4
2755.3482	2693.4
2757.92747	2699.1
2760.50515	2695.3
2763.08123	2698.6
2765.65573	2690.1
2768.22863	2696.3
2770.79994	2690.7
2773.36967	2690.6
2775.9378	2672.4
2778.50435	2677.9
2781.06932	2677.6
2783.6327	2659.6
2786.1945	2659.5
2788.75471	2660.4
2791.31335	2640.8
2793.87041	2641.8
2796.42589	2637.7
2798.97979	2631.7
2801.53212	2628.7
2804.08288	2631.9
2806.63206	2620
2809.17967	2619.3
2811.72571	2612.6
2814.27018	2620.8
2816.81308	2598.5
2819.35442	2610.1
2821.89419	2595.5
2824.43239	2593.8
2826.96904	2600.6
2829.50412	2582.1
2832.03763	2588.4
2834.56959	2591.4
2837.1	2574.1
2839.62884	2579.8
2842.15613	2589.6
2844.68186	2587.4
2847.20604	2581
2849.72867	2579.7
2852.24974	2582.6
2854.76927	2583.4
2857.28724	2596.5
2859.80367	2583.4
2862.31855	2566.8
2864.83189	2578.4
2867.34368	2568.3
2869.85393	2564.6
2872.36264	2547
2874.8698	2556.2
2877.37543	2566
2879.87952	2581.8
2882.38207	2563.3
2884.88308	2566.5
2887.38256	2558.5
2889.88051	2553.1
2892.37692	2553
2894.8718	2549.2
2897.36515	2553.4
2899.85698	2562.4
2902.34727	2560.6
2904.83604	2566.4
2907.32328	2564.4
2909.809	2548.1
2912.29319	2562.8
2914.77587	2572.9
2917.25702	2559
2919.73665	2557.2
2922.21476	2561.7
2924.69136	2581.3
2927.16644	2564.3
2929.64	2562.6
2932.11205	2566.4
2934.58258	2557.3
2937.05161	2558.6
2939.51912	2566.6
2941.98513	2561.4
2944.44962	2556
2946.91261	2542.8
2949.37409	2549.6
2951.83407	2550
2954.29254	2533.8
2956.74951	2547.3
2959.20498	2525.6
2961.65895	2522
2964.11142	2523.5
2966.56239	2516.3
2969.01186	2501.9
2971.45984	2502.5
2973.90632	2484.6
2976.35131	2484
2978.7948	2480.4
2981.23681	2477.7
2983.67732	2470.3
2986.11635	2459.3
2988.55388	2460.1
2990.98993	2449
2993.4245	2454.4
2995.85758	2438.5
2998.28917	2428.7
3000.71928	2441.2
3003.14791	2419.6
3005.57506	2419
3008.00073	2422.6
3010.42493	2426.5
3012.84764	2419.8
3015.26888	2425.2
3017.68865	2414.1
3020.10694	2400.9
3022.52376	2416
3024.9391	2407.2
3027.35298	2414.1
3029.76539	2388.6
3032.17632	2390.8
3034.5858	2383.7
3036.9938	2387.5
3039.40034	2378.2
3041.80542	2377.7
3044.20903	2377.5
3046.61118	2376
3049.01187	2375.2
3051.4111	2371.9
3053.80888	2365.3
3056.20519	2358.1
3058.60005	2361.8
3060.99345	2359.4
3063.3854	2348.5
3065.7759	2357.5
3068.16494	2347.2
3070.55254	2333.2
3072.93868	2338.3
3075.32338	2332.8
3077.70662	2340.6
3080.08842	2326.7
3082.46878	2329.9
3084.84769	2331.7
3087.22515	2334.4
3089.60118	2345.4
3091.97576	2332.6
3094.3489	2345
3096.72061	2344.2
3099.09087	2342.4
3101.4597	2342.7
3103.82709	2350.2
3106.19305	2343.9
3108.55757	2335
3110.92066	2328.4
3113.28232	2338.2
3115.64255	2325.3
3118.00134	2333.1
3120.35871	2334.9
3122.71466	2320.3
3125.06917	2322.5
3127.42226	2322.2
3129.77393	2332.1
3132.12417	2331.7
3134.47299	2354.9
3136.82039	2352.6
3139.16636	2332.6
3141.51092	2345.6
3143.85406	2350.4
3146.19579	2353.3
3148.53609	2358.1
3150.87499	2359
3153.21246	2353.4
3155.54853	2377
3157.88318	2361.5
3160.21642	2371.9
3162.54826	2376.5
3164.87868	2385.3
3167.2077	2392.1
3169.5353	2386.5
3171.86151	2379.1
3174.18631	2388.9
3176.5097	2383.5
3178.83169	2380.9
3181.15228	2398.5
3183.47147	2393.5
3185.78926	2384.3
3188.10565	2385.4
3190.42065	2395
3192.73424	2401.9
3195.04645	2391.1
3197.35725	2397.9
3199.66667	2414.3
3201.97469	2409.4
3204.28132	2412
3206.58656	2412.7
3208.8904	2420.5
3211.19287	2418.6
3213.49394	2418.7
3215.79363	2427.1
3218.09193	2419.8
3220.38884	2432.3
3222.68438	2449
3224.97853	2437.3
3227.2713	2429.4
3229.56269	2429.9
3231.8527	2430.5
3234.14133	2425.2
3236.42858	2408.7
3238.71446	2417.3
3240.99896	2414.4
3243.28209	2416.4
3245.56384	2406.1
3247.84423	2412.6
3250.12324	2407.6
3252.40088	2416.9
3254.67715	2415.8
3256.95205	2398.9
3259.22558	2403.1
3261.49775	2393.6
3263.76855	2395.3
3266.03799	2381.6
3268.30606	2388.3
3270.57277	2380.4
3272.83812	2375.9
3275.10211	2380.3
3277.36474	2370.9
3279.62601	2369.5
3281.88593	2360.6
3284.14448	2362.3
3286.40168	2363.2
3288.65753	2351
3290.91202	2364.7
3293.16516	2355.4
3295.41695	2354.8
3297.66738	2340.2
3299.91647	2331.7
3302.16421	2313.7
3304.4106	2307.2
3306.65564	2291
3308.89933	2282.3
3311.14169	2279.2
3313.38269	2265.8
3315.62236	2246.4
3317.86068	2235.3
3320.09766	2212.6
3322.3333	2194.7
3324.5676	2193.5
3326.80056	2171.5
3329.03219	2159.3
3331.26248	1.1
3333.49143	-0.1
3335.71905	0.4
