Data from AgNPs_FTO_APTES_UA_0um_CRN_0.1mM_R6G_10uM_NaF_0.1M_Addition_RamanShift__8__10-20-38-898.txt Node

Date: Tue Dec 21 10:20:38 GMT 2021
User: TCL
Spectrometer: QEP01345
Trigger mode: 4
Integration Time (sec): 7.000000E0
Scans to average: 10
Electric dark correction enabled: true
Nonlinearity correction enabled: false
Boxcar width: 0
XAxis mode: Raman Shifts
Number of Pixels in Spectrum: 1044
>>>>>Begin Spectral Data<<<<<
46.04893	-0.15
50.45542	-1.25
54.85868	-1.55
59.25871	0.45
63.6555	15.75
68.04907	21.35
72.43941	20.45
76.82654	21.35
81.21044	29.25
85.59113	29.15
89.96862	28.05
94.34289	27.25
98.71396	28.95
103.08183	32.45
107.4465	34.35
111.80798	30.75
116.16626	31.15
120.52136	30.35
124.87327	32.95
129.222	27.15
133.56755	31.15
137.90993	35.35
142.24913	29.75
146.58517	33.65
150.91804	37.05
155.24774	40.05
159.57429	42.55
163.89768	55.95
168.21792	61.65
172.53501	77.55
176.84895	98.35
181.15975	136.75
185.46741	181.35
189.77193	251.45
194.07331	341.05
198.37157	450.05
202.6667	573.55
206.9587	702.65
211.24758	837.95
215.53334	996.45
219.81599	1132.35
224.09553	1280.15
228.37195	1442.75
232.64527	1591.55
236.91549	1728.65
241.18261	1853.25
245.44663	1951.75
249.70755	2031.95
253.96539	2105.35
258.22014	2135.25
262.4718	2151.75
266.72039	2133.45
270.96589	2097.85
275.20832	2032.15
279.44768	1962.05
283.68397	1896.05
287.91719	1820.25
292.14735	1738.25
296.37445	1671.95
300.59849	1610.55
304.81948	1583.55
309.03742	1539.85
313.25231	1507.75
317.46415	1471.65
321.67296	1441.85
325.87872	1423.05
330.08145	1405.55
334.28114	1384.35
338.47781	1385.75
342.67145	1387.35
346.86207	1386.15
351.04966	1393.35
355.23424	1396.95
359.4158	1392.95
363.59435	1397.35
367.76989	1390.15
371.94243	1382.65
376.11196	1388.75
380.27849	1370.45
384.44203	1379.45
388.60257	1386.95
392.76012	1380.05
396.91468	1378.05
401.06626	1380.45
405.21485	1387.95
409.36047	1390.05
413.50311	1416.65
417.64277	1460.85
421.77947	1503.75
425.9132	1449.35
430.04396	1418.15
434.17176	1415.45
438.2966	1433.45
442.41849	1443.55
446.53742	1458.35
450.6534	1479.85
454.76644	1497.35
458.87653	1506.25
462.98368	1499.75
467.08789	1507.75
471.18916	1492.15
475.2875	1503.85
479.38291	1497.55
483.4754	1491.95
487.56496	1502.55
491.6516	1494.95
495.73531	1492.05
499.81612	1489.05
503.89401	1501.45
507.96899	1482.55
512.04106	1478.55
516.11023	1484.95
520.1765	1469.75
524.23987	1464.55
528.30034	1452.55
532.35792	1459.65
536.41261	1450.35
540.46441	1438.25
544.51333	1443.55
548.55936	1451.15
552.60252	1446.25
556.64279	1446.85
560.6802	1451.65
564.71473	1453.55
568.7464	1446.15
572.7752	1461.95
576.80114	1465.65
580.82422	1460.15
584.84444	1442.55
588.86181	1439.85
592.87633	1441.05
596.888	1433.35
600.89682	1447.15
604.9028	1464.15
608.90594	1502.85
612.90624	1579.65
616.90371	1589.65
620.89834	1541.55
624.89015	1496.55
628.87913	1494.85
632.86528	1499.45
636.84862	1513.25
640.82913	1535.05
644.80683	1567.25
648.78172	1610.85
652.75379	1621.75
656.72306	1608.45
660.68952	1595.15
664.65319	1592.75
668.61405	1620.65
672.57211	1696.05
676.52738	1823.95
680.47986	1941.05
684.42955	1996.15
688.37646	1980.65
692.32058	1884.15
696.26192	1795.45
700.20048	1726.35
704.13626	1691.85
708.06928	1664.95
711.99952	1636.95
715.927	1621.05
719.85171	1619.15
723.77365	1619.95
727.69284	1630.65
731.60928	1639.55
735.52295	1639.15
739.43388	1613.75
743.34206	1597.95
747.24749	1584.65
751.15017	1588.75
755.05012	1588.75
758.94733	1607.55
762.8418	1607.45
766.73354	1627.35
770.62254	1639.05
774.50882	1637.15
778.39237	1616.15
782.27321	1586.35
786.15132	1559.75
790.02671	1539.85
793.89938	1541.15
797.76935	1539.65
801.6366	1549.85
805.50115	1550.65
809.36299	1562.15
813.22213	1545.35
817.07857	1547.75
820.93231	1536.15
824.78336	1528.85
828.63172	1529.45
832.47738	1521.35
836.32036	1511.25
840.16066	1511.75
843.99827	1504.65
847.8332	1513.25
851.66546	1492.75
855.49504	1497.35
859.32195	1492.25
863.1462	1497.75
866.96777	1505.25
870.78668	1518.25
874.60293	1528.05
878.41652	1531.45
882.22745	1533.85
886.03573	1536.95
889.84136	1544.95
893.64433	1555.85
897.44466	1558.05
901.24235	1572.15
905.0374	1581.45
908.8298	1585.65
912.61957	1611.35
916.40671	1664.75
920.19121	1711.75
923.97308	1769.55
927.75233	1811.15
931.52895	1835.65
935.30295	1830.15
939.07433	1803.45
942.84309	1757.05
946.60924	1724.65
950.37278	1692.25
954.13371	1669.45
957.89203	1643.45
961.64774	1624.95
965.40086	1612.65
969.15137	1599.75
972.89929	1578.95
976.64461	1560.05
980.38733	1557.45
984.12747	1542.95
987.86502	1536.85
991.59999	1527.75
995.33237	1521.95
999.06217	1525.65
1002.78939	1530.75
1006.51404	1532.75
1010.23611	1536.65
1013.95561	1539.75
1017.67255	1550.05
1021.38692	1556.05
1025.09872	1559.25
1028.80796	1565.95
1032.51465	1574.95
1036.21877	1586.95
1039.92035	1590.75
1043.61937	1598.35
1047.31584	1607.55
1051.00976	1607.35
1054.70114	1607.65
1058.38998	1591.45
1062.07627	1571.65
1065.76003	1554.55
1069.44126	1524.65
1073.11995	1503.95
1076.79611	1485.45
1080.46974	1481.15
1084.14085	1458.45
1087.80943	1443.85
1091.47549	1428.15
1095.13903	1422.75
1098.80005	1417.85
1102.45857	1410.15
1106.11456	1417.85
1109.76805	1396.95
1113.41903	1412.25
1117.06751	1422.05
1120.71348	1416.05
1124.35696	1426.75
1127.99793	1440.85
1131.63641	1467.85
1135.2724	1483.45
1138.90589	1457.15
1142.5369	1455.85
1146.16542	1459.95
1149.79145	1461.45
1153.415	1451.75
1157.03607	1446.15
1160.65467	1447.15
1164.27079	1431.05
1167.88443	1444.15
1171.49561	1452.25
1175.10432	1460.95
1178.71056	1488.35
1182.31434	1516.05
1185.91565	1531.35
1189.51451	1535.25
1193.11091	1520.25
1196.70485	1510.95
1200.29634	1495.85
1203.88538	1490.35
1207.47197	1483.05
1211.05612	1470.05
1214.63782	1459.65
1218.21708	1461.35
1221.79391	1471.55
1225.36829	1484.95
1228.94024	1483.55
1232.50976	1500.85
1236.07685	1516.25
1239.6415	1519.15
1243.20374	1532.95
1246.76355	1560.55
1250.32093	1558.05
1253.8759	1567.75
1257.42845	1586.65
1260.97859	1602.15
1264.52631	1604.75
1268.07163	1607.35
1271.61453	1632.55
1275.15503	1631.75
1278.69312	1652.25
1282.22882	1655.55
1285.76211	1675.15
1289.29301	1699.05
1292.82151	1729.15
1296.34761	1746.85
1299.87133	1774.05
1303.39266	1795.95
1306.9116	1834.85
1310.42815	1875.95
1313.94233	1902.75
1317.45412	1893.15
1320.96354	1874.85
1324.47058	1849.75
1327.97525	1838.65
1331.47754	1833.45
1334.97747	1834.85
1338.47502	1855.15
1341.97022	1882.05
1345.46305	1923.35
1348.95352	1964.15
1352.44163	2024.65
1355.92738	2075.25
1359.41078	2149.85
1362.89183	2220.95
1366.37053	2237.25
1369.84688	2202.65
1373.32088	2133.15
1376.79254	2072.45
1380.26186	2043.45
1383.72883	2021.05
1387.19347	2012.25
1390.65578	1988.95
1394.11575	1975.05
1397.57339	1963.25
1401.0287	1959.65
1404.48168	1962.55
1407.93234	1978.05
1411.38068	2002.15
1414.82669	2030.15
1418.27039	2048.15
1421.71177	2064.55
1425.15083	2044.35
1428.58758	2000.95
1432.02203	1951.95
1435.45416	1902.55
1438.88399	1870.75
1442.31151	1854.15
1445.73673	1866.15
1449.15965	1852.65
1452.58027	1851.55
1455.9986	1839.25
1459.41463	1840.85
1462.82837	1835.25
1466.23982	1823.95
1469.64898	1820.25
1473.05586	1808.05
1476.46045	1792.35
1479.86276	1776.25
1483.26279	1755.45
1486.66054	1745.45
1490.05602	1736.15
1493.44922	1734.25
1496.84016	1738.75
1500.22882	1757.45
1503.61521	1767.65
1506.99934	1795.65
1510.38121	1824.65
1513.76081	1833.95
1517.13816	1807.15
1520.51324	1766.35
1523.88607	1730.25
1527.25665	1692.35
1530.62498	1676.65
1533.99105	1672.95
1537.35488	1662.65
1540.71647	1657.95
1544.07581	1652.85
1547.4329	1651.25
1550.78776	1663.95
1554.14038	1663.85
1557.49077	1676.25
1560.83892	1663.15
1564.18484	1646.25
1567.52853	1650.45
1570.86999	1646.95
1574.20922	1645.05
1577.54624	1619.85
1580.88103	1606.25
1584.2136	1582.45
1587.54395	1552.75
1590.87208	1540.05
1594.19801	1532.35
1597.52172	1529.25
1600.84321	1529.65
1604.16251	1509.55
1607.47959	1504.45
1610.79447	1499.15
1614.10715	1485.65
1617.41763	1479.85
1620.7259	1480.45
1624.03199	1478.25
1627.33587	1474.15
1630.63757	1481.45
1633.93707	1471.85
1637.23439	1467.25
1640.52951	1475.35
1643.82246	1479.55
1647.11321	1489.15
1650.40179	1494.65
1653.68819	1483.95
1656.97241	1446.85
1660.25446	1395.15
1663.53433	1347.75
1666.81203	1312.05
1670.08756	1292.25
1673.36092	1269.45
1676.63211	1246.65
1679.90115	1225.35
1683.16801	1192.45
1686.43272	1180.25
1689.69527	1159.15
1692.95567	1136.25
1696.2139	1115.25
1699.46999	1102.25
1702.72392	1088.65
1705.97571	1075.15
1709.22535	1072.55
1712.47284	1068.55
1715.71819	1064.85
1718.96139	1061.25
1722.20246	1052.65
1725.44139	1041.55
1728.67818	1039.55
1731.91284	1047.25
1735.14537	1044.55
1738.37576	1045.95
1741.60403	1047.45
1744.83017	1055.25
1748.05418	1076.35
1751.27607	1098.85
1754.49584	1125.25
1757.71349	1147.05
1760.92903	1154.95
1764.14244	1139.05
1767.35375	1111.85
1770.56294	1068.85
1773.77002	1032.25
1776.97499	1005.85
1780.17785	990.75
1783.37861	981.95
1786.57727	974.55
1789.77382	955.65
1792.96828	943.05
1796.16064	920.45
1799.3509	909.25
1802.53907	906.25
1805.72514	894.65
1808.90913	888.25
1812.09102	883.75
1815.27083	882.95
1818.44856	873.05
1821.6242	870.05
1824.79776	873.95
1827.96924	868.15
1831.13864	868.85
1834.30597	860.65
1837.47122	857.75
1840.6344	862.35
1843.7955	851.75
1846.95454	858.45
1850.11151	856.55
1853.26642	851.95
1856.41926	856.15
1859.57004	843.35
1862.71876	846.65
1865.86542	853.05
1869.01003	845.15
1872.15258	845.95
1875.29308	842.65
1878.43152	845.85
1881.56792	837.75
1884.70227	835.55
1887.83457	829.65
1890.96482	832.05
1894.09304	827.25
1897.21921	833.55
1900.34335	830.25
1903.46544	835.65
1906.58551	833.15
1909.70353	828.15
1912.81953	820.45
1915.93349	818.75
1919.04543	821.05
1922.15534	821.25
1925.26322	818.05
1928.36908	809.35
1931.47292	813.45
1934.57473	818.35
1937.67453	810.65
1940.77232	806.95
1943.86808	810.75
1946.96184	815.65
1950.05358	799.05
1953.14331	799.35
1956.23103	793.95
1959.31675	800.15
1962.40046	784.25
1965.48217	795.05
1968.56188	786.85
1971.63959	782.35
1974.7153	786.75
1977.78901	778.05
1980.86073	775.55
1983.93046	777.25
1986.99819	766.35
1990.06394	773.45
1993.1277	765.25
1996.18947	761.55
1999.24925	760.75
2002.30706	756.25
2005.36288	755.25
2008.41672	757.05
2011.46859	754.85
2014.51848	746.85
2017.56639	748.65
2020.61233	746.35
2023.6563	738.25
2026.6983	738.25
2029.73833	739.25
2032.7764	737.25
2035.8125	739.95
2038.84664	735.45
2041.87881	736.35
2044.90903	732.65
2047.93729	732.25
2050.96359	736.55
2053.98794	738.45
2057.01034	733.85
2060.03078	732.15
2063.04927	737.25
2066.06582	735.05
2069.08042	741.25
2072.09307	752.05
2075.10378	745.05
2078.11255	751.75
2081.11938	753.35
2084.12426	760.65
2087.12722	763.85
2090.12824	777.05
2093.12732	775.55
2096.12447	776.75
2099.11969	771.65
2102.11299	784.35
2105.10435	790.55
2108.09379	800.85
2111.08131	795.65
2114.0669	792.45
2117.05057	786.25
2120.03233	796.35
2123.01216	788.45
2125.99008	782.15
2128.96609	777.25
2131.94018	779.95
2134.91236	779.45
2137.88263	776.05
2140.851	769.25
2143.81746	761.65
2146.78201	760.05
2149.74466	756.15
2152.7054	743.15
2155.66425	737.35
2158.6212	733.85
2161.57625	731.45
2164.52941	724.55
2167.48067	720.75
2170.43004	713.45
2173.37752	708.05
2176.32311	703.65
2179.26681	704.75
2182.20863	706.95
2185.14856	712.75
2188.08661	708.15
2191.02278	701.55
2193.95707	701.35
2196.88948	700.15
2199.82001	700.55
2202.74867	697.45
2205.67545	696.05
2208.60037	695.75
2211.52341	691.15
2214.44458	695.95
2217.36388	690.35
2220.28132	687.75
2223.1969	680.75
2226.11061	682.55
2229.02246	672.85
2231.93245	673.55
2234.84058	675.45
2237.74686	671.65
2240.65128	669.75
2243.55385	676.25
2246.45456	676.45
2249.35343	663.45
2252.25044	667.85
2255.14561	670.55
2258.03893	661.85
2260.93041	664.95
2263.82004	664.05
2266.70783	658.55
2269.59378	661.45
2272.4779	650.65
2275.36017	657.55
2278.24061	656.85
2281.11922	653.55
2283.996	647.65
2286.87094	652.05
2289.74405	652.95
2292.61534	649.65
2295.4848	644.75
2298.35243	645.25
2301.21824	649.45
2304.08223	636.85
2306.94439	645.25
2309.80474	637.25
2312.66327	639.35
2315.51999	635.75
2318.37489	630.85
2321.22797	632.65
2324.07925	632.25
2326.92871	633.15
2329.77637	639.65
2332.62222	631.75
2335.46626	630.15
2338.3085	626.05
2341.14893	628.85
2343.98756	622.65
2346.8244	623.35
2349.65943	620.95
2352.49267	619.05
2355.32411	621.65
2358.15376	623.15
2360.98161	616.65
2363.80768	618.95
2366.63195	622.45
2369.45444	614.45
2372.27514	613.85
2375.09405	610.35
2377.91118	615.55
2380.72652	604.55
2383.54009	608.95
2386.35187	618.05
2389.16188	611.25
2391.97011	606.55
2394.77657	606.05
2397.58125	598.45
2400.38416	603.55
2403.18529	607.15
2405.98466	608.45
2408.78226	595.85
2411.57809	600.35
2414.37216	594.25
2417.16446	594.75
2419.955	592.45
2422.74378	594.85
2425.5308	594.25
2428.31606	593.55
2431.09956	592.55
2433.88131	591.55
2436.6613	593.35
2439.43954	584.95
2442.21603	581.45
2444.99077	588.95
2447.76377	585.45
2450.53501	581.65
2453.30451	588.35
2456.07226	584.05
2458.83827	580.25
2461.60254	583.55
2464.36507	579.25
2467.12586	576.35
2469.88492	576.75
2472.64224	575.35
2475.39782	577.55
2478.15167	579.05
2480.90379	578.45
2483.65417	573.45
2486.40283	574.55
2489.14976	572.95
2491.89497	571.35
2494.63845	570.25
2497.3802	574.35
2500.12024	581.15
2502.85855	570.05
2505.59514	575.35
2508.33002	569.75
2511.06318	564.45
2513.79462	566.55
2516.52435	570.95
2519.25237	559.05
2521.97867	556.45
2524.70327	560.55
2527.42616	560.45
2530.14734	559.45
2532.86681	555.15
2535.58458	556.15
2538.30065	552.65
2541.01501	555.25
2543.72768	554.65
2546.43864	555.85
2549.14791	549.95
2551.85548	553.55
2554.56136	543.35
2557.26554	544.85
2559.96803	548.75
2562.66883	549.15
2565.36794	542.95
2568.06536	546.95
2570.7611	544.05
2573.45514	544.25
2576.14751	545.95
2578.83819	545.05
2581.52719	545.85
2584.21451	539.25
2586.90015	537.65
2589.58411	541.95
2592.2664	534.75
2594.94701	533.05
2597.62594	533.35
2600.30321	530.85
2602.9788	532.45
2605.65273	527.35
2608.32498	529.35
2610.99557	526.65
2613.66449	529.55
2616.33175	528.45
2618.99734	528.45
2621.66128	520.65
2624.32355	529.45
2626.98416	527.85
2629.64311	517.55
2632.30041	526.75
2634.95605	530.05
2637.61004	521.85
2640.26238	519.35
2642.91306	520.55
2645.56209	521.25
2648.20948	516.55
2650.85521	522.25
2653.4993	516.75
2656.14175	520.75
2658.78255	519.65
2661.42171	515.65
2664.05923	521.15
2666.6951	525.25
2669.32934	523.65
2671.96194	523.35
2674.59291	526.15
2677.22224	528.45
2679.84993	525.45
2682.476	522.05
2685.10043	527.55
2687.72324	527.25
2690.34441	524.85
2692.96396	526.85
2695.58188	527.65
2698.19818	525.95
2700.81285	523.85
2703.4259	532.95
2706.03733	535.95
2708.64714	527.75
2711.25533	523.85
2713.86191	524.45
2716.46687	527.55
2719.07021	532.45
2721.67194	530.65
2724.27206	529.05
2726.87057	532.85
2729.46747	534.15
2732.06276	531.95
2734.65644	527.35
2737.24852	521.95
2739.83899	522.45
2742.42786	525.95
2745.01513	523.35
2747.60079	528.75
2750.18486	520.55
2752.76733	525.25
2755.3482	515.15
2757.92747	519.65
2760.50515	519.95
2763.08123	523.45
2765.65573	515.65
2768.22863	522.65
2770.79994	512.35
2773.36967	523.55
2775.9378	525.05
2778.50435	516.15
2781.06932	513.55
2783.6327	513.95
2786.1945	517.45
2788.75471	517.85
2791.31335	519.25
2793.87041	508.55
2796.42589	511.15
2798.97979	514.15
2801.53212	516.35
2804.08288	520.15
2806.63206	518.45
2809.17967	525.75
2811.72571	519.15
2814.27018	522.75
2816.81308	524.45
2819.35442	521.85
2821.89419	520.95
2824.43239	523.05
2826.96904	518.05
2829.50412	517.95
2832.03763	521.25
2834.56959	527.15
2837.1	521.05
2839.62884	521.75
2842.15613	527.75
2844.68186	524.55
2847.20604	528.65
2849.72867	531.05
2852.24974	530.35
2854.76927	529.55
2857.28724	538.35
2859.80367	526.75
2862.31855	538.55
2864.83189	539.15
2867.34368	539.45
2869.85393	537.25
2872.36264	537.25
2874.8698	540.75
2877.37543	547.65
2879.87952	558.45
2882.38207	557.55
2884.88308	562.35
2887.38256	566.85
2889.88051	571.65
2892.37692	581.45
2894.8718	576.55
2897.36515	598.45
2899.85698	595.45
2902.34727	611.35
2904.83604	613.15
2907.32328	622.75
2909.809	627.05
2912.29319	645.65
2914.77587	653.65
2917.25702	660.85
2919.73665	668.85
2922.21476	680.55
2924.69136	694.95
2927.16644	695.25
2929.64	698.75
2932.11205	713.55
2934.58258	721.55
2937.05161	726.65
2939.51912	735.85
2941.98513	746.55
2944.44962	746.15
2946.91261	739.95
2949.37409	742.45
2951.83407	735.65
2954.29254	727.15
2956.74951	715.55
2959.20498	706.55
2961.65895	693.75
2964.11142	680.45
2966.56239	660.25
2969.01186	650.15
2971.45984	640.25
2973.90632	626.65
2976.35131	616.75
2978.7948	608.65
2981.23681	609.25
2983.67732	591.85
2986.11635	595.45
2988.55388	587.35
2990.98993	582.65
2993.4245	581.65
2995.85758	575.35
2998.28917	574.75
3000.71928	582.45
3003.14791	573.65
3005.57506	579.85
3008.00073	579.45
3010.42493	575.95
3012.84764	574.15
3015.26888	579.45
3017.68865	576.95
3020.10694	572.65
3022.52376	563.75
3024.9391	560.75
3027.35298	567.95
3029.76539	559.45
3032.17632	553.95
3034.5858	555.45
3036.9938	551.95
3039.40034	548.35
3041.80542	543.55
3044.20903	543.85
3046.61118	538.65
3049.01187	538.15
3051.4111	539.05
3053.80888	527.85
3056.20519	530.95
3058.60005	534.15
3060.99345	531.05
3063.3854	530.65
3065.7759	535.85
3068.16494	529.65
3070.55254	533.45
3072.93868	539.35
3075.32338	537.75
3077.70662	537.65
3080.08842	541.75
3082.46878	538.75
3084.84769	532.95
3087.22515	546.35
3089.60118	553.25
3091.97576	552.15
3094.3489	554.45
3096.72061	554.35
3099.09087	556.15
3101.4597	560.15
3103.82709	570.85
3106.19305	573.75
3108.55757	576.45
3110.92066	573.55
3113.28232	572.85
3115.64255	573.75
3118.00134	582.55
3120.35871	585.25
3122.71466	582.85
3125.06917	586.55
3127.42226	594.45
3129.77393	592.85
3132.12417	601.95
3134.47299	601.15
3136.82039	602.95
3139.16636	611.15
3141.51092	613.55
3143.85406	618.45
3146.19579	625.95
3148.53609	628.25
3150.87499	633.85
3153.21246	638.85
3155.54853	648.15
3157.88318	646.15
3160.21642	650.45
3162.54826	654.95
3164.87868	658.15
3167.2077	662.95
3169.5353	664.75
3171.86151	672.55
3174.18631	674.15
3176.5097	673.75
3178.83169	680.15
3181.15228	687.55
3183.47147	685.75
3185.78926	688.45
3188.10565	689.95
3190.42065	689.65
3192.73424	704.25
3195.04645	696.25
3197.35725	702.55
3199.66667	710.95
3201.97469	714.75
3204.28132	710.35
3206.58656	718.45
3208.8904	722.75
3211.19287	723.85
3213.49394	726.45
3215.79363	733.85
3218.09193	734.85
3220.38884	728.95
3222.68438	731.45
3224.97853	737.05
3227.2713	735.35
3229.56269	743.05
3231.8527	743.25
3234.14133	739.75
3236.42858	743.75
3238.71446	746.65
3240.99896	743.45
3243.28209	742.25
3245.56384	747.25
3247.84423	747.95
3250.12324	746.95
3252.40088	748.55
3254.67715	750.65
3256.95205	748.25
3259.22558	744.45
3261.49775	755.35
3263.76855	751.95
3266.03799	752.35
3268.30606	751.75
3270.57277	750.55
3272.83812	748.25
3275.10211	744.95
3277.36474	749.35
3279.62601	745.25
3281.88593	748.65
3284.14448	756.05
3286.40168	754.15
3288.65753	742.55
3290.91202	744.25
3293.16516	746.25
3295.41695	744.75
3297.66738	741.95
3299.91647	743.75
3302.16421	732.65
3304.4106	735.05
3306.65564	732.75
3308.89933	730.55
3311.14169	732.45
3313.38269	719.75
3315.62236	718.45
3317.86068	715.85
3320.09766	709.35
3322.3333	706.75
3324.5676	710.05
3326.80056	692.05
3329.03219	693.15
3331.26248	1.75
3333.49143	-0.25
3335.71905	0.75
