Data from AgNPs_FTO_APTES_UA_20um_CRN_0.1mM_R6G_10uM_NaF_0.1M_Addition_RamanShift__3__14-19-49-172.txt Node

Date: Tue Dec 21 14:19:49 GMT 2021
User: TCL
Spectrometer: QEP01345
Trigger mode: 4
Integration Time (sec): 7.000000E0
Scans to average: 10
Electric dark correction enabled: true
Nonlinearity correction enabled: false
Boxcar width: 0
XAxis mode: Raman Shifts
Number of Pixels in Spectrum: 1044
>>>>>Begin Spectral Data<<<<<
46.04893	-0.1375
50.45542	-1.2375
54.85868	-1.5375
59.25871	-0.0375
63.6555	44.0625
68.04907	51.0625
72.43941	53.0625
76.82654	54.0625
81.21044	60.1625
85.59113	62.9625
89.96862	60.6625
94.34289	64.0625
98.71396	67.4625
103.08183	70.7625
107.4465	71.3625
111.80798	79.8625
116.16626	73.6625
120.52136	77.9625
124.87327	80.3625
129.222	83.2625
133.56755	84.0625
137.90993	98.5625
142.24913	100.3625
146.58517	110.9625
150.91804	129.0625
155.24774	150.3625
159.57429	178.9625
163.89768	233.1625
168.21792	302.4625
172.53501	406.5625
176.84895	565.8625
181.15975	795.2625
185.46741	1102.5625
189.77193	1528.5625
194.07331	2052.8625
198.37157	2628.0625
202.6667	3268.1625
206.9587	3894.7625
211.24758	4508.0625
215.53334	5140.8625
219.81599	5848.4625
224.09553	6570.9625
228.37195	7374.8625
232.64527	8272.3625
236.91549	9188.3625
241.18261	10126.8625
245.44663	10927.6625
249.70755	11650.4625
253.96539	12283.8625
258.22014	12748.3625
262.4718	13208.4625
266.72039	13512.5625
270.96589	13679.9625
275.20832	13625.7625
279.44768	13510.8625
283.68397	13333.0625
287.91719	13222.3625
292.14735	13132.7625
296.37445	13133.0625
300.59849	13249.4625
304.81948	13367.1625
309.03742	13443.4625
313.25231	13373.3625
317.46415	13087.5625
321.67296	12711.0625
325.87872	12349.0625
330.08145	12150.5625
334.28114	12064.9625
338.47781	12142.2625
342.67145	12304.8625
346.86207	12527.6625
351.04966	12756.8625
355.23424	13071.5625
359.4158	13292.9625
363.59435	13478.2625
367.76989	13559.2625
371.94243	13637.6625
376.11196	13668.9625
380.27849	13724.5625
384.44203	13802.8625
388.60257	13898.7625
392.76012	14035.9625
396.91468	14241.9625
401.06626	14437.0625
405.21485	14641.1625
409.36047	14543.2625
413.50311	14279.4625
417.64277	13989.7625
421.77947	13927.1625
425.9132	13909.6625
430.04396	13946.0625
434.17176	13997.0625
438.2966	14079.2625
442.41849	14257.5625
446.53742	14689.8625
450.6534	15138.8625
454.76644	15414.3625
458.87653	15456.0625
462.98368	15366.9625
467.08789	15188.3625
471.18916	14966.8625
475.2875	14751.8625
479.38291	14655.0625
483.4754	14576.1625
487.56496	14419.0625
491.6516	14208.7625
495.73531	14036.8625
499.81612	13927.3625
503.89401	13945.9625
507.96899	13975.5625
512.04106	13968.3625
516.11023	13866.4625
520.1765	13737.4625
524.23987	13651.3625
528.30034	13578.9625
532.35792	13464.7625
536.41261	13306.7625
540.46441	13125.7625
544.51333	13016.8625
548.55936	13139.3625
552.60252	13406.6625
556.64279	13774.1625
560.6802	14038.3625
564.71473	14185.6625
568.7464	14387.1625
572.7752	14781.3625
576.80114	15122.9625
580.82422	15408.8625
584.84444	15837.4625
588.86181	16431.3625
592.87633	16976.7625
596.888	16969.0625
600.89682	16430.8625
604.9028	16356.5625
608.90594	17784.8625
612.90624	19619.2625
616.90371	18644.1625
620.89834	15215.6625
624.89015	13581.5625
628.87913	13343.8625
632.86528	13444.3625
636.84862	13536.5625
640.82913	13318.0625
644.80683	12949.6625
648.78172	12700.4625
652.75379	12586.3625
656.72306	12728.0625
660.68952	12947.6625
664.65319	12885.9625
668.61405	12604.3625
672.57211	12550.3625
676.52738	12649.2625
680.47986	12667.8625
684.42955	12553.2625
688.37646	12457.0625
692.32058	12461.0625
696.26192	12586.7625
700.20048	12738.4625
704.13626	12862.3625
708.06928	12849.5625
711.99952	12786.4625
715.927	12752.7625
719.85171	12794.9625
723.77365	12765.8625
727.69284	12621.6625
731.60928	12435.8625
735.52295	12381.7625
739.43388	12390.6625
743.34206	12394.1625
747.24749	12507.1625
751.15017	12597.2625
755.05012	12781.3625
758.94733	13169.5625
762.8418	13899.5625
766.73354	15090.8625
770.62254	16357.2625
774.50882	16813.7625
778.39237	16137.4625
782.27321	14804.0625
786.15132	13625.8625
790.02671	12887.0625
793.89938	12535.6625
797.76935	12387.3625
801.6366	12286.7625
805.50115	12246.1625
809.36299	12181.9625
813.22213	12080.1625
817.07857	12008.1625
820.93231	11912.3625
824.78336	11841.3625
828.63172	11830.7625
832.47738	11791.6625
836.32036	11790.8625
840.16066	11836.0625
843.99827	11820.6625
847.8332	11756.8625
851.66546	11721.8625
855.49504	11683.8625
859.32195	11654.4625
863.1462	11614.5625
866.96777	11605.2625
870.78668	11594.8625
874.60293	11602.3625
878.41652	11606.7625
882.22745	11672.5625
886.03573	11731.5625
889.84136	11738.1625
893.64433	11669.9625
897.44466	11625.1625
901.24235	11537.3625
905.0374	11458.9625
908.8298	11408.4625
912.61957	11380.0625
916.40671	11456.8625
920.19121	11630.1625
923.97308	11767.4625
927.75233	11813.3625
931.52895	11811.1625
935.30295	11606.6625
939.07433	11361.6625
942.84309	11152.3625
946.60924	11027.1625
950.37278	10971.3625
954.13371	10960.3625
957.89203	10927.1625
961.64774	10916.8625
965.40086	10898.5625
969.15137	10852.7625
972.89929	10802.7625
976.64461	10748.7625
980.38733	10740.8625
984.12747	10763.6625
987.86502	10816.3625
991.59999	10930.8625
995.33237	11054.0625
999.06217	11305.0625
1002.78939	11626.2625
1006.51404	11874.5625
1010.23611	12057.8625
1013.95561	12205.2625
1017.67255	12259.6625
1021.38692	12148.6625
1025.09872	11949.0625
1028.80796	11844.8625
1032.51465	11971.9625
1036.21877	12188.0625
1039.92035	12314.8625
1043.61937	12300.5625
1047.31584	12139.8625
1051.00976	11974.5625
1054.70114	11838.4625
1058.38998	11810.3625
1062.07627	11836.0625
1065.76003	11919.7625
1069.44126	12074.5625
1073.11995	12288.3625
1076.79611	12474.8625
1080.46974	12578.0625
1084.14085	12660.3625
1087.80943	12799.9625
1091.47549	12927.0625
1095.13903	12977.8625
1098.80005	12762.6625
1102.45857	12425.5625
1106.11456	12166.7625
1109.76805	12056.8625
1113.41903	12088.2625
1117.06751	12212.1625
1120.71348	12375.4625
1124.35696	12581.8625
1127.99793	12846.2625
1131.63641	13009.6625
1135.2724	12923.5625
1138.90589	12782.8625
1142.5369	12679.5625
1146.16542	12697.1625
1149.79145	12741.1625
1153.415	12834.6625
1157.03607	12970.1625
1160.65467	13317.0625
1164.27079	13920.0625
1167.88443	14728.0625
1171.49561	15694.4625
1175.10432	16979.5625
1178.71056	18648.5625
1182.31434	20186.3625
1185.91565	20867.3625
1189.51451	20597.5625
1193.11091	19835.1625
1196.70485	18843.4625
1200.29634	17906.1625
1203.88538	17208.3625
1207.47197	16758.9625
1211.05612	16332.8625
1214.63782	15954.4625
1218.21708	15614.5625
1221.79391	15304.1625
1225.36829	15176.9625
1228.94024	15060.1625
1232.50976	14789.3625
1236.07685	14522.4625
1239.6415	14336.2625
1243.20374	14315.3625
1246.76355	14358.3625
1250.32093	14598.2625
1253.8759	14908.4625
1257.42845	15359.9625
1260.97859	15855.8625
1264.52631	16380.2625
1268.07163	16857.7625
1271.61453	17414.5625
1275.15503	17910.3625
1278.69312	18445.3625
1282.22882	18979.2625
1285.76211	19617.7625
1289.29301	20393.2625
1292.82151	21405.5625
1296.34761	22547.8625
1299.87133	23902.7625
1303.39266	25464.0625
1306.9116	26994.4625
1310.42815	28359.4625
1313.94233	29111.9625
1317.45412	28898.2625
1320.96354	28023.6625
1324.47058	27085.9625
1327.97525	26322.5625
1331.47754	25698.8625
1334.97747	25326.0625
1338.47502	24980.5625
1341.97022	24547.4625
1345.46305	24301.0625
1348.95352	24299.3625
1352.44163	24700.4625
1355.92738	25743.3625
1359.41078	27379.1625
1362.89183	28950.3625
1366.37053	28833.9625
1369.84688	26352.2625
1373.32088	23054.2625
1376.79254	20660.0625
1380.26186	19653.8625
1383.72883	19407.5625
1387.19347	19257.0625
1390.65578	18895.7625
1394.11575	18768.6625
1397.57339	18886.1625
1401.0287	19169.8625
1404.48168	19346.6625
1407.93234	19256.3625
1411.38068	18868.6625
1414.82669	18301.6625
1418.27039	17640.9625
1421.71177	16936.0625
1425.15083	16286.2625
1428.58758	15997.2625
1432.02203	16074.9625
1435.45416	16461.8625
1438.88399	16942.4625
1442.31151	17226.8625
1445.73673	17448.2625
1449.15965	17614.9625
1452.58027	17699.0625
1455.9986	17675.2625
1459.41463	17723.6625
1462.82837	17941.9625
1466.23982	18301.5625
1469.64898	18638.0625
1473.05586	18848.9625
1476.46045	18985.0625
1479.86276	18918.7625
1483.26279	18899.7625
1486.66054	18910.1625
1490.05602	19148.5625
1493.44922	19489.3625
1496.84016	19928.1625
1500.22882	20568.3625
1503.61521	21469.8625
1506.99934	22530.4625
1510.38121	23537.5625
1513.76081	23748.3625
1517.13816	23111.0625
1520.51324	21805.1625
1523.88607	20659.8625
1527.25665	19961.1625
1530.62498	19661.0625
1533.99105	19462.9625
1537.35488	19081.7625
1540.71647	18661.0625
1544.07581	18104.2625
1547.4329	17531.7625
1550.78776	17114.0625
1554.14038	16815.0625
1557.49077	16665.1625
1560.83892	16682.2625
1564.18484	16794.7625
1567.52853	17002.6625
1570.86999	17266.8625
1574.20922	17592.6625
1577.54624	17879.4625
1580.88103	17815.0625
1584.2136	17740.7625
1587.54395	17985.6625
1590.87208	18729.7625
1594.19801	19824.4625
1597.52172	21031.8625
1600.84321	21423.6625
1604.16251	20558.9625
1607.47959	18917.8625
1610.79447	17108.9625
1614.10715	15493.3625
1617.41763	14254.6625
1620.7259	13431.5625
1624.03199	13031.5625
1627.33587	13027.3625
1630.63757	13378.3625
1633.93707	14213.4625
1637.23439	15650.5625
1640.52951	17842.6625
1643.82246	20635.5625
1647.11321	23159.9625
1650.40179	24049.9625
1653.68819	22655.7625
1656.97241	19609.0625
1660.25446	16425.7625
1663.53433	14057.7625
1666.81203	12518.4625
1670.08756	11590.5625
1673.36092	10992.6625
1676.63211	10644.2625
1679.90115	10372.2625
1683.16801	10174.0625
1686.43272	10022.2625
1689.69527	9901.9625
1692.95567	9806.0625
1696.2139	9769.5625
1699.46999	9714.9625
1702.72392	9667.4625
1705.97571	9614.9625
1709.22535	9573.7625
1712.47284	9564.1625
1715.71819	9530.8625
1718.96139	9470.7625
1722.20246	9437.4625
1725.44139	9388.2625
1728.67818	9359.5625
1731.91284	9256.3625
1735.14537	9211.7625
1738.37576	9164.8625
1741.60403	9117.8625
1744.83017	9107.2625
1748.05418	9092.4625
1751.27607	9088.1625
1754.49584	9076.8625
1757.71349	9105.2625
1760.92903	9086.6625
1764.14244	9061.6625
1767.35375	9020.8625
1770.56294	8982.5625
1773.77002	8941.2625
1776.97499	8911.0625
1780.17785	8892.5625
1783.37861	8850.9625
1786.57727	8842.6625
1789.77382	8792.6625
1792.96828	8800.2625
1796.16064	8767.5625
1799.3509	8714.9625
1802.53907	8719.8625
1805.72514	8675.4625
1808.90913	8649.5625
1812.09102	8633.6625
1815.27083	8621.0625
1818.44856	8585.7625
1821.6242	8599.2625
1824.79776	8571.1625
1827.96924	8565.5625
1831.13864	8550.6625
1834.30597	8574.2625
1837.47122	8567.7625
1840.6344	8532.4625
1843.7955	8542.7625
1846.95454	8545.3625
1850.11151	8532.1625
1853.26642	8491.8625
1856.41926	8512.4625
1859.57004	8508.3625
1862.71876	8476.4625
1865.86542	8458.6625
1869.01003	8462.4625
1872.15258	8468.3625
1875.29308	8442.7625
1878.43152	8461.9625
1881.56792	8417.5625
1884.70227	8407.3625
1887.83457	8418.5625
1890.96482	8388.9625
1894.09304	8372.8625
1897.21921	8358.4625
1900.34335	8345.2625
1903.46544	8341.4625
1906.58551	8327.6625
1909.70353	8320.1625
1912.81953	8294.9625
1915.93349	8271.8625
1919.04543	8251.4625
1922.15534	8237.3625
1925.26322	8221.0625
1928.36908	8188.2625
1931.47292	8159.2625
1934.57473	8146.6625
1937.67453	8115.7625
1940.77232	8091.8625
1943.86808	8073.2625
1946.96184	8062.6625
1950.05358	8024.6625
1953.14331	8005.8625
1956.23103	7977.2625
1959.31675	7961.7625
1962.40046	7946.8625
1965.48217	7915.2625
1968.56188	7898.4625
1971.63959	7863.1625
1974.7153	7842.6625
1977.78901	7814.0625
1980.86073	7796.8625
1983.93046	7759.8625
1986.99819	7743.0625
1990.06394	7705.9625
1993.1277	7684.0625
1996.18947	7653.0625
1999.24925	7641.6625
2002.30706	7608.8625
2005.36288	7582.3625
2008.41672	7578.6625
2011.46859	7540.9625
2014.51848	7511.3625
2017.56639	7491.4625
2020.61233	7480.2625
2023.6563	7481.8625
2026.6983	7436.8625
2029.73833	7426.0625
2032.7764	7422.4625
2035.8125	7417.2625
2038.84664	7392.5625
2041.87881	7367.3625
2044.90903	7348.8625
2047.93729	7342.1625
2050.96359	7360.4625
2053.98794	7349.0625
2057.01034	7346.2625
2060.03078	7321.1625
2063.04927	7307.0625
2066.06582	7301.8625
2069.08042	7285.6625
2072.09307	7317.6625
2075.10378	7328.8625
2078.11255	7256.9625
2081.11938	7278.3625
2084.12426	7266.2625
2087.12722	7237.7625
2090.12824	7265.9625
2093.12732	7278.1625
2096.12447	7267.9625
2099.11969	7232.3625
2102.11299	7249.7625
2105.10435	7245.3625
2108.09379	7251.8625
2111.08131	7265.7625
2114.0669	7250.7625
2117.05057	7259.4625
2120.03233	7259.5625
2123.01216	7269.0625
2125.99008	7266.4625
2128.96609	7276.6625
2131.94018	7276.4625
2134.91236	7279.2625
2137.88263	7268.8625
2140.851	7282.8625
2143.81746	7286.7625
2146.78201	7276.3625
2149.74466	7254.6625
2152.7054	7271.8625
2155.66425	7251.7625
2158.6212	7244.4625
2161.57625	7234.7625
2164.52941	7247.1625
2167.48067	7246.0625
2170.43004	7230.5625
2173.37752	7246.1625
2176.32311	7237.3625
2179.26681	7243.2625
2182.20863	7218.9625
2185.14856	7226.7625
2188.08661	7207.8625
2191.02278	7222.1625
2193.95707	7222.1625
2196.88948	7203.6625
2199.82001	7207.1625
2202.74867	7203.2625
2205.67545	7204.3625
2208.60037	7199.5625
2211.52341	7166.1625
2214.44458	7179.5625
2217.36388	7157.5625
2220.28132	7145.7625
2223.1969	7103.3625
2226.11061	7104.2625
2229.02246	7094.5625
2231.93245	7092.9625
2234.84058	7061.6625
2237.74686	7073.5625
2240.65128	7046.4625
2243.55385	7030.3625
2246.45456	7037.0625
2249.35343	7033.0625
2252.25044	7020.1625
2255.14561	7004.9625
2258.03893	6976.6625
2260.93041	7028.2625
2263.82004	6949.2625
2266.70783	6946.6625
2269.59378	6919.5625
2272.4779	6897.6625
2275.36017	6908.4625
2278.24061	6871.1625
2281.11922	6870.0625
2283.996	6844.2625
2286.87094	6854.3625
2289.74405	6854.0625
2292.61534	6814.0625
2295.4848	6806.7625
2298.35243	6806.3625
2301.21824	6793.0625
2304.08223	6829.0625
2306.94439	6799.2625
2309.80474	6811.1625
2312.66327	6799.3625
2315.51999	6790.7625
2318.37489	6799.2625
2321.22797	6786.9625
2324.07925	6768.2625
2326.92871	6764.1625
2329.77637	6769.8625
2332.62222	6751.8625
2335.46626	6749.8625
2338.3085	6725.3625
2341.14893	6735.5625
2343.98756	6734.4625
2346.8244	6749.3625
2349.65943	6756.3625
2352.49267	6741.4625
2355.32411	6737.9625
2358.15376	6733.1625
2360.98161	6742.1625
2363.80768	6732.0625
2366.63195	6722.0625
2369.45444	6695.3625
2372.27514	6697.7625
2375.09405	6693.1625
2377.91118	6669.5625
2380.72652	6670.8625
2383.54009	6641.8625
2386.35187	6638.2625
2389.16188	6590.6625
2391.97011	6569.9625
2394.77657	6579.9625
2397.58125	6570.7625
2400.38416	6577.2625
2403.18529	6540.1625
2405.98466	6526.1625
2408.78226	6508.8625
2411.57809	6501.9625
2414.37216	6495.5625
2417.16446	6500.6625
2419.955	6484.7625
2422.74378	6482.5625
2425.5308	6490.3625
2428.31606	6485.5625
2431.09956	6473.9625
2433.88131	6466.2625
2436.6613	6468.2625
2439.43954	6469.0625
2442.21603	6456.2625
2444.99077	6449.1625
2447.76377	6475.4625
2450.53501	6450.4625
2453.30451	6459.4625
2456.07226	6455.2625
2458.83827	6452.1625
2461.60254	6444.1625
2464.36507	6453.2625
2467.12586	6453.7625
2469.88492	6446.6625
2472.64224	6450.2625
2475.39782	6457.6625
2478.15167	6453.7625
2480.90379	6453.6625
2483.65417	6451.9625
2486.40283	6429.8625
2489.14976	6437.6625
2491.89497	6426.7625
2494.63845	6464.6625
2497.3802	6446.0625
2500.12024	6425.1625
2502.85855	6451.3625
2505.59514	6409.2625
2508.33002	6403.3625
2511.06318	6419.0625
2513.79462	6402.0625
2516.52435	6395.2625
2519.25237	6371.3625
2521.97867	6359.0625
2524.70327	6376.0625
2527.42616	6360.5625
2530.14734	6350.4625
2532.86681	6349.8625
2535.58458	6340.3625
2538.30065	6333.5625
2541.01501	6334.3625
2543.72768	6325.5625
2546.43864	6327.2625
2549.14791	6316.5625
2551.85548	6312.7625
2554.56136	6314.2625
2557.26554	6286.3625
2559.96803	6288.0625
2562.66883	6302.1625
2565.36794	6286.6625
2568.06536	6297.4625
2570.7611	6247.4625
2573.45514	6282.1625
2576.14751	6266.5625
2578.83819	6260.9625
2581.52719	6261.9625
2584.21451	6229.9625
2586.90015	6227.1625
2589.58411	6226.8625
2592.2664	6239.7625
2594.94701	6215.5625
2597.62594	6234.1625
2600.30321	6202.7625
2602.9788	6196.5625
2605.65273	6183.9625
2608.32498	6178.8625
2610.99557	6193.0625
2613.66449	6172.9625
2616.33175	6190.5625
2618.99734	6184.7625
2621.66128	6187.2625
2624.32355	6177.5625
2626.98416	6166.5625
2629.64311	6162.1625
2632.30041	6156.8625
2634.95605	6133.6625
2637.61004	6137.5625
2640.26238	6134.2625
2642.91306	6137.3625
2645.56209	6138.4625
2648.20948	6136.0625
2650.85521	6138.6625
2653.4993	6127.3625
2656.14175	6109.1625
2658.78255	6133.5625
2661.42171	6143.9625
2664.05923	6161.3625
2666.6951	6134.7625
2669.32934	6147.1625
2671.96194	6164.1625
2674.59291	6152.3625
2677.22224	6155.2625
2679.84993	6135.7625
2682.476	6131.5625
2685.10043	6131.8625
2687.72324	6110.3625
2690.34441	6138.3625
2692.96396	6128.9625
2695.58188	6132.3625
2698.19818	6131.6625
2700.81285	6145.9625
2703.4259	6142.1625
2706.03733	6185.2625
2708.64714	6170.4625
2711.25533	6157.3625
2713.86191	6152.0625
2716.46687	6158.1625
2719.07021	6159.9625
2721.67194	6156.3625
2724.27206	6148.6625
2726.87057	6159.2625
2729.46747	6145.9625
2732.06276	6155.3625
2734.65644	6143.4625
2737.24852	6144.5625
2739.83899	6139.3625
2742.42786	6136.0625
2745.01513	6116.5625
2747.60079	6132.5625
2750.18486	6132.8625
2752.76733	6125.4625
2755.3482	6104.8625
2757.92747	6118.9625
2760.50515	6106.4625
2763.08123	6106.6625
2765.65573	6110.9625
2768.22863	6112.6625
2770.79994	6106.2625
2773.36967	6102.0625
2775.9378	6106.3625
2778.50435	6110.6625
2781.06932	6086.2625
2783.6327	6101.1625
2786.1945	6103.0625
2788.75471	6086.2625
2791.31335	6073.8625
2793.87041	6039.3625
2796.42589	6042.9625
2798.97979	6033.5625
2801.53212	6041.8625
2804.08288	6032.1625
2806.63206	6015.7625
2809.17967	6002.2625
2811.72571	6001.9625
2814.27018	5979.9625
2816.81308	5992.1625
2819.35442	5984.8625
2821.89419	5988.5625
2824.43239	5967.1625
2826.96904	5972.3625
2829.50412	5971.8625
2832.03763	5955.0625
2834.56959	5975.4625
2837.1	5981.1625
2839.62884	5962.7625
2842.15613	5961.9625
2844.68186	5982.1625
2847.20604	5995.0625
2849.72867	5994.5625
2852.24974	6015.1625
2854.76927	5978.8625
2857.28724	6004.6625
2859.80367	6002.7625
2862.31855	5954.1625
2864.83189	5957.3625
2867.34368	5958.5625
2869.85393	5949.5625
2872.36264	5950.3625
2874.8698	5952.3625
2877.37543	5951.1625
2879.87952	5976.9625
2882.38207	5966.3625
2884.88308	5958.4625
2887.38256	5967.8625
2889.88051	5958.9625
2892.37692	5952.0625
2894.8718	5962.6625
2897.36515	5969.7625
2899.85698	5976.9625
2902.34727	5991.2625
2904.83604	5953.4625
2907.32328	5987.5625
2909.809	5986.1625
2912.29319	5994.1625
2914.77587	6001.9625
2917.25702	5998.2625
2919.73665	6002.8625
2922.21476	6003.7625
2924.69136	6007.1625
2927.16644	6001.5625
2929.64	5996.8625
2932.11205	5992.1625
2934.58258	5951.1625
2937.05161	5983.6625
2939.51912	5978.8625
2941.98513	5958.9625
2944.44962	5929.5625
2946.91261	5924.4625
2949.37409	5942.2625
2951.83407	5931.8625
2954.29254	5921.1625
2956.74951	5919.1625
2959.20498	5917.4625
2961.65895	5902.1625
2964.11142	5893.6625
2966.56239	5865.9625
2969.01186	5840.8625
2971.45984	5815.4625
2973.90632	5810.5625
2976.35131	5805.9625
2978.7948	5794.6625
2981.23681	5779.2625
2983.67732	5760.4625
2986.11635	5745.4625
2988.55388	5746.2625
2990.98993	5696.5625
2993.4245	5720.8625
2995.85758	5673.1625
2998.28917	5676.1625
3000.71928	5676.3625
3003.14791	5662.3625
3005.57506	5661.8625
3008.00073	5660.5625
3010.42493	5642.7625
3012.84764	5625.4625
3015.26888	5635.5625
3017.68865	5634.8625
3020.10694	5597.1625
3022.52376	5598.3625
3024.9391	5582.5625
3027.35298	5598.6625
3029.76539	5593.7625
3032.17632	5563.2625
3034.5858	5555.1625
3036.9938	5560.6625
3039.40034	5561.4625
3041.80542	5537.5625
3044.20903	5519.7625
3046.61118	5523.4625
3049.01187	5523.6625
3051.4111	5517.3625
3053.80888	5515.7625
3056.20519	5497.1625
3058.60005	5486.7625
3060.99345	5485.9625
3063.3854	5454.8625
3065.7759	5438.0625
3068.16494	5457.4625
3070.55254	5447.6625
3072.93868	5418.4625
3075.32338	5424.4625
3077.70662	5399.6625
3080.08842	5388.9625
