Data from AgNPs_FTO_APTES_UA_5um_CRN_0.1mM_R6G_10uM_NaF_0.1M_Addition_RamanShift__30__13-31-59-117.txt Node

Date: Tue Dec 21 13:31:59 GMT 2021
User: TCL
Spectrometer: QEP01345
Trigger mode: 4
Integration Time (sec): 7.000000E0
Scans to average: 10
Electric dark correction enabled: true
Nonlinearity correction enabled: false
Boxcar width: 0
XAxis mode: Raman Shifts
Number of Pixels in Spectrum: 1044
>>>>>Begin Spectral Data<<<<<
46.04893	-0.425
50.45542	-0.325
54.85868	-0.825
59.25871	0.575
63.6555	31.575
68.04907	35.975
72.43941	37.575
76.82654	39.275
81.21044	42.275
85.59113	37.975
89.96862	41.875
94.34289	44.175
98.71396	45.875
103.08183	48.975
107.4465	53.375
111.80798	51.275
116.16626	52.475
120.52136	49.975
124.87327	51.175
129.222	49.175
133.56755	56.475
137.90993	60.875
142.24913	59.975
146.58517	70.575
150.91804	72.775
155.24774	86.375
159.57429	103.475
163.89768	129.575
168.21792	167.075
172.53501	218.375
176.84895	297.175
181.15975	417.875
185.46741	571.875
189.77193	785.475
194.07331	1062.275
198.37157	1366.775
202.6667	1676.475
206.9587	2004.075
211.24758	2311.275
215.53334	2651.575
219.81599	3021.875
224.09553	3437.775
228.37195	3907.875
232.64527	4406.175
236.91549	4930.775
241.18261	5392.375
245.44663	5780.275
249.70755	6091.375
253.96539	6321.575
258.22014	6516.675
262.4718	6654.575
266.72039	6741.175
270.96589	6778.075
275.20832	6758.875
279.44768	6670.675
283.68397	6597.175
287.91719	6539.675
292.14735	6568.975
296.37445	6701.175
300.59849	6956.475
304.81948	7301.175
309.03742	7580.575
313.25231	7594.375
317.46415	7232.275
321.67296	6612.875
325.87872	6058.175
330.08145	5768.275
334.28114	5752.975
338.47781	5863.775
342.67145	6059.675
346.86207	6345.175
351.04966	6792.375
355.23424	7294.175
359.4158	7668.375
363.59435	7819.575
367.76989	7857.175
371.94243	7790.575
376.11196	7692.475
380.27849	7622.275
384.44203	7487.175
388.60257	7363.975
392.76012	7288.375
396.91468	7391.475
401.06626	7630.775
405.21485	7857.975
409.36047	7731.475
413.50311	7296.175
417.64277	6856.675
421.77947	6578.875
425.9132	6452.875
430.04396	6410.475
434.17176	6431.275
438.2966	6510.375
442.41849	6655.375
446.53742	6879.975
450.6534	7107.675
454.76644	7233.175
458.87653	7245.975
462.98368	7167.175
467.08789	7026.175
471.18916	6867.875
475.2875	6639.875
479.38291	6485.075
483.4754	6379.575
487.56496	6280.775
491.6516	6234.575
495.73531	6216.575
499.81612	6225.775
503.89401	6315.275
507.96899	6369.775
512.04106	6456.075
516.11023	6580.775
520.1765	6630.975
524.23987	6632.275
528.30034	6494.875
532.35792	6317.775
536.41261	6132.175
540.46441	5919.575
544.51333	5802.575
548.55936	5829.175
552.60252	5990.075
556.64279	6146.375
560.6802	6282.975
564.71473	6466.175
568.7464	6785.875
572.7752	7075.175
576.80114	6911.175
580.82422	6639.575
584.84444	6531.975
588.86181	6500.875
592.87633	6483.375
596.888	6555.375
600.89682	6781.275
604.9028	7628.175
608.90594	9938.975
612.90624	13081.075
616.90371	12886.675
620.89834	8759.675
624.89015	6629.875
628.87913	6256.475
632.86528	6302.875
636.84862	6434.775
640.82913	6338.475
644.80683	5973.575
648.78172	5715.175
652.75379	5715.575
656.72306	6003.875
660.68952	6367.075
664.65319	6330.375
668.61405	5926.575
672.57211	5717.475
676.52738	5734.275
680.47986	5738.875
684.42955	5678.575
688.37646	5628.575
692.32058	5635.575
696.26192	5670.175
700.20048	5808.675
704.13626	5919.075
708.06928	5915.975
711.99952	5832.775
715.927	5764.775
719.85171	5755.175
723.77365	5720.675
727.69284	5649.375
731.60928	5536.575
735.52295	5545.175
739.43388	5551.075
743.34206	5591.975
747.24749	5643.875
751.15017	5718.475
755.05012	5860.375
758.94733	6232.875
762.8418	7006.275
766.73354	8348.775
770.62254	9787.075
774.50882	10560.075
778.39237	10221.175
782.27321	8786.675
786.15132	7220.475
790.02671	6259.675
793.89938	5843.675
797.76935	5668.475
801.6366	5622.875
805.50115	5596.575
809.36299	5598.275
813.22213	5588.775
817.07857	5541.575
820.93231	5528.475
824.78336	5497.975
828.63172	5522.875
832.47738	5513.475
836.32036	5503.575
840.16066	5456.175
843.99827	5382.075
847.8332	5369.875
851.66546	5371.575
855.49504	5341.475
859.32195	5332.975
863.1462	5286.675
866.96777	5262.775
870.78668	5256.075
874.60293	5292.375
878.41652	5314.175
882.22745	5366.075
886.03573	5410.475
889.84136	5383.275
893.64433	5340.275
897.44466	5323.175
901.24235	5289.175
905.0374	5265.975
908.8298	5214.075
912.61957	5187.875
916.40671	5227.875
920.19121	5271.375
923.97308	5350.975
927.75233	5412.775
931.52895	5484.775
935.30295	5398.275
939.07433	5178.775
942.84309	5020.275
946.60924	4898.175
950.37278	4823.175
954.13371	4789.175
957.89203	4767.875
961.64774	4745.575
965.40086	4737.975
969.15137	4715.775
972.89929	4699.175
976.64461	4671.675
980.38733	4697.575
984.12747	4693.075
987.86502	4694.475
991.59999	4724.875
995.33237	4780.375
999.06217	4900.675
1002.78939	5028.375
1006.51404	5216.575
1010.23611	5370.075
1013.95561	5482.375
1017.67255	5466.675
1021.38692	5366.475
1025.09872	5236.475
1028.80796	5159.375
1032.51465	5177.975
1036.21877	5290.575
1039.92035	5400.775
1043.61937	5472.275
1047.31584	5448.475
1051.00976	5406.975
1054.70114	5364.975
1058.38998	5333.575
1062.07627	5347.975
1065.76003	5395.375
1069.44126	5466.075
1073.11995	5537.075
1076.79611	5654.575
1080.46974	5746.875
1084.14085	5914.275
1087.80943	6067.075
1091.47549	6122.675
1095.13903	6007.675
1098.80005	5750.975
1102.45857	5493.375
1106.11456	5381.875
1109.76805	5399.675
1113.41903	5529.775
1117.06751	5767.575
1120.71348	6081.375
1124.35696	6466.775
1127.99793	6804.175
1131.63641	6773.675
1135.2724	6409.375
1138.90589	6035.975
1142.5369	5790.275
1146.16542	5638.675
1149.79145	5537.575
1153.415	5522.375
1157.03607	5572.575
1160.65467	5710.875
1164.27079	5928.775
1167.88443	6277.775
1171.49561	6890.375
1175.10432	7913.575
1178.71056	9222.575
1182.31434	10200.975
1185.91565	10380.675
1189.51451	10066.575
1193.11091	9486.175
1196.70485	8795.675
1200.29634	8232.875
1203.88538	7737.975
1207.47197	7184.375
1211.05612	6647.275
1214.63782	6349.775
1218.21708	6248.875
1221.79391	6244.075
1225.36829	6262.075
1228.94024	6293.475
1232.50976	6295.075
1236.07685	6313.375
1239.6415	6324.175
1243.20374	6342.075
1246.76355	6373.675
1250.32093	6454.875
1253.8759	6575.975
1257.42845	6830.175
1260.97859	7071.675
1264.52631	7314.275
1268.07163	7555.875
1271.61453	7758.375
1275.15503	7940.575
1278.69312	8017.075
1282.22882	8097.975
1285.76211	8287.675
1289.29301	8615.675
1292.82151	8935.875
1296.34761	9281.675
1299.87133	9774.575
1303.39266	10634.875
1306.9116	11901.475
1310.42815	13363.375
1313.94233	14199.475
1317.45412	13900.775
1320.96354	12864.275
1324.47058	11747.775
1327.97525	10845.775
1331.47754	10334.575
1334.97747	10181.875
1338.47502	10253.575
1341.97022	10527.175
1345.46305	10940.875
1348.95352	11542.575
1352.44163	12417.475
1355.92738	13685.075
1359.41078	15618.975
1362.89183	17368.775
1366.37053	16896.375
1369.84688	14524.975
1373.32088	12056.075
1376.79254	10329.875
1380.26186	9317.275
1383.72883	8764.275
1387.19347	8360.075
1390.65578	7985.575
1394.11575	7721.075
1397.57339	7607.975
1401.0287	7675.075
1404.48168	7753.175
1407.93234	7850.875
1411.38068	7900.675
1414.82669	7849.775
1418.27039	7690.975
1421.71177	7458.875
1425.15083	7275.575
1428.58758	7162.475
1432.02203	7178.375
1435.45416	7224.175
1438.88399	7248.675
1442.31151	7234.075
1445.73673	7243.875
1449.15965	7292.175
1452.58027	7276.975
1455.9986	7213.975
1459.41463	7218.275
1462.82837	7326.275
1466.23982	7471.575
1469.64898	7654.175
1473.05586	7764.875
1476.46045	7853.875
1479.86276	8032.775
1483.26279	8230.075
1486.66054	8492.275
1490.05602	8854.375
1493.44922	9312.275
1496.84016	10035.675
1500.22882	11179.275
1503.61521	12635.475
1506.99934	14219.075
1510.38121	15578.375
1513.76081	16206.375
1517.13816	15318.775
1520.51324	13368.775
1523.88607	11401.975
1527.25665	10032.375
1530.62498	9273.175
1533.99105	8882.975
1537.35488	8587.875
1540.71647	8434.475
1544.07581	8353.675
1547.4329	8303.775
1550.78776	8233.275
1554.14038	8185.075
1557.49077	8186.775
1560.83892	8308.275
1564.18484	8574.475
1567.52853	8889.775
1570.86999	9211.475
1574.20922	9355.175
1577.54624	9289.175
1580.88103	8795.675
1584.2136	8120.475
1587.54395	7731.575
1590.87208	7816.275
1594.19801	8289.475
1597.52172	8928.875
1600.84321	9267.475
1604.16251	8990.875
1607.47959	8326.175
1610.79447	7584.975
1614.10715	6921.675
1617.41763	6374.575
1620.7259	6033.575
1624.03199	5854.375
1627.33587	5849.075
1630.63757	5960.475
1633.93707	6260.775
1637.23439	6735.675
1640.52951	7482.475
1643.82246	8544.175
1647.11321	9799.175
1650.40179	10782.975
1653.68819	10651.475
1656.97241	9332.175
1660.25446	7688.775
1663.53433	6446.975
1666.81203	5684.675
1670.08756	5232.875
1673.36092	4966.075
1676.63211	4790.275
1679.90115	4655.375
1683.16801	4557.275
1686.43272	4476.675
1689.69527	4416.075
1692.95567	4373.675
1696.2139	4354.775
1699.46999	4342.975
1702.72392	4305.475
1705.97571	4298.775
1709.22535	4279.975
1712.47284	4268.275
1715.71819	4278.475
1718.96139	4282.875
1722.20246	4284.775
1725.44139	4256.175
1728.67818	4223.275
1731.91284	4168.875
1735.14537	4147.875
1738.37576	4092.075
1741.60403	4064.275
1744.83017	4042.175
1748.05418	4035.875
1751.27607	4037.975
1754.49584	4007.175
1757.71349	4011.475
1760.92903	3985.675
1764.14244	3964.975
1767.35375	3942.675
1770.56294	3928.575
1773.77002	3907.275
1776.97499	3871.475
1780.17785	3850.075
1783.37861	3834.475
1786.57727	3831.675
1789.77382	3802.675
1792.96828	3800.375
1796.16064	3781.475
1799.3509	3777.775
1802.53907	3758.875
1805.72514	3741.475
1808.90913	3717.875
1812.09102	3714.275
1815.27083	3703.275
1818.44856	3693.775
1821.6242	3683.475
1824.79776	3676.975
1827.96924	3671.475
1831.13864	3664.675
1834.30597	3666.175
1837.47122	3650.975
1840.6344	3640.175
1843.7955	3636.575
1846.95454	3629.975
1850.11151	3614.975
1853.26642	3630.975
1856.41926	3629.175
1859.57004	3622.675
1862.71876	3621.475
1865.86542	3617.675
1869.01003	3619.175
1872.15258	3628.675
1875.29308	3598.475
1878.43152	3614.175
1881.56792	3615.675
1884.70227	3593.775
1887.83457	3603.575
1890.96482	3596.775
1894.09304	3590.975
1897.21921	3594.675
1900.34335	3594.275
1903.46544	3604.075
1906.58551	3591.775
1909.70353	3587.575
1912.81953	3589.975
1915.93349	3586.975
1919.04543	3588.775
1922.15534	3576.475
1925.26322	3570.275
1928.36908	3549.075
1931.47292	3539.875
1934.57473	3518.675
1937.67453	3506.075
1940.77232	3495.275
1943.86808	3467.075
1946.96184	3463.275
1950.05358	3442.375
1953.14331	3448.475
1956.23103	3418.375
1959.31675	3407.375
1962.40046	3392.975
1965.48217	3383.775
1968.56188	3379.275
1971.63959	3363.075
1974.7153	3351.475
1977.78901	3341.975
1980.86073	3326.475
1983.93046	3317.475
1986.99819	3302.575
1990.06394	3283.075
1993.1277	3273.675
1996.18947	3262.475
1999.24925	3246.475
2002.30706	3246.775
2005.36288	3238.975
2008.41672	3220.175
2011.46859	3204.375
2014.51848	3197.975
2017.56639	3195.975
2020.61233	3182.775
2023.6563	3169.575
2026.6983	3165.075
2029.73833	3160.575
2032.7764	3140.675
2035.8125	3135.275
2038.84664	3131.875
2041.87881	3117.775
2044.90903	3110.275
2047.93729	3096.475
2050.96359	3100.975
2053.98794	3094.375
2057.01034	3091.675
2060.03078	3078.875
2063.04927	3084.675
2066.06582	3075.375
2069.08042	3062.975
2072.09307	3061.475
2075.10378	3055.375
2078.11255	3052.775
2081.11938	3054.575
2084.12426	3050.375
2087.12722	3058.575
2090.12824	3046.975
2093.12732	3057.275
2096.12447	3037.175
2099.11969	3043.475
2102.11299	3033.675
2105.10435	3044.175
2108.09379	3043.675
2111.08131	3039.675
2114.0669	3041.375
2117.05057	3048.375
2120.03233	3051.175
2123.01216	3034.775
2125.99008	3039.075
2128.96609	3053.675
2131.94018	3033.975
2134.91236	3050.775
2137.88263	3051.475
2140.851	3029.375
2143.81746	3036.175
2146.78201	3028.275
2149.74466	3036.475
2152.7054	3027.375
2155.66425	3019.075
2158.6212	3024.775
2161.57625	3027.275
2164.52941	3017.575
2167.48067	2999.375
2170.43004	3006.975
2173.37752	3005.475
2176.32311	3005.775
2179.26681	3005.675
2182.20863	3007.975
2185.14856	3002.175
2188.08661	2994.275
2191.02278	2992.675
2193.95707	2999.575
2196.88948	2985.775
2199.82001	2983.975
2202.74867	2970.075
2205.67545	2975.775
2208.60037	2960.775
2211.52341	2973.875
2214.44458	2976.975
2217.36388	2952.275
2220.28132	2943.775
2223.1969	2916.475
2226.11061	2939.975
2229.02246	2913.975
2231.93245	2910.275
2234.84058	2904.975
2237.74686	2904.575
2240.65128	2891.375
2243.55385	2899.975
2246.45456	2886.475
2249.35343	2874.475
2252.25044	2877.275
2255.14561	2879.575
2258.03893	2891.675
2260.93041	2897.575
2263.82004	2877.075
2266.70783	2879.875
2269.59378	2861.275
2272.4779	2848.875
2275.36017	2823.675
2278.24061	2833.375
2281.11922	2818.875
2283.996	2809.375
2286.87094	2809.375
2289.74405	2792.975
2292.61534	2782.175
2295.4848	2775.275
2298.35243	2782.975
2301.21824	2771.775
2304.08223	2770.575
2306.94439	2775.375
2309.80474	2757.575
2312.66327	2760.275
2315.51999	2766.875
2318.37489	2758.175
2321.22797	2756.575
2324.07925	2751.175
2326.92871	2739.875
2329.77637	2740.375
2332.62222	2740.975
2335.46626	2726.375
2338.3085	2723.875
2341.14893	2741.575
2343.98756	2726.275
2346.8244	2736.975
2349.65943	2730.575
2352.49267	2736.275
2355.32411	2729.175
2358.15376	2740.375
2360.98161	2740.775
2363.80768	2752.675
2366.63195	2751.775
2369.45444	2753.775
2372.27514	2760.175
2375.09405	2745.675
2377.91118	2741.675
2380.72652	2728.375
2383.54009	2714.875
2386.35187	2696.275
2389.16188	2672.775
2391.97011	2690.775
2394.77657	2667.375
2397.58125	2657.075
2400.38416	2649.575
2403.18529	2643.375
2405.98466	2632.175
2408.78226	2640.075
2411.57809	2629.975
2414.37216	2611.875
2417.16446	2619.775
2419.955	2613.675
2422.74378	2615.575
2425.5308	2595.475
2428.31606	2596.975
2431.09956	2594.275
2433.88131	2606.175
2436.6613	2592.575
2439.43954	2588.675
2442.21603	2601.075
2444.99077	2599.075
2447.76377	2597.975
2450.53501	2586.275
2453.30451	2601.375
2456.07226	2595.975
2458.83827	2598.775
2461.60254	2586.775
2464.36507	2591.575
2467.12586	2587.975
2469.88492	2570.875
2472.64224	2587.775
2475.39782	2600.975
2478.15167	2593.675
2480.90379	2590.375
2483.65417	2601.775
2486.40283	2600.475
2489.14976	2617.875
2491.89497	2614.675
2494.63845	2629.675
2497.3802	2628.875
2500.12024	2616.475
2502.85855	2601.575
2505.59514	2597.475
2508.33002	2579.875
2511.06318	2561.875
2513.79462	2566.775
2516.52435	2553.975
2519.25237	2534.975
2521.97867	2522.075
2524.70327	2520.475
2527.42616	2522.475
2530.14734	2512.875
2532.86681	2514.275
2535.58458	2506.875
2538.30065	2501.775
2541.01501	2512.675
2543.72768	2491.275
2546.43864	2500.875
2549.14791	2498.675
2551.85548	2499.375
2554.56136	2486.375
2557.26554	2488.675
2559.96803	2492.975
2562.66883	2488.075
2565.36794	2488.375
2568.06536	2481.275
2570.7611	2472.475
2573.45514	2471.875
2576.14751	2467.975
2578.83819	2460.775
2581.52719	2467.175
2584.21451	2458.575
2586.90015	2453.775
2589.58411	2458.375
2592.2664	2440.675
2594.94701	2447.575
2597.62594	2443.675
2600.30321	2437.675
2602.9788	2443.175
2605.65273	2427.275
2608.32498	2425.075
2610.99557	2425.975
2613.66449	2431.075
2616.33175	2425.075
2618.99734	2427.575
2621.66128	2423.675
2624.32355	2421.875
2626.98416	2432.775
2629.64311	2416.075
2632.30041	2416.675
2634.95605	2409.575
2637.61004	2403.175
2640.26238	2396.375
2642.91306	2380.875
2645.56209	2390.375
2648.20948	2390.875
2650.85521	2393.875
2653.4993	2371.075
2656.14175	2377.775
2658.78255	2382.975
2661.42171	2393.575
2664.05923	2401.075
2666.6951	2392.575
2669.32934	2403.075
2671.96194	2412.675
2674.59291	2411.675
2677.22224	2408.075
2679.84993	2408.175
2682.476	2405.475
2685.10043	2408.175
2687.72324	2418.675
2690.34441	2407.475
2692.96396	2400.575
2695.58188	2417.675
2698.19818	2410.375
2700.81285	2414.975
2703.4259	2433.575
2706.03733	2482.275
2708.64714	2456.375
2711.25533	2453.775
2713.86191	2441.975
2716.46687	2450.175
2719.07021	2458.775
2721.67194	2442.175
2724.27206	2443.875
2726.87057	2444.975
2729.46747	2448.075
2732.06276	2461.675
2734.65644	2443.075
2737.24852	2428.375
2739.83899	2424.675
2742.42786	2424.275
2745.01513	2406.075
2747.60079	2413.575
2750.18486	2411.075
2752.76733	2401.875
2755.3482	2393.775
2757.92747	2384.475
2760.50515	2395.875
2763.08123	2388.475
2765.65573	2390.275
2768.22863	2389.775
2770.79994	2377.275
2773.36967	2388.775
2775.9378	2395.175
2778.50435	2391.375
2781.06932	2395.675
2783.6327	2398.275
2786.1945	2399.575
2788.75471	2403.275
2791.31335	2411.375
2793.87041	2405.475
2796.42589	2401.775
2798.97979	2408.175
2801.53212	2410.875
2804.08288	2417.075
2806.63206	2425.175
2809.17967	2428.775
2811.72571	2436.875
2814.27018	2449.575
2816.81308	2454.875
2819.35442	2455.575
2821.89419	2454.675
2824.43239	2465.575
2826.96904	2467.575
2829.50412	2472.375
2832.03763	2475.775
2834.56959	2476.375
2837.1	2488.675
2839.62884	2501.175
2842.15613	2552.475
2844.68186	2590.575
2847.20604	2661.375
2849.72867	2697.675
2852.24974	2717.375
2854.76927	2725.075
2857.28724	2725.375
2859.80367	2701.075
2862.31855	2683.575
2864.83189	2654.375
2867.34368	2642.875
2869.85393	2645.075
2872.36264	2644.675
2874.8698	2634.675
2877.37543	2624.875
2879.87952	2630.075
2882.38207	2629.675
2884.88308	2624.375
2887.38256	2626.375
2889.88051	2620.675
2892.37692	2620.975
2894.8718	2624.775
2897.36515	2623.275
2899.85698	2632.175
2902.34727	2639.075
2904.83604	2624.875
2907.32328	2630.375
2909.809	2633.675
2912.29319	2630.075
2914.77587	2624.675
2917.25702	2621.175
2919.73665	2624.975
2922.21476	2610.075
2924.69136	2607.675
2927.16644	2603.675
2929.64	2605.575
2932.11205	2582.675
2934.58258	2566.275
2937.05161	2554.875
2939.51912	2544.975
2941.98513	2530.375
2944.44962	2477.475
2946.91261	2456.775
2949.37409	2438.575
2951.83407	2412.575
2954.29254	2387.375
2956.74951	2382.775
2959.20498	2371.375
2961.65895	2337.775
2964.11142	2336.575
2966.56239	2319.075
2969.01186	2312.175
2971.45984	2307.975
2973.90632	2288.875
2976.35131	2282.275
2978.7948	2262.475
2981.23681	2272.975
2983.67732	2241.475
2986.11635	2243.075
2988.55388	2233.575
2990.98993	2234.675
2993.4245	2222.275
2995.85758	2210.375
2998.28917	2208.175
3000.71928	2207.475
3003.14791	2193.375
3005.57506	2197.075
3008.00073	2195.075
3010.42493	2172.875
3012.84764	2185.175
3015.26888	2181.275
3017.68865	2172.975
3020.10694	2165.275
3022.52376	2165.175
3024.9391	2160.875
3027.35298	2167.275
3029.76539	2154.075
3032.17632	2159.875
3034.5858	2145.175
3036.9938	2145.375
3039.40034	2155.075
3041.80542	2137.675
3044.20903	2138.975
3046.61118	2134.475
3049.01187	2132.775
3051.4111	2125.075
3053.80888	2122.575
3056.20519	2116.475
3058.60005	2131.475
3060.99345	2108.475
3063.3854	2105.475
3065.7759	2107.075
3068.16494	2097.775
3070.55254	2098.875
3072.93868	2090.775
3075.32338	2096.375
3077.70662	2093.575
3080.08842	2078.275
3082.46878	2073.775
3084.84769	2053.575
3087.22515	2067.475
3089.60118	2064.275
3091.97576	2054.075
3094.3489	2053.575
3096.72061	2050.475
3099.09087	2059.675
3101.4597	2049.575
3103.82709	2057.775
3106.19305	2045.475
3108.55757	2048.775
3110.92066	2038.875
3113.28232	2039.175
3115.64255	2035.675
3118.00134	2034.475
3120.35871	2039.875
3122.71466	2036.475
3125.06917	2028.975
3127.42226	2041.475
3129.77393	2042.675
3132.12417	2043.375
3134.47299	2044.475
3136.82039	2047.775
3139.16636	2052.475
3141.51092	2056.575
3143.85406	2061.775
3146.19579	2071.075
3148.53609	2061.775
3150.87499	2064.975
3153.21246	2071.575
3155.54853	2074.775
3157.88318	2084.975
3160.21642	2071.975
3162.54826	2084.075
3164.87868	2079.975
3167.2077	2093.475
3169.5353	2079.175
3171.86151	2082.175
3174.18631	2088.875
3176.5097	2083.775
3178.83169	2096.375
3181.15228	2100.275
3183.47147	2101.375
3185.78926	2091.475
3188.10565	2098.875
3190.42065	2108.975
3192.73424	2105.375
3195.04645	2104.575
3197.35725	2115.675
3199.66667	2113.075
3201.97469	2113.775
3204.28132	2125.675
3206.58656	2133.975
3208.8904	2127.875
3211.19287	2133.475
3213.49394	2128.575
3215.79363	2122.875
3218.09193	2139.175
3220.38884	2151.675
3222.68438	2164.575
3224.97853	2127.875
3227.2713	2133.675
3229.56269	2135.975
3231.8527	2151.375
