Data from AgNPs_FTO_APTES_UA_20um_CRN_0.1mM_R6G_10uM_NaF_0.1M_Addition_RamanShift__1__14-17-29-170.txt Node

Date: Tue Dec 21 14:17:29 GMT 2021
User: TCL
Spectrometer: QEP01345
Trigger mode: 4
Integration Time (sec): 7.000000E0
Scans to average: 10
Electric dark correction enabled: true
Nonlinearity correction enabled: false
Boxcar width: 0
XAxis mode: Raman Shifts
Number of Pixels in Spectrum: 1044
>>>>>Begin Spectral Data<<<<<
46.04893	-0.2875
50.45542	-0.7875
54.85868	-0.3875
59.25871	0.7125
63.6555	46.8125
68.04907	51.6125
72.43941	55.9125
76.82654	56.5125
81.21044	58.8125
85.59113	63.2125
89.96862	67.1125
94.34289	65.2125
98.71396	64.0125
103.08183	72.1125
107.4465	75.6125
111.80798	77.7125
116.16626	78.5125
120.52136	78.8125
124.87327	80.8125
129.222	80.5125
133.56755	87.1125
137.90993	97.0125
142.24913	102.7125
146.58517	117.3125
150.91804	131.6125
155.24774	154.4125
159.57429	188.4125
163.89768	242.1125
168.21792	316.2125
172.53501	423.6125
176.84895	586.4125
181.15975	831.8125
185.46741	1163.7125
189.77193	1593.8125
194.07331	2150.8125
198.37157	2774.9125
202.6667	3432.2125
206.9587	4083.4125
211.24758	4735.9125
215.53334	5406.2125
219.81599	6122.1125
224.09553	6889.4125
228.37195	7758.7125
232.64527	8710.2125
236.91549	9664.4125
241.18261	10644.7125
245.44663	11515.6125
249.70755	12268.8125
253.96539	12905.8125
258.22014	13456.7125
262.4718	13869.8125
266.72039	14182.5125
270.96589	14352.1125
275.20832	14339.2125
279.44768	14203.6125
283.68397	14008.9125
287.91719	13827.8125
292.14735	13739.1125
296.37445	13755.6125
300.59849	13876.3125
304.81948	14051.3125
309.03742	14171.3125
313.25231	14081.1125
317.46415	13820.7125
321.67296	13361.1125
325.87872	12983.1125
330.08145	12755.1125
334.28114	12739.1125
338.47781	12798.1125
342.67145	12948.4125
346.86207	13218.9125
351.04966	13504.9125
355.23424	13820.3125
359.4158	14120.4125
363.59435	14314.0125
367.76989	14448.9125
371.94243	14499.9125
376.11196	14515.0125
380.27849	14590.2125
384.44203	14679.6125
388.60257	14736.0125
392.76012	14870.0125
396.91468	15078.6125
401.06626	15333.0125
405.21485	15500.7125
409.36047	15426.5125
413.50311	15128.9125
417.64277	14810.4125
421.77947	14636.5125
425.9132	14597.0125
430.04396	14645.7125
434.17176	14701.8125
438.2966	14773.4125
442.41849	14979.4125
446.53742	15387.9125
450.6534	15834.1125
454.76644	16127.7125
458.87653	16198.1125
462.98368	16059.5125
467.08789	15868.7125
471.18916	15637.9125
475.2875	15464.4125
479.38291	15333.9125
483.4754	15260.5125
487.56496	15110.1125
491.6516	14880.3125
495.73531	14704.4125
499.81612	14619.7125
503.89401	14657.2125
507.96899	14692.8125
512.04106	14641.7125
516.11023	14611.0125
520.1765	14519.9125
524.23987	14484.9125
528.30034	14356.3125
532.35792	14286.4125
536.41261	14097.9125
540.46441	13905.3125
544.51333	13789.4125
548.55936	13890.4125
552.60252	14148.8125
556.64279	14516.0125
560.6802	14765.5125
564.71473	14888.6125
568.7464	15143.2125
572.7752	15490.5125
576.80114	15734.0125
580.82422	15971.5125
584.84444	16390.2125
588.86181	16952.0125
592.87633	17537.3125
596.888	17566.8125
600.89682	17043.1125
604.9028	17107.4125
608.90594	18717.3125
612.90624	20986.8125
616.90371	20091.0125
620.89834	16312.2125
624.89015	14425.3125
628.87913	14131.2125
632.86528	14288.0125
636.84862	14354.9125
640.82913	14137.6125
644.80683	13776.6125
648.78172	13487.1125
652.75379	13409.1125
656.72306	13572.6125
660.68952	13863.8125
664.65319	13789.8125
668.61405	13471.0125
672.57211	13326.7125
676.52738	13434.1125
680.47986	13477.9125
684.42955	13397.2125
688.37646	13250.7125
692.32058	13256.7125
696.26192	13382.0125
700.20048	13554.8125
704.13626	13696.2125
708.06928	13689.7125
711.99952	13576.7125
715.927	13581.9125
719.85171	13618.6125
723.77365	13600.2125
727.69284	13438.8125
731.60928	13286.6125
735.52295	13222.7125
739.43388	13204.2125
743.34206	13263.1125
747.24749	13318.0125
751.15017	13397.5125
755.05012	13586.7125
758.94733	13983.1125
762.8418	14766.1125
766.73354	16062.5125
770.62254	17457.3125
774.50882	18002.0125
778.39237	17385.3125
782.27321	15946.2125
786.15132	14619.2125
790.02671	13799.5125
793.89938	13376.0125
797.76935	13218.7125
801.6366	13136.7125
805.50115	13076.5125
809.36299	13000.3125
813.22213	12881.0125
817.07857	12840.8125
820.93231	12759.4125
824.78336	12691.4125
828.63172	12655.2125
832.47738	12643.9125
836.32036	12660.4125
840.16066	12684.9125
843.99827	12662.0125
847.8332	12620.2125
851.66546	12566.0125
855.49504	12509.1125
859.32195	12494.3125
863.1462	12479.2125
866.96777	12448.3125
870.78668	12479.9125
874.60293	12482.9125
878.41652	12477.9125
882.22745	12539.1125
886.03573	12591.1125
889.84136	12590.3125
893.64433	12557.9125
897.44466	12484.0125
901.24235	12406.2125
905.0374	12318.5125
908.8298	12248.7125
912.61957	12223.7125
916.40671	12289.7125
920.19121	12427.2125
923.97308	12561.8125
927.75233	12650.7125
931.52895	12658.4125
935.30295	12480.1125
939.07433	12206.6125
942.84309	11992.4125
946.60924	11880.6125
950.37278	11820.9125
954.13371	11778.3125
957.89203	11751.1125
961.64774	11733.1125
965.40086	11727.1125
969.15137	11700.2125
972.89929	11635.7125
976.64461	11592.3125
980.38733	11589.7125
984.12747	11602.5125
987.86502	11689.2125
991.59999	11752.5125
995.33237	11908.9125
999.06217	12160.7125
1002.78939	12452.0125
1006.51404	12679.5125
1010.23611	12936.8125
1013.95561	13053.3125
1017.67255	13083.5125
1021.38692	12999.5125
1025.09872	12778.9125
1028.80796	12662.4125
1032.51465	12754.3125
1036.21877	12983.9125
1039.92035	13101.6125
1043.61937	13081.2125
1047.31584	12975.9125
1051.00976	12792.2125
1054.70114	12684.1125
1058.38998	12634.9125
1062.07627	12689.2125
1065.76003	12768.5125
1069.44126	12894.6125
1073.11995	13132.4125
1076.79611	13302.6125
1080.46974	13413.3125
1084.14085	13519.8125
1087.80943	13687.7125
1091.47549	13817.1125
1095.13903	13845.9125
1098.80005	13622.7125
1102.45857	13321.7125
1106.11456	13062.9125
1109.76805	12942.5125
1113.41903	12963.1125
1117.06751	13079.5125
1120.71348	13277.9125
1124.35696	13549.0125
1127.99793	13811.1125
1131.63641	13959.4125
1135.2724	13853.6125
1138.90589	13658.7125
1142.5369	13540.9125
1146.16542	13499.1125
1149.79145	13529.3125
1153.415	13615.4125
1157.03607	13697.4125
1160.65467	14046.4125
1164.27079	14606.5125
1167.88443	15395.6125
1171.49561	16369.5125
1175.10432	17686.8125
1178.71056	19426.8125
1182.31434	20989.2125
1185.91565	21682.6125
1189.51451	21361.9125
1193.11091	20519.9125
1196.70485	19529.4125
1200.29634	18578.3125
1203.88538	17853.3125
1207.47197	17319.8125
1211.05612	16841.3125
1214.63782	16487.4125
1218.21708	16128.1125
1221.79391	15907.5125
1225.36829	15789.4125
1228.94024	15681.2125
1232.50976	15470.0125
1236.07685	15199.8125
1239.6415	15026.1125
1243.20374	14989.9125
1246.76355	15088.1125
1250.32093	15291.6125
1253.8759	15601.8125
1257.42845	16037.5125
1260.97859	16532.2125
1264.52631	17050.7125
1268.07163	17591.5125
1271.61453	18069.1125
1275.15503	18553.4125
1278.69312	19038.4125
1282.22882	19558.5125
1285.76211	20155.6125
1289.29301	20906.4125
1292.82151	21823.7125
1296.34761	22946.4125
1299.87133	24250.9125
1303.39266	25793.0125
1306.9116	27348.0125
1310.42815	28866.7125
1313.94233	29758.7125
1317.45412	29528.6125
1320.96354	28533.3125
1324.47058	27417.9125
1327.97525	26498.4125
1331.47754	25807.1125
1334.97747	25335.9125
1338.47502	24969.6125
1341.97022	24679.2125
1345.46305	24483.5125
1348.95352	24605.8125
1352.44163	25246.5125
1355.92738	26494.1125
1359.41078	28338.8125
1362.89183	30122.8125
1366.37053	30025.9125
1369.84688	27355.7125
1373.32088	23811.1125
1376.79254	21309.1125
1380.26186	20219.2125
1383.72883	19908.6125
1387.19347	19651.4125
1390.65578	19238.5125
1394.11575	19050.3125
1397.57339	19100.7125
1401.0287	19322.4125
1404.48168	19433.0125
1407.93234	19400.0125
1411.38068	19045.6125
1414.82669	18550.1125
1418.27039	17916.3125
1421.71177	17309.0125
1425.15083	16780.0125
1428.58758	16520.0125
1432.02203	16618.6125
1435.45416	16935.3125
1438.88399	17365.6125
1442.31151	17612.9125
1445.73673	17802.0125
1449.15965	17988.0125
1452.58027	18043.1125
1455.9986	18017.5125
1459.41463	18061.0125
1462.82837	18267.8125
1466.23982	18610.8125
1469.64898	18920.3125
1473.05586	19189.8125
1476.46045	19290.9125
1479.86276	19310.6125
1483.26279	19269.5125
1486.66054	19367.7125
1490.05602	19623.2125
1493.44922	20023.0125
1496.84016	20583.2125
1500.22882	21364.4125
1503.61521	22472.0125
1506.99934	23740.4125
1510.38121	24873.6125
1513.76081	25247.1125
1517.13816	24473.9125
1520.51324	22936.2125
1523.88607	21504.1125
1527.25665	20590.0125
1530.62498	20125.5125
1533.99105	19832.8125
1537.35488	19482.3125
1540.71647	19023.6125
1544.07581	18491.3125
1547.4329	17978.0125
1550.78776	17617.7125
1554.14038	17334.5125
1557.49077	17246.4125
1560.83892	17274.9125
1564.18484	17437.7125
1567.52853	17670.1125
1570.86999	17997.2125
1574.20922	18317.8125
1577.54624	18568.8125
1580.88103	18415.3125
1584.2136	18212.7125
1587.54395	18339.6125
1590.87208	19052.8125
1594.19801	20058.1125
1597.52172	21251.8125
1600.84321	21706.9125
1604.16251	20865.6125
1607.47959	19286.1125
1610.79447	17540.3125
1614.10715	15995.2125
1617.41763	14765.0125
1620.7259	14035.1125
1624.03199	13610.0125
1627.33587	13601.6125
1630.63757	13963.1125
1633.93707	14742.3125
1637.23439	16128.9125
1640.52951	18212.2125
1643.82246	20945.4125
1647.11321	23487.4125
1650.40179	24549.4125
1653.68819	23281.0125
1656.97241	20266.7125
1660.25446	17053.4125
1663.53433	14693.7125
1666.81203	13236.1125
1670.08756	12262.6125
1673.36092	11708.9125
1676.63211	11344.2125
1679.90115	11095.6125
1683.16801	10876.4125
1686.43272	10711.5125
1689.69527	10603.4125
1692.95567	10497.2125
1696.2139	10468.2125
1699.46999	10446.9125
1702.72392	10375.5125
1705.97571	10325.2125
1709.22535	10268.3125
1712.47284	10246.4125
1715.71819	10220.1125
1718.96139	10179.4125
1722.20246	10132.1125
1725.44139	10102.0125
1728.67818	10044.3125
1731.91284	9994.0125
1735.14537	9899.8125
1738.37576	9861.6125
1741.60403	9841.3125
1744.83017	9806.7125
1748.05418	9791.5125
1751.27607	9774.3125
1754.49584	9787.8125
1757.71349	9772.0125
1760.92903	9758.7125
1764.14244	9743.1125
1767.35375	9720.5125
1770.56294	9688.9125
1773.77002	9643.7125
1776.97499	9626.1125
1780.17785	9571.6125
1783.37861	9558.6125
1786.57727	9543.1125
1789.77382	9519.7125
1792.96828	9483.3125
1796.16064	9458.4125
1799.3509	9429.6125
1802.53907	9425.8125
1805.72514	9392.2125
1808.90913	9349.0125
1812.09102	9334.6125
1815.27083	9308.6125
1818.44856	9294.1125
1821.6242	9275.2125
1824.79776	9262.3125
1827.96924	9250.4125
1831.13864	9245.5125
1834.30597	9260.3125
1837.47122	9238.0125
1840.6344	9236.1125
1843.7955	9227.5125
1846.95454	9212.6125
1850.11151	9205.5125
1853.26642	9182.6125
1856.41926	9179.5125
1859.57004	9160.3125
1862.71876	9162.8125
1865.86542	9156.5125
1869.01003	9124.9125
1872.15258	9143.5125
1875.29308	9112.9125
1878.43152	9118.1125
1881.56792	9098.4125
1884.70227	9083.5125
1887.83457	9104.5125
1890.96482	9082.4125
1894.09304	9046.0125
1897.21921	9037.6125
1900.34335	9007.9125
1903.46544	9029.0125
1906.58551	8998.5125
1909.70353	8986.5125
1912.81953	8969.1125
1915.93349	8936.0125
1919.04543	8932.6125
1922.15534	8924.8125
1925.26322	8861.7125
1928.36908	8859.8125
1931.47292	8829.7125
1934.57473	8815.5125
1937.67453	8777.4125
1940.77232	8737.8125
1943.86808	8738.1125
1946.96184	8703.7125
1950.05358	8692.7125
1953.14331	8657.1125
1956.23103	8615.5125
1959.31675	8623.9125
1962.40046	8577.4125
1965.48217	8565.6125
1968.56188	8531.4125
1971.63959	8516.0125
1974.7153	8513.1125
1977.78901	8470.5125
1980.86073	8457.5125
1983.93046	8428.6125
1986.99819	8381.7125
1990.06394	8376.0125
1993.1277	8335.3125
1996.18947	8286.4125
1999.24925	8266.4125
2002.30706	8226.3125
2005.36288	8214.9125
2008.41672	8207.7125
2011.46859	8162.2125
2014.51848	8144.0125
2017.56639	8116.5125
2020.61233	8103.5125
2023.6563	8082.5125
2026.6983	8059.0125
2029.73833	8050.9125
2032.7764	8023.3125
2035.8125	8021.3125
2038.84664	8002.8125
2041.87881	7977.6125
2044.90903	7978.8125
2047.93729	7966.7125
2050.96359	7958.1125
2053.98794	7962.3125
2057.01034	7933.6125
2060.03078	7943.4125
2063.04927	7920.6125
2066.06582	7874.9125
2069.08042	7888.4125
2072.09307	7897.5125
2075.10378	7868.9125
2078.11255	7868.9125
2081.11938	7865.7125
2084.12426	7856.3125
2087.12722	7837.0125
2090.12824	7838.3125
2093.12732	7835.3125
2096.12447	7853.6125
2099.11969	7834.7125
2102.11299	7843.7125
2105.10435	7835.1125
2108.09379	7843.2125
2111.08131	7846.8125
2114.0669	7840.2125
2117.05057	7859.4125
2120.03233	7890.1125
2123.01216	7858.9125
2125.99008	7877.1125
2128.96609	7868.0125
2131.94018	7867.6125
2134.91236	7883.3125
2137.88263	7862.8125
2140.851	7869.1125
2143.81746	7881.5125
2146.78201	7865.5125
2149.74466	7898.8125
2152.7054	7872.3125
2155.66425	7851.1125
2158.6212	7849.6125
2161.57625	7818.7125
2164.52941	7862.5125
2167.48067	7844.2125
2170.43004	7855.4125
2173.37752	7843.9125
2176.32311	7837.4125
2179.26681	7842.8125
2182.20863	7846.7125
2185.14856	7829.4125
2188.08661	7834.5125
2191.02278	7825.9125
2193.95707	7818.5125
2196.88948	7830.6125
2199.82001	7792.0125
2202.74867	7799.3125
2205.67545	7803.5125
2208.60037	7769.8125
2211.52341	7781.9125
2214.44458	7738.9125
2217.36388	7726.1125
2220.28132	7708.9125
2223.1969	7699.9125
2226.11061	7708.4125
2229.02246	7701.7125
2231.93245	7679.8125
2234.84058	7658.6125
2237.74686	7651.8125
2240.65128	7629.4125
2243.55385	7621.7125
2246.45456	7606.8125
2249.35343	7577.0125
2252.25044	7574.2125
2255.14561	7575.0125
2258.03893	7546.5125
2260.93041	7561.9125
2263.82004	7537.2125
2266.70783	7532.8125
2269.59378	7499.0125
2272.4779	7503.1125
2275.36017	7460.6125
2278.24061	7471.4125
2281.11922	7416.8125
2283.996	7428.6125
2286.87094	7426.7125
2289.74405	7387.7125
2292.61534	7393.6125
2295.4848	7388.5125
2298.35243	7386.5125
2301.21824	7366.4125
2304.08223	7389.3125
2306.94439	7382.3125
2309.80474	7361.4125
2312.66327	7352.4125
2315.51999	7356.9125
2318.37489	7362.7125
2321.22797	7329.3125
2324.07925	7337.2125
2326.92871	7317.1125
2329.77637	7319.9125
2332.62222	7300.3125
2335.46626	7300.0125
2338.3085	7290.4125
2341.14893	7268.9125
2343.98756	7287.7125
2346.8244	7282.8125
2349.65943	7278.1125
2352.49267	7286.9125
2355.32411	7275.1125
2358.15376	7269.9125
2360.98161	7277.0125
2363.80768	7249.9125
2366.63195	7263.4125
2369.45444	7257.5125
2372.27514	7235.0125
2375.09405	7231.9125
2377.91118	7223.5125
2380.72652	7189.5125
2383.54009	7159.1125
2386.35187	7156.9125
2389.16188	7142.0125
2391.97011	7105.4125
2394.77657	7102.7125
2397.58125	7093.0125
2400.38416	7076.3125
2403.18529	7046.2125
2405.98466	7051.4125
2408.78226	7044.3125
2411.57809	7022.4125
2414.37216	7027.8125
2417.16446	7014.6125
2419.955	6994.2125
2422.74378	7004.0125
2425.5308	7003.6125
2428.31606	7004.1125
2431.09956	6987.1125
2433.88131	6997.0125
2436.6613	6966.2125
2439.43954	6982.1125
2442.21603	6965.6125
2444.99077	6961.8125
2447.76377	6958.2125
2450.53501	6973.3125
2453.30451	6955.6125
2456.07226	6962.5125
2458.83827	6936.8125
2461.60254	6962.7125
2464.36507	6938.2125
2467.12586	6959.7125
2469.88492	6961.0125
2472.64224	6942.7125
2475.39782	6964.4125
2478.15167	6958.5125
2480.90379	6937.2125
2483.65417	6937.9125
2486.40283	6921.3125
2489.14976	6936.0125
2491.89497	6944.5125
2494.63845	6958.3125
2497.3802	6934.7125
2500.12024	6946.0125
2502.85855	6936.3125
2505.59514	6922.5125
2508.33002	6904.7125
2511.06318	6908.9125
2513.79462	6869.0125
2516.52435	6870.8125
2519.25237	6875.6125
2521.97867	6858.6125
2524.70327	6850.4125
2527.42616	6842.3125
2530.14734	6832.4125
2532.86681	6829.1125
2535.58458	6833.7125
2538.30065	6800.3125
2541.01501	6802.4125
2543.72768	6808.9125
2546.43864	6786.2125
2549.14791	6786.3125
2551.85548	6782.5125
2554.56136	6779.6125
2557.26554	6764.1125
2559.96803	6752.6125
2562.66883	6760.1125
2565.36794	6766.7125
2568.06536	6727.2125
2570.7611	6730.3125
2573.45514	6725.4125
2576.14751	6728.1125
2578.83819	6737.4125
2581.52719	6719.2125
2584.21451	6695.8125
2586.90015	6694.4125
2589.58411	6673.0125
2592.2664	6687.6125
2594.94701	6665.1125
2597.62594	6671.7125
2600.30321	6634.5125
2602.9788	6648.5125
2605.65273	6625.6125
2608.32498	6655.8125
2610.99557	6633.8125
2613.66449	6627.8125
2616.33175	6623.4125
2618.99734	6620.5125
2621.66128	6618.7125
2624.32355	6619.1125
2626.98416	6617.0125
2629.64311	6591.0125
2632.30041	6599.2125
2634.95605	6582.5125
2637.61004	6607.7125
2640.26238	6596.3125
2642.91306	6572.9125
2645.56209	6558.9125
2648.20948	6557.6125
2650.85521	6555.6125
2653.4993	6554.3125
2656.14175	6560.7125
2658.78255	6543.0125
2661.42171	6560.7125
2664.05923	6575.2125
2666.6951	6569.2125
2669.32934	6575.8125
2671.96194	6581.0125
2674.59291	6580.5125
2677.22224	6569.9125
2679.84993	6559.2125
2682.476	6564.8125
2685.10043	6563.2125
2687.72324	6547.1125
2690.34441	6562.1125
2692.96396	6564.7125
2695.58188	6554.0125
2698.19818	6549.7125
2700.81285	6573.3125
2703.4259	6584.8125
2706.03733	6627.8125
2708.64714	6576.0125
2711.25533	6574.7125
2713.86191	6560.0125
2716.46687	6578.5125
2719.07021	6580.3125
2721.67194	6572.8125
2724.27206	6574.2125
2726.87057	6564.0125
2729.46747	6579.8125
2732.06276	6590.9125
2734.65644	6572.5125
2737.24852	6557.1125
2739.83899	6537.5125
2742.42786	6556.4125
2745.01513	6538.0125
2747.60079	6536.5125
2750.18486	6537.7125
2752.76733	6536.3125
2755.3482	6519.1125
2757.92747	6519.3125
2760.50515	6506.5125
2763.08123	6519.8125
2765.65573	6497.1125
2768.22863	6509.0125
2770.79994	6495.8125
2773.36967	6505.7125
2775.9378	6489.1125
2778.50435	6489.0125
2781.06932	6477.3125
2783.6327	6478.5125
2786.1945	6469.4125
2788.75471	6463.3125
2791.31335	6462.2125
2793.87041	6427.6125
2796.42589	6413.3125
2798.97979	6428.1125
2801.53212	6410.2125
2804.08288	6398.0125
2806.63206	6408.4125
2809.17967	6389.8125
2811.72571	6373.1125
2814.27018	6373.9125
2816.81308	6357.4125
2819.35442	6356.2125
2821.89419	6352.4125
2824.43239	6343.8125
2826.96904	6350.8125
2829.50412	6353.5125
2832.03763	6329.3125
2834.56959	6331.2125
2837.1	6337.4125
2839.62884	6339.9125
2842.15613	6346.2125
2844.68186	6364.9125
2847.20604	6383.1125
2849.72867	6362.8125
2852.24974	6370.8125
2854.76927	6379.8125
2857.28724	6357.7125
2859.80367	6344.9125
2862.31855	6339.4125
2864.83189	6338.5125
2867.34368	6333.1125
2869.85393	6333.1125
2872.36264	6309.5125
2874.8698	6320.4125
2877.37543	6304.6125
2879.87952	6335.9125
2882.38207	6318.8125
2884.88308	6300.9125
2887.38256	6312.0125
2889.88051	6312.7125
2892.37692	6322.1125
2894.8718	6324.7125
2897.36515	6324.3125
2899.85698	6340.3125
2902.34727	6335.9125
2904.83604	6352.6125
2907.32328	6352.4125
2909.809	6341.2125
2912.29319	6361.5125
2914.77587	6372.3125
2917.25702	6376.3125
2919.73665	6342.2125
2922.21476	6349.8125
2924.69136	6352.1125
2927.16644	6347.8125
2929.64	6353.3125
2932.11205	6339.0125
2934.58258	6327.0125
2937.05161	6332.1125
2939.51912	6336.5125
2941.98513	6306.7125
2944.44962	6293.3125
2946.91261	6265.9125
2949.37409	6283.4125
2951.83407	6259.8125
2954.29254	6269.1125
2956.74951	6269.8125
2959.20498	6264.7125
2961.65895	6229.3125
2964.11142	6231.8125
2966.56239	6198.2125
2969.01186	6197.9125
2971.45984	6178.4125
2973.90632	6160.1125
2976.35131	6141.1125
2978.7948	6130.8125
2981.23681	6134.1125
2983.67732	6102.0125
2986.11635	6109.4125
2988.55388	6060.9125
2990.98993	6060.1125
2993.4245	6052.9125
2995.85758	6036.5125
2998.28917	6026.7125
3000.71928	6023.2125
3003.14791	6012.3125
3005.57506	6019.3125
3008.00073	6000.5125
3010.42493	5994.0125
3012.84764	5986.3125
3015.26888	5976.7125
3017.68865	5967.3125
3020.10694	5933.1125
3022.52376	5925.7125
3024.9391	5929.9125
3027.35298	5926.2125
3029.76539	5898.4125
3032.17632	5908.6125
3034.5858	5879.8125
3036.9938	5896.1125
3039.40034	5885.2125
3041.80542	5884.6125
3044.20903	5866.9125
3046.61118	5851.3125
3049.01187	5833.1125
3051.4111	5847.4125
3053.80888	5829.9125
3056.20519	5829.8125
3058.60005	5809.6125
3060.99345	5798.9125
3063.3854	5780.1125
3065.7759	5782.7125
3068.16494	5767.4125
3070.55254	5764.8125
3072.93868	5745.6125
3075.32338	5745.2125
3077.70662	5702.7125
