Data from AgNPs_FTO_APTES_UA_20um_CRN_0.1mM_R6G_10uM_NaF_0.1M_Addition_RamanShift__9__14-26-49-180.txt Node

Date: Tue Dec 21 14:26:49 GMT 2021
User: TCL
Spectrometer: QEP01345
Trigger mode: 4
Integration Time (sec): 7.000000E0
Scans to average: 10
Electric dark correction enabled: true
Nonlinearity correction enabled: false
Boxcar width: 0
XAxis mode: Raman Shifts
Number of Pixels in Spectrum: 1044
>>>>>Begin Spectral Data<<<<<
46.04893	0.625
50.45542	-0.775
54.85868	-0.875
59.25871	0.625
63.6555	42.225
68.04907	48.325
72.43941	48.725
76.82654	51.325
81.21044	56.525
85.59113	55.425
89.96862	57.625
94.34289	58.425
98.71396	61.825
103.08183	65.825
107.4465	66.025
111.80798	68.825
116.16626	69.525
120.52136	69.625
124.87327	71.025
129.222	74.725
133.56755	79.425
137.90993	88.625
142.24913	90.825
146.58517	103.525
150.91804	117.425
155.24774	137.525
159.57429	159.925
163.89768	212.225
168.21792	269.425
172.53501	363.925
176.84895	505.225
181.15975	702.125
185.46741	982.225
189.77193	1355.425
194.07331	1818.725
198.37157	2352.125
202.6667	2921.325
206.9587	3485.725
211.24758	4035.325
215.53334	4608.925
219.81599	5176.925
224.09553	5839.625
228.37195	6556.725
232.64527	7338.725
236.91549	8186.125
241.18261	8993.325
245.44663	9737.525
249.70755	10409.125
253.96539	10952.725
258.22014	11417.725
262.4718	11807.625
266.72039	12051.825
270.96589	12212.625
275.20832	12193.525
279.44768	12102.925
283.68397	11988.225
287.91719	11913.625
292.14735	11823.625
296.37445	11813.625
300.59849	11870.525
304.81948	11925.825
309.03742	11978.825
313.25231	11897.125
317.46415	11648.625
321.67296	11331.825
325.87872	11031.525
330.08145	10873.925
334.28114	10793.125
338.47781	10843.625
342.67145	10976.125
346.86207	11147.225
351.04966	11313.525
355.23424	11536.725
359.4158	11658.125
363.59435	11821.225
367.76989	11890.525
371.94243	11921.725
376.11196	11920.925
380.27849	11973.925
384.44203	12011.625
388.60257	12137.825
392.76012	12243.225
396.91468	12430.025
401.06626	12670.725
405.21485	12768.225
409.36047	12728.125
413.50311	12508.625
417.64277	12339.225
421.77947	12260.625
425.9132	12273.025
430.04396	12336.125
434.17176	12380.825
438.2966	12425.225
442.41849	12556.725
446.53742	12775.125
450.6534	13049.725
454.76644	13242.125
458.87653	13345.825
462.98368	13341.925
467.08789	13294.325
471.18916	13193.425
475.2875	13068.625
479.38291	13060.225
483.4754	13017.725
487.56496	12882.125
491.6516	12694.325
495.73531	12508.425
499.81612	12385.525
503.89401	12450.925
507.96899	12469.025
512.04106	12448.825
516.11023	12378.925
520.1765	12258.825
524.23987	12188.125
528.30034	12091.125
532.35792	11964.525
536.41261	11848.325
540.46441	11757.425
544.51333	11740.125
548.55936	11854.825
552.60252	12097.925
556.64279	12379.825
560.6802	12553.125
564.71473	12638.425
568.7464	12871.825
572.7752	13220.025
576.80114	13570.025
580.82422	13930.625
584.84444	14231.325
588.86181	14567.425
592.87633	14826.225
596.888	14748.525
600.89682	14380.025
604.9028	14362.625
608.90594	15292.825
612.90624	16514.225
616.90371	15719.225
620.89834	13196.625
624.89015	11979.325
628.87913	11857.125
632.86528	11990.625
636.84862	12104.125
640.82913	11981.225
644.80683	11737.525
648.78172	11457.225
652.75379	11418.725
656.72306	11501.525
660.68952	11657.325
664.65319	11661.225
668.61405	11491.425
672.57211	11455.725
676.52738	11489.425
680.47986	11493.125
684.42955	11463.125
688.37646	11393.425
692.32058	11391.525
696.26192	11436.125
700.20048	11537.725
704.13626	11649.125
708.06928	11688.225
711.99952	11652.125
715.927	11587.825
719.85171	11585.225
723.77365	11557.525
727.69284	11401.925
731.60928	11269.425
735.52295	11209.525
739.43388	11212.225
743.34206	11213.825
747.24749	11280.925
751.15017	11394.125
755.05012	11559.825
758.94733	11877.025
762.8418	12461.325
766.73354	13413.225
770.62254	14385.425
774.50882	14657.525
778.39237	14051.825
782.27321	13013.825
786.15132	12147.925
790.02671	11597.625
793.89938	11297.025
797.76935	11155.325
801.6366	11073.425
805.50115	10998.225
809.36299	10963.425
813.22213	10897.425
817.07857	10875.425
820.93231	10822.425
824.78336	10764.725
828.63172	10743.825
832.47738	10695.325
836.32036	10680.925
840.16066	10653.525
843.99827	10645.425
847.8332	10596.825
851.66546	10586.025
855.49504	10570.925
859.32195	10564.725
863.1462	10542.625
866.96777	10537.625
870.78668	10519.325
874.60293	10525.025
878.41652	10544.925
882.22745	10534.525
886.03573	10628.525
889.84136	10634.125
893.64433	10581.425
897.44466	10557.125
901.24235	10546.125
905.0374	10439.625
908.8298	10414.525
912.61957	10432.625
916.40671	10512.725
920.19121	10619.425
923.97308	10740.625
927.75233	10720.425
931.52895	10642.225
935.30295	10485.125
939.07433	10280.925
942.84309	10113.325
946.60924	10026.025
950.37278	9974.225
954.13371	9932.725
957.89203	9912.725
961.64774	9946.325
965.40086	9907.125
969.15137	9907.825
972.89929	9836.025
976.64461	9784.325
980.38733	9757.225
984.12747	9737.725
987.86502	9772.425
991.59999	9808.725
995.33237	9842.925
999.06217	9951.525
1002.78939	10120.625
1006.51404	10258.625
1010.23611	10473.225
1013.95561	10552.325
1017.67255	10631.825
1021.38692	10572.725
1025.09872	10469.825
1028.80796	10257.525
1032.51465	10226.225
1036.21877	10225.325
1039.92035	10266.525
1043.61937	10345.925
1047.31584	10383.325
1051.00976	10434.825
1054.70114	10479.525
1058.38998	10509.225
1062.07627	10620.625
1065.76003	10740.825
1069.44126	10892.825
1073.11995	11074.625
1076.79611	11210.125
1080.46974	11252.325
1084.14085	11298.125
1087.80943	11402.525
1091.47549	11493.925
1095.13903	11531.125
1098.80005	11442.325
1102.45857	11149.925
1106.11456	10894.725
1109.76805	10748.825
1113.41903	10723.025
1117.06751	10772.825
1120.71348	10887.725
1124.35696	11078.025
1127.99793	11277.825
1131.63641	11428.325
1135.2724	11394.825
1138.90589	11276.625
1142.5369	11233.525
1146.16542	11256.125
1149.79145	11328.225
1153.415	11400.125
1157.03607	11517.725
1160.65467	11754.725
1164.27079	12180.325
1167.88443	12775.525
1171.49561	13459.925
1175.10432	14390.025
1178.71056	15550.125
1182.31434	16560.925
1185.91565	17129.625
1189.51451	17137.325
1193.11091	16785.525
1196.70485	16205.725
1200.29634	15518.525
1203.88538	14943.525
1207.47197	14509.625
1211.05612	14206.325
1214.63782	13867.925
1218.21708	13522.225
1221.79391	13198.025
1225.36829	12951.125
1228.94024	12835.625
1232.50976	12726.025
1236.07685	12619.325
1239.6415	12525.425
1243.20374	12521.225
1246.76355	12563.625
1250.32093	12690.025
1253.8759	12911.725
1257.42845	13261.825
1260.97859	13657.825
1264.52631	14009.225
1268.07163	14345.725
1271.61453	14697.925
1275.15503	15008.025
1278.69312	15427.725
1282.22882	15835.325
1285.76211	16314.425
1289.29301	16915.325
1292.82151	17629.225
1296.34761	18471.125
1299.87133	19388.025
1303.39266	20298.625
1306.9116	21200.725
1310.42815	21958.725
1313.94233	22398.425
1317.45412	22367.425
1320.96354	21961.725
1324.47058	21559.025
1327.97525	21310.725
1331.47754	21067.025
1334.97747	20982.625
1338.47502	20836.225
1341.97022	20768.425
1345.46305	20729.125
1348.95352	20759.425
1352.44163	20870.325
1355.92738	21238.125
1359.41078	21991.325
1362.89183	22804.225
1366.37053	22676.525
1369.84688	21072.625
1373.32088	18876.125
1376.79254	17257.025
1380.26186	16479.125
1383.72883	16250.325
1387.19347	16093.725
1390.65578	15869.925
1394.11575	15726.425
1397.57339	15721.025
1401.0287	15789.825
1404.48168	15813.325
1407.93234	15659.925
1411.38068	15319.125
1414.82669	14860.525
1418.27039	14368.725
1421.71177	13826.925
1425.15083	13414.025
1428.58758	13175.925
1432.02203	13229.125
1435.45416	13418.925
1438.88399	13708.625
1442.31151	13898.425
1445.73673	14070.225
1449.15965	14286.025
1452.58027	14412.225
1455.9986	14493.125
1459.41463	14628.525
1462.82837	14811.025
1466.23982	15051.125
1469.64898	15305.125
1473.05586	15452.725
1476.46045	15512.225
1479.86276	15517.725
1483.26279	15519.925
1486.66054	15592.025
1490.05602	15774.425
1493.44922	16131.825
1496.84016	16657.425
1500.22882	17312.525
1503.61521	18189.125
1506.99934	19105.125
1510.38121	19764.025
1513.76081	19886.125
1517.13816	19335.325
1520.51324	18474.025
1523.88607	17673.725
1527.25665	17240.125
1530.62498	16977.225
1533.99105	16733.325
1537.35488	16425.325
1540.71647	16004.325
1544.07581	15481.125
1547.4329	14985.625
1550.78776	14598.225
1554.14038	14355.725
1557.49077	14242.325
1560.83892	14265.225
1564.18484	14414.425
1567.52853	14563.525
1570.86999	14746.725
1574.20922	15027.825
1577.54624	15208.625
1580.88103	15180.625
1584.2136	14970.425
1587.54395	15041.425
1590.87208	15378.625
1594.19801	15928.325
1597.52172	16674.825
1600.84321	16883.725
1604.16251	16301.725
1607.47959	15306.925
1610.79447	14222.225
1614.10715	13136.625
1617.41763	12239.825
1620.7259	11610.625
1624.03199	11203.525
1627.33587	11123.325
1630.63757	11344.225
1633.93707	11865.625
1637.23439	12886.125
1640.52951	14432.525
1643.82246	16391.725
1647.11321	18229.625
1650.40179	19106.425
1653.68819	18385.525
1656.97241	16365.525
1660.25446	14048.525
1663.53433	12200.325
1666.81203	10958.825
1670.08756	10163.825
1673.36092	9630.425
1676.63211	9316.125
1679.90115	9090.025
1683.16801	8913.825
1686.43272	8786.625
1689.69527	8691.625
1692.95567	8604.925
1696.2139	8536.825
1699.46999	8488.825
1702.72392	8433.925
1705.97571	8411.525
1709.22535	8341.825
1712.47284	8316.025
1715.71819	8270.925
1718.96139	8262.525
1722.20246	8233.125
1725.44139	8177.425
1728.67818	8131.625
1731.91284	8064.425
1735.14537	8020.725
1738.37576	7963.325
1741.60403	7969.025
1744.83017	7915.925
1748.05418	7899.125
1751.27607	7912.825
1754.49584	7921.025
1757.71349	7908.925
1760.92903	7915.825
1764.14244	7878.725
1767.35375	7866.325
1770.56294	7833.625
1773.77002	7776.925
1776.97499	7777.625
1780.17785	7731.825
1783.37861	7696.525
1786.57727	7664.025
1789.77382	7644.525
1792.96828	7618.725
1796.16064	7595.125
1799.3509	7581.425
1802.53907	7546.625
1805.72514	7529.725
1808.90913	7491.125
1812.09102	7447.325
1815.27083	7452.625
1818.44856	7431.425
1821.6242	7429.125
1824.79776	7423.525
1827.96924	7423.325
1831.13864	7381.525
1834.30597	7398.525
1837.47122	7363.425
1840.6344	7365.925
1843.7955	7380.725
1846.95454	7357.725
1850.11151	7345.025
1853.26642	7330.225
1856.41926	7333.225
1859.57004	7317.725
1862.71876	7295.125
1865.86542	7300.025
1869.01003	7271.725
1872.15258	7291.625
1875.29308	7245.725
1878.43152	7256.425
1881.56792	7223.325
1884.70227	7209.325
1887.83457	7218.925
1890.96482	7206.225
1894.09304	7187.425
1897.21921	7169.325
1900.34335	7151.925
1903.46544	7137.025
1906.58551	7125.925
1909.70353	7100.925
1912.81953	7089.625
1915.93349	7067.325
1919.04543	7054.325
1922.15534	7047.525
1925.26322	7023.725
1928.36908	6996.825
1931.47292	6971.225
1934.57473	6946.525
1937.67453	6935.925
1940.77232	6897.025
1943.86808	6912.625
1946.96184	6864.225
1950.05358	6835.925
1953.14331	6838.625
1956.23103	6814.125
1959.31675	6804.625
1962.40046	6757.125
1965.48217	6732.025
1968.56188	6747.125
1971.63959	6705.325
1974.7153	6669.925
1977.78901	6653.725
1980.86073	6636.425
1983.93046	6609.825
1986.99819	6588.925
1990.06394	6573.725
1993.1277	6556.525
1996.18947	6513.425
1999.24925	6509.725
2002.30706	6470.625
2005.36288	6461.825
2008.41672	6441.825
2011.46859	6399.525
2014.51848	6379.525
2017.56639	6360.225
2020.61233	6368.625
2023.6563	6315.525
2026.6983	6298.525
2029.73833	6296.225
2032.7764	6276.125
2035.8125	6253.025
2038.84664	6243.725
2041.87881	6224.625
2044.90903	6207.725
2047.93729	6201.625
2050.96359	6188.425
2053.98794	6193.425
2057.01034	6181.125
2060.03078	6179.325
2063.04927	6161.125
2066.06582	6138.825
2069.08042	6143.725
2072.09307	6143.225
2075.10378	6136.625
2078.11255	6112.325
2081.11938	6125.325
2084.12426	6127.325
2087.12722	6101.325
2090.12824	6112.525
2093.12732	6097.825
2096.12447	6100.125
2099.11969	6096.825
2102.11299	6099.625
2105.10435	6105.425
2108.09379	6083.325
2111.08131	6089.825
2114.0669	6106.025
2117.05057	6112.825
2120.03233	6108.825
2123.01216	6089.425
2125.99008	6110.625
2128.96609	6104.425
2131.94018	6099.625
2134.91236	6098.425
2137.88263	6099.225
2140.851	6078.425
2143.81746	6099.025
2146.78201	6105.625
2149.74466	6098.325
2152.7054	6076.725
2155.66425	6078.025
2158.6212	6065.925
2161.57625	6066.325
2164.52941	6065.625
2167.48067	6066.225
2170.43004	6052.225
2173.37752	6062.125
2176.32311	6043.425
2179.26681	6049.125
2182.20863	6028.525
2185.14856	6043.825
2188.08661	6045.725
2191.02278	6023.525
2193.95707	6011.925
2196.88948	6007.125
2199.82001	6019.225
2202.74867	5998.925
2205.67545	5989.725
2208.60037	5966.225
2211.52341	5961.725
2214.44458	5932.625
2217.36388	5920.025
2220.28132	5918.825
2223.1969	5900.925
2226.11061	5897.125
2229.02246	5885.725
2231.93245	5871.925
2234.84058	5854.325
2237.74686	5858.125
2240.65128	5831.325
2243.55385	5834.225
2246.45456	5826.825
2249.35343	5804.025
2252.25044	5804.225
2255.14561	5798.725
2258.03893	5787.125
2260.93041	5760.125
2263.82004	5749.425
2266.70783	5734.025
2269.59378	5714.525
2272.4779	5707.625
2275.36017	5687.525
2278.24061	5677.925
2281.11922	5678.425
2283.996	5656.325
2286.87094	5648.925
2289.74405	5610.125
2292.61534	5626.125
2295.4848	5599.825
2298.35243	5608.725
2301.21824	5592.125
2304.08223	5592.025
2306.94439	5566.325
2309.80474	5578.725
2312.66327	5562.025
2315.51999	5559.625
2318.37489	5555.325
2321.22797	5527.425
2324.07925	5544.625
2326.92871	5502.025
2329.77637	5535.525
2332.62222	5479.325
2335.46626	5501.425
2338.3085	5480.625
2341.14893	5479.225
2343.98756	5503.025
2346.8244	5486.325
2349.65943	5487.425
2352.49267	5483.425
2355.32411	5475.625
2358.15376	5475.525
2360.98161	5472.125
2363.80768	5476.125
2366.63195	5475.725
2369.45444	5468.725
2372.27514	5452.825
2375.09405	5436.125
2377.91118	5425.325
2380.72652	5419.725
2383.54009	5422.125
2386.35187	5395.425
2389.16188	5370.225
2391.97011	5339.225
2394.77657	5337.025
2397.58125	5330.625
2400.38416	5314.525
2403.18529	5314.725
2405.98466	5291.425
2408.78226	5284.825
2411.57809	5291.325
2414.37216	5282.325
2417.16446	5276.625
2419.955	5260.425
2422.74378	5260.525
2425.5308	5254.925
2428.31606	5244.125
2431.09956	5254.025
2433.88131	5230.625
2436.6613	5234.525
2439.43954	5212.925
2442.21603	5201.625
2444.99077	5218.825
2447.76377	5218.725
2450.53501	5215.425
2453.30451	5208.625
2456.07226	5218.925
2458.83827	5200.925
2461.60254	5191.225
2464.36507	5209.625
2467.12586	5187.625
2469.88492	5166.325
2472.64224	5173.525
2475.39782	5195.725
2478.15167	5184.625
2480.90379	5161.225
2483.65417	5171.525
2486.40283	5151.725
2489.14976	5162.325
2491.89497	5150.525
2494.63845	5164.125
2497.3802	5155.225
2500.12024	5145.125
2502.85855	5141.325
2505.59514	5134.025
2508.33002	5133.025
2511.06318	5125.425
2513.79462	5100.725
2516.52435	5107.025
2519.25237	5109.025
2521.97867	5078.925
2524.70327	5083.125
2527.42616	5079.925
2530.14734	5056.725
2532.86681	5050.125
2535.58458	5065.025
2538.30065	5054.025
2541.01501	5037.425
2543.72768	5029.725
2546.43864	5031.025
2549.14791	5027.925
2551.85548	5020.225
2554.56136	5016.425
2557.26554	4994.025
2559.96803	4996.525
2562.66883	4983.925
2565.36794	4980.325
2568.06536	4976.825
2570.7611	4956.825
2573.45514	4956.825
2576.14751	4954.425
2578.83819	4934.525
2581.52719	4929.325
2584.21451	4922.325
2586.90015	4913.425
2589.58411	4913.325
2592.2664	4907.425
2594.94701	4886.725
2597.62594	4882.425
2600.30321	4868.625
2602.9788	4875.425
2605.65273	4858.425
2608.32498	4858.425
2610.99557	4848.225
2613.66449	4852.425
2616.33175	4853.225
2618.99734	4864.525
2621.66128	4847.125
2624.32355	4826.225
2626.98416	4830.325
2629.64311	4822.125
2632.30041	4801.825
2634.95605	4811.525
2637.61004	4787.125
2640.26238	4799.925
2642.91306	4792.325
2645.56209	4776.925
2648.20948	4788.925
2650.85521	4784.625
2653.4993	4784.625
2656.14175	4785.525
2658.78255	4777.125
2661.42171	4772.025
2664.05923	4800.625
2666.6951	4797.625
2669.32934	4794.825
2671.96194	4796.725
2674.59291	4779.925
2677.22224	4786.425
2679.84993	4775.025
2682.476	4780.925
2685.10043	4788.425
2687.72324	4773.025
2690.34441	4769.125
2692.96396	4774.625
2695.58188	4776.825
2698.19818	4752.025
2700.81285	4776.725
2703.4259	4797.125
2706.03733	4841.525
2708.64714	4806.225
2711.25533	4794.825
2713.86191	4781.525
2716.46687	4778.425
2719.07021	4769.825
2721.67194	4781.025
2724.27206	4784.225
2726.87057	4776.225
2729.46747	4780.525
2732.06276	4779.925
2734.65644	4775.325
2737.24852	4766.025
2739.83899	4734.425
2742.42786	4752.025
2745.01513	4745.925
2747.60079	4742.725
2750.18486	4730.725
2752.76733	4734.125
2755.3482	4729.525
2757.92747	4713.425
2760.50515	4715.725
2763.08123	4716.425
2765.65573	4706.325
2768.22863	4704.625
2770.79994	4693.425
2773.36967	4694.825
2775.9378	4696.725
2778.50435	4692.825
2781.06932	4671.525
2783.6327	4675.725
2786.1945	4672.225
2788.75471	4660.925
2791.31335	4655.525
2793.87041	4661.025
2796.42589	4633.525
2798.97979	4627.425
2801.53212	4617.825
2804.08288	4643.525
2806.63206	4607.525
2809.17967	4616.325
2811.72571	4601.225
2814.27018	4590.025
2816.81308	4586.725
2819.35442	4574.225
2821.89419	4573.825
2824.43239	4571.025
2826.96904	4581.325
2829.50412	4568.225
2832.03763	4555.225
2834.56959	4546.325
2837.1	4562.025
2839.62884	4568.325
2842.15613	4558.725
2844.68186	4571.925
2847.20604	4597.025
2849.72867	4583.025
2852.24974	4581.225
2854.76927	4592.025
2857.28724	4589.725
2859.80367	4580.625
2862.31855	4557.225
2864.83189	4557.825
2867.34368	4539.025
2869.85393	4543.125
2872.36264	4536.325
2874.8698	4536.125
2877.37543	4525.225
2879.87952	4548.725
2882.38207	4546.225
2884.88308	4528.525
2887.38256	4539.225
2889.88051	4515.225
2892.37692	4527.425
2894.8718	4536.025
2897.36515	4532.225
2899.85698	4530.525
2902.34727	4539.925
2904.83604	4536.925
2907.32328	4542.425
2909.809	4541.025
2912.29319	4543.225
2914.77587	4546.925
2917.25702	4539.825
2919.73665	4553.125
2922.21476	4557.025
2924.69136	4556.225
2927.16644	4550.025
2929.64	4559.925
2932.11205	4544.425
2934.58258	4522.125
2937.05161	4529.125
2939.51912	4542.725
2941.98513	4520.125
2944.44962	4509.325
2946.91261	4487.725
2949.37409	4486.325
2951.83407	4484.925
2954.29254	4490.625
2956.74951	4474.225
2959.20498	4469.525
2961.65895	4452.125
2964.11142	4430.025
2966.56239	4417.825
2969.01186	4414.925
2971.45984	4403.625
2973.90632	4399.725
2976.35131	4367.625
2978.7948	4379.825
2981.23681	4366.525
2983.67732	4336.725
2986.11635	4344.125
2988.55388	4326.825
2990.98993	4311.225
2993.4245	4288.925
2995.85758	4278.725
2998.28917	4275.125
3000.71928	4277.825
3003.14791	4263.025
3005.57506	4263.725
3008.00073	4259.425
3010.42493	4243.825
3012.84764	4230.325
3015.26888	4235.025
3017.68865	4234.625
3020.10694	4214.725
3022.52376	4202.525
3024.9391	4192.525
3027.35298	4184.625
3029.76539	4178.625
3032.17632	4164.925
3034.5858	4167.325
3036.9938	4164.525
3039.40034	4173.025
3041.80542	4144.225
3044.20903	4151.825
3046.61118	4139.625
3049.01187	4129.625
3051.4111	4128.625
3053.80888	4119.925
3056.20519	4117.825
3058.60005	4111.325
3060.99345	4097.025
3063.3854	4097.425
3065.7759	4089.625
3068.16494	4083.025
3070.55254	4067.325
3072.93868	4040.325
3075.32338	4050.925
3077.70662	4034.525
3080.08842	4041.325
3082.46878	4033.525
3084.84769	4020.925
3087.22515	4030.925
3089.60118	4018.125
3091.97576	4016.525
3094.3489	4021.625
3096.72061	4016.825
3099.09087	4005.525
3101.4597	4001.525
3103.82709	4010.625
3106.19305	4004.425
3108.55757	3988.125
3110.92066	3994.325
3113.28232	3983.625
3115.64255	3975.325
3118.00134	3970.225
3120.35871	3965.225
3122.71466	3967.525
3125.06917	3957.625
3127.42226	3931.725
3129.77393	3943.925
3132.12417	3938.325
3134.47299	3960.025
3136.82039	3943.825
3139.16636	3953.325
3141.51092	3962.325
3143.85406	3956.625
3146.19579	3948.525
3148.53609	3958.425
3150.87499	3963.625
3153.21246	3964.125
3155.54853	3985.525
3157.88318	3956.425
3160.21642	3976.625
3162.54826	3976.125
3164.87868	3976.725
3167.2077	3979.925
3169.5353	3978.125
3171.86151	3974.525
3174.18631	3971.425
3176.5097	3959.925
3178.83169	3964.625
3181.15228	3974.625
3183.47147	3951.425
3185.78926	3958.225
3188.10565	3944.525
3190.42065	3945.825
3192.73424	3956.425
