Data from AgNPs_FTO_APTES_UA_0um_CRN_0.1mM_R6G_10uM_NaF_0.1M_Addition_RamanShift__63__11-24-48-973.txt Node

Date: Tue Dec 21 11:24:48 GMT 2021
User: TCL
Spectrometer: QEP01345
Trigger mode: 4
Integration Time (sec): 7.000000E0
Scans to average: 10
Electric dark correction enabled: true
Nonlinearity correction enabled: false
Boxcar width: 0
XAxis mode: Raman Shifts
Number of Pixels in Spectrum: 1044
>>>>>Begin Spectral Data<<<<<
46.04893	0.375
50.45542	-0.925
54.85868	-1.025
59.25871	0.675
63.6555	31.175
68.04907	38.175
72.43941	39.375
76.82654	39.475
81.21044	44.775
85.59113	46.075
89.96862	48.275
94.34289	48.775
98.71396	50.475
103.08183	50.975
107.4465	56.075
111.80798	51.275
116.16626	52.175
120.52136	55.775
124.87327	58.675
129.222	57.875
133.56755	62.175
137.90993	68.575
142.24913	73.475
146.58517	78.975
150.91804	88.875
155.24774	107.475
159.57429	126.675
163.89768	166.075
168.21792	217.775
172.53501	282.875
176.84895	390.975
181.15975	541.175
185.46741	761.975
189.77193	1051.475
194.07331	1414.075
198.37157	1804.175
202.6667	2241.075
206.9587	2661.675
211.24758	3093.575
215.53334	3539.175
219.81599	4026.475
224.09553	4592.375
228.37195	5231.575
232.64527	5890.175
236.91549	6537.975
241.18261	7174.075
245.44663	7661.675
249.70755	8052.375
253.96539	8376.675
258.22014	8615.075
262.4718	8839.875
266.72039	8981.375
270.96589	9055.275
275.20832	9074.275
279.44768	9026.375
283.68397	8965.775
287.91719	8965.975
292.14735	9052.775
296.37445	9172.975
300.59849	9502.175
304.81948	9889.975
309.03742	10220.875
313.25231	10220.275
317.46415	9720.375
321.67296	8919.375
325.87872	8216.575
330.08145	7869.275
334.28114	7828.675
338.47781	7960.175
342.67145	8189.575
346.86207	8552.975
351.04966	9115.575
355.23424	9769.175
359.4158	10251.775
363.59435	10440.075
367.76989	10397.875
371.94243	10238.575
376.11196	10076.275
380.27849	9912.575
384.44203	9787.575
388.60257	9615.075
392.76012	9569.775
396.91468	9737.275
401.06626	10085.575
405.21485	10356.375
409.36047	10257.375
413.50311	9696.575
417.64277	9197.175
421.77947	8908.575
425.9132	8806.675
430.04396	8815.075
434.17176	8856.875
438.2966	8968.775
442.41849	9220.675
446.53742	9630.475
450.6534	9944.075
454.76644	10141.775
458.87653	10121.975
462.98368	9936.575
467.08789	9718.275
471.18916	9454.475
475.2875	9201.775
479.38291	8984.175
483.4754	8846.475
487.56496	8702.475
491.6516	8584.975
495.73531	8548.975
499.81612	8587.375
503.89401	8733.075
507.96899	8826.075
512.04106	8881.275
516.11023	8917.875
520.1765	8896.775
524.23987	8849.775
528.30034	8677.575
532.35792	8492.675
536.41261	8237.175
540.46441	7962.475
544.51333	7811.575
548.55936	7867.575
552.60252	8102.275
556.64279	8424.075
560.6802	8634.375
564.71473	8880.675
568.7464	9459.075
572.7752	9928.475
576.80114	9802.475
580.82422	9571.575
584.84444	9490.975
588.86181	9440.375
592.87633	9463.575
596.888	9567.875
600.89682	9874.875
604.9028	10752.875
608.90594	13526.675
612.90624	17400.075
616.90371	16882.475
620.89834	11516.375
624.89015	8799.275
628.87913	8294.075
632.86528	8356.875
636.84862	8478.675
640.82913	8306.575
644.80683	7839.175
648.78172	7536.475
652.75379	7559.075
656.72306	7951.475
660.68952	8443.475
664.65319	8441.375
668.61405	7976.775
672.57211	7698.775
676.52738	7686.775
680.47986	7661.575
684.42955	7555.975
688.37646	7492.075
692.32058	7504.675
696.26192	7612.375
700.20048	7768.175
704.13626	7974.075
708.06928	8009.675
711.99952	7887.875
715.927	7777.575
719.85171	7711.175
723.77365	7651.875
727.69284	7535.575
731.60928	7419.775
735.52295	7413.775
739.43388	7467.775
743.34206	7528.275
747.24749	7619.475
751.15017	7748.975
755.05012	8013.275
758.94733	8515.975
762.8418	9632.475
766.73354	11537.975
770.62254	13399.075
774.50882	14134.775
778.39237	13458.375
782.27321	11589.975
786.15132	9597.875
790.02671	8402.575
793.89938	7848.175
797.76935	7608.975
801.6366	7500.375
805.50115	7429.275
809.36299	7366.775
813.22213	7311.275
817.07857	7286.375
820.93231	7261.775
824.78336	7296.275
828.63172	7356.075
832.47738	7392.475
836.32036	7372.475
840.16066	7308.875
843.99827	7245.675
847.8332	7205.475
851.66546	7199.675
855.49504	7177.675
859.32195	7159.375
863.1462	7112.975
866.96777	7049.975
870.78668	7030.775
874.60293	7031.175
878.41652	7058.975
882.22745	7098.175
886.03573	7124.075
889.84136	7119.175
893.64433	7058.275
897.44466	7046.175
901.24235	7046.275
905.0374	7015.375
908.8298	6972.175
912.61957	6960.975
916.40671	7032.475
920.19121	7169.175
923.97308	7297.775
927.75233	7416.475
931.52895	7458.475
935.30295	7291.475
939.07433	6985.075
942.84309	6717.275
946.60924	6552.275
950.37278	6479.175
954.13371	6447.875
957.89203	6408.175
961.64774	6381.375
965.40086	6347.275
969.15137	6336.175
972.89929	6290.975
976.64461	6272.075
980.38733	6265.175
984.12747	6293.975
987.86502	6315.175
991.59999	6367.175
995.33237	6484.275
999.06217	6677.375
1002.78939	6945.975
1006.51404	7228.275
1010.23611	7463.175
1013.95561	7560.675
1017.67255	7470.975
1021.38692	7252.475
1025.09872	7030.375
1028.80796	6940.175
1032.51465	6990.575
1036.21877	7148.375
1039.92035	7294.175
1043.61937	7368.075
1047.31584	7343.575
1051.00976	7304.775
1054.70114	7258.375
1058.38998	7244.975
1062.07627	7260.875
1065.76003	7343.075
1069.44126	7494.975
1073.11995	7708.475
1076.79611	7823.175
1080.46974	7918.475
1084.14085	8137.575
1087.80943	8384.375
1091.47549	8488.375
1095.13903	8331.575
1098.80005	7922.975
1102.45857	7525.875
1106.11456	7311.575
1109.76805	7264.475
1113.41903	7380.775
1117.06751	7671.675
1120.71348	8044.775
1124.35696	8528.375
1127.99793	8901.375
1131.63641	8867.575
1135.2724	8403.275
1138.90589	7959.175
1142.5369	7706.375
1146.16542	7561.975
1149.79145	7516.575
1153.415	7498.875
1157.03607	7612.775
1160.65467	7792.075
1164.27079	8183.975
1167.88443	8763.275
1171.49561	9704.775
1175.10432	11299.875
1178.71056	13292.175
1182.31434	14642.275
1185.91565	14893.275
1189.51451	14414.475
1193.11091	13603.975
1196.70485	12572.875
1200.29634	11687.075
1203.88538	10849.875
1207.47197	10017.675
1211.05612	9290.975
1214.63782	8919.675
1218.21708	8856.675
1221.79391	8919.675
1225.36829	8999.975
1228.94024	9011.475
1232.50976	8953.875
1236.07685	8858.075
1239.6415	8779.875
1243.20374	8759.375
1246.76355	8783.975
1250.32093	8868.175
1253.8759	9099.375
1257.42845	9495.775
1260.97859	9893.475
1264.52631	10299.675
1268.07163	10713.075
1271.61453	11044.875
1275.15503	11356.075
1278.69312	11499.775
1282.22882	11695.975
1285.76211	12055.575
1289.29301	12570.475
1292.82151	13135.775
1296.34761	13774.975
1299.87133	14617.875
1303.39266	15940.275
1306.9116	17830.875
1310.42815	20057.175
1313.94233	21506.675
1317.45412	21340.775
1320.96354	20099.075
1324.47058	18646.275
1327.97525	17405.375
1331.47754	16533.975
1334.97747	16053.575
1338.47502	15912.675
1341.97022	16012.375
1345.46305	16282.875
1348.95352	16756.075
1352.44163	17645.075
1355.92738	19176.675
1359.41078	21652.175
1362.89183	23989.975
1366.37053	23596.575
1369.84688	20696.675
1373.32088	17491.275
1376.79254	15157.675
1380.26186	13729.275
1383.72883	12997.375
1387.19347	12504.475
1390.65578	12132.375
1394.11575	11940.575
1397.57339	12005.575
1401.0287	12244.175
1404.48168	12438.375
1407.93234	12550.675
1411.38068	12494.575
1414.82669	12229.975
1418.27039	11740.175
1421.71177	11171.275
1425.15083	10757.275
1428.58758	10488.475
1432.02203	10504.875
1435.45416	10604.675
1438.88399	10699.475
1442.31151	10674.675
1445.73673	10742.875
1449.15965	10844.875
1452.58027	10819.575
1455.9986	10764.375
1459.41463	10852.175
1462.82837	11058.875
1466.23982	11354.575
1469.64898	11631.175
1473.05586	11821.175
1476.46045	11913.775
1479.86276	12056.275
1483.26279	12248.875
1486.66054	12522.175
1490.05602	12900.175
1493.44922	13454.275
1496.84016	14263.875
1500.22882	15535.175
1503.61521	17269.675
1506.99934	19149.475
1510.38121	20920.475
1513.76081	21868.875
1517.13816	21043.575
1520.51324	18688.575
1523.88607	16228.675
1527.25665	14561.275
1530.62498	13613.175
1533.99105	13086.675
1537.35488	12782.575
1540.71647	12529.175
1544.07581	12326.975
1547.4329	12091.775
1550.78776	11788.475
1554.14038	11556.975
1557.49077	11488.575
1560.83892	11622.975
1564.18484	11972.975
1567.52853	12367.475
1570.86999	12702.975
1574.20922	12895.275
1577.54624	12868.075
1580.88103	12208.075
1584.2136	11369.775
1587.54395	11033.875
1590.87208	11386.275
1594.19801	12358.775
1597.52172	13621.975
1600.84321	14285.875
1604.16251	13822.975
1607.47959	12577.675
1610.79447	11159.475
1614.10715	9859.975
1617.41763	8898.875
1620.7259	8337.575
1624.03199	8083.875
1627.33587	8040.675
1630.63757	8244.375
1633.93707	8750.775
1637.23439	9588.075
1640.52951	10859.675
1643.82246	12574.375
1647.11321	14521.675
1650.40179	15877.175
1653.68819	15605.775
1656.97241	13542.775
1660.25446	10999.275
1663.53433	9046.075
1666.81203	7828.075
1670.08756	7143.975
1673.36092	6743.975
1676.63211	6493.475
1679.90115	6320.975
1683.16801	6218.175
1686.43272	6087.375
1689.69527	6010.975
1692.95567	5949.275
1696.2139	5934.075
1699.46999	5915.775
1702.72392	5882.775
1705.97571	5845.075
1709.22535	5830.175
1712.47284	5808.675
1715.71819	5828.975
1718.96139	5828.275
1722.20246	5837.875
1725.44139	5787.875
1728.67818	5750.675
1731.91284	5666.175
1735.14537	5630.275
1738.37576	5589.775
1741.60403	5557.775
1744.83017	5535.575
1748.05418	5499.875
1751.27607	5506.975
1754.49584	5501.675
1757.71349	5469.675
1760.92903	5457.075
1764.14244	5404.975
1767.35375	5415.375
1770.56294	5387.875
1773.77002	5346.075
1776.97499	5328.075
1780.17785	5299.475
1783.37861	5261.975
1786.57727	5257.975
1789.77382	5245.975
1792.96828	5224.975
1796.16064	5205.375
1799.3509	5209.275
1802.53907	5184.175
1805.72514	5163.375
1808.90913	5130.175
1812.09102	5104.375
1815.27083	5113.075
1818.44856	5067.475
1821.6242	5088.175
1824.79776	5057.375
1827.96924	5069.975
1831.13864	5027.775
1834.30597	5043.275
1837.47122	5028.475
1840.6344	5015.575
1843.7955	5009.875
1846.95454	5003.375
1850.11151	4995.375
1853.26642	5010.775
1856.41926	5005.275
1859.57004	5023.875
1862.71876	5013.875
1865.86542	5012.775
1869.01003	5023.475
1872.15258	5005.075
1875.29308	5022.275
1878.43152	5017.075
1881.56792	5009.675
1884.70227	5014.475
1887.83457	5020.775
1890.96482	5006.975
1894.09304	5009.775
1897.21921	5018.375
1900.34335	5029.075
1903.46544	5030.475
1906.58551	5039.775
1909.70353	5041.475
1912.81953	5042.075
1915.93349	5025.875
1919.04543	5019.075
1922.15534	5019.475
1925.26322	4997.575
1928.36908	4981.475
1931.47292	4954.375
1934.57473	4950.975
1937.67453	4894.975
1940.77232	4860.175
1943.86808	4834.775
1946.96184	4814.175
1950.05358	4783.875
1953.14331	4764.675
1956.23103	4731.975
1959.31675	4715.875
1962.40046	4715.375
1965.48217	4687.075
1968.56188	4683.075
1971.63959	4675.975
1974.7153	4656.275
1977.78901	4629.975
1980.86073	4603.575
1983.93046	4615.775
1986.99819	4576.975
1990.06394	4547.775
1993.1277	4540.175
1996.18947	4515.675
1999.24925	4509.575
2002.30706	4489.275
2005.36288	4469.175
2008.41672	4460.475
2011.46859	4441.975
2014.51848	4429.275
2017.56639	4419.175
2020.61233	4413.675
2023.6563	4392.875
2026.6983	4381.975
2029.73833	4363.875
2032.7764	4339.475
2035.8125	4312.275
2038.84664	4319.375
2041.87881	4319.175
2044.90903	4319.275
2047.93729	4296.275
2050.96359	4284.275
2053.98794	4304.575
2057.01034	4280.375
2060.03078	4276.975
2063.04927	4276.075
2066.06582	4253.575
2069.08042	4241.175
2072.09307	4243.075
2075.10378	4231.975
2078.11255	4238.175
2081.11938	4254.275
2084.12426	4233.375
2087.12722	4224.175
2090.12824	4209.675
2093.12732	4227.075
2096.12447	4228.175
2099.11969	4221.775
2102.11299	4213.775
2105.10435	4215.075
2108.09379	4229.575
2111.08131	4212.575
2114.0669	4212.875
2117.05057	4203.275
2120.03233	4227.975
2123.01216	4214.475
2125.99008	4207.775
2128.96609	4215.775
2131.94018	4212.775
2134.91236	4217.275
2137.88263	4211.675
2140.851	4194.975
2143.81746	4203.475
2146.78201	4222.375
2149.74466	4186.875
2152.7054	4173.075
2155.66425	4167.375
2158.6212	4168.475
2161.57625	4183.175
2164.52941	4171.875
2167.48067	4182.075
2170.43004	4175.575
2173.37752	4162.275
2176.32311	4160.775
2179.26681	4174.175
2182.20863	4151.575
2185.14856	4166.475
2188.08661	4153.575
2191.02278	4167.175
2193.95707	4144.375
2196.88948	4132.075
2199.82001	4148.175
2202.74867	4139.075
2205.67545	4119.775
2208.60037	4113.775
2211.52341	4116.975
2214.44458	4095.575
2217.36388	4081.075
2220.28132	4076.675
2223.1969	4061.175
2226.11061	4062.675
2229.02246	4057.775
2231.93245	4047.475
2234.84058	4006.475
2237.74686	4015.175
2240.65128	4008.475
2243.55385	4009.375
2246.45456	4006.175
2249.35343	3989.375
2252.25044	3989.075
2255.14561	3987.975
2258.03893	3978.675
2260.93041	4002.275
2263.82004	3993.375
2266.70783	3961.275
2269.59378	3964.875
2272.4779	3943.375
2275.36017	3933.775
2278.24061	3915.775
2281.11922	3894.475
2283.996	3891.175
2286.87094	3883.075
2289.74405	3875.175
2292.61534	3880.075
2295.4848	3876.375
2298.35243	3859.475
2301.21824	3850.775
2304.08223	3843.775
2306.94439	3845.575
2309.80474	3844.075
2312.66327	3841.275
2315.51999	3838.675
2318.37489	3843.575
2321.22797	3834.575
2324.07925	3819.475
2326.92871	3803.175
2329.77637	3812.775
2332.62222	3808.975
2335.46626	3797.875
2338.3085	3798.275
2341.14893	3790.075
2343.98756	3793.475
2346.8244	3796.975
2349.65943	3802.075
2352.49267	3805.075
2355.32411	3807.275
2358.15376	3801.475
2360.98161	3813.875
2363.80768	3817.775
2366.63195	3832.575
2369.45444	3830.875
2372.27514	3833.975
2375.09405	3822.375
2377.91118	3804.575
2380.72652	3803.675
2383.54009	3774.975
2386.35187	3755.275
2389.16188	3749.275
2391.97011	3719.175
2394.77657	3697.875
2397.58125	3682.475
2400.38416	3689.175
2403.18529	3674.775
2405.98466	3675.275
2408.78226	3672.375
2411.57809	3649.975
2414.37216	3637.475
2417.16446	3633.075
2419.955	3631.675
2422.74378	3639.575
2425.5308	3624.475
2428.31606	3629.575
2431.09956	3622.375
2433.88131	3608.075
2436.6613	3624.875
2439.43954	3618.075
2442.21603	3610.475
2444.99077	3610.075
2447.76377	3621.375
2450.53501	3618.675
2453.30451	3605.475
2456.07226	3607.975
2458.83827	3606.175
2461.60254	3609.875
2464.36507	3605.875
2467.12586	3608.275
2469.88492	3604.275
2472.64224	3603.475
2475.39782	3619.875
2478.15167	3629.175
2480.90379	3630.375
2483.65417	3636.775
2486.40283	3629.975
2489.14976	3638.575
2491.89497	3657.075
2494.63845	3671.275
2497.3802	3667.075
2500.12024	3652.075
2502.85855	3638.275
2505.59514	3627.675
2508.33002	3605.175
2511.06318	3599.775
2513.79462	3587.475
2516.52435	3567.375
2519.25237	3558.475
2521.97867	3550.975
2524.70327	3538.275
2527.42616	3531.775
2530.14734	3536.675
2532.86681	3514.475
2535.58458	3505.375
2538.30065	3504.375
2541.01501	3503.975
2543.72768	3517.875
2546.43864	3508.075
2549.14791	3511.775
2551.85548	3503.275
2554.56136	3495.275
2557.26554	3500.375
2559.96803	3489.675
2562.66883	3503.575
2565.36794	3488.475
2568.06536	3489.675
2570.7611	3476.375
2573.45514	3475.275
2576.14751	3474.875
2578.83819	3458.875
2581.52719	3467.575
2584.21451	3457.975
2586.90015	3447.975
2589.58411	3442.575
2592.2664	3450.975
2594.94701	3433.075
2597.62594	3437.575
2600.30321	3434.875
2602.9788	3431.875
2605.65273	3426.975
2608.32498	3438.275
2610.99557	3420.675
2613.66449	3425.275
2616.33175	3428.575
2618.99734	3435.275
2621.66128	3412.175
2624.32355	3412.175
2626.98416	3414.175
2629.64311	3409.575
2632.30041	3418.675
2634.95605	3400.175
2637.61004	3403.675
2640.26238	3392.775
2642.91306	3390.375
2645.56209	3391.275
2648.20948	3377.075
2650.85521	3358.075
2653.4993	3378.275
2656.14175	3373.275
2658.78255	3371.575
2661.42171	3377.475
2664.05923	3396.275
2666.6951	3376.675
2669.32934	3405.975
2671.96194	3395.175
2674.59291	3402.375
2677.22224	3391.875
2679.84993	3401.475
2682.476	3389.775
2685.10043	3391.175
2687.72324	3397.875
2690.34441	3391.075
2692.96396	3382.275
2695.58188	3400.175
2698.19818	3412.075
2700.81285	3415.975
2703.4259	3430.275
2706.03733	3475.675
2708.64714	3457.975
2711.25533	3438.775
2713.86191	3433.975
2716.46687	3441.375
2719.07021	3450.075
2721.67194	3429.475
2724.27206	3430.775
2726.87057	3433.875
2729.46747	3427.775
2732.06276	3421.175
2734.65644	3420.275
2737.24852	3422.175
2739.83899	3403.475
2742.42786	3398.675
2745.01513	3394.375
2747.60079	3381.875
2750.18486	3370.475
2752.76733	3385.775
2755.3482	3381.975
2757.92747	3376.475
2760.50515	3363.975
2763.08123	3363.375
2765.65573	3363.875
2768.22863	3381.375
2770.79994	3357.375
2773.36967	3378.875
2775.9378	3380.675
2778.50435	3382.575
2781.06932	3381.975
2783.6327	3384.475
2786.1945	3395.275
2788.75471	3395.975
2791.31335	3394.475
2793.87041	3388.875
2796.42589	3388.575
2798.97979	3406.575
2801.53212	3392.875
2804.08288	3405.975
2806.63206	3424.175
2809.17967	3432.475
2811.72571	3423.575
2814.27018	3439.475
2816.81308	3439.075
2819.35442	3450.675
2821.89419	3458.275
2824.43239	3448.675
2826.96904	3466.875
2829.50412	3468.575
2832.03763	3469.075
2834.56959	3475.475
2837.1	3468.175
2839.62884	3506.475
2842.15613	3526.475
2844.68186	3577.375
2847.20604	3649.875
2849.72867	3692.975
2852.24974	3710.075
2854.76927	3716.875
2857.28724	3715.275
2859.80367	3687.975
2862.31855	3658.775
2864.83189	3656.775
2867.34368	3646.275
2869.85393	3614.575
2872.36264	3639.775
2874.8698	3618.475
2877.37543	3600.275
2879.87952	3608.875
2882.38207	3606.175
2884.88308	3608.375
2887.38256	3609.275
2889.88051	3588.775
2892.37692	3597.175
2894.8718	3593.075
2897.36515	3601.575
2899.85698	3605.675
2902.34727	3618.275
2904.83604	3601.075
2907.32328	3613.375
2909.809	3602.875
2912.29319	3602.575
2914.77587	3585.775
2917.25702	3606.575
2919.73665	3606.675
2922.21476	3589.975
2924.69136	3574.075
2927.16644	3572.275
2929.64	3560.675
2932.11205	3562.575
2934.58258	3523.875
2937.05161	3513.575
2939.51912	3487.675
2941.98513	3459.375
2944.44962	3423.975
2946.91261	3399.275
2949.37409	3365.875
2951.83407	3336.175
2954.29254	3327.475
2956.74951	3302.775
2959.20498	3278.675
2961.65895	3257.675
2964.11142	3240.375
2966.56239	3230.675
2969.01186	3219.075
2971.45984	3201.375
2973.90632	3177.875
2976.35131	3166.775
2978.7948	3150.975
2981.23681	3140.775
2983.67732	3126.775
2986.11635	3120.575
2988.55388	3106.575
2990.98993	3090.575
2993.4245	3089.675
2995.85758	3083.675
2998.28917	3055.975
3000.71928	3073.175
3003.14791	3058.775
3005.57506	3049.675
3008.00073	3044.575
3010.42493	3026.775
3012.84764	3018.275
3015.26888	3022.375
3017.68865	3015.275
3020.10694	3011.875
3022.52376	2995.075
3024.9391	3000.875
3027.35298	2983.275
3029.76539	2979.475
3032.17632	2983.775
3034.5858	2971.575
3036.9938	2970.275
3039.40034	2965.975
3041.80542	2951.775
3044.20903	2942.375
3046.61118	2939.075
3049.01187	2936.575
3051.4111	2941.475
3053.80888	2932.375
3056.20519	2924.275
3058.60005	2919.575
3060.99345	2908.375
3063.3854	2900.275
3065.7759	2888.775
3068.16494	2882.175
3070.55254	2872.275
3072.93868	2862.275
3075.32338	2852.375
3077.70662	2845.475
3080.08842	2833.775
3082.46878	2839.275
3084.84769	2816.075
3087.22515	2826.775
3089.60118	2819.775
3091.97576	2821.375
3094.3489	2802.875
3096.72061	2797.675
3099.09087	2791.375
3101.4597	2797.175
3103.82709	2800.675
3106.19305	2779.175
3108.55757	2781.175
3110.92066	2767.175
3113.28232	2773.075
3115.64255	2754.275
3118.00134	2759.575
3120.35871	2748.575
3122.71466	2753.475
3125.06917	2747.575
3127.42226	2749.275
3129.77393	2756.975
3132.12417	2746.475
3134.47299	2747.675
3136.82039	2766.375
3139.16636	2753.875
3141.51092	2758.575
3143.85406	2746.975
3146.19579	2760.775
3148.53609	2761.875
3150.87499	2766.175
3153.21246	2768.275
3155.54853	2777.675
3157.88318	2759.775
3160.21642	2770.375
3162.54826	2774.475
3164.87868	2774.075
3167.2077	2783.475
3169.5353	2774.475
3171.86151	2772.075
3174.18631	2776.175
3176.5097	2771.875
3178.83169	2765.875
3181.15228	2779.475
3183.47147	2750.375
3185.78926	2764.275
3188.10565	2760.375
3190.42065	2775.175
3192.73424	2777.675
3195.04645	2762.475
3197.35725	2775.875
3199.66667	2781.075
3201.97469	2780.275
3204.28132	2784.375
3206.58656	2781.075
3208.8904	2792.275
3211.19287	2777.775
3213.49394	2773.275
3215.79363	2785.875
3218.09193	2800.175
3220.38884	2797.175
