Data from AgNPs_FTO_APTES_UA_2um_CRN_0.1mM_R6G_10uM_NaF_0.1M_Addition_RamanShift__16__12-33-39-051.txt Node

Date: Tue Dec 21 12:33:39 GMT 2021
User: TCL
Spectrometer: QEP01345
Trigger mode: 4
Integration Time (sec): 7.000000E0
Scans to average: 10
Electric dark correction enabled: true
Nonlinearity correction enabled: false
Boxcar width: 0
XAxis mode: Raman Shifts
Number of Pixels in Spectrum: 1044
>>>>>Begin Spectral Data<<<<<
46.04893	0.125
50.45542	-0.375
54.85868	-1.975
59.25871	-0.175
63.6555	47.625
68.04907	52.825
72.43941	56.025
76.82654	57.825
81.21044	63.325
85.59113	62.325
89.96862	64.425
94.34289	67.525
98.71396	69.325
103.08183	73.725
107.4465	75.025
111.80798	77.725
116.16626	79.225
120.52136	79.725
124.87327	82.925
129.222	85.825
133.56755	93.725
137.90993	101.625
142.24913	109.325
146.58517	120.925
150.91804	138.525
155.24774	165.425
159.57429	205.125
163.89768	261.925
168.21792	344.825
172.53501	462.925
176.84895	647.225
181.15975	907.625
185.46741	1266.825
189.77193	1750.325
194.07331	2344.025
198.37157	3021.225
202.6667	3745.025
206.9587	4462.925
211.24758	5193.025
215.53334	5917.425
219.81599	6662.825
224.09553	7502.425
228.37195	8442.625
232.64527	9435.225
236.91549	10505.025
241.18261	11523.025
245.44663	12511.725
249.70755	13360.325
253.96539	14095.225
258.22014	14705.925
262.4718	15203.525
266.72039	15537.925
270.96589	15666.325
275.20832	15698.325
279.44768	15574.725
283.68397	15448.425
287.91719	15356.625
292.14735	15307.625
296.37445	15277.525
300.59849	15323.325
304.81948	15400.925
309.03742	15383.125
313.25231	15281.425
317.46415	14950.925
321.67296	14523.825
325.87872	14111.525
330.08145	13896.325
334.28114	13832.225
338.47781	13876.025
342.67145	14067.925
346.86207	14258.425
351.04966	14532.625
355.23424	14849.525
359.4158	15052.425
363.59435	15196.425
367.76989	15315.925
371.94243	15375.725
376.11196	15432.825
380.27849	15489.825
384.44203	15571.925
388.60257	15720.725
392.76012	15873.225
396.91468	16081.225
401.06626	16350.125
405.21485	16560.225
409.36047	16442.325
413.50311	16238.525
417.64277	16027.825
421.77947	16024.625
425.9132	16148.225
430.04396	16247.325
434.17176	16365.625
438.2966	16504.425
442.41849	16771.625
446.53742	17336.025
450.6534	17982.825
454.76644	18409.825
458.87653	18526.525
462.98368	18314.425
467.08789	17958.425
471.18916	17611.525
475.2875	17343.925
479.38291	17272.825
483.4754	17187.425
487.56496	17015.125
491.6516	16729.825
495.73531	16436.625
499.81612	16349.425
503.89401	16365.725
507.96899	16436.625
512.04106	16304.525
516.11023	16065.925
520.1765	15778.925
524.23987	15584.125
528.30034	15494.725
532.35792	15430.725
536.41261	15233.825
540.46441	15026.625
544.51333	14966.625
548.55936	15140.525
552.60252	15475.625
556.64279	15961.825
560.6802	16322.725
564.71473	16561.325
568.7464	16789.025
572.7752	17374.925
576.80114	17923.625
580.82422	18411.625
584.84444	18853.125
588.86181	19432.525
592.87633	20065.425
596.888	20254.625
600.89682	19770.125
604.9028	19739.325
608.90594	20934.325
612.90624	22271.025
616.90371	20635.425
620.89834	16970.725
624.89015	15268.125
628.87913	15118.225
632.86528	15304.925
636.84862	15425.825
640.82913	15226.025
644.80683	14766.525
648.78172	14404.825
652.75379	14293.125
656.72306	14392.525
660.68952	14598.925
664.65319	14517.725
668.61405	14261.625
672.57211	14243.925
676.52738	14360.425
680.47986	14373.825
684.42955	14245.325
688.37646	14081.225
692.32058	14064.225
696.26192	14126.825
700.20048	14306.225
704.13626	14465.825
708.06928	14468.525
711.99952	14433.725
715.927	14330.725
719.85171	14364.525
723.77365	14334.725
727.69284	14211.025
731.60928	14066.025
735.52295	13993.625
739.43388	14005.125
743.34206	14073.025
747.24749	14119.025
751.15017	14254.025
755.05012	14494.925
758.94733	15003.425
762.8418	15921.725
766.73354	17445.525
770.62254	18855.625
774.50882	19054.825
778.39237	18021.125
782.27321	16497.725
786.15132	15189.425
790.02671	14323.525
793.89938	13910.425
797.76935	13728.825
801.6366	13745.325
805.50115	13710.025
809.36299	13569.325
813.22213	13425.425
817.07857	13329.525
820.93231	13214.125
824.78336	13131.125
828.63172	13072.425
832.47738	13019.525
836.32036	12993.625
840.16066	12994.925
843.99827	12979.125
847.8332	12954.825
851.66546	12913.025
855.49504	12938.125
859.32195	12940.425
863.1462	12900.425
866.96777	12880.025
870.78668	12856.125
874.60293	12851.825
878.41652	12881.725
882.22745	12896.825
886.03573	12946.625
889.84136	12963.725
893.64433	12918.625
897.44466	12857.525
901.24235	12785.225
905.0374	12679.225
908.8298	12566.425
912.61957	12542.325
916.40671	12650.825
920.19121	12871.525
923.97308	13072.725
927.75233	13124.625
931.52895	12992.325
935.30295	12739.125
939.07433	12471.625
942.84309	12219.625
946.60924	12069.225
950.37278	12022.325
954.13371	12023.725
957.89203	11988.325
961.64774	11979.625
965.40086	11940.125
969.15137	11884.325
972.89929	11782.325
976.64461	11720.625
980.38733	11684.525
984.12747	11691.125
987.86502	11762.625
991.59999	11873.525
995.33237	12062.525
999.06217	12395.125
1002.78939	12816.525
1006.51404	13134.225
1010.23611	13446.025
1013.95561	13660.725
1017.67255	13711.325
1021.38692	13516.725
1025.09872	13171.325
1028.80796	12912.125
1032.51465	12910.725
1036.21877	13055.325
1039.92035	13123.525
1043.61937	13131.325
1047.31584	13063.325
1051.00976	12943.425
1054.70114	12908.025
1058.38998	12927.725
1062.07627	13008.625
1065.76003	13138.025
1069.44126	13299.725
1073.11995	13552.725
1076.79611	13769.725
1080.46974	13836.325
1084.14085	13910.525
1087.80943	14157.725
1091.47549	14308.225
1095.13903	14403.725
1098.80005	14196.625
1102.45857	13793.925
1106.11456	13432.925
1109.76805	13247.125
1113.41903	13278.525
1117.06751	13399.825
1120.71348	13610.725
1124.35696	13846.925
1127.99793	14102.325
1131.63641	14251.925
1135.2724	14234.625
1138.90589	14126.725
1142.5369	14089.125
1146.16542	14151.025
1149.79145	14224.025
1153.415	14376.825
1157.03607	14648.325
1160.65467	15181.525
1164.27079	16005.325
1167.88443	17142.125
1171.49561	18519.025
1175.10432	20296.125
1178.71056	22419.325
1182.31434	24341.225
1185.91565	25255.125
1189.51451	25081.725
1193.11091	24193.025
1196.70485	22955.425
1200.29634	21669.625
1203.88538	20621.025
1207.47197	19850.925
1211.05612	19283.425
1214.63782	18824.325
1218.21708	18467.925
1221.79391	18267.925
1225.36829	18258.225
1228.94024	18083.025
1232.50976	17654.125
1236.07685	17108.925
1239.6415	16806.225
1243.20374	16660.625
1246.76355	16681.725
1250.32093	16855.625
1253.8759	17261.125
1257.42845	17810.825
1260.97859	18453.225
1264.52631	19112.425
1268.07163	19769.325
1271.61453	20437.925
1275.15503	21135.225
1278.69312	21905.725
1282.22882	22630.525
1285.76211	23520.925
1289.29301	24547.525
1292.82151	25701.225
1296.34761	27187.125
1299.87133	28946.925
1303.39266	30880.825
1306.9116	32863.025
1310.42815	34880.625
1313.94233	36403.125
1317.45412	36755.325
1320.96354	36318.425
1324.47058	35625.525
1327.97525	34870.525
1331.47754	34289.025
1334.97747	33789.425
1338.47502	33386.025
1341.97022	32821.225
1345.46305	32140.725
1348.95352	31493.725
1352.44163	31251.125
1355.92738	31686.325
1359.41078	32943.625
1362.89183	34143.925
1366.37053	33961.625
1369.84688	31496.825
1373.32088	27893.725
1376.79254	25094.125
1380.26186	23886.825
1383.72883	23674.625
1387.19347	23611.125
1390.65578	23400.525
1394.11575	23474.825
1397.57339	24052.425
1401.0287	24905.325
1404.48168	25680.825
1407.93234	25924.825
1411.38068	25525.625
1414.82669	24568.525
1418.27039	23319.325
1421.71177	21914.525
1425.15083	20731.425
1428.58758	20072.125
1432.02203	20066.625
1435.45416	20567.225
1438.88399	21283.725
1442.31151	21987.725
1445.73673	22616.325
1449.15965	23194.925
1452.58027	23457.225
1455.9986	23566.125
1459.41463	23702.725
1462.82837	24137.925
1466.23982	24757.125
1469.64898	25382.225
1473.05586	25672.725
1476.46045	25679.925
1479.86276	25522.725
1483.26279	25091.625
1486.66054	24807.425
1490.05602	24812.925
1493.44922	24930.025
1496.84016	24978.225
1500.22882	25186.925
1503.61521	25720.625
1506.99934	26498.425
1510.38121	27222.225
1513.76081	27293.325
1517.13816	26571.425
1520.51324	25375.925
1523.88607	24304.825
1527.25665	23707.125
1530.62498	23523.525
1533.99105	23447.625
1537.35488	23349.025
1540.71647	23002.525
1544.07581	22442.325
1547.4329	21818.725
1550.78776	21209.025
1554.14038	20762.625
1557.49077	20537.725
1560.83892	20470.225
1564.18484	20517.025
1567.52853	20609.625
1570.86999	20741.425
1574.20922	21075.725
1577.54624	21347.225
1580.88103	21331.025
1584.2136	21329.125
1587.54395	21854.225
1590.87208	23110.125
1594.19801	24866.925
1597.52172	26798.525
1600.84321	27790.525
1604.16251	26869.325
1607.47959	24658.925
1610.79447	22031.025
1614.10715	19547.325
1617.41763	17578.025
1620.7259	16163.425
1624.03199	15426.525
1627.33587	15265.225
1630.63757	15706.825
1633.93707	16943.125
1637.23439	19083.925
1640.52951	22294.225
1643.82246	26323.325
1647.11321	29787.025
1650.40179	30805.925
1653.68819	28641.325
1656.97241	24365.825
1660.25446	20003.725
1663.53433	16706.025
1666.81203	14541.925
1670.08756	13206.725
1673.36092	12433.725
1676.63211	11921.525
1679.90115	11531.325
1683.16801	11244.025
1686.43272	11065.625
1689.69527	10894.925
1692.95567	10784.325
1696.2139	10722.425
1699.46999	10655.025
1702.72392	10608.425
1705.97571	10514.525
1709.22535	10464.525
1712.47284	10421.625
1715.71819	10380.325
1718.96139	10333.525
1722.20246	10278.625
1725.44139	10196.925
1728.67818	10135.925
1731.91284	10070.425
1735.14537	9979.425
1738.37576	9948.025
1741.60403	9896.725
1744.83017	9881.525
1748.05418	9859.625
1751.27607	9889.125
1754.49584	9871.325
1757.71349	9916.625
1760.92903	9873.725
1764.14244	9826.725
1767.35375	9798.425
1770.56294	9744.625
1773.77002	9684.925
1776.97499	9617.625
1780.17785	9566.325
1783.37861	9546.925
1786.57727	9517.225
1789.77382	9450.925
1792.96828	9420.725
1796.16064	9408.425
1799.3509	9367.525
1802.53907	9346.425
1805.72514	9330.925
1808.90913	9268.325
1812.09102	9254.025
1815.27083	9223.225
1818.44856	9194.825
1821.6242	9196.425
1824.79776	9159.325
1827.96924	9153.925
1831.13864	9163.025
1834.30597	9157.925
1837.47122	9144.125
1840.6344	9162.225
1843.7955	9143.525
1846.95454	9152.725
1850.11151	9129.025
1853.26642	9129.625
1856.41926	9099.025
1859.57004	9109.525
1862.71876	9112.825
1865.86542	9097.025
1869.01003	9095.425
1872.15258	9090.125
1875.29308	9081.825
1878.43152	9043.825
1881.56792	9041.725
1884.70227	9027.425
1887.83457	9041.925
1890.96482	9015.225
1894.09304	9001.025
1897.21921	9022.525
1900.34335	8989.325
1903.46544	8998.425
1906.58551	8972.625
1909.70353	8955.125
1912.81953	8914.225
1915.93349	8907.225
1919.04543	8867.825
1922.15534	8834.025
1925.26322	8799.525
1928.36908	8770.025
1931.47292	8757.425
1934.57473	8722.725
1937.67453	8684.725
1940.77232	8682.825
1943.86808	8629.725
1946.96184	8621.825
1950.05358	8583.525
1953.14331	8525.425
1956.23103	8503.825
1959.31675	8471.025
1962.40046	8446.725
1965.48217	8437.625
1968.56188	8401.425
1971.63959	8367.625
1974.7153	8351.925
1977.78901	8305.125
1980.86073	8281.725
1983.93046	8253.425
1986.99819	8213.825
1990.06394	8199.725
1993.1277	8160.925
1996.18947	8134.525
1999.24925	8131.325
2002.30706	8088.425
2005.36288	8062.825
2008.41672	8041.625
2011.46859	8015.425
2014.51848	7972.625
2017.56639	7954.625
2020.61233	7929.525
2023.6563	7920.725
2026.6983	7900.825
2029.73833	7892.825
2032.7764	7862.325
2035.8125	7849.225
2038.84664	7831.825
2041.87881	7824.325
2044.90903	7798.125
2047.93729	7782.425
2050.96359	7812.725
2053.98794	7760.725
2057.01034	7776.725
2060.03078	7745.425
2063.04927	7728.325
2066.06582	7719.325
2069.08042	7707.125
2072.09307	7727.125
2075.10378	7707.325
2078.11255	7699.125
2081.11938	7698.525
2084.12426	7694.525
2087.12722	7659.325
2090.12824	7664.125
2093.12732	7679.525
2096.12447	7653.225
2099.11969	7665.925
2102.11299	7645.725
2105.10435	7662.025
2108.09379	7656.025
2111.08131	7654.725
2114.0669	7663.925
2117.05057	7665.525
2120.03233	7657.525
2123.01216	7668.625
2125.99008	7656.125
2128.96609	7672.025
2131.94018	7671.925
2134.91236	7676.325
2137.88263	7642.425
2140.851	7663.525
2143.81746	7647.825
2146.78201	7671.325
2149.74466	7622.125
2152.7054	7639.425
2155.66425	7619.225
2158.6212	7606.225
2161.57625	7616.225
2164.52941	7611.525
2167.48067	7615.425
2170.43004	7609.825
2173.37752	7599.025
2176.32311	7581.725
2179.26681	7581.425
2182.20863	7585.425
2185.14856	7592.625
2188.08661	7595.425
2191.02278	7563.825
2193.95707	7586.625
2196.88948	7566.025
2199.82001	7571.225
2202.74867	7542.225
2205.67545	7540.525
2208.60037	7522.725
2211.52341	7499.925
2214.44458	7512.425
2217.36388	7466.525
2220.28132	7470.425
2223.1969	7457.125
2226.11061	7446.925
2229.02246	7432.625
2231.93245	7425.025
2234.84058	7391.325
2237.74686	7392.025
2240.65128	7369.525
2243.55385	7362.725
2246.45456	7379.425
2249.35343	7313.325
2252.25044	7312.825
2255.14561	7308.025
2258.03893	7290.625
2260.93041	7267.625
2263.82004	7251.525
2266.70783	7228.225
2269.59378	7211.525
2272.4779	7166.525
2275.36017	7181.925
2278.24061	7134.625
2281.11922	7125.425
2283.996	7101.025
2286.87094	7112.525
2289.74405	7084.825
2292.61534	7070.025
2295.4848	7071.025
2298.35243	7081.125
2301.21824	7075.025
2304.08223	7063.725
2306.94439	7063.025
2309.80474	7041.225
2312.66327	7029.625
2315.51999	7012.925
2318.37489	7038.225
2321.22797	7015.825
2324.07925	7014.525
2326.92871	6984.125
2329.77637	6996.725
2332.62222	6991.825
2335.46626	6995.525
2338.3085	6982.825
2341.14893	6986.325
2343.98756	7004.625
2346.8244	6993.525
2349.65943	6971.025
2352.49267	6983.725
2355.32411	6967.525
2358.15376	6976.625
2360.98161	6982.625
2363.80768	6978.925
2366.63195	6962.625
2369.45444	6957.225
2372.27514	6951.425
2375.09405	6928.425
2377.91118	6912.525
2380.72652	6888.725
2383.54009	6868.525
2386.35187	6857.925
2389.16188	6820.225
2391.97011	6811.525
2394.77657	6797.525
2397.58125	6788.525
2400.38416	6783.025
2403.18529	6752.625
2405.98466	6753.325
2408.78226	6745.325
2411.57809	6725.625
2414.37216	6704.625
2417.16446	6722.825
2419.955	6705.725
2422.74378	6704.625
2425.5308	6679.725
2428.31606	6696.025
2431.09956	6682.325
2433.88131	6670.425
2436.6613	6659.525
2439.43954	6652.125
2442.21603	6648.725
2444.99077	6637.525
2447.76377	6664.825
2450.53501	6660.525
2453.30451	6666.625
2456.07226	6656.625
2458.83827	6662.325
2461.60254	6650.825
2464.36507	6654.525
2467.12586	6643.225
2469.88492	6642.825
2472.64224	6653.425
2475.39782	6650.925
2478.15167	6654.525
2480.90379	6666.725
2483.65417	6647.425
2486.40283	6647.025
2489.14976	6653.425
2491.89497	6658.825
2494.63845	6674.925
2497.3802	6656.325
2500.12024	6672.325
2502.85855	6636.025
2505.59514	6634.625
2508.33002	6610.725
2511.06318	6622.825
2513.79462	6608.925
2516.52435	6608.325
2519.25237	6599.525
2521.97867	6577.925
2524.70327	6592.325
2527.42616	6555.125
2530.14734	6551.825
2532.86681	6558.725
2535.58458	6561.925
2538.30065	6538.225
2541.01501	6536.025
2543.72768	6526.825
2546.43864	6535.625
2549.14791	6501.925
2551.85548	6523.825
2554.56136	6492.525
2557.26554	6510.325
2559.96803	6494.825
2562.66883	6509.625
2565.36794	6497.525
2568.06536	6480.025
2570.7611	6465.925
2573.45514	6487.925
2576.14751	6469.025
2578.83819	6453.925
2581.52719	6474.825
2584.21451	6429.125
2586.90015	6481.925
2589.58411	6443.925
2592.2664	6446.725
2594.94701	6441.025
2597.62594	6427.125
2600.30321	6416.225
2602.9788	6407.725
2605.65273	6408.825
2608.32498	6421.525
2610.99557	6418.725
2613.66449	6425.125
2616.33175	6405.425
2618.99734	6418.225
2621.66128	6410.425
2624.32355	6415.725
2626.98416	6424.225
2629.64311	6420.025
2632.30041	6424.425
2634.95605	6415.525
2637.61004	6384.225
2640.26238	6390.425
2642.91306	6383.525
2645.56209	6393.225
2648.20948	6402.625
2650.85521	6401.925
2653.4993	6370.825
2656.14175	6391.025
2658.78255	6396.725
2661.42171	6385.825
2664.05923	6406.225
2666.6951	6405.525
2669.32934	6401.125
2671.96194	6401.925
2674.59291	6385.525
2677.22224	6415.825
2679.84993	6403.925
2682.476	6379.725
2685.10043	6369.725
2687.72324	6366.825
2690.34441	6358.725
2692.96396	6368.125
2695.58188	6371.125
2698.19818	6367.925
2700.81285	6365.125
2703.4259	6381.925
2706.03733	6470.025
2708.64714	6423.025
2711.25533	6397.625
2713.86191	6377.425
2716.46687	6410.425
2719.07021	6397.925
2721.67194	6389.625
2724.27206	6381.225
2726.87057	6404.625
2729.46747	6396.825
2732.06276	6412.325
2734.65644	6399.125
2737.24852	6416.525
2739.83899	6395.425
2742.42786	6404.325
2745.01513	6365.725
2747.60079	6380.425
2750.18486	6376.625
2752.76733	6382.025
2755.3482	6377.625
2757.92747	6376.325
2760.50515	6377.425
2763.08123	6367.225
2765.65573	6374.825
2768.22863	6396.325
2770.79994	6377.425
2773.36967	6375.725
2775.9378	6395.525
2778.50435	6377.025
2781.06932	6387.125
2783.6327	6386.025
2786.1945	6380.125
2788.75471	6368.525
2791.31335	6352.325
2793.87041	6342.225
2796.42589	6336.025
2798.97979	6332.925
2801.53212	6312.925
2804.08288	6322.225
2806.63206	6310.725
2809.17967	6317.525
2811.72571	6283.925
2814.27018	6281.025
2816.81308	6279.225
2819.35442	6266.125
2821.89419	6258.325
2824.43239	6277.625
2826.96904	6241.425
2829.50412	6254.725
2832.03763	6236.825
2834.56959	6228.925
2837.1	6220.825
2839.62884	6233.925
2842.15613	6222.725
2844.68186	6234.025
2847.20604	6230.625
2849.72867	6249.625
2852.24974	6233.625
2854.76927	6243.025
2857.28724	6244.025
2859.80367	6244.925
2862.31855	6204.525
2864.83189	6195.825
2867.34368	6200.625
2869.85393	6191.325
2872.36264	6201.725
2874.8698	6186.725
2877.37543	6184.725
2879.87952	6185.725
2882.38207	6190.425
2884.88308	6179.925
2887.38256	6212.925
2889.88051	6196.225
2892.37692	6189.925
2894.8718	6213.125
2897.36515	6203.725
2899.85698	6228.425
2902.34727	6243.425
2904.83604	6226.625
2907.32328	6243.525
2909.809	6274.925
2912.29319	6251.825
2914.77587	6259.525
2917.25702	6276.725
2919.73665	6265.625
2922.21476	6277.425
2924.69136	6266.725
2927.16644	6275.325
2929.64	6282.625
2932.11205	6263.525
2934.58258	6246.025
2937.05161	6248.525
2939.51912	6258.625
2941.98513	6247.125
2944.44962	6232.525
2946.91261	6206.725
2949.37409	6211.925
2951.83407	6209.225
2954.29254	6208.425
2956.74951	6161.325
2959.20498	6166.125
2961.65895	6140.025
2964.11142	6127.025
2966.56239	6102.125
2969.01186	6085.225
2971.45984	6058.625
2973.90632	6058.625
2976.35131	6032.125
2978.7948	6011.325
2981.23681	5995.725
2983.67732	5981.325
2986.11635	5964.325
2988.55388	5936.225
2990.98993	5923.725
2993.4245	5908.825
2995.85758	5888.125
2998.28917	5893.625
3000.71928	5883.825
3003.14791	5856.925
3005.57506	5862.225
3008.00073	5826.125
3010.42493	5843.925
3012.84764	5798.925
3015.26888	5800.025
3017.68865	5795.525
3020.10694	5773.325
3022.52376	5753.725
3024.9391	5745.025
3027.35298	5757.125
3029.76539	5753.025
3032.17632	5729.325
3034.5858	5707.125
3036.9938	5683.925
3039.40034	5693.825
3041.80542	5699.625
3044.20903	5698.625
3046.61118	5678.625
3049.01187	5666.825
3051.4111	5667.525
3053.80888	5644.425
3056.20519	5634.625
3058.60005	5639.725
3060.99345	5621.425
3063.3854	5605.125
3065.7759	5581.525
3068.16494	5553.725
3070.55254	5553.725
3072.93868	5540.625
3075.32338	5514.625
3077.70662	5511.225
3080.08842	5499.825
3082.46878	5498.425
3084.84769	5479.025
3087.22515	5447.825
3089.60118	5455.025
3091.97576	5467.925
3094.3489	5465.625
3096.72061	5458.425
3099.09087	5456.625
3101.4597	5438.825
3103.82709	5457.225
3106.19305	5437.225
3108.55757	5426.425
3110.92066	5411.625
3113.28232	5401.025
3115.64255	5373.525
3118.00134	5351.125
3120.35871	5356.225
3122.71466	5343.325
3125.06917	5342.925
3127.42226	5331.425
3129.77393	5350.225
3132.12417	5329.825
3134.47299	5320.925
3136.82039	5323.325
3139.16636	5329.825
3141.51092	5306.325
3143.85406	5322.725
3146.19579	5329.125
3148.53609	5330.525
3150.87499	5319.825
3153.21246	5308.025
3155.54853	5347.425
3157.88318	5318.725
3160.21642	5339.425
3162.54826	5306.825
3164.87868	5315.225
3167.2077	5307.725
3169.5353	5313.025
3171.86151	5303.925
3174.18631	5300.725
3176.5097	5298.325
3178.83169	5292.925
3181.15228	5290.925
3183.47147	5281.625
3185.78926	5276.225
3188.10565	5280.625
