Data from AgNPs_FTO_APTES_UA_50um_CRN_0.1mM_R6G_10uM_NaF_0.1M_Addition_RamanShift__10__15-14-39-235.txt Node

Date: Tue Dec 21 15:14:39 GMT 2021
User: TCL
Spectrometer: QEP01345
Trigger mode: 4
Integration Time (sec): 7.000000E0
Scans to average: 10
Electric dark correction enabled: true
Nonlinearity correction enabled: false
Boxcar width: 0
XAxis mode: Raman Shifts
Number of Pixels in Spectrum: 1044
>>>>>Begin Spectral Data<<<<<
46.04893	0.425
50.45542	-1.775
54.85868	-0.475
59.25871	1.225
63.6555	35.625
68.04907	39.425
72.43941	45.025
76.82654	43.925
81.21044	50.825
85.59113	50.925
89.96862	53.325
94.34289	52.125
98.71396	54.725
103.08183	56.725
107.4465	60.525
111.80798	61.425
116.16626	62.725
120.52136	64.525
124.87327	62.825
129.222	59.925
133.56755	67.925
137.90993	74.625
142.24913	75.625
146.58517	83.425
150.91804	97.425
155.24774	110.725
159.57429	133.725
163.89768	167.425
168.21792	216.225
172.53501	286.725
176.84895	392.625
181.15975	552.725
185.46741	770.825
189.77193	1059.125
194.07331	1414.225
198.37157	1837.625
202.6667	2269.225
206.9587	2721.325
211.24758	3144.525
215.53334	3594.525
219.81599	4046.225
224.09553	4571.325
228.37195	5157.425
232.64527	5764.725
236.91549	6424.625
241.18261	7059.625
245.44663	7655.225
249.70755	8167.425
253.96539	8606.125
258.22014	8972.825
262.4718	9226.125
266.72039	9455.925
270.96589	9525.025
275.20832	9501.625
279.44768	9443.625
283.68397	9332.825
287.91719	9232.625
292.14735	9197.925
296.37445	9159.225
300.59849	9247.825
304.81948	9291.925
309.03742	9351.725
313.25231	9277.725
317.46415	9082.925
321.67296	8796.725
325.87872	8549.725
330.08145	8402.025
334.28114	8376.525
338.47781	8433.425
342.67145	8525.725
346.86207	8660.025
351.04966	8801.825
355.23424	8981.825
359.4158	9134.625
363.59435	9217.025
367.76989	9306.725
371.94243	9351.325
376.11196	9381.525
380.27849	9412.525
384.44203	9438.725
388.60257	9479.225
392.76012	9581.625
396.91468	9676.725
401.06626	9855.325
405.21485	9939.725
409.36047	9888.025
413.50311	9697.725
417.64277	9517.825
421.77947	9437.225
425.9132	9399.325
430.04396	9434.125
434.17176	9456.125
438.2966	9522.925
442.41849	9593.425
446.53742	9757.025
450.6534	9924.625
454.76644	10060.225
458.87653	10115.925
462.98368	10120.825
467.08789	10096.125
471.18916	10046.625
475.2875	9981.025
479.38291	9943.825
483.4754	9889.125
487.56496	9802.125
491.6516	9742.425
495.73531	9609.925
499.81612	9546.625
503.89401	9564.125
507.96899	9604.425
512.04106	9610.725
516.11023	9590.425
520.1765	9578.725
524.23987	9496.625
528.30034	9420.925
532.35792	9335.325
536.41261	9242.925
540.46441	9166.325
544.51333	9155.425
548.55936	9217.625
552.60252	9398.425
556.64279	9538.425
560.6802	9663.425
564.71473	9707.225
568.7464	9836.025
572.7752	10036.425
576.80114	10210.125
580.82422	10367.725
584.84444	10528.925
588.86181	10667.825
592.87633	10724.525
596.888	10681.125
600.89682	10616.925
604.9028	10813.525
608.90594	11728.725
612.90624	12865.725
616.90371	12400.925
620.89834	10413.425
624.89015	9402.925
628.87913	9251.225
632.86528	9405.025
636.84862	9538.825
640.82913	9472.825
644.80683	9255.725
648.78172	9030.225
652.75379	8958.325
656.72306	9007.125
660.68952	9157.625
664.65319	9138.925
668.61405	9000.425
672.57211	8942.625
676.52738	8976.325
680.47986	8995.725
684.42955	8943.525
688.37646	8891.525
692.32058	8868.125
696.26192	8855.925
700.20048	8915.425
704.13626	8998.325
708.06928	9023.725
711.99952	8993.325
715.927	8945.625
719.85171	8947.025
723.77365	8900.025
727.69284	8831.525
731.60928	8782.225
735.52295	8717.025
739.43388	8699.225
743.34206	8734.525
747.24749	8770.325
751.15017	8808.925
755.05012	8921.525
758.94733	9159.425
762.8418	9632.325
766.73354	10353.525
770.62254	11181.825
774.50882	11459.325
778.39237	11033.725
782.27321	10166.925
786.15132	9432.925
790.02671	8957.025
793.89938	8716.725
797.76935	8618.025
801.6366	8588.825
805.50115	8525.525
809.36299	8522.825
813.22213	8471.125
817.07857	8443.925
820.93231	8457.425
824.78336	8393.225
828.63172	8353.425
832.47738	8315.625
836.32036	8304.425
840.16066	8260.225
843.99827	8258.325
847.8332	8238.125
851.66546	8224.825
855.49504	8216.425
859.32195	8206.025
863.1462	8184.625
866.96777	8169.925
870.78668	8155.325
874.60293	8187.725
878.41652	8183.025
882.22745	8206.625
886.03573	8257.525
889.84136	8279.225
893.64433	8228.625
897.44466	8208.825
901.24235	8157.925
905.0374	8130.025
908.8298	8105.625
912.61957	8093.725
916.40671	8139.325
920.19121	8189.025
923.97308	8256.025
927.75233	8227.725
931.52895	8199.625
935.30295	8095.825
939.07433	7946.225
942.84309	7837.225
946.60924	7765.225
950.37278	7697.325
954.13371	7704.525
957.89203	7675.325
961.64774	7676.325
965.40086	7652.425
969.15137	7635.825
972.89929	7580.125
976.64461	7552.025
980.38733	7553.725
984.12747	7524.525
987.86502	7541.325
991.59999	7548.225
995.33237	7591.825
999.06217	7641.825
1002.78939	7733.625
1006.51404	7820.125
1010.23611	7913.325
1013.95561	7988.125
1017.67255	8033.225
1021.38692	8032.325
1025.09872	7935.125
1028.80796	7828.325
1032.51465	7766.325
1036.21877	7778.525
1039.92035	7792.925
1043.61937	7867.225
1047.31584	7903.825
1051.00976	7919.125
1054.70114	7962.125
1058.38998	7988.825
1062.07627	8038.725
1065.76003	8118.625
1069.44126	8214.325
1073.11995	8330.525
1076.79611	8411.425
1080.46974	8445.525
1084.14085	8485.225
1087.80943	8520.025
1091.47549	8599.325
1095.13903	8629.425
1098.80005	8548.925
1102.45857	8367.725
1106.11456	8186.125
1109.76805	8108.525
1113.41903	8107.425
1117.06751	8202.725
1120.71348	8323.925
1124.35696	8480.125
1127.99793	8641.325
1131.63641	8778.325
1135.2724	8703.525
1138.90589	8567.125
1142.5369	8476.425
1146.16542	8474.525
1149.79145	8438.525
1153.415	8453.725
1157.03607	8493.025
1160.65467	8630.825
1164.27079	8859.225
1167.88443	9203.625
1171.49561	9682.125
1175.10432	10317.425
1178.71056	11130.725
1182.31434	11868.825
1185.91565	12229.325
1189.51451	12209.125
1193.11091	11941.625
1196.70485	11511.625
1200.29634	11073.725
1203.88538	10707.325
1207.47197	10341.825
1211.05612	10065.125
1214.63782	9793.525
1218.21708	9550.725
1221.79391	9359.725
1225.36829	9214.325
1228.94024	9157.125
1232.50976	9104.525
1236.07685	9051.325
1239.6415	9053.725
1243.20374	9030.525
1246.76355	9063.125
1250.32093	9145.125
1253.8759	9275.925
1257.42845	9451.325
1260.97859	9684.325
1264.52631	9902.525
1268.07163	10142.525
1271.61453	10349.525
1275.15503	10528.125
1278.69312	10694.725
1282.22882	10922.625
1285.76211	11184.025
1289.29301	11534.425
1292.82151	11933.625
1296.34761	12416.325
1299.87133	12976.325
1303.39266	13549.125
1306.9116	14214.425
1310.42815	14803.825
1313.94233	15175.525
1317.45412	15119.425
1320.96354	14798.725
1324.47058	14506.125
1327.97525	14196.225
1331.47754	13981.725
1334.97747	13856.225
1338.47502	13772.625
1341.97022	13797.925
1345.46305	13881.725
1348.95352	14033.825
1352.44163	14260.225
1355.92738	14662.125
1359.41078	15349.825
1362.89183	16140.425
1366.37053	16110.325
1369.84688	14894.625
1373.32088	13240.425
1376.79254	12031.725
1380.26186	11438.325
1383.72883	11210.425
1387.19347	11066.225
1390.65578	10903.725
1394.11575	10748.725
1397.57339	10656.425
1401.0287	10606.825
1404.48168	10561.225
1407.93234	10451.825
1411.38068	10243.525
1414.82669	9997.525
1418.27039	9715.425
1421.71177	9446.525
1425.15083	9218.225
1428.58758	9039.525
1432.02203	9037.325
1435.45416	9115.025
1438.88399	9273.825
1442.31151	9365.025
1445.73673	9464.925
1449.15965	9558.425
1452.58027	9650.325
1455.9986	9705.225
1459.41463	9806.425
1462.82837	9928.025
1466.23982	10074.825
1469.64898	10221.325
1473.05586	10327.525
1476.46045	10421.625
1479.86276	10430.325
1483.26279	10462.925
1486.66054	10576.225
1490.05602	10712.925
1493.44922	10981.125
1496.84016	11396.125
1500.22882	12014.925
1503.61521	12858.125
1506.99934	13717.425
1510.38121	14387.025
1513.76081	14528.525
1517.13816	14018.725
1520.51324	13170.325
1523.88607	12394.225
1527.25665	11906.925
1530.62498	11624.525
1533.99105	11396.125
1537.35488	11169.825
1540.71647	10910.525
1544.07581	10611.525
1547.4329	10329.625
1550.78776	10115.525
1554.14038	9970.725
1557.49077	9948.825
1560.83892	9997.025
1564.18484	10124.425
1567.52853	10275.825
1570.86999	10429.425
1574.20922	10623.325
1577.54624	10705.825
1580.88103	10578.725
1584.2136	10312.925
1587.54395	10200.325
1590.87208	10264.025
1594.19801	10548.025
1597.52172	10961.625
1600.84321	11087.025
1604.16251	10811.625
1607.47959	10281.225
1610.79447	9676.825
1614.10715	9061.425
1617.41763	8555.925
1620.7259	8170.325
1624.03199	7939.325
1627.33587	7886.225
1630.63757	7981.525
1633.93707	8250.925
1637.23439	8790.925
1640.52951	9620.525
1643.82246	10777.825
1647.11321	11918.225
1650.40179	12604.525
1653.68819	12343.525
1656.97241	11186.025
1660.25446	9799.325
1663.53433	8626.325
1666.81203	7842.325
1670.08756	7313.425
1673.36092	7023.025
1676.63211	6808.425
1679.90115	6655.625
1683.16801	6554.925
1686.43272	6466.925
1689.69527	6407.725
1692.95567	6335.125
1696.2139	6302.225
1699.46999	6254.125
1702.72392	6211.725
1705.97571	6142.725
1709.22535	6082.725
1712.47284	6049.725
1715.71819	6029.925
1718.96139	5993.725
1722.20246	5966.625
1725.44139	5930.925
1728.67818	5906.425
1731.91284	5851.225
1735.14537	5815.225
1738.37576	5795.625
1741.60403	5754.225
1744.83017	5739.725
1748.05418	5727.425
1751.27607	5725.325
1754.49584	5733.925
1757.71349	5728.825
1760.92903	5734.625
1764.14244	5733.925
1767.35375	5710.225
1770.56294	5670.125
1773.77002	5648.525
1776.97499	5622.125
1780.17785	5572.325
1783.37861	5554.225
1786.57727	5534.825
1789.77382	5531.725
1792.96828	5487.125
1796.16064	5481.125
1799.3509	5446.325
1802.53907	5427.525
1805.72514	5419.025
1808.90913	5379.625
1812.09102	5377.925
1815.27083	5365.725
1818.44856	5334.525
1821.6242	5342.125
1824.79776	5310.825
1827.96924	5288.625
1831.13864	5294.225
1834.30597	5297.025
1837.47122	5281.825
1840.6344	5257.825
1843.7955	5263.825
1846.95454	5255.625
1850.11151	5263.225
1853.26642	5247.925
1856.41926	5247.125
1859.57004	5220.025
1862.71876	5185.925
1865.86542	5207.725
1869.01003	5186.925
1872.15258	5180.525
1875.29308	5176.925
1878.43152	5181.825
1881.56792	5148.725
1884.70227	5131.225
1887.83457	5133.325
1890.96482	5123.125
1894.09304	5099.225
1897.21921	5089.425
1900.34335	5100.025
1903.46544	5078.825
1906.58551	5080.225
1909.70353	5056.725
1912.81953	5041.225
1915.93349	5025.725
1919.04543	5030.025
1922.15534	5000.925
1925.26322	5016.525
1928.36908	4980.825
1931.47292	4967.125
1934.57473	4955.125
1937.67453	4926.325
1940.77232	4917.425
1943.86808	4902.225
1946.96184	4890.925
1950.05358	4868.725
1953.14331	4860.825
1956.23103	4838.325
1959.31675	4812.325
1962.40046	4811.325
1965.48217	4787.625
1968.56188	4776.825
1971.63959	4746.625
1974.7153	4754.025
1977.78901	4718.725
1980.86073	4711.325
1983.93046	4687.825
1986.99819	4664.525
1990.06394	4656.425
1993.1277	4627.625
1996.18947	4616.625
1999.24925	4602.625
2002.30706	4592.025
2005.36288	4571.625
2008.41672	4565.025
2011.46859	4552.825
2014.51848	4521.125
2017.56639	4496.525
2020.61233	4474.325
2023.6563	4483.325
2026.6983	4450.225
2029.73833	4421.525
2032.7764	4422.525
2035.8125	4414.825
2038.84664	4407.325
2041.87881	4396.525
2044.90903	4388.325
2047.93729	4382.425
2050.96359	4375.225
2053.98794	4367.625
2057.01034	4363.325
2060.03078	4342.225
2063.04927	4339.625
2066.06582	4308.425
2069.08042	4313.525
2072.09307	4337.925
2075.10378	4292.925
2078.11255	4292.525
2081.11938	4292.225
2084.12426	4302.525
2087.12722	4288.625
2090.12824	4293.625
2093.12732	4282.925
2096.12447	4271.725
2099.11969	4272.225
2102.11299	4270.925
2105.10435	4292.925
2108.09379	4286.025
2111.08131	4270.525
2114.0669	4271.225
2117.05057	4280.125
2120.03233	4285.425
2123.01216	4277.125
2125.99008	4284.625
2128.96609	4264.325
2131.94018	4270.625
2134.91236	4269.725
2137.88263	4260.525
2140.851	4276.625
2143.81746	4264.025
2146.78201	4245.425
2149.74466	4255.725
2152.7054	4250.525
2155.66425	4255.925
2158.6212	4224.425
2161.57625	4228.325
2164.52941	4249.725
2167.48067	4233.525
2170.43004	4220.725
2173.37752	4228.025
2176.32311	4225.125
2179.26681	4208.525
2182.20863	4213.125
2185.14856	4198.225
2188.08661	4203.725
2191.02278	4186.225
2193.95707	4187.225
2196.88948	4183.825
2199.82001	4174.525
2202.74867	4172.225
2205.67545	4161.725
2208.60037	4140.725
2211.52341	4152.825
2214.44458	4130.825
2217.36388	4123.325
2220.28132	4112.625
2223.1969	4096.325
2226.11061	4100.925
2229.02246	4069.125
2231.93245	4081.225
2234.84058	4076.425
2237.74686	4056.125
2240.65128	4055.125
2243.55385	4045.625
2246.45456	4031.825
2249.35343	4021.225
2252.25044	4020.325
2255.14561	4010.825
2258.03893	4018.925
2260.93041	4009.425
2263.82004	3973.425
2266.70783	3975.925
2269.59378	3961.125
2272.4779	3945.225
2275.36017	3939.525
2278.24061	3931.025
2281.11922	3913.525
2283.996	3901.425
2286.87094	3902.025
2289.74405	3886.725
2292.61534	3885.025
2295.4848	3865.825
2298.35243	3870.325
2301.21824	3872.525
2304.08223	3851.325
2306.94439	3853.425
2309.80474	3837.725
2312.66327	3832.825
2315.51999	3827.825
2318.37489	3820.625
2321.22797	3800.725
2324.07925	3812.325
2326.92871	3805.225
2329.77637	3799.925
2332.62222	3788.425
2335.46626	3792.125
2338.3085	3779.625
2341.14893	3774.925
2343.98756	3774.925
2346.8244	3772.525
2349.65943	3760.525
2352.49267	3767.225
2355.32411	3762.725
2358.15376	3740.525
2360.98161	3751.525
2363.80768	3758.525
2366.63195	3754.425
2369.45444	3752.525
2372.27514	3730.525
2375.09405	3742.125
2377.91118	3730.425
2380.72652	3722.025
2383.54009	3688.925
2386.35187	3694.325
2389.16188	3677.425
2391.97011	3671.225
2394.77657	3656.025
2397.58125	3631.425
2400.38416	3641.825
2403.18529	3625.925
2405.98466	3620.825
2408.78226	3610.625
2411.57809	3610.125
2414.37216	3610.325
2417.16446	3595.625
2419.955	3584.225
2422.74378	3598.125
2425.5308	3585.025
2428.31606	3581.725
2431.09956	3572.025
2433.88131	3565.425
2436.6613	3558.125
2439.43954	3565.525
2442.21603	3543.125
2444.99077	3536.725
2447.76377	3549.325
2450.53501	3538.225
2453.30451	3539.125
2456.07226	3545.525
2458.83827	3534.025
2461.60254	3539.425
2464.36507	3533.525
2467.12586	3527.225
2469.88492	3513.925
2472.64224	3525.425
2475.39782	3520.125
2478.15167	3520.325
2480.90379	3514.225
2483.65417	3516.025
2486.40283	3501.825
2489.14976	3517.725
2491.89497	3493.625
2494.63845	3515.125
2497.3802	3507.525
2500.12024	3484.925
2502.85855	3481.425
2505.59514	3483.925
2508.33002	3474.525
2511.06318	3455.725
2513.79462	3453.525
2516.52435	3445.725
2519.25237	3437.125
2521.97867	3427.925
2524.70327	3426.725
2527.42616	3424.225
2530.14734	3409.925
2532.86681	3406.425
2535.58458	3404.925
2538.30065	3394.225
2541.01501	3395.125
2543.72768	3388.525
2546.43864	3391.225
2549.14791	3373.225
2551.85548	3369.725
2554.56136	3381.425
2557.26554	3360.725
2559.96803	3355.325
2562.66883	3350.125
2565.36794	3332.125
2568.06536	3338.425
2570.7611	3315.625
2573.45514	3323.225
2576.14751	3320.825
2578.83819	3300.525
2581.52719	3312.425
2584.21451	3293.025
2586.90015	3286.625
2589.58411	3283.925
2592.2664	3268.025
2594.94701	3274.925
2597.62594	3266.825
2600.30321	3249.325
2602.9788	3254.825
2605.65273	3241.525
2608.32498	3259.125
2610.99557	3235.825
2613.66449	3233.025
2616.33175	3222.525
2618.99734	3227.125
2621.66128	3220.725
2624.32355	3213.225
2626.98416	3201.525
2629.64311	3204.225
2632.30041	3204.125
2634.95605	3186.925
2637.61004	3188.525
2640.26238	3181.525
2642.91306	3180.825
2645.56209	3172.725
2648.20948	3178.025
2650.85521	3171.925
2653.4993	3159.925
2656.14175	3172.325
2658.78255	3178.825
2661.42171	3172.225
2664.05923	3157.025
2666.6951	3170.625
2669.32934	3165.425
2671.96194	3158.625
2674.59291	3173.525
2677.22224	3170.825
2679.84993	3173.825
2682.476	3166.125
2685.10043	3322.225
2687.72324	3230.725
2690.34441	3179.025
2692.96396	3144.925
2695.58188	3163.025
2698.19818	3159.725
2700.81285	3139.025
2703.4259	3170.425
2706.03733	3215.625
2708.64714	3177.625
2711.25533	3157.925
2713.86191	3161.925
2716.46687	3170.125
2719.07021	3152.525
2721.67194	3142.625
2724.27206	3141.925
2726.87057	3152.925
2729.46747	3146.825
2732.06276	3148.925
2734.65644	3142.025
2737.24852	3132.525
2739.83899	3130.225
2742.42786	3127.925
2745.01513	3115.125
2747.60079	3109.525
2750.18486	3104.225
2752.76733	3104.725
2755.3482	3090.725
2757.92747	3100.225
2760.50515	3099.525
2763.08123	3093.025
2765.65573	3084.325
2768.22863	3089.625
2770.79994	3075.425
2773.36967	3072.325
2775.9378	3069.225
2778.50435	3071.225
2781.06932	3056.225
2783.6327	3069.425
2786.1945	3051.025
2788.75471	3047.125
2791.31335	3050.525
2793.87041	3039.425
2796.42589	3019.525
2798.97979	3028.525
2801.53212	3012.025
2804.08288	3020.725
2806.63206	3003.325
2809.17967	2988.625
2811.72571	2991.425
2814.27018	3003.225
2816.81308	2990.625
2819.35442	2979.225
2821.89419	2980.025
2824.43239	2976.425
2826.96904	2976.925
2829.50412	2975.625
2832.03763	2973.925
2834.56959	2968.825
2837.1	2970.925
2839.62884	2979.325
2842.15613	2979.325
2844.68186	2980.025
2847.20604	3001.425
2849.72867	3002.325
2852.24974	2996.325
2854.76927	2988.925
2857.28724	3002.825
2859.80367	2988.625
2862.31855	2970.325
2864.83189	2980.025
2867.34368	2968.525
2869.85393	2962.625
2872.36264	2964.125
2874.8698	2956.525
2877.37543	2962.525
2879.87952	2963.725
2882.38207	2964.425
2884.88308	2959.225
2887.38256	2949.025
2889.88051	2948.025
2892.37692	2952.025
2894.8718	2947.825
2897.36515	2957.625
2899.85698	2955.925
2902.34727	2955.125
2904.83604	2951.325
2907.32328	2953.825
2909.809	2955.925
2912.29319	2961.025
2914.77587	2968.525
2917.25702	2948.025
2919.73665	2967.425
2922.21476	2973.325
2924.69136	2966.025
2927.16644	2970.625
2929.64	2955.225
2932.11205	2957.225
2934.58258	2949.225
2937.05161	2956.225
2939.51912	2940.225
2941.98513	2932.225
2944.44962	2933.125
2946.91261	2922.825
2949.37409	2925.225
2951.83407	2914.125
2954.29254	2912.525
2956.74951	2898.725
2959.20498	2910.925
2961.65895	2891.225
2964.11142	2895.825
2966.56239	2868.025
2969.01186	2868.525
2971.45984	2850.125
2973.90632	2850.425
2976.35131	2825.325
2978.7948	2825.125
2981.23681	2833.825
2983.67732	2829.425
2986.11635	2817.125
2988.55388	2803.925
2990.98993	2784.525
2993.4245	2789.325
2995.85758	2781.025
2998.28917	2774.525
3000.71928	2770.925
3003.14791	2772.025
3005.57506	2770.825
3008.00073	2761.125
3010.42493	2760.825
3012.84764	2758.825
3015.26888	2751.025
3017.68865	2752.425
3020.10694	2752.525
3022.52376	2733.125
3024.9391	2743.225
3027.35298	2718.025
3029.76539	2707.525
3032.17632	2723.525
3034.5858	2702.125
3036.9938	2701.225
3039.40034	2705.725
3041.80542	2696.825
3044.20903	2706.425
3046.61118	2698.725
3049.01187	2681.925
3051.4111	2688.825
3053.80888	2677.225
3056.20519	2685.425
3058.60005	2671.825
3060.99345	2680.425
3063.3854	2661.025
3065.7759	2658.325
3068.16494	2660.025
3070.55254	2657.825
3072.93868	2657.125
3075.32338	2642.625
3077.70662	2635.625
3080.08842	2641.825
3082.46878	2651.925
3084.84769	2630.625
3087.22515	2633.025
3089.60118	2645.725
3091.97576	2642.325
3094.3489	2629.525
3096.72061	2629.825
3099.09087	2626.825
3101.4597	2632.525
3103.82709	2648.225
3106.19305	2634.925
3108.55757	2635.425
3110.92066	2626.825
3113.28232	2631.625
3115.64255	2621.925
3118.00134	2618.725
3120.35871	2616.125
3122.71466	2620.125
3125.06917	2615.025
3127.42226	2623.725
3129.77393	2615.125
3132.12417	2615.625
3134.47299	2617.925
3136.82039	2628.925
3139.16636	2616.225
3141.51092	2629.825
3143.85406	2615.425
3146.19579	2625.325
3148.53609	2624.725
3150.87499	2645.725
3153.21246	2642.625
3155.54853	2653.025
3157.88318	2646.925
3160.21642	2648.725
3162.54826	2659.925
3164.87868	2665.725
3167.2077	2664.625
3169.5353	2664.425
3171.86151	2673.425
3174.18631	2653.125
3176.5097	2662.825
3178.83169	2649.225
3181.15228	2667.825
3183.47147	2654.525
3185.78926	2653.225
3188.10565	2654.425
3190.42065	2659.425
3192.73424	2669.125
3195.04645	2664.425
3197.35725	2672.525
3199.66667	2663.025
3201.97469	2664.025
3204.28132	2666.325
3206.58656	2676.925
3208.8904	2676.925
3211.19287	2670.625
3213.49394	2692.825
3215.79363	2685.025
3218.09193	2682.825
3220.38884	2698.025
3222.68438	2700.625
