Data from AgNPs_FTO_APTES_UA_5um_CRN_0.1mM_R6G_10uM_NaF_0.1M_Addition_RamanShift__3__13-00-29-081.txt Node

Date: Tue Dec 21 13:00:29 GMT 2021
User: TCL
Spectrometer: QEP01345
Trigger mode: 4
Integration Time (sec): 7.000000E0
Scans to average: 10
Electric dark correction enabled: true
Nonlinearity correction enabled: false
Boxcar width: 0
XAxis mode: Raman Shifts
Number of Pixels in Spectrum: 1044
>>>>>Begin Spectral Data<<<<<
46.04893	-0.7875
50.45542	0.5125
54.85868	-0.9875
59.25871	-0.4875
63.6555	42.7125
68.04907	52.1125
72.43941	53.8125
76.82654	52.9125
81.21044	56.7125
85.59113	61.0125
89.96862	61.2125
94.34289	60.6125
98.71396	62.3125
103.08183	70.9125
107.4465	70.1125
111.80798	73.6125
116.16626	73.8125
120.52136	72.9125
124.87327	75.2125
129.222	79.9125
133.56755	86.5125
137.90993	95.4125
142.24913	99.1125
146.58517	112.8125
150.91804	129.0125
155.24774	153.7125
159.57429	191.9125
163.89768	245.7125
168.21792	321.5125
172.53501	435.0125
176.84895	601.3125
181.15975	854.1125
185.46741	1191.9125
189.77193	1651.0125
194.07331	2200.7125
198.37157	2850.3125
202.6667	3527.6125
206.9587	4209.1125
211.24758	4897.2125
215.53334	5579.9125
219.81599	6309.9125
224.09553	7096.6125
228.37195	7958.8125
232.64527	8902.6125
236.91549	9894.2125
241.18261	10903.1125
245.44663	11808.8125
249.70755	12585.8125
253.96539	13253.3125
258.22014	13803.8125
262.4718	14256.6125
266.72039	14549.0125
270.96589	14648.1125
275.20832	14582.8125
279.44768	14423.1125
283.68397	14265.3125
287.91719	14148.1125
292.14735	14020.6125
296.37445	14033.8125
300.59849	14095.8125
304.81948	14207.6125
309.03742	14264.7125
313.25231	14180.2125
317.46415	13954.5125
321.67296	13608.5125
325.87872	13291.5125
330.08145	13111.9125
334.28114	13031.8125
338.47781	13090.5125
342.67145	13233.5125
346.86207	13414.3125
351.04966	13626.6125
355.23424	13887.7125
359.4158	14085.5125
363.59435	14278.4125
367.76989	14360.8125
371.94243	14395.2125
376.11196	14449.7125
380.27849	14529.7125
384.44203	14618.5125
388.60257	14772.6125
392.76012	14970.4125
396.91468	15238.4125
401.06626	15509.2125
405.21485	15711.1125
409.36047	15691.2125
413.50311	15451.9125
417.64277	15299.4125
421.77947	15281.5125
425.9132	15314.8125
430.04396	15340.7125
434.17176	15392.9125
438.2966	15483.6125
442.41849	15710.6125
446.53742	16186.3125
450.6534	16728.6125
454.76644	17073.7125
458.87653	17097.0125
462.98368	16897.1125
467.08789	16665.9125
471.18916	16395.9125
475.2875	16161.3125
479.38291	16069.7125
483.4754	16007.3125
487.56496	15873.2125
491.6516	15627.8125
495.73531	15402.7125
499.81612	15295.0125
503.89401	15300.4125
507.96899	15296.1125
512.04106	15163.6125
516.11023	15001.8125
520.1765	14801.6125
524.23987	14743.6125
528.30034	14669.0125
532.35792	14595.4125
536.41261	14394.7125
540.46441	14174.3125
544.51333	14080.1125
548.55936	14216.4125
552.60252	14487.9125
556.64279	14930.9125
560.6802	15229.1125
564.71473	15384.2125
568.7464	15621.5125
572.7752	16148.6125
576.80114	16660.8125
580.82422	17269.6125
584.84444	18016.5125
588.86181	19069.9125
592.87633	19918.0125
596.888	19835.2125
600.89682	18820.9125
604.9028	18295.4125
608.90594	19402.7125
612.90624	20784.6125
616.90371	19471.8125
620.89834	16100.1125
624.89015	14534.0125
628.87913	14395.5125
632.86528	14514.2125
636.84862	14538.0125
640.82913	14274.2125
644.80683	13883.7125
648.78172	13579.4125
652.75379	13565.1125
656.72306	13667.5125
660.68952	13845.3125
664.65319	13774.2125
668.61405	13539.2125
672.57211	13536.0125
676.52738	13633.3125
680.47986	13688.0125
684.42955	13583.8125
688.37646	13455.4125
692.32058	13467.4125
696.26192	13623.6125
700.20048	13813.4125
704.13626	13974.0125
708.06928	13967.3125
711.99952	13911.6125
715.927	13899.3125
719.85171	13936.4125
723.77365	13940.4125
727.69284	13714.8125
731.60928	13527.8125
735.52295	13489.3125
739.43388	13502.0125
743.34206	13556.1125
747.24749	13627.7125
751.15017	13735.4125
755.05012	13970.1125
758.94733	14361.2125
762.8418	15108.8125
766.73354	16333.9125
770.62254	17565.2125
774.50882	17835.6125
778.39237	17077.6125
782.27321	15808.8125
786.15132	14627.1125
790.02671	13872.9125
793.89938	13497.4125
797.76935	13373.4125
801.6366	13308.3125
805.50115	13301.0125
809.36299	13225.8125
813.22213	13085.1125
817.07857	13001.5125
820.93231	12887.3125
824.78336	12785.1125
828.63172	12712.6125
832.47738	12703.8125
836.32036	12726.5125
840.16066	12762.7125
843.99827	12754.0125
847.8332	12683.0125
851.66546	12645.5125
855.49504	12617.4125
859.32195	12615.4125
863.1462	12580.2125
866.96777	12539.1125
870.78668	12541.7125
874.60293	12532.6125
878.41652	12547.7125
882.22745	12607.0125
886.03573	12641.1125
889.84136	12688.5125
893.64433	12627.6125
897.44466	12533.3125
901.24235	12467.5125
905.0374	12386.7125
908.8298	12311.4125
912.61957	12274.9125
916.40671	12365.0125
920.19121	12596.4125
923.97308	12793.6125
927.75233	12925.8125
931.52895	12851.0125
935.30295	12600.5125
939.07433	12297.2125
942.84309	12063.0125
946.60924	11942.6125
950.37278	11898.6125
954.13371	11880.3125
957.89203	11855.2125
961.64774	11833.9125
965.40086	11843.2125
969.15137	11795.0125
972.89929	11718.6125
976.64461	11620.4125
980.38733	11634.9125
984.12747	11638.7125
987.86502	11740.2125
991.59999	11862.7125
995.33237	12044.2125
999.06217	12394.9125
1002.78939	12803.5125
1006.51404	13181.3125
1010.23611	13392.1125
1013.95561	13620.7125
1017.67255	13648.8125
1021.38692	13476.6125
1025.09872	13167.3125
1028.80796	13041.2125
1032.51465	13243.2125
1036.21877	13521.6125
1039.92035	13690.6125
1043.61937	13681.7125
1047.31584	13471.5125
1051.00976	13235.9125
1054.70114	13064.2125
1058.38998	13011.1125
1062.07627	13048.1125
1065.76003	13153.4125
1069.44126	13335.0125
1073.11995	13620.6125
1076.79611	13881.1125
1080.46974	13985.3125
1084.14085	14057.8125
1087.80943	14187.3125
1091.47549	14355.7125
1095.13903	14404.1125
1098.80005	14172.4125
1102.45857	13774.8125
1106.11456	13403.9125
1109.76805	13214.2125
1113.41903	13224.2125
1117.06751	13281.6125
1120.71348	13488.9125
1124.35696	13676.5125
1127.99793	13919.0125
1131.63641	14134.7125
1135.2724	14083.8125
1138.90589	14015.4125
1142.5369	14001.2125
1146.16542	14087.6125
1149.79145	14182.1125
1153.415	14304.2125
1157.03607	14497.7125
1160.65467	14940.4125
1164.27079	15770.2125
1167.88443	16803.3125
1171.49561	17966.8125
1175.10432	19461.7125
1178.71056	21282.8125
1182.31434	23020.5125
1185.91565	23789.4125
1189.51451	23439.1125
1193.11091	22498.9125
1196.70485	21371.4125
1200.29634	20329.8125
1203.88538	19543.9125
1207.47197	19091.1125
1211.05612	18755.7125
1214.63782	18320.2125
1218.21708	17881.9125
1221.79391	17502.5125
1225.36829	17336.9125
1228.94024	17183.1125
1232.50976	16880.2125
1236.07685	16482.1125
1239.6415	16193.3125
1243.20374	16098.8125
1246.76355	16205.3125
1250.32093	16440.6125
1253.8759	16873.4125
1257.42845	17481.1125
1260.97859	18152.6125
1264.52631	18792.1125
1268.07163	19471.1125
1271.61453	20122.4125
1275.15503	20804.6125
1278.69312	21554.3125
1282.22882	22391.6125
1285.76211	23339.8125
1289.29301	24506.2125
1292.82151	25814.8125
1296.34761	27218.9125
1299.87133	29010.4125
1303.39266	30801.5125
1306.9116	32554.1125
1310.42815	33963.3125
1313.94233	34707.2125
1317.45412	34388.7125
1320.96354	33312.4125
1324.47058	32267.3125
1327.97525	31427.8125
1331.47754	30823.6125
1334.97747	30320.5125
1338.47502	29712.9125
1341.97022	28964.7125
1345.46305	28292.1125
1348.95352	27932.8125
1352.44163	28332.2125
1355.92738	29544.0125
1359.41078	31450.5125
1362.89183	33028.7125
1366.37053	33019.7125
1369.84688	30738.1125
1373.32088	27043.1125
1376.79254	24289.5125
1380.26186	23061.2125
1383.72883	22762.1125
1387.19347	22532.8125
1390.65578	22159.8125
1394.11575	22014.5125
1397.57339	22334.2125
1401.0287	22881.5125
1404.48168	23241.7125
1407.93234	23182.9125
1411.38068	22683.0125
1414.82669	21884.4125
1418.27039	20911.0125
1421.71177	19983.4125
1425.15083	19178.8125
1428.58758	18802.1125
1432.02203	18962.1125
1435.45416	19491.9125
1438.88399	20118.6125
1442.31151	20530.0125
1445.73673	20847.1125
1449.15965	21100.2125
1452.58027	21189.4125
1455.9986	21065.4125
1459.41463	21126.5125
1462.82837	21447.9125
1466.23982	21991.4125
1469.64898	22504.7125
1473.05586	22839.2125
1476.46045	22917.6125
1479.86276	22905.5125
1483.26279	22747.6125
1486.66054	22770.3125
1490.05602	22979.0125
1493.44922	23280.7125
1496.84016	23605.3125
1500.22882	24002.8125
1503.61521	24570.0125
1506.99934	25298.2125
1510.38121	25888.4125
1513.76081	25874.0125
1517.13816	25168.1125
1520.51324	24130.4125
1523.88607	23313.2125
1527.25665	22918.5125
1530.62498	22855.9125
1533.99105	22685.8125
1537.35488	22329.5125
1540.71647	21786.1125
1544.07581	21091.3125
1547.4329	20332.3125
1550.78776	19714.7125
1554.14038	19299.8125
1557.49077	19052.4125
1560.83892	18970.3125
1564.18484	19022.3125
1567.52853	19190.5125
1570.86999	19450.6125
1574.20922	19835.1125
1577.54624	20152.3125
1580.88103	20194.3125
1584.2136	20409.8125
1587.54395	21051.1125
1590.87208	22276.5125
1594.19801	23896.7125
1597.52172	25520.3125
1600.84321	26053.5125
1604.16251	24836.8125
1607.47959	22523.5125
1610.79447	19973.1125
1614.10715	17812.5125
1617.41763	16233.6125
1620.7259	15226.2125
1624.03199	14786.5125
1627.33587	14830.5125
1630.63757	15346.6125
1633.93707	16457.8125
1637.23439	18400.9125
1640.52951	21316.9125
1643.82246	25075.0125
1647.11321	28297.4125
1650.40179	29148.6125
1653.68819	26976.8125
1656.97241	22935.7125
1660.25446	18952.4125
1663.53433	16041.1125
1666.81203	14187.9125
1670.08756	13059.1125
1673.36092	12361.1125
1676.63211	11902.1125
1679.90115	11604.9125
1683.16801	11360.4125
1686.43272	11200.0125
1689.69527	11052.2125
1692.95567	10975.4125
1696.2139	10902.1125
1699.46999	10858.6125
1702.72392	10823.6125
1705.97571	10790.3125
1709.22535	10701.9125
1712.47284	10663.0125
1715.71819	10619.2125
1718.96139	10620.0125
1722.20246	10544.0125
1725.44139	10508.6125
1728.67818	10447.5125
1731.91284	10385.3125
1735.14537	10326.0125
1738.37576	10281.7125
1741.60403	10236.6125
1744.83017	10193.6125
1748.05418	10198.7125
1751.27607	10179.4125
1754.49584	10215.4125
1757.71349	10220.9125
1760.92903	10175.0125
1764.14244	10174.6125
1767.35375	10143.3125
1770.56294	10082.8125
1773.77002	10031.2125
1776.97499	9975.7125
1780.17785	9955.4125
1783.37861	9944.0125
1786.57727	9894.9125
1789.77382	9854.9125
1792.96828	9840.2125
1796.16064	9812.7125
1799.3509	9800.3125
1802.53907	9773.4125
1805.72514	9730.4125
1808.90913	9699.7125
1812.09102	9684.7125
1815.27083	9688.2125
1818.44856	9657.4125
1821.6242	9641.7125
1824.79776	9621.5125
1827.96924	9621.6125
1831.13864	9599.8125
1834.30597	9602.5125
1837.47122	9608.6125
1840.6344	9612.9125
1843.7955	9576.2125
1846.95454	9606.6125
1850.11151	9605.8125
1853.26642	9578.5125
1856.41926	9589.0125
1859.57004	9563.0125
1862.71876	9569.3125
1865.86542	9564.8125
1869.01003	9543.8125
1872.15258	9538.4125
1875.29308	9518.7125
1878.43152	9518.7125
1881.56792	9499.1125
1884.70227	9486.8125
1887.83457	9470.7125
1890.96482	9472.5125
1894.09304	9449.5125
1897.21921	9452.1125
1900.34335	9428.4125
1903.46544	9446.3125
1906.58551	9422.1125
1909.70353	9377.7125
1912.81953	9371.3125
1915.93349	9346.8125
1919.04543	9331.4125
1922.15534	9328.1125
1925.26322	9271.1125
1928.36908	9246.5125
1931.47292	9232.5125
1934.57473	9211.4125
1937.67453	9182.5125
1940.77232	9138.0125
1943.86808	9131.0125
1946.96184	9108.4125
1950.05358	9082.5125
1953.14331	9040.9125
1956.23103	9024.3125
1959.31675	8993.3125
1962.40046	8962.8125
1965.48217	8933.2125
1968.56188	8943.5125
1971.63959	8881.3125
1974.7153	8860.8125
1977.78901	8833.0125
1980.86073	8792.6125
1983.93046	8767.4125
1986.99819	8736.6125
1990.06394	8712.4125
1993.1277	8691.1125
1996.18947	8660.0125
1999.24925	8639.3125
2002.30706	8625.2125
2005.36288	8583.4125
2008.41672	8572.0125
2011.46859	8525.6125
2014.51848	8524.4125
2017.56639	8482.9125
2020.61233	8481.1125
2023.6563	8463.9125
2026.6983	8469.8125
2029.73833	8445.9125
2032.7764	8424.0125
2035.8125	8394.1125
2038.84664	8375.6125
2041.87881	8375.6125
2044.90903	8368.5125
2047.93729	8349.4125
2050.96359	8358.4125
2053.98794	8355.0125
2057.01034	8311.1125
2060.03078	8319.5125
2063.04927	8295.1125
2066.06582	8298.4125
2069.08042	8289.4125
2072.09307	8261.8125
2075.10378	8260.3125
2078.11255	8264.2125
2081.11938	8279.0125
2084.12426	8246.0125
2087.12722	8251.3125
2090.12824	8233.4125
2093.12732	8250.1125
2096.12447	8254.8125
2099.11969	8248.1125
2102.11299	8243.7125
2105.10435	8259.8125
2108.09379	8265.8125
2111.08131	8227.3125
2114.0669	8259.0125
2117.05057	8265.9125
2120.03233	8272.2125
2123.01216	8252.8125
2125.99008	8250.8125
2128.96609	8271.8125
2131.94018	8278.7125
2134.91236	8293.3125
2137.88263	8294.6125
2140.851	8273.5125
2143.81746	8274.1125
2146.78201	8272.7125
2149.74466	8281.5125
2152.7054	8275.0125
2155.66425	8270.1125
2158.6212	8244.5125
2161.57625	8265.8125
2164.52941	8263.9125
2167.48067	8242.6125
2170.43004	8237.4125
2173.37752	8271.9125
2176.32311	8267.5125
2179.26681	8232.8125
2182.20863	8252.4125
2185.14856	8228.5125
2188.08661	8246.5125
2191.02278	8246.4125
2193.95707	8241.7125
2196.88948	8224.0125
2199.82001	8245.8125
2202.74867	8220.5125
2205.67545	8205.8125
2208.60037	8194.1125
2211.52341	8179.6125
2214.44458	8194.1125
2217.36388	8157.8125
2220.28132	8156.7125
2223.1969	8140.2125
2226.11061	8144.2125
2229.02246	8126.2125
2231.93245	8108.3125
2234.84058	8091.6125
2237.74686	8089.3125
2240.65128	8084.9125
2243.55385	8050.1125
2246.45456	8056.4125
2249.35343	8038.3125
2252.25044	8019.3125
2255.14561	7998.4125
2258.03893	7974.3125
2260.93041	8000.2125
2263.82004	7975.7125
2266.70783	7936.7125
2269.59378	7923.6125
2272.4779	7890.2125
2275.36017	7881.8125
2278.24061	7866.1125
2281.11922	7844.9125
2283.996	7816.3125
2286.87094	7832.6125
2289.74405	7819.1125
2292.61534	7815.1125
2295.4848	7815.1125
2298.35243	7797.4125
2301.21824	7815.8125
2304.08223	7797.5125
2306.94439	7816.9125
2309.80474	7787.1125
2312.66327	7784.1125
2315.51999	7777.8125
2318.37489	7791.0125
2321.22797	7778.1125
2324.07925	7758.6125
2326.92871	7766.6125
2329.77637	7767.9125
2332.62222	7760.1125
2335.46626	7744.3125
2338.3085	7746.9125
2341.14893	7726.8125
2343.98756	7738.9125
2346.8244	7759.4125
2349.65943	7731.8125
2352.49267	7730.2125
2355.32411	7743.7125
2358.15376	7729.7125
2360.98161	7732.1125
2363.80768	7716.6125
2366.63195	7724.5125
2369.45444	7690.1125
2372.27514	7697.6125
2375.09405	7685.8125
2377.91118	7673.1125
2380.72652	7654.0125
2383.54009	7624.9125
2386.35187	7616.4125
2389.16188	7595.9125
2391.97011	7576.9125
2394.77657	7583.1125
2397.58125	7573.5125
2400.38416	7571.9125
2403.18529	7547.4125
2405.98466	7531.4125
2408.78226	7511.9125
2411.57809	7507.5125
2414.37216	7496.8125
2417.16446	7474.1125
2419.955	7479.5125
2422.74378	7479.1125
2425.5308	7469.4125
2428.31606	7445.3125
2431.09956	7451.5125
2433.88131	7460.0125
2436.6613	7438.7125
2439.43954	7433.2125
2442.21603	7453.9125
2444.99077	7436.3125
2447.76377	7434.3125
2450.53501	7444.7125
2453.30451	7443.2125
2456.07226	7452.4125
2458.83827	7466.4125
2461.60254	7445.0125
2464.36507	7435.9125
2467.12586	7442.9125
2469.88492	7436.1125
2472.64224	7449.5125
2475.39782	7444.3125
2478.15167	7460.9125
2480.90379	7460.8125
2483.65417	7463.0125
2486.40283	7432.9125
2489.14976	7444.0125
2491.89497	7446.7125
2494.63845	7469.4125
2497.3802	7456.7125
2500.12024	7456.5125
2502.85855	7435.4125
2505.59514	7434.9125
2508.33002	7444.8125
2511.06318	7403.9125
2513.79462	7419.3125
2516.52435	7398.3125
2519.25237	7392.7125
2521.97867	7376.8125
2524.70327	7374.5125
2527.42616	7381.9125
2530.14734	7373.0125
2532.86681	7370.6125
2535.58458	7370.9125
2538.30065	7354.3125
2541.01501	7350.4125
2543.72768	7337.2125
2546.43864	7322.3125
2549.14791	7332.8125
2551.85548	7334.8125
2554.56136	7308.7125
2557.26554	7298.3125
2559.96803	7297.9125
2562.66883	7320.9125
2565.36794	7313.1125
2568.06536	7320.5125
2570.7611	7313.2125
2573.45514	7306.4125
2576.14751	7320.0125
2578.83819	7302.1125
2581.52719	7315.0125
2584.21451	7297.5125
2586.90015	7285.8125
2589.58411	7277.7125
2592.2664	7271.5125
2594.94701	7257.5125
2597.62594	7268.5125
2600.30321	7263.8125
2602.9788	7236.7125
2605.65273	7238.7125
2608.32498	7244.3125
2610.99557	7227.8125
2613.66449	7235.4125
2616.33175	7239.2125
2618.99734	7241.5125
2621.66128	7221.2125
2624.32355	7228.3125
2626.98416	7212.3125
2629.64311	7213.0125
2632.30041	7202.9125
2634.95605	7197.7125
2637.61004	7210.4125
2640.26238	7198.9125
2642.91306	7196.6125
2645.56209	7163.9125
2648.20948	7193.9125
2650.85521	7185.3125
2653.4993	7181.2125
2656.14175	7178.1125
2658.78255	7197.9125
2661.42171	7190.4125
2664.05923	7189.1125
2666.6951	7209.2125
2669.32934	7215.6125
2671.96194	7219.1125
2674.59291	7201.0125
2677.22224	7209.4125
2679.84993	7207.6125
2682.476	7199.2125
2685.10043	7191.3125
2687.72324	7183.8125
2690.34441	7177.1125
2692.96396	7159.1125
2695.58188	7201.1125
2698.19818	7166.5125
2700.81285	7177.0125
2703.4259	7188.8125
2706.03733	7260.0125
2708.64714	7237.1125
2711.25533	7217.2125
2713.86191	7212.6125
2716.46687	7223.8125
2719.07021	7215.4125
2721.67194	7224.8125
2724.27206	7211.7125
2726.87057	7231.9125
2729.46747	7231.8125
2732.06276	7260.2125
2734.65644	7210.1125
2737.24852	7228.0125
2739.83899	7206.8125
2742.42786	7246.2125
2745.01513	7221.6125
2747.60079	7223.4125
2750.18486	7206.9125
2752.76733	7216.1125
2755.3482	7195.4125
2757.92747	7211.2125
2760.50515	7201.0125
2763.08123	7208.7125
2765.65573	7191.2125
2768.22863	7193.3125
2770.79994	7191.4125
2773.36967	7190.1125
2775.9378	7206.5125
2778.50435	7194.7125
2781.06932	7174.6125
2783.6327	7187.1125
2786.1945	7166.9125
2788.75471	7198.6125
2791.31335	7172.0125
2793.87041	7155.1125
2796.42589	7140.4125
2798.97979	7133.9125
2801.53212	7130.0125
2804.08288	7135.7125
2806.63206	7110.3125
2809.17967	7098.1125
2811.72571	7091.8125
2814.27018	7086.7125
2816.81308	7088.1125
2819.35442	7090.0125
2821.89419	7051.2125
2824.43239	7071.8125
2826.96904	7067.1125
2829.50412	7074.1125
2832.03763	7064.9125
2834.56959	7059.0125
2837.1	7059.5125
2839.62884	7045.3125
2842.15613	7059.0125
2844.68186	7090.4125
2847.20604	7084.1125
2849.72867	7102.2125
2852.24974	7105.3125
2854.76927	7094.4125
2857.28724	7090.1125
2859.80367	7084.7125
2862.31855	7059.3125
2864.83189	7059.5125
2867.34368	7057.8125
2869.85393	7047.4125
2872.36264	7051.3125
2874.8698	7016.0125
2877.37543	7021.5125
2879.87952	7045.9125
2882.38207	7048.0125
2884.88308	7058.3125
2887.38256	7046.2125
2889.88051	7055.3125
2892.37692	7056.3125
2894.8718	7066.2125
2897.36515	7058.8125
2899.85698	7090.4125
2902.34727	7080.2125
2904.83604	7094.9125
2907.32328	7089.8125
2909.809	7100.5125
2912.29319	7112.3125
2914.77587	7122.4125
2917.25702	7119.9125
2919.73665	7107.6125
2922.21476	7125.5125
2924.69136	7130.2125
2927.16644	7130.7125
2929.64	7120.2125
2932.11205	7115.0125
2934.58258	7082.1125
2937.05161	7081.6125
2939.51912	7100.2125
2941.98513	7081.3125
2944.44962	7083.1125
2946.91261	7054.5125
2949.37409	7073.2125
2951.83407	7040.6125
2954.29254	7026.9125
2956.74951	7020.4125
2959.20498	7019.7125
2961.65895	6979.8125
2964.11142	6972.0125
2966.56239	6949.5125
2969.01186	6952.4125
2971.45984	6901.5125
2973.90632	6919.6125
2976.35131	6875.8125
2978.7948	6863.5125
2981.23681	6843.0125
2983.67732	6832.5125
2986.11635	6828.4125
2988.55388	6802.7125
2990.98993	6792.8125
2993.4245	6760.8125
2995.85758	6757.1125
2998.28917	6754.4125
3000.71928	6735.5125
3003.14791	6718.9125
3005.57506	6720.3125
3008.00073	6719.9125
3010.42493	6705.2125
3012.84764	6697.2125
3015.26888	6677.3125
3017.68865	6656.1125
3020.10694	6638.1125
3022.52376	6633.1125
3024.9391	6652.5125
3027.35298	6626.3125
3029.76539	6624.1125
3032.17632	6604.7125
3034.5858	6596.4125
3036.9938	6579.5125
3039.40034	6566.2125
3041.80542	6570.1125
3044.20903	6575.8125
3046.61118	6562.6125
3049.01187	6525.9125
3051.4111	6553.6125
3053.80888	6523.1125
3056.20519	6511.4125
3058.60005	6531.5125
3060.99345	6505.0125
3063.3854	6477.5125
3065.7759	6469.5125
3068.16494	6443.3125
3070.55254	6420.8125
3072.93868	6410.0125
3075.32338	6392.5125
3077.70662	6377.2125
