Data from AgNPs_FTO_APTES_UA_10um_CRN_0.1mM_R6G_10uM_NaF_0.1M_Addition_RamanShift__0__13-35-29-121.txt Node

Date: Tue Dec 21 13:35:29 GMT 2021
User: TCL
Spectrometer: QEP01345
Trigger mode: 4
Integration Time (sec): 7.000000E0
Scans to average: 10
Electric dark correction enabled: true
Nonlinearity correction enabled: false
Boxcar width: 0
XAxis mode: Raman Shifts
Number of Pixels in Spectrum: 1044
>>>>>Begin Spectral Data<<<<<
46.04893	1.0375
50.45542	-1.1625
54.85868	-0.0625
59.25871	0.8375
63.6555	20.5375
68.04907	25.8375
72.43941	25.7375
76.82654	25.6375
81.21044	27.8375
85.59113	30.4375
89.96862	28.7375
94.34289	29.8375
98.71396	32.4375
103.08183	36.2375
107.4465	36.0375
111.80798	35.4375
116.16626	35.6375
120.52136	35.7375
124.87327	40.3375
129.222	40.6375
133.56755	45.2375
137.90993	51.4375
142.24913	52.6375
146.58517	60.1375
150.91804	67.6375
155.24774	82.7375
159.57429	100.6375
163.89768	132.6375
168.21792	175.8375
172.53501	236.5375
176.84895	328.3375
181.15975	473.4375
185.46741	649.1375
189.77193	906.3375
194.07331	1214.9375
198.37157	1570.2375
202.6667	1943.1375
206.9587	2327.8375
211.24758	2702.6375
215.53334	3095.2375
219.81599	3491.2375
224.09553	3930.7375
228.37195	4406.5375
232.64527	4949.9375
236.91549	5472.6375
241.18261	6037.0375
245.44663	6525.3375
249.70755	6967.7375
253.96539	7348.3375
258.22014	7669.7375
262.4718	7911.1375
266.72039	8084.6375
270.96589	8179.6375
275.20832	8152.1375
279.44768	8042.7375
283.68397	7972.2375
287.91719	7849.9375
292.14735	7793.0375
296.37445	7771.2375
300.59849	7822.6375
304.81948	7902.7375
309.03742	7973.2375
313.25231	7925.5375
317.46415	7834.3375
321.67296	7616.9375
325.87872	7454.2375
330.08145	7379.8375
334.28114	7356.9375
338.47781	7416.1375
342.67145	7478.2375
346.86207	7628.4375
351.04966	7777.9375
355.23424	7946.9375
359.4158	8101.0375
363.59435	8201.8375
367.76989	8253.8375
371.94243	8290.7375
376.11196	8324.2375
380.27849	8349.5375
384.44203	8405.6375
388.60257	8470.6375
392.76012	8558.4375
396.91468	8669.4375
401.06626	8846.7375
405.21485	8977.5375
409.36047	8980.8375
413.50311	8890.8375
417.64277	8835.8375
421.77947	8874.3375
425.9132	8973.2375
430.04396	9114.6375
434.17176	9171.6375
438.2966	9114.8375
442.41849	9115.5375
446.53742	9267.5375
450.6534	9485.3375
454.76644	9615.7375
458.87653	9588.0375
462.98368	9486.7375
467.08789	9350.8375
471.18916	9205.8375
475.2875	9100.3375
479.38291	9035.5375
483.4754	9029.8375
487.56496	8996.0375
491.6516	8926.5375
495.73531	8810.4375
499.81612	8716.8375
503.89401	8675.9375
507.96899	8663.2375
512.04106	8600.0375
516.11023	8571.4375
520.1765	8520.7375
524.23987	8522.0375
528.30034	8490.5375
532.35792	8471.5375
536.41261	8391.0375
540.46441	8249.9375
544.51333	8182.2375
548.55936	8206.5375
552.60252	8322.9375
556.64279	8489.4375
560.6802	8639.9375
564.71473	8722.3375
568.7464	8839.9375
572.7752	9043.7375
576.80114	9135.8375
580.82422	9277.3375
584.84444	9524.0375
588.86181	9920.3375
592.87633	10325.9375
596.888	10438.0375
600.89682	10140.4375
604.9028	10073.7375
608.90594	10851.6375
612.90624	11919.4375
616.90371	11394.4375
620.89834	9454.9375
624.89015	8483.8375
628.87913	8306.4375
632.86528	8378.5375
636.84862	8429.8375
640.82913	8306.0375
644.80683	8095.2375
648.78172	7959.4375
652.75379	7939.5375
656.72306	8028.7375
660.68952	8178.1375
664.65319	8158.4375
668.61405	7989.9375
672.57211	7946.3375
676.52738	8032.3375
680.47986	8038.3375
684.42955	7996.5375
688.37646	7984.0375
692.32058	8043.0375
696.26192	8232.8375
700.20048	8440.3375
704.13626	8624.6375
708.06928	8686.9375
711.99952	8593.8375
715.927	8479.9375
719.85171	8398.7375
723.77365	8305.6375
727.69284	8194.3375
731.60928	8089.6375
735.52295	8057.4375
739.43388	8068.4375
743.34206	8071.3375
747.24749	8074.8375
751.15017	8096.3375
755.05012	8151.3375
758.94733	8371.2375
762.8418	8709.2375
766.73354	9340.2375
770.62254	10034.9375
774.50882	10291.2375
778.39237	10040.4375
782.27321	9345.3375
786.15132	8679.3375
790.02671	8232.7375
793.89938	7997.4375
797.76935	7903.2375
801.6366	7871.4375
805.50115	7836.3375
809.36299	7808.5375
813.22213	7773.4375
817.07857	7761.4375
820.93231	7740.4375
824.78336	7711.8375
828.63172	7691.9375
832.47738	7689.4375
836.32036	7689.9375
840.16066	7685.5375
843.99827	7669.1375
847.8332	7659.5375
851.66546	7624.3375
855.49504	7603.4375
859.32195	7598.2375
863.1462	7591.1375
866.96777	7574.1375
870.78668	7577.7375
874.60293	7555.6375
878.41652	7584.4375
882.22745	7612.6375
886.03573	7659.9375
889.84136	7646.7375
893.64433	7612.3375
897.44466	7559.1375
901.24235	7524.2375
905.0374	7489.1375
908.8298	7461.9375
912.61957	7466.1375
916.40671	7482.9375
920.19121	7558.6375
923.97308	7620.0375
927.75233	7686.4375
931.52895	7672.6375
935.30295	7568.3375
939.07433	7426.8375
942.84309	7292.5375
946.60924	7263.4375
950.37278	7201.5375
954.13371	7199.0375
957.89203	7197.5375
961.64774	7175.4375
965.40086	7172.0375
969.15137	7167.2375
972.89929	7143.9375
976.64461	7125.5375
980.38733	7135.6375
984.12747	7153.6375
987.86502	7182.9375
991.59999	7222.2375
995.33237	7306.1375
999.06217	7421.1375
1002.78939	7547.6375
1006.51404	7715.5375
1010.23611	7821.5375
1013.95561	7911.9375
1017.67255	7924.1375
1021.38692	7824.7375
1025.09872	7718.1375
1028.80796	7591.0375
1032.51465	7608.2375
1036.21877	7659.6375
1039.92035	7719.2375
1043.61937	7731.4375
1047.31584	7737.7375
1051.00976	7686.5375
1054.70114	7669.1375
1058.38998	7665.0375
1062.07627	7693.7375
1065.76003	7762.4375
1069.44126	7862.8375
1073.11995	7996.5375
1076.79611	8127.0375
1080.46974	8171.0375
1084.14085	8226.6375
1087.80943	8305.0375
1091.47549	8393.3375
1095.13903	8432.6375
1098.80005	8335.6375
1102.45857	8162.2375
1106.11456	7991.4375
1109.76805	7929.5375
1113.41903	7921.2375
1117.06751	7966.8375
1120.71348	8074.9375
1124.35696	8175.7375
1127.99793	8350.7375
1131.63641	8372.1375
1135.2724	8304.1375
1138.90589	8203.5375
1142.5369	8162.1375
1146.16542	8165.5375
1149.79145	8196.8375
1153.415	8214.8375
1157.03607	8270.8375
1160.65467	8384.3375
1164.27079	8656.3375
1167.88443	9037.3375
1171.49561	9564.3375
1175.10432	10221.5375
1178.71056	11078.4375
1182.31434	11853.2375
1185.91565	12141.9375
1189.51451	11952.5375
1193.11091	11564.1375
1196.70485	11055.0375
1200.29634	10608.2375
1203.88538	10293.1375
1207.47197	10057.5375
1211.05612	9875.9375
1214.63782	9703.0375
1218.21708	9556.2375
1221.79391	9461.6375
1225.36829	9399.3375
1228.94024	9394.4375
1232.50976	9288.3375
1236.07685	9195.6375
1239.6415	9151.7375
1243.20374	9181.5375
1246.76355	9292.5375
1250.32093	9472.0375
1253.8759	9682.6375
1257.42845	9995.0375
1260.97859	10272.5375
1264.52631	10522.8375
1268.07163	10768.0375
1271.61453	10980.2375
1275.15503	11153.8375
1278.69312	11324.4375
1282.22882	11528.5375
1285.76211	11860.7375
1289.29301	12289.1375
1292.82151	12760.3375
1296.34761	13282.0375
1299.87133	13859.2375
1303.39266	14515.8375
1306.9116	15206.0375
1310.42815	15944.0375
1313.94233	16409.1375
1317.45412	16369.8375
1320.96354	15872.6375
1324.47058	15391.6375
1327.97525	14961.8375
1331.47754	14390.0375
1334.97747	14086.4375
1338.47502	13871.2375
1341.97022	13656.3375
1345.46305	13503.7375
1348.95352	13564.0375
1352.44163	13932.4375
1355.92738	14626.4375
1359.41078	15649.7375
1362.89183	16647.4375
1366.37053	16646.9375
1369.84688	15409.1375
1373.32088	13648.8375
1376.79254	12405.2375
1380.26186	11938.1375
1383.72883	11950.9375
1387.19347	11973.3375
1390.65578	11750.4375
1394.11575	11446.7375
1397.57339	11269.7375
1401.0287	11265.1375
1404.48168	11251.1375
1407.93234	11185.6375
1411.38068	10975.7375
1414.82669	10696.1375
1418.27039	10380.6375
1421.71177	10072.8375
1425.15083	9804.1375
1428.58758	9672.4375
1432.02203	9726.1375
1435.45416	9928.8375
1438.88399	10121.8375
1442.31151	10263.3375
1445.73673	10476.1375
1449.15965	10625.5375
1452.58027	10466.8375
1455.9986	10391.2375
1459.41463	10385.5375
1462.82837	10502.3375
1466.23982	10700.2375
1469.64898	10914.0375
1473.05586	11064.4375
1476.46045	11146.7375
1479.86276	11176.5375
1483.26279	11174.1375
1486.66054	11197.4375
1490.05602	11339.4375
1493.44922	11520.3375
1496.84016	11763.4375
1500.22882	12086.7375
1503.61521	12594.5375
1506.99934	13175.9375
1510.38121	13630.7375
1513.76081	13796.4375
1517.13816	13461.4375
1520.51324	12771.1375
1523.88607	12088.5375
1527.25665	11637.5375
1530.62498	11436.6375
1533.99105	11288.5375
1537.35488	11097.7375
1540.71647	10871.0375
1544.07581	10564.2375
1547.4329	10295.6375
1550.78776	10076.9375
1554.14038	9938.2375
1557.49077	9888.2375
1560.83892	9932.0375
1564.18484	10034.6375
1567.52853	10155.0375
1570.86999	10305.7375
1574.20922	10475.2375
1577.54624	10580.3375
1580.88103	10539.4375
1584.2136	10477.9375
1587.54395	10605.9375
1590.87208	11021.0375
1594.19801	11666.2375
1597.52172	12311.6375
1600.84321	12588.3375
1604.16251	12150.5375
1607.47959	11236.3375
1610.79447	10236.6375
1614.10715	9365.2375
1617.41763	8783.2375
1620.7259	8453.6375
1624.03199	8314.2375
1627.33587	8409.2375
1630.63757	8665.0375
1633.93707	9201.5375
1637.23439	10023.6375
1640.52951	11292.4375
1643.82246	12905.7375
1647.11321	14465.2375
1650.40179	15206.4375
1653.68819	14706.4375
1656.97241	13152.6375
1660.25446	11435.7375
1663.53433	10131.6375
1666.81203	9226.4375
1670.08756	8538.5375
1673.36092	7999.5375
1676.63211	7634.4375
1679.90115	7365.4375
1683.16801	7209.0375
1686.43272	7163.9375
1689.69527	7268.6375
1692.95567	7593.9375
1696.2139	8229.0375
1699.46999	8866.5375
1702.72392	8933.9375
1705.97571	8348.4375
1709.22535	7583.1375
1712.47284	7077.1375
1715.71819	6797.8375
1718.96139	6622.2375
1722.20246	6516.3375
1725.44139	6460.9375
1728.67818	6418.1375
1731.91284	6386.5375
1735.14537	6359.4375
1738.37576	6375.9375
1741.60403	6398.2375
1744.83017	6464.7375
1748.05418	6547.5375
1751.27607	6750.7375
1754.49584	7076.6375
1757.71349	7512.0375
1760.92903	7694.9375
1764.14244	7679.1375
1767.35375	7606.5375
1770.56294	7622.5375
1773.77002	7418.3375
1776.97499	6987.3375
1780.17785	6578.1375
1783.37861	6344.5375
1786.57727	6162.4375
1789.77382	6061.3375
1792.96828	6015.4375
1796.16064	5968.3375
1799.3509	5928.9375
1802.53907	5893.0375
1805.72514	5865.2375
1808.90913	5834.6375
1812.09102	5829.6375
1815.27083	5812.3375
1818.44856	5787.3375
1821.6242	5766.7375
1824.79776	5756.4375
1827.96924	5739.8375
1831.13864	5726.6375
1834.30597	5716.0375
1837.47122	5707.5375
1840.6344	5697.7375
1843.7955	5696.0375
1846.95454	5702.0375
1850.11151	5678.8375
1853.26642	5679.5375
1856.41926	5680.9375
1859.57004	5671.4375
1862.71876	5641.9375
1865.86542	5660.0375
1869.01003	5636.2375
1872.15258	5646.3375
1875.29308	5640.5375
1878.43152	5632.8375
1881.56792	5620.4375
1884.70227	5604.6375
1887.83457	5598.1375
1890.96482	5594.8375
1894.09304	5585.4375
1897.21921	5601.8375
1900.34335	5585.7375
1903.46544	5580.4375
1906.58551	5573.7375
1909.70353	5564.2375
1912.81953	5538.7375
1915.93349	5521.4375
1919.04543	5527.0375
1922.15534	5507.9375
1925.26322	5495.5375
1928.36908	5478.0375
1931.47292	5476.2375
1934.57473	5452.2375
1937.67453	5456.3375
1940.77232	5420.1375
1943.86808	5415.7375
1946.96184	5424.1375
1950.05358	5376.6375
1953.14331	5370.8375
1956.23103	5366.3375
1959.31675	5340.4375
1962.40046	5328.5375
1965.48217	5313.4375
1968.56188	5289.6375
1971.63959	5273.0375
1974.7153	5264.3375
1977.78901	5242.5375
1980.86073	5225.6375
1983.93046	5217.9375
1986.99819	5192.6375
1990.06394	5160.2375
1993.1277	5154.2375
1996.18947	5131.0375
1999.24925	5123.5375
2002.30706	5107.5375
2005.36288	5099.9375
2008.41672	5086.1375
2011.46859	5069.5375
2014.51848	5039.3375
2017.56639	5042.1375
2020.61233	5016.7375
2023.6563	4991.2375
2026.6983	4988.1375
2029.73833	4994.3375
2032.7764	4968.4375
2035.8125	4960.2375
2038.84664	4962.5375
2041.87881	4940.1375
2044.90903	4932.2375
2047.93729	4915.1375
2050.96359	4932.6375
2053.98794	4968.0375
2057.01034	4937.2375
2060.03078	4908.9375
2063.04927	4898.5375
2066.06582	4902.1375
2069.08042	4878.2375
2072.09307	4880.4375
2075.10378	4885.5375
2078.11255	4886.6375
2081.11938	4879.0375
2084.12426	4873.5375
2087.12722	4875.5375
2090.12824	4854.3375
2093.12732	4862.0375
2096.12447	4854.1375
2099.11969	4852.5375
2102.11299	4860.4375
2105.10435	4855.6375
2108.09379	4865.0375
2111.08131	4877.6375
2114.0669	4872.9375
2117.05057	4851.4375
2120.03233	4885.2375
2123.01216	4865.1375
2125.99008	4866.6375
2128.96609	4873.8375
2131.94018	4886.7375
2134.91236	4880.4375
2137.88263	4872.5375
2140.851	4871.4375
2143.81746	4876.0375
2146.78201	4877.7375
2149.74466	4889.8375
2152.7054	4864.6375
2155.66425	4865.1375
2158.6212	4853.3375
2161.57625	4867.2375
2164.52941	4852.9375
2167.48067	4850.4375
2170.43004	4844.7375
2173.37752	4854.1375
2176.32311	4853.6375
2179.26681	4843.7375
2182.20863	4833.9375
2185.14856	4835.9375
2188.08661	4840.4375
2191.02278	4834.8375
2193.95707	4824.3375
2196.88948	4819.1375
2199.82001	4832.0375
2202.74867	4817.8375
2205.67545	4810.0375
2208.60037	4808.1375
2211.52341	4814.7375
2214.44458	4793.1375
2217.36388	4767.6375
2220.28132	4779.6375
2223.1969	4744.6375
2226.11061	4757.1375
2229.02246	4753.9375
2231.93245	4745.1375
2234.84058	4730.4375
2237.74686	4729.2375
2240.65128	4717.8375
2243.55385	4695.7375
2246.45456	4708.6375
2249.35343	4701.1375
2252.25044	4689.8375
2255.14561	4698.0375
2258.03893	4782.3375
2260.93041	4952.5375
2263.82004	4802.7375
2266.70783	4721.1375
2269.59378	4666.7375
2272.4779	4632.0375
2275.36017	4597.9375
2278.24061	4617.0375
2281.11922	4603.2375
2283.996	4576.2375
2286.87094	4560.3375
2289.74405	4570.8375
2292.61534	4564.2375
2295.4848	4564.2375
2298.35243	4560.9375
2301.21824	4546.8375
2304.08223	4561.4375
2306.94439	4553.9375
2309.80474	4537.3375
2312.66327	4539.7375
2315.51999	4533.6375
2318.37489	4543.1375
2321.22797	4537.2375
2324.07925	4535.4375
2326.92871	4526.8375
2329.77637	4547.7375
2332.62222	4529.4375
2335.46626	4521.4375
2338.3085	4527.7375
2341.14893	4527.5375
2343.98756	4540.5375
2346.8244	4511.2375
2349.65943	4514.1375
2352.49267	4504.6375
2355.32411	4490.2375
2358.15376	4484.8375
2360.98161	4484.5375
2363.80768	4470.9375
2366.63195	4462.9375
2369.45444	4451.3375
2372.27514	4465.2375
2375.09405	4422.3375
2377.91118	4438.6375
2380.72652	4433.0375
2383.54009	4426.9375
2386.35187	4407.8375
2389.16188	4386.6375
2391.97011	4366.3375
2394.77657	4378.4375
2397.58125	4381.9375
2400.38416	4365.0375
2403.18529	4342.8375
2405.98466	4361.7375
2408.78226	4353.5375
2411.57809	4354.0375
2414.37216	4347.2375
2417.16446	4341.3375
2419.955	4319.9375
2422.74378	4319.0375
2425.5308	4316.9375
2428.31606	4287.2375
2431.09956	4296.9375
2433.88131	4289.5375
2436.6613	4284.1375
2439.43954	4271.7375
2442.21603	4283.3375
2444.99077	4265.5375
2447.76377	4275.5375
2450.53501	4282.2375
2453.30451	4263.6375
2456.07226	4273.2375
2458.83827	4274.6375
2461.60254	4270.4375
2464.36507	4259.1375
2467.12586	4261.2375
2469.88492	4243.9375
2472.64224	4284.3375
2475.39782	4392.6375
2478.15167	4464.5375
2480.90379	4328.6375
2483.65417	4307.9375
2486.40283	4289.2375
2489.14976	4267.9375
2491.89497	4281.6375
2494.63845	4432.9375
2497.3802	4498.1375
2500.12024	4351.3375
2502.85855	4296.7375
2505.59514	4277.0375
2508.33002	4247.9375
2511.06318	4230.3375
2513.79462	4212.2375
2516.52435	4204.8375
2519.25237	4206.0375
2521.97867	4188.9375
2524.70327	4189.7375
2527.42616	4193.3375
2530.14734	4161.3375
2532.86681	4157.9375
2535.58458	4167.4375
2538.30065	4153.5375
2541.01501	4153.9375
2543.72768	4141.4375
2546.43864	4135.7375
2549.14791	4148.5375
2551.85548	4123.0375
2554.56136	4126.5375
2557.26554	4122.9375
2559.96803	4126.8375
2562.66883	4107.2375
2565.36794	4115.4375
2568.06536	4116.7375
2570.7611	4093.1375
2573.45514	4087.2375
2576.14751	4103.7375
2578.83819	4073.4375
2581.52719	4077.1375
2584.21451	4078.3375
2586.90015	4063.1375
2589.58411	4060.1375
2592.2664	4056.3375
2594.94701	4053.3375
2597.62594	4057.8375
2600.30321	4031.6375
2602.9788	4030.0375
2605.65273	4024.5375
2608.32498	4036.6375
2610.99557	4026.9375
2613.66449	4015.0375
2616.33175	4003.1375
2618.99734	4021.7375
2621.66128	3997.3375
2624.32355	4014.8375
2626.98416	3989.1375
2629.64311	3998.3375
2632.30041	3982.5375
2634.95605	4001.1375
2637.61004	3985.8375
2640.26238	3955.7375
2642.91306	3967.9375
2645.56209	3982.4375
2648.20948	4027.5375
2650.85521	3999.9375
2653.4993	3970.5375
2656.14175	3958.6375
2658.78255	3962.0375
2661.42171	3947.8375
2664.05923	3961.1375
2666.6951	3961.7375
2669.32934	3957.0375
2671.96194	3959.8375
2674.59291	3969.1375
2677.22224	3966.5375
2679.84993	3955.0375
2682.476	3938.4375
2685.10043	3937.6375
2687.72324	3956.3375
2690.34441	3951.5375
2692.96396	3948.6375
2695.58188	3947.5375
2698.19818	3942.5375
2700.81285	3985.0375
2703.4259	4294.2375
2706.03733	5086.8375
2708.64714	4609.1375
2711.25533	4275.2375
2713.86191	4161.0375
2716.46687	4123.6375
2719.07021	4051.0375
2721.67194	3993.5375
2724.27206	3955.2375
2726.87057	3964.7375
2729.46747	3954.9375
2732.06276	3968.0375
2734.65644	3952.6375
2737.24852	3948.4375
2739.83899	3938.9375
2742.42786	3940.5375
2745.01513	3944.2375
2747.60079	3930.0375
2750.18486	3924.1375
2752.76733	3929.0375
2755.3482	3916.1375
2757.92747	3921.6375
2760.50515	3901.4375
2763.08123	3933.4375
2765.65573	3906.6375
2768.22863	3909.5375
2770.79994	3892.5375
2773.36967	3913.6375
2775.9378	3904.6375
2778.50435	3890.1375
2781.06932	3890.9375
2783.6327	3885.5375
2786.1945	3895.7375
2788.75471	3871.1375
2791.31335	3883.4375
2793.87041	3868.1375
2796.42589	3847.2375
2798.97979	3842.7375
2801.53212	3840.5375
2804.08288	3833.9375
2806.63206	3847.3375
2809.17967	3822.6375
2811.72571	3839.8375
2814.27018	3812.1375
2816.81308	3812.4375
2819.35442	3811.1375
2821.89419	3800.3375
2824.43239	3803.1375
2826.96904	3803.2375
2829.50412	3792.0375
2832.03763	3783.7375
2834.56959	3807.0375
2837.1	3797.4375
2839.62884	3784.7375
2842.15613	3788.7375
2844.68186	3799.0375
2847.20604	3788.9375
2849.72867	3810.8375
2852.24974	3826.4375
2854.76927	3952.4375
2857.28724	4155.3375
2859.80367	3990.9375
2862.31855	3894.1375
2864.83189	3877.4375
2867.34368	3846.1375
2869.85393	3829.6375
2872.36264	3790.0375
2874.8698	3768.8375
2877.37543	3771.8375
2879.87952	3769.7375
2882.38207	3761.0375
2884.88308	3759.4375
2887.38256	3758.3375
2889.88051	3759.9375
2892.37692	3771.5375
2894.8718	3737.4375
2897.36515	3762.9375
2899.85698	3761.5375
2902.34727	3771.3375
2904.83604	3767.3375
2907.32328	3778.3375
2909.809	3762.5375
2912.29319	3775.7375
2914.77587	3782.7375
2917.25702	3784.2375
2919.73665	3774.9375
2922.21476	3770.5375
2924.69136	3764.5375
2927.16644	3766.2375
2929.64	3768.0375
2932.11205	3749.3375
2934.58258	3744.3375
2937.05161	3759.0375
2939.51912	3737.2375
2941.98513	3728.2375
2944.44962	3731.6375
2946.91261	3719.0375
2949.37409	3730.2375
2951.83407	3728.6375
2954.29254	3707.6375
2956.74951	3693.2375
2959.20498	3693.4375
2961.65895	3675.6375
2964.11142	3674.1375
2966.56239	3658.9375
2969.01186	3658.6375
2971.45984	3645.1375
2973.90632	3644.7375
2976.35131	3628.6375
2978.7948	3620.3375
2981.23681	3612.0375
2983.67732	3605.6375
2986.11635	3592.0375
2988.55388	3584.2375
2990.98993	3560.7375
2993.4245	3562.6375
2995.85758	3559.4375
2998.28917	3552.5375
3000.71928	3556.8375
3003.14791	3546.4375
3005.57506	3552.2375
3008.00073	3531.6375
3010.42493	3535.8375
3012.84764	3529.0375
3015.26888	3517.3375
3017.68865	3517.4375
3020.10694	3496.8375
3022.52376	3503.2375
3024.9391	3499.0375
3027.35298	3485.8375
3029.76539	3477.1375
3032.17632	3473.4375
3034.5858	3467.1375
3036.9938	3452.2375
3039.40034	3445.2375
3041.80542	3447.1375
3044.20903	3445.4375
3046.61118	3432.4375
3049.01187	3429.5375
3051.4111	3423.7375
3053.80888	3423.7375
3056.20519	3400.4375
3058.60005	3417.3375
3060.99345	3401.7375
3063.3854	3389.9375
3065.7759	3385.0375
3068.16494	3378.3375
3070.55254	3389.8375
3072.93868	3361.6375
3075.32338	3364.9375
3077.70662	3354.1375
3080.08842	3340.7375
3082.46878	3351.3375
3084.84769	3327.7375
3087.22515	3329.0375
3089.60118	3323.0375
3091.97576	3327.2375
3094.3489	3337.4375
3096.72061	3336.8375
3099.09087	3320.3375
3101.4597	3303.2375
3103.82709	3330.8375
3106.19305	3300.8375
3108.55757	3308.4375
3110.92066	3292.3375
