Data from AgNPs_FTO_APTES_UA_5um_CRN_0.1mM_R6G_10uM_NaF_0.1M_Addition_RamanShift__14__13-13-19-096.txt Node

Date: Tue Dec 21 13:13:19 GMT 2021
User: TCL
Spectrometer: QEP01345
Trigger mode: 4
Integration Time (sec): 7.000000E0
Scans to average: 10
Electric dark correction enabled: true
Nonlinearity correction enabled: false
Boxcar width: 0
XAxis mode: Raman Shifts
Number of Pixels in Spectrum: 1044
>>>>>Begin Spectral Data<<<<<
46.04893	0.5625
50.45542	-0.7375
54.85868	-0.8375
59.25871	0.6625
63.6555	43.5625
68.04907	48.6625
72.43941	50.9625
76.82654	50.4625
81.21044	56.8625
85.59113	55.9625
89.96862	58.0625
94.34289	58.2625
98.71396	59.4625
103.08183	66.2625
107.4465	68.1625
111.80798	68.7625
116.16626	65.7625
120.52136	70.4625
124.87327	70.0625
129.222	73.8625
133.56755	80.1625
137.90993	88.0625
142.24913	91.7625
146.58517	105.1625
150.91804	117.9625
155.24774	143.6625
159.57429	173.3625
163.89768	225.7625
168.21792	295.8625
172.53501	400.8625
176.84895	557.2625
181.15975	781.7625
185.46741	1094.7625
189.77193	1518.3625
194.07331	2032.7625
198.37157	2635.6625
202.6667	3274.2625
206.9587	3917.3625
211.24758	4563.2625
215.53334	5207.4625
219.81599	5870.5625
224.09553	6578.0625
228.37195	7392.1625
232.64527	8261.9625
236.91549	9194.6625
241.18261	10093.7625
245.44663	10968.0625
249.70755	11688.9625
253.96539	12303.6625
258.22014	12822.6625
262.4718	13213.8625
266.72039	13478.6625
270.96589	13583.8625
275.20832	13571.8625
279.44768	13500.9625
283.68397	13391.0625
287.91719	13284.5625
292.14735	13210.9625
296.37445	13181.2625
300.59849	13254.9625
304.81948	13337.2625
309.03742	13340.7625
313.25231	13214.0625
317.46415	12917.7625
321.67296	12516.7625
325.87872	12147.9625
330.08145	11910.8625
334.28114	11875.0625
338.47781	11922.8625
342.67145	12105.5625
346.86207	12314.0625
351.04966	12520.9625
355.23424	12783.5625
359.4158	13000.6625
363.59435	13124.9625
367.76989	13211.1625
371.94243	13269.2625
376.11196	13270.8625
380.27849	13334.8625
384.44203	13376.4625
388.60257	13472.0625
392.76012	13591.3625
396.91468	13789.4625
401.06626	14009.6625
405.21485	14209.1625
409.36047	14139.3625
413.50311	13911.2625
417.64277	13639.8625
421.77947	13536.2625
425.9132	13476.8625
430.04396	13539.8625
434.17176	13568.1625
438.2966	13650.9625
442.41849	13788.5625
446.53742	14024.0625
450.6534	14314.6625
454.76644	14538.3625
458.87653	14649.1625
462.98368	14653.6625
467.08789	14605.7625
471.18916	14530.9625
475.2875	14420.3625
479.38291	14357.9625
483.4754	14295.4625
487.56496	14172.8625
491.6516	14053.9625
495.73531	13898.0625
499.81612	13886.7625
503.89401	13896.0625
507.96899	13932.6625
512.04106	13918.3625
516.11023	13809.0625
520.1765	13706.1625
524.23987	13607.6625
528.30034	13498.3625
532.35792	13429.3625
536.41261	13304.0625
540.46441	13211.7625
544.51333	13166.3625
548.55936	13258.3625
552.60252	13466.1625
556.64279	13714.2625
560.6802	13851.6625
564.71473	13952.7625
568.7464	14165.7625
572.7752	14553.1625
576.80114	14825.1625
580.82422	15140.4625
584.84444	15391.0625
588.86181	15593.0625
592.87633	15542.1625
596.888	15437.9625
600.89682	15319.5625
604.9028	15680.6625
608.90594	17071.3625
612.90624	18597.9625
616.90371	17647.1625
620.89834	14709.5625
624.89015	13273.0625
628.87913	13107.8625
632.86528	13286.4625
636.84862	13477.5625
640.82913	13380.5625
644.80683	13065.0625
648.78172	12800.3625
652.75379	12706.4625
656.72306	12829.4625
660.68952	13034.5625
664.65319	13045.1625
668.61405	12907.3625
672.57211	12916.9625
676.52738	13023.0625
680.47986	13104.9625
684.42955	13035.0625
688.37646	12885.9625
692.32058	12789.4625
696.26192	12811.4625
700.20048	12886.6625
704.13626	12984.6625
708.06928	12998.8625
711.99952	12973.0625
715.927	12907.5625
719.85171	12858.8625
723.77365	12840.3625
727.69284	12770.7625
731.60928	12643.4625
735.52295	12580.3625
739.43388	12551.1625
743.34206	12535.8625
747.24749	12595.9625
751.15017	12631.5625
755.05012	12801.4625
758.94733	13125.4625
762.8418	13803.7625
766.73354	14952.4625
770.62254	16142.4625
774.50882	16555.9625
778.39237	15887.9625
782.27321	14728.9625
786.15132	13661.6625
790.02671	12922.7625
793.89938	12502.1625
797.76935	12353.6625
801.6366	12275.0625
805.50115	12242.2625
809.36299	12152.8625
813.22213	12066.4625
817.07857	12004.4625
820.93231	11962.9625
824.78336	11913.7625
828.63172	11895.8625
832.47738	11843.5625
836.32036	11820.9625
840.16066	11768.9625
843.99827	11742.1625
847.8332	11725.0625
851.66546	11727.7625
855.49504	11715.1625
859.32195	11745.4625
863.1462	11728.4625
866.96777	11712.5625
870.78668	11721.9625
874.60293	11729.5625
878.41652	11748.6625
882.22745	11760.6625
886.03573	11779.8625
889.84136	11815.0625
893.64433	11807.1625
897.44466	11749.4625
901.24235	11700.6625
905.0374	11599.3625
908.8298	11561.9625
912.61957	11516.7625
916.40671	11586.9625
920.19121	11714.6625
923.97308	11837.8625
927.75233	11855.4625
931.52895	11781.7625
935.30295	11674.5625
939.07433	11461.5625
942.84309	11275.2625
946.60924	11147.1625
950.37278	11111.3625
954.13371	11022.6625
957.89203	11008.4625
961.64774	10996.1625
965.40086	10972.6625
969.15137	10955.4625
972.89929	10884.6625
976.64461	10841.8625
980.38733	10796.4625
984.12747	10821.1625
987.86502	10837.0625
991.59999	10888.4625
995.33237	10943.5625
999.06217	11110.8625
1002.78939	11254.3625
1006.51404	11434.9625
1010.23611	11600.9625
1013.95561	11730.9625
1017.67255	11799.2625
1021.38692	11717.4625
1025.09872	11552.3625
1028.80796	11419.7625
1032.51465	11392.1625
1036.21877	11425.5625
1039.92035	11503.3625
1043.61937	11595.7625
1047.31584	11595.7625
1051.00976	11620.5625
1054.70114	11691.1625
1058.38998	11721.9625
1062.07627	11806.9625
1065.76003	11935.9625
1069.44126	12091.7625
1073.11995	12308.1625
1076.79611	12485.3625
1080.46974	12540.5625
1084.14085	12535.9625
1087.80943	12636.9625
1091.47549	12732.9625
1095.13903	12829.4625
1098.80005	12712.1625
1102.45857	12430.4625
1106.11456	12134.5625
1109.76805	11934.2625
1113.41903	11885.4625
1117.06751	11935.8625
1120.71348	12113.0625
1124.35696	12319.1625
1127.99793	12529.5625
1131.63641	12665.4625
1135.2724	12601.5625
1138.90589	12466.0625
1142.5369	12405.4625
1146.16542	12350.3625
1149.79145	12355.3625
1153.415	12422.1625
1157.03607	12535.0625
1160.65467	12774.3625
1164.27079	13226.3625
1167.88443	13838.0625
1171.49561	14591.4625
1175.10432	15623.6625
1178.71056	16873.0625
1182.31434	18046.8625
1185.91565	18654.3625
1189.51451	18793.6625
1193.11091	18405.3625
1196.70485	17738.1625
1200.29634	16927.0625
1203.88538	16195.5625
1207.47197	15622.8625
1211.05612	15173.7625
1214.63782	14807.3625
1218.21708	14470.0625
1221.79391	14207.4625
1225.36829	14012.0625
1228.94024	13884.6625
1232.50976	13754.9625
1236.07685	13635.5625
1239.6415	13587.9625
1243.20374	13580.0625
1246.76355	13619.4625
1250.32093	13736.9625
1253.8759	14001.7625
1257.42845	14339.9625
1260.97859	14746.5625
1264.52631	15190.0625
1268.07163	15575.2625
1271.61453	15962.0625
1275.15503	16354.5625
1278.69312	16740.4625
1282.22882	17160.2625
1285.76211	17631.1625
1289.29301	18174.3625
1292.82151	18839.4625
1296.34761	19519.8625
1299.87133	20374.5625
1303.39266	21295.8625
1306.9116	22270.4625
1310.42815	23213.7625
1313.94233	23830.3625
1317.45412	23822.2625
1320.96354	23501.9625
1324.47058	23142.3625
1327.97525	22846.8625
1331.47754	22592.4625
1334.97747	22438.2625
1338.47502	22373.5625
1341.97022	22361.6625
1345.46305	22384.4625
1348.95352	22443.3625
1352.44163	22551.1625
1355.92738	22862.7625
1359.41078	23585.2625
1362.89183	24337.2625
1366.37053	24113.6625
1369.84688	22407.0625
1373.32088	20204.5625
1376.79254	18518.4625
1380.26186	17678.1625
1383.72883	17275.5625
1387.19347	17020.6625
1390.65578	16776.0625
1394.11575	16628.0625
1397.57339	16575.6625
1401.0287	16621.4625
1404.48168	16708.9625
1407.93234	16661.9625
1411.38068	16401.3625
1414.82669	15989.8625
1418.27039	15502.3625
1421.71177	14974.6625
1425.15083	14539.9625
1428.58758	14271.1625
1432.02203	14240.6625
1435.45416	14438.9625
1438.88399	14704.3625
1442.31151	14926.7625
1445.73673	15183.2625
1449.15965	15438.9625
1452.58027	15629.9625
1455.9986	15797.1625
1459.41463	15989.9625
1462.82837	16241.9625
1466.23982	16499.5625
1469.64898	16723.8625
1473.05586	16918.2625
1476.46045	16935.4625
1479.86276	16910.2625
1483.26279	16934.4625
1486.66054	17030.1625
1490.05602	17267.0625
1493.44922	17655.4625
1496.84016	18207.6625
1500.22882	19032.6625
1503.61521	20125.1625
1506.99934	21299.6625
1510.38121	22147.2625
1513.76081	22275.5625
1517.13816	21525.5625
1520.51324	20321.1625
1523.88607	19137.4625
1527.25665	18365.7625
1530.62498	17925.6625
1533.99105	17579.9625
1537.35488	17260.3625
1540.71647	16888.1625
1544.07581	16452.5625
1547.4329	16000.5625
1550.78776	15692.0625
1554.14038	15505.1625
1557.49077	15471.8625
1560.83892	15572.3625
1564.18484	15762.9625
1567.52853	15965.1625
1570.86999	16146.5625
1574.20922	16391.1625
1577.54624	16513.2625
1580.88103	16309.9625
1584.2136	16036.2625
1587.54395	15968.5625
1590.87208	16219.0625
1594.19801	16845.8625
1597.52172	17585.4625
1600.84321	17862.8625
1604.16251	17349.8625
1607.47959	16383.7625
1610.79447	15317.4625
1614.10715	14273.3625
1617.41763	13361.2625
1620.7259	12670.9625
1624.03199	12233.9625
1627.33587	12133.4625
1630.63757	12300.0625
1633.93707	12828.4625
1637.23439	13772.8625
1640.52951	15220.5625
1643.82246	17108.1625
1647.11321	18939.4625
1650.40179	19967.4625
1653.68819	19548.8625
1656.97241	17724.9625
1660.25446	15423.7625
1663.53433	13458.1625
1666.81203	12109.6625
1670.08756	11196.7625
1673.36092	10651.9625
1676.63211	10315.6625
1679.90115	10039.5625
1683.16801	9869.4625
1686.43272	9716.0625
1689.69527	9604.3625
1692.95567	9538.0625
1696.2139	9484.9625
1699.46999	9462.0625
1702.72392	9428.0625
1705.97571	9372.0625
1709.22535	9331.7625
1712.47284	9294.0625
1715.71819	9256.4625
1718.96139	9241.4625
1722.20246	9209.6625
1725.44139	9169.8625
1728.67818	9101.4625
1731.91284	9036.4625
1735.14537	9002.6625
1738.37576	8962.9625
1741.60403	8933.0625
1744.83017	8933.0625
1748.05418	8913.8625
1751.27607	8919.1625
1754.49584	8942.4625
1757.71349	8954.7625
1760.92903	8947.5625
1764.14244	8915.2625
1767.35375	8863.0625
1770.56294	8806.6625
1773.77002	8748.7625
1776.97499	8710.3625
1780.17785	8652.7625
1783.37861	8625.3625
1786.57727	8572.3625
1789.77382	8546.7625
1792.96828	8525.7625
1796.16064	8502.2625
1799.3509	8467.0625
1802.53907	8438.4625
1805.72514	8404.5625
1808.90913	8412.0625
1812.09102	8357.4625
1815.27083	8338.9625
1818.44856	8323.4625
1821.6242	8289.8625
1824.79776	8305.4625
1827.96924	8270.3625
1831.13864	8266.5625
1834.30597	8243.7625
1837.47122	8245.0625
1840.6344	8231.4625
1843.7955	8205.6625
1846.95454	8222.3625
1850.11151	8223.3625
1853.26642	8227.2625
1856.41926	8209.9625
1859.57004	8202.7625
1862.71876	8182.6625
1865.86542	8179.6625
1869.01003	8150.3625
1872.15258	8145.0625
1875.29308	8143.7625
1878.43152	8126.9625
1881.56792	8107.3625
1884.70227	8079.7625
1887.83457	8062.1625
1890.96482	8048.4625
1894.09304	8044.1625
1897.21921	8021.4625
1900.34335	8005.2625
1903.46544	7998.0625
1906.58551	7999.7625
1909.70353	7963.9625
1912.81953	7935.1625
1915.93349	7909.9625
1919.04543	7922.2625
1922.15534	7902.7625
1925.26322	7869.9625
1928.36908	7861.4625
1931.47292	7845.7625
1934.57473	7816.3625
1937.67453	7788.9625
1940.77232	7763.3625
1943.86808	7748.1625
1946.96184	7736.9625
1950.05358	7707.4625
1953.14331	7671.1625
1956.23103	7630.4625
1959.31675	7636.6625
1962.40046	7606.4625
1965.48217	7573.4625
1968.56188	7550.4625
1971.63959	7515.1625
1974.7153	7503.0625
1977.78901	7475.0625
1980.86073	7431.2625
1983.93046	7425.0625
1986.99819	7383.9625
1990.06394	7344.5625
1993.1277	7351.8625
1996.18947	7322.2625
1999.24925	7299.6625
2002.30706	7278.8625
2005.36288	7245.8625
2008.41672	7235.5625
2011.46859	7197.2625
2014.51848	7182.1625
2017.56639	7151.2625
2020.61233	7142.7625
2023.6563	7129.4625
2026.6983	7114.4625
2029.73833	7096.9625
2032.7764	7046.3625
2035.8125	7043.2625
2038.84664	7034.0625
2041.87881	7009.3625
2044.90903	7009.6625
2047.93729	6995.9625
2050.96359	6984.8625
2053.98794	6961.4625
2057.01034	6950.0625
2060.03078	6947.7625
2063.04927	6903.6625
2066.06582	6909.1625
2069.08042	6910.9625
2072.09307	6910.4625
2075.10378	6894.8625
2078.11255	6907.2625
2081.11938	6914.7625
2084.12426	6877.0625
2087.12722	6897.1625
2090.12824	6876.3625
2093.12732	6860.9625
2096.12447	6873.3625
2099.11969	6861.8625
2102.11299	6866.9625
2105.10435	6860.5625
2108.09379	6868.9625
2111.08131	6864.3625
2114.0669	6875.3625
2117.05057	6867.9625
2120.03233	6890.8625
2123.01216	6862.3625
2125.99008	6862.8625
2128.96609	6875.7625
2131.94018	6875.8625
2134.91236	6865.0625
2137.88263	6872.5625
2140.851	6877.5625
2143.81746	6847.8625
2146.78201	6874.7625
2149.74466	6857.8625
2152.7054	6868.3625
2155.66425	6855.4625
2158.6212	6847.4625
2161.57625	6838.5625
2164.52941	6848.5625
2167.48067	6821.9625
2170.43004	6839.1625
2173.37752	6838.8625
2176.32311	6815.5625
2179.26681	6806.6625
2182.20863	6813.5625
2185.14856	6810.8625
2188.08661	6814.9625
2191.02278	6808.8625
2193.95707	6767.8625
2196.88948	6785.5625
2199.82001	6785.4625
2202.74867	6753.7625
2205.67545	6770.6625
2208.60037	6716.3625
2211.52341	6729.1625
2214.44458	6738.3625
2217.36388	6703.5625
2220.28132	6671.8625
2223.1969	6682.0625
2226.11061	6649.5625
2229.02246	6636.7625
2231.93245	6656.4625
2234.84058	6621.6625
2237.74686	6615.3625
2240.65128	6610.5625
2243.55385	6580.5625
2246.45456	6588.7625
2249.35343	6557.8625
2252.25044	6550.1625
2255.14561	6537.4625
2258.03893	6522.1625
2260.93041	6527.5625
2263.82004	6521.5625
2266.70783	6491.1625
2269.59378	6476.3625
2272.4779	6448.2625
2275.36017	6422.1625
2278.24061	6411.9625
2281.11922	6400.1625
2283.996	6378.3625
2286.87094	6391.8625
2289.74405	6351.6625
2292.61534	6347.2625
2295.4848	6341.8625
2298.35243	6327.0625
2301.21824	6322.6625
2304.08223	6305.9625
2306.94439	6312.0625
2309.80474	6291.4625
2312.66327	6292.2625
2315.51999	6283.4625
2318.37489	6278.8625
2321.22797	6272.5625
2324.07925	6243.5625
2326.92871	6235.1625
2329.77637	6254.0625
2332.62222	6227.2625
2335.46626	6223.1625
2338.3085	6207.9625
2341.14893	6198.4625
2343.98756	6196.8625
2346.8244	6207.4625
2349.65943	6198.7625
2352.49267	6204.2625
2355.32411	6189.8625
2358.15376	6194.2625
2360.98161	6174.1625
2363.80768	6188.8625
2366.63195	6191.3625
2369.45444	6172.7625
2372.27514	6164.4625
2375.09405	6146.1625
2377.91118	6130.2625
2380.72652	6132.5625
2383.54009	6110.0625
2386.35187	6098.8625
2389.16188	6063.7625
2391.97011	6043.8625
2394.77657	6043.1625
2397.58125	6034.1625
2400.38416	6019.7625
2403.18529	6007.6625
2405.98466	6007.6625
2408.78226	5985.5625
2411.57809	5969.2625
2414.37216	5953.4625
2417.16446	5957.6625
2419.955	5942.4625
2422.74378	5955.0625
2425.5308	5939.4625
2428.31606	5959.3625
2431.09956	5925.2625
2433.88131	5912.2625
2436.6613	5917.4625
2439.43954	5899.7625
2442.21603	5886.4625
2444.99077	5880.4625
2447.76377	5895.3625
2450.53501	5890.8625
2453.30451	5892.7625
2456.07226	5892.6625
2458.83827	5866.8625
2461.60254	5862.0625
2464.36507	5880.2625
2467.12586	5861.8625
2469.88492	5846.2625
2472.64224	5848.4625
2475.39782	5844.0625
2478.15167	5873.5625
2480.90379	5851.2625
2483.65417	5862.7625
2486.40283	5843.1625
2489.14976	5825.4625
2491.89497	5813.0625
2494.63845	5835.6625
2497.3802	5832.1625
2500.12024	5838.6625
2502.85855	5815.3625
2505.59514	5793.4625
2508.33002	5782.6625
2511.06318	5775.0625
2513.79462	5799.0625
2516.52435	5774.6625
2519.25237	5762.1625
2521.97867	5722.6625
2524.70327	5747.4625
2527.42616	5726.4625
2530.14734	5746.4625
2532.86681	5696.7625
2535.58458	5711.6625
2538.30065	5691.5625
2541.01501	5683.4625
2543.72768	5679.7625
2546.43864	5676.0625
2549.14791	5644.6625
2551.85548	5646.4625
2554.56136	5642.6625
2557.26554	5627.6625
2559.96803	5615.6625
2562.66883	5612.5625
2565.36794	5624.6625
2568.06536	5616.5625
2570.7611	5610.2625
2573.45514	5605.8625
2576.14751	5580.3625
2578.83819	5588.0625
2581.52719	5580.2625
2584.21451	5544.4625
2586.90015	5540.3625
2589.58411	5537.2625
2592.2664	5524.0625
2594.94701	5527.4625
2597.62594	5514.8625
2600.30321	5501.4625
2602.9788	5485.7625
2605.65273	5477.8625
2608.32498	5490.8625
2610.99557	5478.7625
2613.66449	5454.5625
2616.33175	5449.9625
2618.99734	5461.3625
2621.66128	5454.8625
2624.32355	5421.8625
2626.98416	5441.9625
2629.64311	5427.7625
2632.30041	5416.1625
2634.95605	5420.8625
2637.61004	5415.6625
2640.26238	5407.4625
2642.91306	5397.3625
2645.56209	5391.9625
2648.20948	5392.0625
2650.85521	5394.2625
2653.4993	5388.7625
2656.14175	5395.7625
2658.78255	5375.2625
2661.42171	5361.8625
2664.05923	5404.4625
2666.6951	5368.6625
2669.32934	5388.5625
2671.96194	5388.8625
2674.59291	5392.2625
2677.22224	5389.0625
2679.84993	5351.0625
2682.476	5371.4625
2685.10043	5368.9625
2687.72324	5351.0625
2690.34441	5355.9625
2692.96396	5350.8625
2695.58188	5359.0625
2698.19818	5336.7625
2700.81285	5350.4625
2703.4259	5381.4625
2706.03733	5420.4625
2708.64714	5383.0625
2711.25533	5376.9625
2713.86191	5359.8625
2716.46687	5369.3625
2719.07021	5362.3625
2721.67194	5360.2625
2724.27206	5356.8625
2726.87057	5357.7625
2729.46747	5349.7625
2732.06276	5362.5625
2734.65644	5346.9625
2737.24852	5342.0625
2739.83899	5317.1625
2742.42786	5341.7625
2745.01513	5333.0625
2747.60079	5328.8625
2750.18486	5313.5625
2752.76733	5301.6625
2755.3482	5300.1625
2757.92747	5300.9625
2760.50515	5292.9625
2763.08123	5293.8625
2765.65573	5283.3625
2768.22863	5281.0625
2770.79994	5262.6625
2773.36967	5266.3625
2775.9378	5259.8625
2778.50435	5256.2625
2781.06932	5259.7625
2783.6327	5259.9625
2786.1945	5241.7625
2788.75471	5239.6625
2791.31335	5226.3625
2793.87041	5205.7625
2796.42589	5183.5625
2798.97979	5197.7625
2801.53212	5186.3625
2804.08288	5177.8625
2806.63206	5190.4625
2809.17967	5161.0625
2811.72571	5148.0625
2814.27018	5159.8625
2816.81308	5159.9625
2819.35442	5140.2625
2821.89419	5142.0625
2824.43239	5138.3625
2826.96904	5136.0625
2829.50412	5140.7625
2832.03763	5123.5625
2834.56959	5123.5625
2837.1	5106.1625
2839.62884	5110.2625
2842.15613	5102.4625
2844.68186	5130.7625
2847.20604	5132.0625
2849.72867	5140.4625
2852.24974	5136.6625
2854.76927	5133.3625
2857.28724	5129.6625
2859.80367	5115.1625
2862.31855	5100.0625
2864.83189	5088.9625
2867.34368	5082.2625
2869.85393	5073.5625
2872.36264	5059.7625
2874.8698	5068.2625
2877.37543	5071.0625
2879.87952	5074.5625
2882.38207	5077.6625
2884.88308	5061.4625
2887.38256	5096.9625
2889.88051	5070.5625
2892.37692	5080.9625
2894.8718	5062.8625
2897.36515	5074.9625
2899.85698	5074.9625
2902.34727	5087.0625
2904.83604	5070.7625
2907.32328	5095.9625
2909.809	5100.5625
2912.29319	5115.0625
2914.77587	5122.9625
2917.25702	5113.3625
2919.73665	5113.5625
2922.21476	5117.2625
2924.69136	5111.6625
2927.16644	5118.3625
2929.64	5111.4625
2932.11205	5098.1625
2934.58258	5101.9625
2937.05161	5112.0625
2939.51912	5103.7625
2941.98513	5108.0625
2944.44962	5086.3625
2946.91261	5082.1625
2949.37409	5085.5625
2951.83407	5067.9625
2954.29254	5074.5625
2956.74951	5039.9625
2959.20498	5023.2625
2961.65895	5015.9625
2964.11142	5002.8625
2966.56239	4981.9625
2969.01186	4967.5625
2971.45984	4941.2625
2973.90632	4940.5625
2976.35131	4914.9625
2978.7948	4914.3625
2981.23681	4898.7625
2983.67732	4892.7625
2986.11635	4878.5625
2988.55388	4862.9625
2990.98993	4825.6625
2993.4245	4831.6625
2995.85758	4812.9625
2998.28917	4813.3625
3000.71928	4791.1625
3003.14791	4781.9625
3005.57506	4791.4625
3008.00073	4771.2625
3010.42493	4767.1625
3012.84764	4765.6625
3015.26888	4761.6625
3017.68865	4752.4625
3020.10694	4723.0625
3022.52376	4731.8625
3024.9391	4702.4625
3027.35298	4702.6625
3029.76539	4700.3625
3032.17632	4689.6625
3034.5858	4667.7625
3036.9938	4663.8625
3039.40034	4657.2625
3041.80542	4643.0625
3044.20903	4635.3625
3046.61118	4625.4625
3049.01187	4599.5625
3051.4111	4614.6625
3053.80888	4592.2625
3056.20519	4584.1625
3058.60005	4594.8625
3060.99345	4585.1625
3063.3854	4573.6625
3065.7759	4551.6625
3068.16494	4543.6625
3070.55254	4539.3625
3072.93868	4512.5625
3075.32338	4510.8625
3077.70662	4514.5625
3080.08842	4481.8625
