Data from AgNPs_FTO_APTES_UA_0um_CRN_0.1mM_R6G_10uM_NaF_0.1M_Addition_RamanShift__36__10-53-18-936.txt Node

Date: Tue Dec 21 10:53:18 GMT 2021
User: TCL
Spectrometer: QEP01345
Trigger mode: 4
Integration Time (sec): 7.000000E0
Scans to average: 10
Electric dark correction enabled: true
Nonlinearity correction enabled: false
Boxcar width: 0
XAxis mode: Raman Shifts
Number of Pixels in Spectrum: 1044
>>>>>Begin Spectral Data<<<<<
46.04893	-0.0875
50.45542	-0.6875
54.85868	-0.9875
59.25871	0.5125
63.6555	41.0125
68.04907	46.5125
72.43941	48.1125
76.82654	52.7125
81.21044	57.8125
85.59113	54.3125
89.96862	57.5125
94.34289	59.5125
98.71396	57.9125
103.08183	61.9125
107.4465	65.5125
111.80798	68.1125
116.16626	67.8125
120.52136	70.5125
124.87327	72.3125
129.222	74.0125
133.56755	79.6125
137.90993	88.2125
142.24913	93.3125
146.58517	103.0125
150.91804	118.2125
155.24774	139.8125
159.57429	172.0125
163.89768	222.6125
168.21792	291.7125
172.53501	389.3125
176.84895	545.6125
181.15975	760.2125
185.46741	1062.9125
189.77193	1455.6125
194.07331	1936.5125
198.37157	2493.2125
202.6667	3064.7125
206.9587	3659.6125
211.24758	4206.1125
215.53334	4801.6125
219.81599	5404.5125
224.09553	6117.7125
228.37195	6874.9125
232.64527	7723.5125
236.91549	8542.1125
241.18261	9382.7125
245.44663	10084.8125
249.70755	10704.3125
253.96539	11227.8125
258.22014	11657.5125
262.4718	11996.0125
266.72039	12207.3125
270.96589	12281.0125
275.20832	12227.8125
279.44768	12070.4125
283.68397	11904.1125
287.91719	11770.6125
292.14735	11699.1125
296.37445	11688.1125
300.59849	11776.9125
304.81948	11935.8125
309.03742	12080.2125
313.25231	12181.1125
317.46415	12168.6125
321.67296	12103.3125
325.87872	11997.0125
330.08145	11950.4125
334.28114	11881.8125
338.47781	11901.0125
342.67145	12003.8125
346.86207	12189.9125
351.04966	12413.4125
355.23424	12612.0125
359.4158	12767.3125
363.59435	12829.2125
367.76989	12847.2125
371.94243	12845.4125
376.11196	12857.3125
380.27849	12901.8125
384.44203	13024.2125
388.60257	13187.4125
392.76012	13258.4125
396.91468	13341.5125
401.06626	13514.2125
405.21485	13649.3125
409.36047	13644.2125
413.50311	13597.9125
417.64277	13678.2125
421.77947	13863.6125
425.9132	14001.9125
430.04396	14122.9125
434.17176	14247.6125
438.2966	14468.5125
442.41849	14971.5125
446.53742	15884.1125
450.6534	16759.8125
454.76644	17131.0125
458.87653	16888.6125
462.98368	16233.0125
467.08789	15525.1125
471.18916	14868.5125
475.2875	14179.7125
479.38291	13678.0125
483.4754	13467.2125
487.56496	13301.1125
491.6516	13180.3125
495.73531	13110.4125
499.81612	13111.5125
503.89401	13218.6125
507.96899	13264.1125
512.04106	13073.3125
516.11023	12867.4125
520.1765	12683.8125
524.23987	12681.0125
528.30034	12775.4125
532.35792	12759.4125
536.41261	12530.4125
540.46441	12177.6125
544.51333	11984.9125
548.55936	12130.0125
552.60252	12540.1125
556.64279	13225.5125
560.6802	13783.0125
564.71473	13860.0125
568.7464	13794.8125
572.7752	14108.4125
576.80114	14665.5125
580.82422	15482.9125
584.84444	16873.5125
588.86181	19118.3125
592.87633	21723.5125
596.888	22582.2125
600.89682	20321.4125
604.9028	17864.8125
608.90594	17616.8125
612.90624	18362.3125
616.90371	17204.4125
620.89834	14294.5125
624.89015	12848.2125
628.87913	12643.6125
632.86528	12634.2125
636.84862	12457.5125
640.82913	12101.0125
644.80683	11738.0125
648.78172	11584.9125
652.75379	11645.2125
656.72306	11819.6125
660.68952	11983.4125
664.65319	11874.8125
668.61405	11561.5125
672.57211	11545.6125
676.52738	11686.4125
680.47986	11712.8125
684.42955	11551.0125
688.37646	11407.6125
692.32058	11475.4125
696.26192	11750.1125
700.20048	12076.5125
704.13626	12239.1125
708.06928	12232.4125
711.99952	12177.5125
715.927	12234.8125
719.85171	12361.3125
723.77365	12342.9125
727.69284	12047.1125
731.60928	11830.4125
735.52295	11805.4125
739.43388	11902.8125
743.34206	11976.2125
747.24749	12084.4125
751.15017	12252.0125
755.05012	12484.3125
758.94733	12908.0125
762.8418	13594.2125
766.73354	14707.8125
770.62254	15809.5125
774.50882	15937.3125
778.39237	15059.9125
782.27321	13940.2125
786.15132	12953.6125
790.02671	12341.7125
793.89938	12047.7125
797.76935	11915.5125
801.6366	11870.1125
805.50115	11865.8125
809.36299	11810.7125
813.22213	11626.8125
817.07857	11523.0125
820.93231	11382.7125
824.78336	11260.5125
828.63172	11255.2125
832.47738	11237.2125
836.32036	11291.4125
840.16066	11403.1125
843.99827	11435.4125
847.8332	11393.5125
851.66546	11352.5125
855.49504	11313.2125
859.32195	11315.8125
863.1462	11260.1125
866.96777	11142.5125
870.78668	11112.5125
874.60293	11113.2125
878.41652	11148.4125
882.22745	11206.5125
886.03573	11277.4125
889.84136	11223.6125
893.64433	11177.6125
897.44466	11094.6125
901.24235	11058.0125
905.0374	11005.2125
908.8298	10948.7125
912.61957	10931.9125
916.40671	11060.7125
920.19121	11251.6125
923.97308	11528.7125
927.75233	11685.6125
931.52895	11586.0125
935.30295	11294.0125
939.07433	10973.0125
942.84309	10749.5125
946.60924	10646.4125
950.37278	10604.6125
954.13371	10595.8125
957.89203	10566.7125
961.64774	10557.3125
965.40086	10558.3125
969.15137	10517.5125
972.89929	10473.2125
976.64461	10392.6125
980.38733	10414.4125
984.12747	10452.9125
987.86502	10516.0125
991.59999	10681.2125
995.33237	10901.8125
999.06217	11351.1125
1002.78939	11866.2125
1006.51404	12284.1125
1010.23611	12579.0125
1013.95561	12801.2125
1017.67255	12994.9125
1021.38692	12778.8125
1025.09872	12326.2125
1028.80796	12065.6125
1032.51465	12274.5125
1036.21877	12610.6125
1039.92035	12694.4125
1043.61937	12610.3125
1047.31584	12345.0125
1051.00976	11996.6125
1054.70114	11766.9125
1058.38998	11653.3125
1062.07627	11624.4125
1065.76003	11654.1125
1069.44126	11781.3125
1073.11995	12028.7125
1076.79611	12231.4125
1080.46974	12403.0125
1084.14085	12573.1125
1087.80943	12820.7125
1091.47549	12962.4125
1095.13903	12968.3125
1098.80005	12673.0125
1102.45857	12214.7125
1106.11456	11982.9125
1109.76805	11937.8125
1113.41903	12020.9125
1117.06751	12163.2125
1120.71348	12313.7125
1124.35696	12477.8125
1127.99793	12638.8125
1131.63641	12739.6125
1135.2724	12705.2125
1138.90589	12678.9125
1142.5369	12798.0125
1146.16542	12939.7125
1149.79145	13155.2125
1153.415	13305.8125
1157.03607	13487.6125
1160.65467	14066.3125
1164.27079	15053.3125
1167.88443	16366.7125
1171.49561	17781.7125
1175.10432	19556.2125
1178.71056	21918.6125
1182.31434	24000.5125
1185.91565	24516.1125
1189.51451	23309.2125
1193.11091	21698.8125
1196.70485	20419.9125
1200.29634	19406.0125
1203.88538	18645.9125
1207.47197	18229.3125
1211.05612	17856.7125
1214.63782	17538.9125
1218.21708	17239.8125
1221.79391	17196.4125
1225.36829	17380.0125
1228.94024	17357.0125
1232.50976	16753.2125
1236.07685	15845.2125
1239.6415	15229.3125
1243.20374	15025.8125
1246.76355	15089.4125
1250.32093	15384.2125
1253.8759	15842.5125
1257.42845	16433.1125
1260.97859	17086.6125
1264.52631	17696.8125
1268.07163	18353.5125
1271.61453	18966.9125
1275.15503	19678.0125
1278.69312	20546.1125
1282.22882	21666.0125
1285.76211	23112.4125
1289.29301	24732.8125
1292.82151	26515.4125
1296.34761	28666.9125
1299.87133	31189.2125
1303.39266	33843.4125
1306.9116	36354.8125
1310.42815	38449.6125
1313.94233	39840.2125
1317.45412	39457.8125
1320.96354	37337.4125
1324.47058	34820.2125
1327.97525	32763.6125
1331.47754	31352.6125
1334.97747	30347.9125
1338.47502	29443.9125
1341.97022	28140.0125
1345.46305	27021.5125
1348.95352	26778.2125
1352.44163	27913.5125
1355.92738	30693.6125
1359.41078	34217.4125
1362.89183	36842.4125
1366.37053	37193.8125
1369.84688	34136.0125
1373.32088	28679.9125
1376.79254	24640.3125
1380.26186	23291.1125
1383.72883	23284.0125
1387.19347	23155.9125
1390.65578	22543.2125
1394.11575	22497.9125
1397.57339	23140.1125
1401.0287	24060.2125
1404.48168	24657.3125
1407.93234	24683.3125
1411.38068	24176.7125
1414.82669	23381.6125
1418.27039	22424.3125
1421.71177	21275.4125
1425.15083	20199.7125
1428.58758	19728.2125
1432.02203	20073.2125
1435.45416	20999.1125
1438.88399	21892.0125
1442.31151	22430.9125
1445.73673	22644.0125
1449.15965	22632.1125
1452.58027	22266.6125
1455.9986	21624.3125
1459.41463	21183.8125
1462.82837	21392.0125
1466.23982	22114.3125
1469.64898	23009.9125
1473.05586	23663.2125
1476.46045	24018.1125
1479.86276	24115.0125
1483.26279	23923.8125
1486.66054	23757.6125
1490.05602	23787.4125
1493.44922	23852.1125
1496.84016	23608.1125
1500.22882	23191.5125
1503.61521	23038.4125
1506.99934	23067.6125
1510.38121	23310.0125
1513.76081	23389.8125
1517.13816	23083.8125
1520.51324	22631.5125
1523.88607	22398.3125
1527.25665	22634.4125
1530.62498	23084.7125
1533.99105	23232.5125
1537.35488	22951.1125
1540.71647	22311.8125
1544.07581	21422.1125
1547.4329	20461.0125
1550.78776	19565.1125
1554.14038	18795.4125
1557.49077	18234.9125
1560.83892	17836.1125
1564.18484	17706.5125
1567.52853	17757.9125
1570.86999	18053.0125
1574.20922	18524.4125
1577.54624	18960.1125
1580.88103	19161.5125
1584.2136	19546.2125
1587.54395	20598.2125
1590.87208	22707.6125
1594.19801	25435.8125
1597.52172	28255.6125
1600.84321	29809.5125
1604.16251	28589.2125
1607.47959	25170.2125
1610.79447	21230.0125
1614.10715	17952.1125
1617.41763	15815.7125
1620.7259	14682.6125
1624.03199	14241.0125
1627.33587	14374.9125
1630.63757	15042.1125
1633.93707	16407.1125
1637.23439	18891.6125
1640.52951	22950.4125
1643.82246	28370.6125
1647.11321	33093.5125
1650.40179	33891.4125
1653.68819	29933.8125
1656.97241	23861.1125
1660.25446	18777.8125
1663.53433	15428.3125
1666.81203	13458.0125
1670.08756	12386.2125
1673.36092	11704.2125
1676.63211	11291.1125
1679.90115	10974.8125
1683.16801	10734.2125
1686.43272	10591.6125
1689.69527	10467.1125
1692.95567	10370.6125
1696.2139	10356.1125
1699.46999	10289.4125
1702.72392	10256.8125
1705.97571	10222.1125
1709.22535	10174.3125
1712.47284	10124.3125
1715.71819	10116.1125
1718.96139	10094.4125
1722.20246	10063.2125
1725.44139	9996.1125
1728.67818	9915.7125
1731.91284	9844.8125
1735.14537	9787.3125
1738.37576	9744.8125
1741.60403	9690.3125
1744.83017	9682.8125
1748.05418	9624.0125
1751.27607	9642.4125
1754.49584	9628.4125
1757.71349	9635.2125
1760.92903	9628.0125
1764.14244	9599.7125
1767.35375	9584.6125
1770.56294	9566.6125
1773.77002	9528.2125
1776.97499	9475.1125
1780.17785	9447.7125
1783.37861	9430.1125
1786.57727	9418.1125
1789.77382	9383.2125
1792.96828	9348.8125
1796.16064	9322.3125
1799.3509	9269.7125
1802.53907	9277.8125
1805.72514	9272.2125
1808.90913	9227.7125
1812.09102	9210.9125
1815.27083	9193.1125
1818.44856	9160.4125
1821.6242	9174.0125
1824.79776	9167.7125
1827.96924	9142.2125
1831.13864	9127.2125
1834.30597	9134.0125
1837.47122	9128.0125
1840.6344	9129.3125
1843.7955	9115.6125
1846.95454	9105.7125
1850.11151	9110.4125
1853.26642	9109.3125
1856.41926	9128.3125
1859.57004	9130.4125
1862.71876	9093.8125
1865.86542	9104.9125
1869.01003	9098.0125
1872.15258	9097.9125
1875.29308	9112.9125
1878.43152	9090.2125
1881.56792	9076.3125
1884.70227	9075.1125
1887.83457	9086.3125
1890.96482	9085.0125
1894.09304	9068.8125
1897.21921	9065.8125
1900.34335	9074.0125
1903.46544	9052.7125
1906.58551	9056.1125
1909.70353	9040.4125
1912.81953	9015.1125
1915.93349	9017.2125
1919.04543	8970.2125
1922.15534	8973.8125
1925.26322	8931.9125
1928.36908	8897.5125
1931.47292	8871.7125
1934.57473	8854.6125
1937.67453	8822.0125
1940.77232	8794.2125
1943.86808	8791.3125
1946.96184	8764.7125
1950.05358	8745.3125
1953.14331	8725.4125
1956.23103	8698.9125
1959.31675	8681.9125
1962.40046	8652.1125
1965.48217	8617.1125
1968.56188	8604.9125
1971.63959	8540.7125
1974.7153	8574.4125
1977.78901	8519.5125
1980.86073	8490.2125
1983.93046	8482.3125
1986.99819	8441.3125
1990.06394	8430.7125
1993.1277	8413.5125
1996.18947	8384.7125
1999.24925	8340.1125
2002.30706	8346.8125
2005.36288	8304.4125
2008.41672	8294.8125
2011.46859	8279.3125
2014.51848	8247.2125
2017.56639	8228.2125
2020.61233	8219.6125
2023.6563	8218.7125
2026.6983	8195.7125
2029.73833	8198.2125
2032.7764	8171.8125
2035.8125	8156.2125
2038.84664	8138.9125
2041.87881	8130.7125
2044.90903	8122.0125
2047.93729	8108.4125
2050.96359	8107.9125
2053.98794	8096.8125
2057.01034	8095.3125
2060.03078	8106.3125
2063.04927	8084.5125
2066.06582	8070.1125
2069.08042	8060.7125
2072.09307	8073.1125
2075.10378	8018.1125
2078.11255	8063.0125
2081.11938	8053.9125
2084.12426	8035.9125
2087.12722	8033.6125
2090.12824	8034.3125
2093.12732	8049.9125
2096.12447	8053.5125
2099.11969	8056.3125
2102.11299	8056.3125
2105.10435	8059.4125
2108.09379	8063.7125
2111.08131	8052.7125
2114.0669	8060.1125
2117.05057	8052.5125
2120.03233	8066.0125
2123.01216	8073.9125
2125.99008	8069.0125
2128.96609	8068.4125
2131.94018	8063.2125
2134.91236	8084.1125
2137.88263	8084.6125
2140.851	8099.6125
2143.81746	8057.4125
2146.78201	8079.7125
2149.74466	8074.2125
2152.7054	8096.3125
2155.66425	8073.1125
2158.6212	8069.7125
2161.57625	8090.5125
2164.52941	8086.4125
2167.48067	8078.9125
2170.43004	8066.9125
2173.37752	8092.5125
2176.32311	8081.3125
2179.26681	8098.5125
2182.20863	8087.2125
2185.14856	8088.0125
2188.08661	8095.7125
2191.02278	8108.6125
2193.95707	8103.4125
2196.88948	8095.4125
2199.82001	8107.1125
2202.74867	8102.1125
2205.67545	8065.2125
2208.60037	8071.4125
2211.52341	8054.6125
2214.44458	8044.7125
2217.36388	8038.4125
2220.28132	8035.3125
2223.1969	8005.1125
2226.11061	8019.3125
2229.02246	8012.1125
2231.93245	8008.7125
2234.84058	8012.9125
2237.74686	7991.9125
2240.65128	7983.5125
2243.55385	7971.0125
2246.45456	7987.1125
2249.35343	7951.5125
2252.25044	7907.5125
2255.14561	7893.0125
2258.03893	7901.1125
2260.93041	7871.2125
2263.82004	7840.0125
2266.70783	7846.3125
2269.59378	7808.6125
2272.4779	7794.8125
2275.36017	7776.5125
2278.24061	7758.4125
2281.11922	7753.6125
2283.996	7755.1125
2286.87094	7733.7125
2289.74405	7732.5125
2292.61534	7755.1125
2295.4848	7745.0125
2298.35243	7753.7125
2301.21824	7718.8125
2304.08223	7759.9125
2306.94439	7765.3125
2309.80474	7739.5125
2312.66327	7735.5125
2315.51999	7747.9125
2318.37489	7737.7125
2321.22797	7745.2125
2324.07925	7725.2125
2326.92871	7701.2125
2329.77637	7720.2125
2332.62222	7744.8125
2335.46626	7728.9125
2338.3085	7703.0125
2341.14893	7707.7125
2343.98756	7708.3125
2346.8244	7722.8125
2349.65943	7720.6125
2352.49267	7718.8125
2355.32411	7701.1125
2358.15376	7720.1125
2360.98161	7677.1125
2363.80768	7692.6125
2366.63195	7677.4125
2369.45444	7662.2125
2372.27514	7668.1125
2375.09405	7660.6125
2377.91118	7625.9125
2380.72652	7622.4125
2383.54009	7619.9125
2386.35187	7610.3125
2389.16188	7598.0125
2391.97011	7556.6125
2394.77657	7549.1125
2397.58125	7556.6125
2400.38416	7560.7125
2403.18529	7540.9125
2405.98466	7559.1125
2408.78226	7517.9125
2411.57809	7506.7125
2414.37216	7521.2125
2417.16446	7498.7125
2419.955	7489.4125
2422.74378	7493.5125
2425.5308	7474.7125
2428.31606	7489.2125
2431.09956	7467.7125
2433.88131	7465.5125
2436.6613	7469.5125
2439.43954	7458.2125
2442.21603	7471.2125
2444.99077	7451.5125
2447.76377	7479.8125
2450.53501	7458.8125
2453.30451	7486.0125
2456.07226	7450.3125
2458.83827	7459.7125
2461.60254	7466.9125
2464.36507	7457.8125
2467.12586	7467.8125
2469.88492	7485.1125
2472.64224	7496.2125
2475.39782	7498.0125
2478.15167	7508.6125
2480.90379	7492.0125
2483.65417	7489.6125
2486.40283	7488.1125
2489.14976	7505.0125
2491.89497	7507.4125
2494.63845	7534.9125
2497.3802	7543.8125
2500.12024	7520.9125
2502.85855	7512.4125
2505.59514	7532.6125
2508.33002	7501.6125
2511.06318	7488.0125
2513.79462	7484.5125
2516.52435	7469.7125
2519.25237	7475.0125
2521.97867	7477.1125
2524.70327	7473.9125
2527.42616	7465.7125
2530.14734	7474.0125
2532.86681	7478.7125
2535.58458	7467.8125
2538.30065	7438.3125
2541.01501	7444.5125
2543.72768	7444.4125
2546.43864	7436.8125
2549.14791	7406.0125
2551.85548	7434.7125
2554.56136	7432.9125
2557.26554	7411.6125
2559.96803	7430.3125
2562.66883	7427.6125
2565.36794	7440.6125
2568.06536	7441.5125
2570.7611	7455.3125
2573.45514	7452.0125
2576.14751	7441.5125
2578.83819	7457.3125
2581.52719	7429.0125
2584.21451	7447.1125
2586.90015	7462.4125
2589.58411	7433.9125
2592.2664	7448.1125
2594.94701	7425.0125
2597.62594	7411.4125
2600.30321	7408.5125
2602.9788	7416.3125
2605.65273	7407.1125
2608.32498	7435.7125
2610.99557	7416.5125
2613.66449	7423.3125
2616.33175	7415.9125
2618.99734	7411.8125
2621.66128	7442.9125
2624.32355	7424.5125
2626.98416	7426.1125
2629.64311	7406.2125
2632.30041	7415.7125
2634.95605	7398.1125
2637.61004	7410.3125
2640.26238	7389.6125
2642.91306	7389.5125
2645.56209	7384.9125
2648.20948	7380.5125
2650.85521	7407.5125
2653.4993	7378.5125
2656.14175	7383.5125
2658.78255	7393.5125
2661.42171	7410.5125
2664.05923	7443.8125
2666.6951	7443.2125
2669.32934	7458.6125
2671.96194	7451.6125
2674.59291	7430.0125
2677.22224	7433.8125
2679.84993	7420.6125
2682.476	7427.4125
2685.10043	7410.3125
2687.72324	7414.2125
2690.34441	7403.6125
2692.96396	7417.5125
2695.58188	7425.9125
2698.19818	7401.0125
2700.81285	7425.0125
2703.4259	7442.6125
2706.03733	7506.5125
2708.64714	7475.1125
2711.25533	7483.2125
2713.86191	7489.7125
2716.46687	7493.9125
2719.07021	7488.7125
2721.67194	7479.1125
2724.27206	7476.5125
2726.87057	7479.8125
2729.46747	7506.4125
2732.06276	7531.6125
2734.65644	7534.7125
2737.24852	7524.9125
2739.83899	7500.4125
2742.42786	7505.7125
2745.01513	7508.5125
2747.60079	7496.8125
2750.18486	7493.9125
2752.76733	7497.6125
2755.3482	7509.4125
2757.92747	7519.6125
2760.50515	7518.1125
2763.08123	7519.0125
2765.65573	7502.1125
2768.22863	7508.5125
2770.79994	7519.3125
2773.36967	7518.6125
2775.9378	7532.1125
2778.50435	7533.7125
2781.06932	7509.6125
2783.6327	7538.8125
2786.1945	7530.6125
2788.75471	7516.6125
2791.31335	7502.9125
2793.87041	7500.8125
2796.42589	7468.1125
2798.97979	7467.0125
2801.53212	7470.9125
2804.08288	7476.2125
2806.63206	7465.2125
2809.17967	7473.0125
2811.72571	7447.7125
2814.27018	7439.3125
2816.81308	7428.9125
2819.35442	7441.2125
2821.89419	7421.3125
2824.43239	7434.0125
2826.96904	7439.5125
2829.50412	7434.8125
2832.03763	7423.8125
2834.56959	7446.6125
2837.1	7443.7125
2839.62884	7445.6125
2842.15613	7454.8125
2844.68186	7501.3125
2847.20604	7508.3125
2849.72867	7523.9125
2852.24974	7531.2125
2854.76927	7525.2125
2857.28724	7518.9125
2859.80367	7487.0125
2862.31855	7469.4125
2864.83189	7464.7125
2867.34368	7477.0125
2869.85393	7486.5125
2872.36264	7472.0125
2874.8698	7455.4125
2877.37543	7480.6125
2879.87952	7467.4125
2882.38207	7488.4125
2884.88308	7476.9125
2887.38256	7494.4125
2889.88051	7489.7125
2892.37692	7519.3125
2894.8718	7522.7125
2897.36515	7537.2125
2899.85698	7551.2125
2902.34727	7572.3125
2904.83604	7562.7125
2907.32328	7585.1125
2909.809	7602.0125
2912.29319	7587.2125
2914.77587	7587.9125
2917.25702	7600.2125
2919.73665	7611.8125
2922.21476	7600.7125
2924.69136	7597.7125
2927.16644	7588.0125
2929.64	7602.3125
2932.11205	7576.1125
2934.58258	7566.4125
2937.05161	7566.1125
2939.51912	7568.0125
2941.98513	7538.3125
2944.44962	7542.7125
2946.91261	7505.6125
2949.37409	7515.3125
2951.83407	7502.1125
2954.29254	7485.2125
2956.74951	7479.5125
2959.20498	7453.3125
2961.65895	7461.1125
2964.11142	7454.7125
2966.56239	7412.1125
2969.01186	7412.5125
2971.45984	7382.2125
2973.90632	7359.7125
2976.35131	7313.5125
2978.7948	7308.0125
2981.23681	7277.4125
2983.67732	7254.9125
2986.11635	7240.2125
2988.55388	7208.3125
2990.98993	7217.8125
2993.4245	7186.2125
2995.85758	7164.0125
2998.28917	7180.5125
3000.71928	7188.4125
3003.14791	7167.5125
3005.57506	7185.2125
3008.00073	7120.3125
3010.42493	7144.6125
3012.84764	7132.1125
3015.26888	7120.3125
3017.68865	7098.1125
3020.10694	7098.2125
3022.52376	7084.0125
3024.9391	7058.8125
3027.35298	7062.1125
3029.76539	7048.4125
3032.17632	7062.8125
3034.5858	7021.7125
3036.9938	7028.8125
3039.40034	7019.9125
3041.80542	7025.0125
3044.20903	7033.9125
3046.61118	7020.2125
3049.01187	6993.0125
3051.4111	7012.1125
3053.80888	6991.2125
3056.20519	6999.6125
3058.60005	6979.7125
3060.99345	6972.6125
3063.3854	6973.3125
3065.7759	6932.3125
3068.16494	6911.9125
3070.55254	6916.5125
3072.93868	6893.7125
3075.32338	6868.2125
3077.70662	6866.5125
3080.08842	6840.3125
