Data from AgNPs_FTO_APTES_UA_100um_CRN_0.1mM_R6G_10uM_NaF_0.1M_Addition_RamanShift__31__16-21-09-311.txt Node

Date: Tue Dec 21 16:21:09 GMT 2021
User: TCL
Spectrometer: QEP01345
Trigger mode: 4
Integration Time (sec): 7.000000E0
Scans to average: 10
Electric dark correction enabled: true
Nonlinearity correction enabled: false
Boxcar width: 0
XAxis mode: Raman Shifts
Number of Pixels in Spectrum: 1044
>>>>>Begin Spectral Data<<<<<
46.04893	0.125
50.45542	-1.275
54.85868	0.225
59.25871	-0.375
63.6555	25.925
68.04907	31.125
72.43941	34.825
76.82654	33.825
81.21044	39.925
85.59113	35.625
89.96862	41.325
94.34289	42.625
98.71396	41.125
103.08183	44.225
107.4465	45.525
111.80798	47.325
116.16626	42.025
120.52136	41.525
124.87327	43.225
129.222	44.125
133.56755	47.225
137.90993	51.425
142.24913	48.625
146.58517	57.925
150.91804	59.925
155.24774	65.125
159.57429	83.125
163.89768	100.425
168.21792	127.125
172.53501	165.625
176.84895	230.725
181.15975	318.725
185.46741	441.125
189.77193	599.625
194.07331	808.025
198.37157	1039.025
202.6667	1280.125
206.9587	1526.325
211.24758	1761.625
215.53334	2017.125
219.81599	2297.125
224.09553	2612.225
228.37195	2967.325
232.64527	3359.025
236.91549	3743.725
241.18261	4119.125
245.44663	4428.225
249.70755	4697.125
253.96539	4906.225
258.22014	5043.525
262.4718	5155.625
266.72039	5220.925
270.96589	5251.425
275.20832	5214.525
279.44768	5120.525
283.68397	5012.725
287.91719	4928.925
292.14735	4945.825
296.37445	5055.225
300.59849	5291.825
304.81948	5548.125
309.03742	5745.725
313.25231	5718.925
317.46415	5440.725
321.67296	4953.825
325.87872	4571.325
330.08145	4374.825
334.28114	4338.025
338.47781	4427.625
342.67145	4540.325
346.86207	4766.325
351.04966	5077.225
355.23424	5448.725
359.4158	5746.025
363.59435	5913.925
367.76989	5977.425
371.94243	5945.625
376.11196	5954.325
380.27849	5922.925
384.44203	5847.825
388.60257	5745.325
392.76012	5658.825
396.91468	5676.025
401.06626	5826.525
405.21485	5931.625
409.36047	5813.425
413.50311	5452.425
417.64277	5081.425
421.77947	4853.225
425.9132	4737.025
430.04396	4707.525
434.17176	4712.825
438.2966	4761.725
442.41849	4842.125
446.53742	4960.125
450.6534	5060.825
454.76644	5127.125
458.87653	5146.025
462.98368	5088.825
467.08789	5030.125
471.18916	4927.125
475.2875	4833.825
479.38291	4758.025
483.4754	4686.925
487.56496	4691.725
491.6516	4680.725
495.73531	4669.225
499.81612	4675.125
503.89401	4698.225
507.96899	4747.225
512.04106	4831.825
516.11023	4954.925
520.1765	5084.325
524.23987	5076.025
528.30034	5006.525
532.35792	4866.925
536.41261	4741.925
540.46441	4596.325
544.51333	4487.525
548.55936	4480.725
552.60252	4561.125
556.64279	4659.425
560.6802	4725.425
564.71473	4801.325
568.7464	5021.325
572.7752	5159.925
576.80114	4983.525
580.82422	4730.325
584.84444	4628.225
588.86181	4615.925
592.87633	4621.625
596.888	4656.525
600.89682	4847.425
604.9028	5475.225
608.90594	7224.025
612.90624	9706.225
616.90371	9693.325
620.89834	6722.825
624.89015	5211.925
628.87913	5022.525
632.86528	5161.425
636.84862	5336.325
640.82913	5266.525
644.80683	4928.525
648.78172	4648.125
652.75379	4511.725
656.72306	4632.625
660.68952	4854.725
664.65319	4782.125
668.61405	4485.825
672.57211	4325.825
676.52738	4304.625
680.47986	4321.825
684.42955	4269.225
688.37646	4245.125
692.32058	4248.825
696.26192	4262.725
700.20048	4320.425
704.13626	4360.725
708.06928	4362.225
711.99952	4325.425
715.927	4295.625
719.85171	4324.625
723.77365	4352.525
727.69284	4318.825
731.60928	4262.225
735.52295	4223.025
739.43388	4219.025
743.34206	4215.325
747.24749	4271.625
751.15017	4276.825
755.05012	4332.325
758.94733	4567.325
762.8418	5068.525
766.73354	6013.625
770.62254	7080.525
774.50882	7732.425
778.39237	7502.625
782.27321	6438.125
786.15132	5295.425
790.02671	4674.825
793.89938	4394.425
797.76935	4279.325
801.6366	4276.625
805.50115	4321.325
809.36299	4395.125
813.22213	4426.025
817.07857	4388.025
820.93231	4310.725
824.78336	4230.025
828.63172	4170.425
832.47738	4131.625
836.32036	4104.725
840.16066	4057.125
843.99827	4022.825
847.8332	4013.025
851.66546	3992.125
855.49504	3993.625
859.32195	3990.425
863.1462	3976.925
866.96777	3967.525
870.78668	4001.825
874.60293	4041.925
878.41652	4105.925
882.22745	4185.225
886.03573	4246.725
889.84136	4267.925
893.64433	4196.125
897.44466	4127.425
901.24235	4059.825
905.0374	3990.925
908.8298	3945.725
912.61957	3889.825
916.40671	3880.225
920.19121	3880.325
923.97308	3900.125
927.75233	3948.925
931.52895	3988.725
935.30295	3987.825
939.07433	3858.625
942.84309	3744.325
946.60924	3686.825
950.37278	3643.925
954.13371	3617.225
957.89203	3619.425
961.64774	3617.225
965.40086	3579.825
969.15137	3576.825
972.89929	3563.925
976.64461	3558.625
980.38733	3551.825
984.12747	3560.125
987.86502	3564.025
991.59999	3574.825
995.33237	3610.125
999.06217	3656.525
1002.78939	3732.425
1006.51404	3844.525
1010.23611	3957.925
1013.95561	4048.625
1017.67255	4062.125
1021.38692	4007.225
1025.09872	3935.025
1028.80796	3845.025
1032.51465	3803.025
1036.21877	3807.225
1039.92035	3807.125
1043.61937	3819.525
1047.31584	3834.525
1051.00976	3848.025
1054.70114	3839.125
1058.38998	3847.125
1062.07627	3869.625
1065.76003	3906.225
1069.44126	3941.325
1073.11995	3974.825
1076.79611	3991.225
1080.46974	4063.825
1084.14085	4163.425
1087.80943	4266.325
1091.47549	4314.825
1095.13903	4244.725
1098.80005	4094.425
1102.45857	3961.525
1106.11456	3908.525
1109.76805	3959.825
1113.41903	4094.725
1117.06751	4284.225
1120.71348	4535.725
1124.35696	4823.325
1127.99793	5105.825
1131.63641	5156.025
1135.2724	4954.925
1138.90589	4710.225
1142.5369	4506.525
1146.16542	4332.725
1149.79145	4179.525
1153.415	4084.225
1157.03607	4027.125
1160.65467	4071.825
1164.27079	4150.425
1167.88443	4365.925
1171.49561	4696.925
1175.10432	5284.525
1178.71056	6147.725
1182.31434	6824.525
1185.91565	6992.825
1189.51451	6742.825
1193.11091	6284.325
1196.70485	5831.325
1200.29634	5566.725
1203.88538	5398.825
1207.47197	5088.725
1211.05612	4785.225
1214.63782	4521.425
1218.21708	4357.925
1221.79391	4246.025
1225.36829	4187.725
1228.94024	4164.825
1232.50976	4125.825
1236.07685	4129.525
1239.6415	4139.625
1243.20374	4157.425
1246.76355	4201.325
1250.32093	4253.225
1253.8759	4316.625
1257.42845	4432.725
1260.97859	4557.625
1264.52631	4662.925
1268.07163	4803.625
1271.61453	4916.325
1275.15503	4980.625
1278.69312	4982.525
1282.22882	4996.525
1285.76211	5076.325
1289.29301	5233.225
1292.82151	5417.125
1296.34761	5640.025
1299.87133	5983.625
1303.39266	6554.425
1306.9116	7464.025
1310.42815	8464.025
1313.94233	8967.125
1317.45412	8583.225
1320.96354	7782.025
1324.47058	6976.625
1327.97525	6347.025
1331.47754	5913.025
1334.97747	5788.525
1338.47502	5838.925
1341.97022	6073.525
1345.46305	6448.825
1348.95352	7011.425
1352.44163	7739.025
1355.92738	8722.925
1359.41078	10222.325
1362.89183	11653.725
1366.37053	11364.825
1369.84688	9493.025
1373.32088	7658.225
1376.79254	6437.225
1380.26186	5768.525
1383.72883	5410.925
1387.19347	5189.125
1390.65578	4944.525
1394.11575	4736.825
1397.57339	4630.625
1401.0287	4593.925
1404.48168	4603.625
1407.93234	4600.325
1411.38068	4602.325
1414.82669	4573.325
1418.27039	4529.625
1421.71177	4452.425
1425.15083	4357.825
1428.58758	4302.025
1432.02203	4294.825
1435.45416	4323.425
1438.88399	4318.425
1442.31151	4299.325
1445.73673	4333.925
1449.15965	4369.325
1452.58027	4353.325
1455.9986	4319.725
1459.41463	4305.225
1462.82837	4337.425
1466.23982	4436.525
1469.64898	4527.825
1473.05586	4595.825
1476.46045	4642.125
1479.86276	4730.325
1483.26279	4867.325
1486.66054	5033.925
1490.05602	5263.725
1493.44922	5567.925
1496.84016	6103.625
1500.22882	6945.925
1503.61521	8069.225
1506.99934	9390.325
1510.38121	10557.225
1513.76081	10926.525
1517.13816	10142.025
1520.51324	8638.325
1523.88607	7179.025
1527.25665	6188.325
1530.62498	5644.325
1533.99105	5367.525
1537.35488	5172.525
1540.71647	5074.425
1544.07581	5088.125
1547.4329	5093.025
1550.78776	5110.125
1554.14038	5153.925
1557.49077	5208.625
1560.83892	5302.725
1564.18484	5464.625
1567.52853	5722.225
1570.86999	5932.025
1574.20922	6052.425
1577.54624	6034.325
1580.88103	5671.825
1584.2136	5168.625
1587.54395	4859.525
1590.87208	4803.825
1594.19801	4960.025
1597.52172	5270.225
1600.84321	5433.225
1604.16251	5283.025
1607.47959	5009.925
1610.79447	4722.625
1614.10715	4433.325
1617.41763	4189.225
1620.7259	4020.025
1624.03199	3952.825
1627.33587	3945.125
1630.63757	3994.925
1633.93707	4137.325
1637.23439	4384.725
1640.52951	4798.625
1643.82246	5436.725
1647.11321	6324.025
1650.40179	7134.925
1653.68819	7171.725
1656.97241	6340.125
1660.25446	5252.625
1663.53433	4488.925
1666.81203	4012.825
1670.08756	3723.325
1673.36092	3542.125
1676.63211	3421.625
1679.90115	3324.525
1683.16801	3258.825
1686.43272	3222.825
1689.69527	3193.825
1692.95567	3165.725
1696.2139	3168.225
1699.46999	3164.625
1702.72392	3134.525
1705.97571	3093.325
1709.22535	3036.325
1712.47284	3006.025
1715.71819	2990.725
1718.96139	2982.425
1722.20246	2965.025
1725.44139	2945.725
1728.67818	2920.525
1731.91284	2880.125
1735.14537	2869.425
1738.37576	2851.525
1741.60403	2829.425
1744.83017	2812.525
1748.05418	2814.825
1751.27607	2822.725
1754.49584	2813.825
1757.71349	2817.425
1760.92903	2811.025
1764.14244	2796.025
1767.35375	2788.325
1770.56294	2769.425
1773.77002	2743.525
1776.97499	2727.825
1780.17785	2703.825
1783.37861	2694.025
1786.57727	2682.025
1789.77382	2675.725
1792.96828	2656.525
1796.16064	2649.925
1799.3509	2654.025
1802.53907	2633.525
1805.72514	2621.625
1808.90913	2616.725
1812.09102	2592.025
1815.27083	2587.825
1818.44856	2586.125
1821.6242	2577.725
1824.79776	2570.225
1827.96924	2548.925
1831.13864	2557.225
1834.30597	2553.025
1837.47122	2540.925
1840.6344	2542.925
1843.7955	2540.425
1846.95454	2527.225
1850.11151	2518.825
1853.26642	2518.825
1856.41926	2525.325
1859.57004	2526.525
1862.71876	2505.925
1865.86542	2510.825
1869.01003	2494.125
1872.15258	2499.725
1875.29308	2506.825
1878.43152	2504.225
1881.56792	2487.625
1884.70227	2491.125
1887.83457	2487.825
1890.96482	2483.625
1894.09304	2480.225
1897.21921	2476.725
1900.34335	2476.225
1903.46544	2463.625
1906.58551	2468.425
1909.70353	2466.525
1912.81953	2452.725
1915.93349	2450.825
1919.04543	2449.825
1922.15534	2449.225
1925.26322	2434.425
1928.36908	2423.825
1931.47292	2420.625
1934.57473	2426.925
1937.67453	2408.225
1940.77232	2386.625
1943.86808	2388.525
1946.96184	2384.325
1950.05358	2374.725
1953.14331	2377.225
1956.23103	2349.525
1959.31675	2354.725
1962.40046	2337.825
1965.48217	2332.525
1968.56188	2322.825
1971.63959	2319.125
1974.7153	2315.125
1977.78901	2309.825
1980.86073	2300.725
1983.93046	2287.825
1986.99819	2267.825
1990.06394	2276.125
1993.1277	2267.725
1996.18947	2253.425
1999.24925	2247.725
2002.30706	2233.225
2005.36288	2235.625
2008.41672	2211.525
2011.46859	2211.225
2014.51848	2205.925
2017.56639	2198.425
2020.61233	2187.125
2023.6563	2182.125
2026.6983	2176.025
2029.73833	2164.925
2032.7764	2159.925
2035.8125	2155.525
2038.84664	2146.825
2041.87881	2146.425
2044.90903	2154.225
2047.93729	2133.225
2050.96359	2139.225
2053.98794	2139.625
2057.01034	2126.325
2060.03078	2109.525
2063.04927	2120.225
2066.06582	2115.325
2069.08042	2102.825
2072.09307	2099.725
2075.10378	2104.325
2078.11255	2100.725
2081.11938	2104.725
2084.12426	2095.825
2087.12722	2097.925
2090.12824	2097.525
2093.12732	2091.425
2096.12447	2100.525
2099.11969	2102.325
2102.11299	2088.625
2105.10435	2085.025
2108.09379	2098.225
2111.08131	2094.825
2114.0669	2089.825
2117.05057	2091.425
2120.03233	2092.325
2123.01216	2089.925
2125.99008	2096.825
2128.96609	2098.125
2131.94018	2092.625
2134.91236	2104.625
2137.88263	2101.725
2140.851	2082.725
2143.81746	2095.425
2146.78201	2097.725
2149.74466	2095.325
2152.7054	2084.925
2155.66425	2093.625
2158.6212	2079.525
2161.57625	2074.025
2164.52941	2080.925
2167.48067	2081.725
2170.43004	2071.025
2173.37752	2064.425
2176.32311	2065.325
2179.26681	2071.525
2182.20863	2066.325
2185.14856	2068.825
2188.08661	2057.325
2191.02278	2059.925
2193.95707	2053.725
2196.88948	2042.125
2199.82001	2049.625
2202.74867	2039.625
2205.67545	2041.825
2208.60037	2039.825
2211.52341	2038.025
2214.44458	2031.525
2217.36388	2020.225
2220.28132	2015.525
2223.1969	2006.125
2226.11061	2007.625
2229.02246	1993.125
2231.93245	2003.525
2234.84058	1982.225
2237.74686	1986.825
2240.65128	1980.925
2243.55385	1986.425
2246.45456	1988.125
2249.35343	1978.425
2252.25044	1975.525
2255.14561	1976.025
2258.03893	1981.725
2260.93041	1992.025
2263.82004	1973.725
2266.70783	1971.125
2269.59378	1957.825
2272.4779	1943.225
2275.36017	1944.225
2278.24061	1945.625
2281.11922	1941.925
2283.996	1927.425
2286.87094	1934.625
2289.74405	1912.425
2292.61534	1916.225
2295.4848	1914.625
2298.35243	1916.025
2301.21824	1898.325
2304.08223	1900.225
2306.94439	1892.125
2309.80474	1887.325
2312.66327	1899.125
2315.51999	1886.525
2318.37489	1878.925
2321.22797	1881.825
2324.07925	1877.725
2326.92871	1875.525
2329.77637	1873.025
2332.62222	1869.825
2335.46626	1862.525
2338.3085	1857.825
2341.14893	1858.325
2343.98756	1854.925
2346.8244	1858.625
2349.65943	1868.925
2352.49267	1867.525
2355.32411	1863.425
2358.15376	1878.725
2360.98161	1862.925
2363.80768	1870.425
2366.63195	1873.825
2369.45444	1869.925
2372.27514	1862.525
2375.09405	1871.125
2377.91118	1870.025
2380.72652	1856.325
2383.54009	1839.425
2386.35187	1826.825
2389.16188	1833.825
2391.97011	1817.425
2394.77657	1818.825
2397.58125	1816.925
2400.38416	1801.725
2403.18529	1795.625
2405.98466	1787.625
2408.78226	1784.125
2411.57809	1781.225
2414.37216	1783.525
2417.16446	1782.625
2419.955	1767.325
2422.74378	1771.325
2425.5308	1764.525
2428.31606	1770.625
2431.09956	1762.125
2433.88131	1763.825
2436.6613	1760.025
2439.43954	1761.025
2442.21603	1764.725
2444.99077	1745.425
2447.76377	1760.525
2450.53501	1754.325
2453.30451	1759.125
2456.07226	1747.725
2458.83827	1755.525
2461.60254	1744.325
2464.36507	1744.325
2467.12586	1743.925
2469.88492	1745.725
2472.64224	1732.525
2475.39782	1754.925
2478.15167	1764.325
2480.90379	1752.025
2483.65417	1748.625
2486.40283	1758.825
2489.14976	1750.225
2491.89497	1756.725
2494.63845	1772.525
2497.3802	1764.525
2500.12024	1758.125
2502.85855	1753.225
2505.59514	1736.825
2508.33002	1737.325
2511.06318	1722.525
2513.79462	1721.525
2516.52435	1710.025
2519.25237	1706.625
2521.97867	1690.025
2524.70327	1683.325
2527.42616	1684.025
2530.14734	1675.525
2532.86681	1672.325
2535.58458	1663.225
2538.30065	1668.325
2541.01501	1663.625
2543.72768	1658.925
2546.43864	1665.525
2549.14791	1664.125
2551.85548	1663.425
2554.56136	1663.025
2557.26554	1664.425
2559.96803	1659.225
2562.66883	1652.925
2565.36794	1643.725
2568.06536	1640.225
2570.7611	1637.125
2573.45514	1634.225
2576.14751	1626.925
2578.83819	1623.625
2581.52719	1622.425
2584.21451	1621.025
2586.90015	1614.425
2589.58411	1620.625
2592.2664	1610.625
2594.94701	1603.625
2597.62594	1601.525
2600.30321	1598.225
2602.9788	1597.625
2605.65273	1597.525
2608.32498	1603.325
2610.99557	1585.125
2613.66449	1592.225
2616.33175	1592.225
2618.99734	1593.125
2621.66128	1587.225
2624.32355	1582.025
2626.98416	1583.025
2629.64311	1582.325
2632.30041	1578.525
2634.95605	1575.125
2637.61004	1567.225
2640.26238	1566.825
2642.91306	1562.125
2645.56209	1554.825
2648.20948	1552.325
2650.85521	1542.525
2653.4993	1553.025
2656.14175	1550.225
2658.78255	1548.125
2661.42171	1562.425
2664.05923	1551.725
2666.6951	1559.325
2669.32934	1551.225
2671.96194	1560.025
2674.59291	1567.225
2677.22224	1558.925
2679.84993	1561.125
2682.476	1555.825
2685.10043	1565.425
2687.72324	1551.525
2690.34441	1565.025
2692.96396	1555.325
2695.58188	1555.925
2698.19818	1556.725
2700.81285	1554.925
2703.4259	1581.925
2706.03733	1630.525
2708.64714	1593.925
2711.25533	1571.525
2713.86191	1562.325
2716.46687	1559.925
2719.07021	1575.625
2721.67194	1562.325
2724.27206	1556.525
2726.87057	1555.425
2729.46747	1554.225
2732.06276	1551.925
2734.65644	1551.225
2737.24852	1548.425
2739.83899	1539.425
2742.42786	1530.425
2745.01513	1546.025
2747.60079	1541.725
2750.18486	1526.925
2752.76733	1532.825
2755.3482	1527.425
2757.92747	1520.325
2760.50515	1531.625
2763.08123	1517.525
2765.65573	1520.225
2768.22863	1519.225
2770.79994	1510.525
2773.36967	1513.325
2775.9378	1518.325
2778.50435	1512.125
2781.06932	1503.825
2783.6327	1509.225
2786.1945	1500.125
2788.75471	1497.025
2791.31335	1498.025
2793.87041	1492.825
2796.42589	1484.825
2798.97979	1497.725
2801.53212	1495.225
2804.08288	1492.725
2806.63206	1500.125
2809.17967	1494.025
2811.72571	1486.225
2814.27018	1488.825
2816.81308	1492.925
2819.35442	1494.825
2821.89419	1493.825
2824.43239	1491.625
2826.96904	1496.025
2829.50412	1496.325
2832.03763	1489.125
2834.56959	1489.825
2837.1	1493.125
2839.62884	1487.025
2842.15613	1492.525
2844.68186	1500.225
2847.20604	1507.825
2849.72867	1512.525
2852.24974	1515.025
2854.76927	1530.925
2857.28724	1541.625
2859.80367	1529.225
2862.31855	1520.925
2864.83189	1507.325
2867.34368	1514.225
2869.85393	1515.225
2872.36264	1497.625
2874.8698	1506.525
2877.37543	1514.425
2879.87952	1513.025
2882.38207	1504.625
2884.88308	1500.725
2887.38256	1501.925
2889.88051	1497.725
2892.37692	1498.925
2894.8718	1504.325
2897.36515	1497.725
2899.85698	1498.225
2902.34727	1501.325
2904.83604	1507.625
2907.32328	1504.125
2909.809	1499.925
2912.29319	1513.825
2914.77587	1499.725
2917.25702	1499.525
2919.73665	1501.825
2922.21476	1496.325
2924.69136	1503.925
2927.16644	1500.825
2929.64	1495.525
2932.11205	1484.525
2934.58258	1486.925
2937.05161	1484.225
2939.51912	1483.825
2941.98513	1484.425
2944.44962	1476.925
2946.91261	1477.125
2949.37409	1466.425
2951.83407	1463.425
2954.29254	1465.325
2956.74951	1462.625
2959.20498	1459.825
2961.65895	1460.825
2964.11142	1445.925
2966.56239	1436.125
2969.01186	1435.025
2971.45984	1429.325
2973.90632	1438.025
2976.35131	1431.925
2978.7948	1424.325
2981.23681	1426.825
2983.67732	1416.925
2986.11635	1424.925
2988.55388	1416.725
2990.98993	1409.425
2993.4245	1411.425
2995.85758	1402.325
2998.28917	1406.025
3000.71928	1412.525
3003.14791	1408.725
3005.57506	1406.425
3008.00073	1410.425
3010.42493	1408.025
3012.84764	1404.725
3015.26888	1409.725
3017.68865	1403.125
3020.10694	1402.925
3022.52376	1404.525
3024.9391	1409.125
3027.35298	1401.025
3029.76539	1391.525
3032.17632	1403.525
3034.5858	1402.925
3036.9938	1398.825
3039.40034	1396.125
3041.80542	1397.925
3044.20903	1396.225
3046.61118	1395.525
3049.01187	1387.825
3051.4111	1395.425
3053.80888	1382.425
3056.20519	1382.825
3058.60005	1388.025
3060.99345	1391.425
3063.3854	1390.125
3065.7759	1385.025
3068.16494	1387.525
3070.55254	1387.325
3072.93868	1384.125
3075.32338	1382.725
3077.70662	1380.225
3080.08842	1378.625
3082.46878	1385.825
3084.84769	1385.525
3087.22515	1384.525
3089.60118	1388.725
3091.97576	1389.125
3094.3489	1387.625
3096.72061	1395.525
3099.09087	1401.725
3101.4597	1391.425
3103.82709	1401.425
3106.19305	1399.425
3108.55757	1402.325
3110.92066	1404.025
3113.28232	1405.125
3115.64255	1392.625
3118.00134	1407.425
3120.35871	1399.725
3122.71466	1410.525
3125.06917	1407.325
3127.42226	1409.125
3129.77393	1414.425
3132.12417	1420.825
3134.47299	1427.425
3136.82039	1432.125
3139.16636	1426.725
3141.51092	1440.725
3143.85406	1437.625
3146.19579	1444.425
3148.53609	1445.225
3150.87499	1459.425
3153.21246	1458.125
3155.54853	1463.925
3157.88318	1468.825
3160.21642	1475.625
3162.54826	1481.225
3164.87868	1476.925
3167.2077	1484.725
3169.5353	1496.825
3171.86151	1496.925
3174.18631	1494.725
3176.5097	1497.925
3178.83169	1495.225
3181.15228	1502.325
3183.47147	1504.125
3185.78926	1499.325
3188.10565	1510.325
3190.42065	1513.425
3192.73424	1510.225
3195.04645	1518.225
3197.35725	1526.425
3199.66667	1531.025
3201.97469	1538.725
3204.28132	1539.825
3206.58656	1548.825
3208.8904	1548.325
3211.19287	1552.125
3213.49394	1554.025
3215.79363	1553.725
3218.09193	1562.325
3220.38884	1585.825
3222.68438	1587.225
3224.97853	1580.125
3227.2713	1570.725
3229.56269	1574.425
3231.8527	1575.025
3234.14133	1568.825
3236.42858	1560.425
