Data from AgNPs_FTO_APTES_UA_0um_CRN_0.1mM_R6G_10uM_NaF_0.1M_Addition_RamanShift__45__11-03-48-948.txt Node

Date: Tue Dec 21 11:03:48 GMT 2021
User: TCL
Spectrometer: QEP01345
Trigger mode: 4
Integration Time (sec): 7.000000E0
Scans to average: 10
Electric dark correction enabled: true
Nonlinearity correction enabled: false
Boxcar width: 0
XAxis mode: Raman Shifts
Number of Pixels in Spectrum: 1044
>>>>>Begin Spectral Data<<<<<
46.04893	0.075
50.45542	-0.825
54.85868	-0.825
59.25871	0.875
63.6555	33.875
68.04907	39.975
72.43941	43.175
76.82654	42.775
81.21044	50.675
85.59113	48.475
89.96862	49.175
94.34289	48.175
98.71396	51.175
103.08183	51.875
107.4465	53.675
111.80798	55.975
116.16626	56.075
120.52136	57.075
124.87327	60.675
129.222	61.775
133.56755	66.975
137.90993	75.775
142.24913	79.075
146.58517	93.575
150.91804	108.075
155.24774	128.075
159.57429	154.975
163.89768	204.875
168.21792	268.475
172.53501	360.775
176.84895	504.275
181.15975	708.375
185.46741	987.975
189.77193	1362.275
194.07331	1803.475
198.37157	2317.275
202.6667	2873.975
206.9587	3425.775
211.24758	3961.775
215.53334	4519.575
219.81599	5097.175
224.09553	5711.775
228.37195	6428.875
232.64527	7180.675
236.91549	7944.975
241.18261	8728.575
245.44663	9429.375
249.70755	10077.575
253.96539	10554.475
258.22014	11003.175
262.4718	11312.675
266.72039	11502.075
270.96589	11571.875
275.20832	11546.575
279.44768	11456.375
283.68397	11345.775
287.91719	11286.575
292.14735	11230.475
296.37445	11171.875
300.59849	11226.875
304.81948	11257.575
309.03742	11323.875
313.25231	11334.475
317.46415	11245.275
321.67296	11049.975
325.87872	10835.275
330.08145	10696.175
334.28114	10633.175
338.47781	10611.275
342.67145	10714.075
346.86207	10866.675
351.04966	11065.575
355.23424	11243.475
359.4158	11363.075
363.59435	11439.475
367.76989	11444.375
371.94243	11393.975
376.11196	11327.175
380.27849	11299.075
384.44203	11263.775
388.60257	11328.975
392.76012	11461.575
396.91468	11669.175
401.06626	11914.975
405.21485	12067.575
409.36047	12024.475
413.50311	11908.375
417.64277	11974.075
421.77947	12145.275
425.9132	12172.075
430.04396	12232.275
434.17176	12284.275
438.2966	12422.275
442.41849	12594.275
446.53742	13017.075
450.6534	13417.675
454.76644	13579.175
458.87653	13517.275
462.98368	13344.975
467.08789	13114.075
471.18916	12779.875
475.2875	12471.575
479.38291	12248.775
483.4754	12142.975
487.56496	12046.975
491.6516	11901.675
495.73531	11755.075
499.81612	11663.175
503.89401	11690.075
507.96899	11778.775
512.04106	11695.575
516.11023	11499.875
520.1765	11241.875
524.23987	11073.875
528.30034	10936.175
532.35792	10857.375
536.41261	10683.675
540.46441	10463.375
544.51333	10406.275
548.55936	10544.275
552.60252	10828.275
556.64279	11229.875
560.6802	11539.775
564.71473	11716.875
568.7464	11974.875
572.7752	12606.575
576.80114	13387.175
580.82422	14345.175
584.84444	15446.275
588.86181	16996.475
592.87633	18690.375
596.888	19203.975
600.89682	17794.375
604.9028	15935.775
608.90594	15385.475
612.90624	15524.975
616.90371	14228.175
620.89834	11852.975
624.89015	10830.275
628.87913	10830.675
632.86528	11051.875
636.84862	11047.575
640.82913	10737.875
644.80683	10304.675
648.78172	10093.775
652.75379	10098.075
656.72306	10200.475
660.68952	10332.875
664.65319	10220.175
668.61405	10011.475
672.57211	9960.375
676.52738	10035.075
680.47986	10041.775
684.42955	9918.075
688.37646	9808.975
692.32058	9858.475
696.26192	10009.275
700.20048	10228.375
704.13626	10410.575
708.06928	10571.375
711.99952	10658.175
715.927	10691.975
719.85171	10612.275
723.77365	10441.375
727.69284	10131.275
731.60928	9869.175
735.52295	9791.875
739.43388	9799.275
743.34206	9894.175
747.24749	10036.675
751.15017	10256.075
755.05012	10591.475
758.94733	11045.375
762.8418	11770.675
766.73354	12822.975
770.62254	13747.575
774.50882	13639.375
778.39237	12619.475
782.27321	11521.375
786.15132	10725.875
790.02671	10217.875
793.89938	9918.375
797.76935	9735.075
801.6366	9684.975
805.50115	9637.175
809.36299	9590.275
813.22213	9461.675
817.07857	9395.775
820.93231	9318.475
824.78336	9213.675
828.63172	9145.575
832.47738	9085.475
836.32036	9080.475
840.16066	9069.575
843.99827	9035.675
847.8332	9049.675
851.66546	9078.575
855.49504	9083.475
859.32195	9078.975
863.1462	9019.375
866.96777	8950.275
870.78668	8944.775
874.60293	8924.375
878.41652	8932.775
882.22745	8951.775
886.03573	9017.075
889.84136	8984.175
893.64433	8973.675
897.44466	8947.975
901.24235	8938.575
905.0374	8924.975
908.8298	8874.075
912.61957	8896.175
916.40671	9006.975
920.19121	9264.775
923.97308	9546.075
927.75233	9641.175
931.52895	9486.775
935.30295	9103.375
939.07433	8763.575
942.84309	8492.575
946.60924	8342.075
950.37278	8285.675
954.13371	8284.475
957.89203	8261.875
961.64774	8304.775
965.40086	8292.275
969.15137	8263.075
972.89929	8189.375
976.64461	8107.275
980.38733	8042.375
984.12747	8019.675
987.86502	8019.675
991.59999	8064.175
995.33237	8134.775
999.06217	8258.375
1002.78939	8477.275
1006.51404	8741.275
1010.23611	9016.875
1013.95561	9247.875
1017.67255	9336.075
1021.38692	9222.175
1025.09872	8957.275
1028.80796	8689.075
1032.51465	8553.275
1036.21877	8569.875
1039.92035	8630.275
1043.61937	8713.175
1047.31584	8782.675
1051.00976	8838.275
1054.70114	8898.075
1058.38998	8975.475
1062.07627	9067.675
1065.76003	9225.375
1069.44126	9463.475
1073.11995	9764.675
1076.79611	10041.075
1080.46974	10133.075
1084.14085	10197.475
1087.80943	10386.275
1091.47549	10598.375
1095.13903	10699.875
1098.80005	10472.075
1102.45857	9939.875
1106.11456	9513.975
1109.76805	9282.075
1113.41903	9239.575
1117.06751	9329.375
1120.71348	9476.375
1124.35696	9654.575
1127.99793	9842.075
1131.63641	9985.375
1135.2724	10017.075
1138.90589	10041.975
1142.5369	10101.675
1146.16542	10282.875
1149.79145	10486.675
1153.415	10673.575
1157.03607	10919.675
1160.65467	11425.975
1164.27079	12223.075
1167.88443	13210.975
1171.49561	14260.675
1175.10432	15432.675
1178.71056	16897.275
1182.31434	18100.875
1185.91565	18559.775
1189.51451	18252.875
1193.11091	17585.975
1196.70485	16796.175
1200.29634	16001.775
1203.88538	15385.875
1207.47197	15171.675
1211.05612	15068.875
1214.63782	14821.075
1218.21708	14265.075
1221.79391	13733.475
1225.36829	13322.775
1228.94024	13132.575
1232.50976	12923.975
1236.07685	12570.975
1239.6415	12225.475
1243.20374	12065.675
1246.76355	12090.475
1250.32093	12252.075
1253.8759	12572.475
1257.42845	13050.475
1260.97859	13627.875
1264.52631	14207.675
1268.07163	14757.375
1271.61453	15335.975
1275.15503	15979.375
1278.69312	16785.375
1282.22882	17783.175
1285.76211	18983.675
1289.29301	20296.075
1292.82151	21638.675
1296.34761	23128.175
1299.87133	24845.475
1303.39266	26529.875
1306.9116	27905.075
1310.42815	28740.175
1313.94233	29071.075
1317.45412	28681.275
1320.96354	27781.275
1324.47058	27017.775
1327.97525	26641.275
1331.47754	26352.275
1334.97747	25921.175
1338.47502	25411.875
1341.97022	24748.475
1345.46305	23982.375
1348.95352	23547.275
1352.44163	23533.775
1355.92738	24305.375
1359.41078	25871.075
1362.89183	27328.975
1366.37053	27699.075
1369.84688	26143.175
1373.32088	22901.375
1376.79254	20086.275
1380.26186	18928.775
1383.72883	18851.075
1387.19347	18766.175
1390.65578	18368.375
1394.11575	18213.275
1397.57339	18524.575
1401.0287	19029.075
1404.48168	19449.075
1407.93234	19374.275
1411.38068	18844.675
1414.82669	17979.775
1418.27039	16992.575
1421.71177	16058.775
1425.15083	15209.075
1428.58758	14729.675
1432.02203	14838.975
1435.45416	15311.875
1438.88399	15875.675
1442.31151	16280.475
1445.73673	16606.175
1449.15965	16824.575
1452.58027	16911.475
1455.9986	16889.075
1459.41463	16930.375
1462.82837	17137.575
1466.23982	17577.775
1469.64898	18087.075
1473.05586	18481.675
1476.46045	18668.775
1479.86276	18770.175
1483.26279	18810.875
1486.66054	18931.375
1490.05602	19282.675
1493.44922	19774.975
1496.84016	20271.675
1500.22882	20600.075
1503.61521	20832.475
1506.99934	20971.975
1510.38121	21060.175
1513.76081	20927.175
1517.13816	20669.175
1520.51324	20405.675
1523.88607	20318.475
1527.25665	20488.375
1530.62498	20570.575
1533.99105	20353.775
1537.35488	19704.375
1540.71647	18838.275
1544.07581	17821.875
1547.4329	16802.575
1550.78776	15973.475
1554.14038	15420.575
1557.49077	15131.175
1560.83892	15004.175
1564.18484	15073.675
1567.52853	15183.875
1570.86999	15436.175
1574.20922	15816.175
1577.54624	16203.975
1580.88103	16320.975
1584.2136	16503.275
1587.54395	17177.775
1590.87208	18398.475
1594.19801	20023.675
1597.52172	21616.175
1600.84321	22105.675
1604.16251	20910.075
1607.47959	18666.875
1610.79447	16245.375
1614.10715	14212.375
1617.41763	12668.175
1620.7259	11712.675
1624.03199	11222.175
1627.33587	11168.575
1630.63757	11621.575
1633.93707	12667.875
1637.23439	14575.175
1640.52951	17627.175
1643.82246	21788.075
1647.11321	25789.575
1650.40179	27523.775
1653.68819	25820.775
1656.97241	21761.075
1660.25446	17404.075
1663.53433	13923.475
1666.81203	11613.675
1670.08756	10206.675
1673.36092	9348.975
1676.63211	8795.775
1679.90115	8448.675
1683.16801	8190.175
1686.43272	7983.475
1689.69527	7863.275
1692.95567	7743.175
1696.2139	7660.875
1699.46999	7613.275
1702.72392	7549.675
1705.97571	7505.475
1709.22535	7462.375
1712.47284	7410.675
1715.71819	7364.675
1718.96139	7340.575
1722.20246	7292.775
1725.44139	7234.075
1728.67818	7147.875
1731.91284	7089.075
1735.14537	7033.875
1738.37576	6984.475
1741.60403	6927.975
1744.83017	6896.775
1748.05418	6872.875
1751.27607	6844.675
1754.49584	6856.375
1757.71349	6884.775
1760.92903	6881.075
1764.14244	6853.475
1767.35375	6828.775
1770.56294	6807.875
1773.77002	6733.775
1776.97499	6709.975
1780.17785	6672.175
1783.37861	6650.575
1786.57727	6631.275
1789.77382	6599.675
1792.96828	6554.275
1796.16064	6542.575
1799.3509	6514.975
1802.53907	6484.475
1805.72514	6462.975
1808.90913	6437.375
1812.09102	6412.875
1815.27083	6384.375
1818.44856	6389.275
1821.6242	6375.575
1824.79776	6368.475
1827.96924	6350.575
1831.13864	6340.475
1834.30597	6336.375
1837.47122	6316.275
1840.6344	6319.075
1843.7955	6342.375
1846.95454	6326.575
1850.11151	6315.175
1853.26642	6321.375
1856.41926	6314.775
1859.57004	6311.575
1862.71876	6281.975
1865.86542	6287.075
1869.01003	6263.375
1872.15258	6247.275
1875.29308	6254.775
1878.43152	6232.275
1881.56792	6219.875
1884.70227	6219.175
1887.83457	6219.775
1890.96482	6216.275
1894.09304	6193.875
1897.21921	6204.175
1900.34335	6159.575
1903.46544	6160.875
1906.58551	6153.075
1909.70353	6126.875
1912.81953	6117.075
1915.93349	6101.575
1919.04543	6079.175
1922.15534	6052.575
1925.26322	6027.075
1928.36908	6004.175
1931.47292	5984.675
1934.57473	5953.575
1937.67453	5918.675
1940.77232	5909.475
1943.86808	5895.775
1946.96184	5874.975
1950.05358	5851.275
1953.14331	5856.175
1956.23103	5817.675
1959.31675	5801.375
1962.40046	5777.775
1965.48217	5765.375
1968.56188	5726.275
1971.63959	5703.275
1974.7153	5667.375
1977.78901	5644.875
1980.86073	5634.475
1983.93046	5617.575
1986.99819	5583.775
1990.06394	5598.475
1993.1277	5560.575
1996.18947	5510.075
1999.24925	5524.675
2002.30706	5492.375
2005.36288	5471.975
2008.41672	5448.975
2011.46859	5448.475
2014.51848	5427.675
2017.56639	5399.175
2020.61233	5379.575
2023.6563	5386.175
2026.6983	5359.775
2029.73833	5354.775
2032.7764	5314.575
2035.8125	5298.775
2038.84664	5291.575
2041.87881	5291.975
2044.90903	5291.175
2047.93729	5263.675
2050.96359	5268.075
2053.98794	5256.975
2057.01034	5256.075
2060.03078	5236.875
2063.04927	5225.875
2066.06582	5226.475
2069.08042	5220.275
2072.09307	5214.075
2075.10378	5207.475
2078.11255	5203.575
2081.11938	5212.575
2084.12426	5213.875
2087.12722	5199.475
2090.12824	5203.375
2093.12732	5207.575
2096.12447	5188.075
2099.11969	5185.075
2102.11299	5195.275
2105.10435	5187.975
2108.09379	5179.975
2111.08131	5187.175
2114.0669	5170.275
2117.05057	5187.375
2120.03233	5190.775
2123.01216	5151.975
2125.99008	5167.275
2128.96609	5169.975
2131.94018	5159.075
2134.91236	5150.875
2137.88263	5169.075
2140.851	5144.275
2143.81746	5147.475
2146.78201	5129.775
2149.74466	5130.775
2152.7054	5152.675
2155.66425	5129.975
2158.6212	5110.175
2161.57625	5105.975
2164.52941	5109.475
2167.48067	5097.975
2170.43004	5100.075
2173.37752	5101.875
2176.32311	5086.975
2179.26681	5091.275
2182.20863	5086.475
2185.14856	5079.275
2188.08661	5082.975
2191.02278	5076.175
2193.95707	5062.475
2196.88948	5061.575
2199.82001	5056.775
2202.74867	5033.575
2205.67545	5014.475
2208.60037	5020.875
2211.52341	4997.775
2214.44458	4973.675
2217.36388	4958.575
2220.28132	4969.975
2223.1969	4946.575
2226.11061	4959.875
2229.02246	4964.075
2231.93245	4944.075
2234.84058	4940.975
2237.74686	4931.475
2240.65128	4935.575
2243.55385	4924.175
2246.45456	4924.975
2249.35343	4914.175
2252.25044	4891.575
2255.14561	4867.275
2258.03893	4859.975
2260.93041	4849.275
2263.82004	4829.375
2266.70783	4795.475
2269.59378	4770.675
2272.4779	4761.075
2275.36017	4743.975
2278.24061	4727.275
2281.11922	4710.275
2283.996	4699.575
2286.87094	4697.075
2289.74405	4683.375
2292.61534	4669.675
2295.4848	4677.075
2298.35243	4680.275
2301.21824	4652.275
2304.08223	4646.475
2306.94439	4650.975
2309.80474	4645.175
2312.66327	4630.975
2315.51999	4626.475
2318.37489	4610.975
2321.22797	4617.975
2324.07925	4594.875
2326.92871	4600.375
2329.77637	4588.475
2332.62222	4589.375
2335.46626	4592.275
2338.3085	4577.875
2341.14893	4568.975
2343.98756	4570.775
2346.8244	4590.175
2349.65943	4565.375
2352.49267	4571.875
2355.32411	4569.475
2358.15376	4575.875
2360.98161	4583.975
2363.80768	4565.375
2366.63195	4565.075
2369.45444	4561.075
2372.27514	4567.575
2375.09405	4529.075
2377.91118	4539.575
2380.72652	4524.075
2383.54009	4510.775
2386.35187	4492.175
2389.16188	4470.075
2391.97011	4472.975
2394.77657	4462.875
2397.58125	4452.875
2400.38416	4439.375
2403.18529	4439.375
2405.98466	4431.675
2408.78226	4425.875
2411.57809	4418.075
2414.37216	4405.975
2417.16446	4412.075
2419.955	4403.975
2422.74378	4408.175
2425.5308	4391.175
2428.31606	4365.775
2431.09956	4389.675
2433.88131	4374.875
2436.6613	4390.075
2439.43954	4364.175
2442.21603	4358.775
2444.99077	4355.075
2447.76377	4366.875
2450.53501	4373.375
2453.30451	4369.775
2456.07226	4355.975
2458.83827	4360.175
2461.60254	4355.775
2464.36507	4343.275
2467.12586	4345.475
2469.88492	4338.075
2472.64224	4351.175
2475.39782	4353.975
2478.15167	4362.175
2480.90379	4349.375
2483.65417	4351.375
2486.40283	4344.375
2489.14976	4334.675
2491.89497	4329.675
2494.63845	4359.375
2497.3802	4355.875
2500.12024	4355.675
2502.85855	4347.975
2505.59514	4326.475
2508.33002	4323.475
2511.06318	4298.775
2513.79462	4304.675
2516.52435	4287.375
2519.25237	4304.275
2521.97867	4309.075
2524.70327	4272.475
2527.42616	4279.075
2530.14734	4271.075
2532.86681	4271.575
2535.58458	4263.075
2538.30065	4245.575
2541.01501	4240.975
2543.72768	4239.975
2546.43864	4248.975
2549.14791	4235.775
2551.85548	4250.475
2554.56136	4240.675
2557.26554	4218.875
2559.96803	4229.775
2562.66883	4235.775
2565.36794	4206.175
2568.06536	4219.475
2570.7611	4218.775
2573.45514	4204.975
2576.14751	4213.675
2578.83819	4211.775
2581.52719	4203.875
2584.21451	4202.975
2586.90015	4195.975
2589.58411	4188.375
2592.2664	4199.575
2594.94701	4182.275
2597.62594	4176.075
2600.30321	4177.775
2602.9788	4170.775
2605.65273	4175.875
2608.32498	4180.775
2610.99557	4185.675
2613.66449	4180.875
2616.33175	4170.675
2618.99734	4156.275
2621.66128	4178.275
2624.32355	4165.375
2626.98416	4157.575
2629.64311	4164.475
2632.30041	4147.275
2634.95605	4143.275
2637.61004	4139.575
2640.26238	4153.975
2642.91306	4132.275
2645.56209	4140.475
2648.20948	4150.175
2650.85521	4126.475
2653.4993	4150.275
2656.14175	4154.475
2658.78255	4148.675
2661.42171	4150.375
2664.05923	4150.575
2666.6951	4166.575
2669.32934	4155.375
2671.96194	4175.975
2674.59291	4164.775
2677.22224	4167.675
2679.84993	4148.175
2682.476	4161.775
2685.10043	4163.275
2687.72324	4155.675
2690.34441	4152.375
2692.96396	4141.975
2695.58188	4139.975
2698.19818	4136.675
2700.81285	4156.175
2703.4259	4167.875
2706.03733	4216.875
2708.64714	4163.075
2711.25533	4165.075
2713.86191	4173.575
2716.46687	4163.275
2719.07021	4162.575
2721.67194	4167.875
2724.27206	4161.475
2726.87057	4168.175
2729.46747	4172.675
2732.06276	4183.875
2734.65644	4180.675
2737.24852	4182.875
2739.83899	4176.675
2742.42786	4171.475
2745.01513	4174.775
2747.60079	4156.375
2750.18486	4163.875
2752.76733	4158.375
2755.3482	4159.675
2757.92747	4153.575
2760.50515	4134.975
2763.08123	4146.775
2765.65573	4146.775
2768.22863	4151.075
2770.79994	4144.175
2773.36967	4142.975
2775.9378	4154.775
2778.50435	4154.875
2781.06932	4135.375
2783.6327	4149.575
2786.1945	4125.975
2788.75471	4139.275
2791.31335	4139.775
2793.87041	4148.575
2796.42589	4129.675
2798.97979	4134.175
2801.53212	4118.975
2804.08288	4129.375
2806.63206	4117.975
2809.17967	4120.875
2811.72571	4115.675
2814.27018	4118.875
2816.81308	4106.475
2819.35442	4089.075
2821.89419	4068.975
2824.43239	4093.475
2826.96904	4083.675
2829.50412	4088.375
2832.03763	4081.575
2834.56959	4082.275
2837.1	4078.775
2839.62884	4073.775
2842.15613	4091.475
2844.68186	4099.475
2847.20604	4102.475
2849.72867	4132.675
2852.24974	4119.675
2854.76927	4119.975
2857.28724	4122.875
2859.80367	4109.675
2862.31855	4079.975
2864.83189	4080.875
2867.34368	4062.875
2869.85393	4074.375
2872.36264	4062.075
2874.8698	4060.175
2877.37543	4060.075
2879.87952	4066.175
2882.38207	4050.775
2884.88308	4056.875
2887.38256	4051.375
2889.88051	4053.575
2892.37692	4053.075
2894.8718	4052.275
2897.36515	4059.575
2899.85698	4065.875
2902.34727	4060.175
2904.83604	4079.075
2907.32328	4081.475
2909.809	4074.475
2912.29319	4082.675
2914.77587	4085.675
2917.25702	4091.075
2919.73665	4084.475
2922.21476	4087.875
2924.69136	4079.675
2927.16644	4095.075
2929.64	4092.575
2932.11205	4088.275
2934.58258	4061.775
2937.05161	4065.875
2939.51912	4072.375
2941.98513	4063.375
2944.44962	4057.975
2946.91261	4033.575
2949.37409	4028.175
2951.83407	4033.775
2954.29254	4020.275
2956.74951	4015.975
2959.20498	4016.575
2961.65895	4002.675
2964.11142	3984.675
2966.56239	3977.275
2969.01186	3957.775
2971.45984	3932.075
2973.90632	3922.575
2976.35131	3902.775
2978.7948	3893.075
2981.23681	3901.475
2983.67732	3870.675
2986.11635	3854.875
2988.55388	3832.875
2990.98993	3841.575
2993.4245	3825.275
2995.85758	3807.575
2998.28917	3797.875
3000.71928	3784.775
3003.14791	3787.875
3005.57506	3792.775
3008.00073	3767.775
3010.42493	3769.375
3012.84764	3759.275
3015.26888	3751.975
3017.68865	3729.575
3020.10694	3713.675
3022.52376	3707.975
3024.9391	3721.275
3027.35298	3689.475
3029.76539	3687.675
3032.17632	3690.775
3034.5858	3681.675
3036.9938	3678.575
3039.40034	3674.475
3041.80542	3656.775
3044.20903	3651.075
3046.61118	3645.575
3049.01187	3628.375
3051.4111	3628.975
3053.80888	3608.675
3056.20519	3612.875
3058.60005	3615.075
3060.99345	3616.675
3063.3854	3601.575
3065.7759	3593.775
3068.16494	3577.175
3070.55254	3556.975
3072.93868	3562.475
3075.32338	3537.775
3077.70662	3534.075
3080.08842	3516.375
3082.46878	3520.375
3084.84769	3510.575
3087.22515	3509.475
3089.60118	3494.975
3091.97576	3504.375
3094.3489	3495.375
3096.72061	3494.875
3099.09087	3489.475
3101.4597	3480.375
3103.82709	3481.975
3106.19305	3471.375
3108.55757	3461.975
3110.92066	3468.675
3113.28232	3472.675
3115.64255	3437.175
3118.00134	3432.975
3120.35871	3439.475
3122.71466	3422.475
3125.06917	3411.175
3127.42226	3397.275
3129.77393	3417.775
3132.12417	3421.075
3134.47299	3401.875
3136.82039	3403.775
3139.16636	3403.075
3141.51092	3416.375
3143.85406	3405.175
3146.19579	3416.675
3148.53609	3401.075
3150.87499	3403.975
3153.21246	3402.575
3155.54853	3400.775
3157.88318	3404.775
3160.21642	3408.975
3162.54826	3392.375
3164.87868	3387.575
3167.2077	3400.475
3169.5353	3390.175
3171.86151	3390.275
3174.18631	3391.975
3176.5097	3396.475
3178.83169	3379.775
3181.15228	3393.775
3183.47147	3370.575
3185.78926	3364.075
3188.10565	3370.775
3190.42065	3377.175
3192.73424	3378.575
3195.04645	3355.975
3197.35725	3345.375
3199.66667	3357.475
3201.97469	3343.075
