Data from AgNPs_FTO_APTES_UA_10um_CRN_0.1mM_R6G_10uM_NaF_0.1M_Addition_RamanShift__11__13-48-19-136.txt Node

Date: Tue Dec 21 13:48:19 GMT 2021
User: TCL
Spectrometer: QEP01345
Trigger mode: 4
Integration Time (sec): 7.000000E0
Scans to average: 10
Electric dark correction enabled: true
Nonlinearity correction enabled: false
Boxcar width: 0
XAxis mode: Raman Shifts
Number of Pixels in Spectrum: 1044
>>>>>Begin Spectral Data<<<<<
46.04893	-0.275
50.45542	-0.775
54.85868	-0.575
59.25871	-0.075
63.6555	39.325
68.04907	43.525
72.43941	44.525
76.82654	45.425
81.21044	51.325
85.59113	54.425
89.96862	55.125
94.34289	54.925
98.71396	53.725
103.08183	57.725
107.4465	63.125
111.80798	63.625
116.16626	64.725
120.52136	67.725
124.87327	68.525
129.222	67.325
133.56755	76.825
137.90993	84.625
142.24913	88.225
146.58517	99.925
150.91804	113.325
155.24774	134.025
159.57429	165.225
163.89768	211.125
168.21792	277.825
172.53501	372.125
176.84895	517.325
181.15975	734.325
185.46741	1024.825
189.77193	1416.425
194.07331	1904.425
198.37157	2463.525
202.6667	3046.925
206.9587	3656.325
211.24758	4230.625
215.53334	4829.425
219.81599	5446.625
224.09553	6113.625
228.37195	6851.225
232.64527	7665.925
236.91549	8519.325
241.18261	9397.225
245.44663	10174.325
249.70755	10894.325
253.96539	11527.425
258.22014	12008.025
262.4718	12387.725
266.72039	12685.025
270.96589	12769.925
275.20832	12763.825
279.44768	12671.625
283.68397	12563.525
287.91719	12439.925
292.14735	12403.225
296.37445	12351.625
300.59849	12363.825
304.81948	12391.425
309.03742	12415.625
313.25231	12344.425
317.46415	12108.025
321.67296	11825.725
325.87872	11530.825
330.08145	11351.325
334.28114	11304.325
338.47781	11348.825
342.67145	11458.325
346.86207	11600.925
351.04966	11762.825
355.23424	11929.025
359.4158	12104.825
363.59435	12201.125
367.76989	12248.525
371.94243	12292.825
376.11196	12328.125
380.27849	12340.425
384.44203	12405.325
388.60257	12492.825
392.76012	12667.225
396.91468	12847.125
401.06626	13068.125
405.21485	13241.025
409.36047	13224.725
413.50311	13053.925
417.64277	12900.325
421.77947	12879.125
425.9132	12928.725
430.04396	12987.725
434.17176	13028.825
438.2966	13105.825
442.41849	13211.925
446.53742	13432.625
450.6534	13741.825
454.76644	13938.725
458.87653	14017.225
462.98368	14027.725
467.08789	14007.025
471.18916	13903.925
475.2875	13797.925
479.38291	13747.925
483.4754	13700.925
487.56496	13620.225
491.6516	13415.225
495.73531	13243.325
499.81612	13151.825
503.89401	13149.525
507.96899	13173.725
512.04106	13138.125
516.11023	13074.425
520.1765	12940.025
524.23987	12826.425
528.30034	12674.125
532.35792	12612.025
536.41261	12481.925
540.46441	12354.425
544.51333	12379.925
548.55936	12479.125
552.60252	12714.725
556.64279	12990.325
560.6802	13154.725
564.71473	13270.425
568.7464	13501.825
572.7752	13922.325
576.80114	14405.025
580.82422	14844.025
584.84444	15293.525
588.86181	15665.225
592.87633	15962.625
596.888	15891.225
600.89682	15477.525
604.9028	15339.025
608.90594	15982.825
612.90624	16817.525
616.90371	15858.625
620.89834	13636.725
624.89015	12625.825
628.87913	12562.325
632.86528	12735.225
636.84862	12820.525
640.82913	12627.625
644.80683	12359.725
648.78172	12130.125
652.75379	12062.525
656.72306	12149.825
660.68952	12314.225
664.65319	12298.125
668.61405	12166.325
672.57211	12178.925
676.52738	12213.225
680.47986	12255.925
684.42955	12198.025
688.37646	12152.125
692.32058	12187.025
696.26192	12211.825
700.20048	12313.325
704.13626	12428.725
708.06928	12479.625
711.99952	12459.025
715.927	12424.325
719.85171	12355.825
723.77365	12284.825
727.69284	12145.425
731.60928	11980.525
735.52295	11926.725
739.43388	11911.025
743.34206	11945.025
747.24749	11986.825
751.15017	12063.725
755.05012	12260.325
758.94733	12607.725
762.8418	13221.125
766.73354	14100.325
770.62254	14954.125
774.50882	15148.325
778.39237	14494.125
782.27321	13559.625
786.15132	12741.325
790.02671	12200.025
793.89938	11933.725
797.76935	11771.225
801.6366	11752.525
805.50115	11667.325
809.36299	11608.825
813.22213	11529.525
817.07857	11503.325
820.93231	11476.125
824.78336	11409.525
828.63172	11350.925
832.47738	11331.925
836.32036	11312.525
840.16066	11291.425
843.99827	11260.625
847.8332	11238.925
851.66546	11226.925
855.49504	11221.425
859.32195	11236.225
863.1462	11193.325
866.96777	11166.925
870.78668	11172.825
874.60293	11185.325
878.41652	11176.525
882.22745	11228.425
886.03573	11240.325
889.84136	11274.925
893.64433	11262.525
897.44466	11216.025
901.24235	11192.025
905.0374	11142.825
908.8298	11131.525
912.61957	11125.825
916.40671	11216.225
920.19121	11336.825
923.97308	11488.325
927.75233	11480.025
931.52895	11360.325
935.30295	11167.725
939.07433	10967.725
942.84309	10797.425
946.60924	10683.025
950.37278	10629.925
954.13371	10637.625
957.89203	10601.325
961.64774	10595.825
965.40086	10576.125
969.15137	10573.825
972.89929	10510.525
976.64461	10458.225
980.38733	10418.925
984.12747	10412.125
987.86502	10428.625
991.59999	10458.725
995.33237	10532.325
999.06217	10647.125
1002.78939	10808.225
1006.51404	10968.925
1010.23611	11125.725
1013.95561	11292.625
1017.67255	11333.625
1021.38692	11284.025
1025.09872	11147.325
1028.80796	10976.825
1032.51465	10895.425
1036.21877	10912.025
1039.92035	10977.025
1043.61937	11061.225
1047.31584	11113.525
1051.00976	11154.125
1054.70114	11202.825
1058.38998	11293.925
1062.07627	11408.925
1065.76003	11582.225
1069.44126	11712.625
1073.11995	11942.925
1076.79611	12118.525
1080.46974	12150.925
1084.14085	12179.725
1087.80943	12236.225
1091.47549	12348.225
1095.13903	12463.225
1098.80005	12373.725
1102.45857	12068.425
1106.11456	11755.725
1109.76805	11547.725
1113.41903	11472.025
1117.06751	11480.725
1120.71348	11608.225
1124.35696	11793.025
1127.99793	11925.425
1131.63641	12045.525
1135.2724	12050.525
1138.90589	11961.725
1142.5369	11987.125
1146.16542	12050.825
1149.79145	12167.725
1153.415	12268.625
1157.03607	12400.425
1160.65467	12667.925
1164.27079	13081.025
1167.88443	13704.225
1171.49561	14389.625
1175.10432	15261.425
1178.71056	16324.925
1182.31434	17308.925
1185.91565	17891.525
1189.51451	18083.625
1193.11091	17850.625
1196.70485	17329.025
1200.29634	16662.025
1203.88538	16135.925
1207.47197	15780.825
1211.05612	15485.525
1214.63782	15178.225
1218.21708	14813.725
1221.79391	14342.825
1225.36829	14047.925
1228.94024	13854.925
1232.50976	13740.625
1236.07685	13622.925
1239.6415	13577.725
1243.20374	13539.125
1246.76355	13594.425
1250.32093	13749.225
1253.8759	13978.625
1257.42845	14329.925
1260.97859	14763.725
1264.52631	15157.425
1268.07163	15541.525
1271.61453	15934.425
1275.15503	16349.025
1278.69312	16806.725
1282.22882	17249.025
1285.76211	17852.525
1289.29301	18506.425
1292.82151	19208.725
1296.34761	19997.325
1299.87133	20930.025
1303.39266	21757.125
1306.9116	22532.925
1310.42815	23215.825
1313.94233	23590.225
1317.45412	23507.325
1320.96354	23270.625
1324.47058	23036.125
1327.97525	22883.925
1331.47754	22825.625
1334.97747	22886.325
1338.47502	22804.225
1341.97022	22776.125
1345.46305	22744.925
1348.95352	22646.325
1352.44163	22573.725
1355.92738	22685.925
1359.41078	23095.325
1362.89183	23552.425
1366.37053	23372.825
1369.84688	22082.825
1373.32088	20199.125
1376.79254	18629.225
1380.26186	17893.525
1383.72883	17649.625
1387.19347	17496.325
1390.65578	17277.225
1394.11575	17148.025
1397.57339	17135.825
1401.0287	17227.425
1404.48168	17283.825
1407.93234	17201.425
1411.38068	16883.725
1414.82669	16364.025
1418.27039	15753.925
1421.71177	15170.225
1425.15083	14706.425
1428.58758	14419.425
1432.02203	14419.025
1435.45416	14634.725
1438.88399	14913.225
1442.31151	15134.425
1445.73673	15385.425
1449.15965	15613.425
1452.58027	15795.925
1455.9986	15930.825
1459.41463	16088.325
1462.82837	16349.725
1466.23982	16650.125
1469.64898	16945.725
1473.05586	17149.625
1476.46045	17176.725
1479.86276	17223.325
1483.26279	17209.425
1486.66054	17248.025
1490.05602	17451.325
1493.44922	17814.325
1496.84016	18238.925
1500.22882	18836.125
1503.61521	19543.625
1506.99934	20215.625
1510.38121	20654.325
1513.76081	20661.925
1517.13816	20225.125
1520.51324	19611.625
1523.88607	19090.125
1527.25665	18770.825
1530.62498	18573.425
1533.99105	18333.325
1537.35488	17990.425
1540.71647	17523.925
1544.07581	16988.225
1547.4329	16399.025
1550.78776	15967.025
1554.14038	15703.725
1557.49077	15551.125
1560.83892	15577.625
1564.18484	15652.925
1567.52853	15828.725
1570.86999	15970.825
1574.20922	16230.525
1577.54624	16399.625
1580.88103	16393.025
1584.2136	16317.325
1587.54395	16424.225
1590.87208	16865.725
1594.19801	17545.125
1597.52172	18298.825
1600.84321	18561.025
1604.16251	18000.325
1607.47959	16891.025
1610.79447	15688.325
1614.10715	14518.325
1617.41763	13517.925
1620.7259	12768.925
1624.03199	12341.725
1627.33587	12179.025
1630.63757	12399.825
1633.93707	12967.725
1637.23439	14054.725
1640.52951	15667.825
1643.82246	17721.925
1647.11321	19711.425
1650.40179	20719.025
1653.68819	20117.025
1656.97241	18156.025
1660.25446	15774.125
1663.53433	13730.325
1666.81203	12227.625
1670.08756	11263.325
1673.36092	10650.025
1676.63211	10241.725
1679.90115	9974.625
1683.16801	9743.625
1686.43272	9598.325
1689.69527	9501.025
1692.95567	9407.725
1696.2139	9361.525
1699.46999	9329.425
1702.72392	9288.625
1705.97571	9229.825
1709.22535	9150.825
1712.47284	9124.425
1715.71819	9070.325
1718.96139	9050.325
1722.20246	8986.325
1725.44139	8937.925
1728.67818	8899.625
1731.91284	8849.325
1735.14537	8788.825
1738.37576	8734.225
1741.60403	8730.225
1744.83017	8685.925
1748.05418	8682.725
1751.27607	8667.925
1754.49584	8668.125
1757.71349	8695.425
1760.92903	8687.825
1764.14244	8671.825
1767.35375	8657.925
1770.56294	8620.325
1773.77002	8573.425
1776.97499	8524.725
1780.17785	8474.625
1783.37861	8433.825
1786.57727	8412.425
1789.77382	8380.725
1792.96828	8347.925
1796.16064	8331.625
1799.3509	8307.825
1802.53907	8270.025
1805.72514	8249.925
1808.90913	8212.625
1812.09102	8195.325
1815.27083	8176.025
1818.44856	8165.325
1821.6242	8152.625
1824.79776	8120.225
1827.96924	8112.125
1831.13864	8111.625
1834.30597	8108.425
1837.47122	8062.625
1840.6344	8091.525
1843.7955	8084.725
1846.95454	8088.025
1850.11151	8066.425
1853.26642	8053.925
1856.41926	8028.925
1859.57004	8042.625
1862.71876	8014.425
1865.86542	8009.525
1869.01003	7996.325
1872.15258	7983.625
1875.29308	7969.125
1878.43152	7938.025
1881.56792	7951.225
1884.70227	7914.025
1887.83457	7884.025
1890.96482	7879.725
1894.09304	7845.525
1897.21921	7875.625
1900.34335	7841.125
1903.46544	7842.525
1906.58551	7830.425
1909.70353	7824.525
1912.81953	7798.125
1915.93349	7793.325
1919.04543	7751.625
1922.15534	7746.425
1925.26322	7702.525
1928.36908	7688.225
1931.47292	7669.225
1934.57473	7660.325
1937.67453	7618.525
1940.77232	7594.325
1943.86808	7581.125
1946.96184	7566.425
1950.05358	7535.925
1953.14331	7520.425
1956.23103	7475.125
1959.31675	7474.425
1962.40046	7440.725
1965.48217	7418.525
1968.56188	7391.025
1971.63959	7367.725
1974.7153	7322.425
1977.78901	7326.025
1980.86073	7286.925
1983.93046	7263.525
1986.99819	7221.925
1990.06394	7201.825
1993.1277	7180.725
1996.18947	7151.225
1999.24925	7153.425
2002.30706	7122.125
2005.36288	7078.825
2008.41672	7059.925
2011.46859	7051.125
2014.51848	7018.025
2017.56639	7003.325
2020.61233	6976.425
2023.6563	6961.025
2026.6983	6936.625
2029.73833	6947.925
2032.7764	6900.525
2035.8125	6888.425
2038.84664	6865.525
2041.87881	6858.325
2044.90903	6840.325
2047.93729	6834.225
2050.96359	6836.625
2053.98794	6814.825
2057.01034	6803.125
2060.03078	6753.725
2063.04927	6764.125
2066.06582	6766.025
2069.08042	6751.725
2072.09307	6733.425
2075.10378	6750.125
2078.11255	6733.025
2081.11938	6741.725
2084.12426	6725.025
2087.12722	6723.025
2090.12824	6722.325
2093.12732	6721.525
2096.12447	6708.425
2099.11969	6692.025
2102.11299	6704.825
2105.10435	6707.425
2108.09379	6719.725
2111.08131	6706.225
2114.0669	6703.425
2117.05057	6706.525
2120.03233	6714.425
2123.01216	6708.425
2125.99008	6722.325
2128.96609	6714.925
2131.94018	6714.425
2134.91236	6705.025
2137.88263	6724.325
2140.851	6714.425
2143.81746	6719.825
2146.78201	6704.325
2149.74466	6712.925
2152.7054	6712.725
2155.66425	6695.425
2158.6212	6682.825
2161.57625	6680.025
2164.52941	6696.525
2167.48067	6675.325
2170.43004	6665.025
2173.37752	6651.525
2176.32311	6657.325
2179.26681	6656.425
2182.20863	6637.025
2185.14856	6645.725
2188.08661	6629.525
2191.02278	6626.225
2193.95707	6621.025
2196.88948	6612.125
2199.82001	6607.425
2202.74867	6588.325
2205.67545	6601.725
2208.60037	6579.525
2211.52341	6559.825
2214.44458	6572.625
2217.36388	6530.125
2220.28132	6519.125
2223.1969	6510.125
2226.11061	6499.725
2229.02246	6501.325
2231.93245	6472.925
2234.84058	6469.125
2237.74686	6446.825
2240.65128	6457.525
2243.55385	6427.825
2246.45456	6422.725
2249.35343	6406.725
2252.25044	6391.425
2255.14561	6376.225
2258.03893	6369.025
2260.93041	6385.125
2263.82004	6339.125
2266.70783	6310.925
2269.59378	6287.725
2272.4779	6274.625
2275.36017	6259.225
2278.24061	6240.325
2281.11922	6224.225
2283.996	6212.725
2286.87094	6217.725
2289.74405	6205.325
2292.61534	6174.825
2295.4848	6168.025
2298.35243	6156.025
2301.21824	6151.325
2304.08223	6172.525
2306.94439	6165.225
2309.80474	6115.225
2312.66327	6135.225
2315.51999	6100.525
2318.37489	6091.325
2321.22797	6097.625
2324.07925	6103.325
2326.92871	6093.825
2329.77637	6092.225
2332.62222	6071.025
2335.46626	6049.325
2338.3085	6045.025
2341.14893	6051.925
2343.98756	6026.325
2346.8244	6035.425
2349.65943	6029.925
2352.49267	6024.425
2355.32411	6014.025
2358.15376	6026.725
2360.98161	6012.325
2363.80768	6017.825
2366.63195	6008.825
2369.45444	5998.925
2372.27514	5994.625
2375.09405	5974.225
2377.91118	5961.025
2380.72652	5961.425
2383.54009	5936.125
2386.35187	5939.225
2389.16188	5908.325
2391.97011	5910.725
2394.77657	5888.825
2397.58125	5875.625
2400.38416	5865.125
2403.18529	5848.125
2405.98466	5845.325
2408.78226	5838.525
2411.57809	5813.325
2414.37216	5801.025
2417.16446	5798.525
2419.955	5785.325
2422.74378	5800.325
2425.5308	5794.025
2428.31606	5783.525
2431.09956	5788.825
2433.88131	5749.325
2436.6613	5755.425
2439.43954	5741.725
2442.21603	5723.525
2444.99077	5738.025
2447.76377	5722.625
2450.53501	5723.925
2453.30451	5738.325
2456.07226	5716.825
2458.83827	5729.525
2461.60254	5724.825
2464.36507	5716.225
2467.12586	5700.525
2469.88492	5701.125
2472.64224	5693.225
2475.39782	5695.525
2478.15167	5688.625
2480.90379	5693.825
2483.65417	5693.525
2486.40283	5666.825
2489.14976	5668.725
2491.89497	5666.425
2494.63845	5690.325
2497.3802	5684.925
2500.12024	5678.425
2502.85855	5653.625
2505.59514	5661.325
2508.33002	5646.125
2511.06318	5628.525
2513.79462	5636.325
2516.52435	5620.725
2519.25237	5607.625
2521.97867	5603.025
2524.70327	5605.725
2527.42616	5605.325
2530.14734	5576.725
2532.86681	5557.325
2535.58458	5569.125
2538.30065	5550.125
2541.01501	5549.425
2543.72768	5535.725
2546.43864	5519.025
2549.14791	5527.025
2551.85548	5526.125
2554.56136	5537.825
2557.26554	5510.325
2559.96803	5497.325
2562.66883	5508.625
2565.36794	5495.325
2568.06536	5477.825
2570.7611	5469.425
2573.45514	5465.225
2576.14751	5450.425
2578.83819	5448.025
2581.52719	5447.125
2584.21451	5427.725
2586.90015	5412.525
2589.58411	5414.925
2592.2664	5411.825
2594.94701	5370.025
2597.62594	5389.825
2600.30321	5371.725
2602.9788	5366.425
2605.65273	5344.825
2608.32498	5357.425
2610.99557	5351.725
2613.66449	5360.225
2616.33175	5341.625
2618.99734	5353.425
2621.66128	5311.925
2624.32355	5329.225
2626.98416	5330.325
2629.64311	5314.925
2632.30041	5293.425
2634.95605	5314.325
2637.61004	5277.425
2640.26238	5284.725
2642.91306	5281.725
2645.56209	5286.225
2648.20948	5281.225
2650.85521	5274.125
2653.4993	5277.025
2656.14175	5282.425
2658.78255	5272.025
2661.42171	5254.725
2664.05923	5276.425
2666.6951	5276.825
2669.32934	5280.125
2671.96194	5277.425
2674.59291	5286.625
2677.22224	5278.225
2679.84993	5269.225
2682.476	5258.825
2685.10043	5271.625
2687.72324	5246.325
2690.34441	5259.725
2692.96396	5247.925
2695.58188	5256.925
2698.19818	5271.825
2700.81285	5256.725
2703.4259	5278.925
2706.03733	5353.025
2708.64714	5289.025
2711.25533	5275.625
2713.86191	5272.825
2716.46687	5286.225
2719.07021	5253.225
2721.67194	5260.425
2724.27206	5252.525
2726.87057	5258.125
2729.46747	5257.825
2732.06276	5266.225
2734.65644	5255.825
2737.24852	5267.825
2739.83899	5239.025
2742.42786	5246.125
2745.01513	5224.625
2747.60079	5228.325
2750.18486	5209.325
2752.76733	5210.225
2755.3482	5202.425
2757.92747	5204.925
2760.50515	5184.725
2763.08123	5198.225
2765.65573	5193.925
2768.22863	5189.625
2770.79994	5177.325
2773.36967	5184.025
2775.9378	5190.625
2778.50435	5176.525
2781.06932	5147.725
2783.6327	5149.525
2786.1945	5146.225
2788.75471	5141.225
2791.31335	5112.125
2793.87041	5121.025
2796.42589	5100.625
2798.97979	5102.925
2801.53212	5082.925
2804.08288	5102.925
2806.63206	5092.525
2809.17967	5061.925
2811.72571	5077.425
2814.27018	5056.825
2816.81308	5062.825
2819.35442	5059.025
2821.89419	5031.025
2824.43239	5035.825
2826.96904	5036.925
2829.50412	5028.225
2832.03763	5028.225
2834.56959	5034.925
2837.1	5015.725
2839.62884	5031.225
2842.15613	5011.225
2844.68186	5025.625
2847.20604	5046.025
2849.72867	5043.925
2852.24974	5023.625
2854.76927	5037.825
2857.28724	5048.925
2859.80367	5030.325
2862.31855	5008.425
2864.83189	5006.925
2867.34368	5011.425
2869.85393	4984.025
2872.36264	4977.925
2874.8698	4969.325
2877.37543	4968.725
2879.87952	4989.625
2882.38207	4959.125
2884.88308	4969.325
2887.38256	4963.225
2889.88051	4976.625
2892.37692	4936.125
2894.8718	4954.225
2897.36515	4975.725
2899.85698	4966.525
2902.34727	4971.825
2904.83604	4957.225
2907.32328	4958.225
2909.809	4984.725
2912.29319	4991.825
2914.77587	4993.125
2917.25702	4981.025
2919.73665	4992.725
2922.21476	4995.725
2924.69136	4990.325
2927.16644	4997.425
2929.64	4988.525
2932.11205	4981.225
2934.58258	4953.225
2937.05161	4983.125
2939.51912	4974.625
2941.98513	4954.625
2944.44962	4959.525
2946.91261	4929.025
2949.37409	4953.025
2951.83407	4921.625
2954.29254	4915.325
2956.74951	4918.425
2959.20498	4899.425
2961.65895	4882.325
2964.11142	4879.225
2966.56239	4837.325
2969.01186	4854.025
2971.45984	4836.625
2973.90632	4815.425
2976.35131	4802.925
2978.7948	4791.525
2981.23681	4791.925
2983.67732	4757.425
2986.11635	4754.825
2988.55388	4720.225
2990.98993	4725.825
2993.4245	4707.325
2995.85758	4702.825
2998.28917	4671.325
3000.71928	4695.725
3003.14791	4689.425
3005.57506	4662.925
3008.00073	4666.925
3010.42493	4666.125
3012.84764	4654.225
3015.26888	4650.825
3017.68865	4625.225
3020.10694	4611.225
3022.52376	4608.825
3024.9391	4601.025
3027.35298	4582.325
3029.76539	4576.925
3032.17632	4575.225
3034.5858	4546.325
3036.9938	4551.125
3039.40034	4543.825
3041.80542	4536.725
3044.20903	4519.325
3046.61118	4518.925
3049.01187	4516.125
3051.4111	4518.125
3053.80888	4496.325
3056.20519	4513.225
3058.60005	4496.425
3060.99345	4486.625
3063.3854	4468.525
3065.7759	4457.525
3068.16494	4446.625
3070.55254	4434.325
3072.93868	4426.825
3075.32338	4419.625
3077.70662	4395.625
3080.08842	4390.925
3082.46878	4383.425
3084.84769	4374.725
3087.22515	4377.125
3089.60118	4361.525
3091.97576	4381.325
3094.3489	4373.725
3096.72061	4371.825
3099.09087	4379.625
3101.4597	4354.625
3103.82709	4367.825
3106.19305	4354.525
3108.55757	4355.325
3110.92066	4354.125
3113.28232	4338.125
3115.64255	4303.025
3118.00134	4310.525
3120.35871	4290.425
3122.71466	4288.725
3125.06917	4301.725
3127.42226	4293.325
3129.77393	4289.925
3132.12417	4283.825
3134.47299	4284.425
3136.82039	4264.825
3139.16636	4273.025
3141.51092	4292.425
3143.85406	4291.625
3146.19579	4290.425
3148.53609	4279.825
3150.87499	4279.025
3153.21246	4292.625
3155.54853	4299.525
3157.88318	4291.425
3160.21642	4288.625
3162.54826	4288.725
3164.87868	4296.225
3167.2077	4288.425
3169.5353	4298.625
3171.86151	4286.625
3174.18631	4264.225
3176.5097	4285.825
3178.83169	4268.625
3181.15228	4271.125
3183.47147	4259.925
3185.78926	4262.425
3188.10565	4259.025
3190.42065	4247.425
