Data from AgNPs_FTO_APTES_UA_0um_CRN_0.1mM_R6G_10uM_NaF_0.1M_Addition_RamanShift__65__11-27-08-975.txt Node

Date: Tue Dec 21 11:27:08 GMT 2021
User: TCL
Spectrometer: QEP01345
Trigger mode: 4
Integration Time (sec): 7.000000E0
Scans to average: 10
Electric dark correction enabled: true
Nonlinearity correction enabled: false
Boxcar width: 0
XAxis mode: Raman Shifts
Number of Pixels in Spectrum: 1044
>>>>>Begin Spectral Data<<<<<
46.04893	-1.7875
50.45542	-0.0875
54.85868	0.2125
59.25871	0.7125
63.6555	30.0125
68.04907	34.7125
72.43941	37.4125
76.82654	38.4125
81.21044	42.3125
85.59113	40.5125
89.96862	50.2125
94.34289	48.2125
98.71396	47.8125
103.08183	49.8125
107.4465	53.0125
111.80798	54.2125
116.16626	51.8125
120.52136	53.0125
124.87327	55.9125
129.222	55.5125
133.56755	59.4125
137.90993	64.2125
142.24913	67.5125
146.58517	74.3125
150.91804	80.5125
155.24774	94.8125
159.57429	118.4125
163.89768	150.0125
168.21792	195.1125
172.53501	259.8125
176.84895	350.3125
181.15975	496.6125
185.46741	691.3125
189.77193	940.2125
194.07331	1267.1125
198.37157	1628.3125
202.6667	2008.7125
206.9587	2397.4125
211.24758	2787.7125
215.53334	3210.8125
219.81599	3661.4125
224.09553	4182.2125
228.37195	4775.5125
232.64527	5402.4125
236.91549	6005.8125
241.18261	6543.3125
245.44663	6968.9125
249.70755	7273.9125
253.96539	7493.5125
258.22014	7678.2125
262.4718	7857.1125
266.72039	7970.8125
270.96589	8023.5125
275.20832	8002.2125
279.44768	7926.4125
283.68397	7864.8125
287.91719	7851.9125
292.14735	7919.4125
296.37445	8116.1125
300.59849	8513.1125
304.81948	9001.8125
309.03742	9431.1125
313.25231	9472.9125
317.46415	8942.0125
321.67296	8070.3125
325.87872	7298.9125
330.08145	6881.7125
334.28114	6829.9125
338.47781	6962.9125
342.67145	7223.8125
346.86207	7637.1125
351.04966	8225.8125
355.23424	8943.6125
359.4158	9475.7125
363.59435	9659.0125
367.76989	9592.0125
371.94243	9434.5125
376.11196	9243.4125
380.27849	9086.9125
384.44203	8903.0125
388.60257	8701.1125
392.76012	8594.0125
396.91468	8742.8125
401.06626	9075.2125
405.21485	9375.1125
409.36047	9190.1125
413.50311	8579.2125
417.64277	7977.2125
421.77947	7657.5125
425.9132	7500.3125
430.04396	7472.7125
434.17176	7502.2125
438.2966	7612.4125
442.41849	7855.3125
446.53742	8196.6125
450.6534	8513.1125
454.76644	8696.2125
458.87653	8653.4125
462.98368	8487.8125
467.08789	8276.3125
471.18916	8012.7125
475.2875	7763.9125
479.38291	7559.6125
483.4754	7362.3125
487.56496	7217.0125
491.6516	7127.1125
495.73531	7099.9125
499.81612	7161.4125
503.89401	7275.8125
507.96899	7409.2125
512.04106	7501.9125
516.11023	7573.4125
520.1765	7640.3125
524.23987	7607.4125
528.30034	7422.0125
532.35792	7213.6125
536.41261	6946.4125
540.46441	6664.2125
544.51333	6483.5125
548.55936	6523.9125
552.60252	6735.0125
556.64279	7051.4125
560.6802	7271.5125
564.71473	7554.4125
568.7464	8148.3125
572.7752	8607.8125
576.80114	8350.1125
580.82422	7969.0125
584.84444	7825.1125
588.86181	7768.5125
592.87633	7769.2125
596.888	7844.7125
600.89682	8156.6125
604.9028	9195.9125
608.90594	12243.4125
612.90624	16602.7125
616.90371	16283.5125
620.89834	10461.8125
624.89015	7451.3125
628.87913	6875.8125
632.86528	6925.4125
636.84862	7069.2125
640.82913	6931.5125
644.80683	6469.2125
648.78172	6149.5125
652.75379	6184.3125
656.72306	6616.5125
660.68952	7155.5125
664.65319	7136.4125
668.61405	6611.7125
672.57211	6299.3125
676.52738	6257.0125
680.47986	6252.1125
684.42955	6156.8125
688.37646	6077.2125
692.32058	6101.7125
696.26192	6182.3125
700.20048	6335.8125
704.13626	6507.5125
708.06928	6541.1125
711.99952	6435.2125
715.927	6320.1125
719.85171	6307.7125
723.77365	6254.2125
727.69284	6137.6125
731.60928	6042.5125
735.52295	6033.9125
739.43388	6075.8125
743.34206	6118.5125
747.24749	6214.6125
751.15017	6335.6125
755.05012	6552.2125
758.94733	7038.2125
762.8418	8164.7125
766.73354	10122.8125
770.62254	12135.9125
774.50882	13043.2125
778.39237	12458.0125
782.27321	10536.3125
786.15132	8393.4125
790.02671	7081.2125
793.89938	6508.8125
797.76935	6240.5125
801.6366	6149.0125
805.50115	6080.0125
809.36299	6018.4125
813.22213	5974.7125
817.07857	5932.4125
820.93231	5910.4125
824.78336	5941.1125
828.63172	6009.0125
832.47738	6030.1125
836.32036	6037.1125
840.16066	5958.3125
843.99827	5872.2125
847.8332	5836.1125
851.66546	5813.6125
855.49504	5834.9125
859.32195	5819.3125
863.1462	5741.1125
866.96777	5688.8125
870.78668	5671.3125
874.60293	5662.2125
878.41652	5693.1125
882.22745	5733.8125
886.03573	5781.5125
889.84136	5764.9125
893.64433	5699.7125
897.44466	5674.7125
901.24235	5697.4125
905.0374	5654.9125
908.8298	5606.1125
912.61957	5598.6125
916.40671	5645.0125
920.19121	5760.4125
923.97308	5890.6125
927.75233	5997.6125
931.52895	6081.3125
935.30295	5941.7125
939.07433	5638.4125
942.84309	5375.3125
946.60924	5214.2125
950.37278	5125.1125
954.13371	5106.5125
957.89203	5046.2125
961.64774	5030.6125
965.40086	4999.3125
969.15137	4996.2125
972.89929	4947.8125
976.64461	4949.9125
980.38733	4959.7125
984.12747	4962.3125
987.86502	4977.2125
991.59999	5018.2125
995.33237	5102.5125
999.06217	5260.4125
1002.78939	5481.1125
1006.51404	5707.9125
1010.23611	5938.2125
1013.95561	6055.4125
1017.67255	5955.7125
1021.38692	5788.9125
1025.09872	5567.9125
1028.80796	5471.6125
1032.51465	5508.4125
1036.21877	5649.8125
1039.92035	5793.4125
1043.61937	5902.8125
1047.31584	5886.3125
1051.00976	5860.4125
1054.70114	5807.5125
1058.38998	5758.2125
1062.07627	5777.2125
1065.76003	5817.9125
1069.44126	5946.7125
1073.11995	6119.0125
1076.79611	6269.6125
1080.46974	6405.9125
1084.14085	6630.9125
1087.80943	6896.1125
1091.47549	7016.6125
1095.13903	6830.5125
1098.80005	6433.3125
1102.45857	6076.8125
1106.11456	5871.1125
1109.76805	5852.0125
1113.41903	6024.0125
1117.06751	6294.5125
1120.71348	6733.0125
1124.35696	7235.2125
1127.99793	7668.3125
1131.63641	7636.3125
1135.2724	7109.3125
1138.90589	6590.9125
1142.5369	6284.0125
1146.16542	6126.7125
1149.79145	6054.7125
1153.415	6081.7125
1157.03607	6166.7125
1160.65467	6341.0125
1164.27079	6680.1125
1167.88443	7230.2125
1171.49561	8186.0125
1175.10432	9754.6125
1178.71056	11780.4125
1182.31434	13090.9125
1185.91565	13218.7125
1189.51451	12730.4125
1193.11091	11869.2125
1196.70485	10798.2125
1200.29634	9882.8125
1203.88538	9122.1125
1207.47197	8261.5125
1211.05612	7577.6125
1214.63782	7208.1125
1218.21708	7129.8125
1221.79391	7154.8125
1225.36829	7217.2125
1228.94024	7212.7125
1232.50976	7158.2125
1236.07685	7098.9125
1239.6415	7055.9125
1243.20374	7090.1125
1246.76355	7118.6125
1250.32093	7185.9125
1253.8759	7422.1125
1257.42845	7767.0125
1260.97859	8145.6125
1264.52631	8565.6125
1268.07163	8950.4125
1271.61453	9305.0125
1275.15503	9562.2125
1278.69312	9661.8125
1282.22882	9759.5125
1285.76211	10064.3125
1289.29301	10567.2125
1292.82151	11087.7125
1296.34761	11648.7125
1299.87133	12419.3125
1303.39266	13648.7125
1306.9116	15551.9125
1310.42815	17778.0125
1313.94233	19307.1125
1317.45412	19112.2125
1320.96354	17729.0125
1324.47058	16095.2125
1327.97525	14641.9125
1331.47754	13739.1125
1334.97747	13249.6125
1338.47502	13097.7125
1341.97022	13237.7125
1345.46305	13618.4125
1348.95352	14353.7125
1352.44163	15524.3125
1355.92738	17331.6125
1359.41078	20106.4125
1362.89183	22809.2125
1366.37053	22479.9125
1369.84688	19213.3125
1373.32088	15682.5125
1376.79254	13155.4125
1380.26186	11710.6125
1383.72883	10936.2125
1387.19347	10456.0125
1390.65578	9951.6125
1394.11575	9686.7125
1397.57339	9636.3125
1401.0287	9810.5125
1404.48168	9966.7125
1407.93234	10043.0125
1411.38068	10032.2125
1414.82669	9853.6125
1418.27039	9476.2125
1421.71177	9071.2125
1425.15083	8719.4125
1428.58758	8546.3125
1432.02203	8544.5125
1435.45416	8637.1125
1438.88399	8724.2125
1442.31151	8710.2125
1445.73673	8751.8125
1449.15965	8853.5125
1452.58027	8820.4125
1455.9986	8758.6125
1459.41463	8773.3125
1462.82837	8937.3125
1466.23982	9224.0125
1469.64898	9475.6125
1473.05586	9652.3125
1476.46045	9774.0125
1479.86276	9932.9125
1483.26279	10166.0125
1486.66054	10433.8125
1490.05602	10818.1125
1493.44922	11386.3125
1496.84016	12227.4125
1500.22882	13607.7125
1503.61521	15554.9125
1506.99934	17671.7125
1510.38121	19745.1125
1513.76081	20985.2125
1517.13816	20174.2125
1520.51324	17531.8125
1523.88607	14650.3125
1527.25665	12668.7125
1530.62498	11583.9125
1533.99105	10967.5125
1537.35488	10597.6125
1540.71647	10366.0125
1544.07581	10154.3125
1547.4329	9966.6125
1550.78776	9773.2125
1554.14038	9603.4125
1557.49077	9583.9125
1560.83892	9726.2125
1564.18484	10092.1125
1567.52853	10591.9125
1570.86999	10991.3125
1574.20922	11239.9125
1577.54624	11189.9125
1580.88103	10511.6125
1584.2136	9563.7125
1587.54395	9080.4125
1590.87208	9281.5125
1594.19801	10092.8125
1597.52172	11197.9125
1600.84321	11845.1125
1604.16251	11411.2125
1607.47959	10338.7125
1610.79447	9103.6125
1614.10715	7968.0125
1617.41763	7129.7125
1620.7259	6621.0125
1624.03199	6386.1125
1627.33587	6351.4125
1630.63757	6538.3125
1633.93707	6949.5125
1637.23439	7716.4125
1640.52951	8860.3125
1643.82246	10497.4125
1647.11321	12500.0125
1650.40179	14054.8125
1653.68819	13971.7125
1656.97241	11940.2125
1660.25446	9434.4125
1663.53433	7508.3125
1666.81203	6354.0125
1670.08756	5686.8125
1673.36092	5300.0125
1676.63211	5088.3125
1679.90115	4924.0125
1683.16801	4807.3125
1686.43272	4716.0125
1689.69527	4636.3125
1692.95567	4597.4125
1696.2139	4569.5125
1699.46999	4556.6125
1702.72392	4526.8125
1705.97571	4508.6125
1709.22535	4467.5125
1712.47284	4475.2125
1715.71819	4489.6125
1718.96139	4493.5125
1722.20246	4500.3125
1725.44139	4481.2125
1728.67818	4412.9125
1731.91284	4353.1125
1735.14537	4299.6125
1738.37576	4257.0125
1741.60403	4219.1125
1744.83017	4204.7125
1748.05418	4196.1125
1751.27607	4157.7125
1754.49584	4160.7125
1757.71349	4153.1125
1760.92903	4146.5125
1764.14244	4099.4125
1767.35375	4088.6125
1770.56294	4074.7125
1773.77002	4033.6125
1776.97499	3992.4125
1780.17785	3986.8125
1783.37861	3937.9125
1786.57727	3927.9125
1789.77382	3906.5125
1792.96828	3902.9125
1796.16064	3892.8125
1799.3509	3877.0125
1802.53907	3869.1125
1805.72514	3858.3125
1808.90913	3830.7125
1812.09102	3801.4125
1815.27083	3795.8125
1818.44856	3792.7125
1821.6242	3771.8125
1824.79776	3761.4125
1827.96924	3759.8125
1831.13864	3738.5125
1834.30597	3729.5125
1837.47122	3740.8125
1840.6344	3729.0125
1843.7955	3714.4125
1846.95454	3704.3125
1850.11151	3707.4125
1853.26642	3700.1125
1856.41926	3699.1125
1859.57004	3711.1125
1862.71876	3709.5125
1865.86542	3708.1125
1869.01003	3695.6125
1872.15258	3694.2125
1875.29308	3706.7125
1878.43152	3705.1125
1881.56792	3699.2125
1884.70227	3696.6125
1887.83457	3705.1125
1890.96482	3705.8125
1894.09304	3700.3125
1897.21921	3715.4125
1900.34335	3704.3125
1903.46544	3710.9125
1906.58551	3711.7125
1909.70353	3708.6125
1912.81953	3706.3125
1915.93349	3714.0125
1919.04543	3697.0125
1922.15534	3690.0125
1925.26322	3682.8125
1928.36908	3669.9125
1931.47292	3652.0125
1934.57473	3627.9125
1937.67453	3602.9125
1940.77232	3585.8125
1943.86808	3556.5125
1946.96184	3534.2125
1950.05358	3524.4125
1953.14331	3506.8125
1956.23103	3490.4125
1959.31675	3468.7125
1962.40046	3443.3125
1965.48217	3445.7125
1968.56188	3449.3125
1971.63959	3428.2125
1974.7153	3414.1125
1977.78901	3405.3125
1980.86073	3378.6125
1983.93046	3376.1125
1986.99819	3350.8125
1990.06394	3340.9125
1993.1277	3334.7125
1996.18947	3300.3125
1999.24925	3312.3125
2002.30706	3286.2125
2005.36288	3265.3125
2008.41672	3254.5125
2011.46859	3246.4125
2014.51848	3236.0125
2017.56639	3231.4125
2020.61233	3211.5125
2023.6563	3206.4125
2026.6983	3188.3125
2029.73833	3193.0125
2032.7764	3172.2125
2035.8125	3162.1125
2038.84664	3151.7125
2041.87881	3153.4125
2044.90903	3145.0125
2047.93729	3130.3125
2050.96359	3145.3125
2053.98794	3130.8125
2057.01034	3131.5125
2060.03078	3115.0125
2063.04927	3117.3125
2066.06582	3107.4125
2069.08042	3099.7125
2072.09307	3091.0125
2075.10378	3084.8125
2078.11255	3092.9125
2081.11938	3093.6125
2084.12426	3084.8125
2087.12722	3085.6125
2090.12824	3075.9125
2093.12732	3076.9125
2096.12447	3069.9125
2099.11969	3058.6125
2102.11299	3061.5125
2105.10435	3067.2125
2108.09379	3074.4125
2111.08131	3063.4125
2114.0669	3064.6125
2117.05057	3067.9125
2120.03233	3072.9125
2123.01216	3069.4125
2125.99008	3055.0125
2128.96609	3067.1125
2131.94018	3065.4125
2134.91236	3076.3125
2137.88263	3065.3125
2140.851	3053.2125
2143.81746	3069.3125
2146.78201	3044.6125
2149.74466	3046.5125
2152.7054	3053.8125
2155.66425	3037.8125
2158.6212	3038.3125
2161.57625	3027.8125
2164.52941	3026.8125
2167.48067	3023.4125
2170.43004	3011.0125
2173.37752	3017.3125
2176.32311	3015.9125
2179.26681	3014.8125
2182.20863	3016.6125
2185.14856	3010.3125
2188.08661	3017.3125
2191.02278	3010.4125
2193.95707	3009.8125
2196.88948	2979.4125
2199.82001	2973.7125
2202.74867	2984.0125
2205.67545	2984.8125
2208.60037	2974.4125
2211.52341	2960.4125
2214.44458	2969.3125
2217.36388	2949.2125
2220.28132	2958.1125
2223.1969	2928.8125
2226.11061	2938.5125
2229.02246	2923.7125
2231.93245	2908.1125
2234.84058	2911.5125
2237.74686	2892.8125
2240.65128	2890.4125
2243.55385	2893.1125
2246.45456	2910.8125
2249.35343	2885.5125
2252.25044	2871.7125
2255.14561	2892.1125
2258.03893	2895.6125
2260.93041	2899.5125
2263.82004	2884.6125
2266.70783	2867.6125
2269.59378	2863.2125
2272.4779	2856.2125
2275.36017	2844.0125
2278.24061	2835.9125
2281.11922	2830.2125
2283.996	2810.9125
2286.87094	2808.6125
2289.74405	2797.0125
2292.61534	2786.4125
2295.4848	2775.8125
2298.35243	2781.0125
2301.21824	2765.4125
2304.08223	2773.5125
2306.94439	2767.0125
2309.80474	2772.6125
2312.66327	2767.7125
2315.51999	2757.4125
2318.37489	2757.1125
2321.22797	2760.7125
2324.07925	2748.9125
2326.92871	2756.4125
2329.77637	2752.7125
2332.62222	2744.0125
2335.46626	2724.3125
2338.3085	2743.7125
2341.14893	2735.2125
2343.98756	2732.8125
2346.8244	2738.6125
2349.65943	2735.9125
2352.49267	2746.3125
2355.32411	2741.1125
2358.15376	2756.1125
2360.98161	2763.2125
2363.80768	2774.3125
2366.63195	2785.5125
2369.45444	2784.3125
2372.27514	2786.3125
2375.09405	2771.4125
2377.91118	2766.0125
2380.72652	2747.6125
2383.54009	2746.7125
2386.35187	2714.4125
2389.16188	2699.8125
2391.97011	2689.1125
2394.77657	2661.8125
2397.58125	2663.5125
2400.38416	2663.3125
2403.18529	2650.2125
2405.98466	2641.8125
2408.78226	2645.2125
2411.57809	2617.3125
2414.37216	2624.6125
2417.16446	2618.0125
2419.955	2615.9125
2422.74378	2617.0125
2425.5308	2601.8125
2428.31606	2604.3125
2431.09956	2604.6125
2433.88131	2612.9125
2436.6613	2614.4125
2439.43954	2608.3125
2442.21603	2594.1125
2444.99077	2603.9125
2447.76377	2620.9125
2450.53501	2612.3125
2453.30451	2617.5125
2456.07226	2614.7125
2458.83827	2617.4125
2461.60254	2619.0125
2464.36507	2614.4125
2467.12586	2603.6125
2469.88492	2612.9125
2472.64224	2615.5125
2475.39782	2617.3125
2478.15167	2624.9125
2480.90379	2632.5125
2483.65417	2640.8125
2486.40283	2641.0125
2489.14976	2658.2125
2491.89497	2652.9125
2494.63845	2679.7125
2497.3802	2676.3125
2500.12024	2657.8125
2502.85855	2645.0125
2505.59514	2642.0125
2508.33002	2625.4125
2511.06318	2594.4125
2513.79462	2600.9125
2516.52435	2575.0125
2519.25237	2565.1125
2521.97867	2563.3125
2524.70327	2552.0125
2527.42616	2558.8125
2530.14734	2535.9125
2532.86681	2535.1125
2535.58458	2533.7125
2538.30065	2526.2125
2541.01501	2529.8125
2543.72768	2531.3125
2546.43864	2527.0125
2549.14791	2522.9125
2551.85548	2527.7125
2554.56136	2528.0125
2557.26554	2530.4125
2559.96803	2520.0125
2562.66883	2529.6125
2565.36794	2511.0125
2568.06536	2526.6125
2570.7611	2511.3125
2573.45514	2521.5125
2576.14751	2497.4125
2578.83819	2491.2125
2581.52719	2503.7125
2584.21451	2499.4125
2586.90015	2500.4125
2589.58411	2489.3125
2592.2664	2503.5125
2594.94701	2481.1125
2597.62594	2490.0125
2600.30321	2482.6125
2602.9788	2470.4125
2605.65273	2485.8125
2608.32498	2481.4125
2610.99557	2476.1125
2613.66449	2476.2125
2616.33175	2471.8125
2618.99734	2472.5125
2621.66128	2466.5125
2624.32355	2457.6125
2626.98416	2464.1125
2629.64311	2456.6125
2632.30041	2456.3125
2634.95605	2455.1125
2637.61004	2443.5125
2640.26238	2453.3125
2642.91306	2448.4125
2645.56209	2438.4125
2648.20948	2445.0125
2650.85521	2428.3125
2653.4993	2427.9125
2656.14175	2436.1125
2658.78255	2436.1125
2661.42171	2447.6125
2664.05923	2451.8125
2666.6951	2451.1125
2669.32934	2447.8125
2671.96194	2464.6125
2674.59291	2470.1125
2677.22224	2463.5125
2679.84993	2468.9125
2682.476	2462.0125
2685.10043	2461.8125
2687.72324	2469.3125
2690.34441	2465.8125
2692.96396	2467.2125
2695.58188	2469.8125
2698.19818	2471.1125
2700.81285	2472.2125
2703.4259	2505.2125
2706.03733	2537.4125
2708.64714	2532.0125
2711.25533	2512.7125
2713.86191	2511.9125
2716.46687	2508.1125
2719.07021	2521.1125
2721.67194	2505.0125
2724.27206	2512.5125
2726.87057	2504.7125
2729.46747	2513.6125
2732.06276	2510.6125
2734.65644	2493.8125
2737.24852	2495.5125
2739.83899	2481.5125
2742.42786	2474.2125
2745.01513	2462.0125
2747.60079	2461.8125
2750.18486	2464.2125
2752.76733	2453.6125
2755.3482	2453.6125
2757.92747	2446.4125
2760.50515	2463.0125
2763.08123	2446.3125
2765.65573	2447.3125
2768.22863	2454.5125
2770.79994	2441.4125
2773.36967	2460.2125
2775.9378	2472.6125
2778.50435	2463.8125
2781.06932	2463.3125
2783.6327	2470.4125
2786.1945	2475.9125
2788.75471	2486.0125
2791.31335	2485.6125
2793.87041	2506.2125
2796.42589	2482.4125
2798.97979	2501.3125
2801.53212	2512.0125
2804.08288	2527.3125
2806.63206	2524.3125
2809.17967	2531.3125
2811.72571	2539.8125
2814.27018	2558.8125
2816.81308	2567.9125
2819.35442	2567.3125
2821.89419	2571.7125
2824.43239	2585.2125
2826.96904	2586.2125
2829.50412	2596.3125
2832.03763	2595.1125
2834.56959	2597.7125
2837.1	2610.6125
2839.62884	2635.5125
2842.15613	2676.4125
2844.68186	2742.8125
2847.20604	2811.8125
2849.72867	2851.7125
2852.24974	2872.7125
2854.76927	2862.9125
2857.28724	2869.0125
2859.80367	2852.4125
2862.31855	2822.7125
2864.83189	2805.3125
2867.34368	2796.1125
2869.85393	2790.6125
2872.36264	2780.1125
2874.8698	2774.3125
2877.37543	2771.2125
2879.87952	2761.8125
2882.38207	2760.0125
2884.88308	2779.5125
2887.38256	2757.5125
2889.88051	2764.4125
2892.37692	2765.2125
2894.8718	2753.8125
2897.36515	2776.5125
2899.85698	2771.1125
2902.34727	2783.7125
2904.83604	2783.9125
2907.32328	2766.9125
2909.809	2770.6125
2912.29319	2769.8125
2914.77587	2769.2125
2917.25702	2756.0125
2919.73665	2756.0125
2922.21476	2755.5125
2924.69136	2752.0125
2927.16644	2737.6125
2929.64	2732.4125
2932.11205	2713.0125
2934.58258	2697.0125
2937.05161	2677.1125
2939.51912	2667.2125
2941.98513	2619.9125
2944.44962	2578.8125
2946.91261	2550.3125
2949.37409	2519.6125
2951.83407	2503.7125
2954.29254	2471.6125
2956.74951	2462.3125
2959.20498	2451.7125
2961.65895	2420.4125
2964.11142	2414.3125
2966.56239	2395.4125
2969.01186	2379.2125
2971.45984	2371.4125
2973.90632	2357.9125
2976.35131	2343.4125
2978.7948	2327.1125
2981.23681	2331.0125
2983.67732	2293.5125
2986.11635	2297.8125
2988.55388	2292.9125
2990.98993	2268.6125
2993.4245	2268.9125
2995.85758	2267.7125
2998.28917	2256.7125
3000.71928	2242.1125
3003.14791	2244.4125
3005.57506	2241.9125
3008.00073	2230.4125
3010.42493	2231.9125
3012.84764	2225.2125
3015.26888	2218.5125
3017.68865	2217.1125
3020.10694	2212.7125
3022.52376	2196.5125
3024.9391	2197.3125
3027.35298	2195.8125
3029.76539	2187.2125
3032.17632	2192.1125
3034.5858	2172.0125
3036.9938	2180.0125
3039.40034	2161.8125
3041.80542	2165.1125
3044.20903	2159.6125
3046.61118	2154.1125
3049.01187	2153.4125
3051.4111	2145.9125
3053.80888	2144.0125
3056.20519	2145.4125
3058.60005	2132.2125
3060.99345	2141.2125
3063.3854	2135.8125
3065.7759	2129.0125
3068.16494	2119.4125
3070.55254	2111.7125
3072.93868	2114.0125
3075.32338	2105.9125
3077.70662	2094.6125
3080.08842	2088.2125
3082.46878	2078.1125
3084.84769	2065.5125
3087.22515	2071.8125
3089.60118	2064.6125
3091.97576	2059.5125
3094.3489	2055.7125
3096.72061	2041.7125
3099.09087	2050.9125
3101.4597	2038.9125
3103.82709	2043.8125
3106.19305	2037.4125
3108.55757	2037.0125
3110.92066	2024.9125
3113.28232	2030.8125
3115.64255	2027.3125
