Data from AgNPs_FTO_APTES_UA_0um_CRN_0.1mM_R6G_10uM_NaF_0.1M_Addition_RamanShift__61__11-22-28-970.txt Node

Date: Tue Dec 21 11:22:28 GMT 2021
User: TCL
Spectrometer: QEP01345
Trigger mode: 4
Integration Time (sec): 7.000000E0
Scans to average: 10
Electric dark correction enabled: true
Nonlinearity correction enabled: false
Boxcar width: 0
XAxis mode: Raman Shifts
Number of Pixels in Spectrum: 1044
>>>>>Begin Spectral Data<<<<<
46.04893	-0.975
50.45542	-2.275
54.85868	-0.075
59.25871	0.425
63.6555	47.825
68.04907	55.425
72.43941	57.625
76.82654	58.025
81.21044	61.625
85.59113	63.525
89.96862	65.325
94.34289	68.525
98.71396	68.725
103.08183	72.625
107.4465	75.525
111.80798	75.625
116.16626	73.725
120.52136	82.325
124.87327	82.525
129.222	83.725
133.56755	92.725
137.90993	99.525
142.24913	111.625
146.58517	124.725
150.91804	144.525
155.24774	175.325
159.57429	215.125
163.89768	278.225
168.21792	366.625
172.53501	497.625
176.84895	693.225
181.15975	964.725
185.46741	1350.425
189.77193	1872.225
194.07331	2492.425
198.37157	3211.125
202.6667	3967.925
206.9587	4750.525
211.24758	5516.425
215.53334	6304.225
219.81599	7175.925
224.09553	8113.525
228.37195	9190.725
232.64527	10354.625
236.91549	11481.825
241.18261	12538.925
245.44663	13462.925
249.70755	14255.725
253.96539	14912.925
258.22014	15507.425
262.4718	15993.725
266.72039	16354.625
270.96589	16529.325
275.20832	16548.625
279.44768	16479.625
283.68397	16399.525
287.91719	16367.325
292.14735	16410.125
296.37445	16593.525
300.59849	16923.225
304.81948	17358.725
309.03742	17693.825
313.25231	17641.025
317.46415	17003.525
321.67296	15882.225
325.87872	14970.225
330.08145	14482.225
334.28114	14439.025
338.47781	14629.325
342.67145	14955.425
346.86207	15432.725
351.04966	16178.825
355.23424	17035.825
359.4158	17706.325
363.59435	18008.725
367.76989	18059.225
371.94243	17987.825
376.11196	17865.925
380.27849	17817.525
384.44203	17690.325
388.60257	17553.325
392.76012	17527.025
396.91468	17740.025
401.06626	18199.125
405.21485	18572.925
409.36047	18444.025
413.50311	17770.125
417.64277	17144.325
421.77947	16913.125
425.9132	16971.925
430.04396	17119.125
434.17176	17322.825
438.2966	17626.925
442.41849	18221.725
446.53742	19077.125
450.6534	19980.725
454.76644	20483.325
458.87653	20479.325
462.98368	20054.125
467.08789	19506.425
471.18916	19050.325
475.2875	18680.525
479.38291	18445.225
483.4754	18257.925
487.56496	17907.725
491.6516	17488.725
495.73531	17204.625
499.81612	17023.425
503.89401	17090.125
507.96899	17219.425
512.04106	17191.725
516.11023	17068.625
520.1765	16983.625
524.23987	16783.225
528.30034	16587.525
532.35792	16346.725
536.41261	16017.225
540.46441	15608.725
544.51333	15423.125
548.55936	15548.825
552.60252	16014.525
556.64279	16657.025
560.6802	17217.325
564.71473	17782.025
568.7464	18808.425
572.7752	19644.025
576.80114	19503.525
580.82422	19051.425
584.84444	18921.425
588.86181	19268.125
592.87633	19946.425
596.888	20426.725
600.89682	20433.925
604.9028	21226.125
608.90594	24730.725
612.90624	29590.925
616.90371	28236.825
620.89834	20633.525
624.89015	16919.725
628.87913	16354.125
632.86528	16406.825
636.84862	16384.625
640.82913	15971.025
644.80683	15243.725
648.78172	14679.325
652.75379	14657.325
656.72306	15087.725
660.68952	15717.925
664.65319	15708.525
668.61405	15156.425
672.57211	14829.525
676.52738	14779.625
680.47986	14814.225
684.42955	14700.025
688.37646	14580.325
692.32058	14639.525
696.26192	14817.625
700.20048	15061.425
704.13626	15271.425
708.06928	15273.425
711.99952	15093.525
715.927	14981.925
719.85171	14924.925
723.77365	14903.225
727.69284	14700.625
731.60928	14565.425
735.52295	14582.125
739.43388	14677.225
743.34206	14780.325
747.24749	14885.425
751.15017	15139.025
755.05012	15501.425
758.94733	16233.925
762.8418	17785.225
766.73354	20457.325
770.62254	23062.625
774.50882	23943.125
778.39237	22670.125
782.27321	19926.025
786.15132	17293.725
790.02671	15717.225
793.89938	14961.925
797.76935	14649.725
801.6366	14567.225
805.50115	14473.525
809.36299	14396.025
813.22213	14278.325
817.07857	14251.625
820.93231	14222.425
824.78336	14253.125
828.63172	14302.825
832.47738	14334.625
836.32036	14322.625
840.16066	14296.025
843.99827	14245.425
847.8332	14152.325
851.66546	14057.625
855.49504	14029.225
859.32195	14049.225
863.1462	13904.325
866.96777	13840.425
870.78668	13794.325
874.60293	13773.125
878.41652	13810.525
882.22745	13897.825
886.03573	13964.825
889.84136	13954.425
893.64433	13867.125
897.44466	13779.125
901.24235	13698.925
905.0374	13638.625
908.8298	13597.525
912.61957	13594.025
916.40671	13715.425
920.19121	13971.325
923.97308	14193.825
927.75233	14386.125
931.52895	14440.025
935.30295	14202.725
939.07433	13732.625
942.84309	13322.325
946.60924	13086.225
950.37278	13008.225
954.13371	12906.625
957.89203	12855.825
961.64774	12815.925
965.40086	12774.225
969.15137	12701.625
972.89929	12614.525
976.64461	12588.225
980.38733	12594.425
984.12747	12645.725
987.86502	12792.725
991.59999	12965.725
995.33237	13287.725
999.06217	13901.325
1002.78939	14689.925
1006.51404	15297.725
1010.23611	15646.125
1013.95561	15754.025
1017.67255	15582.825
1021.38692	15113.225
1025.09872	14675.625
1028.80796	14562.925
1032.51465	14870.525
1036.21877	15253.625
1039.92035	15364.525
1043.61937	15238.525
1047.31584	14935.325
1051.00976	14561.125
1054.70114	14349.425
1058.38998	14311.325
1062.07627	14361.525
1065.76003	14450.625
1069.44126	14594.725
1073.11995	14838.325
1076.79611	15078.025
1080.46974	15296.225
1084.14085	15611.625
1087.80943	16019.525
1091.47549	16265.425
1095.13903	16100.825
1098.80005	15639.925
1102.45857	15024.425
1106.11456	14695.525
1109.76805	14642.325
1113.41903	14865.925
1117.06751	15179.125
1120.71348	15701.225
1124.35696	16220.425
1127.99793	16760.225
1131.63641	16748.325
1135.2724	16250.525
1138.90589	15726.825
1142.5369	15430.825
1146.16542	15295.025
1149.79145	15302.625
1153.415	15402.825
1157.03607	15590.925
1160.65467	15996.125
1164.27079	16707.725
1167.88443	17939.225
1171.49561	19820.625
1175.10432	22571.325
1178.71056	26100.225
1182.31434	28888.725
1185.91565	29951.925
1189.51451	29475.625
1193.11091	27999.225
1196.70485	26173.125
1200.29634	24425.025
1203.88538	22817.125
1207.47197	21428.225
1211.05612	20329.425
1214.63782	19794.525
1218.21708	19823.725
1221.79391	20022.325
1225.36829	20070.425
1228.94024	19740.725
1232.50976	19116.125
1236.07685	18590.225
1239.6415	18318.425
1243.20374	18229.625
1246.76355	18300.825
1250.32093	18551.425
1253.8759	19121.625
1257.42845	19883.325
1260.97859	20678.125
1264.52631	21420.225
1268.07163	22132.825
1271.61453	22876.525
1275.15503	23555.325
1278.69312	24167.825
1282.22882	24741.525
1285.76211	25547.825
1289.29301	26664.925
1292.82151	27992.925
1296.34761	29564.625
1299.87133	31572.025
1303.39266	34288.925
1306.9116	37896.725
1310.42815	42008.725
1313.94233	44962.025
1317.45412	45303.425
1320.96354	43576.425
1324.47058	41347.825
1327.97525	39191.525
1331.47754	37588.925
1334.97747	36691.525
1338.47502	36478.725
1341.97022	36417.125
1345.46305	36045.425
1348.95352	35739.425
1352.44163	36063.625
1355.92738	37718.725
1359.41078	41183.025
1362.89183	44864.925
1366.37053	44648.125
1369.84688	39917.825
1373.32088	34071.825
1376.79254	29954.125
1380.26186	27948.925
1383.72883	27205.325
1387.19347	26838.025
1390.65578	26531.525
1394.11575	26777.525
1397.57339	27616.825
1401.0287	28859.925
1404.48168	29972.125
1407.93234	30643.425
1411.38068	30575.925
1414.82669	29739.525
1418.27039	28046.825
1421.71177	26149.425
1425.15083	24552.825
1428.58758	23635.425
1432.02203	23482.825
1435.45416	23859.425
1438.88399	24275.225
1442.31151	24641.425
1445.73673	25122.525
1449.15965	25678.525
1452.58027	25938.425
1455.9986	25986.325
1459.41463	26113.925
1462.82837	26626.325
1466.23982	27470.825
1469.64898	28254.125
1473.05586	28632.925
1476.46045	28645.225
1479.86276	28676.725
1483.26279	28628.625
1486.66054	28645.125
1490.05602	28909.625
1493.44922	29224.425
1496.84016	29385.525
1500.22882	29955.625
1503.61521	31274.725
1506.99934	33240.425
1510.38121	35551.625
1513.76081	36901.625
1517.13816	36063.825
1520.51324	33229.825
1523.88607	30152.525
1527.25665	28078.825
1530.62498	26967.625
1533.99105	26503.125
1537.35488	26337.425
1540.71647	26220.525
1544.07581	25902.725
1547.4329	25382.825
1550.78776	24720.925
1554.14038	24163.225
1557.49077	23887.825
1560.83892	23902.825
1564.18484	24166.425
1567.52853	24493.425
1570.86999	24743.025
1574.20922	25041.325
1577.54624	25166.825
1580.88103	24653.425
1584.2136	24045.325
1587.54395	24370.025
1590.87208	25950.925
1594.19801	28629.025
1597.52172	31734.025
1600.84321	33575.625
1604.16251	32648.025
1607.47959	29508.725
1610.79447	25627.225
1614.10715	22151.825
1617.41763	19590.825
1620.7259	18018.325
1624.03199	17301.325
1627.33587	17219.425
1630.63757	17775.225
1633.93707	19073.125
1637.23439	21197.325
1640.52951	24444.125
1643.82246	28554.725
1647.11321	32639.425
1650.40179	34713.925
1653.68819	33181.225
1656.97241	28372.325
1660.25446	23004.625
1663.53433	18934.625
1666.81203	16354.025
1670.08756	14837.425
1673.36092	13942.625
1676.63211	13416.825
1679.90115	13030.725
1683.16801	12762.325
1686.43272	12557.925
1689.69527	12369.925
1692.95567	12292.125
1696.2139	12215.925
1699.46999	12136.625
1702.72392	12102.025
1705.97571	12117.025
1709.22535	11993.125
1712.47284	12001.225
1715.71819	11998.625
1718.96139	11967.125
1722.20246	11936.925
1725.44139	11865.925
1728.67818	11796.425
1731.91284	11706.825
1735.14537	11605.625
1738.37576	11559.825
1741.60403	11518.625
1744.83017	11489.125
1748.05418	11455.125
1751.27607	11451.525
1754.49584	11422.325
1757.71349	11427.725
1760.92903	11355.225
1764.14244	11345.625
1767.35375	11328.825
1770.56294	11294.025
1773.77002	11255.425
1776.97499	11212.925
1780.17785	11175.025
1783.37861	11148.625
1786.57727	11148.825
1789.77382	11073.225
1792.96828	11087.425
1796.16064	11053.425
1799.3509	11024.925
1802.53907	11000.925
1805.72514	10953.325
1808.90913	10916.025
1812.09102	10898.425
1815.27083	10855.325
1818.44856	10832.825
1821.6242	10814.925
1824.79776	10792.125
1827.96924	10791.725
1831.13864	10780.825
1834.30597	10771.025
1837.47122	10754.725
1840.6344	10744.725
1843.7955	10760.925
1846.95454	10731.525
1850.11151	10718.625
1853.26642	10741.025
1856.41926	10744.425
1859.57004	10781.025
1862.71876	10761.925
1865.86542	10778.325
1869.01003	10743.425
1872.15258	10780.925
1875.29308	10771.025
1878.43152	10771.825
1881.56792	10795.025
1884.70227	10803.025
1887.83457	10791.425
1890.96482	10815.825
1894.09304	10801.325
1897.21921	10813.025
1900.34335	10804.425
1903.46544	10822.925
1906.58551	10830.425
1909.70353	10815.125
1912.81953	10807.925
1915.93349	10798.525
1919.04543	10790.625
1922.15534	10764.125
1925.26322	10734.725
1928.36908	10694.325
1931.47292	10681.525
1934.57473	10605.525
1937.67453	10571.025
1940.77232	10508.925
1943.86808	10466.325
1946.96184	10412.725
1950.05358	10386.525
1953.14331	10336.125
1956.23103	10300.225
1959.31675	10227.125
1962.40046	10208.625
1965.48217	10181.925
1968.56188	10159.625
1971.63959	10116.325
1974.7153	10108.925
1977.78901	10045.425
1980.86073	9996.325
1983.93046	9982.825
1986.99819	9939.525
1990.06394	9897.925
1993.1277	9881.225
1996.18947	9805.425
1999.24925	9798.025
2002.30706	9773.825
2005.36288	9757.125
2008.41672	9717.925
2011.46859	9682.025
2014.51848	9659.225
2017.56639	9638.825
2020.61233	9624.125
2023.6563	9595.325
2026.6983	9566.925
2029.73833	9571.025
2032.7764	9517.925
2035.8125	9495.025
2038.84664	9496.325
2041.87881	9479.825
2044.90903	9461.625
2047.93729	9453.425
2050.96359	9458.125
2053.98794	9416.325
2057.01034	9428.925
2060.03078	9415.125
2063.04927	9388.125
2066.06582	9370.225
2069.08042	9381.425
2072.09307	9357.325
2075.10378	9332.025
2078.11255	9325.225
2081.11938	9343.125
2084.12426	9323.425
2087.12722	9331.325
2090.12824	9319.825
2093.12732	9303.925
2096.12447	9304.825
2099.11969	9272.525
2102.11299	9320.025
2105.10435	9296.125
2108.09379	9313.125
2111.08131	9301.125
2114.0669	9289.725
2117.05057	9282.325
2120.03233	9308.325
2123.01216	9300.725
2125.99008	9286.925
2128.96609	9291.725
2131.94018	9288.925
2134.91236	9293.425
2137.88263	9332.225
2140.851	9307.325
2143.81746	9322.925
2146.78201	9312.525
2149.74466	9306.625
2152.7054	9303.625
2155.66425	9282.425
2158.6212	9289.225
2161.57625	9274.525
2164.52941	9287.725
2167.48067	9279.725
2170.43004	9258.625
2173.37752	9253.725
2176.32311	9275.925
2179.26681	9260.825
2182.20863	9260.125
2185.14856	9248.725
2188.08661	9258.925
2191.02278	9258.825
2193.95707	9254.425
2196.88948	9252.425
2199.82001	9239.825
2202.74867	9243.325
2205.67545	9218.025
2208.60037	9225.125
2211.52341	9210.525
2214.44458	9190.625
2217.36388	9180.225
2220.28132	9141.125
2223.1969	9128.625
2226.11061	9120.825
2229.02246	9120.025
2231.93245	9094.425
2234.84058	9044.225
2237.74686	9048.025
2240.65128	9044.425
2243.55385	9041.525
2246.45456	9025.325
2249.35343	9009.025
2252.25044	8972.225
2255.14561	8984.925
2258.03893	8988.425
2260.93041	8960.625
2263.82004	8923.025
2266.70783	8924.725
2269.59378	8866.825
2272.4779	8865.025
2275.36017	8820.125
2278.24061	8818.925
2281.11922	8790.725
2283.996	8777.525
2286.87094	8753.225
2289.74405	8756.625
2292.61534	8741.225
2295.4848	8744.125
2298.35243	8725.925
2301.21824	8718.025
2304.08223	8714.325
2306.94439	8725.825
2309.80474	8712.725
2312.66327	8709.825
2315.51999	8702.725
2318.37489	8736.225
2321.22797	8712.925
2324.07925	8705.725
2326.92871	8706.925
2329.77637	8675.625
2332.62222	8675.525
2335.46626	8679.125
2338.3085	8691.425
2341.14893	8702.925
2343.98756	8697.125
2346.8244	8696.325
2349.65943	8711.325
2352.49267	8726.325
2355.32411	8704.325
2358.15376	8734.725
2360.98161	8694.425
2363.80768	8709.725
2366.63195	8703.525
2369.45444	8678.225
2372.27514	8663.825
2375.09405	8636.525
2377.91118	8615.125
2380.72652	8598.225
2383.54009	8556.025
2386.35187	8546.625
2389.16188	8507.025
2391.97011	8499.925
2394.77657	8480.825
2397.58125	8458.225
2400.38416	8450.325
2403.18529	8437.825
2405.98466	8415.025
2408.78226	8402.625
2411.57809	8377.725
2414.37216	8354.825
2417.16446	8358.925
2419.955	8344.325
2422.74378	8330.725
2425.5308	8319.625
2428.31606	8320.025
2431.09956	8314.425
2433.88131	8305.725
2436.6613	8318.425
2439.43954	8317.125
2442.21603	8279.025
2444.99077	8284.825
2447.76377	8302.925
2450.53501	8301.525
2453.30451	8293.425
2456.07226	8299.425
2458.83827	8293.625
2461.60254	8298.225
2464.36507	8293.725
2467.12586	8283.525
2469.88492	8280.225
2472.64224	8308.425
2475.39782	8315.925
2478.15167	8315.625
2480.90379	8336.125
2483.65417	8327.625
2486.40283	8345.325
2489.14976	8378.925
2491.89497	8359.025
2494.63845	8395.125
2497.3802	8395.325
2500.12024	8376.225
2502.85855	8366.125
2505.59514	8355.025
2508.33002	8353.025
2511.06318	8315.125
2513.79462	8296.925
2516.52435	8293.025
2519.25237	8257.925
2521.97867	8248.925
2524.70327	8248.625
2527.42616	8234.325
2530.14734	8229.625
2532.86681	8219.625
2535.58458	8186.525
2538.30065	8185.525
2541.01501	8184.025
2543.72768	8201.225
2546.43864	8210.225
2549.14791	8182.125
2551.85548	8170.925
2554.56136	8171.525
2557.26554	8186.525
2559.96803	8191.525
2562.66883	8176.625
2565.36794	8170.225
2568.06536	8157.025
2570.7611	8137.525
2573.45514	8139.725
2576.14751	8135.025
2578.83819	8131.325
2581.52719	8146.525
2584.21451	8131.725
2586.90015	8139.125
2589.58411	8135.025
2592.2664	8132.825
2594.94701	8155.725
2597.62594	8117.425
2600.30321	8110.125
2602.9788	8125.625
2605.65273	8145.225
2608.32498	8146.225
2610.99557	8146.425
2613.66449	8125.425
2616.33175	8150.425
2618.99734	8107.125
2621.66128	8115.125
2624.32355	8128.325
2626.98416	8128.625
2629.64311	8122.025
2632.30041	8140.625
2634.95605	8127.625
2637.61004	8131.925
2640.26238	8117.925
2642.91306	8103.125
2645.56209	8102.425
2648.20948	8090.125
2650.85521	8062.425
2653.4993	8090.925
2656.14175	8075.525
2658.78255	8077.325
2661.42171	8104.225
2664.05923	8093.725
2666.6951	8124.225
2669.32934	8110.425
2671.96194	8139.425
2674.59291	8117.225
2677.22224	8124.825
2679.84993	8115.425
2682.476	8120.825
2685.10043	8097.925
2687.72324	8077.025
2690.34441	8076.725
2692.96396	8077.725
2695.58188	8085.825
2698.19818	8091.625
2700.81285	8086.225
2703.4259	8114.325
2706.03733	8155.525
2708.64714	8135.425
2711.25533	8113.525
2713.86191	8119.125
2716.46687	8132.125
2719.07021	8124.525
2721.67194	8143.925
2724.27206	8107.625
2726.87057	8121.025
2729.46747	8139.625
2732.06276	8126.925
2734.65644	8133.525
2737.24852	8136.325
2739.83899	8125.325
2742.42786	8126.425
2745.01513	8106.925
2747.60079	8097.925
2750.18486	8081.625
2752.76733	8090.225
2755.3482	8094.625
2757.92747	8111.425
2760.50515	8100.725
2763.08123	8098.325
2765.65573	8081.225
2768.22863	8096.225
2770.79994	8105.625
2773.36967	8133.525
2775.9378	8106.625
2778.50435	8107.025
2781.06932	8108.925
2783.6327	8126.525
2786.1945	8113.225
2788.75471	8134.825
2791.31335	8094.025
2793.87041	8094.225
2796.42589	8083.325
2798.97979	8067.425
2801.53212	8065.825
2804.08288	8060.425
2806.63206	8037.825
2809.17967	8042.825
2811.72571	8026.625
2814.27018	8036.225
2816.81308	8023.625
2819.35442	8029.625
2821.89419	8029.325
2824.43239	8024.225
2826.96904	8025.825
2829.50412	8026.625
2832.03763	7993.525
2834.56959	8008.825
2837.1	7996.425
2839.62884	8016.425
2842.15613	8014.625
2844.68186	8064.425
2847.20604	8068.125
2849.72867	8105.825
2852.24974	8084.825
2854.76927	8097.925
2857.28724	8099.925
2859.80367	8078.325
2862.31855	8052.225
2864.83189	8038.925
2867.34368	8032.825
2869.85393	8025.725
2872.36264	8020.525
2874.8698	8019.225
2877.37543	8044.825
2879.87952	8018.625
2882.38207	8020.725
2884.88308	8015.025
2887.38256	8025.325
2889.88051	8015.125
2892.37692	8030.425
2894.8718	8023.525
2897.36515	8032.225
2899.85698	8039.925
2902.34727	8043.125
2904.83604	8052.725
2907.32328	8064.725
2909.809	8079.025
2912.29319	8097.825
2914.77587	8083.825
2917.25702	8071.525
2919.73665	8079.225
2922.21476	8083.625
2924.69136	8060.625
2927.16644	8062.325
2929.64	8037.025
2932.11205	8017.425
2934.58258	7988.825
2937.05161	7987.225
2939.51912	7985.825
2941.98513	7968.225
2944.44962	7935.225
2946.91261	7895.425
2949.37409	7894.925
2951.83407	7878.725
2954.29254	7873.225
2956.74951	7848.425
2959.20498	7831.625
2961.65895	7798.825
2964.11142	7783.825
2966.56239	7731.025
2969.01186	7734.725
2971.45984	7719.625
2973.90632	7702.825
2976.35131	7666.625
2978.7948	7648.625
2981.23681	7618.125
2983.67732	7567.825
2986.11635	7569.825
2988.55388	7546.225
2990.98993	7544.525
2993.4245	7524.825
2995.85758	7492.825
2998.28917	7469.725
3000.71928	7470.925
3003.14791	7478.225
3005.57506	7456.125
3008.00073	7428.625
3010.42493	7427.525
3012.84764	7422.625
3015.26888	7408.725
3017.68865	7374.925
3020.10694	7349.725
3022.52376	7347.325
3024.9391	7314.925
3027.35298	7293.625
3029.76539	7299.825
3032.17632	7292.525
3034.5858	7260.425
3036.9938	7270.125
3039.40034	7238.925
3041.80542	7249.525
3044.20903	7213.525
3046.61118	7225.625
3049.01187	7211.125
3051.4111	7208.825
3053.80888	7160.425
3056.20519	7145.925
3058.60005	7138.325
3060.99345	7114.125
3063.3854	7086.725
3065.7759	7074.825
3068.16494	7046.525
3070.55254	7013.125
3072.93868	7009.325
3075.32338	6984.825
3077.70662	6982.725
3080.08842	6955.825
3082.46878	6938.025
3084.84769	6933.325
3087.22515	6910.725
3089.60118	6925.825
3091.97576	6908.325
3094.3489	6899.925
3096.72061	6909.125
3099.09087	6884.825
3101.4597	6893.325
3103.82709	6880.225
3106.19305	6847.325
3108.55757	6848.725
3110.92066	6825.425
3113.28232	6801.025
3115.64255	6775.125
3118.00134	6742.025
3120.35871	6764.625
3122.71466	6751.425
3125.06917	6736.525
3127.42226	6718.825
3129.77393	6711.325
3132.12417	6736.125
3134.47299	6716.725
3136.82039	6712.225
3139.16636	6728.125
3141.51092	6715.625
3143.85406	6714.825
3146.19579	6709.425
3148.53609	6702.825
3150.87499	6688.225
3153.21246	6692.925
3155.54853	6705.125
3157.88318	6710.225
3160.21642	6704.725
3162.54826	6679.225
3164.87868	6681.625
3167.2077	6688.725
3169.5353	6675.525
3171.86151	6668.425
3174.18631	6663.325
3176.5097	6654.525
3178.83169	6654.925
