Data from AgNPs_FTO_APTES_UA_2um_CRN_0.1mM_R6G_10uM_NaF_0.1M_Addition_RamanShift__24__12-42-59-061.txt Node

Date: Tue Dec 21 12:42:59 GMT 2021
User: TCL
Spectrometer: QEP01345
Trigger mode: 4
Integration Time (sec): 7.000000E0
Scans to average: 10
Electric dark correction enabled: true
Nonlinearity correction enabled: false
Boxcar width: 0
XAxis mode: Raman Shifts
Number of Pixels in Spectrum: 1044
>>>>>Begin Spectral Data<<<<<
46.04893	0.0125
50.45542	-0.2875
54.85868	-1.2875
59.25871	-0.7875
63.6555	54.8125
68.04907	59.0125
72.43941	62.3125
76.82654	65.1125
81.21044	70.3125
85.59113	74.3125
89.96862	71.4125
94.34289	73.9125
98.71396	75.0125
103.08183	79.5125
107.4465	82.6125
111.80798	86.4125
116.16626	84.9125
120.52136	88.4125
124.87327	94.1125
129.222	96.8125
133.56755	104.7125
137.90993	114.2125
142.24913	125.2125
146.58517	138.3125
150.91804	163.9125
155.24774	192.8125
159.57429	238.3125
163.89768	308.0125
168.21792	404.6125
172.53501	549.6125
176.84895	758.9125
181.15975	1074.3125
185.46741	1495.2125
189.77193	2069.0125
194.07331	2769.0125
198.37157	3566.4125
202.6667	4434.8125
206.9587	5284.8125
211.24758	6131.7125
215.53334	7015.6125
219.81599	7944.3125
224.09553	8985.4125
228.37195	10162.4125
232.64527	11377.3125
236.91549	12721.3125
241.18261	13972.2125
245.44663	15107.5125
249.70755	16106.9125
253.96539	16926.9125
258.22014	17649.6125
262.4718	18215.7125
266.72039	18610.1125
270.96589	18829.6125
275.20832	18848.8125
279.44768	18743.3125
283.68397	18589.8125
287.91719	18502.1125
292.14735	18493.4125
296.37445	18625.5125
300.59849	18837.4125
304.81948	19158.2125
309.03742	19321.1125
313.25231	19202.6125
317.46415	18514.4125
321.67296	17605.5125
325.87872	16851.2125
330.08145	16481.8125
334.28114	16451.2125
338.47781	16651.0125
342.67145	16978.0125
346.86207	17447.1125
351.04966	18105.0125
355.23424	18830.0125
359.4158	19424.4125
363.59435	19746.0125
367.76989	19902.6125
371.94243	19919.3125
376.11196	19889.4125
380.27849	19902.9125
384.44203	19904.3125
388.60257	19861.3125
392.76012	19878.0125
396.91468	20112.7125
401.06626	20537.1125
405.21485	20848.0125
409.36047	20719.8125
413.50311	20127.2125
417.64277	19604.1125
421.77947	19401.7125
425.9132	19403.3125
430.04396	19512.8125
434.17176	19758.5125
438.2966	20025.4125
442.41849	20595.9125
446.53742	21363.7125
450.6534	22206.5125
454.76644	22810.1125
458.87653	22865.8125
462.98368	22536.3125
467.08789	22063.9125
471.18916	21589.3125
475.2875	21219.5125
479.38291	20965.5125
483.4754	20791.0125
487.56496	20483.3125
491.6516	20115.8125
495.73531	19826.0125
499.81612	19687.7125
503.89401	19771.4125
507.96899	19865.1125
512.04106	19838.3125
516.11023	19732.4125
520.1765	19607.4125
524.23987	19459.7125
528.30034	19309.2125
532.35792	19126.1125
536.41261	18823.7125
540.46441	18478.6125
544.51333	18273.4125
548.55936	18340.9125
552.60252	18780.4125
556.64279	19373.9125
560.6802	19836.1125
564.71473	20201.9125
568.7464	20884.3125
572.7752	21493.7125
576.80114	21553.9125
580.82422	21371.6125
584.84444	21413.3125
588.86181	21748.7125
592.87633	22437.3125
596.888	22988.7125
600.89682	23010.9125
604.9028	23854.5125
608.90594	27082.7125
612.90624	31262.9125
616.90371	29637.2125
620.89834	22761.5125
624.89015	19500.0125
628.87913	19018.9125
632.86528	19100.7125
636.84862	19193.0125
640.82913	18826.6125
644.80683	18135.8125
648.78172	17622.4125
652.75379	17468.7125
656.72306	17824.5125
660.68952	18355.7125
664.65319	18379.4125
668.61405	17933.0125
672.57211	17782.8125
676.52738	17812.1125
680.47986	17767.7125
684.42955	17596.9125
688.37646	17416.2125
692.32058	17419.3125
696.26192	17532.4125
700.20048	17766.6125
704.13626	17927.0125
708.06928	17901.7125
711.99952	17720.7125
715.927	17583.0125
719.85171	17566.9125
723.77365	17581.2125
727.69284	17445.6125
731.60928	17305.0125
735.52295	17344.2125
739.43388	17410.7125
743.34206	17499.3125
747.24749	17595.0125
751.15017	17709.3125
755.05012	18037.4125
758.94733	18757.1125
762.8418	20249.9125
766.73354	22620.6125
770.62254	25163.1125
774.50882	26119.2125
778.39237	24876.1125
782.27321	22163.8125
786.15132	19658.3125
790.02671	18132.2125
793.89938	17415.0125
797.76935	17106.1125
801.6366	17017.9125
805.50115	16997.0125
809.36299	16896.5125
813.22213	16771.1125
817.07857	16684.9125
820.93231	16654.3125
824.78336	16632.7125
828.63172	16614.9125
832.47738	16584.8125
836.32036	16610.6125
840.16066	16598.9125
843.99827	16548.0125
847.8332	16495.6125
851.66546	16419.7125
855.49504	16409.8125
859.32195	16427.2125
863.1462	16402.5125
866.96777	16358.7125
870.78668	16314.6125
874.60293	16290.1125
878.41652	16311.7125
882.22745	16368.4125
886.03573	16445.5125
889.84136	16409.8125
893.64433	16334.9125
897.44466	16217.3125
901.24235	16130.3125
905.0374	16032.7125
908.8298	15926.9125
912.61957	15891.7125
916.40671	15999.8125
920.19121	16265.9125
923.97308	16525.7125
927.75233	16646.9125
931.52895	16651.1125
935.30295	16427.5125
939.07433	15999.8125
942.84309	15663.1125
946.60924	15465.7125
950.37278	15352.0125
954.13371	15293.0125
957.89203	15227.7125
961.64774	15174.2125
965.40086	15102.1125
969.15137	15042.3125
972.89929	14914.5125
976.64461	14828.6125
980.38733	14865.1125
984.12747	14894.5125
987.86502	14996.4125
991.59999	15154.8125
995.33237	15479.1125
999.06217	16031.4125
1002.78939	16796.2125
1006.51404	17362.0125
1010.23611	17750.1125
1013.95561	17954.2125
1017.67255	17903.5125
1021.38692	17576.1125
1025.09872	17131.7125
1028.80796	17022.0125
1032.51465	17249.5125
1036.21877	17593.4125
1039.92035	17742.3125
1043.61937	17598.9125
1047.31584	17297.8125
1051.00976	16907.1125
1054.70114	16684.8125
1058.38998	16596.5125
1062.07627	16660.1125
1065.76003	16789.0125
1069.44126	16894.9125
1073.11995	17099.3125
1076.79611	17305.4125
1080.46974	17418.2125
1084.14085	17703.7125
1087.80943	18008.2125
1091.47549	18256.1125
1095.13903	18151.2125
1098.80005	17745.0125
1102.45857	17245.8125
1106.11456	16961.2125
1109.76805	16891.8125
1113.41903	17062.2125
1117.06751	17445.2125
1120.71348	17904.0125
1124.35696	18445.5125
1127.99793	18889.2125
1131.63641	18960.0125
1135.2724	18556.5125
1138.90589	18094.1125
1142.5369	17839.2125
1146.16542	17667.4125
1149.79145	17620.5125
1153.415	17688.8125
1157.03607	17918.7125
1160.65467	18330.3125
1164.27079	19156.7125
1167.88443	20327.0125
1171.49561	22028.8125
1175.10432	24458.6125
1178.71056	27506.8125
1182.31434	30197.6125
1185.91565	31334.2125
1189.51451	30961.1125
1193.11091	29637.9125
1196.70485	27924.9125
1200.29634	26286.8125
1203.88538	24956.5125
1207.47197	23761.9125
1211.05612	22814.5125
1214.63782	22295.2125
1218.21708	22136.2125
1221.79391	22201.4125
1225.36829	22201.6125
1228.94024	21877.3125
1232.50976	21351.6125
1236.07685	20944.0125
1239.6415	20667.7125
1243.20374	20589.1125
1246.76355	20663.2125
1250.32093	20955.4125
1253.8759	21504.9125
1257.42845	22269.1125
1260.97859	22997.4125
1264.52631	23670.8125
1268.07163	24383.5125
1271.61453	25112.6125
1275.15503	25935.9125
1278.69312	26668.6125
1282.22882	27357.6125
1285.76211	28132.4125
1289.29301	29120.3125
1292.82151	30299.8125
1296.34761	31839.4125
1299.87133	33898.7125
1303.39266	36487.1125
1306.9116	39877.0125
1310.42815	43444.6125
1313.94233	45785.3125
1317.45412	45844.2125
1320.96354	44250.5125
1324.47058	42310.2125
1327.97525	40576.0125
1331.47754	39248.2125
1334.97747	38598.3125
1338.47502	38656.4125
1341.97022	38869.7125
1345.46305	38869.0125
1348.95352	38676.3125
1352.44163	38921.0125
1355.92738	40386.2125
1359.41078	43315.1125
1362.89183	46062.4125
1366.37053	45139.1125
1369.84688	40446.6125
1373.32088	35011.1125
1376.79254	31221.5125
1380.26186	29391.6125
1383.72883	28721.9125
1387.19347	28416.1125
1390.65578	28096.1125
1394.11575	28287.4125
1397.57339	28969.6125
1401.0287	30109.4125
1404.48168	31250.9125
1407.93234	31991.5125
1411.38068	32019.6125
1414.82669	31300.2125
1418.27039	29827.7125
1421.71177	28092.9125
1425.15083	26551.6125
1428.58758	25715.3125
1432.02203	25561.4125
1435.45416	25911.9125
1438.88399	26334.9125
1442.31151	26822.7125
1445.73673	27330.6125
1449.15965	27953.6125
1452.58027	28283.3125
1455.9986	28343.6125
1459.41463	28558.3125
1462.82837	29104.8125
1466.23982	29925.7125
1469.64898	30731.4125
1473.05586	31100.1125
1476.46045	31159.5125
1479.86276	31001.3125
1483.26279	30832.1125
1486.66054	30735.1125
1490.05602	30931.0125
1493.44922	31186.2125
1496.84016	31371.0125
1500.22882	31920.0125
1503.61521	33181.2125
1506.99934	35070.5125
1510.38121	36895.1125
1513.76081	37572.0125
1517.13816	36348.7125
1520.51324	33699.8125
1523.88607	31130.3125
1527.25665	29554.1125
1530.62498	28726.0125
1533.99105	28415.0125
1537.35488	28238.1125
1540.71647	28103.9125
1544.07581	27820.5125
1547.4329	27465.4125
1550.78776	26980.0125
1554.14038	26612.0125
1557.49077	26417.9125
1560.83892	26492.4125
1564.18484	26693.1125
1567.52853	26855.0125
1570.86999	26952.3125
1574.20922	27201.1125
1577.54624	27197.2125
1580.88103	26716.3125
1584.2136	26289.2125
1587.54395	26573.8125
1590.87208	28049.8125
1594.19801	30439.5125
1597.52172	33229.2125
1600.84321	34734.0125
1604.16251	33836.3125
1607.47959	31024.1125
1610.79447	27664.4125
1614.10715	24454.2125
1617.41763	22045.1125
1620.7259	20444.9125
1624.03199	19652.1125
1627.33587	19545.0125
1630.63757	20109.9125
1633.93707	21438.8125
1637.23439	23614.8125
1640.52951	26783.7125
1643.82246	30668.0125
1647.11321	34298.8125
1650.40179	35743.9125
1653.68819	33794.4125
1656.97241	29169.3125
1660.25446	24267.9125
1663.53433	20551.3125
1666.81203	18215.4125
1670.08756	16780.8125
1673.36092	15876.6125
1676.63211	15325.3125
1679.90115	14931.3125
1683.16801	14623.6125
1686.43272	14454.0125
1689.69527	14284.3125
1692.95567	14142.9125
1696.2139	14086.3125
1699.46999	14040.4125
1702.72392	13987.4125
1705.97571	13937.0125
1709.22535	13887.5125
1712.47284	13828.5125
1715.71819	13790.8125
1718.96139	13786.9125
1722.20246	13707.3125
1725.44139	13653.6125
1728.67818	13587.8125
1731.91284	13496.5125
1735.14537	13417.1125
1738.37576	13326.3125
1741.60403	13297.8125
1744.83017	13264.3125
1748.05418	13229.1125
1751.27607	13240.5125
1754.49584	13190.1125
1757.71349	13199.6125
1760.92903	13176.0125
1764.14244	13121.4125
1767.35375	13087.9125
1770.56294	13058.8125
1773.77002	13011.6125
1776.97499	12976.2125
1780.17785	12923.1125
1783.37861	12893.4125
1786.57727	12858.3125
1789.77382	12818.1125
1792.96828	12837.3125
1796.16064	12763.9125
1799.3509	12744.1125
1802.53907	12724.9125
1805.72514	12701.5125
1808.90913	12635.4125
1812.09102	12614.6125
1815.27083	12588.7125
1818.44856	12568.3125
1821.6242	12534.8125
1824.79776	12543.1125
1827.96924	12501.3125
1831.13864	12490.9125
1834.30597	12474.0125
1837.47122	12463.9125
1840.6344	12469.0125
1843.7955	12456.3125
1846.95454	12466.5125
1850.11151	12449.7125
1853.26642	12449.1125
1856.41926	12465.0125
1859.57004	12471.6125
1862.71876	12441.9125
1865.86542	12468.1125
1869.01003	12477.6125
1872.15258	12456.6125
1875.29308	12459.4125
1878.43152	12443.3125
1881.56792	12476.0125
1884.70227	12438.6125
1887.83457	12461.0125
1890.96482	12446.7125
1894.09304	12428.4125
1897.21921	12491.8125
1900.34335	12476.1125
1903.46544	12483.5125
1906.58551	12486.8125
1909.70353	12471.5125
1912.81953	12455.2125
1915.93349	12427.4125
1919.04543	12377.0125
1922.15534	12385.8125
1925.26322	12338.6125
1928.36908	12314.4125
1931.47292	12257.4125
1934.57473	12205.1125
1937.67453	12151.0125
1940.77232	12110.9125
1943.86808	12066.0125
1946.96184	12016.6125
1950.05358	11954.6125
1953.14331	11914.7125
1956.23103	11863.5125
1959.31675	11821.9125
1962.40046	11806.7125
1965.48217	11749.1125
1968.56188	11727.2125
1971.63959	11675.4125
1974.7153	11680.6125
1977.78901	11580.9125
1980.86073	11556.8125
1983.93046	11499.3125
1986.99819	11475.8125
1990.06394	11439.3125
1993.1277	11389.6125
1996.18947	11343.7125
1999.24925	11324.1125
2002.30706	11280.8125
2005.36288	11249.1125
2008.41672	11205.8125
2011.46859	11196.4125
2014.51848	11155.4125
2017.56639	11116.9125
2020.61233	11092.4125
2023.6563	11071.0125
2026.6983	11058.9125
2029.73833	11035.8125
2032.7764	10999.8125
2035.8125	10994.2125
2038.84664	10968.1125
2041.87881	10957.8125
2044.90903	10926.0125
2047.93729	10916.1125
2050.96359	10923.9125
2053.98794	10895.7125
2057.01034	10866.1125
2060.03078	10857.1125
2063.04927	10829.3125
2066.06582	10828.3125
2069.08042	10813.2125
2072.09307	10778.2125
2075.10378	10793.1125
2078.11255	10766.6125
2081.11938	10763.1125
2084.12426	10756.6125
2087.12722	10750.8125
2090.12824	10733.0125
2093.12732	10710.2125
2096.12447	10723.8125
2099.11969	10709.8125
2102.11299	10713.4125
2105.10435	10716.9125
2108.09379	10711.9125
2111.08131	10719.3125
2114.0669	10721.5125
2117.05057	10712.3125
2120.03233	10719.9125
2123.01216	10716.4125
2125.99008	10759.5125
2128.96609	10760.7125
2131.94018	10771.3125
2134.91236	10738.8125
2137.88263	10737.9125
2140.851	10729.5125
2143.81746	10720.0125
2146.78201	10702.3125
2149.74466	10724.8125
2152.7054	10739.8125
2155.66425	10720.2125
2158.6212	10689.0125
2161.57625	10701.9125
2164.52941	10695.5125
2167.48067	10703.3125
2170.43004	10700.4125
2173.37752	10675.3125
2176.32311	10688.3125
2179.26681	10682.9125
2182.20863	10673.5125
2185.14856	10671.8125
2188.08661	10662.6125
2191.02278	10662.7125
2193.95707	10664.8125
2196.88948	10633.6125
2199.82001	10657.3125
2202.74867	10638.1125
2205.67545	10622.5125
2208.60037	10608.2125
2211.52341	10595.9125
2214.44458	10591.7125
2217.36388	10547.9125
2220.28132	10559.0125
2223.1969	10522.5125
2226.11061	10516.0125
2229.02246	10506.7125
2231.93245	10483.2125
2234.84058	10444.9125
2237.74686	10457.9125
2240.65128	10418.4125
2243.55385	10418.5125
2246.45456	10392.1125
2249.35343	10368.2125
2252.25044	10353.1125
2255.14561	10335.4125
2258.03893	10333.3125
2260.93041	10304.5125
2263.82004	10299.5125
2266.70783	10254.7125
2269.59378	10232.5125
2272.4779	10185.8125
2275.36017	10153.8125
2278.24061	10153.5125
2281.11922	10122.0125
2283.996	10111.0125
2286.87094	10078.2125
2289.74405	10073.9125
2292.61534	10070.5125
2295.4848	10056.0125
2298.35243	10049.8125
2301.21824	10006.2125
2304.08223	10035.7125
2306.94439	10042.0125
2309.80474	10018.5125
2312.66327	10010.5125
2315.51999	10028.5125
2318.37489	10010.7125
2321.22797	10015.3125
2324.07925	9988.4125
2326.92871	9986.7125
2329.77637	9973.8125
2332.62222	9979.2125
2335.46626	9976.7125
2338.3085	9974.8125
2341.14893	9978.5125
2343.98756	9983.5125
2346.8244	9995.6125
2349.65943	9983.7125
2352.49267	9984.8125
2355.32411	9976.8125
2358.15376	9986.6125
2360.98161	9972.8125
2363.80768	9972.6125
2366.63195	9969.4125
2369.45444	9943.8125
2372.27514	9937.4125
2375.09405	9902.8125
2377.91118	9880.9125
2380.72652	9850.8125
2383.54009	9825.4125
2386.35187	9788.4125
2389.16188	9745.1125
2391.97011	9744.4125
2394.77657	9736.4125
2397.58125	9707.4125
2400.38416	9710.2125
2403.18529	9659.0125
2405.98466	9664.8125
2408.78226	9640.1125
2411.57809	9621.5125
2414.37216	9596.4125
2417.16446	9577.2125
2419.955	9562.9125
2422.74378	9550.4125
2425.5308	9542.3125
2428.31606	9533.0125
2431.09956	9529.0125
2433.88131	9519.5125
2436.6613	9502.2125
2439.43954	9495.3125
2442.21603	9519.3125
2444.99077	9491.3125
2447.76377	9496.3125
2450.53501	9493.7125
2453.30451	9504.9125
2456.07226	9504.6125
2458.83827	9516.1125
2461.60254	9497.8125
2464.36507	9500.1125
2467.12586	9475.2125
2469.88492	9482.6125
2472.64224	9484.8125
2475.39782	9487.0125
2478.15167	9518.6125
2480.90379	9522.0125
2483.65417	9517.0125
2486.40283	9545.3125
2489.14976	9516.9125
2491.89497	9537.1125
2494.63845	9580.3125
2497.3802	9567.3125
2500.12024	9541.4125
2502.85855	9540.9125
2505.59514	9517.1125
2508.33002	9512.1125
2511.06318	9505.9125
2513.79462	9471.7125
2516.52435	9453.5125
2519.25237	9445.9125
2521.97867	9419.9125
2524.70327	9429.9125
2527.42616	9387.9125
2530.14734	9378.5125
2532.86681	9385.7125
2535.58458	9388.0125
2538.30065	9390.2125
2541.01501	9379.6125
2543.72768	9328.6125
2546.43864	9363.2125
2549.14791	9345.2125
2551.85548	9352.6125
2554.56136	9329.6125
2557.26554	9311.3125
2559.96803	9321.7125
2562.66883	9330.2125
2565.36794	9284.1125
2568.06536	9297.9125
2570.7611	9285.0125
2573.45514	9256.0125
2576.14751	9275.7125
2578.83819	9281.2125
2581.52719	9275.4125
2584.21451	9269.5125
2586.90015	9258.0125
2589.58411	9250.3125
2592.2664	9271.5125
2594.94701	9236.9125
2597.62594	9245.0125
2600.30321	9243.7125
2602.9788	9230.4125
2605.65273	9210.0125
2608.32498	9233.2125
2610.99557	9218.5125
2613.66449	9244.3125
2616.33175	9223.9125
2618.99734	9255.9125
2621.66128	9226.2125
2624.32355	9241.4125
2626.98416	9247.2125
2629.64311	9248.8125
2632.30041	9230.0125
2634.95605	9229.0125
2637.61004	9219.7125
2640.26238	9199.8125
2642.91306	9195.8125
2645.56209	9195.1125
2648.20948	9199.8125
2650.85521	9173.4125
2653.4993	9153.5125
2656.14175	9160.6125
2658.78255	9174.4125
2661.42171	9179.4125
2664.05923	9211.9125
2666.6951	9198.6125
2669.32934	9217.4125
2671.96194	9208.5125
2674.59291	9209.7125
2677.22224	9219.0125
2679.84993	9201.7125
2682.476	9213.5125
2685.10043	9185.6125
2687.72324	9168.4125
2690.34441	9179.7125
2692.96396	9169.1125
2695.58188	9175.5125
2698.19818	9170.1125
2700.81285	9174.3125
2703.4259	9191.9125
2706.03733	9258.9125
2708.64714	9221.7125
2711.25533	9217.9125
2713.86191	9194.7125
2716.46687	9202.1125
2719.07021	9181.8125
2721.67194	9192.2125
2724.27206	9196.0125
2726.87057	9204.3125
2729.46747	9196.2125
2732.06276	9225.3125
2734.65644	9221.9125
2737.24852	9196.0125
2739.83899	9190.8125
2742.42786	9200.3125
2745.01513	9164.6125
2747.60079	9159.8125
2750.18486	9187.3125
2752.76733	9189.0125
2755.3482	9157.2125
2757.92747	9190.3125
2760.50515	9182.3125
2763.08123	9167.5125
2765.65573	9165.1125
2768.22863	9174.6125
2770.79994	9173.7125
2773.36967	9169.9125
2775.9378	9169.1125
2778.50435	9169.8125
2781.06932	9159.4125
2783.6327	9171.6125
2786.1945	9146.5125
2788.75471	9148.8125
2791.31335	9132.8125
2793.87041	9118.5125
2796.42589	9111.9125
2798.97979	9111.4125
2801.53212	9092.7125
2804.08288	9086.3125
2806.63206	9061.4125
2809.17967	9068.2125
2811.72571	9050.1125
2814.27018	9037.1125
2816.81308	9032.8125
2819.35442	9023.8125
2821.89419	9023.3125
2824.43239	9018.7125
2826.96904	9012.4125
2829.50412	9039.9125
2832.03763	8997.2125
2834.56959	9017.8125
2837.1	8986.7125
2839.62884	9011.8125
2842.15613	8979.6125
2844.68186	9000.1125
2847.20604	9005.9125
2849.72867	9014.6125
2852.24974	9020.8125
2854.76927	8989.3125
2857.28724	8995.4125
2859.80367	8979.8125
2862.31855	8971.0125
2864.83189	8936.3125
2867.34368	8950.7125
2869.85393	8965.7125
2872.36264	8941.2125
2874.8698	8936.3125
2877.37543	8929.5125
2879.87952	8966.3125
2882.38207	8941.5125
2884.88308	8945.4125
2887.38256	8937.4125
2889.88051	8952.0125
2892.37692	8931.3125
2894.8718	8944.9125
2897.36515	8968.3125
2899.85698	8974.0125
2902.34727	8986.9125
2904.83604	8985.6125
2907.32328	9009.1125
2909.809	9018.6125
2912.29319	8998.7125
2914.77587	8994.1125
2917.25702	9018.3125
2919.73665	8994.7125
2922.21476	9008.4125
2924.69136	9016.2125
2927.16644	8991.0125
2929.64	8990.0125
2932.11205	8947.9125
2934.58258	8908.1125
2937.05161	8944.0125
2939.51912	8935.9125
2941.98513	8925.2125
2944.44962	8904.8125
2946.91261	8873.4125
2949.37409	8865.4125
2951.83407	8853.6125
2954.29254	8828.5125
2956.74951	8805.6125
2959.20498	8807.2125
2961.65895	8745.2125
2964.11142	8739.9125
2966.56239	8729.6125
2969.01186	8703.1125
2971.45984	8666.6125
2973.90632	8653.7125
2976.35131	8601.5125
2978.7948	8596.7125
2981.23681	8573.1125
2983.67732	8538.9125
2986.11635	8513.3125
2988.55388	8496.6125
2990.98993	8472.8125
2993.4245	8457.1125
2995.85758	8431.4125
2998.28917	8438.0125
3000.71928	8406.9125
3003.14791	8410.8125
3005.57506	8431.8125
3008.00073	8385.3125
3010.42493	8372.7125
3012.84764	8346.7125
3015.26888	8334.9125
3017.68865	8302.6125
3020.10694	8270.8125
3022.52376	8240.0125
3024.9391	8239.0125
3027.35298	8240.6125
3029.76539	8226.2125
3032.17632	8217.0125
3034.5858	8202.2125
3036.9938	8184.5125
3039.40034	8172.5125
3041.80542	8136.0125
3044.20903	8132.2125
3046.61118	8125.3125
3049.01187	8117.5125
3051.4111	8106.1125
3053.80888	8064.3125
3056.20519	8067.6125
