Data from AgNPs_FTO_APTES_UA_2um_CRN_0.1mM_R6G_10uM_NaF_0.1M_Addition_RamanShift__18__12-35-59-054.txt Node

Date: Tue Dec 21 12:35:59 GMT 2021
User: TCL
Spectrometer: QEP01345
Trigger mode: 4
Integration Time (sec): 7.000000E0
Scans to average: 10
Electric dark correction enabled: true
Nonlinearity correction enabled: false
Boxcar width: 0
XAxis mode: Raman Shifts
Number of Pixels in Spectrum: 1044
>>>>>Begin Spectral Data<<<<<
46.04893	0.8
50.45542	-1.4
54.85868	-0.9
59.25871	0
63.6555	45.4
68.04907	52.8
72.43941	50.4
76.82654	52.8
81.21044	61.6
85.59113	61.2
89.96862	62
94.34289	62.4
98.71396	62
103.08183	69.2
107.4465	70.9
111.80798	70.5
116.16626	73
120.52136	75.4
124.87327	79.5
129.222	80.1
133.56755	87.5
137.90993	101
142.24913	101.1
146.58517	116.1
150.91804	134.5
155.24774	157.2
159.57429	197.1
163.89768	251.3
168.21792	326.9
172.53501	446.1
176.84895	618.4
181.15975	858.8
185.46741	1205.2
189.77193	1669.2
194.07331	2230.2
198.37157	2882
202.6667	3557.5
206.9587	4239.4
211.24758	4934.7
215.53334	5601.4
219.81599	6320.1
224.09553	7135.8
228.37195	8012.7
232.64527	8954.4
236.91549	9965.1
241.18261	10946.6
245.44663	11866
249.70755	12682.3
253.96539	13396.6
258.22014	13955.1
262.4718	14450.4
266.72039	14729.1
270.96589	14944.2
275.20832	14910.9
279.44768	14790
283.68397	14729.9
287.91719	14643.5
292.14735	14579.5
296.37445	14571.8
300.59849	14584.5
304.81948	14619.9
309.03742	14591.6
313.25231	14459.9
317.46415	14167.3
321.67296	13788
325.87872	13421.4
330.08145	13217.1
334.28114	13146.8
338.47781	13213.8
342.67145	13361.7
346.86207	13564.5
351.04966	13821.4
355.23424	14083.2
359.4158	14253.8
363.59435	14435.1
367.76989	14518.6
371.94243	14599.3
376.11196	14631.3
380.27849	14686.1
384.44203	14829.3
388.60257	14942.5
392.76012	15137.3
396.91468	15331.5
401.06626	15546.3
405.21485	15737.3
409.36047	15680.1
413.50311	15460.6
417.64277	15355.9
421.77947	15363.5
425.9132	15485
430.04396	15638
434.17176	15736.7
438.2966	15893.7
442.41849	16222.7
446.53742	16783.1
450.6534	17473.9
454.76644	17954.8
458.87653	18029.3
462.98368	17780
467.08789	17431.6
471.18916	17063.3
475.2875	16814.7
479.38291	16714.4
483.4754	16720.8
487.56496	16511.9
491.6516	16181.4
495.73531	15872.3
499.81612	15711.8
503.89401	15744.1
507.96899	15764
512.04106	15655
516.11023	15394
520.1765	15105
524.23987	14890.6
528.30034	14765.3
532.35792	14696.6
536.41261	14526.5
540.46441	14319.1
544.51333	14239
548.55936	14426.3
552.60252	14779.8
556.64279	15271
560.6802	15691.1
564.71473	15908.9
568.7464	16234.2
572.7752	16816.8
576.80114	17338.3
580.82422	17826.3
584.84444	18343.9
588.86181	18968.3
592.87633	19666.9
596.888	19928
600.89682	19376.9
604.9028	19178
608.90594	20116
612.90624	21092.5
616.90371	19463.2
620.89834	16051.8
624.89015	14545.1
628.87913	14423.9
632.86528	14626
636.84862	14680.4
640.82913	14454.1
644.80683	14041.4
648.78172	13687.6
652.75379	13543.7
656.72306	13652.9
660.68952	13793.8
664.65319	13737.9
668.61405	13530.6
672.57211	13516.7
676.52738	13604.9
680.47986	13622.5
684.42955	13501.5
688.37646	13361.8
692.32058	13332.8
696.26192	13438.5
700.20048	13600.9
704.13626	13730.9
708.06928	13791.1
711.99952	13676.4
715.927	13631.4
719.85171	13637.3
723.77365	13668.7
727.69284	13501.1
731.60928	13356.5
735.52295	13339
739.43388	13333.9
743.34206	13384.6
747.24749	13450
751.15017	13591.2
755.05012	13832
758.94733	14345.9
762.8418	15191.3
766.73354	16560
770.62254	17816.4
774.50882	17976.7
778.39237	16918.3
782.27321	15457
786.15132	14282.4
790.02671	13549.5
793.89938	13185.8
797.76935	13068.3
801.6366	13038.8
805.50115	13034.1
809.36299	12951.4
813.22213	12765.7
817.07857	12653.7
820.93231	12542.9
824.78336	12453.4
828.63172	12375
832.47738	12315.4
836.32036	12306
840.16066	12323.6
843.99827	12337.9
847.8332	12273.8
851.66546	12227.1
855.49504	12220.2
859.32195	12236.5
863.1462	12211.8
866.96777	12175.5
870.78668	12196.5
874.60293	12158.1
878.41652	12151.7
882.22745	12231.1
886.03573	12247.1
889.84136	12222.7
893.64433	12205.7
897.44466	12156
901.24235	12074.3
905.0374	11928.2
908.8298	11859.3
912.61957	11868.2
916.40671	11954.6
920.19121	12198.3
923.97308	12405.8
927.75233	12454.3
931.52895	12302.4
935.30295	12071.8
939.07433	11783
942.84309	11532.4
946.60924	11424.1
950.37278	11371.4
954.13371	11383.2
957.89203	11347.1
961.64774	11339
965.40086	11282.4
969.15137	11223.7
972.89929	11148.4
976.64461	11076.2
980.38733	11007.9
984.12747	11034.8
987.86502	11095.5
991.59999	11205
995.33237	11404
999.06217	11772.7
1002.78939	12243.9
1006.51404	12597.8
1010.23611	12838.1
1013.95561	13078.7
1017.67255	13097.6
1021.38692	12903.4
1025.09872	12529.7
1028.80796	12306.6
1032.51465	12367.7
1036.21877	12553.3
1039.92035	12582.1
1043.61937	12557.8
1047.31584	12430.2
1051.00976	12320.7
1054.70114	12263.2
1058.38998	12302
1062.07627	12377.6
1065.76003	12469
1069.44126	12646.5
1073.11995	12833
1076.79611	13027.5
1080.46974	13112
1084.14085	13199.6
1087.80943	13376.2
1091.47549	13617.9
1095.13903	13661.8
1098.80005	13484.4
1102.45857	13102.4
1106.11456	12730.9
1109.76805	12578.5
1113.41903	12584.4
1117.06751	12719.4
1120.71348	12891
1124.35696	13114.8
1127.99793	13342
1131.63641	13507.1
1135.2724	13504.6
1138.90589	13453.9
1142.5369	13476.9
1146.16542	13549.9
1149.79145	13662.2
1153.415	13818.5
1157.03607	14120.3
1160.65467	14710
1164.27079	15570.8
1167.88443	16735.5
1171.49561	18148.2
1175.10432	19898.4
1178.71056	21987.3
1182.31434	23900
1185.91565	24807.1
1189.51451	24509.1
1193.11091	23619.1
1196.70485	22424.1
1200.29634	21147.4
1203.88538	20186.8
1207.47197	19561.8
1211.05612	19059.2
1214.63782	18585.8
1218.21708	18217.7
1221.79391	18025.4
1225.36829	17972.9
1228.94024	17727.1
1232.50976	17240.9
1236.07685	16674.8
1239.6415	16351.4
1243.20374	16198
1246.76355	16208.7
1250.32093	16426
1253.8759	16821.7
1257.42845	17423.2
1260.97859	18051
1264.52631	18689
1268.07163	19294.8
1271.61453	20032.4
1275.15503	20734
1278.69312	21536.3
1282.22882	22368.9
1285.76211	23292.9
1289.29301	24359.2
1292.82151	25680.8
1296.34761	27251.1
1299.87133	29150.3
1303.39266	31142.1
1306.9116	33219.3
1310.42815	35181.5
1313.94233	36680.3
1317.45412	37120.9
1320.96354	36705.6
1324.47058	36083
1327.97525	35398.9
1331.47754	34813.5
1334.97747	34330.9
1338.47502	33898.4
1341.97022	33277.6
1345.46305	32377.3
1348.95352	31447.6
1352.44163	31085.8
1355.92738	31463
1359.41078	32672.6
1362.89183	33755.4
1366.37053	33609.7
1369.84688	31250.5
1373.32088	27683.3
1376.79254	24902
1380.26186	23815.2
1383.72883	23653.9
1387.19347	23717.4
1390.65578	23581.1
1394.11575	23706.6
1397.57339	24415.8
1401.0287	25428.1
1404.48168	26338.9
1407.93234	26654.8
1411.38068	26218.5
1414.82669	25215.6
1418.27039	23730.3
1421.71177	22181.7
1425.15083	20873.7
1428.58758	20111.3
1432.02203	20069.7
1435.45416	20611.8
1438.88399	21446.4
1442.31151	22236.2
1445.73673	22928.4
1449.15965	23542.4
1452.58027	23840.1
1455.9986	23915.1
1459.41463	24031.3
1462.82837	24412.3
1466.23982	25133.2
1469.64898	25766
1473.05586	26087.9
1476.46045	26090.8
1479.86276	25878.7
1483.26279	25398.3
1486.66054	25067.3
1490.05602	24917.8
1493.44922	24880.2
1496.84016	24790.2
1500.22882	24631.6
1503.61521	24853.2
1506.99934	25342.2
1510.38121	25792.8
1513.76081	25788.6
1517.13816	25277.8
1520.51324	24337.1
1523.88607	23562.1
1527.25665	23261.7
1530.62498	23256.3
1533.99105	23288.2
1537.35488	23246.9
1540.71647	22901
1544.07581	22369.8
1547.4329	21660.7
1550.78776	20993.7
1554.14038	20529.2
1557.49077	20237.9
1560.83892	20141.3
1564.18484	20102.5
1567.52853	20115.4
1570.86999	20242.8
1574.20922	20578.2
1577.54624	20914.4
1580.88103	21055.9
1584.2136	21238.9
1587.54395	21995.7
1590.87208	23419.9
1594.19801	25420.2
1597.52172	27487.1
1600.84321	28502.4
1604.16251	27498.2
1607.47959	25010.6
1610.79447	22091.9
1614.10715	19425.2
1617.41763	17288.5
1620.7259	15890.9
1624.03199	15082.4
1627.33587	14955
1630.63757	15485.3
1633.93707	16762.9
1637.23439	19026.1
1640.52951	22488.9
1643.82246	26766.7
1647.11321	30360.2
1650.40179	31247.9
1653.68819	28765.6
1656.97241	24233.2
1660.25446	19743.8
1663.53433	16352.3
1666.81203	14174.1
1670.08756	12774.5
1673.36092	11948.4
1676.63211	11450.5
1679.90115	11059.6
1683.16801	10775.5
1686.43272	10572.4
1689.69527	10397.4
1692.95567	10307.4
1696.2139	10206.5
1699.46999	10160.7
1702.72392	10095.6
1705.97571	10031.7
1709.22535	9985.9
1712.47284	9918.6
1715.71819	9879.6
1718.96139	9826.4
1722.20246	9759.4
1725.44139	9709.7
1728.67818	9639.9
1731.91284	9588.3
1735.14537	9490.7
1738.37576	9453.9
1741.60403	9400.9
1744.83017	9398.6
1748.05418	9397.3
1751.27607	9387.3
1754.49584	9373
1757.71349	9394.5
1760.92903	9372.6
1764.14244	9333.1
1767.35375	9287.9
1770.56294	9253.1
1773.77002	9182.6
1776.97499	9123.3
1780.17785	9083.2
1783.37861	9063.4
1786.57727	9008.1
1789.77382	8986.2
1792.96828	8946.6
1796.16064	8924.6
1799.3509	8900.1
1802.53907	8845.4
1805.72514	8835.8
1808.90913	8792.5
1812.09102	8778.1
1815.27083	8758.4
1818.44856	8740.9
1821.6242	8718
1824.79776	8713.5
1827.96924	8683.8
1831.13864	8686.7
1834.30597	8691
1837.47122	8653.7
1840.6344	8693.6
1843.7955	8666.2
1846.95454	8676.9
1850.11151	8661.7
1853.26642	8664.2
1856.41926	8645.1
1859.57004	8654.5
1862.71876	8609.1
1865.86542	8628.3
1869.01003	8623.2
1872.15258	8629.2
1875.29308	8605.8
1878.43152	8596.6
1881.56792	8580.9
1884.70227	8577.5
1887.83457	8581.3
1890.96482	8596.3
1894.09304	8574.5
1897.21921	8587.4
1900.34335	8566.2
1903.46544	8559.4
1906.58551	8549.8
1909.70353	8500.5
1912.81953	8482.7
1915.93349	8455
1919.04543	8452.2
1922.15534	8416.7
1925.26322	8381.3
1928.36908	8347
1931.47292	8307.9
1934.57473	8287.7
1937.67453	8250.5
1940.77232	8215.5
1943.86808	8195.3
1946.96184	8154.6
1950.05358	8132.2
1953.14331	8101.1
1956.23103	8092.9
1959.31675	8060.5
1962.40046	8024
1965.48217	7990.7
1968.56188	7967.1
1971.63959	7951.9
1974.7153	7913.1
1977.78901	7862.3
1980.86073	7857.2
1983.93046	7846.4
1986.99819	7808.2
1990.06394	7756.2
1993.1277	7760.3
1996.18947	7715.4
1999.24925	7708.9
2002.30706	7683.9
2005.36288	7650.8
2008.41672	7637.1
2011.46859	7594.9
2014.51848	7578.8
2017.56639	7558.6
2020.61233	7542
2023.6563	7503.1
2026.6983	7512.6
2029.73833	7493.9
2032.7764	7474.6
2035.8125	7455.5
2038.84664	7454.6
2041.87881	7441.1
2044.90903	7409.8
2047.93729	7394.5
2050.96359	7399.4
2053.98794	7390.2
2057.01034	7391.7
2060.03078	7388.6
2063.04927	7361.6
2066.06582	7360.4
2069.08042	7343.3
2072.09307	7320.8
2075.10378	7304.6
2078.11255	7304.8
2081.11938	7332.5
2084.12426	7319.3
2087.12722	7292.5
2090.12824	7310.5
2093.12732	7281.2
2096.12447	7288.8
2099.11969	7276.2
2102.11299	7281
2105.10435	7276.6
2108.09379	7281.1
2111.08131	7269.8
2114.0669	7267.6
2117.05057	7255.7
2120.03233	7284.6
2123.01216	7264.3
2125.99008	7272.1
2128.96609	7274.8
2131.94018	7270
2134.91236	7280.1
2137.88263	7283.1
2140.851	7270.5
2143.81746	7252.3
2146.78201	7271.4
2149.74466	7255
2152.7054	7262.3
2155.66425	7242.9
2158.6212	7242.6
2161.57625	7236.2
2164.52941	7230.3
2167.48067	7227.4
2170.43004	7226.9
2173.37752	7220.7
2176.32311	7220.3
2179.26681	7201.6
2182.20863	7201.6
2185.14856	7203.7
2188.08661	7186.9
2191.02278	7191.2
2193.95707	7202.1
2196.88948	7178.1
2199.82001	7169.3
2202.74867	7169.9
2205.67545	7169.5
2208.60037	7155.1
2211.52341	7138.4
2214.44458	7153.5
2217.36388	7102.5
2220.28132	7084.5
2223.1969	7091.5
2226.11061	7095
2229.02246	7068.3
2231.93245	7047.9
2234.84058	7045.9
2237.74686	7015.3
2240.65128	7019.6
2243.55385	6999.2
2246.45456	6988.1
2249.35343	6967.8
2252.25044	6957.9
2255.14561	6932.8
2258.03893	6935.5
2260.93041	6908.4
2263.82004	6876.8
2266.70783	6856.6
2269.59378	6853.7
2272.4779	6823.4
2275.36017	6794
2278.24061	6785.1
2281.11922	6772
2283.996	6754.8
2286.87094	6746.8
2289.74405	6725.5
2292.61534	6734.6
2295.4848	6707.6
2298.35243	6723.3
2301.21824	6690.3
2304.08223	6707.3
2306.94439	6705.9
2309.80474	6703.6
2312.66327	6694.8
2315.51999	6694
2318.37489	6689.1
2321.22797	6670.3
2324.07925	6667
2326.92871	6663.3
2329.77637	6671.6
2332.62222	6663.6
2335.46626	6663.7
2338.3085	6640.9
2341.14893	6654.5
2343.98756	6638.3
2346.8244	6649
2349.65943	6634.2
2352.49267	6659.5
2355.32411	6630.9
2358.15376	6648.8
2360.98161	6639.4
2363.80768	6626.9
2366.63195	6626.1
2369.45444	6618.1
2372.27514	6621.1
2375.09405	6584.2
2377.91118	6575.9
2380.72652	6571.2
2383.54009	6537.7
2386.35187	6534.1
2389.16188	6492.3
2391.97011	6478.1
2394.77657	6470.6
2397.58125	6473.7
2400.38416	6474.6
2403.18529	6438.9
2405.98466	6447.1
2408.78226	6420
2411.57809	6404.1
2414.37216	6394.2
2417.16446	6390.3
2419.955	6378.5
2422.74378	6382.3
2425.5308	6374.2
2428.31606	6358.8
2431.09956	6360.4
2433.88131	6353.6
2436.6613	6341.3
2439.43954	6350.3
2442.21603	6336.1
2444.99077	6339.9
2447.76377	6346.9
2450.53501	6331.2
2453.30451	6345.2
2456.07226	6349.7
2458.83827	6324.7
2461.60254	6328.8
2464.36507	6345.2
2467.12586	6324.3
2469.88492	6336.3
2472.64224	6351.1
2475.39782	6347.1
2478.15167	6356.8
2480.90379	6371.1
2483.65417	6378.2
2486.40283	6340.5
2489.14976	6360.5
2491.89497	6355.7
2494.63845	6368.5
2497.3802	6377.4
2500.12024	6369.5
2502.85855	6348.5
2505.59514	6362.4
2508.33002	6337.9
2511.06318	6342.8
2513.79462	6332.5
2516.52435	6297.5
2519.25237	6320.4
2521.97867	6309.4
2524.70327	6297.5
2527.42616	6302.3
2530.14734	6297.4
2532.86681	6278.3
2535.58458	6276.9
2538.30065	6283.6
2541.01501	6272.9
2543.72768	6246.1
2546.43864	6261
2549.14791	6247.5
2551.85548	6256.9
2554.56136	6227.4
2557.26554	6215.4
2559.96803	6237
2562.66883	6231.7
2565.36794	6221.7
2568.06536	6203.8
2570.7611	6204.1
2573.45514	6220.6
2576.14751	6204.3
2578.83819	6209.4
2581.52719	6212.4
2584.21451	6209.9
2586.90015	6181.7
2589.58411	6195.4
2592.2664	6182.8
2594.94701	6183.4
2597.62594	6198.1
2600.30321	6174.7
2602.9788	6177.5
2605.65273	6174.9
2608.32498	6182.5
2610.99557	6175.7
2613.66449	6174.4
2616.33175	6192
2618.99734	6186.4
2621.66128	6182.4
2624.32355	6197.7
2626.98416	6202.7
2629.64311	6184
2632.30041	6173.6
2634.95605	6187.2
2637.61004	6180.4
2640.26238	6185.5
2642.91306	6170.3
2645.56209	6172.8
2648.20948	6177.5
2650.85521	6183.1
2653.4993	6156.3
2656.14175	6158.4
2658.78255	6172.9
2661.42171	6198.7
2664.05923	6171.1
2666.6951	6181.3
2669.32934	6189.3
2671.96194	6199.8
2674.59291	6189.7
2677.22224	6196.5
2679.84993	6186.3
2682.476	6169.2
2685.10043	6178.9
2687.72324	6145.9
2690.34441	6158.1
2692.96396	6143.7
2695.58188	6139.4
2698.19818	6148
2700.81285	6152.9
2703.4259	6180.1
2706.03733	6235.4
2708.64714	6208.4
2711.25533	6199.2
2713.86191	6163.4
2716.46687	6195.3
2719.07021	6180.3
2721.67194	6188.6
2724.27206	6180.6
2726.87057	6191.8
2729.46747	6211.7
2732.06276	6228.8
2734.65644	6199.6
2737.24852	6192.3
2739.83899	6173.3
2742.42786	6196.3
2745.01513	6178.9
2747.60079	6197.2
2750.18486	6203.2
2752.76733	6182
2755.3482	6190.7
2757.92747	6197.2
2760.50515	6193.6
2763.08123	6190.5
2765.65573	6201.4
2768.22863	6205.5
2770.79994	6197.9
2773.36967	6203.4
2775.9378	6212.4
2778.50435	6199.2
2781.06932	6196.1
2783.6327	6223.4
2786.1945	6202.5
2788.75471	6202.5
2791.31335	6181.5
2793.87041	6184.4
2796.42589	6167.1
2798.97979	6179.5
2801.53212	6168.9
2804.08288	6179.9
2806.63206	6166
2809.17967	6150.9
2811.72571	6134.1
2814.27018	6130.6
2816.81308	6109.2
2819.35442	6113.7
2821.89419	6125
2824.43239	6104
2826.96904	6099.4
2829.50412	6077.8
2832.03763	6099.5
2834.56959	6084.2
2837.1	6067.4
2839.62884	6073.4
2842.15613	6052.1
2844.68186	6075.6
2847.20604	6087.4
2849.72867	6091.5
2852.24974	6078
2854.76927	6081
2857.28724	6084.7
2859.80367	6054.7
2862.31855	6030
2864.83189	6042.8
2867.34368	6054.1
2869.85393	6058.1
2872.36264	6036.7
2874.8698	6031.9
2877.37543	6035.9
2879.87952	6028.5
2882.38207	6024.6
2884.88308	6018.6
2887.38256	6043.4
2889.88051	6036.9
2892.37692	6058.8
2894.8718	6053.1
2897.36515	6070.2
2899.85698	6079.7
2902.34727	6090.2
2904.83604	6079.7
2907.32328	6102.8
2909.809	6098.9
2912.29319	6105.3
2914.77587	6112.2
2917.25702	6119.6
2919.73665	6129
2922.21476	6119.4
2924.69136	6116.2
2927.16644	6127.2
2929.64	6120
2932.11205	6106.7
2934.58258	6102.8
2937.05161	6102.3
2939.51912	6103.1
2941.98513	6105.2
2944.44962	6087.4
2946.91261	6076.6
2949.37409	6070.5
2951.83407	6061.9
2954.29254	6033.9
2956.74951	6025.9
2959.20498	6029.3
2961.65895	6016
2964.11142	5992.3
2966.56239	5965.8
2969.01186	5942.3
2971.45984	5925.3
2973.90632	5912.3
2976.35131	5878.8
2978.7948	5880.1
2981.23681	5859.9
2983.67732	5820.1
2986.11635	5824
2988.55388	5783.9
2990.98993	5790.5
2993.4245	5775.6
2995.85758	5759
2998.28917	5749.7
3000.71928	5714.1
3003.14791	5716.6
3005.57506	5726.9
3008.00073	5703.1
3010.42493	5684.2
3012.84764	5674.6
3015.26888	5679.1
3017.68865	5655.8
3020.10694	5643.5
3022.52376	5609.1
3024.9391	5614
3027.35298	5621.6
3029.76539	5605.6
3032.17632	5583.6
3034.5858	5562.1
3036.9938	5570.7
3039.40034	5556.2
3041.80542	5566.3
3044.20903	5546.2
3046.61118	5559.9
3049.01187	5534
3051.4111	5544.1
3053.80888	5494.9
3056.20519	5503.8
3058.60005	5495.1
3060.99345	5463.9
3063.3854	5454.2
3065.7759	5447.5
3068.16494	5432.4
3070.55254	5408
3072.93868	5402.2
3075.32338	5393.1
3077.70662	5379.9
3080.08842	5355.3
3082.46878	5339.6
3084.84769	5325.1
3087.22515	5344.3
3089.60118	5327.6
3091.97576	5337.2
3094.3489	5336.2
3096.72061	5337.2
3099.09087	5314.2
3101.4597	5300.2
3103.82709	5308.9
3106.19305	5305.8
3108.55757	5292.3
3110.92066	5263.5
3113.28232	5269.2
3115.64255	5234.8
3118.00134	5231.6
3120.35871	5228.7
3122.71466	5216.4
3125.06917	5210.4
3127.42226	5196.3
3129.77393	5195
3132.12417	5183.9
3134.47299	5196.7
3136.82039	5195.1
3139.16636	5182.3
3141.51092	5186.1
3143.85406	5177.3
3146.19579	5172.6
3148.53609	5191.9
3150.87499	5177.5
3153.21246	5163.1
3155.54853	5192.8
3157.88318	5176.8
3160.21642	5168.4
3162.54826	5175.2
3164.87868	5176.9
3167.2077	5179.1
3169.5353	5175.1
3171.86151	5162.6
3174.18631	5166.4
3176.5097	5165.7
3178.83169	5143.8
3181.15228	5157.5
3183.47147	5142.2
3185.78926	5147.4
3188.10565	5159.2
3190.42065	5140
3192.73424	5143.4
3195.04645	5142.7
3197.35725	5147.4
3199.66667	5146.3
3201.97469	5158.1
3204.28132	5158.2
3206.58656	5142.2
3208.8904	5141.7
3211.19287	5143.8
3213.49394	5136.3
3215.79363	5126
3218.09193	5155.2
3220.38884	5141.5
3222.68438	5167.8
3224.97853	5141.5
3227.2713	5132.4
3229.56269	5139.2
3231.8527	5141
3234.14133	5107.3
3236.42858	5123.2
3238.71446	5122.7
3240.99896	5099.5
3243.28209	5097.2
3245.56384	5096.6
3247.84423	5094.6
3250.12324	5084.6
3252.40088	5093.6
3254.67715	5070.1
3256.95205	5059.4
3259.22558	5050.2
3261.49775	5029.4
3263.76855	5030.9
3266.03799	5002.7
3268.30606	5005.7
3270.57277	4990.5
3272.83812	4981.2
3275.10211	4978.4
3277.36474	4979.1
3279.62601	4980
3281.88593	4973.2
3284.14448	4977.2
3286.40168	4988.5
3288.65753	4959.5
3290.91202	4963.1
3293.16516	4955
3295.41695	4944.7
3297.66738	4911.4
3299.91647	4888.9
3302.16421	4865.8
3304.4106	4834.8
3306.65564	4803.6
3308.89933	4781.7
3311.14169	4757.9
3313.38269	4718.8
3315.62236	4691.4
3317.86068	4654.1
3320.09766	4596.7
3322.3333	4577.6
3324.5676	4576.6
3326.80056	4495.1
3329.03219	4488.1
3331.26248	0.8
3333.49143	0.4
3335.71905	1
