Data from AgNPs_FTO_APTES_UA_2um_CRN_0.1mM_R6G_10uM_NaF_0.1M_Addition_RamanShift__3__12-18-29-033.txt Node

Date: Tue Dec 21 12:18:29 GMT 2021
User: TCL
Spectrometer: QEP01345
Trigger mode: 4
Integration Time (sec): 7.000000E0
Scans to average: 10
Electric dark correction enabled: true
Nonlinearity correction enabled: false
Boxcar width: 0
XAxis mode: Raman Shifts
Number of Pixels in Spectrum: 1044
>>>>>Begin Spectral Data<<<<<
46.04893	0.525
50.45542	-0.975
54.85868	-0.675
59.25871	1.925
63.6555	49.325
68.04907	56.225
72.43941	55.725
76.82654	55.025
81.21044	62.125
85.59113	62.025
89.96862	62.725
94.34289	66.225
98.71396	66.425
103.08183	71.725
107.4465	71.625
111.80798	74.825
116.16626	77.925
120.52136	75.725
124.87327	81.825
129.222	87.325
133.56755	92.125
137.90993	103.525
142.24913	108.025
146.58517	117.825
150.91804	139.525
155.24774	167.725
159.57429	203.725
163.89768	264.825
168.21792	348.425
172.53501	472.125
176.84895	656.025
181.15975	923.925
185.46741	1287.425
189.77193	1768.425
194.07331	2369.025
198.37157	3038.525
202.6667	3756.525
206.9587	4464.325
211.24758	5185.425
215.53334	5888.025
219.81599	6676.325
224.09553	7549.325
228.37195	8474.825
232.64527	9498.325
236.91549	10578.925
241.18261	11592.525
245.44663	12517.125
249.70755	13302.925
253.96539	13917.925
258.22014	14462.425
262.4718	14898.925
266.72039	15197.525
270.96589	15302.925
275.20832	15236.025
279.44768	15058.725
283.68397	14843.425
287.91719	14732.825
292.14735	14651.425
296.37445	14679.525
300.59849	14767.425
304.81948	14956.725
309.03742	15116.325
313.25231	15177.025
317.46415	15034.025
321.67296	14731.325
325.87872	14427.025
330.08145	14211.525
334.28114	14093.425
338.47781	14153.025
342.67145	14282.325
346.86207	14530.925
351.04966	14844.525
355.23424	15129.625
359.4158	15393.425
363.59435	15515.825
367.76989	15580.025
371.94243	15575.325
376.11196	15565.025
380.27849	15629.925
384.44203	15739.725
388.60257	15900.425
392.76012	16073.625
396.91468	16283.325
401.06626	16533.025
405.21485	16729.425
409.36047	16631.925
413.50311	16384.325
417.64277	16305.225
421.77947	16404.525
425.9132	16504.625
430.04396	16655.225
434.17176	16744.625
438.2966	16858.425
442.41849	17229.325
446.53742	18015.625
450.6534	18845.325
454.76644	19230.525
458.87653	19023.625
462.98368	18565.225
467.08789	18039.225
471.18916	17499.525
475.2875	16968.425
479.38291	16602.925
483.4754	16408.825
487.56496	16254.625
491.6516	16042.325
495.73531	15863.125
499.81612	15797.825
503.89401	15920.225
507.96899	15945.825
512.04106	15843.925
516.11023	15626.925
520.1765	15385.625
524.23987	15291.425
528.30034	15318.825
532.35792	15235.625
536.41261	14983.525
540.46441	14595.525
544.51333	14429.525
548.55936	14583.125
552.60252	15021.825
556.64279	15707.025
560.6802	16276.725
564.71473	16406.225
568.7464	16525.125
572.7752	17028.725
576.80114	17691.725
580.82422	18493.425
584.84444	19769.025
588.86181	21660.625
592.87633	23745.525
596.888	24193.325
600.89682	22189.825
604.9028	20477.925
608.90594	21200.125
612.90624	22812.525
616.90371	21289.125
620.89834	17120.225
624.89015	15111.925
628.87913	14862.125
632.86528	14984.825
636.84862	14925.825
640.82913	14554.725
644.80683	14124.725
648.78172	13830.125
652.75379	13833.525
656.72306	13993.225
660.68952	14239.025
664.65319	14077.125
668.61405	13710.125
672.57211	13641.925
676.52738	13789.325
680.47986	13834.825
684.42955	13663.325
688.37646	13510.325
692.32058	13537.325
696.26192	13786.725
700.20048	14113.725
704.13626	14267.425
708.06928	14265.325
711.99952	14202.225
715.927	14210.225
719.85171	14319.325
723.77365	14261.425
727.69284	13992.725
731.60928	13731.825
735.52295	13700.425
739.43388	13750.725
743.34206	13842.425
747.24749	13944.125
751.15017	14123.325
755.05012	14414.425
758.94733	14977.025
762.8418	15982.125
766.73354	17570.025
770.62254	19059.325
774.50882	19289.625
778.39237	18186.425
782.27321	16618.725
786.15132	15240.025
790.02671	14412.825
793.89938	13971.525
797.76935	13771.125
801.6366	13739.125
805.50115	13722.625
809.36299	13544.525
813.22213	13371.125
817.07857	13227.225
820.93231	13084.125
824.78336	12963.125
828.63172	12894.725
832.47738	12854.225
836.32036	12882.725
840.16066	12930.825
843.99827	12979.925
847.8332	12921.425
851.66546	12852.925
855.49504	12833.525
859.32195	12842.825
863.1462	12804.325
866.96777	12704.325
870.78668	12680.825
874.60293	12684.125
878.41652	12711.525
882.22745	12777.025
886.03573	12864.525
889.84136	12856.325
893.64433	12789.725
897.44466	12738.125
901.24235	12680.725
905.0374	12573.125
908.8298	12495.925
912.61957	12458.525
916.40671	12584.225
920.19121	12804.725
923.97308	13104.625
927.75233	13259.825
931.52895	13168.725
935.30295	12840.125
939.07433	12453.725
942.84309	12169.425
946.60924	12031.025
950.37278	11986.425
954.13371	11960.125
957.89203	11931.825
961.64774	11935.925
965.40086	11949.525
969.15137	11885.925
972.89929	11816.225
976.64461	11737.125
980.38733	11723.125
984.12747	11753.525
987.86502	11811.925
991.59999	11980.825
995.33237	12221.825
999.06217	12664.625
1002.78939	13218.825
1006.51404	13672.125
1010.23611	13985.625
1013.95561	14294.825
1017.67255	14443.525
1021.38692	14273.625
1025.09872	13759.025
1028.80796	13485.525
1032.51465	13599.525
1036.21877	13885.425
1039.92035	14022.625
1043.61937	14008.325
1047.31584	13767.825
1051.00976	13475.025
1054.70114	13279.125
1058.38998	13232.925
1062.07627	13248.025
1065.76003	13315.425
1069.44126	13510.825
1073.11995	13850.925
1076.79611	14111.125
1080.46974	14276.425
1084.14085	14510.125
1087.80943	14721.425
1091.47549	14961.525
1095.13903	14954.525
1098.80005	14601.525
1102.45857	14073.725
1106.11456	13682.025
1109.76805	13550.225
1113.41903	13620.725
1117.06751	13783.925
1120.71348	14041.325
1124.35696	14314.225
1127.99793	14621.525
1131.63641	14747.825
1135.2724	14682.025
1138.90589	14570.825
1142.5369	14596.225
1146.16542	14727.025
1149.79145	14885.225
1153.415	15061.325
1157.03607	15353.525
1160.65467	16007.625
1164.27079	17143.325
1167.88443	18591.925
1171.49561	20281.525
1175.10432	22368.925
1178.71056	25075.725
1182.31434	27508.225
1185.91565	28351.625
1189.51451	27503.725
1193.11091	25873.225
1196.70485	24270.025
1200.29634	22812.825
1203.88538	21652.925
1207.47197	20971.425
1211.05612	20481.825
1214.63782	19959.725
1218.21708	19543.125
1221.79391	19357.325
1225.36829	19434.825
1228.94024	19457.725
1232.50976	18988.925
1236.07685	18224.525
1239.6415	17667.525
1243.20374	17446.725
1246.76355	17458.925
1250.32093	17734.125
1253.8759	18268.525
1257.42845	18995.525
1260.97859	19819.525
1264.52631	20654.025
1268.07163	21496.325
1271.61453	22260.925
1275.15503	23079.725
1278.69312	24056.025
1282.22882	25053.625
1285.76211	26448.025
1289.29301	28027.525
1292.82151	29851.125
1296.34761	31911.725
1299.87133	34420.925
1303.39266	37187.825
1306.9116	39906.925
1310.42815	42302.725
1313.94233	43903.925
1317.45412	43554.225
1320.96354	41653.325
1324.47058	39482.525
1327.97525	37789.225
1331.47754	36569.625
1334.97747	35714.225
1338.47502	34749.225
1341.97022	33619.025
1345.46305	32677.425
1348.95352	32414.425
1352.44163	33317.025
1355.92738	35571.325
1359.41078	38767.325
1362.89183	41359.925
1366.37053	41457.825
1369.84688	37961.925
1373.32088	32290.825
1376.79254	28124.525
1380.26186	26563.825
1383.72883	26295.025
1387.19347	26033.925
1390.65578	25429.025
1394.11575	25333.125
1397.57339	25885.625
1401.0287	26781.525
1404.48168	27412.425
1407.93234	27388.625
1411.38068	26812.325
1414.82669	25853.325
1418.27039	24738.525
1421.71177	23502.325
1425.15083	22369.325
1428.58758	21851.025
1432.02203	22168.225
1435.45416	23045.025
1438.88399	23907.725
1442.31151	24440.425
1445.73673	24701.825
1449.15965	24845.125
1452.58027	24662.625
1455.9986	24307.025
1459.41463	24130.525
1462.82837	24534.825
1466.23982	25297.925
1469.64898	26108.025
1473.05586	26633.225
1476.46045	26854.425
1479.86276	26883.225
1483.26279	26682.625
1486.66054	26600.625
1490.05602	26882.225
1493.44922	27261.625
1496.84016	27512.825
1500.22882	27784.525
1503.61521	28290.925
1506.99934	29112.625
1510.38121	29793.325
1513.76081	29911.325
1517.13816	29158.925
1520.51324	27899.425
1523.88607	26868.925
1527.25665	26531.125
1530.62498	26565.025
1533.99105	26476.525
1537.35488	26071.425
1540.71647	25362.225
1544.07581	24403.625
1547.4329	23373.425
1550.78776	22445.325
1554.14038	21754.825
1557.49077	21297.225
1560.83892	21072.125
1564.18484	21147.325
1567.52853	21313.225
1570.86999	21614.925
1574.20922	22122.125
1577.54624	22566.625
1580.88103	22576.025
1584.2136	22686.725
1587.54395	23539.025
1590.87208	25360.225
1594.19801	27927.225
1597.52172	30575.625
1600.84321	31842.825
1604.16251	30563.025
1607.47959	27238.025
1610.79447	23486.425
1614.10715	20274.725
1617.41763	17994.425
1620.7259	16646.325
1624.03199	16078.725
1627.33587	16112.225
1630.63757	16802.825
1633.93707	18366.025
1637.23439	21125.225
1640.52951	25492.125
1643.82246	31163.725
1647.11321	36042.925
1650.40179	37126.425
1653.68819	33508.925
1656.97241	27379.125
1660.25446	21656.725
1663.53433	17692.525
1666.81203	15314.825
1670.08756	13884.325
1673.36092	13048.825
1676.63211	12532.225
1679.90115	12129.825
1683.16801	11852.625
1686.43272	11643.225
1689.69527	11502.325
1692.95567	11386.425
1696.2139	11315.925
1699.46999	11275.225
1702.72392	11218.825
1705.97571	11170.025
1709.22535	11109.225
1712.47284	11053.525
1715.71819	11030.225
1718.96139	10992.125
1722.20246	10936.725
1725.44139	10843.525
1728.67818	10765.425
1731.91284	10683.825
1735.14537	10613.425
1738.37576	10557.525
1741.60403	10495.625
1744.83017	10480.025
1748.05418	10443.025
1751.27607	10430.725
1754.49584	10474.025
1757.71349	10460.325
1760.92903	10456.725
1764.14244	10417.125
1767.35375	10377.225
1770.56294	10329.125
1773.77002	10292.525
1776.97499	10230.625
1780.17785	10185.825
1783.37861	10164.225
1786.57727	10111.125
1789.77382	10074.625
1792.96828	10065.325
1796.16064	10034.525
1799.3509	10004.025
1802.53907	9976.125
1805.72514	9914.725
1808.90913	9925.125
1812.09102	9878.625
1815.27083	9846.525
1818.44856	9867.425
1821.6242	9847.225
1824.79776	9839.425
1827.96924	9836.825
1831.13864	9813.225
1834.30597	9808.025
1837.47122	9838.925
1840.6344	9822.725
1843.7955	9837.125
1846.95454	9825.425
1850.11151	9832.825
1853.26642	9832.525
1856.41926	9804.925
1859.57004	9828.625
1862.71876	9772.125
1865.86542	9789.725
1869.01003	9769.925
1872.15258	9773.625
1875.29308	9754.425
1878.43152	9736.725
1881.56792	9734.325
1884.70227	9717.325
1887.83457	9711.225
1890.96482	9695.425
1894.09304	9678.425
1897.21921	9679.625
1900.34335	9680.325
1903.46544	9671.725
1906.58551	9631.925
1909.70353	9628.325
1912.81953	9615.325
1915.93349	9569.525
1919.04543	9535.725
1922.15534	9508.425
1925.26322	9477.425
1928.36908	9465.325
1931.47292	9428.325
1934.57473	9379.925
1937.67453	9351.925
1940.77232	9323.625
1943.86808	9328.525
1946.96184	9279.425
1950.05358	9256.525
1953.14331	9219.125
1956.23103	9207.225
1959.31675	9192.525
1962.40046	9157.425
1965.48217	9115.725
1968.56188	9088.825
1971.63959	9055.625
1974.7153	9039.525
1977.78901	8992.025
1980.86073	8966.225
1983.93046	8945.025
1986.99819	8913.125
1990.06394	8876.325
1993.1277	8857.925
1996.18947	8824.925
1999.24925	8814.225
2002.30706	8778.425
2005.36288	8751.425
2008.41672	8722.525
2011.46859	8703.825
2014.51848	8685.125
2017.56639	8655.625
2020.61233	8627.825
2023.6563	8617.225
2026.6983	8602.925
2029.73833	8593.525
2032.7764	8569.625
2035.8125	8574.225
2038.84664	8551.225
2041.87881	8541.825
2044.90903	8526.325
2047.93729	8511.225
2050.96359	8503.325
2053.98794	8509.325
2057.01034	8487.425
2060.03078	8455.025
2063.04927	8464.425
2066.06582	8449.225
2069.08042	8453.525
2072.09307	8434.325
2075.10378	8422.125
2078.11255	8432.725
2081.11938	8424.725
2084.12426	8415.725
2087.12722	8426.625
2090.12824	8414.225
2093.12732	8418.125
2096.12447	8412.625
2099.11969	8402.525
2102.11299	8414.425
2105.10435	8401.225
2108.09379	8420.025
2111.08131	8420.425
2114.0669	8447.725
2117.05057	8421.025
2120.03233	8422.825
2123.01216	8407.125
2125.99008	8417.925
2128.96609	8438.925
2131.94018	8428.125
2134.91236	8419.825
2137.88263	8443.625
2140.851	8441.025
2143.81746	8418.825
2146.78201	8435.225
2149.74466	8426.325
2152.7054	8422.125
2155.66425	8402.325
2158.6212	8401.125
2161.57625	8383.725
2164.52941	8427.925
2167.48067	8397.025
2170.43004	8411.025
2173.37752	8388.825
2176.32311	8413.325
2179.26681	8398.225
2182.20863	8398.025
2185.14856	8400.725
2188.08661	8395.325
2191.02278	8415.925
2193.95707	8400.725
2196.88948	8390.925
2199.82001	8397.725
2202.74867	8380.725
2205.67545	8383.325
2208.60037	8359.225
2211.52341	8355.425
2214.44458	8321.825
2217.36388	8298.425
2220.28132	8291.425
2223.1969	8302.225
2226.11061	8290.325
2229.02246	8292.425
2231.93245	8277.225
2234.84058	8258.125
2237.74686	8268.225
2240.65128	8249.425
2243.55385	8222.625
2246.45456	8227.825
2249.35343	8202.125
2252.25044	8190.825
2255.14561	8174.825
2258.03893	8160.625
2260.93041	8149.325
2263.82004	8116.125
2266.70783	8097.325
2269.59378	8075.925
2272.4779	8035.925
2275.36017	8029.925
2278.24061	8005.925
2281.11922	7979.825
2283.996	7984.725
2286.87094	7974.425
2289.74405	7975.125
2292.61534	7951.825
2295.4848	7959.925
2298.35243	7956.025
2301.21824	7953.225
2304.08223	7947.725
2306.94439	7931.025
2309.80474	7981.425
2312.66327	7943.225
2315.51999	7953.225
2318.37489	7928.825
2321.22797	7960.125
2324.07925	7928.825
2326.92871	7923.325
2329.77637	7931.025
2332.62222	7911.525
2335.46626	7910.925
2338.3085	7907.925
2341.14893	7911.425
2343.98756	7929.025
2346.8244	7927.025
2349.65943	7924.625
2352.49267	7910.525
2355.32411	7904.825
2358.15376	7923.825
2360.98161	7935.625
2363.80768	7912.325
2366.63195	7898.125
2369.45444	7895.525
2372.27514	7887.925
2375.09405	7884.125
2377.91118	7856.725
2380.72652	7835.925
2383.54009	7817.325
2386.35187	7803.025
2389.16188	7768.725
2391.97011	7744.025
2394.77657	7753.225
2397.58125	7753.225
2400.38416	7738.325
2403.18529	7702.125
2405.98466	7714.925
2408.78226	7687.425
2411.57809	7671.725
2414.37216	7674.225
2417.16446	7672.725
2419.955	7663.625
2422.74378	7691.325
2425.5308	7628.525
2428.31606	7662.025
2431.09956	7647.725
2433.88131	7636.725
2436.6613	7656.525
2439.43954	7620.925
2442.21603	7633.925
2444.99077	7632.925
2447.76377	7653.225
2450.53501	7641.825
2453.30451	7656.025
2456.07226	7652.625
2458.83827	7663.125
2461.60254	7658.825
2464.36507	7663.125
2467.12586	7649.425
2469.88492	7653.425
2472.64224	7677.825
2475.39782	7653.625
2478.15167	7685.825
2480.90379	7669.025
2483.65417	7701.525
2486.40283	7696.625
2489.14976	7673.525
2491.89497	7668.925
2494.63845	7717.625
2497.3802	7698.925
2500.12024	7682.425
2502.85855	7676.725
2505.59514	7697.925
2508.33002	7650.425
2511.06318	7653.725
2513.79462	7623.925
2516.52435	7625.725
2519.25237	7617.925
2521.97867	7618.625
2524.70327	7624.825
2527.42616	7605.825
2530.14734	7616.925
2532.86681	7605.425
2535.58458	7601.225
2538.30065	7571.825
2541.01501	7574.925
2543.72768	7582.625
2546.43864	7582.925
2549.14791	7571.825
2551.85548	7581.925
2554.56136	7587.925
2557.26554	7562.325
2559.96803	7578.725
2562.66883	7577.425
2565.36794	7588.425
2568.06536	7559.625
2570.7611	7566.925
2573.45514	7568.825
2576.14751	7569.425
2578.83819	7573.625
2581.52719	7566.425
2584.21451	7563.825
2586.90015	7547.725
2589.58411	7563.225
2592.2664	7535.225
2594.94701	7538.725
2597.62594	7560.225
2600.30321	7522.625
2602.9788	7528.025
2605.65273	7518.525
2608.32498	7546.825
2610.99557	7532.725
2613.66449	7556.625
2616.33175	7542.025
2618.99734	7543.225
2621.66128	7528.125
2624.32355	7530.925
2626.98416	7534.325
2629.64311	7527.825
2632.30041	7522.725
2634.95605	7532.225
2637.61004	7516.325
2640.26238	7498.225
2642.91306	7523.825
2645.56209	7510.825
2648.20948	7512.225
2650.85521	7509.425
2653.4993	7487.025
2656.14175	7511.425
2658.78255	7518.425
2661.42171	7526.425
2664.05923	7538.125
2666.6951	7539.625
2669.32934	7528.825
2671.96194	7556.725
2674.59291	7540.425
2677.22224	7543.425
2679.84993	7555.425
2682.476	7521.625
2685.10043	7534.125
2687.72324	7522.725
2690.34441	7525.025
2692.96396	7520.725
2695.58188	7522.325
2698.19818	7511.225
2700.81285	7505.625
2703.4259	7555.825
2706.03733	7608.925
2708.64714	7596.025
2711.25533	7565.025
2713.86191	7539.525
2716.46687	7576.025
2719.07021	7574.525
2721.67194	7585.825
2724.27206	7592.625
2726.87057	7620.425
2729.46747	7587.225
2732.06276	7602.025
2734.65644	7578.125
2737.24852	7607.025
2739.83899	7610.625
2742.42786	7605.925
2745.01513	7588.825
2747.60079	7599.125
2750.18486	7562.525
2752.76733	7566.125
2755.3482	7586.225
2757.92747	7569.825
2760.50515	7576.425
2763.08123	7593.925
2765.65573	7571.025
2768.22863	7590.125
2770.79994	7597.125
2773.36967	7591.525
2775.9378	7602.125
2778.50435	7599.525
2781.06932	7594.925
2783.6327	7609.225
2786.1945	7603.625
2788.75471	7579.025
2791.31335	7588.325
2793.87041	7572.525
2796.42589	7553.125
2798.97979	7560.925
2801.53212	7544.525
2804.08288	7541.325
2806.63206	7532.525
2809.17967	7511.525
2811.72571	7505.425
2814.27018	7505.525
2816.81308	7511.825
2819.35442	7497.625
2821.89419	7498.725
2824.43239	7491.025
2826.96904	7497.825
2829.50412	7499.625
2832.03763	7479.925
2834.56959	7500.525
2837.1	7471.725
2839.62884	7493.525
2842.15613	7479.525
2844.68186	7599.125
2847.20604	7521.425
2849.72867	7520.925
2852.24974	7528.225
2854.76927	7522.625
2857.28724	7532.025
2859.80367	7491.925
2862.31855	7492.925
2864.83189	7496.825
2867.34368	7498.825
2869.85393	7479.725
2872.36264	7466.125
2874.8698	7462.925
2877.37543	7491.725
2879.87952	7485.125
2882.38207	7478.825
2884.88308	7480.925
2887.38256	7465.925
2889.88051	7500.925
2892.37692	7488.525
2894.8718	7506.025
2897.36515	7521.825
2899.85698	7514.425
2902.34727	7532.125
2904.83604	7535.525
2907.32328	7562.525
2909.809	7568.525
2912.29319	7562.625
2914.77587	7557.625
2917.25702	7588.325
2919.73665	7543.725
2922.21476	7567.525
2924.69136	7570.525
2927.16644	7569.025
2929.64	7582.225
2932.11205	7560.725
2934.58258	7540.025
2937.05161	7545.825
2939.51912	7546.325
2941.98513	7537.625
2944.44962	7528.525
2946.91261	7511.125
2949.37409	7512.025
2951.83407	7504.825
2954.29254	7480.025
2956.74951	7454.925
2959.20498	7467.325
2961.65895	7456.625
2964.11142	7438.725
2966.56239	7405.625
2969.01186	7401.825
2971.45984	7371.625
2973.90632	7335.925
2976.35131	7321.825
2978.7948	7302.325
2981.23681	7301.425
2983.67732	7264.325
2986.11635	7226.425
2988.55388	7205.025
2990.98993	7192.625
2993.4245	7194.225
2995.85758	7186.325
2998.28917	7165.925
3000.71928	7171.025
3003.14791	7143.125
3005.57506	7154.025
3008.00073	7135.025
3010.42493	7132.625
3012.84764	7116.925
3015.26888	7133.025
3017.68865	7095.625
3020.10694	7058.225
3022.52376	7047.125
3024.9391	7047.025
3027.35298	7039.125
3029.76539	7023.525
3032.17632	7007.825
3034.5858	6983.925
3036.9938	6978.825
3039.40034	6985.925
3041.80542	7000.425
3044.20903	6968.925
3046.61118	6964.125
3049.01187	6956.525
3051.4111	6944.625
3053.80888	6918.625
3056.20519	6929.625
3058.60005	6904.025
3060.99345	6890.125
3063.3854	6896.025
3065.7759	6869.025
3068.16494	6839.125
3070.55254	6836.525
3072.93868	6804.325
3075.32338	6825.625
3077.70662	6803.925
3080.08842	6758.025
3082.46878	6755.225
3084.84769	6745.525
3087.22515	6741.325
3089.60118	6732.325
3091.97576	6745.325
3094.3489	6733.725
3096.72061	6742.325
3099.09087	6738.725
3101.4597	6730.925
3103.82709	6741.625
3106.19305	6697.625
3108.55757	6684.725
3110.92066	6678.225
3113.28232	6661.825
3115.64255	6636.725
3118.00134	6636.925
3120.35871	6613.025
3122.71466	6603.425
3125.06917	6618.125
3127.42226	6612.725
3129.77393	6613.525
3132.12417	6617.125
3134.47299	6614.925
3136.82039	6598.225
3139.16636	6595.825
3141.51092	6596.425
3143.85406	6612.425
3146.19579	6594.725
3148.53609	6605.425
3150.87499	6603.625
3153.21246	6589.125
3155.54853	6598.325
3157.88318	6589.825
3160.21642	6584.225
3162.54826	6579.325
3164.87868	6601.125
3167.2077	6595.425
3169.5353	6598.725
3171.86151	6581.325
3174.18631	6582.025
3176.5097	6577.225
3178.83169	6575.425
3181.15228	6592.625
3183.47147	6565.225
3185.78926	6560.325
