Data from AgNPs_FTO_APTES_UA_2um_CRN_0.1mM_R6G_10uM_NaF_0.1M_Addition_RamanShift__17__12-34-49-052.txt Node

Date: Tue Dec 21 12:34:49 GMT 2021
User: TCL
Spectrometer: QEP01345
Trigger mode: 4
Integration Time (sec): 7.000000E0
Scans to average: 10
Electric dark correction enabled: true
Nonlinearity correction enabled: false
Boxcar width: 0
XAxis mode: Raman Shifts
Number of Pixels in Spectrum: 1044
>>>>>Begin Spectral Data<<<<<
46.04893	-1.1
50.45542	-1.6
54.85868	-0.9
59.25871	-0.2
63.6555	44.9
68.04907	53.9
72.43941	53.7
76.82654	55
81.21044	62.8
85.59113	62.9
89.96862	65.3
94.34289	63.6
98.71396	67.2
103.08183	71
107.4465	73
111.80798	75.8
116.16626	78
120.52136	78.9
124.87327	80.6
129.222	81.6
133.56755	90.6
137.90993	97.7
142.24913	107.5
146.58517	117.8
150.91804	137.8
155.24774	164.8
159.57429	198.3
163.89768	259.8
168.21792	335.5
172.53501	457.4
176.84895	629.4
181.15975	893.2
185.46741	1244.6
189.77193	1716.5
194.07331	2298.9
198.37157	2962.2
202.6667	3666.4
206.9587	4365.8
211.24758	5081.7
215.53334	5783.9
219.81599	6527.7
224.09553	7330
228.37195	8255.1
232.64527	9248.1
236.91549	10283.9
241.18261	11284.2
245.44663	12238.4
249.70755	13072.1
253.96539	13798.7
258.22014	14390.7
262.4718	14907.3
266.72039	15203.1
270.96589	15373.1
275.20832	15345.4
279.44768	15267
283.68397	15117
287.91719	15039
292.14735	14995.5
296.37445	14982.1
300.59849	15024.5
304.81948	15059.3
309.03742	15059.4
313.25231	14913.2
317.46415	14607.8
321.67296	14189.6
325.87872	13815.7
330.08145	13595.1
334.28114	13533.9
338.47781	13625.7
342.67145	13747.4
346.86207	13962.3
351.04966	14227.2
355.23424	14517.3
359.4158	14742.3
363.59435	14884.1
367.76989	14994
371.94243	15041.8
376.11196	15097.1
380.27849	15159.7
384.44203	15247.7
388.60257	15378.1
392.76012	15558.1
396.91468	15788.2
401.06626	16044
405.21485	16213.4
409.36047	16156.9
413.50311	15905.8
417.64277	15746.7
421.77947	15780.7
425.9132	15868.9
430.04396	16057.9
434.17176	16141.5
438.2966	16291.6
442.41849	16611.3
446.53742	17180.9
450.6534	17853.7
454.76644	18319.7
458.87653	18400.5
462.98368	18140.2
467.08789	17787.5
471.18916	17450.7
475.2875	17172.7
479.38291	17099.2
483.4754	17063.7
487.56496	16860
491.6516	16579.7
495.73531	16265.6
499.81612	16117.1
503.89401	16142.5
507.96899	16178.7
512.04106	16060.6
516.11023	15823.7
520.1765	15528.3
524.23987	15321.9
528.30034	15215.9
532.35792	15139.5
536.41261	14947.5
540.46441	14723.5
544.51333	14670.6
548.55936	14820.4
552.60252	15198.3
556.64279	15717.8
560.6802	16104.8
564.71473	16330.1
568.7464	16611.6
572.7752	17174.6
576.80114	17725.9
580.82422	18227.4
584.84444	18732.5
588.86181	19325.6
592.87633	20025.5
596.888	20245.2
600.89682	19760.4
604.9028	19592.3
608.90594	20661.5
612.90624	21776.5
616.90371	20110
620.89834	16597.3
624.89015	14975.4
628.87913	14838.2
632.86528	15024.5
636.84862	15112.6
640.82913	14915.1
644.80683	14492.3
648.78172	14107.3
652.75379	13975
656.72306	14066.7
660.68952	14254.1
664.65319	14178
668.61405	13967.7
672.57211	13944.5
676.52738	14027.2
680.47986	14038.2
684.42955	13976.3
688.37646	13797.4
692.32058	13715.1
696.26192	13833.4
700.20048	14001.3
704.13626	14154.9
708.06928	14207.9
711.99952	14094
715.927	14038.2
719.85171	14067.6
723.77365	14050.9
727.69284	13909.6
731.60928	13740.2
735.52295	13731.4
739.43388	13774.1
743.34206	13777.5
747.24749	13855.8
751.15017	13989.8
755.05012	14237.1
758.94733	14732.8
762.8418	15654.8
766.73354	17053
770.62254	18382.2
774.50882	18592.2
778.39237	17518.6
782.27321	16036.3
786.15132	14779.5
790.02671	13982.5
793.89938	13588.5
797.76935	13460
801.6366	13438.9
805.50115	13423.6
809.36299	13310.4
813.22213	13144.4
817.07857	13053.9
820.93231	12948.3
824.78336	12844.8
828.63172	12779.1
832.47738	12741.6
836.32036	12696.4
840.16066	12705.6
843.99827	12698.2
847.8332	12644.1
851.66546	12619.9
855.49504	12626.6
859.32195	12615.4
863.1462	12617.1
866.96777	12597.5
870.78668	12570.9
874.60293	12525.2
878.41652	12566.4
882.22745	12588
886.03573	12646.5
889.84136	12652.7
893.64433	12637.3
897.44466	12559
901.24235	12472.7
905.0374	12351.8
908.8298	12264.9
912.61957	12240.7
916.40671	12326.4
920.19121	12557.7
923.97308	12779.8
927.75233	12837.2
931.52895	12700.1
935.30295	12460.7
939.07433	12158
942.84309	11912.4
946.60924	11788.2
950.37278	11744.4
954.13371	11744.6
957.89203	11719.4
961.64774	11699.6
965.40086	11649.9
969.15137	11594.9
972.89929	11529.4
976.64461	11431.1
980.38733	11375.8
984.12747	11407
987.86502	11458.4
991.59999	11583.4
995.33237	11775
999.06217	12158.4
1002.78939	12559.3
1006.51404	12934.9
1010.23611	13237.6
1013.95561	13431.7
1017.67255	13491.2
1021.38692	13256.7
1025.09872	12908.2
1028.80796	12655
1032.51465	12708.8
1036.21877	12855.5
1039.92035	12922.5
1043.61937	12947.9
1047.31584	12819.6
1051.00976	12662.6
1054.70114	12641.6
1058.38998	12649.5
1062.07627	12740
1065.76003	12864.2
1069.44126	13030.8
1073.11995	13259.1
1076.79611	13446.4
1080.46974	13536.5
1084.14085	13614.2
1087.80943	13819.8
1091.47549	14024.9
1095.13903	14092
1098.80005	13911.1
1102.45857	13485.6
1106.11456	13137.9
1109.76805	12946.3
1113.41903	12993.7
1117.06751	13105.1
1120.71348	13307.5
1124.35696	13512.7
1127.99793	13760.5
1131.63641	13927
1135.2724	13934.4
1138.90589	13835.9
1142.5369	13841.4
1146.16542	13878.3
1149.79145	14001.3
1153.415	14200.9
1157.03607	14463.1
1160.65467	15020.5
1164.27079	15907.2
1167.88443	17080.6
1171.49561	18490.4
1175.10432	20253.3
1178.71056	22358.1
1182.31434	24359.9
1185.91565	25210.8
1189.51451	24947
1193.11091	24043.4
1196.70485	22852.2
1200.29634	21588
1203.88538	20537.2
1207.47197	19821.9
1211.05612	19340.2
1214.63782	18841.4
1218.21708	18470.7
1221.79391	18301.1
1225.36829	18285.2
1228.94024	18047.8
1232.50976	17557.9
1236.07685	17041.6
1239.6415	16701.7
1243.20374	16539.2
1246.76355	16537
1250.32093	16745.2
1253.8759	17140.8
1257.42845	17757
1260.97859	18386
1264.52631	19029.1
1268.07163	19680.5
1271.61453	20379.9
1275.15503	21126.5
1278.69312	21884.6
1282.22882	22713.3
1285.76211	23590.4
1289.29301	24632.4
1292.82151	25923.3
1296.34761	27464.7
1299.87133	29357.6
1303.39266	31326.8
1306.9116	33398.4
1310.42815	35394.6
1313.94233	36876.7
1317.45412	37401.4
1320.96354	36921.3
1324.47058	36220.2
1327.97525	35556.8
1331.47754	34898.9
1334.97747	34414.1
1338.47502	33987.3
1341.97022	33363.4
1345.46305	32560.7
1348.95352	31763.4
1352.44163	31417.2
1355.92738	31868
1359.41078	33054.2
1362.89183	34202.1
1366.37053	34021.3
1369.84688	31688.9
1373.32088	28046.1
1376.79254	25253.1
1380.26186	24037.6
1383.72883	23862
1387.19347	23880.9
1390.65578	23711
1394.11575	23845.7
1397.57339	24476.4
1401.0287	25445.6
1404.48168	26286.7
1407.93234	26632.4
1411.38068	26225.7
1414.82669	25174.7
1418.27039	23784
1421.71177	22327
1425.15083	21050.6
1428.58758	20283.5
1432.02203	20225.7
1435.45416	20805.6
1438.88399	21544.4
1442.31151	22355.3
1445.73673	22992.7
1449.15965	23590.8
1452.58027	23910.7
1455.9986	23980.5
1459.41463	24112.5
1462.82837	24506.6
1466.23982	25165
1469.64898	25819.2
1473.05586	26198.3
1476.46045	26177.8
1479.86276	25948.7
1483.26279	25539.2
1486.66054	25168.6
1490.05602	25111.4
1493.44922	25108.6
1496.84016	25100.3
1500.22882	25062
1503.61521	25404.8
1506.99934	26060.2
1510.38121	26595.9
1513.76081	26630.4
1517.13816	26029.8
1520.51324	24969.5
1523.88607	24069.2
1527.25665	23632.2
1530.62498	23577.7
1533.99105	23599.6
1537.35488	23522.9
1540.71647	23163.3
1544.07581	22576.9
1547.4329	21878.1
1550.78776	21298.7
1554.14038	20805.4
1557.49077	20539.5
1560.83892	20428.6
1564.18484	20427.4
1567.52853	20472.8
1570.86999	20643.9
1574.20922	20934.4
1577.54624	21279.5
1580.88103	21316.9
1584.2136	21503.7
1587.54395	22175.1
1590.87208	23500
1594.19801	25388.6
1597.52172	27492.6
1600.84321	28461.2
1604.16251	27528.2
1607.47959	25111.6
1610.79447	22272.1
1614.10715	19685.8
1617.41763	17534.5
1620.7259	16098.6
1624.03199	15349.4
1627.33587	15219.5
1630.63757	15693.5
1633.93707	17000.6
1637.23439	19247.6
1640.52951	22621
1643.82246	26821.9
1647.11321	30381.9
1650.40179	31335.2
1653.68819	28991.7
1656.97241	24480.2
1660.25446	20021.8
1663.53433	16651.3
1666.81203	14418.5
1670.08756	13077.2
1673.36092	12248
1676.63211	11706.1
1679.90115	11344
1683.16801	11049.2
1686.43272	10850.3
1689.69527	10706.9
1692.95567	10565.9
1696.2139	10502.9
1699.46999	10459.8
1702.72392	10408.1
1705.97571	10358.1
1709.22535	10279.2
1712.47284	10217.6
1715.71819	10191.9
1718.96139	10138.3
1722.20246	10064.1
1725.44139	9984
1728.67818	9932.4
1731.91284	9856.6
1735.14537	9766.2
1738.37576	9741.1
1741.60403	9704
1744.83017	9661.8
1748.05418	9667.4
1751.27607	9662.9
1754.49584	9685.5
1757.71349	9698.1
1760.92903	9651.3
1764.14244	9621.3
1767.35375	9580.2
1770.56294	9491.9
1773.77002	9458.8
1776.97499	9391.5
1780.17785	9378.8
1783.37861	9349.7
1786.57727	9276.7
1789.77382	9252.6
1792.96828	9226
1796.16064	9192.9
1799.3509	9149.8
1802.53907	9132.5
1805.72514	9122.4
1808.90913	9084.8
1812.09102	9076.9
1815.27083	9023.7
1818.44856	9002.5
1821.6242	8970.6
1824.79776	8993.3
1827.96924	8957.6
1831.13864	8953.5
1834.30597	8935
1837.47122	8937.2
1840.6344	8938.7
1843.7955	8947.6
1846.95454	8943
1850.11151	8919.2
1853.26642	8937
1856.41926	8926.8
1859.57004	8919.3
1862.71876	8905.3
1865.86542	8891.5
1869.01003	8895.5
1872.15258	8881
1875.29308	8881.8
1878.43152	8865.9
1881.56792	8862.8
1884.70227	8831.5
1887.83457	8844.5
1890.96482	8833.8
1894.09304	8811.8
1897.21921	8828.4
1900.34335	8813
1903.46544	8820
1906.58551	8771.8
1909.70353	8769
1912.81953	8740.3
1915.93349	8710.3
1919.04543	8697.3
1922.15534	8658.6
1925.26322	8632.9
1928.36908	8585.6
1931.47292	8582.7
1934.57473	8542.5
1937.67453	8493.4
1940.77232	8482.4
1943.86808	8463.2
1946.96184	8446.1
1950.05358	8391
1953.14331	8356.6
1956.23103	8303
1959.31675	8284.9
1962.40046	8277.6
1965.48217	8251.9
1968.56188	8233.6
1971.63959	8188.8
1974.7153	8176.2
1977.78901	8121.2
1980.86073	8097.2
1983.93046	8080.9
1986.99819	8054
1990.06394	8018.5
1993.1277	7998.5
1996.18947	7954
1999.24925	7932.1
2002.30706	7905.2
2005.36288	7885.6
2008.41672	7864.9
2011.46859	7830.3
2014.51848	7826.6
2017.56639	7797.2
2020.61233	7767.5
2023.6563	7764.5
2026.6983	7721.3
2029.73833	7711.1
2032.7764	7716.4
2035.8125	7691.4
2038.84664	7672
2041.87881	7657.9
2044.90903	7649.1
2047.93729	7643.1
2050.96359	7639.3
2053.98794	7622.5
2057.01034	7610.3
2060.03078	7604.5
2063.04927	7559.4
2066.06582	7582.6
2069.08042	7564.7
2072.09307	7556
2075.10378	7541.7
2078.11255	7527.6
2081.11938	7548.6
2084.12426	7546.6
2087.12722	7542.3
2090.12824	7501.6
2093.12732	7514.4
2096.12447	7489.4
2099.11969	7486.1
2102.11299	7498.7
2105.10435	7511.2
2108.09379	7507.3
2111.08131	7482.5
2114.0669	7472.5
2117.05057	7500.1
2120.03233	7497.9
2123.01216	7484.7
2125.99008	7484.1
2128.96609	7497.5
2131.94018	7501.6
2134.91236	7491
2137.88263	7476.5
2140.851	7493.3
2143.81746	7501.8
2146.78201	7468.3
2149.74466	7468.1
2152.7054	7479.4
2155.66425	7474.4
2158.6212	7468.7
2161.57625	7471.7
2164.52941	7447.6
2167.48067	7454.5
2170.43004	7448.5
2173.37752	7448.3
2176.32311	7438.1
2179.26681	7444.8
2182.20863	7413.1
2185.14856	7431.2
2188.08661	7424.5
2191.02278	7426.3
2193.95707	7417.3
2196.88948	7411.1
2199.82001	7398.1
2202.74867	7393
2205.67545	7373.9
2208.60037	7372.6
2211.52341	7359.5
2214.44458	7345.2
2217.36388	7304.2
2220.28132	7308.4
2223.1969	7282.8
2226.11061	7302.3
2229.02246	7265.1
2231.93245	7268.4
2234.84058	7249.5
2237.74686	7250.7
2240.65128	7221.8
2243.55385	7204.2
2246.45456	7174
2249.35343	7180.1
2252.25044	7179.6
2255.14561	7134
2258.03893	7124.4
2260.93041	7128.1
2263.82004	7108
2266.70783	7057
2269.59378	7044.5
2272.4779	7039.7
2275.36017	6999.1
2278.24061	6977.7
2281.11922	6963.9
2283.996	6958.1
2286.87094	6973.2
2289.74405	6944.5
2292.61534	6939.4
2295.4848	6928
2298.35243	6925
2301.21824	6905.9
2304.08223	6911.5
2306.94439	6907
2309.80474	6883.8
2312.66327	6890.5
2315.51999	6871.2
2318.37489	6879.2
2321.22797	6876
2324.07925	6870.4
2326.92871	6866.8
2329.77637	6840.7
2332.62222	6849.1
2335.46626	6835.5
2338.3085	6834
2341.14893	6840.5
2343.98756	6856.4
2346.8244	6858.6
2349.65943	6859
2352.49267	6847.7
2355.32411	6842
2358.15376	6837.8
2360.98161	6834.4
2363.80768	6822.7
2366.63195	6819.2
2369.45444	6811.3
2372.27514	6794.9
2375.09405	6784.7
2377.91118	6774.9
2380.72652	6747.7
2383.54009	6716.2
2386.35187	6711.1
2389.16188	6675.9
2391.97011	6664.7
2394.77657	6677.9
2397.58125	6664.6
2400.38416	6647.5
2403.18529	6628.7
2405.98466	6635.2
2408.78226	6608.8
2411.57809	6580.5
2414.37216	6578.9
2417.16446	6596.6
2419.955	6574.5
2422.74378	6567.9
2425.5308	6558.7
2428.31606	6536.8
2431.09956	6548.1
2433.88131	6545.2
2436.6613	6544
2439.43954	6530.2
2442.21603	6516.8
2444.99077	6509.4
2447.76377	6524.4
2450.53501	6543.1
2453.30451	6537.5
2456.07226	6513.9
2458.83827	6530.9
2461.60254	6516.1
2464.36507	6513.8
2467.12586	6509.8
2469.88492	6522.9
2472.64224	6522.5
2475.39782	6539.7
2478.15167	6542.6
2480.90379	6535.8
2483.65417	6535.6
2486.40283	6529
2489.14976	6531.5
2491.89497	6538.5
2494.63845	6546.1
2497.3802	6555.9
2500.12024	6531.8
2502.85855	6528.3
2505.59514	6511.2
2508.33002	6520.4
2511.06318	6508
2513.79462	6495.1
2516.52435	6489.7
2519.25237	6471
2521.97867	6461.9
2524.70327	6472.3
2527.42616	6463.7
2530.14734	6470.9
2532.86681	6454.5
2535.58458	6451.6
2538.30065	6431.8
2541.01501	6448.4
2543.72768	6443.4
2546.43864	6409
2549.14791	6418.7
2551.85548	6407.6
2554.56136	6403
2557.26554	6411.7
2559.96803	6399.5
2562.66883	6389.8
2565.36794	6377.8
2568.06536	6371.7
2570.7611	6362.6
2573.45514	6379.5
2576.14751	6364.1
2578.83819	6357.3
2581.52719	6378.6
2584.21451	6367.3
2586.90015	6370.1
2589.58411	6340.8
2592.2664	6352.8
2594.94701	6342.3
2597.62594	6345
2600.30321	6333.6
2602.9788	6337.8
2605.65273	6321.8
2608.32498	6340
2610.99557	6317.5
2613.66449	6344.6
2616.33175	6331.3
2618.99734	6340.4
2621.66128	6335.2
2624.32355	6336.7
2626.98416	6336.6
2629.64311	6335.7
2632.30041	6325.3
2634.95605	6339.8
2637.61004	6319.6
2640.26238	6329.2
2642.91306	6307.1
2645.56209	6320.6
2648.20948	6343.2
2650.85521	6326.6
2653.4993	6310.8
2656.14175	6316.2
2658.78255	6319.6
2661.42171	6313.5
2664.05923	6349.4
2666.6951	6319.4
2669.32934	6344.5
2671.96194	6330.2
2674.59291	6342.2
2677.22224	6334.6
2679.84993	6331.2
2682.476	6309
2685.10043	6314.3
2687.72324	6291.6
2690.34441	6302.5
2692.96396	6297
2695.58188	6297.2
2698.19818	6291.8
2700.81285	6310.3
2703.4259	6325.1
2706.03733	6394.1
2708.64714	6349.7
2711.25533	6336.1
2713.86191	6329.2
2716.46687	6326.9
2719.07021	6315.4
2721.67194	6326.3
2724.27206	6337.5
2726.87057	6343.5
2729.46747	6313.8
2732.06276	6348.2
2734.65644	6336.7
2737.24852	6332.4
2739.83899	6335.3
2742.42786	6339.3
2745.01513	6320.5
2747.60079	6323.1
2750.18486	6324.8
2752.76733	6318.5
2755.3482	6304.1
2757.92747	6350.7
2760.50515	6323.7
2763.08123	6313.6
2765.65573	6309.1
2768.22863	6316.8
2770.79994	6322.2
2773.36967	6350.7
2775.9378	6336.9
2778.50435	6335.4
2781.06932	6324.9
2783.6327	6325.2
2786.1945	6351.3
2788.75471	6333.8
2791.31335	6313.6
2793.87041	6311.4
2796.42589	6294.8
2798.97979	6288.8
2801.53212	6279.2
2804.08288	6279.5
2806.63206	6278.8
2809.17967	6267
2811.72571	6249
2814.27018	6262.2
2816.81308	6229.5
2819.35442	6223.7
2821.89419	6231.5
2824.43239	6222.9
2826.96904	6231
2829.50412	6235.6
2832.03763	6193.3
2834.56959	6183.9
2837.1	6177.5
2839.62884	6180.4
2842.15613	6164.2
2844.68186	6200.1
2847.20604	6202.3
2849.72867	6203
2852.24974	6198.9
2854.76927	6199.4
2857.28724	6194.8
2859.80367	6190.4
2862.31855	6176.3
2864.83189	6167.8
2867.34368	6159.6
2869.85393	6135.4
2872.36264	6146.5
2874.8698	6157.6
2877.37543	6137.5
2879.87952	6141.3
2882.38207	6154.3
2884.88308	6157
2887.38256	6148.2
2889.88051	6173.1
2892.37692	6159.1
2894.8718	6163
2897.36515	6200.7
2899.85698	6172
2902.34727	6209.3
2904.83604	6221.9
2907.32328	6206.9
2909.809	6230.2
2912.29319	6232.8
2914.77587	6242.5
2917.25702	6220.6
2919.73665	6240.1
2922.21476	6235.5
2924.69136	6248.7
2927.16644	6244.4
2929.64	6238.6
2932.11205	6232.2
2934.58258	6201.8
2937.05161	6219.1
2939.51912	6235.2
2941.98513	6215.7
2944.44962	6197.6
2946.91261	6187.3
2949.37409	6188.3
2951.83407	6167.7
2954.29254	6165.1
2956.74951	6144.9
2959.20498	6127.3
2961.65895	6114.6
2964.11142	6101.6
2966.56239	6056.4
2969.01186	6058.7
2971.45984	6037.1
2973.90632	6014.2
2976.35131	5998.3
2978.7948	5970.2
2981.23681	5968.2
2983.67732	5963.6
2986.11635	5931.8
2988.55388	5894.9
2990.98993	5888.3
2993.4245	5873.6
2995.85758	5861.7
2998.28917	5851.2
3000.71928	5856.6
3003.14791	5850.5
3005.57506	5817.6
3008.00073	5807.8
3010.42493	5796.8
3012.84764	5788.8
3015.26888	5783.1
3017.68865	5758.9
3020.10694	5734.2
3022.52376	5730.3
3024.9391	5723.3
3027.35298	5714.2
3029.76539	5714.2
3032.17632	5692.2
3034.5858	5665.9
3036.9938	5662.6
3039.40034	5662.2
3041.80542	5676.1
3044.20903	5660
3046.61118	5652.8
3049.01187	5621.6
3051.4111	5629.5
3053.80888	5601.3
3056.20519	5599.8
3058.60005	5597
3060.99345	5576.6
3063.3854	5553.9
3065.7759	5552.8
3068.16494	5538.8
3070.55254	5532.2
3072.93868	5498.5
3075.32338	5492.7
3077.70662	5480.4
3080.08842	5474.1
3082.46878	5451.7
3084.84769	5432.1
3087.22515	5430.8
3089.60118	5431.2
3091.97576	5435.6
3094.3489	5427.3
3096.72061	5430.7
3099.09087	5432.5
3101.4597	5406.6
3103.82709	5414.7
3106.19305	5398.2
3108.55757	5396.1
3110.92066	5377.4
3113.28232	5364.6
3115.64255	5338.6
3118.00134	5337.6
3120.35871	5326.6
3122.71466	5330.2
3125.06917	5305.3
3127.42226	5319.2
3129.77393	5298.5
3132.12417	5305.8
3134.47299	5305.9
3136.82039	5289.8
3139.16636	5291.4
3141.51092	5276.4
3143.85406	5283
3146.19579	5293.9
3148.53609	5291.5
3150.87499	5278.1
3153.21246	5279.3
3155.54853	5301.5
3157.88318	5287.4
3160.21642	5291.3
3162.54826	5276.9
3164.87868	5276.5
3167.2077	5275.9
3169.5353	5274
3171.86151	5268.7
3174.18631	5269.7
3176.5097	5275.1
3178.83169	5258.7
3181.15228	5251.1
3183.47147	5257.8
3185.78926	5235.5
3188.10565	5258.4
3190.42065	5240.2
3192.73424	5230.1
3195.04645	5243.3
3197.35725	5248.3
3199.66667	5241.7
3201.97469	5245.8
3204.28132	5265.1
3206.58656	5254.6
3208.8904	5256
3211.19287	5245.9
3213.49394	5242.6
3215.79363	5223.9
3218.09193	5252.4
3220.38884	5248.2
3222.68438	5275.2
3224.97853	5244.8
3227.2713	5228.6
3229.56269	5234.6
3231.8527	5230.3
3234.14133	5232.5
3236.42858	5204.1
3238.71446	5217.8
3240.99896	5189
3243.28209	5207.3
3245.56384	5197.2
3247.84423	5197.5
3250.12324	5183.8
3252.40088	5185.5
3254.67715	5167.6
3256.95205	5156.5
3259.22558	5152.4
3261.49775	5132.7
3263.76855	5123.5
3266.03799	5108.3
3268.30606	5102.1
3270.57277	5088.5
3272.83812	5079.4
3275.10211	5077.8
3277.36474	5066.8
3279.62601	5078.3
3281.88593	5072.3
3284.14448	5080
3286.40168	5078.6
3288.65753	5065.1
3290.91202	5072.9
3293.16516	5059.9
3295.41695	5043.1
3297.66738	5010
3299.91647	4995
3302.16421	4948.3
3304.4106	4937.4
3306.65564	4910.4
3308.89933	4867.5
3311.14169	4846.6
3313.38269	4813.2
3315.62236	4783.5
3317.86068	4747.1
3320.09766	4688.2
3322.3333	4654
3324.5676	4662.8
3326.80056	4578.7
3329.03219	4550.3
3331.26248	2.6
3333.49143	0.4
3335.71905	1.2
