Data from AgNPs_FTO_APTES_UA_5um_CRN_0.1mM_R6G_10uM_NaF_0.1M_Addition_RamanShift__1__12-58-09-079.txt Node

Date: Tue Dec 21 12:58:09 GMT 2021
User: TCL
Spectrometer: QEP01345
Trigger mode: 4
Integration Time (sec): 7.000000E0
Scans to average: 10
Electric dark correction enabled: true
Nonlinearity correction enabled: false
Boxcar width: 0
XAxis mode: Raman Shifts
Number of Pixels in Spectrum: 1044
>>>>>Begin Spectral Data<<<<<
46.04893	0.825
50.45542	-1.775
54.85868	-1.875
59.25871	-0.475
63.6555	46.125
68.04907	50.625
72.43941	54.225
76.82654	56.125
81.21044	64.425
85.59113	59.825
89.96862	61.925
94.34289	63.825
98.71396	67.425
103.08183	72.025
107.4465	73.125
111.80798	75.725
116.16626	76.125
120.52136	76.025
124.87327	80.225
129.222	81.125
133.56755	90.225
137.90993	98.425
142.24913	105.825
146.58517	117.925
150.91804	135.025
155.24774	158.425
159.57429	198.825
163.89768	254.225
168.21792	331.825
172.53501	454.825
176.84895	628.025
181.15975	891.925
185.46741	1243.925
189.77193	1712.125
194.07331	2304.725
198.37157	2977.325
202.6667	3685.925
206.9587	4412.325
211.24758	5122.925
215.53334	5814.325
219.81599	6578.225
224.09553	7407.325
228.37195	8326.025
232.64527	9313.725
236.91549	10363.925
241.18261	11415.525
245.44663	12352.325
249.70755	13179.825
253.96539	13852.625
258.22014	14442.725
262.4718	14894.825
266.72039	15168.225
270.96589	15269.825
275.20832	15226.925
279.44768	15032.325
283.68397	14852.325
287.91719	14719.425
292.14735	14594.825
296.37445	14601.125
300.59849	14676.425
304.81948	14796.525
309.03742	14899.425
313.25231	14857.125
317.46415	14603.125
321.67296	14193.425
325.87872	13891.525
330.08145	13675.525
334.28114	13658.225
338.47781	13665.125
342.67145	13804.925
346.86207	14048.325
351.04966	14311.525
355.23424	14605.025
359.4158	14838.225
363.59435	15000.825
367.76989	15114.325
371.94243	15148.825
376.11196	15220.625
380.27849	15284.825
384.44203	15358.725
388.60257	15545.425
392.76012	15704.325
396.91468	15980.625
401.06626	16257.825
405.21485	16502.725
409.36047	16426.225
413.50311	16194.125
417.64277	15999.425
421.77947	15930.225
425.9132	15914.125
430.04396	15942.825
434.17176	16005.925
438.2966	16090.525
442.41849	16322.525
446.53742	16801.525
450.6534	17294.625
454.76644	17687.825
458.87653	17682.025
462.98368	17518.925
467.08789	17253.925
471.18916	17002.425
475.2875	16737.325
479.38291	16616.225
483.4754	16530.525
487.56496	16426.825
491.6516	16199.925
495.73531	16003.725
499.81612	15923.825
503.89401	15921.225
507.96899	15911.225
512.04106	15813.525
516.11023	15693.425
520.1765	15540.225
524.23987	15470.825
528.30034	15408.225
532.35792	15336.325
536.41261	15174.625
540.46441	14940.225
544.51333	14815.725
548.55936	14918.725
552.60252	15211.425
556.64279	15569.025
560.6802	15902.425
564.71473	15982.825
568.7464	16273.825
572.7752	16748.225
576.80114	17177.625
580.82422	17684.625
584.84444	18480.525
588.86181	19430.725
592.87633	20291.125
596.888	20248.725
600.89682	19330.525
604.9028	18949.925
608.90594	20306.725
612.90624	22027.325
616.90371	20747.525
620.89834	17082.225
624.89015	15336.325
628.87913	15138.625
632.86528	15272.225
636.84862	15324.125
640.82913	15086.625
644.80683	14667.225
648.78172	14337.025
652.75379	14314.325
656.72306	14476.925
660.68952	14694.325
664.65319	14612.725
668.61405	14378.025
672.57211	14344.225
676.52738	14443.325
680.47986	14497.425
684.42955	14390.625
688.37646	14260.225
692.32058	14257.225
696.26192	14416.225
700.20048	14615.825
704.13626	14709.725
708.06928	14750.025
711.99952	14623.225
715.927	14650.625
719.85171	14711.625
723.77365	14679.225
727.69284	14488.125
731.60928	14322.425
735.52295	14286.525
739.43388	14271.425
743.34206	14328.825
747.24749	14389.925
751.15017	14497.625
755.05012	14680.425
758.94733	15093.025
762.8418	15871.925
766.73354	17168.825
770.62254	18532.025
774.50882	18953.725
778.39237	18230.625
782.27321	16852.825
786.15132	15593.725
790.02671	14737.425
793.89938	14321.325
797.76935	14166.825
801.6366	14092.225
805.50115	14070.925
809.36299	13983.225
813.22213	13840.825
817.07857	13752.625
820.93231	13656.225
824.78336	13575.325
828.63172	13498.325
832.47738	13510.025
836.32036	13517.825
840.16066	13545.725
843.99827	13555.625
847.8332	13503.825
851.66546	13455.725
855.49504	13409.525
859.32195	13406.425
863.1462	13391.125
866.96777	13335.125
870.78668	13342.025
874.60293	13364.825
878.41652	13366.125
882.22745	13434.125
886.03573	13505.625
889.84136	13517.125
893.64433	13442.825
897.44466	13362.925
901.24235	13307.025
905.0374	13175.625
908.8298	13112.925
912.61957	13094.325
916.40671	13180.225
920.19121	13352.325
923.97308	13548.325
927.75233	13720.025
931.52895	13633.525
935.30295	13434.425
939.07433	13127.625
942.84309	12887.925
946.60924	12755.925
950.37278	12713.125
954.13371	12674.225
957.89203	12629.125
961.64774	12635.025
965.40086	12621.625
969.15137	12589.825
972.89929	12486.625
976.64461	12457.025
980.38733	12460.825
984.12747	12497.325
987.86502	12578.625
991.59999	12696.225
995.33237	12890.525
999.06217	13233.925
1002.78939	13620.325
1006.51404	13950.225
1010.23611	14194.525
1013.95561	14418.125
1017.67255	14445.925
1021.38692	14296.825
1025.09872	14000.625
1028.80796	13850.025
1032.51465	14011.825
1036.21877	14280.225
1039.92035	14445.225
1043.61937	14442.725
1047.31584	14263.125
1051.00976	14047.525
1054.70114	13882.425
1058.38998	13810.525
1062.07627	13869.625
1065.76003	13958.425
1069.44126	14170.525
1073.11995	14460.925
1076.79611	14758.025
1080.46974	14866.125
1084.14085	14917.225
1087.80943	15040.725
1091.47549	15217.725
1095.13903	15321.125
1098.80005	15077.625
1102.45857	14632.725
1106.11456	14228.925
1109.76805	14063.825
1113.41903	14066.125
1117.06751	14163.825
1120.71348	14370.725
1124.35696	14575.525
1127.99793	14862.525
1131.63641	15032.825
1135.2724	14996.425
1138.90589	14860.425
1142.5369	14840.825
1146.16542	14860.625
1149.79145	14894.425
1153.415	15009.025
1157.03607	15175.025
1160.65467	15563.625
1164.27079	16367.725
1167.88443	17334.725
1171.49561	18525.125
1175.10432	20027.225
1178.71056	21888.525
1182.31434	23611.325
1185.91565	24423.425
1189.51451	24053.725
1193.11091	23115.425
1196.70485	21972.325
1200.29634	20830.625
1203.88538	20062.125
1207.47197	19539.525
1211.05612	19114.425
1214.63782	18703.025
1218.21708	18275.025
1221.79391	17979.725
1225.36829	17863.325
1228.94024	17748.525
1232.50976	17466.125
1236.07685	17105.525
1239.6415	16831.325
1243.20374	16760.425
1246.76355	16842.425
1250.32093	17110.425
1253.8759	17514.725
1257.42845	18107.625
1260.97859	18740.625
1264.52631	19401.925
1268.07163	20049.625
1271.61453	20749.725
1275.15503	21389.625
1278.69312	22116.225
1282.22882	22928.225
1285.76211	23837.925
1289.29301	24924.425
1292.82151	26117.525
1296.34761	27464.225
1299.87133	29085.325
1303.39266	30758.125
1306.9116	32549.925
1310.42815	34056.025
1313.94233	34841.725
1317.45412	34567.125
1320.96354	33363.625
1324.47058	32194.025
1327.97525	31265.125
1331.47754	30533.325
1334.97747	30024.425
1338.47502	29450.925
1341.97022	28834.725
1345.46305	28246.325
1348.95352	28048.825
1352.44163	28614.525
1355.92738	30038.525
1359.41078	32050.825
1362.89183	33827.325
1366.37053	33820.825
1369.84688	31300.025
1373.32088	27549.525
1376.79254	24669.725
1380.26186	23412.525
1383.72883	23025.325
1387.19347	22715.525
1390.65578	22248.825
1394.11575	22100.925
1397.57339	22276.025
1401.0287	22725.425
1404.48168	22995.625
1407.93234	22970.225
1411.38068	22503.525
1414.82669	21819.725
1418.27039	20971.825
1421.71177	20183.125
1425.15083	19472.325
1428.58758	19155.125
1432.02203	19319.625
1435.45416	19817.325
1438.88399	20356.725
1442.31151	20712.325
1445.73673	20969.925
1449.15965	21182.925
1452.58027	21231.425
1455.9986	21144.825
1459.41463	21169.425
1462.82837	21537.725
1466.23982	22030.925
1469.64898	22544.925
1473.05586	22864.025
1476.46045	23000.925
1479.86276	23012.725
1483.26279	22955.625
1486.66054	22991.925
1490.05602	23269.025
1493.44922	23706.725
1496.84016	24129.925
1500.22882	24701.025
1503.61521	25486.825
1506.99934	26428.525
1510.38121	27212.825
1513.76081	27267.125
1517.13816	26453.025
1520.51324	25132.725
1523.88607	24030.025
1527.25665	23410.425
1530.62498	23166.025
1533.99105	22916.225
1537.35488	22547.925
1540.71647	22031.725
1544.07581	21352.625
1547.4329	20686.325
1550.78776	20076.925
1554.14038	19705.425
1557.49077	19531.325
1560.83892	19514.225
1564.18484	19585.125
1567.52853	19786.325
1570.86999	20076.025
1574.20922	20439.325
1577.54624	20719.825
1580.88103	20674.025
1584.2136	20725.725
1587.54395	21204.725
1590.87208	22307.725
1594.19801	23828.225
1597.52172	25374.525
1600.84321	25931.625
1604.16251	24800.725
1607.47959	22602.225
1610.79447	20197.325
1614.10715	18167.325
1617.41763	16671.325
1620.7259	15753.825
1624.03199	15341.625
1627.33587	15353.925
1630.63757	15825.625
1633.93707	16902.825
1637.23439	18723.625
1640.52951	21479.925
1643.82246	25085.625
1647.11321	28221.725
1650.40179	29228.225
1653.68819	27231.725
1656.97241	23379.025
1660.25446	19467.325
1663.53433	16613.425
1666.81203	14808.925
1670.08756	13709.425
1673.36092	13033.925
1676.63211	12611.025
1679.90115	12280.125
1683.16801	12083.825
1686.43272	11889.325
1689.69527	11764.725
1692.95567	11696.725
1696.2139	11628.925
1699.46999	11606.125
1702.72392	11524.225
1705.97571	11515.225
1709.22535	11477.725
1712.47284	11409.725
1715.71819	11404.125
1718.96139	11353.925
1722.20246	11292.125
1725.44139	11240.325
1728.67818	11185.325
1731.91284	11150.625
1735.14537	11078.125
1738.37576	11014.925
1741.60403	10993.225
1744.83017	10947.325
1748.05418	10943.725
1751.27607	10917.025
1754.49584	10929.625
1757.71349	10939.025
1760.92903	10906.825
1764.14244	10893.025
1767.35375	10873.425
1770.56294	10823.325
1773.77002	10783.425
1776.97499	10744.125
1780.17785	10689.225
1783.37861	10670.225
1786.57727	10630.925
1789.77382	10590.725
1792.96828	10582.725
1796.16064	10539.225
1799.3509	10538.325
1802.53907	10503.325
1805.72514	10485.625
1808.90913	10452.825
1812.09102	10417.825
1815.27083	10404.825
1818.44856	10400.425
1821.6242	10363.925
1824.79776	10360.325
1827.96924	10344.725
1831.13864	10338.325
1834.30597	10332.725
1837.47122	10339.125
1840.6344	10336.825
1843.7955	10313.525
1846.95454	10332.725
1850.11151	10327.825
1853.26642	10308.525
1856.41926	10301.725
1859.57004	10314.625
1862.71876	10282.325
1865.86542	10291.625
1869.01003	10266.925
1872.15258	10270.625
1875.29308	10248.225
1878.43152	10249.625
1881.56792	10236.525
1884.70227	10204.425
1887.83457	10169.325
1890.96482	10184.925
1894.09304	10180.425
1897.21921	10170.625
1900.34335	10143.125
1903.46544	10139.525
1906.58551	10105.225
1909.70353	10105.625
1912.81953	10080.025
1915.93349	10041.825
1919.04543	10021.625
1922.15534	10018.125
1925.26322	9962.225
1928.36908	9955.225
1931.47292	9931.225
1934.57473	9919.425
1937.67453	9887.325
1940.77232	9849.325
1943.86808	9839.025
1946.96184	9793.125
1950.05358	9774.025
1953.14331	9730.325
1956.23103	9716.025
1959.31675	9682.725
1962.40046	9661.125
1965.48217	9625.425
1968.56188	9625.525
1971.63959	9569.025
1974.7153	9553.625
1977.78901	9510.525
1980.86073	9476.225
1983.93046	9460.425
1986.99819	9420.425
1990.06394	9389.525
1993.1277	9352.725
1996.18947	9303.425
1999.24925	9308.625
2002.30706	9290.825
2005.36288	9264.425
2008.41672	9245.025
2011.46859	9217.325
2014.51848	9196.725
2017.56639	9149.825
2020.61233	9148.225
2023.6563	9127.325
2026.6983	9093.325
2029.73833	9089.125
2032.7764	9064.125
2035.8125	9028.625
2038.84664	9043.825
2041.87881	9017.225
2044.90903	9015.425
2047.93729	8987.625
2050.96359	8975.425
2053.98794	8969.625
2057.01034	8946.225
2060.03078	8940.225
2063.04927	8936.925
2066.06582	8928.125
2069.08042	8911.525
2072.09307	8918.125
2075.10378	8898.925
2078.11255	8919.025
2081.11938	8885.425
2084.12426	8909.125
2087.12722	8883.825
2090.12824	8856.225
2093.12732	8909.025
2096.12447	8874.925
2099.11969	8872.325
2102.11299	8878.125
2105.10435	8887.025
2108.09379	8857.625
2111.08131	8896.425
2114.0669	8889.325
2117.05057	8865.225
2120.03233	8904.625
2123.01216	8899.625
2125.99008	8899.325
2128.96609	8906.625
2131.94018	8922.325
2134.91236	8924.325
2137.88263	8911.925
2140.851	8909.425
2143.81746	8919.325
2146.78201	8908.025
2149.74466	8936.825
2152.7054	8914.425
2155.66425	8916.825
2158.6212	8891.625
2161.57625	8893.125
2164.52941	8885.925
2167.48067	8898.425
2170.43004	8881.325
2173.37752	8886.725
2176.32311	8869.425
2179.26681	8893.525
2182.20863	8886.725
2185.14856	8883.925
2188.08661	8862.625
2191.02278	8849.525
2193.95707	8850.625
2196.88948	8886.425
2199.82001	8888.125
2202.74867	8852.325
2205.67545	8845.525
2208.60037	8830.525
2211.52341	8813.925
2214.44458	8825.525
2217.36388	8793.725
2220.28132	8770.525
2223.1969	8748.925
2226.11061	8758.825
2229.02246	8767.725
2231.93245	8744.425
2234.84058	8722.625
2237.74686	8717.025
2240.65128	8717.825
2243.55385	8700.225
2246.45456	8679.525
2249.35343	8639.425
2252.25044	8650.825
2255.14561	8636.125
2258.03893	8596.225
2260.93041	8617.525
2263.82004	8570.625
2266.70783	8562.525
2269.59378	8531.525
2272.4779	8509.425
2275.36017	8502.925
2278.24061	8479.325
2281.11922	8459.425
2283.996	8456.525
2286.87094	8446.725
2289.74405	8425.425
2292.61534	8404.825
2295.4848	8421.025
2298.35243	8397.425
2301.21824	8378.825
2304.08223	8434.625
2306.94439	8395.525
2309.80474	8414.125
2312.66327	8382.225
2315.51999	8387.625
2318.37489	8380.825
2321.22797	8366.725
2324.07925	8380.625
2326.92871	8361.425
2329.77637	8359.825
2332.62222	8353.225
2335.46626	8342.925
2338.3085	8340.125
2341.14893	8341.025
2343.98756	8325.525
2346.8244	8326.025
2349.65943	8324.525
2352.49267	8331.425
2355.32411	8320.025
2358.15376	8334.725
2360.98161	8327.325
2363.80768	8305.725
2366.63195	8315.925
2369.45444	8298.925
2372.27514	8277.625
2375.09405	8255.625
2377.91118	8243.925
2380.72652	8241.925
2383.54009	8217.625
2386.35187	8192.125
2389.16188	8176.925
2391.97011	8173.925
2394.77657	8168.025
2397.58125	8170.325
2400.38416	8141.125
2403.18529	8132.825
2405.98466	8102.925
2408.78226	8102.225
2411.57809	8087.625
2414.37216	8072.525
2417.16446	8046.825
2419.955	8055.525
2422.74378	8052.025
2425.5308	8036.525
2428.31606	8050.225
2431.09956	8037.525
2433.88131	8032.325
2436.6613	8028.025
2439.43954	7997.925
2442.21603	8017.025
2444.99077	7996.125
2447.76377	8012.425
2450.53501	8023.625
2453.30451	8003.225
2456.07226	8001.525
2458.83827	8001.325
2461.60254	8001.525
2464.36507	8012.525
2467.12586	7987.225
2469.88492	7993.425
2472.64224	7992.425
2475.39782	7995.025
2478.15167	8026.325
2480.90379	8007.125
2483.65417	7999.325
2486.40283	7994.525
2489.14976	8005.825
2491.89497	7984.225
2494.63845	8001.925
2497.3802	8015.125
2500.12024	7995.225
2502.85855	8004.725
2505.59514	7987.425
2508.33002	7977.925
2511.06318	7969.625
2513.79462	7951.525
2516.52435	7916.925
2519.25237	7931.225
2521.97867	7924.425
2524.70327	7912.825
2527.42616	7916.525
2530.14734	7904.825
2532.86681	7896.325
2535.58458	7892.125
2538.30065	7889.025
2541.01501	7877.025
2543.72768	7856.625
2546.43864	7855.025
2549.14791	7852.525
2551.85548	7852.625
2554.56136	7843.225
2557.26554	7849.525
2559.96803	7839.725
2562.66883	7837.825
2565.36794	7845.025
2568.06536	7832.025
2570.7611	7830.525
2573.45514	7817.325
2576.14751	7832.125
2578.83819	7830.225
2581.52719	7836.725
2584.21451	7798.325
2586.90015	7787.525
2589.58411	7790.325
2592.2664	7761.925
2594.94701	7748.625
2597.62594	7753.025
2600.30321	7744.625
2602.9788	7737.425
2605.65273	7732.025
2608.32498	7720.125
2610.99557	7725.525
2613.66449	7722.625
2616.33175	7713.525
2618.99734	7723.325
2621.66128	7704.325
2624.32355	7720.025
2626.98416	7699.725
2629.64311	7688.925
2632.30041	7676.925
2634.95605	7707.825
2637.61004	7683.925
2640.26238	7661.625
2642.91306	7651.725
2645.56209	7659.225
2648.20948	7651.025
2650.85521	7654.425
2653.4993	7638.725
2656.14175	7633.225
2658.78255	7667.525
2661.42171	7666.025
2664.05923	7669.325
2666.6951	7678.125
2669.32934	7677.825
2671.96194	7662.825
2674.59291	7674.225
2677.22224	7666.425
2679.84993	7678.125
2682.476	7665.225
2685.10043	7652.925
2687.72324	7645.325
2690.34441	7645.625
2692.96396	7607.925
2695.58188	7659.725
2698.19818	7626.525
2700.81285	7641.825
2703.4259	7672.725
2706.03733	7712.425
2708.64714	7706.525
2711.25533	7705.125
2713.86191	7667.425
2716.46687	7664.925
2719.07021	7677.925
2721.67194	7680.325
2724.27206	7687.125
2726.87057	7673.825
2729.46747	7687.725
2732.06276	7707.425
2734.65644	7695.425
2737.24852	7683.725
2739.83899	7665.825
2742.42786	7679.425
2745.01513	7673.625
2747.60079	7674.225
2750.18486	7636.425
2752.76733	7659.125
2755.3482	7650.225
2757.92747	7654.225
2760.50515	7652.825
2763.08123	7648.325
2765.65573	7645.925
2768.22863	7635.025
2770.79994	7626.225
2773.36967	7636.025
2775.9378	7626.125
2778.50435	7629.825
2781.06932	7608.625
2783.6327	7602.325
2786.1945	7613.025
2788.75471	7615.925
2791.31335	7591.325
2793.87041	7595.125
2796.42589	7556.125
2798.97979	7552.325
2801.53212	7552.825
2804.08288	7545.925
2806.63206	7551.325
2809.17967	7520.425
2811.72571	7527.425
2814.27018	7519.225
2816.81308	7503.025
2819.35442	7488.425
2821.89419	7473.925
2824.43239	7501.725
2826.96904	7501.225
2829.50412	7491.225
2832.03763	7470.625
2834.56959	7468.725
2837.1	7460.525
2839.62884	7458.825
2842.15613	7455.825
2844.68186	7493.625
2847.20604	7509.925
2849.72867	7486.525
2852.24974	7491.525
2854.76927	7514.825
2857.28724	7508.425
2859.80367	7494.425
2862.31855	7474.025
2864.83189	7458.925
2867.34368	7462.025
2869.85393	7448.425
2872.36264	7440.425
2874.8698	7436.525
2877.37543	7432.425
2879.87952	7443.225
2882.38207	7447.825
2884.88308	7432.125
2887.38256	7452.125
2889.88051	7443.925
2892.37692	7463.125
2894.8718	7459.425
2897.36515	7466.025
2899.85698	7479.225
2902.34727	7489.225
2904.83604	7484.525
2907.32328	7505.225
2909.809	7515.225
2912.29319	7525.125
2914.77587	7524.225
2917.25702	7514.625
2919.73665	7502.425
2922.21476	7517.325
2924.69136	7512.225
2927.16644	7514.625
2929.64	7505.825
2932.11205	7489.425
2934.58258	7483.125
2937.05161	7486.425
2939.51912	7484.325
2941.98513	7483.125
2944.44962	7475.325
2946.91261	7463.125
2949.37409	7454.125
2951.83407	7448.425
2954.29254	7427.525
2956.74951	7406.825
2959.20498	7409.725
2961.65895	7377.825
2964.11142	7369.125
2966.56239	7321.825
2969.01186	7314.625
2971.45984	7285.725
2973.90632	7272.825
2976.35131	7260.925
2978.7948	7265.125
2981.23681	7239.125
2983.67732	7202.125
2986.11635	7190.725
2988.55388	7206.325
2990.98993	7162.325
2993.4245	7149.725
2995.85758	7120.225
2998.28917	7100.925
3000.71928	7120.225
3003.14791	7094.225
3005.57506	7107.125
3008.00073	7090.225
3010.42493	7079.825
3012.84764	7061.625
3015.26888	7082.625
3017.68865	7041.525
3020.10694	7035.125
3022.52376	7004.425
3024.9391	7007.225
3027.35298	7010.825
3029.76539	6989.325
3032.17632	6973.325
3034.5858	6958.225
3036.9938	6953.825
3039.40034	6937.625
3041.80542	6931.525
3044.20903	6926.825
3046.61118	6926.425
3049.01187	6894.125
3051.4111	6913.825
3053.80888	6870.125
3056.20519	6881.225
3058.60005	6856.425
3060.99345	6864.925
3063.3854	6840.925
3065.7759	6841.725
3068.16494	6798.425
3070.55254	6793.225
3072.93868	6772.725
3075.32338	6751.525
3077.70662	6746.225
3080.08842	6732.425
3082.46878	6729.125
3084.84769	6707.825
3087.22515	6698.525
3089.60118	6716.425
3091.97576	6700.825
3094.3489	6725.825
3096.72061	6702.625
3099.09087	6690.625
3101.4597	6682.125
3103.82709	6700.025
3106.19305	6685.125
3108.55757	6674.525
3110.92066	6650.525
3113.28232	6643.825
3115.64255	6632.425
3118.00134	6626.225
3120.35871	6605.325
3122.71466	6603.425
3125.06917	6587.525
3127.42226	6561.925
3129.77393	6591.325
3132.12417	6579.025
3134.47299	6583.525
3136.82039	6583.725
3139.16636	6577.325
3141.51092	6568.825
3143.85406	6584.225
3146.19579	6601.725
3148.53609	6601.525
3150.87499	6570.425
3153.21246	6560.525
3155.54853	6593.125
3157.88318	6586.225
3160.21642	6574.325
3162.54826	6581.525
3164.87868	6573.925
3167.2077	6589.925
3169.5353	6576.125
3171.86151	6572.725
3174.18631	6562.325
3176.5097	6555.125
3178.83169	6554.525
3181.15228	6561.725
