Data from AgNPs_FTO_APTES_UA_0um_CRN_0.1mM_R6G_10uM_NaF_0.1M_Addition_RamanShift__62__11-23-38-971.txt Node

Date: Tue Dec 21 11:23:38 GMT 2021
User: TCL
Spectrometer: QEP01345
Trigger mode: 4
Integration Time (sec): 7.000000E0
Scans to average: 10
Electric dark correction enabled: true
Nonlinearity correction enabled: false
Boxcar width: 0
XAxis mode: Raman Shifts
Number of Pixels in Spectrum: 1044
>>>>>Begin Spectral Data<<<<<
46.04893	-0.2875
50.45542	-1.2875
54.85868	-0.6875
59.25871	0.1125
63.6555	40.7125
68.04907	43.2125
72.43941	47.9125
76.82654	48.4125
81.21044	53.0125
85.59113	54.4125
89.96862	51.7125
94.34289	56.2125
98.71396	57.1125
103.08183	59.3125
107.4465	61.2125
111.80798	67.2125
116.16626	63.8125
120.52136	67.9125
124.87327	69.4125
129.222	69.2125
133.56755	79.3125
137.90993	86.0125
142.24913	90.8125
146.58517	97.0125
150.91804	116.8125
155.24774	138.1125
159.57429	165.9125
163.89768	217.3125
168.21792	283.4125
172.53501	386.2125
176.84895	526.5125
181.15975	745.2125
185.46741	1038.2125
189.77193	1430.1125
194.07331	1918.3125
198.37157	2469.9125
202.6667	3058.5125
206.9587	3657.9125
211.24758	4243.3125
215.53334	4838.9125
219.81599	5512.6125
224.09553	6236.6125
228.37195	7060.4125
232.64527	7976.8125
236.91549	8849.0125
241.18261	9683.2125
245.44663	10420.0125
249.70755	11002.0125
253.96539	11526.5125
258.22014	11946.2125
262.4718	12287.3125
266.72039	12538.0125
270.96589	12663.7125
275.20832	12694.3125
279.44768	12672.5125
283.68397	12617.6125
287.91719	12606.9125
292.14735	12684.5125
296.37445	12809.7125
300.59849	13050.2125
304.81948	13445.1125
309.03742	13748.5125
313.25231	13719.3125
317.46415	13162.0125
321.67296	12280.6125
325.87872	11505.1125
330.08145	11159.7125
334.28114	11126.6125
338.47781	11272.3125
342.67145	11559.1125
346.86207	11966.2125
351.04966	12577.6125
355.23424	13271.7125
359.4158	13823.2125
363.59435	14015.9125
367.76989	14013.2125
371.94243	13914.9125
376.11196	13769.1125
380.27849	13649.9125
384.44203	13560.1125
388.60257	13432.3125
392.76012	13406.1125
396.91468	13625.1125
401.06626	14018.5125
405.21485	14377.3125
409.36047	14263.7125
413.50311	13704.1125
417.64277	13168.7125
421.77947	12955.7125
425.9132	12916.6125
430.04396	13047.9125
434.17176	13135.6125
438.2966	13320.4125
442.41849	13707.6125
446.53742	14319.5125
450.6534	14853.2125
454.76644	15192.6125
458.87653	15167.9125
462.98368	14914.0125
467.08789	14553.9125
471.18916	14204.7125
475.2875	13922.6125
479.38291	13711.2125
483.4754	13525.8125
487.56496	13306.4125
491.6516	13113.3125
495.73531	12937.2125
499.81612	12934.1125
503.89401	13056.5125
507.96899	13161.7125
512.04106	13113.0125
516.11023	13075.9125
520.1765	13030.0125
524.23987	12925.0125
528.30034	12759.7125
532.35792	12555.7125
536.41261	12278.9125
540.46441	11940.6125
544.51333	11774.1125
548.55936	11885.1125
552.60252	12227.5125
556.64279	12680.4125
560.6802	13009.4125
564.71473	13379.1125
568.7464	14107.5125
572.7752	14782.7125
576.80114	14681.0125
580.82422	14430.7125
584.84444	14384.8125
588.86181	14494.2125
592.87633	14801.3125
596.888	15067.2125
600.89682	15227.4125
604.9028	16045.0125
608.90594	18919.6125
612.90624	22908.4125
616.90371	22026.8125
620.89834	15992.0125
624.89015	13050.9125
628.87913	12607.9125
632.86528	12664.3125
636.84862	12677.2125
640.82913	12411.2125
644.80683	11858.9125
648.78172	11478.5125
652.75379	11422.8125
656.72306	11820.6125
660.68952	12350.4125
664.65319	12374.5125
668.61405	11927.4125
672.57211	11639.6125
676.52738	11615.0125
680.47986	11615.1125
684.42955	11492.7125
688.37646	11424.2125
692.32058	11441.2125
696.26192	11590.4125
700.20048	11778.3125
704.13626	11976.7125
708.06928	12040.2125
711.99952	11882.0125
715.927	11739.6125
719.85171	11696.1125
723.77365	11639.3125
727.69284	11494.1125
731.60928	11346.5125
735.52295	11388.6125
739.43388	11435.0125
743.34206	11517.2125
747.24749	11630.7125
751.15017	11828.6125
755.05012	12149.9125
758.94733	12713.8125
762.8418	14056.7125
766.73354	16188.0125
770.62254	18286.0125
774.50882	18988.8125
778.39237	18010.9125
782.27321	15840.3125
786.15132	13700.3125
790.02671	12423.0125
793.89938	11781.1125
797.76935	11524.2125
801.6366	11428.6125
805.50115	11337.0125
809.36299	11255.1125
813.22213	11183.8125
817.07857	11177.6125
820.93231	11143.8125
824.78336	11193.6125
828.63172	11253.7125
832.47738	11287.7125
836.32036	11267.0125
840.16066	11241.6125
843.99827	11183.5125
847.8332	11105.7125
851.66546	11065.8125
855.49504	11037.9125
859.32195	11017.8125
863.1462	10955.8125
866.96777	10888.6125
870.78668	10868.6125
874.60293	10864.9125
878.41652	10887.4125
882.22745	10943.1125
886.03573	11003.7125
889.84136	10988.1125
893.64433	10887.7125
897.44466	10836.2125
901.24235	10848.1125
905.0374	10809.0125
908.8298	10760.8125
912.61957	10747.8125
916.40671	10847.3125
920.19121	11060.9125
923.97308	11253.9125
927.75233	11377.5125
931.52895	11408.8125
935.30295	11176.2125
939.07433	10805.4125
942.84309	10458.4125
946.60924	10319.8125
950.37278	10226.0125
954.13371	10167.5125
957.89203	10144.0125
961.64774	10092.1125
965.40086	10045.7125
969.15137	10027.5125
972.89929	9978.4125
976.64461	9956.6125
980.38733	9973.3125
984.12747	9969.4125
987.86502	10039.3125
991.59999	10172.7125
995.33237	10367.4125
999.06217	10715.6125
1002.78939	11213.4125
1006.51404	11682.7125
1010.23611	11933.2125
1013.95561	12060.7125
1017.67255	11949.0125
1021.38692	11614.8125
1025.09872	11307.6125
1028.80796	11216.3125
1032.51465	11314.6125
1036.21877	11565.8125
1039.92035	11707.8125
1043.61937	11682.3125
1047.31584	11576.9125
1051.00976	11414.4125
1054.70114	11327.7125
1058.38998	11296.7125
1062.07627	11352.5125
1065.76003	11453.4125
1069.44126	11624.0125
1073.11995	11879.8125
1076.79611	12032.5125
1080.46974	12166.0125
1084.14085	12352.2125
1087.80943	12666.7125
1091.47549	12838.4125
1095.13903	12657.6125
1098.80005	12207.3125
1102.45857	11740.9125
1106.11456	11439.8125
1109.76805	11408.6125
1113.41903	11531.4125
1117.06751	11823.0125
1120.71348	12225.2125
1124.35696	12735.8125
1127.99793	13138.8125
1131.63641	13135.5125
1135.2724	12666.9125
1138.90589	12217.9125
1142.5369	11997.8125
1146.16542	11838.7125
1149.79145	11820.0125
1153.415	11873.9125
1157.03607	11987.0125
1160.65467	12271.5125
1164.27079	12778.4125
1167.88443	13617.6125
1171.49561	14953.4125
1175.10432	16979.8125
1178.71056	19540.7125
1182.31434	21496.2125
1185.91565	22040.1125
1189.51451	21624.7125
1193.11091	20588.6125
1196.70485	19286.5125
1200.29634	18062.4125
1203.88538	16910.3125
1207.47197	15768.2125
1211.05612	14952.4125
1214.63782	14523.0125
1218.21708	14490.8125
1221.79391	14656.4125
1225.36829	14753.6125
1228.94024	14619.1125
1232.50976	14320.7125
1236.07685	14091.7125
1239.6415	13893.2125
1243.20374	13836.9125
1246.76355	13871.4125
1250.32093	14067.7125
1253.8759	14391.0125
1257.42845	14951.4125
1260.97859	15499.5125
1264.52631	16041.9125
1268.07163	16538.5125
1271.61453	17029.2125
1275.15503	17525.3125
1278.69312	17853.4125
1282.22882	18248.2125
1285.76211	18789.5125
1289.29301	19578.0125
1292.82151	20463.2125
1296.34761	21481.6125
1299.87133	22856.6125
1303.39266	24715.7125
1306.9116	27377.7125
1310.42815	30293.7125
1313.94233	32302.7125
1317.45412	32342.9125
1320.96354	31000.3125
1324.47058	29271.2125
1327.97525	27728.6125
1331.47754	26619.4125
1334.97747	25931.7125
1338.47502	25766.4125
1341.97022	25825.5125
1345.46305	25782.6125
1348.95352	25867.4125
1352.44163	26399.8125
1355.92738	27895.0125
1359.41078	30558.6125
1362.89183	33197.8125
1366.37053	32879.9125
1369.84688	29395.2125
1373.32088	25359.4125
1376.79254	22418.2125
1380.26186	20841.6125
1383.72883	20103.9125
1387.19347	19705.0125
1390.65578	19390.7125
1394.11575	19395.1125
1397.57339	19806.8125
1401.0287	20451.2125
1404.48168	21046.5125
1407.93234	21350.2125
1411.38068	21264.3125
1414.82669	20713.1125
1418.27039	19705.3125
1421.71177	18604.2125
1425.15083	17671.6125
1428.58758	17150.8125
1432.02203	17139.4125
1435.45416	17313.1125
1438.88399	17499.5125
1442.31151	17656.2125
1445.73673	17809.4125
1449.15965	18064.3125
1452.58027	18174.9125
1455.9986	18156.0125
1459.41463	18258.9125
1462.82837	18576.6125
1466.23982	19127.4125
1469.64898	19625.0125
1473.05586	19898.6125
1476.46045	19954.5125
1479.86276	20052.3125
1483.26279	20144.2125
1486.66054	20283.8125
1490.05602	20583.9125
1493.44922	21073.1125
1496.84016	21609.0125
1500.22882	22612.1125
1503.61521	24102.2125
1506.99934	25983.1125
1510.38121	27761.9125
1513.76081	28725.8125
1517.13816	27927.8125
1520.51324	25544.9125
1523.88607	23032.9125
1527.25665	21325.2125
1530.62498	20403.3125
1533.99105	19946.3125
1537.35488	19709.2125
1540.71647	19519.0125
1544.07581	19298.6125
1547.4329	18941.5125
1550.78776	18448.5125
1554.14038	18068.7125
1557.49077	17842.6125
1560.83892	17908.1125
1564.18484	18234.1125
1567.52853	18582.6125
1570.86999	18854.1125
1574.20922	19048.8125
1577.54624	19051.0125
1580.88103	18456.5125
1584.2136	17740.4125
1587.54395	17730.6125
1590.87208	18645.5125
1594.19801	20349.0125
1597.52172	22384.1125
1600.84321	23510.5125
1604.16251	22861.6125
1607.47959	20854.5125
1610.79447	18395.1125
1614.10715	16198.7125
1617.41763	14579.8125
1620.7259	13586.4125
1624.03199	13110.4125
1627.33587	13049.1125
1630.63757	13430.8125
1633.93707	14243.1125
1637.23439	15631.8125
1640.52951	17700.2125
1643.82246	20358.3125
1647.11321	23072.6125
1650.40179	24644.7125
1653.68819	23777.5125
1656.97241	20646.6125
1660.25446	17056.5125
1663.53433	14255.9125
1666.81203	12502.3125
1670.08756	11488.0125
1673.36092	10896.3125
1676.63211	10528.2125
1679.90115	10241.8125
1683.16801	10040.1125
1686.43272	9924.0125
1689.69527	9799.4125
1692.95567	9708.5125
1696.2139	9674.8125
1699.46999	9633.7125
1702.72392	9617.3125
1705.97571	9577.9125
1709.22535	9547.9125
1712.47284	9537.1125
1715.71819	9516.3125
1718.96139	9520.0125
1722.20246	9497.3125
1725.44139	9465.8125
1728.67818	9395.3125
1731.91284	9324.2125
1735.14537	9258.7125
1738.37576	9211.5125
1741.60403	9168.6125
1744.83017	9136.6125
1748.05418	9131.9125
1751.27607	9101.9125
1754.49584	9097.9125
1757.71349	9081.1125
1760.92903	9048.2125
1764.14244	9027.5125
1767.35375	9003.9125
1770.56294	8974.2125
1773.77002	8944.1125
1776.97499	8896.8125
1780.17785	8870.3125
1783.37861	8860.6125
1786.57727	8838.6125
1789.77382	8795.1125
1792.96828	8789.0125
1796.16064	8760.9125
1799.3509	8749.0125
1802.53907	8726.1125
1805.72514	8715.6125
1808.90913	8683.1125
1812.09102	8661.4125
1815.27083	8631.5125
1818.44856	8596.6125
1821.6242	8596.2125
1824.79776	8599.9125
1827.96924	8574.9125
1831.13864	8566.9125
1834.30597	8569.0125
1837.47122	8538.4125
1840.6344	8544.5125
1843.7955	8539.5125
1846.95454	8546.7125
1850.11151	8542.0125
1853.26642	8522.2125
1856.41926	8541.5125
1859.57004	8561.6125
1862.71876	8546.7125
1865.86542	8540.0125
1869.01003	8561.8125
1872.15258	8547.0125
1875.29308	8537.1125
1878.43152	8539.5125
1881.56792	8548.5125
1884.70227	8550.6125
1887.83457	8572.9125
1890.96482	8546.7125
1894.09304	8552.7125
1897.21921	8564.9125
1900.34335	8588.8125
1903.46544	8582.5125
1906.58551	8583.6125
1909.70353	8583.3125
1912.81953	8592.0125
1915.93349	8578.8125
1919.04543	8567.1125
1922.15534	8545.5125
1925.26322	8529.6125
1928.36908	8508.5125
1931.47292	8488.1125
1934.57473	8436.5125
1937.67453	8383.1125
1940.77232	8329.2125
1943.86808	8303.1125
1946.96184	8260.7125
1950.05358	8218.3125
1953.14331	8201.2125
1956.23103	8154.1125
1959.31675	8117.6125
1962.40046	8100.3125
1965.48217	8067.4125
1968.56188	8025.9125
1971.63959	8002.5125
1974.7153	8003.3125
1977.78901	7960.3125
1980.86073	7926.9125
1983.93046	7918.9125
1986.99819	7881.7125
1990.06394	7833.8125
1993.1277	7828.8125
1996.18947	7771.2125
1999.24925	7778.2125
2002.30706	7760.1125
2005.36288	7719.1125
2008.41672	7705.9125
2011.46859	7687.5125
2014.51848	7651.6125
2017.56639	7621.6125
2020.61233	7624.6125
2023.6563	7611.7125
2026.6983	7585.6125
2029.73833	7554.4125
2032.7764	7518.3125
2035.8125	7527.0125
2038.84664	7509.8125
2041.87881	7488.8125
2044.90903	7464.4125
2047.93729	7462.3125
2050.96359	7456.7125
2053.98794	7458.4125
2057.01034	7440.0125
2060.03078	7439.6125
2063.04927	7404.8125
2066.06582	7404.1125
2069.08042	7396.3125
2072.09307	7410.2125
2075.10378	7361.2125
2078.11255	7373.6125
2081.11938	7370.8125
2084.12426	7357.2125
2087.12722	7369.8125
2090.12824	7357.7125
2093.12732	7363.1125
2096.12447	7330.0125
2099.11969	7333.9125
2102.11299	7331.8125
2105.10435	7351.9125
2108.09379	7351.1125
2111.08131	7347.5125
2114.0669	7329.4125
2117.05057	7342.8125
2120.03233	7337.9125
2123.01216	7359.8125
2125.99008	7346.6125
2128.96609	7337.6125
2131.94018	7333.0125
2134.91236	7339.8125
2137.88263	7340.2125
2140.851	7350.8125
2143.81746	7351.2125
2146.78201	7369.1125
2149.74466	7339.8125
2152.7054	7349.6125
2155.66425	7317.9125
2158.6212	7334.2125
2161.57625	7311.7125
2164.52941	7316.4125
2167.48067	7310.5125
2170.43004	7319.5125
2173.37752	7327.8125
2176.32311	7324.0125
2179.26681	7307.2125
2182.20863	7296.1125
2185.14856	7324.8125
2188.08661	7304.1125
2191.02278	7304.5125
2193.95707	7300.3125
2196.88948	7259.1125
2199.82001	7280.8125
2202.74867	7273.3125
2205.67545	7256.6125
2208.60037	7242.3125
2211.52341	7231.8125
2214.44458	7221.0125
2217.36388	7219.4125
2220.28132	7189.8125
2223.1969	7185.3125
2226.11061	7176.1125
2229.02246	7164.6125
2231.93245	7152.6125
2234.84058	7145.4125
2237.74686	7121.1125
2240.65128	7122.3125
2243.55385	7086.8125
2246.45456	7100.2125
2249.35343	7080.2125
2252.25044	7065.4125
2255.14561	7061.0125
2258.03893	7074.2125
2260.93041	7053.8125
2263.82004	7013.9125
2266.70783	7024.0125
2269.59378	6982.0125
2272.4779	6957.6125
2275.36017	6949.2125
2278.24061	6931.5125
2281.11922	6914.0125
2283.996	6894.5125
2286.87094	6909.1125
2289.74405	6877.3125
2292.61534	6880.3125
2295.4848	6857.1125
2298.35243	6856.8125
2301.21824	6855.0125
2304.08223	6850.8125
2306.94439	6821.9125
2309.80474	6824.6125
2312.66327	6847.4125
2315.51999	6841.2125
2318.37489	6833.2125
2321.22797	6817.0125
2324.07925	6812.3125
2326.92871	6818.0125
2329.77637	6791.0125
2332.62222	6798.6125
2335.46626	6776.3125
2338.3085	6777.2125
2341.14893	6784.8125
2343.98756	6774.6125
2346.8244	6789.1125
2349.65943	6787.9125
2352.49267	6784.0125
2355.32411	6776.6125
2358.15376	6813.0125
2360.98161	6790.8125
2363.80768	6789.9125
2366.63195	6790.6125
2369.45444	6780.1125
2372.27514	6781.7125
2375.09405	6755.0125
2377.91118	6739.8125
2380.72652	6733.8125
2383.54009	6715.5125
2386.35187	6677.9125
2389.16188	6659.7125
2391.97011	6639.7125
2394.77657	6633.3125
2397.58125	6616.2125
2400.38416	6598.7125
2403.18529	6588.9125
2405.98466	6587.3125
2408.78226	6558.8125
2411.57809	6530.2125
2414.37216	6534.1125
2417.16446	6525.0125
2419.955	6516.5125
2422.74378	6507.8125
2425.5308	6494.4125
2428.31606	6490.8125
2431.09956	6470.3125
2433.88131	6478.3125
2436.6613	6455.5125
2439.43954	6459.7125
2442.21603	6464.8125
2444.99077	6470.6125
2447.76377	6480.2125
2450.53501	6474.2125
2453.30451	6464.4125
2456.07226	6465.7125
2458.83827	6453.8125
2461.60254	6438.9125
2464.36507	6463.1125
2467.12586	6449.4125
2469.88492	6434.3125
2472.64224	6466.3125
2475.39782	6465.6125
2478.15167	6471.3125
2480.90379	6468.5125
2483.65417	6478.1125
2486.40283	6473.5125
2489.14976	6506.5125
2491.89497	6504.5125
2494.63845	6523.7125
2497.3802	6531.3125
2500.12024	6504.7125
2502.85855	6498.0125
2505.59514	6480.9125
2508.33002	6463.8125
2511.06318	6453.4125
2513.79462	6424.5125
2516.52435	6412.7125
2519.25237	6415.9125
2521.97867	6376.3125
2524.70327	6382.3125
2527.42616	6353.0125
2530.14734	6362.7125
2532.86681	6344.0125
2535.58458	6344.5125
2538.30065	6331.7125
2541.01501	6337.4125
2543.72768	6323.4125
2546.43864	6332.4125
2549.14791	6318.0125
2551.85548	6316.3125
2554.56136	6319.8125
2557.26554	6311.7125
2559.96803	6296.1125
2562.66883	6286.9125
2565.36794	6288.5125
2568.06536	6283.5125
2570.7611	6281.5125
2573.45514	6271.4125
2576.14751	6271.0125
2578.83819	6258.2125
2581.52719	6256.9125
2584.21451	6242.0125
2586.90015	6263.0125
2589.58411	6242.6125
2592.2664	6239.0125
2594.94701	6243.7125
2597.62594	6237.8125
2600.30321	6222.7125
2602.9788	6213.3125
2605.65273	6218.3125
2608.32498	6231.1125
2610.99557	6221.6125
2613.66449	6224.9125
2616.33175	6203.2125
2618.99734	6212.0125
2621.66128	6224.6125
2624.32355	6214.0125
2626.98416	6212.0125
2629.64311	6208.5125
2632.30041	6210.2125
2634.95605	6207.6125
2637.61004	6196.0125
2640.26238	6196.4125
2642.91306	6168.1125
2645.56209	6152.8125
2648.20948	6150.1125
2650.85521	6156.8125
2653.4993	6162.3125
2656.14175	6152.2125
2658.78255	6153.8125
2661.42171	6163.3125
2664.05923	6163.7125
2666.6951	6180.3125
2669.32934	6177.0125
2671.96194	6182.1125
2674.59291	6199.4125
2677.22224	6178.6125
2679.84993	6202.7125
2682.476	6177.9125
2685.10043	6171.2125
2687.72324	6169.5125
2690.34441	6172.3125
2692.96396	6158.2125
2695.58188	6159.3125
2698.19818	6173.7125
2700.81285	6163.8125
2703.4259	6200.7125
2706.03733	6221.9125
2708.64714	6205.1125
2711.25533	6209.7125
2713.86191	6202.7125
2716.46687	6207.0125
2719.07021	6217.0125
2721.67194	6214.6125
2724.27206	6201.1125
2726.87057	6194.2125
2729.46747	6204.4125
2732.06276	6202.4125
2734.65644	6200.8125
2737.24852	6173.1125
2739.83899	6167.7125
2742.42786	6172.8125
2745.01513	6171.8125
2747.60079	6162.4125
2750.18486	6147.5125
2752.76733	6129.9125
2755.3482	6140.0125
2757.92747	6164.9125
2760.50515	6130.9125
2763.08123	6132.6125
2765.65573	6138.9125
2768.22863	6143.5125
2770.79994	6129.5125
2773.36967	6138.6125
2775.9378	6140.7125
2778.50435	6140.2125
2781.06932	6140.6125
2783.6327	6141.9125
2786.1945	6142.2125
2788.75471	6159.1125
2791.31335	6134.8125
2793.87041	6115.8125
2796.42589	6104.9125
2798.97979	6130.4125
2801.53212	6120.8125
2804.08288	6134.5125
2806.63206	6119.8125
2809.17967	6112.4125
2811.72571	6078.4125
2814.27018	6127.5125
2816.81308	6115.0125
2819.35442	6090.8125
2821.89419	6097.6125
2824.43239	6124.0125
2826.96904	6123.5125
2829.50412	6147.0125
2832.03763	6113.6125
2834.56959	6113.8125
2837.1	6106.2125
2839.62884	6122.6125
2842.15613	6140.2125
2844.68186	6180.1125
2847.20604	6255.0125
2849.72867	6254.7125
2852.24974	6266.3125
2854.76927	6247.2125
2857.28724	6275.5125
2859.80367	6243.9125
2862.31855	6231.4125
2864.83189	6213.1125
2867.34368	6184.4125
2869.85393	6208.4125
2872.36264	6190.4125
2874.8698	6176.8125
2877.37543	6170.1125
2879.87952	6175.4125
2882.38207	6159.5125
2884.88308	6170.1125
2887.38256	6185.8125
2889.88051	6168.1125
2892.37692	6169.6125
2894.8718	6166.0125
2897.36515	6181.3125
2899.85698	6175.2125
2902.34727	6193.7125
2904.83604	6197.8125
2907.32328	6198.1125
2909.809	6182.3125
2912.29319	6214.8125
2914.77587	6182.6125
2917.25702	6186.8125
2919.73665	6178.9125
2922.21476	6166.0125
2924.69136	6163.9125
2927.16644	6148.1125
2929.64	6164.5125
2932.11205	6134.0125
2934.58258	6092.6125
2937.05161	6087.3125
2939.51912	6077.8125
2941.98513	6057.7125
2944.44962	6022.1125
2946.91261	5985.9125
2949.37409	5975.4125
2951.83407	5957.8125
2954.29254	5927.5125
2956.74951	5918.9125
2959.20498	5891.7125
2961.65895	5883.2125
2964.11142	5875.2125
2966.56239	5824.5125
2969.01186	5812.9125
2971.45984	5802.0125
2973.90632	5778.5125
2976.35131	5748.9125
2978.7948	5733.8125
2981.23681	5725.0125
2983.67732	5706.2125
2986.11635	5670.6125
2988.55388	5676.4125
2990.98993	5659.2125
2993.4245	5646.4125
2995.85758	5635.2125
2998.28917	5608.0125
3000.71928	5579.3125
3003.14791	5595.4125
3005.57506	5584.6125
3008.00073	5573.1125
3010.42493	5561.9125
3012.84764	5557.8125
3015.26888	5532.6125
3017.68865	5527.9125
3020.10694	5511.2125
3022.52376	5498.8125
3024.9391	5494.2125
3027.35298	5468.2125
3029.76539	5467.5125
3032.17632	5447.4125
3034.5858	5459.9125
3036.9938	5435.4125
3039.40034	5415.0125
3041.80542	5436.3125
3044.20903	5411.3125
3046.61118	5417.0125
3049.01187	5385.9125
3051.4111	5398.9125
3053.80888	5370.4125
3056.20519	5361.7125
3058.60005	5326.1125
3060.99345	5339.7125
3063.3854	5318.5125
3065.7759	5301.6125
3068.16494	5284.1125
3070.55254	5282.1125
3072.93868	5264.8125
3075.32338	5237.4125
3077.70662	5216.4125
3080.08842	5208.1125
