Data from AgNPs_FTO_APTES_UA_5um_CRN_0.1mM_R6G_10uM_NaF_0.1M_Addition_RamanShift__8__13-06-19-088.txt Node

Date: Tue Dec 21 13:06:19 GMT 2021
User: TCL
Spectrometer: QEP01345
Trigger mode: 4
Integration Time (sec): 7.000000E0
Scans to average: 10
Electric dark correction enabled: true
Nonlinearity correction enabled: false
Boxcar width: 0
XAxis mode: Raman Shifts
Number of Pixels in Spectrum: 1044
>>>>>Begin Spectral Data<<<<<
46.04893	-0.2625
50.45542	-1.2625
54.85868	-0.7625
59.25871	-0.0625
63.6555	41.0375
68.04907	48.2375
72.43941	47.7375
76.82654	50.7375
81.21044	54.2375
85.59113	55.3375
89.96862	56.7375
94.34289	59.2375
98.71396	56.7375
103.08183	63.3375
107.4465	63.5375
111.80798	66.9375
116.16626	67.4375
120.52136	67.8375
124.87327	71.9375
129.222	69.8375
133.56755	77.3375
137.90993	89.2375
142.24913	89.8375
146.58517	102.0375
150.91804	121.4375
155.24774	143.2375
159.57429	174.4375
163.89768	228.3375
168.21792	288.9375
172.53501	393.4375
176.84895	545.8375
181.15975	772.8375
185.46741	1066.2375
189.77193	1469.7375
194.07331	1986.0375
198.37157	2550.1375
202.6667	3155.3375
206.9587	3783.3375
211.24758	4393.6375
215.53334	4995.3375
219.81599	5637.3375
224.09553	6340.5375
228.37195	7114.9375
232.64527	7977.3375
236.91549	8861.6375
241.18261	9756.9375
245.44663	10575.1375
249.70755	11277.2375
253.96539	11861.2375
258.22014	12360.4375
262.4718	12768.5375
266.72039	12999.5375
270.96589	13086.3375
275.20832	13064.6375
279.44768	12942.5375
283.68397	12816.7375
287.91719	12719.0375
292.14735	12682.2375
296.37445	12666.0375
300.59849	12673.3375
304.81948	12756.1375
309.03742	12796.2375
313.25231	12734.4375
317.46415	12512.2375
321.67296	12186.9375
325.87872	11862.8375
330.08145	11657.5375
334.28114	11619.3375
338.47781	11634.8375
342.67145	11754.9375
346.86207	11906.6375
351.04966	12094.4375
355.23424	12284.0375
359.4158	12462.8375
363.59435	12573.7375
367.76989	12650.7375
371.94243	12648.0375
376.11196	12669.9375
380.27849	12690.6375
384.44203	12737.0375
388.60257	12885.6375
392.76012	13090.5375
396.91468	13328.0375
401.06626	13589.2375
405.21485	13784.0375
409.36047	13719.1375
413.50311	13524.9375
417.64277	13368.2375
421.77947	13382.9375
425.9132	13428.7375
430.04396	13488.3375
434.17176	13522.9375
438.2966	13577.4375
442.41849	13732.6375
446.53742	14064.9375
450.6534	14446.2375
454.76644	14720.8375
458.87653	14784.7375
462.98368	14695.3375
467.08789	14570.6375
471.18916	14460.1375
475.2875	14284.3375
479.38291	14215.7375
483.4754	14174.1375
487.56496	14053.5375
491.6516	13821.5375
495.73531	13594.6375
499.81612	13449.0375
503.89401	13476.5375
507.96899	13472.8375
512.04106	13421.6375
516.11023	13274.7375
520.1765	13077.9375
524.23987	12950.4375
528.30034	12852.4375
532.35792	12764.7375
536.41261	12605.8375
540.46441	12467.6375
544.51333	12425.3375
548.55936	12568.9375
552.60252	12832.6375
556.64279	13178.5375
560.6802	13434.2375
564.71473	13589.5375
568.7464	13853.4375
572.7752	14369.2375
576.80114	14922.1375
580.82422	15501.8375
584.84444	16212.3375
588.86181	17039.5375
592.87633	17692.7375
596.888	17558.3375
600.89682	16628.3375
604.9028	16118.9375
608.90594	16837.4375
612.90624	17730.4375
616.90371	16527.7375
620.89834	13846.4375
624.89015	12601.8375
628.87913	12476.8375
632.86528	12687.3375
636.84862	12759.2375
640.82913	12542.0375
644.80683	12219.9375
648.78172	11962.5375
652.75379	11968.4375
656.72306	12023.6375
660.68952	12131.7375
664.65319	12099.0375
668.61405	11938.8375
672.57211	11918.3375
676.52738	12061.8375
680.47986	12088.8375
684.42955	12021.8375
688.37646	11895.5375
692.32058	11876.2375
696.26192	11976.1375
700.20048	12138.3375
704.13626	12272.2375
708.06928	12314.5375
711.99952	12305.3375
715.927	12289.8375
719.85171	12282.8375
723.77365	12205.2375
727.69284	12035.3375
731.60928	11883.5375
735.52295	11825.4375
739.43388	11791.4375
743.34206	11822.2375
747.24749	11897.3375
751.15017	12030.5375
755.05012	12234.0375
758.94733	12622.0375
762.8418	13310.5375
766.73354	14362.4375
770.62254	15390.9375
774.50882	15553.6375
778.39237	14791.3375
782.27321	13681.1375
786.15132	12718.2375
790.02671	12116.1375
793.89938	11792.6375
797.76935	11648.9375
801.6366	11613.1375
805.50115	11593.4375
809.36299	11533.1375
813.22213	11413.6375
817.07857	11336.5375
820.93231	11257.1375
824.78336	11177.1375
828.63172	11099.6375
832.47738	11066.8375
836.32036	11051.5375
840.16066	11019.8375
843.99827	11001.5375
847.8332	10959.9375
851.66546	10938.3375
855.49504	10958.4375
859.32195	10972.3375
863.1462	10924.3375
866.96777	10902.1375
870.78668	10882.1375
874.60293	10912.7375
878.41652	10921.8375
882.22745	10945.3375
886.03573	10984.6375
889.84136	11027.5375
893.64433	10989.1375
897.44466	10943.6375
901.24235	10877.0375
905.0374	10801.7375
908.8298	10729.6375
912.61957	10739.6375
916.40671	10836.0375
920.19121	11012.7375
923.97308	11180.5375
927.75233	11233.1375
931.52895	11145.8375
935.30295	10889.9375
939.07433	10620.1375
942.84309	10433.3375
946.60924	10306.5375
950.37278	10257.6375
954.13371	10244.6375
957.89203	10234.8375
961.64774	10238.1375
965.40086	10257.9375
969.15137	10211.4375
972.89929	10131.1375
976.64461	10068.8375
980.38733	10015.6375
984.12747	10017.8375
987.86502	10040.7375
991.59999	10095.8375
995.33237	10190.6375
999.06217	10400.8375
1002.78939	10617.9375
1006.51404	10896.1375
1010.23611	11130.3375
1013.95561	11286.1375
1017.67255	11349.4375
1021.38692	11257.4375
1025.09872	11033.8375
1028.80796	10843.1375
1032.51465	10775.4375
1036.21877	10816.5375
1039.92035	10937.4375
1043.61937	11003.1375
1047.31584	11046.7375
1051.00976	11048.7375
1054.70114	11068.0375
1058.38998	11090.0375
1062.07627	11184.4375
1065.76003	11360.3375
1069.44126	11572.2375
1073.11995	11829.9375
1076.79611	12025.3375
1080.46974	12125.0375
1084.14085	12152.1375
1087.80943	12232.5375
1091.47549	12397.3375
1095.13903	12485.9375
1098.80005	12315.8375
1102.45857	11911.8375
1106.11456	11538.1375
1109.76805	11308.1375
1113.41903	11279.7375
1117.06751	11334.9375
1120.71348	11487.4375
1124.35696	11689.2375
1127.99793	11900.9375
1131.63641	12050.5375
1135.2724	12068.5375
1138.90589	12027.6375
1142.5369	12057.5375
1146.16542	12153.9375
1149.79145	12269.6375
1153.415	12430.6375
1157.03607	12594.5375
1160.65467	12969.6375
1164.27079	13661.0375
1167.88443	14556.2375
1171.49561	15522.6375
1175.10432	16748.0375
1178.71056	18141.8375
1182.31434	19432.6375
1185.91565	20062.6375
1189.51451	19958.2375
1193.11091	19327.5375
1196.70485	18483.7375
1200.29634	17621.1375
1203.88538	16936.2375
1207.47197	16599.6375
1211.05612	16330.5375
1214.63782	16005.4375
1218.21708	15503.5375
1221.79391	15050.1375
1225.36829	14736.4375
1228.94024	14581.2375
1232.50976	14442.4375
1236.07685	14201.1375
1239.6415	13990.2375
1243.20374	13954.5375
1246.76355	13989.7375
1250.32093	14215.5375
1253.8759	14523.8375
1257.42845	15029.8375
1260.97859	15563.9375
1264.52631	16108.4375
1268.07163	16639.7375
1271.61453	17133.2375
1275.15503	17691.4375
1278.69312	18309.2375
1282.22882	19043.8375
1285.76211	19973.8375
1289.29301	20926.0375
1292.82151	22107.5375
1296.34761	23319.7375
1299.87133	24670.2375
1303.39266	26009.7375
1306.9116	27134.2375
1310.42815	28053.7375
1313.94233	28491.7375
1317.45412	28270.5375
1320.96354	27655.5375
1324.47058	27111.2375
1327.97525	26795.3375
1331.47754	26512.7375
1334.97747	26247.1375
1338.47502	25873.3375
1341.97022	25442.9375
1345.46305	24981.2375
1348.95352	24636.8375
1352.44163	24706.8375
1355.92738	25327.0375
1359.41078	26495.3375
1362.89183	27569.3375
1366.37053	27562.2375
1369.84688	25783.4375
1373.32088	23021.2375
1376.79254	20789.9375
1380.26186	19802.2375
1383.72883	19550.4375
1387.19347	19381.9375
1390.65578	19118.6375
1394.11575	19026.8375
1397.57339	19217.0375
1401.0287	19496.5375
1404.48168	19731.2375
1407.93234	19584.8375
1411.38068	19058.7375
1414.82669	18259.0375
1418.27039	17464.0375
1421.71177	16655.3375
1425.15083	16027.6375
1428.58758	15746.8375
1432.02203	15863.7375
1435.45416	16231.1375
1438.88399	16744.2375
1442.31151	17093.2375
1445.73673	17340.3375
1449.15965	17618.8375
1452.58027	17733.0375
1455.9986	17790.2375
1459.41463	17914.0375
1462.82837	18211.6375
1466.23982	18654.0375
1469.64898	18986.0375
1473.05586	19205.8375
1476.46045	19237.7375
1479.86276	19214.5375
1483.26279	19132.1375
1486.66054	19179.0375
1490.05602	19403.0375
1493.44922	19801.2375
1496.84016	20201.9375
1500.22882	20754.7375
1503.61521	21379.1375
1506.99934	22080.0375
1510.38121	22548.9375
1513.76081	22496.2375
1517.13816	21959.6375
1520.51324	21242.8375
1523.88607	20703.4375
1527.25665	20419.9375
1530.62498	20346.6375
1533.99105	20094.5375
1537.35488	19695.1375
1540.71647	19054.1375
1544.07581	18327.5375
1547.4329	17634.8375
1550.78776	17008.6375
1554.14038	16609.0375
1557.49077	16446.4375
1560.83892	16436.4375
1564.18484	16515.3375
1567.52853	16662.8375
1570.86999	16891.6375
1574.20922	17244.0375
1577.54624	17546.4375
1580.88103	17662.7375
1584.2136	17728.2375
1587.54395	18165.5375
1590.87208	18959.5375
1594.19801	20054.4375
1597.52172	21187.1375
1600.84321	21480.7375
1604.16251	20454.6375
1607.47959	18710.5375
1610.79447	16829.0375
1614.10715	15155.3375
1617.41763	13898.1375
1620.7259	13038.2375
1624.03199	12628.7375
1627.33587	12595.9375
1630.63757	12978.2375
1633.93707	13919.2375
1637.23439	15557.4375
1640.52951	18056.6375
1643.82246	21184.1375
1647.11321	23920.1375
1650.40179	24738.4375
1653.68819	23125.7375
1656.97241	19827.1375
1660.25446	16452.1375
1663.53433	13899.4375
1666.81203	12198.6375
1670.08756	11159.8375
1673.36092	10524.5375
1676.63211	10119.7375
1679.90115	9813.9375
1683.16801	9615.4375
1686.43272	9456.7375
1689.69527	9311.2375
1692.95567	9231.7375
1696.2139	9176.3375
1699.46999	9128.2375
1702.72392	9089.0375
1705.97571	9030.7375
1709.22535	8973.2375
1712.47284	8950.6375
1715.71819	8890.8375
1718.96139	8892.6375
1722.20246	8835.9375
1725.44139	8785.4375
1728.67818	8717.7375
1731.91284	8671.0375
1735.14537	8622.5375
1738.37576	8588.8375
1741.60403	8533.9375
1744.83017	8491.6375
1748.05418	8488.6375
1751.27607	8490.8375
1754.49584	8514.1375
1757.71349	8518.7375
1760.92903	8519.9375
1764.14244	8483.5375
1767.35375	8447.2375
1770.56294	8413.3375
1773.77002	8346.3375
1776.97499	8309.1375
1780.17785	8275.5375
1783.37861	8261.1375
1786.57727	8223.7375
1789.77382	8189.1375
1792.96828	8156.7375
1796.16064	8131.2375
1799.3509	8111.4375
1802.53907	8090.9375
1805.72514	8067.3375
1808.90913	8049.9375
1812.09102	8015.1375
1815.27083	7977.6375
1818.44856	7971.2375
1821.6242	7970.9375
1824.79776	7979.4375
1827.96924	7954.7375
1831.13864	7948.2375
1834.30597	7937.5375
1837.47122	7963.5375
1840.6344	7951.8375
1843.7955	7946.3375
1846.95454	7923.4375
1850.11151	7924.3375
1853.26642	7919.0375
1856.41926	7923.6375
1859.57004	7912.7375
1862.71876	7901.2375
1865.86542	7902.3375
1869.01003	7876.4375
1872.15258	7858.8375
1875.29308	7849.5375
1878.43152	7823.9375
1881.56792	7812.5375
1884.70227	7800.8375
1887.83457	7778.7375
1890.96482	7782.9375
1894.09304	7766.3375
1897.21921	7752.3375
1900.34335	7741.8375
1903.46544	7727.6375
1906.58551	7723.5375
1909.70353	7701.7375
1912.81953	7680.2375
1915.93349	7654.6375
1919.04543	7642.1375
1922.15534	7609.7375
1925.26322	7602.8375
1928.36908	7571.6375
1931.47292	7556.1375
1934.57473	7532.5375
1937.67453	7495.0375
1940.77232	7476.0375
1943.86808	7457.0375
1946.96184	7445.2375
1950.05358	7411.9375
1953.14331	7401.7375
1956.23103	7381.4375
1959.31675	7353.9375
1962.40046	7328.8375
1965.48217	7304.4375
1968.56188	7287.5375
1971.63959	7251.8375
1974.7153	7229.0375
1977.78901	7200.2375
1980.86073	7169.1375
1983.93046	7146.4375
1986.99819	7133.1375
1990.06394	7113.1375
1993.1277	7073.8375
1996.18947	7066.4375
1999.24925	7039.0375
2002.30706	7021.9375
2005.36288	6975.4375
2008.41672	6973.7375
2011.46859	6950.5375
2014.51848	6933.8375
2017.56639	6909.0375
2020.61233	6882.8375
2023.6563	6894.1375
2026.6983	6872.4375
2029.73833	6837.2375
2032.7764	6836.2375
2035.8125	6812.5375
2038.84664	6794.7375
2041.87881	6777.5375
2044.90903	6776.1375
2047.93729	6756.2375
2050.96359	6752.9375
2053.98794	6757.6375
2057.01034	6720.9375
2060.03078	6726.7375
2063.04927	6703.6375
2066.06582	6714.1375
2069.08042	6691.3375
2072.09307	6697.1375
2075.10378	6686.8375
2078.11255	6695.3375
2081.11938	6693.6375
2084.12426	6673.4375
2087.12722	6681.5375
2090.12824	6675.7375
2093.12732	6665.2375
2096.12447	6671.9375
2099.11969	6668.7375
2102.11299	6654.5375
2105.10435	6655.5375
2108.09379	6649.6375
2111.08131	6657.5375
2114.0669	6654.6375
2117.05057	6639.7375
2120.03233	6669.0375
2123.01216	6684.5375
2125.99008	6667.2375
2128.96609	6673.5375
2131.94018	6678.6375
2134.91236	6669.4375
2137.88263	6685.7375
2140.851	6678.5375
2143.81746	6671.5375
2146.78201	6653.1375
2149.74466	6649.2375
2152.7054	6644.3375
2155.66425	6637.9375
2158.6212	6645.5375
2161.57625	6624.2375
2164.52941	6642.7375
2167.48067	6620.2375
2170.43004	6620.6375
2173.37752	6622.0375
2176.32311	6632.5375
2179.26681	6624.5375
2182.20863	6614.9375
2185.14856	6604.6375
2188.08661	6615.4375
2191.02278	6596.8375
2193.95707	6604.9375
2196.88948	6580.2375
2199.82001	6597.3375
2202.74867	6572.2375
2205.67545	6583.2375
2208.60037	6550.9375
2211.52341	6554.6375
2214.44458	6545.0375
2217.36388	6518.7375
2220.28132	6516.0375
2223.1969	6471.8375
2226.11061	6487.2375
2229.02246	6486.6375
2231.93245	6480.9375
2234.84058	6459.8375
2237.74686	6462.6375
2240.65128	6454.0375
2243.55385	6431.0375
2246.45456	6439.2375
2249.35343	6406.1375
2252.25044	6392.0375
2255.14561	6368.3375
2258.03893	6378.7375
2260.93041	6392.5375
2263.82004	6338.6375
2266.70783	6325.6375
2269.59378	6303.5375
2272.4779	6272.2375
2275.36017	6270.7375
2278.24061	6236.7375
2281.11922	6207.8375
2283.996	6238.5375
2286.87094	6217.3375
2289.74405	6200.2375
2292.61534	6196.4375
2295.4848	6193.3375
2298.35243	6172.1375
2301.21824	6179.2375
2304.08223	6164.6375
2306.94439	6163.7375
2309.80474	6160.0375
2312.66327	6153.0375
2315.51999	6142.7375
2318.37489	6155.2375
2321.22797	6138.5375
2324.07925	6126.9375
2326.92871	6114.3375
2329.77637	6115.0375
2332.62222	6114.7375
2335.46626	6095.5375
2338.3085	6084.9375
2341.14893	6090.6375
2343.98756	6096.7375
2346.8244	6079.0375
2349.65943	6088.1375
2352.49267	6083.5375
2355.32411	6087.4375
2358.15376	6068.8375
2360.98161	6087.0375
2363.80768	6072.2375
2366.63195	6058.2375
2369.45444	6070.1375
2372.27514	6058.8375
2375.09405	6031.1375
2377.91118	6020.8375
2380.72652	6018.6375
2383.54009	5990.3375
2386.35187	5984.2375
2389.16188	5964.9375
2391.97011	5964.9375
2394.77657	5952.8375
2397.58125	5934.6375
2400.38416	5924.0375
2403.18529	5921.6375
2405.98466	5909.9375
2408.78226	5897.6375
2411.57809	5886.6375
2414.37216	5862.3375
2417.16446	5869.4375
2419.955	5860.9375
2422.74378	5872.5375
2425.5308	5855.3375
2428.31606	5858.7375
2431.09956	5859.8375
2433.88131	5848.9375
2436.6613	5859.0375
2439.43954	5840.1375
2442.21603	5818.7375
2444.99077	5808.4375
2447.76377	5830.2375
2450.53501	5832.5375
2453.30451	5824.1375
2456.07226	5830.6375
2458.83827	5840.2375
2461.60254	5820.6375
2464.36507	5816.3375
2467.12586	5812.9375
2469.88492	5795.8375
2472.64224	5810.6375
2475.39782	5834.2375
2478.15167	5822.3375
2480.90379	5809.8375
2483.65417	5808.1375
2486.40283	5809.6375
2489.14976	5809.3375
2491.89497	5806.4375
2494.63845	5816.6375
2497.3802	5817.2375
2500.12024	5808.1375
2502.85855	5788.0375
2505.59514	5769.4375
2508.33002	5785.0375
2511.06318	5782.2375
2513.79462	5754.1375
2516.52435	5768.8375
2519.25237	5757.0375
2521.97867	5733.5375
2524.70327	5734.0375
2527.42616	5735.3375
2530.14734	5725.9375
2532.86681	5720.3375
2535.58458	5710.4375
2538.30065	5701.2375
2541.01501	5701.2375
2543.72768	5704.7375
2546.43864	5674.2375
2549.14791	5682.0375
2551.85548	5676.6375
2554.56136	5657.1375
2557.26554	5666.6375
2559.96803	5648.7375
2562.66883	5657.7375
2565.36794	5662.4375
2568.06536	5662.1375
2570.7611	5642.8375
2573.45514	5619.3375
2576.14751	5639.3375
2578.83819	5633.5375
2581.52719	5638.5375
2584.21451	5606.4375
2586.90015	5600.9375
2589.58411	5595.3375
2592.2664	5586.4375
2594.94701	5605.3375
2597.62594	5591.6375
2600.30321	5580.1375
2602.9788	5574.3375
2605.65273	5570.4375
2608.32498	5551.3375
2610.99557	5575.5375
2613.66449	5562.5375
2616.33175	5550.7375
2618.99734	5549.4375
2621.66128	5540.6375
2624.32355	5529.3375
2626.98416	5541.2375
2629.64311	5518.4375
2632.30041	5532.0375
2634.95605	5527.3375
2637.61004	5510.2375
2640.26238	5519.5375
2642.91306	5524.8375
2645.56209	5499.9375
2648.20948	5520.8375
2650.85521	5492.6375
2653.4993	5499.9375
2656.14175	5490.0375
2658.78255	5516.1375
2661.42171	5514.1375
2664.05923	5510.9375
2666.6951	5519.2375
2669.32934	5509.5375
2671.96194	5527.1375
2674.59291	5518.1375
2677.22224	5512.9375
2679.84993	5511.5375
2682.476	5508.7375
2685.10043	5532.7375
2687.72324	5500.3375
2690.34441	5504.7375
2692.96396	5515.5375
2695.58188	5497.9375
2698.19818	5500.8375
2700.81285	5494.8375
2703.4259	5519.8375
2706.03733	5575.3375
2708.64714	5523.6375
2711.25533	5524.8375
2713.86191	5518.1375
2716.46687	5512.7375
2719.07021	5520.2375
2721.67194	5514.6375
2724.27206	5520.5375
2726.87057	5523.1375
2729.46747	5522.1375
2732.06276	5524.1375
2734.65644	5525.3375
2737.24852	5511.2375
2739.83899	5528.0375
2742.42786	5516.4375
2745.01513	5521.1375
2747.60079	5502.4375
2750.18486	5502.7375
2752.76733	5496.9375
2755.3482	5486.2375
2757.92747	5493.2375
2760.50515	5488.2375
2763.08123	5492.2375
2765.65573	5486.6375
2768.22863	5492.6375
2770.79994	5473.5375
2773.36967	5485.2375
2775.9378	5475.5375
2778.50435	5463.3375
2781.06932	5469.5375
2783.6327	5458.0375
2786.1945	5442.2375
2788.75471	5446.3375
2791.31335	5435.9375
2793.87041	5435.0375
2796.42589	5410.4375
2798.97979	5428.2375
2801.53212	5421.4375
2804.08288	5415.2375
2806.63206	5395.4375
2809.17967	5384.9375
2811.72571	5383.7375
2814.27018	5377.7375
2816.81308	5352.5375
2819.35442	5359.4375
2821.89419	5360.4375
2824.43239	5358.9375
2826.96904	5358.9375
2829.50412	5360.3375
2832.03763	5348.1375
2834.56959	5340.9375
2837.1	5348.8375
2839.62884	5348.0375
2842.15613	5358.5375
2844.68186	5372.2375
2847.20604	5383.5375
2849.72867	5391.2375
2852.24974	5378.0375
2854.76927	5405.7375
2857.28724	5388.8375
2859.80367	5370.0375
2862.31855	5363.4375
2864.83189	5346.8375
2867.34368	5357.5375
2869.85393	5353.1375
2872.36264	5320.3375
2874.8698	5313.0375
2877.37543	5325.8375
2879.87952	5325.5375
2882.38207	5332.8375
2884.88308	5309.0375
2887.38256	5324.1375
2889.88051	5330.3375
2892.37692	5333.7375
2894.8718	5327.2375
2897.36515	5338.0375
2899.85698	5337.1375
2902.34727	5337.0375
2904.83604	5343.0375
2907.32328	5351.6375
2909.809	5351.5375
2912.29319	5369.1375
2914.77587	5384.2375
2917.25702	5376.1375
2919.73665	5385.0375
2922.21476	5370.0375
2924.69136	5374.8375
2927.16644	5389.8375
2929.64	5381.5375
2932.11205	5367.6375
2934.58258	5353.7375
2937.05161	5392.9375
2939.51912	5359.4375
2941.98513	5354.5375
2944.44962	5345.6375
2946.91261	5320.6375
2949.37409	5331.8375
2951.83407	5303.0375
2954.29254	5293.7375
2956.74951	5285.3375
2959.20498	5274.5375
2961.65895	5251.7375
2964.11142	5243.2375
2966.56239	5207.2375
2969.01186	5221.5375
2971.45984	5186.6375
2973.90632	5175.3375
2976.35131	5151.2375
2978.7948	5149.9375
2981.23681	5138.5375
2983.67732	5137.0375
2986.11635	5113.5375
2988.55388	5086.5375
2990.98993	5071.3375
2993.4245	5067.2375
2995.85758	5054.7375
2998.28917	5034.5375
3000.71928	5047.4375
3003.14791	5014.2375
3005.57506	5018.3375
3008.00073	5010.1375
3010.42493	5009.9375
3012.84764	4985.1375
3015.26888	4995.8375
3017.68865	4973.8375
3020.10694	4970.9375
3022.52376	4945.4375
3024.9391	4940.3375
3027.35298	4942.3375
3029.76539	4937.2375
3032.17632	4918.9375
3034.5858	4899.1375
3036.9938	4900.2375
3039.40034	4889.6375
3041.80542	4880.9375
3044.20903	4885.0375
3046.61118	4868.9375
3049.01187	4849.2375
3051.4111	4839.2375
3053.80888	4852.6375
3056.20519	4839.4375
3058.60005	4831.1375
3060.99345	4826.5375
3063.3854	4822.5375
3065.7759	4782.6375
3068.16494	4781.0375
3070.55254	4776.6375
3072.93868	4762.3375
3075.32338	4746.1375
3077.70662	4735.4375
3080.08842	4719.4375
