Data from AgNPs_FTO_APTES_UA_0um_CRN_0.1mM_R6G_10uM_NaF_0.1M_Addition_RamanShift__26__10-41-38-923.txt Node

Date: Tue Dec 21 10:41:38 GMT 2021
User: TCL
Spectrometer: QEP01345
Trigger mode: 4
Integration Time (sec): 7.000000E0
Scans to average: 10
Electric dark correction enabled: true
Nonlinearity correction enabled: false
Boxcar width: 0
XAxis mode: Raman Shifts
Number of Pixels in Spectrum: 1044
>>>>>Begin Spectral Data<<<<<
46.04893	-0.25
50.45542	-2.15
54.85868	-0.15
59.25871	0.65
63.6555	19.45
68.04907	25.35
72.43941	24.65
76.82654	24.05
81.21044	31.65
85.59113	28.95
89.96862	29.95
94.34289	31.15
98.71396	27.75
103.08183	33.15
107.4465	35.95
111.80798	34.35
116.16626	34.75
120.52136	35.55
124.87327	34.35
129.222	35.55
133.56755	31.75
137.90993	38.35
142.24913	38.65
146.58517	37.25
150.91804	44.75
155.24774	47.05
159.57429	56.45
163.89768	71.45
168.21792	88.15
172.53501	110.35
176.84895	148.85
181.15975	211.45
185.46741	280.35
189.77193	387.55
194.07331	519.35
198.37157	676.45
202.6667	836.95
206.9587	1010.25
211.24758	1180.05
215.53334	1343.85
219.81599	1516.85
224.09553	1705.55
228.37195	1904.25
232.64527	2118.15
236.91549	2336.75
241.18261	2543.75
245.44663	2742.65
249.70755	2904.85
253.96539	3066.45
258.22014	3151.15
262.4718	3197.85
266.72039	3176.15
270.96589	3111.15
275.20832	3036.15
279.44768	2945.45
283.68397	2849.75
287.91719	2766.65
292.14735	2734.55
296.37445	2752.55
300.59849	2852.05
304.81948	2967.85
309.03742	3078.35
313.25231	3082.45
317.46415	2958.15
321.67296	2747.25
325.87872	2537.75
330.08145	2441.85
334.28114	2435.85
338.47781	2469.05
342.67145	2536.25
346.86207	2641.85
351.04966	2819.15
355.23424	2997.85
359.4158	3149.25
363.59435	3248.85
367.76989	3276.75
371.94243	3274.15
376.11196	3259.15
380.27849	3235.75
384.44203	3176.15
388.60257	3121.65
392.76012	3074.15
396.91468	3070.55
401.06626	3134.35
405.21485	3188.95
409.36047	3132.55
413.50311	2975.25
417.64277	2813.75
421.77947	2722.35
425.9132	2681.95
430.04396	2680.85
434.17176	2711.55
438.2966	2774.85
442.41849	2883.05
446.53742	3016.65
450.6534	3119.75
454.76644	3190.45
458.87653	3164.15
462.98368	3116.75
467.08789	3031.45
471.18916	2952.25
475.2875	2852.25
479.38291	2769.05
483.4754	2688.75
487.56496	2642.25
491.6516	2618.65
495.73531	2599.25
499.81612	2598.95
503.89401	2620.35
507.96899	2650.45
512.04106	2696.65
516.11023	2768.95
520.1765	2824.75
524.23987	2835.95
528.30034	2774.65
532.35792	2723.85
536.41261	2656.65
540.46441	2593.55
544.51333	2570.75
548.55936	2560.95
552.60252	2590.85
556.64279	2646.15
560.6802	2698.45
564.71473	2726.15
568.7464	2842.85
572.7752	2914.55
576.80114	2822.55
580.82422	2684.05
584.84444	2602.05
588.86181	2612.25
592.87633	2685.85
596.888	2773.05
600.89682	2864.15
604.9028	3165.55
608.90594	4040.15
612.90624	5284.15
616.90371	5305.85
620.89834	3737.55
624.89015	2862.95
628.87913	2646.75
632.86528	2626.75
636.84862	2673.35
640.82913	2677.75
644.80683	2604.25
648.78172	2550.65
652.75379	2549.65
656.72306	2665.45
660.68952	2793.85
664.65319	2770.55
668.61405	2610.25
672.57211	2548.45
676.52738	2585.95
680.47986	2627.25
684.42955	2618.25
688.37646	2577.95
692.32058	2611.85
696.26192	2665.55
700.20048	2757.65
704.13626	2790.15
708.06928	2720.55
711.99952	2601.25
715.927	2522.75
719.85171	2502.95
723.77365	2506.15
727.69284	2500.65
731.60928	2507.25
735.52295	2510.85
739.43388	2513.55
743.34206	2519.85
747.24749	2504.35
751.15017	2511.75
755.05012	2552.95
758.94733	2659.05
762.8418	2884.25
766.73354	3310.15
770.62254	3809.85
774.50882	4171.45
778.39237	4129.45
782.27321	3600.15
786.15132	3027.05
790.02671	2678.05
793.89938	2550.05
797.76935	2483.45
801.6366	2462.55
805.50115	2439.05
809.36299	2436.45
813.22213	2401.55
817.07857	2405.75
820.93231	2402.35
824.78336	2385.85
828.63172	2398.55
832.47738	2418.15
836.32036	2400.75
840.16066	2399.45
843.99827	2392.55
847.8332	2391.35
851.66546	2418.65
855.49504	2485.05
859.32195	2525.75
863.1462	2549.35
866.96777	2511.05
870.78668	2443.75
874.60293	2391.95
878.41652	2353.65
882.22745	2337.65
886.03573	2350.55
889.84136	2344.95
893.64433	2333.15
897.44466	2326.05
901.24235	2325.35
905.0374	2313.45
908.8298	2304.45
912.61957	2301.75
916.40671	2349.85
920.19121	2414.85
923.97308	2492.25
927.75233	2583.35
931.52895	2642.15
935.30295	2606.05
939.07433	2497.45
942.84309	2360.85
946.60924	2259.55
950.37278	2194.95
954.13371	2142.95
957.89203	2125.55
961.64774	2100.75
965.40086	2089.95
969.15137	2083.55
972.89929	2068.95
976.64461	2051.95
980.38733	2047.35
984.12747	2061.65
987.86502	2047.45
991.59999	2061.85
995.33237	2067.85
999.06217	2092.85
1002.78939	2133.75
1006.51404	2155.15
1010.23611	2194.25
1013.95561	2228.45
1017.67255	2233.85
1021.38692	2210.65
1025.09872	2177.55
1028.80796	2153.15
1032.51465	2166.65
1036.21877	2211.85
1039.92035	2266.35
1043.61937	2311.05
1047.31584	2323.15
1051.00976	2296.85
1054.70114	2272.35
1058.38998	2226.35
1062.07627	2177.35
1065.76003	2163.35
1069.44126	2143.85
1073.11995	2150.95
1076.79611	2204.55
1080.46974	2267.25
1084.14085	2328.35
1087.80943	2380.95
1091.47549	2400.45
1095.13903	2351.35
1098.80005	2256.35
1102.45857	2181.85
1106.11456	2164.15
1109.76805	2181.95
1113.41903	2251.85
1117.06751	2361.05
1120.71348	2483.15
1124.35696	2637.15
1127.99793	2760.25
1131.63641	2758.05
1135.2724	2597.55
1138.90589	2434.55
1142.5369	2326.95
1146.16542	2263.35
1149.79145	2214.75
1153.415	2195.85
1157.03607	2219.15
1160.65467	2266.55
1164.27079	2331.35
1167.88443	2453.25
1171.49561	2654.15
1175.10432	2987.55
1178.71056	3454.15
1182.31434	3841.05
1185.91565	3942.65
1189.51451	3829.85
1193.11091	3585.05
1196.70485	3280.95
1200.29634	3046.15
1203.88538	2852.95
1207.47197	2642.85
1211.05612	2456.55
1214.63782	2360.15
1218.21708	2324.35
1221.79391	2305.45
1225.36829	2290.15
1228.94024	2261.95
1232.50976	2255.95
1236.07685	2251.95
1239.6415	2290.95
1243.20374	2349.95
1246.76355	2367.25
1250.32093	2400.95
1253.8759	2454.15
1257.42845	2561.45
1260.97859	2667.55
1264.52631	2779.25
1268.07163	2876.05
1271.61453	2947.05
1275.15503	2979.45
1278.69312	2944.25
1282.22882	2920.85
1285.76211	2954.75
1289.29301	3057.05
1292.82151	3176.85
1296.34761	3317.75
1299.87133	3474.65
1303.39266	3741.15
1306.9116	4158.55
1310.42815	4677.35
1313.94233	5001.85
1317.45412	4883.75
1320.96354	4440.05
1324.47058	3939.95
1327.97525	3505.45
1331.47754	3250.25
1334.97747	3169.25
1338.47502	3236.05
1341.97022	3359.15
1345.46305	3542.75
1348.95352	3849.05
1352.44163	4330.55
1355.92738	4963.15
1359.41078	5859.85
1362.89183	6721.85
1366.37053	6654.05
1369.84688	5662.65
1373.32088	4589.85
1376.79254	3864.75
1380.26186	3457.45
1383.72883	3235.65
1387.19347	3034.15
1390.65578	2852.25
1394.11575	2699.75
1397.57339	2631.95
1401.0287	2599.45
1404.48168	2631.15
1407.93234	2675.75
1411.38068	2735.05
1414.82669	2806.75
1418.27039	2854.25
1421.71177	2892.05
1425.15083	2909.15
1428.58758	2906.95
1432.02203	2936.05
1435.45416	2939.05
1438.88399	2932.25
1442.31151	2867.75
1445.73673	2818.75
1449.15965	2788.45
1452.58027	2725.35
1455.9986	2631.05
1459.41463	2569.15
1462.82837	2559.95
1466.23982	2598.85
1469.64898	2673.45
1473.05586	2736.95
1476.46045	2769.85
1479.86276	2829.35
1483.26279	2880.85
1486.66054	2935.45
1490.05602	2993.95
1493.44922	3079.55
1496.84016	3238.45
1500.22882	3541.65
1503.61521	4054.15
1506.99934	4699.65
1510.38121	5330.95
1513.76081	5635.05
1517.13816	5352.85
1520.51324	4591.25
1523.88607	3805.25
1527.25665	3262.05
1530.62498	2973.15
1533.99105	2824.95
1537.35488	2733.85
1540.71647	2690.35
1544.07581	2676.15
1547.4329	2662.35
1550.78776	2645.45
1554.14038	2653.55
1557.49077	2649.55
1560.83892	2685.25
1564.18484	2790.75
1567.52853	2924.45
1570.86999	3075.45
1574.20922	3188.85
1577.54624	3191.25
1580.88103	3014.55
1584.2136	2735.55
1587.54395	2544.05
1590.87208	2515.35
1594.19801	2636.55
1597.52172	2871.35
1600.84321	3034.15
1604.16251	2995.15
1607.47959	2797.85
1610.79447	2562.85
1614.10715	2338.95
1617.41763	2175.95
1620.7259	2118.45
1624.03199	2082.25
1627.33587	2090.75
1630.63757	2131.65
1633.93707	2202.35
1637.23439	2340.45
1640.52951	2584.85
1643.82246	2964.05
1647.11321	3434.05
1650.40179	3820.35
1653.68819	3767.15
1656.97241	3267.75
1660.25446	2669.45
1663.53433	2251.05
1666.81203	2007.35
1670.08756	1870.15
1673.36092	1789.35
1676.63211	1730.75
1679.90115	1688.05
1683.16801	1641.65
1686.43272	1603.05
1689.69527	1588.15
1692.95567	1560.35
1696.2139	1555.15
1699.46999	1534.25
1702.72392	1528.45
1705.97571	1516.05
1709.22535	1505.85
1712.47284	1515.45
1715.71819	1517.65
1718.96139	1525.55
1722.20246	1527.95
1725.44139	1517.85
1728.67818	1497.75
1731.91284	1480.15
1735.14537	1453.35
1738.37576	1441.55
1741.60403	1427.75
1744.83017	1430.65
1748.05418	1429.25
1751.27607	1410.95
1754.49584	1407.45
1757.71349	1382.55
1760.92903	1350.25
1764.14244	1328.15
1767.35375	1316.25
1770.56294	1300.85
1773.77002	1289.35
1776.97499	1278.85
1780.17785	1261.35
1783.37861	1258.05
1786.57727	1251.25
1789.77382	1241.75
1792.96828	1227.55
1796.16064	1218.45
1799.3509	1217.55
1802.53907	1217.15
1805.72514	1208.95
1808.90913	1208.45
1812.09102	1192.95
1815.27083	1181.05
1818.44856	1179.75
1821.6242	1176.05
1824.79776	1169.75
1827.96924	1166.65
1831.13864	1163.15
1834.30597	1160.35
1837.47122	1155.45
1840.6344	1148.85
1843.7955	1139.35
1846.95454	1147.35
1850.11151	1147.15
1853.26642	1134.35
1856.41926	1131.75
1859.57004	1135.25
1862.71876	1125.05
1865.86542	1127.25
1869.01003	1122.05
1872.15258	1125.05
1875.29308	1124.85
1878.43152	1117.95
1881.56792	1116.05
1884.70227	1108.65
1887.83457	1122.35
1890.96482	1115.85
1894.09304	1115.15
1897.21921	1112.35
1900.34335	1105.05
1903.46544	1100.65
1906.58551	1095.15
1909.70353	1093.55
1912.81953	1099.15
1915.93349	1088.95
1919.04543	1083.75
1922.15534	1082.05
1925.26322	1080.75
1928.36908	1079.95
1931.47292	1075.55
1934.57473	1066.45
1937.67453	1071.75
1940.77232	1058.15
1943.86808	1057.15
1946.96184	1055.25
1950.05358	1050.35
1953.14331	1049.25
1956.23103	1041.85
1959.31675	1037.85
1962.40046	1037.75
1965.48217	1021.65
1968.56188	1032.25
1971.63959	1027.25
1974.7153	1023.95
1977.78901	1018.05
1980.86073	1014.15
1983.93046	1018.55
1986.99819	1005.55
1990.06394	995.45
1993.1277	992.55
1996.18947	993.15
1999.24925	985.65
2002.30706	987.95
2005.36288	982.15
2008.41672	973.85
2011.46859	973.95
2014.51848	973.95
2017.56639	972.45
2020.61233	963.65
2023.6563	959.65
2026.6983	952.75
2029.73833	952.35
2032.7764	946.95
2035.8125	943.95
2038.84664	938.75
2041.87881	935.85
2044.90903	935.35
2047.93729	927.45
2050.96359	935.25
2053.98794	929.85
2057.01034	930.75
2060.03078	929.85
2063.04927	921.35
2066.06582	922.55
2069.08042	922.55
2072.09307	925.35
2075.10378	918.25
2078.11255	912.85
2081.11938	925.65
2084.12426	919.45
2087.12722	921.05
2090.12824	919.45
2093.12732	922.95
2096.12447	923.25
2099.11969	918.65
2102.11299	920.45
2105.10435	920.35
2108.09379	921.95
2111.08131	923.95
2114.0669	915.75
2117.05057	905.55
2120.03233	906.65
2123.01216	896.55
2125.99008	904.15
2128.96609	906.95
2131.94018	900.55
2134.91236	900.65
2137.88263	899.05
2140.851	896.75
2143.81746	902.35
2146.78201	893.35
2149.74466	892.35
2152.7054	892.85
2155.66425	888.25
2158.6212	888.05
2161.57625	887.85
2164.52941	884.85
2167.48067	881.85
2170.43004	882.35
2173.37752	884.05
2176.32311	878.85
2179.26681	883.15
2182.20863	881.65
2185.14856	874.35
2188.08661	880.65
2191.02278	872.55
2193.95707	886.55
2196.88948	870.05
2199.82001	878.25
2202.74867	873.25
2205.67545	863.55
2208.60037	866.15
2211.52341	859.35
2214.44458	865.15
2217.36388	850.85
2220.28132	853.05
2223.1969	849.35
2226.11061	845.95
2229.02246	839.55
2231.93245	834.45
2234.84058	835.65
2237.74686	837.55
2240.65128	831.65
2243.55385	837.95
2246.45456	838.35
2249.35343	828.35
2252.25044	832.15
2255.14561	829.45
2258.03893	837.05
2260.93041	839.55
2263.82004	828.05
2266.70783	826.95
2269.59378	820.55
2272.4779	815.75
2275.36017	809.75
2278.24061	812.85
2281.11922	811.35
2283.996	807.55
2286.87094	800.85
2289.74405	798.05
2292.61534	803.05
2295.4848	795.45
2298.35243	795.35
2301.21824	799.65
2304.08223	795.65
2306.94439	788.45
2309.80474	781.85
2312.66327	784.35
2315.51999	787.35
2318.37489	781.05
2321.22797	780.75
2324.07925	781.85
2326.92871	780.45
2329.77637	784.15
2332.62222	781.85
2335.46626	776.95
2338.3085	770.55
2341.14893	777.35
2343.98756	770.75
2346.8244	773.95
2349.65943	768.45
2352.49267	773.65
2355.32411	769.55
2358.15376	773.65
2360.98161	774.65
2363.80768	777.95
2366.63195	780.55
2369.45444	775.65
2372.27514	777.25
2375.09405	775.35
2377.91118	774.75
2380.72652	769.55
2383.54009	765.95
2386.35187	765.45
2389.16188	762.15
2391.97011	748.15
2394.77657	747.45
2397.58125	743.25
2400.38416	743.65
2403.18529	744.95
2405.98466	738.55
2408.78226	736.35
2411.57809	739.85
2414.37216	728.65
2417.16446	740.15
2419.955	732.25
2422.74378	727.45
2425.5308	730.35
2428.31606	730.85
2431.09956	727.85
2433.88131	724.85
2436.6613	726.55
2439.43954	729.55
2442.21603	720.35
2444.99077	721.75
2447.76377	725.35
2450.53501	723.55
2453.30451	722.85
2456.07226	716.45
2458.83827	726.05
2461.60254	720.15
2464.36507	720.05
2467.12586	722.55
2469.88492	720.35
2472.64224	722.65
2475.39782	728.25
2478.15167	725.15
2480.90379	727.75
2483.65417	734.95
2486.40283	724.45
2489.14976	725.55
2491.89497	726.15
2494.63845	733.85
2497.3802	740.35
2500.12024	725.85
2502.85855	720.95
2505.59514	720.55
2508.33002	710.15
2511.06318	711.35
2513.79462	704.35
2516.52435	703.85
2519.25237	692.45
2521.97867	696.75
2524.70327	687.85
2527.42616	695.55
2530.14734	691.55
2532.86681	689.65
2535.58458	683.05
2538.30065	682.95
2541.01501	684.45
2543.72768	686.55
2546.43864	691.75
2549.14791	688.05
2551.85548	682.85
2554.56136	687.05
2557.26554	681.75
2559.96803	686.85
2562.66883	685.45
2565.36794	679.45
2568.06536	688.65
2570.7611	685.25
2573.45514	685.05
2576.14751	681.75
2578.83819	682.35
2581.52719	681.05
2584.21451	681.05
2586.90015	667.65
2589.58411	669.95
2592.2664	673.35
2594.94701	668.05
2597.62594	667.05
2600.30321	664.75
2602.9788	676.15
2605.65273	671.25
2608.32498	667.95
2610.99557	661.05
2613.66449	662.85
2616.33175	660.65
2618.99734	664.65
2621.66128	657.45
2624.32355	661.25
2626.98416	659.45
2629.64311	658.15
2632.30041	652.75
2634.95605	655.85
2637.61004	650.25
2640.26238	649.95
2642.91306	654.05
2645.56209	644.15
2648.20948	653.85
2650.85521	650.45
2653.4993	647.55
2656.14175	653.55
2658.78255	655.95
2661.42171	653.95
2664.05923	660.55
2666.6951	660.25
2669.32934	667.95
2671.96194	665.75
2674.59291	667.05
2677.22224	672.65
2679.84993	668.35
2682.476	667.95
2685.10043	677.65
2687.72324	669.95
2690.34441	676.85
2692.96396	677.15
2695.58188	679.75
2698.19818	682.85
2700.81285	685.55
2703.4259	704.35
2706.03733	730.85
2708.64714	712.85
2711.25533	707.65
2713.86191	709.65
2716.46687	706.35
2719.07021	714.45
2721.67194	715.05
2724.27206	711.75
2726.87057	703.05
2729.46747	712.85
2732.06276	713.55
2734.65644	703.75
2737.24852	705.95
2739.83899	701.35
2742.42786	700.55
2745.01513	698.25
2747.60079	697.15
2750.18486	702.05
2752.76733	696.05
2755.3482	693.45
2757.92747	700.95
2760.50515	698.55
2763.08123	712.45
2765.65573	709.15
2768.22863	722.35
2770.79994	710.65
2773.36967	741.95
2775.9378	738.55
2778.50435	744.25
2781.06932	742.65
2783.6327	759.65
2786.1945	764.05
2788.75471	774.95
2791.31335	784.75
2793.87041	787.35
2796.42589	800.15
2798.97979	823.85
2801.53212	822.85
2804.08288	844.65
2806.63206	859.25
2809.17967	877.15
2811.72571	885.25
2814.27018	901.15
2816.81308	913.55
2819.35442	917.45
2821.89419	924.95
2824.43239	925.85
2826.96904	927.05
2829.50412	932.05
2832.03763	943.05
2834.56959	946.45
2837.1	960.15
2839.62884	981.65
2842.15613	1008.65
2844.68186	1041.75
2847.20604	1085.95
2849.72867	1114.35
2852.24974	1137.55
2854.76927	1136.85
2857.28724	1143.15
2859.80367	1134.05
2862.31855	1123.25
2864.83189	1118.85
2867.34368	1106.95
2869.85393	1115.55
2872.36264	1114.15
2874.8698	1119.15
2877.37543	1125.55
2879.87952	1132.35
2882.38207	1144.05
2884.88308	1147.55
2887.38256	1147.75
2889.88051	1160.55
2892.37692	1169.85
2894.8718	1166.45
2897.36515	1182.25
2899.85698	1189.65
2902.34727	1195.15
2904.83604	1208.35
2907.32328	1205.05
2909.809	1208.95
2912.29319	1204.65
2914.77587	1210.95
2917.25702	1201.95
2919.73665	1209.95
2922.21476	1187.35
2924.69136	1183.35
2927.16644	1176.35
2929.64	1170.25
2932.11205	1153.35
2934.58258	1134.35
2937.05161	1113.55
2939.51912	1087.65
2941.98513	1058.85
2944.44962	1020.35
2946.91261	988.75
2949.37409	952.65
2951.83407	934.35
2954.29254	905.55
2956.74951	882.75
2959.20498	868.75
2961.65895	846.25
2964.11142	839.65
2966.56239	816.35
2969.01186	803.65
2971.45984	783.65
2973.90632	771.35
2976.35131	760.75
2978.7948	749.65
2981.23681	744.25
2983.67732	738.25
2986.11635	732.95
2988.55388	719.25
2990.98993	712.75
2993.4245	712.95
2995.85758	706.65
2998.28917	701.05
3000.71928	699.05
3003.14791	699.15
3005.57506	700.75
3008.00073	692.45
3010.42493	698.15
3012.84764	685.85
3015.26888	691.15
3017.68865	682.65
3020.10694	680.95
3022.52376	681.95
3024.9391	677.05
3027.35298	672.65
3029.76539	668.25
3032.17632	662.75
3034.5858	664.15
3036.9938	661.95
3039.40034	660.15
3041.80542	658.25
3044.20903	657.35
3046.61118	651.85
3049.01187	652.45
3051.4111	652.15
3053.80888	647.05
3056.20519	648.95
3058.60005	658.25
3060.99345	656.95
3063.3854	650.35
3065.7759	654.15
3068.16494	657.55
3070.55254	660.25
3072.93868	652.55
3075.32338	658.45
3077.70662	659.25
3080.08842	652.45
3082.46878	653.55
3084.84769	646.15
3087.22515	651.85
3089.60118	651.75
3091.97576	651.75
3094.3489	651.05
3096.72061	660.35
3099.09087	650.75
3101.4597	651.85
3103.82709	657.95
3106.19305	660.95
3108.55757	663.05
3110.92066	658.95
3113.28232	662.25
3115.64255	665.95
3118.00134	662.65
3120.35871	669.15
3122.71466	669.05
3125.06917	677.45
3127.42226	674.45
3129.77393	685.55
3132.12417	684.05
3134.47299	697.85
3136.82039	691.15
3139.16636	694.35
3141.51092	708.05
3143.85406	712.85
3146.19579	713.45
3148.53609	723.35
3150.87499	726.95
3153.21246	729.85
3155.54853	733.25
3157.88318	746.05
3160.21642	744.75
3162.54826	746.75
3164.87868	746.35
3167.2077	755.65
3169.5353	762.45
3171.86151	763.45
3174.18631	768.25
3176.5097	766.45
3178.83169	777.45
3181.15228	778.85
3183.47147	785.45
3185.78926	788.65
3188.10565	786.95
3190.42065	795.05
3192.73424	793.95
3195.04645	800.75
3197.35725	809.05
3199.66667	815.45
3201.97469	806.25
3204.28132	815.65
3206.58656	823.55
3208.8904	823.55
3211.19287	819.85
3213.49394	826.25
3215.79363	831.05
3218.09193	832.95
3220.38884	842.35
3222.68438	842.55
3224.97853	841.55
3227.2713	843.35
3229.56269	850.85
3231.8527	846.45
3234.14133	835.15
3236.42858	853.45
3238.71446	843.25
3240.99896	841.35
3243.28209	844.75
3245.56384	840.65
3247.84423	851.65
3250.12324	845.55
3252.40088	849.35
3254.67715	855.95
3256.95205	850.85
3259.22558	850.55
3261.49775	846.05
3263.76855	849.55
3266.03799	859.95
3268.30606	850.05
3270.57277	843.35
3272.83812	850.55
3275.10211	852.95
3277.36474	843.55
3279.62601	853.25
3281.88593	854.75
3284.14448	861.35
3286.40168	859.55
3288.65753	853.85
3290.91202	856.25
3293.16516	853.15
3295.41695	851.95
3297.66738	847.75
3299.91647	843.05
3302.16421	837.25
3304.4106	844.35
3306.65564	836.75
3308.89933	828.65
3311.14169	833.35
3313.38269	829.75
3315.62236	819.05
3317.86068	818.35
3320.09766	810.65
3322.3333	808.15
3324.5676	814.25
3326.80056	809.45
3329.03219	802.95
3331.26248	0.55
3333.49143	0.25
3335.71905	0.65
