Data from AgNPs_FTO_APTES_UA_0um_CRN_0.1mM_R6G_10uM_NaF_0.1M_Addition_RamanShift__50__11-09-38-955.txt Node

Date: Tue Dec 21 11:09:38 GMT 2021
User: TCL
Spectrometer: QEP01345
Trigger mode: 4
Integration Time (sec): 7.000000E0
Scans to average: 10
Electric dark correction enabled: true
Nonlinearity correction enabled: false
Boxcar width: 0
XAxis mode: Raman Shifts
Number of Pixels in Spectrum: 1044
>>>>>Begin Spectral Data<<<<<
46.04893	-0.775
50.45542	-0.775
54.85868	-0.575
59.25871	0.425
63.6555	39.625
68.04907	48.125
72.43941	49.025
76.82654	50.425
81.21044	56.625
85.59113	56.825
89.96862	57.225
94.34289	59.125
98.71396	58.825
103.08183	64.225
107.4465	65.925
111.80798	69.225
116.16626	68.325
120.52136	67.725
124.87327	74.225
129.222	75.525
133.56755	81.725
137.90993	90.625
142.24913	96.225
146.58517	109.725
150.91804	129.525
155.24774	152.225
159.57429	188.025
163.89768	246.825
168.21792	318.725
172.53501	439.625
176.84895	614.225
181.15975	864.825
185.46741	1197.125
189.77193	1646.525
194.07331	2216.725
198.37157	2835.925
202.6667	3488.225
206.9587	4163.425
211.24758	4825.625
215.53334	5491.625
219.81599	6188.325
224.09553	6989.025
228.37195	7838.425
232.64527	8784.525
236.91549	9747.925
241.18261	10703.425
245.44663	11588.925
249.70755	12334.825
253.96539	12975.725
258.22014	13537.425
262.4718	14015.825
266.72039	14298.025
270.96589	14453.225
275.20832	14433.425
279.44768	14387.225
283.68397	14362.125
287.91719	14299.625
292.14735	14318.225
296.37445	14347.525
300.59849	14380.825
304.81948	14441.225
309.03742	14434.525
313.25231	14269.825
317.46415	13960.525
321.67296	13488.725
325.87872	13062.125
330.08145	12813.925
334.28114	12693.625
338.47781	12726.125
342.67145	12905.825
346.86207	13076.625
351.04966	13318.725
355.23424	13584.225
359.4158	13841.425
363.59435	13949.725
367.76989	14016.225
371.94243	14027.325
376.11196	14044.025
380.27849	14062.925
384.44203	14148.925
388.60257	14286.225
392.76012	14474.225
396.91468	14683.625
401.06626	14978.325
405.21485	15151.225
409.36047	15096.725
413.50311	14904.025
417.64277	14853.825
421.77947	14940.525
425.9132	14987.625
430.04396	15099.225
434.17176	15200.325
438.2966	15321.725
442.41849	15593.025
446.53742	16130.925
450.6534	16799.625
454.76644	17218.825
458.87653	17280.625
462.98368	17028.225
467.08789	16732.425
471.18916	16372.525
475.2875	16119.425
479.38291	16059.025
483.4754	16082.325
487.56496	16032.125
491.6516	15718.525
495.73531	15407.625
499.81612	15196.325
503.89401	15202.425
507.96899	15234.125
512.04106	15040.125
516.11023	14675.825
520.1765	14310.225
524.23987	14076.425
528.30034	13926.825
532.35792	13783.525
536.41261	13561.925
540.46441	13332.725
544.51333	13299.125
548.55936	13509.325
552.60252	13969.225
556.64279	14512.125
560.6802	14947.325
564.71473	15203.825
568.7464	15632.025
572.7752	16304.925
576.80114	16995.025
580.82422	17571.825
584.84444	18234.925
588.86181	18914.525
592.87633	19535.125
596.888	19665.725
600.89682	19033.725
604.9028	18704.725
608.90594	19604.125
612.90624	20634.025
616.90371	18859.225
620.89834	15298.025
624.89015	13697.925
628.87913	13589.025
632.86528	13813.925
636.84862	13912.025
640.82913	13665.225
644.80683	13187.725
648.78172	12825.725
652.75379	12673.625
656.72306	12765.925
660.68952	12941.025
664.65319	12889.725
668.61405	12604.125
672.57211	12570.225
676.52738	12591.325
680.47986	12620.025
684.42955	12512.525
688.37646	12364.925
692.32058	12353.725
696.26192	12510.725
700.20048	12719.025
704.13626	12872.725
708.06928	12979.725
711.99952	12935.525
715.927	12926.225
719.85171	12902.425
723.77365	12862.925
727.69284	12658.925
731.60928	12437.925
735.52295	12376.125
739.43388	12434.625
743.34206	12462.625
747.24749	12577.125
751.15017	12785.925
755.05012	13125.025
758.94733	13694.825
762.8418	14683.625
766.73354	16216.225
770.62254	17537.525
774.50882	17501.725
778.39237	16239.325
782.27321	14710.225
786.15132	13599.425
790.02671	12857.925
793.89938	12479.225
797.76935	12348.625
801.6366	12327.425
805.50115	12314.325
809.36299	12214.325
813.22213	12050.025
817.07857	11964.725
820.93231	11837.425
824.78336	11732.325
828.63172	11620.825
832.47738	11613.225
836.32036	11597.125
840.16066	11588.625
843.99827	11585.225
847.8332	11538.325
851.66546	11489.525
855.49504	11501.725
859.32195	11495.025
863.1462	11446.525
866.96777	11376.225
870.78668	11371.525
874.60293	11359.925
878.41652	11353.225
882.22745	11417.225
886.03573	11447.925
889.84136	11465.225
893.64433	11442.125
897.44466	11403.425
901.24235	11336.425
905.0374	11230.925
908.8298	11159.425
912.61957	11148.725
916.40671	11240.625
920.19121	11464.725
923.97308	11730.925
927.75233	11769.025
931.52895	11622.525
935.30295	11386.325
939.07433	11021.425
942.84309	10742.025
946.60924	10612.225
950.37278	10549.325
954.13371	10547.425
957.89203	10544.325
961.64774	10529.025
965.40086	10507.025
969.15137	10474.825
972.89929	10379.925
976.64461	10289.325
980.38733	10228.725
984.12747	10234.925
987.86502	10290.925
991.59999	10394.925
995.33237	10572.925
999.06217	10939.725
1002.78939	11369.225
1006.51404	11782.825
1010.23611	12060.925
1013.95561	12274.825
1017.67255	12317.125
1021.38692	12113.525
1025.09872	11752.125
1028.80796	11505.025
1032.51465	11543.925
1036.21877	11688.125
1039.92035	11743.525
1043.61937	11715.225
1047.31584	11633.025
1051.00976	11545.325
1054.70114	11495.325
1058.38998	11518.725
1062.07627	11646.725
1065.76003	11799.525
1069.44126	11982.025
1073.11995	12329.025
1076.79611	12568.525
1080.46974	12657.225
1084.14085	12779.525
1087.80943	12974.125
1091.47549	13237.525
1095.13903	13318.725
1098.80005	13124.225
1102.45857	12578.725
1106.11456	12151.025
1109.76805	11922.225
1113.41903	11889.325
1117.06751	11990.025
1120.71348	12160.725
1124.35696	12366.625
1127.99793	12601.025
1131.63641	12764.325
1135.2724	12774.925
1138.90589	12758.525
1142.5369	12794.625
1146.16542	12876.825
1149.79145	13026.925
1153.415	13259.125
1157.03607	13621.225
1160.65467	14187.025
1164.27079	15146.225
1167.88443	16424.525
1171.49561	17927.825
1175.10432	19892.825
1178.71056	22248.325
1182.31434	24379.125
1185.91565	25376.425
1189.51451	25186.025
1193.11091	24267.025
1196.70485	23059.225
1200.29634	21663.925
1203.88538	20453.325
1207.47197	19680.925
1211.05612	19105.925
1214.63782	18603.325
1218.21708	18169.925
1221.79391	17935.125
1225.36829	17842.325
1228.94024	17564.825
1232.50976	17019.725
1236.07685	16415.725
1239.6415	16027.825
1243.20374	15816.925
1246.76355	15823.725
1250.32093	16020.925
1253.8759	16457.625
1257.42845	17108.725
1260.97859	17787.125
1264.52631	18535.725
1268.07163	19286.125
1271.61453	20033.325
1275.15503	20824.725
1278.69312	21722.625
1282.22882	22658.025
1285.76211	23731.225
1289.29301	24999.025
1292.82151	26485.125
1296.34761	28257.625
1299.87133	30420.925
1303.39266	32631.525
1306.9116	34814.825
1310.42815	36905.525
1313.94233	38409.925
1317.45412	38872.425
1320.96354	38394.825
1324.47058	37812.525
1327.97525	37248.725
1331.47754	36709.525
1334.97747	36125.925
1338.47502	35440.125
1341.97022	34438.125
1345.46305	33159.225
1348.95352	31937.025
1352.44163	31184.925
1355.92738	31483.025
1359.41078	32830.925
1362.89183	34227.725
1366.37053	34399.925
1369.84688	32392.225
1373.32088	28768.025
1376.79254	25715.825
1380.26186	24420.925
1383.72883	24304.225
1387.19347	24304.125
1390.65578	24209.525
1394.11575	24452.825
1397.57339	25225.625
1401.0287	26301.425
1404.48168	27162.325
1407.93234	27439.325
1411.38068	26878.325
1414.82669	25606.825
1418.27039	24006.825
1421.71177	22357.425
1425.15083	20952.025
1428.58758	20082.925
1432.02203	19980.825
1435.45416	20540.425
1438.88399	21428.725
1442.31151	22270.525
1445.73673	23006.625
1449.15965	23648.825
1452.58027	24045.325
1455.9986	24133.125
1459.41463	24235.225
1462.82837	24591.925
1466.23982	25282.725
1469.64898	25888.425
1473.05586	26209.925
1476.46045	26202.125
1479.86276	25959.425
1483.26279	25576.325
1486.66054	25288.825
1490.05602	25305.825
1493.44922	25381.425
1496.84016	25447.025
1500.22882	25587.525
1503.61521	25966.925
1506.99934	26647.625
1510.38121	27239.525
1513.76081	27321.925
1517.13816	26716.325
1520.51324	25711.925
1523.88607	24820.725
1527.25665	24424.325
1530.62498	24287.025
1533.99105	24249.725
1537.35488	24032.025
1540.71647	23627.925
1544.07581	22875.525
1547.4329	21976.625
1550.78776	21140.725
1554.14038	20540.725
1557.49077	20176.025
1560.83892	20090.125
1564.18484	20201.225
1567.52853	20253.325
1570.86999	20488.625
1574.20922	20888.625
1577.54624	21334.125
1580.88103	21526.525
1584.2136	21824.125
1587.54395	22694.225
1590.87208	24314.625
1594.19801	26469.825
1597.52172	28678.325
1600.84321	29572.025
1604.16251	28191.625
1607.47959	25257.225
1610.79447	22045.425
1614.10715	19140.025
1617.41763	16932.425
1620.7259	15476.925
1624.03199	14685.225
1627.33587	14596.625
1630.63757	15146.125
1633.93707	16541.125
1637.23439	18966.225
1640.52951	22752.825
1643.82246	27445.225
1647.11321	31635.025
1650.40179	33028.925
1653.68819	30624.925
1656.97241	25734.625
1660.25446	20622.325
1663.53433	16712.625
1666.81203	14152.725
1670.08756	12635.525
1673.36092	11727.425
1676.63211	11111.125
1679.90115	10681.525
1683.16801	10382.225
1686.43272	10139.825
1689.69527	9998.525
1692.95567	9873.025
1696.2139	9781.825
1699.46999	9716.025
1702.72392	9627.125
1705.97571	9599.925
1709.22535	9487.625
1712.47284	9445.025
1715.71819	9430.925
1718.96139	9398.025
1722.20246	9332.125
1725.44139	9247.225
1728.67818	9166.825
1731.91284	9116.125
1735.14537	9033.325
1738.37576	8987.725
1741.60403	8949.025
1744.83017	8933.525
1748.05418	8898.125
1751.27607	8900.525
1754.49584	8895.325
1757.71349	8907.525
1760.92903	8883.525
1764.14244	8822.225
1767.35375	8808.325
1770.56294	8739.325
1773.77002	8714.125
1776.97499	8668.625
1780.17785	8625.325
1783.37861	8604.425
1786.57727	8577.625
1789.77382	8539.725
1792.96828	8501.225
1796.16064	8471.625
1799.3509	8429.025
1802.53907	8407.525
1805.72514	8362.525
1808.90913	8379.225
1812.09102	8318.825
1815.27083	8293.825
1818.44856	8269.125
1821.6242	8252.425
1824.79776	8247.325
1827.96924	8260.025
1831.13864	8228.225
1834.30597	8240.725
1837.47122	8242.125
1840.6344	8249.025
1843.7955	8251.525
1846.95454	8239.425
1850.11151	8257.925
1853.26642	8234.125
1856.41926	8234.025
1859.57004	8245.525
1862.71876	8218.025
1865.86542	8201.725
1869.01003	8211.325
1872.15258	8201.525
1875.29308	8205.125
1878.43152	8191.725
1881.56792	8181.925
1884.70227	8153.525
1887.83457	8168.825
1890.96482	8158.425
1894.09304	8163.125
1897.21921	8170.525
1900.34335	8146.125
1903.46544	8141.325
1906.58551	8107.725
1909.70353	8076.825
1912.81953	8076.925
1915.93349	8041.725
1919.04543	8027.225
1922.15534	7986.525
1925.26322	7976.825
1928.36908	7924.225
1931.47292	7890.925
1934.57473	7836.025
1937.67453	7838.325
1940.77232	7798.625
1943.86808	7786.325
1946.96184	7768.525
1950.05358	7736.325
1953.14331	7692.825
1956.23103	7672.125
1959.31675	7632.925
1962.40046	7603.025
1965.48217	7585.325
1968.56188	7561.525
1971.63959	7523.625
1974.7153	7501.725
1977.78901	7492.725
1980.86073	7438.025
1983.93046	7432.725
1986.99819	7382.125
1990.06394	7352.725
1993.1277	7337.025
1996.18947	7312.525
1999.24925	7293.625
2002.30706	7281.625
2005.36288	7257.925
2008.41672	7247.125
2011.46859	7234.325
2014.51848	7183.825
2017.56639	7173.125
2020.61233	7166.125
2023.6563	7145.825
2026.6983	7121.225
2029.73833	7116.825
2032.7764	7089.425
2035.8125	7078.625
2038.84664	7062.125
2041.87881	7051.525
2044.90903	7039.625
2047.93729	7015.825
2050.96359	7013.425
2053.98794	7021.925
2057.01034	7012.825
2060.03078	7000.725
2063.04927	6997.325
2066.06582	6977.025
2069.08042	6975.625
2072.09307	6935.525
2075.10378	6937.025
2078.11255	6937.125
2081.11938	6950.625
2084.12426	6921.225
2087.12722	6937.825
2090.12824	6898.825
2093.12732	6930.325
2096.12447	6923.625
2099.11969	6888.125
2102.11299	6903.325
2105.10435	6914.325
2108.09379	6916.625
2111.08131	6903.325
2114.0669	6880.525
2117.05057	6910.225
2120.03233	6916.225
2123.01216	6904.625
2125.99008	6904.925
2128.96609	6891.025
2131.94018	6889.225
2134.91236	6910.425
2137.88263	6907.925
2140.851	6893.025
2143.81746	6889.825
2146.78201	6887.825
2149.74466	6887.525
2152.7054	6897.525
2155.66425	6866.825
2158.6212	6874.925
2161.57625	6875.525
2164.52941	6862.425
2167.48067	6849.425
2170.43004	6849.125
2173.37752	6855.225
2176.32311	6837.825
2179.26681	6833.625
2182.20863	6842.325
2185.14856	6842.725
2188.08661	6824.125
2191.02278	6832.425
2193.95707	6839.025
2196.88948	6825.525
2199.82001	6807.225
2202.74867	6817.925
2205.67545	6806.225
2208.60037	6793.125
2211.52341	6755.825
2214.44458	6760.025
2217.36388	6723.325
2220.28132	6730.325
2223.1969	6710.025
2226.11061	6716.625
2229.02246	6692.425
2231.93245	6696.125
2234.84058	6670.825
2237.74686	6681.925
2240.65128	6667.725
2243.55385	6648.025
2246.45456	6645.525
2249.35343	6620.825
2252.25044	6605.825
2255.14561	6596.025
2258.03893	6596.525
2260.93041	6561.825
2263.82004	6552.825
2266.70783	6528.425
2269.59378	6478.825
2272.4779	6467.925
2275.36017	6455.225
2278.24061	6440.325
2281.11922	6429.925
2283.996	6426.625
2286.87094	6430.325
2289.74405	6391.025
2292.61534	6396.725
2295.4848	6384.525
2298.35243	6393.025
2301.21824	6376.425
2304.08223	6367.025
2306.94439	6366.225
2309.80474	6358.325
2312.66327	6348.225
2315.51999	6341.725
2318.37489	6363.425
2321.22797	6344.625
2324.07925	6333.925
2326.92871	6327.525
2329.77637	6328.025
2332.62222	6306.925
2335.46626	6312.725
2338.3085	6332.725
2341.14893	6309.525
2343.98756	6311.425
2346.8244	6310.925
2349.65943	6318.825
2352.49267	6323.525
2355.32411	6315.325
2358.15376	6308.525
2360.98161	6321.125
2363.80768	6333.025
2366.63195	6309.825
2369.45444	6306.525
2372.27514	6298.825
2375.09405	6270.025
2377.91118	6260.825
2380.72652	6250.125
2383.54009	6210.325
2386.35187	6216.125
2389.16188	6185.325
2391.97011	6186.125
2394.77657	6170.025
2397.58125	6174.025
2400.38416	6144.725
2403.18529	6140.225
2405.98466	6140.825
2408.78226	6110.425
2411.57809	6100.725
2414.37216	6104.425
2417.16446	6088.425
2419.955	6082.225
2422.74378	6075.225
2425.5308	6070.925
2428.31606	6044.225
2431.09956	6049.425
2433.88131	6061.925
2436.6613	6046.225
2439.43954	6051.325
2442.21603	6033.325
2444.99077	6038.825
2447.76377	6051.125
2450.53501	6053.425
2453.30451	6062.925
2456.07226	6017.625
2458.83827	6027.225
2461.60254	6049.725
2464.36507	6046.225
2467.12586	6058.625
2469.88492	6058.925
2472.64224	6065.925
2475.39782	6061.225
2478.15167	6074.425
2480.90379	6070.425
2483.65417	6066.125
2486.40283	6058.025
2489.14976	6067.225
2491.89497	6072.425
2494.63845	6095.825
2497.3802	6097.025
2500.12024	6079.625
2502.85855	6089.325
2505.59514	6066.625
2508.33002	6057.025
2511.06318	6055.625
2513.79462	6029.625
2516.52435	6032.225
2519.25237	6035.525
2521.97867	6016.125
2524.70327	6025.225
2527.42616	6015.025
2530.14734	6001.525
2532.86681	5981.425
2535.58458	5984.725
2538.30065	5971.725
2541.01501	5974.725
2543.72768	5978.025
2546.43864	5967.525
2549.14791	5963.425
2551.85548	5974.825
2554.56136	5963.125
2557.26554	5949.525
2559.96803	5952.825
2562.66883	5947.425
2565.36794	5947.925
2568.06536	5950.725
2570.7611	5946.625
2573.45514	5953.225
2576.14751	5952.025
2578.83819	5926.925
2581.52719	5950.225
2584.21451	5942.925
2586.90015	5948.425
2589.58411	5933.425
2592.2664	5934.625
2594.94701	5936.925
2597.62594	5931.925
2600.30321	5917.225
2602.9788	5914.825
2605.65273	5942.425
2608.32498	5917.625
2610.99557	5935.025
2613.66449	5930.725
2616.33175	5924.725
2618.99734	5918.025
2621.66128	5921.225
2624.32355	5911.625
2626.98416	5931.825
2629.64311	5948.025
2632.30041	5923.625
2634.95605	5932.025
2637.61004	5918.925
2640.26238	5943.225
2642.91306	5917.125
2645.56209	5923.825
2648.20948	5924.525
2650.85521	5917.425
2653.4993	5936.325
2656.14175	5924.925
2658.78255	5940.925
2661.42171	5925.225
2664.05923	5941.725
2666.6951	5964.325
2669.32934	5945.525
2671.96194	5940.225
2674.59291	5961.525
2677.22224	5936.225
2679.84993	5921.225
2682.476	5916.025
2685.10043	5928.025
2687.72324	5923.825
2690.34441	5937.925
2692.96396	5891.925
2695.58188	5923.025
2698.19818	5915.225
2700.81285	5933.625
2703.4259	5938.825
2706.03733	5966.825
2708.64714	5944.525
2711.25533	5954.825
2713.86191	5947.425
2716.46687	5945.525
2719.07021	5958.325
2721.67194	5951.725
2724.27206	5949.425
2726.87057	5965.425
2729.46747	5970.225
2732.06276	5968.825
2734.65644	5968.225
2737.24852	5988.525
2739.83899	5948.725
2742.42786	5956.025
2745.01513	5953.225
2747.60079	5975.625
2750.18486	5959.325
2752.76733	5969.725
2755.3482	5940.425
2757.92747	5962.425
2760.50515	5958.725
2763.08123	5969.325
2765.65573	5940.625
2768.22863	5972.925
2770.79994	5982.625
2773.36967	5979.525
2775.9378	5980.325
2778.50435	5986.725
2781.06932	5979.625
2783.6327	5981.425
2786.1945	6002.525
2788.75471	5984.625
2791.31335	5962.425
2793.87041	5957.225
2796.42589	5944.625
2798.97979	5957.725
2801.53212	5949.525
2804.08288	5956.825
2806.63206	5942.325
2809.17967	5930.225
2811.72571	5930.525
2814.27018	5919.725
2816.81308	5910.725
2819.35442	5900.625
2821.89419	5882.925
2824.43239	5893.825
2826.96904	5889.125
2829.50412	5895.125
2832.03763	5864.025
2834.56959	5862.125
2837.1	5863.925
2839.62884	5870.725
2842.15613	5851.725
2844.68186	5873.225
2847.20604	5896.025
2849.72867	5884.625
2852.24974	5889.225
2854.76927	5876.125
2857.28724	5899.525
2859.80367	5860.925
2862.31855	5851.125
2864.83189	5860.525
2867.34368	5830.825
2869.85393	5851.825
2872.36264	5836.925
2874.8698	5821.025
2877.37543	5836.125
2879.87952	5848.925
2882.38207	5845.125
2884.88308	5841.825
2887.38256	5845.025
2889.88051	5855.125
2892.37692	5859.325
2894.8718	5837.725
2897.36515	5871.125
2899.85698	5881.725
2902.34727	5895.725
2904.83604	5899.325
2907.32328	5910.325
2909.809	5903.925
2912.29319	5919.025
2914.77587	5911.925
2917.25702	5938.225
2919.73665	5922.225
2922.21476	5918.425
2924.69136	5925.225
2927.16644	5915.325
2929.64	5920.025
2932.11205	5917.525
2934.58258	5903.325
2937.05161	5899.825
2939.51912	5910.825
2941.98513	5881.025
2944.44962	5896.525
2946.91261	5863.625
2949.37409	5868.725
2951.83407	5849.525
2954.29254	5843.425
2956.74951	5840.725
2959.20498	5823.625
2961.65895	5796.425
2964.11142	5784.225
2966.56239	5764.125
2969.01186	5768.125
2971.45984	5732.125
2973.90632	5719.225
2976.35131	5712.425
2978.7948	5684.225
2981.23681	5664.125
2983.67732	5634.625
2986.11635	5624.725
2988.55388	5601.625
2990.98993	5589.325
2993.4245	5580.325
2995.85758	5570.725
2998.28917	5544.725
3000.71928	5555.125
3003.14791	5532.125
3005.57506	5538.425
3008.00073	5502.925
3010.42493	5501.025
3012.84764	5485.425
3015.26888	5476.225
3017.68865	5458.125
3020.10694	5446.225
3022.52376	5434.225
3024.9391	5420.625
3027.35298	5427.525
3029.76539	5410.825
3032.17632	5416.525
3034.5858	5385.525
3036.9938	5384.925
3039.40034	5396.625
3041.80542	5378.125
3044.20903	5358.225
3046.61118	5372.625
3049.01187	5349.625
3051.4111	5350.525
3053.80888	5337.825
3056.20519	5310.425
3058.60005	5308.925
3060.99345	5305.625
3063.3854	5290.425
3065.7759	5267.325
3068.16494	5257.225
3070.55254	5229.325
3072.93868	5215.725
3075.32338	5204.125
3077.70662	5182.325
3080.08842	5187.525
3082.46878	5161.325
3084.84769	5159.925
3087.22515	5183.625
3089.60118	5152.025
3091.97576	5160.625
3094.3489	5158.725
3096.72061	5152.425
3099.09087	5153.325
3101.4597	5134.625
3103.82709	5133.725
3106.19305	5112.825
3108.55757	5105.625
3110.92066	5086.425
3113.28232	5086.225
3115.64255	5052.025
3118.00134	5066.425
3120.35871	5049.425
3122.71466	5027.125
3125.06917	5029.725
3127.42226	5030.425
3129.77393	5036.325
3132.12417	4998.225
3134.47299	5005.325
3136.82039	5016.925
3139.16636	5015.725
3141.51092	5005.925
3143.85406	4994.325
3146.19579	5004.225
3148.53609	5000.825
3150.87499	4994.325
3153.21246	4999.125
3155.54853	5008.825
3157.88318	5003.825
3160.21642	5010.225
3162.54826	4999.025
3164.87868	4998.525
3167.2077	4994.225
3169.5353	4997.925
3171.86151	4986.125
3174.18631	4981.925
3176.5097	5006.825
3178.83169	4989.825
3181.15228	4982.125
3183.47147	4960.725
3185.78926	4968.425
3188.10565	4978.525
3190.42065	4960.425
