Data from AgNPs_FTO_APTES_UA_1um_CRN_0.1mM_R6G_10uM_NaF_0.1M_Addition_RamanShift__26__12-04-29-017.txt Node

Date: Tue Dec 21 12:04:29 GMT 2021
User: TCL
Spectrometer: QEP01345
Trigger mode: 4
Integration Time (sec): 7.000000E0
Scans to average: 10
Electric dark correction enabled: true
Nonlinearity correction enabled: false
Boxcar width: 0
XAxis mode: Raman Shifts
Number of Pixels in Spectrum: 1044
>>>>>Begin Spectral Data<<<<<
46.04893	0.5875
50.45542	-1.6125
54.85868	-1.4125
59.25871	-0.0125
63.6555	44.2875
68.04907	53.1875
72.43941	51.9875
76.82654	55.1875
81.21044	62.2875
85.59113	63.4875
89.96862	64.4875
94.34289	67.1875
98.71396	66.5875
103.08183	71.3875
107.4465	74.5875
111.80798	76.7875
116.16626	76.1875
120.52136	76.5875
124.87327	79.6875
129.222	79.2875
133.56755	89.1875
137.90993	99.1875
142.24913	100.9875
146.58517	112.2875
150.91804	132.7875
155.24774	152.3875
159.57429	184.5875
163.89768	241.9875
168.21792	313.7875
172.53501	427.3875
176.84895	582.8875
181.15975	820.5875
185.46741	1145.9875
189.77193	1583.7875
194.07331	2108.5875
198.37157	2737.8875
202.6667	3392.1875
206.9587	4058.5875
211.24758	4714.7875
215.53334	5408.5875
219.81599	6142.6875
224.09553	6990.5875
228.37195	7925.2875
232.64527	8913.1875
236.91549	9938.1875
241.18261	10890.1875
245.44663	11725.4875
249.70755	12397.1875
253.96539	13019.1875
258.22014	13495.9875
262.4718	13853.4875
266.72039	14054.3875
270.96589	14087.7875
275.20832	14003.0875
279.44768	13821.2875
283.68397	13629.1875
287.91719	13523.2875
292.14735	13501.9875
296.37445	13727.4875
300.59849	14112.3875
304.81948	14581.6875
309.03742	14940.4875
313.25231	14924.0875
317.46415	14291.4875
321.67296	13315.7875
325.87872	12480.2875
330.08145	12072.4875
334.28114	12068.6875
338.47781	12310.1875
342.67145	12605.3875
346.86207	13085.5875
351.04966	13733.8875
355.23424	14552.9875
359.4158	15220.3875
363.59435	15480.0875
367.76989	15539.6875
371.94243	15457.5875
376.11196	15341.7875
380.27849	15269.3875
384.44203	15151.4875
388.60257	14981.4875
392.76012	14910.9875
396.91468	15054.8875
401.06626	15450.3875
405.21485	15758.6875
409.36047	15555.3875
413.50311	14896.9875
417.64277	14237.3875
421.77947	13884.3875
425.9132	13811.9875
430.04396	13894.7875
434.17176	14005.6875
438.2966	14290.2875
442.41849	14802.1875
446.53742	15492.9875
450.6534	16127.3875
454.76644	16540.9875
458.87653	16460.8875
462.98368	16141.5875
467.08789	15756.9875
471.18916	15352.8875
475.2875	15043.2875
479.38291	14824.5875
483.4754	14542.5875
487.56496	14266.0875
491.6516	13983.1875
495.73531	13780.4875
499.81612	13750.3875
503.89401	13870.6875
507.96899	13960.1875
512.04106	14045.8875
516.11023	14067.4875
520.1765	14085.0875
524.23987	14030.4875
528.30034	13921.1875
532.35792	13749.2875
536.41261	13453.9875
540.46441	13080.8875
544.51333	12835.1875
548.55936	12836.6875
552.60252	13146.4875
556.64279	13559.2875
560.6802	13922.9875
564.71473	14389.1875
568.7464	15118.2875
572.7752	15681.5875
576.80114	15476.0875
580.82422	15044.1875
584.84444	14949.0875
588.86181	15236.7875
592.87633	15761.7875
596.888	16308.2875
600.89682	16506.0875
604.9028	17490.1875
608.90594	20936.6875
612.90624	25699.6875
616.90371	24488.4875
620.89834	17440.5875
624.89015	13967.1875
628.87913	13378.8875
632.86528	13507.8875
636.84862	13628.3875
640.82913	13373.5875
644.80683	12711.9875
648.78172	12220.9875
652.75379	12162.3875
656.72306	12567.8875
660.68952	13139.9875
664.65319	13124.8875
668.61405	12595.7875
672.57211	12420.3875
676.52738	12482.1875
680.47986	12435.1875
684.42955	12244.1875
688.37646	12073.6875
692.32058	12028.2875
696.26192	12135.7875
700.20048	12336.6875
704.13626	12492.1875
708.06928	12456.2875
711.99952	12290.9875
715.927	12170.2875
719.85171	12161.0875
723.77365	12179.1875
727.69284	12070.5875
731.60928	12026.4875
735.52295	12019.9875
739.43388	12080.6875
743.34206	12144.3875
747.24749	12207.4875
751.15017	12327.2875
755.05012	12576.8875
758.94733	13187.1875
762.8418	14553.9875
766.73354	16936.5875
770.62254	19342.3875
774.50882	20519.4875
778.39237	19709.4875
782.27321	17184.6875
786.15132	14546.9875
790.02671	12955.3875
793.89938	12219.1875
797.76935	11926.5875
801.6366	11795.7875
805.50115	11770.9875
809.36299	11663.4875
813.22213	11566.6875
817.07857	11528.4875
820.93231	11491.9875
824.78336	11507.6875
828.63172	11529.7875
832.47738	11604.4875
836.32036	11564.1875
840.16066	11534.2875
843.99827	11474.6875
847.8332	11407.5875
851.66546	11329.7875
855.49504	11352.6875
859.32195	11383.8875
863.1462	11397.8875
866.96777	11314.8875
870.78668	11282.8875
874.60293	11266.9875
878.41652	11276.9875
882.22745	11342.4875
886.03573	11425.0875
889.84136	11401.5875
893.64433	11281.8875
897.44466	11245.2875
901.24235	11203.5875
905.0374	11084.5875
908.8298	11011.4875
912.61957	10966.5875
916.40671	11032.1875
920.19121	11187.4875
923.97308	11402.7875
927.75233	11619.5875
931.52895	11724.3875
935.30295	11556.8875
939.07433	11163.3875
942.84309	10813.1875
946.60924	10624.3875
950.37278	10492.5875
954.13371	10455.2875
957.89203	10369.6875
961.64774	10323.2875
965.40086	10289.5875
969.15137	10248.6875
972.89929	10163.3875
976.64461	10147.6875
980.38733	10129.0875
984.12747	10156.3875
987.86502	10253.5875
991.59999	10409.4875
995.33237	10626.5875
999.06217	11031.6875
1002.78939	11587.8875
1006.51404	12069.6875
1010.23611	12375.6875
1013.95561	12506.3875
1017.67255	12403.6875
1021.38692	12082.7875
1025.09872	11727.5875
1028.80796	11595.8875
1032.51465	11713.4875
1036.21877	11977.3875
1039.92035	12105.3875
1043.61937	12038.2875
1047.31584	11877.0875
1051.00976	11649.7875
1054.70114	11524.8875
1058.38998	11430.2875
1062.07627	11414.5875
1065.76003	11439.1875
1069.44126	11556.1875
1073.11995	11735.3875
1076.79611	11950.6875
1080.46974	12174.8875
1084.14085	12421.2875
1087.80943	12802.7875
1091.47549	12953.7875
1095.13903	12792.3875
1098.80005	12375.9875
1102.45857	11901.4875
1106.11456	11685.2875
1109.76805	11721.2875
1113.41903	11992.4875
1117.06751	12385.9875
1120.71348	12929.3875
1124.35696	13580.7875
1127.99793	14073.7875
1131.63641	14004.0875
1135.2724	13402.0875
1138.90589	12820.5875
1142.5369	12496.9875
1146.16542	12280.0875
1149.79145	12181.5875
1153.415	12229.6875
1157.03607	12315.4875
1160.65467	12616.6875
1164.27079	13231.9875
1167.88443	14166.3875
1171.49561	15561.7875
1175.10432	17730.8875
1178.71056	20531.6875
1182.31434	22935.8875
1185.91565	23752.3875
1189.51451	23227.5875
1193.11091	21860.8875
1196.70485	20204.3875
1200.29634	18704.1875
1203.88538	17486.8875
1207.47197	16298.3875
1211.05612	15414.4875
1214.63782	14954.0875
1218.21708	14904.5875
1221.79391	15105.3875
1225.36829	15211.1875
1228.94024	15033.8875
1232.50976	14632.8875
1236.07685	14327.9875
1239.6415	14152.0875
1243.20374	14142.4875
1246.76355	14173.1875
1250.32093	14353.0875
1253.8759	14738.6875
1257.42845	15342.8875
1260.97859	15964.3875
1264.52631	16537.8875
1268.07163	17175.1875
1271.61453	17746.3875
1275.15503	18315.6875
1278.69312	18749.8875
1282.22882	19170.1875
1285.76211	19809.1875
1289.29301	20622.1875
1292.82151	21587.2875
1296.34761	22722.5875
1299.87133	24272.9875
1303.39266	26560.2875
1306.9116	29664.5875
1310.42815	33033.0875
1313.94233	34977.4875
1317.45412	34431.8875
1320.96354	32432.6875
1324.47058	30160.7875
1327.97525	28131.9875
1331.47754	26756.2875
1334.97747	26081.1875
1338.47502	26113.7875
1341.97022	26439.3875
1345.46305	26780.2875
1348.95352	27312.8875
1352.44163	28397.2875
1355.92738	30629.5875
1359.41078	34228.5875
1362.89183	37335.3875
1366.37053	36439.1875
1369.84688	31697.0875
1373.32088	26660.2875
1376.79254	23186.8875
1380.26186	21380.9875
1383.72883	20474.6875
1387.19347	19927.1875
1390.65578	19470.9875
1394.11575	19419.0875
1397.57339	19870.1875
1401.0287	20606.8875
1404.48168	21267.7875
1407.93234	21734.6875
1411.38068	21753.5875
1414.82669	21315.6875
1418.27039	20394.3875
1421.71177	19279.9875
1425.15083	18314.5875
1428.58758	17813.6875
1432.02203	17813.6875
1435.45416	18051.6875
1438.88399	18285.6875
1442.31151	18466.5875
1445.73673	18727.7875
1449.15965	19052.1875
1452.58027	19218.6875
1455.9986	19140.8875
1459.41463	19270.4875
1462.82837	19690.9875
1466.23982	20362.3875
1469.64898	20950.3875
1473.05586	21287.3875
1476.46045	21328.6875
1479.86276	21384.5875
1483.26279	21400.8875
1486.66054	21559.2875
1490.05602	21875.8875
1493.44922	22345.1875
1496.84016	22835.5875
1500.22882	23883.0875
1503.61521	25729.6875
1506.99934	28234.1875
1510.38121	30464.0875
1513.76081	31185.0875
1517.13816	29561.6875
1520.51324	26342.3875
1523.88607	23191.4875
1527.25665	21210.7875
1530.62498	20226.2875
1533.99105	19769.8875
1537.35488	19530.9875
1540.71647	19350.6875
1544.07581	19234.1875
1547.4329	19003.9875
1550.78776	18704.9875
1554.14038	18480.8875
1557.49077	18373.9875
1560.83892	18421.5875
1564.18484	18709.3875
1567.52853	19101.3875
1570.86999	19406.8875
1574.20922	19657.5875
1577.54624	19639.9875
1580.88103	18927.5875
1584.2136	18100.8875
1587.54395	17952.5875
1590.87208	18898.1875
1594.19801	20670.1875
1597.52172	22938.5875
1600.84321	24174.5875
1604.16251	23568.2875
1607.47959	21445.1875
1610.79447	18852.6875
1614.10715	16460.1875
1617.41763	14695.1875
1620.7259	13620.6875
1624.03199	13161.3875
1627.33587	13112.2875
1630.63757	13555.5875
1633.93707	14539.7875
1637.23439	16181.5875
1640.52951	18623.2875
1643.82246	21891.1875
1647.11321	25233.2875
1650.40179	26960.0875
1653.68819	25548.0875
1656.97241	21663.4875
1660.25446	17488.5875
1663.53433	14428.0875
1666.81203	12566.2875
1670.08756	11481.1875
1673.36092	10824.3875
1676.63211	10440.2875
1679.90115	10149.4875
1683.16801	9924.5875
1686.43272	9775.0875
1689.69527	9654.3875
1692.95567	9572.2875
1696.2139	9501.2875
1699.46999	9495.2875
1702.72392	9442.1875
1705.97571	9406.8875
1709.22535	9366.5875
1712.47284	9339.4875
1715.71819	9350.2875
1718.96139	9367.9875
1722.20246	9285.0875
1725.44139	9254.8875
1728.67818	9204.9875
1731.91284	9150.3875
1735.14537	9049.0875
1738.37576	8998.6875
1741.60403	8974.6875
1744.83017	8942.4875
1748.05418	8941.7875
1751.27607	8942.9875
1754.49584	8906.5875
1757.71349	8905.0875
1760.92903	8850.1875
1764.14244	8812.4875
1767.35375	8778.3875
1770.56294	8754.8875
1773.77002	8703.6875
1776.97499	8677.1875
1780.17785	8641.1875
1783.37861	8601.3875
1786.57727	8558.9875
1789.77382	8535.9875
1792.96828	8516.2875
1796.16064	8508.6875
1799.3509	8507.1875
1802.53907	8467.1875
1805.72514	8434.2875
1808.90913	8426.6875
1812.09102	8403.3875
1815.27083	8377.8875
1818.44856	8335.2875
1821.6242	8331.7875
1824.79776	8314.1875
1827.96924	8305.0875
1831.13864	8282.2875
1834.30597	8291.6875
1837.47122	8256.0875
1840.6344	8255.3875
1843.7955	8263.1875
1846.95454	8259.0875
1850.11151	8258.8875
1853.26642	8241.5875
1856.41926	8246.9875
1859.57004	8267.2875
1862.71876	8248.7875
1865.86542	8243.4875
1869.01003	8274.6875
1872.15258	8261.7875
1875.29308	8278.2875
1878.43152	8262.0875
1881.56792	8259.3875
1884.70227	8247.7875
1887.83457	8266.6875
1890.96482	8262.5875
1894.09304	8258.3875
1897.21921	8295.6875
1900.34335	8260.9875
1903.46544	8274.1875
1906.58551	8276.2875
1909.70353	8266.8875
1912.81953	8262.7875
1915.93349	8236.1875
1919.04543	8219.9875
1922.15534	8177.6875
1925.26322	8161.8875
1928.36908	8137.5875
1931.47292	8107.6875
1934.57473	8091.6875
1937.67453	8054.5875
1940.77232	8021.9875
1943.86808	7992.3875
1946.96184	7945.8875
1950.05358	7904.7875
1953.14331	7873.8875
1956.23103	7853.2875
1959.31675	7807.1875
1962.40046	7820.2875
1965.48217	7782.8875
1968.56188	7752.4875
1971.63959	7738.6875
1974.7153	7704.4875
1977.78901	7681.4875
1980.86073	7661.1875
1983.93046	7633.3875
1986.99819	7579.9875
1990.06394	7556.6875
1993.1277	7522.3875
1996.18947	7505.4875
1999.24925	7483.5875
2002.30706	7478.3875
2005.36288	7436.3875
2008.41672	7419.9875
2011.46859	7406.6875
2014.51848	7381.2875
2017.56639	7346.3875
2020.61233	7322.1875
2023.6563	7313.0875
2026.6983	7302.6875
2029.73833	7286.0875
2032.7764	7251.0875
2035.8125	7246.4875
2038.84664	7234.2875
2041.87881	7228.6875
2044.90903	7216.2875
2047.93729	7203.3875
2050.96359	7195.2875
2053.98794	7186.2875
2057.01034	7165.6875
2060.03078	7155.9875
2063.04927	7148.4875
2066.06582	7137.7875
2069.08042	7124.8875
2072.09307	7128.7875
2075.10378	7121.5875
2078.11255	7099.3875
2081.11938	7126.4875
2084.12426	7085.3875
2087.12722	7099.9875
2090.12824	7073.8875
2093.12732	7110.6875
2096.12447	7081.7875
2099.11969	7076.8875
2102.11299	7056.8875
2105.10435	7079.9875
2108.09379	7066.9875
2111.08131	7074.6875
2114.0669	7076.8875
2117.05057	7066.9875
2120.03233	7086.6875
2123.01216	7090.7875
2125.99008	7073.6875
2128.96609	7064.2875
2131.94018	7082.3875
2134.91236	7097.5875
2137.88263	7084.0875
2140.851	7067.4875
2143.81746	7076.7875
2146.78201	7087.6875
2149.74466	7086.6875
2152.7054	7077.1875
2155.66425	7054.8875
2158.6212	7036.5875
2161.57625	7062.5875
2164.52941	7052.0875
2167.48067	7034.3875
2170.43004	7018.1875
2173.37752	7034.5875
2176.32311	7031.0875
2179.26681	7035.2875
2182.20863	7020.4875
2185.14856	7035.1875
2188.08661	7041.2875
2191.02278	7027.0875
2193.95707	7011.1875
2196.88948	6990.9875
2199.82001	6998.3875
2202.74867	6989.9875
2205.67545	7007.2875
2208.60037	6980.9875
2211.52341	6964.2875
2214.44458	6988.6875
2217.36388	6943.9875
2220.28132	6943.7875
2223.1969	6922.4875
2226.11061	6922.4875
2229.02246	6904.6875
2231.93245	6878.1875
2234.84058	6863.1875
2237.74686	6870.4875
2240.65128	6851.9875
2243.55385	6843.2875
2246.45456	6851.8875
2249.35343	6825.3875
2252.25044	6819.9875
2255.14561	6803.5875
2258.03893	6807.2875
2260.93041	6795.5875
2263.82004	6769.6875
2266.70783	6741.8875
2269.59378	6736.1875
2272.4779	6713.9875
2275.36017	6708.4875
2278.24061	6669.6875
2281.11922	6663.9875
2283.996	6652.6875
2286.87094	6644.6875
2289.74405	6614.2875
2292.61534	6609.3875
2295.4848	6616.2875
2298.35243	6625.6875
2301.21824	6583.8875
2304.08223	6614.8875
2306.94439	6611.5875
2309.80474	6587.0875
2312.66327	6588.6875
2315.51999	6592.8875
2318.37489	6592.9875
2321.22797	6603.2875
2324.07925	6560.8875
2326.92871	6565.8875
2329.77637	6571.0875
2332.62222	6559.9875
2335.46626	6589.7875
2338.3085	6564.1875
2341.14893	6543.9875
2343.98756	6569.0875
2346.8244	6585.3875
2349.65943	6568.8875
2352.49267	6582.2875
2355.32411	6573.9875
2358.15376	6578.6875
2360.98161	6583.3875
2363.80768	6574.3875
2366.63195	6596.0875
2369.45444	6572.3875
2372.27514	6562.1875
2375.09405	6542.3875
2377.91118	6536.2875
2380.72652	6516.9875
2383.54009	6472.6875
2386.35187	6468.0875
2389.16188	6420.2875
2391.97011	6419.7875
2394.77657	6410.1875
2397.58125	6389.7875
2400.38416	6401.5875
2403.18529	6377.4875
2405.98466	6358.6875
2408.78226	6347.1875
2411.57809	6327.8875
2414.37216	6311.2875
2417.16446	6305.1875
2419.955	6301.0875
2422.74378	6292.0875
2425.5308	6285.0875
2428.31606	6282.0875
2431.09956	6292.7875
2433.88131	6279.0875
2436.6613	6269.6875
2439.43954	6262.8875
2442.21603	6278.0875
2444.99077	6273.8875
2447.76377	6282.1875
2450.53501	6269.9875
2453.30451	6277.0875
2456.07226	6283.1875
2458.83827	6266.7875
2461.60254	6270.5875
2464.36507	6281.8875
2467.12586	6250.8875
2469.88492	6259.0875
2472.64224	6256.9875
2475.39782	6293.2875
2478.15167	6299.4875
2480.90379	6310.7875
2483.65417	6315.5875
2486.40283	6326.6875
2489.14976	6316.1875
2491.89497	6321.7875
2494.63845	6344.7875
2497.3802	6367.8875
2500.12024	6338.2875
2502.85855	6323.1875
2505.59514	6306.5875
2508.33002	6290.6875
2511.06318	6270.0875
2513.79462	6254.4875
2516.52435	6235.5875
2519.25237	6224.5875
2521.97867	6204.8875
2524.70327	6216.3875
2527.42616	6193.3875
2530.14734	6189.6875
2532.86681	6182.4875
2535.58458	6182.2875
2538.30065	6163.7875
2541.01501	6148.4875
2543.72768	6170.9875
2546.43864	6147.8875
2549.14791	6158.8875
2551.85548	6158.0875
2554.56136	6157.3875
2557.26554	6149.5875
2559.96803	6157.6875
2562.66883	6136.3875
2565.36794	6144.8875
2568.06536	6146.2875
2570.7611	6123.0875
2573.45514	6130.1875
2576.14751	6109.2875
2578.83819	6115.5875
2581.52719	6111.4875
2584.21451	6107.5875
2586.90015	6105.5875
2589.58411	6110.7875
2592.2664	6101.2875
2594.94701	6098.2875
2597.62594	6106.6875
2600.30321	6074.6875
2602.9788	6067.0875
2605.65273	6063.8875
2608.32498	6099.6875
2610.99557	6090.6875
2613.66449	6090.2875
2616.33175	6074.4875
2618.99734	6065.0875
2621.66128	6092.7875
2624.32355	6081.7875
2626.98416	6081.6875
2629.64311	6095.1875
2632.30041	6084.8875
2634.95605	6063.9875
2637.61004	6053.7875
2640.26238	6060.5875
2642.91306	6047.1875
2645.56209	6054.3875
2648.20948	6039.2875
2650.85521	6024.9875
2653.4993	6025.6875
2656.14175	6036.0875
2658.78255	6050.2875
2661.42171	6042.8875
2664.05923	6045.5875
2666.6951	6060.8875
2669.32934	6079.6875
2671.96194	6076.8875
2674.59291	6085.3875
2677.22224	6071.3875
2679.84993	6092.6875
2682.476	6063.2875
2685.10043	6077.4875
2687.72324	6063.8875
2690.34441	6055.7875
2692.96396	6027.3875
2695.58188	6051.7875
2698.19818	6040.4875
2700.81285	6050.6875
2703.4259	6058.6875
2706.03733	6116.8875
2708.64714	6083.0875
2711.25533	6073.4875
2713.86191	6063.1875
2716.46687	6078.6875
2719.07021	6072.9875
2721.67194	6083.7875
2724.27206	6078.0875
2726.87057	6079.0875
2729.46747	6080.4875
2732.06276	6074.9875
2734.65644	6072.7875
2737.24852	6072.4875
2739.83899	6058.0875
2742.42786	6050.3875
2745.01513	6043.7875
2747.60079	6032.7875
2750.18486	6048.0875
2752.76733	6037.1875
2755.3482	6044.5875
2757.92747	6039.4875
2760.50515	6043.3875
2763.08123	6055.9875
2765.65573	6037.3875
2768.22863	6053.7875
2770.79994	6037.7875
2773.36967	6030.5875
2775.9378	6044.2875
2778.50435	6034.2875
2781.06932	6051.1875
2783.6327	6044.3875
2786.1945	6054.0875
2788.75471	6045.9875
2791.31335	6033.4875
2793.87041	6026.4875
2796.42589	6023.5875
2798.97979	6017.5875
2801.53212	6025.4875
2804.08288	6030.7875
2806.63206	6007.7875
2809.17967	6000.5875
2811.72571	5998.2875
2814.27018	6021.1875
2816.81308	6015.4875
2819.35442	6017.2875
2821.89419	6019.7875
2824.43239	6023.2875
2826.96904	6038.9875
2829.50412	6044.4875
2832.03763	6033.1875
2834.56959	6039.5875
2837.1	6024.6875
2839.62884	6012.0875
2842.15613	6029.5875
2844.68186	6042.6875
2847.20604	6066.7875
2849.72867	6093.5875
2852.24974	6089.6875
2854.76927	6099.6875
2857.28724	6110.8875
2859.80367	6092.1875
2862.31855	6073.2875
2864.83189	6075.3875
2867.34368	6073.1875
2869.85393	6055.8875
2872.36264	6062.5875
2874.8698	6067.3875
2877.37543	6069.1875
2879.87952	6076.5875
2882.38207	6060.8875
2884.88308	6057.4875
2887.38256	6091.0875
2889.88051	6095.0875
2892.37692	6068.0875
2894.8718	6079.6875
2897.36515	6091.2875
2899.85698	6110.4875
2902.34727	6109.7875
2904.83604	6118.7875
2907.32328	6132.9875
2909.809	6137.4875
2912.29319	6125.3875
2914.77587	6127.3875
2917.25702	6159.1875
2919.73665	6131.1875
2922.21476	6137.0875
2924.69136	6113.4875
2927.16644	6131.9875
2929.64	6112.4875
2932.11205	6089.3875
2934.58258	6046.5875
2937.05161	6075.4875
2939.51912	6045.0875
2941.98513	6027.6875
2944.44962	6001.8875
2946.91261	5963.6875
2949.37409	5999.7875
2951.83407	5964.4875
2954.29254	5951.2875
2956.74951	5922.7875
2959.20498	5917.2875
2961.65895	5878.0875
2964.11142	5864.5875
2966.56239	5831.7875
2969.01186	5822.2875
2971.45984	5800.4875
2973.90632	5764.2875
2976.35131	5739.3875
2978.7948	5722.8875
2981.23681	5697.8875
2983.67732	5676.1875
2986.11635	5664.4875
2988.55388	5645.3875
2990.98993	5630.9875
2993.4245	5633.4875
2995.85758	5622.2875
2998.28917	5603.7875
3000.71928	5596.0875
3003.14791	5606.1875
3005.57506	5603.1875
3008.00073	5564.7875
3010.42493	5564.1875
3012.84764	5556.6875
3015.26888	5561.5875
3017.68865	5521.0875
3020.10694	5502.0875
3022.52376	5503.2875
3024.9391	5501.4875
3027.35298	5483.0875
3029.76539	5479.6875
3032.17632	5456.3875
3034.5858	5441.9875
3036.9938	5421.3875
3039.40034	5428.4875
3041.80542	5393.2875
3044.20903	5402.3875
3046.61118	5408.9875
3049.01187	5377.7875
3051.4111	5372.0875
3053.80888	5366.8875
3056.20519	5355.7875
3058.60005	5344.2875
3060.99345	5313.7875
3063.3854	5308.6875
3065.7759	5289.8875
3068.16494	5278.1875
3070.55254	5250.7875
3072.93868	5233.2875
3075.32338	5220.0875
3077.70662	5208.1875
3080.08842	5190.0875
