Data from AgNPs_FTO_APTES_UA_20um_CRN_0.1mM_R6G_10uM_NaF_0.1M_Addition_RamanShift__2__14-18-39-171.txt Node

Date: Tue Dec 21 14:18:39 GMT 2021
User: TCL
Spectrometer: QEP01345
Trigger mode: 4
Integration Time (sec): 7.000000E0
Scans to average: 10
Electric dark correction enabled: true
Nonlinearity correction enabled: false
Boxcar width: 0
XAxis mode: Raman Shifts
Number of Pixels in Spectrum: 1044
>>>>>Begin Spectral Data<<<<<
46.04893	0.425
50.45542	-1.175
54.85868	-0.375
59.25871	-0.175
63.6555	44.725
68.04907	49.925
72.43941	51.325
76.82654	52.725
81.21044	59.225
85.59113	58.725
89.96862	59.825
94.34289	62.225
98.71396	63.325
103.08183	67.725
107.4465	71.925
111.80798	72.725
116.16626	75.825
120.52136	75.025
124.87327	80.025
129.222	78.225
133.56755	84.025
137.90993	95.525
142.24913	100.725
146.58517	110.025
150.91804	124.725
155.24774	151.125
159.57429	181.625
163.89768	237.325
168.21792	303.425
172.53501	409.025
176.84895	566.225
181.15975	790.425
185.46741	1104.325
189.77193	1532.225
194.07331	2056.025
198.37157	2650.325
202.6667	3286.625
206.9587	3925.325
211.24758	4547.925
215.53334	5186.825
219.81599	5861.425
224.09553	6604.025
228.37195	7432.525
232.64527	8312.625
236.91549	9258.525
241.18261	10183.425
245.44663	11015.725
249.70755	11721.325
253.96539	12320.525
258.22014	12825.825
262.4718	13272.225
266.72039	13591.825
270.96589	13734.025
275.20832	13746.025
279.44768	13607.225
283.68397	13420.225
287.91719	13264.325
292.14735	13196.925
296.37445	13216.025
300.59849	13307.725
304.81948	13465.725
309.03742	13501.225
313.25231	13452.925
317.46415	13212.325
321.67296	12797.325
325.87872	12430.325
330.08145	12223.625
334.28114	12167.825
338.47781	12244.225
342.67145	12381.925
346.86207	12584.925
351.04966	12881.925
355.23424	13175.925
359.4158	13438.925
363.59435	13650.825
367.76989	13748.725
371.94243	13779.825
376.11196	13838.425
380.27849	13901.625
384.44203	13965.525
388.60257	14068.325
392.76012	14203.725
396.91468	14357.025
401.06626	14608.525
405.21485	14784.625
409.36047	14703.325
413.50311	14401.125
417.64277	14137.825
421.77947	13990.625
425.9132	13995.925
430.04396	14021.925
434.17176	14075.125
438.2966	14164.825
442.41849	14370.125
446.53742	14778.125
450.6534	15220.425
454.76644	15492.825
458.87653	15546.825
462.98368	15421.525
467.08789	15241.525
471.18916	15069.925
475.2875	14840.025
479.38291	14722.525
483.4754	14648.825
487.56496	14511.925
491.6516	14303.125
495.73531	14082.225
499.81612	13987.225
503.89401	14005.325
507.96899	14048.125
512.04106	14018.725
516.11023	13943.625
520.1765	13848.925
524.23987	13782.225
528.30034	13680.625
532.35792	13584.925
536.41261	13444.925
540.46441	13222.325
544.51333	13176.325
548.55936	13221.325
552.60252	13495.325
556.64279	13860.925
560.6802	14153.725
564.71473	14264.525
568.7464	14468.925
572.7752	14880.425
576.80114	15180.225
580.82422	15398.525
584.84444	15842.525
588.86181	16409.425
592.87633	16990.125
596.888	17004.425
600.89682	16429.325
604.9028	16447.425
608.90594	17891.525
612.90624	19903.725
616.90371	19009.325
620.89834	15431.125
624.89015	13736.125
628.87913	13453.625
632.86528	13606.625
636.84862	13679.225
640.82913	13484.325
644.80683	13105.925
648.78172	12813.425
652.75379	12763.425
656.72306	12872.025
660.68952	13126.525
664.65319	13044.225
668.61405	12754.425
672.57211	12668.525
676.52738	12749.725
680.47986	12778.825
684.42955	12717.525
688.37646	12595.925
692.32058	12611.625
696.26192	12736.625
700.20048	12900.525
704.13626	12990.825
708.06928	13006.325
711.99952	12909.725
715.927	12868.625
719.85171	12961.125
723.77365	12923.425
727.69284	12756.225
731.60928	12592.425
735.52295	12539.725
739.43388	12535.425
743.34206	12586.125
747.24749	12615.725
751.15017	12736.725
755.05012	12950.125
758.94733	13325.425
762.8418	14049.725
766.73354	15305.425
770.62254	16618.325
774.50882	17078.425
778.39237	16439.425
782.27321	15070.025
786.15132	13835.225
790.02671	13079.625
793.89938	12699.325
797.76935	12558.525
801.6366	12479.125
805.50115	12419.825
809.36299	12325.325
813.22213	12227.425
817.07857	12188.825
820.93231	12096.025
824.78336	12021.125
828.63172	11984.225
832.47738	11952.025
836.32036	11954.725
840.16066	11977.125
843.99827	11985.425
847.8332	11935.925
851.66546	11868.025
855.49504	11829.725
859.32195	11827.725
863.1462	11802.825
866.96777	11784.525
870.78668	11782.625
874.60293	11772.125
878.41652	11793.325
882.22745	11842.225
886.03573	11899.625
889.84136	11925.125
893.64433	11867.225
897.44466	11803.325
901.24235	11716.925
905.0374	11602.025
908.8298	11588.125
912.61957	11560.925
916.40671	11610.925
920.19121	11774.925
923.97308	11916.225
927.75233	11990.025
931.52895	11956.025
935.30295	11761.825
939.07433	11541.525
942.84309	11308.325
946.60924	11206.825
950.37278	11180.625
954.13371	11131.525
957.89203	11101.925
961.64774	11097.425
965.40086	11068.225
969.15137	11052.225
972.89929	10983.725
976.64461	10960.325
980.38733	10921.825
984.12747	10939.825
987.86502	10978.125
991.59999	11095.725
995.33237	11244.525
999.06217	11478.725
1002.78939	11805.825
1006.51404	12042.525
1010.23611	12234.425
1013.95561	12375.425
1017.67255	12432.525
1021.38692	12329.425
1025.09872	12150.125
1028.80796	12011.125
1032.51465	12134.425
1036.21877	12357.825
1039.92035	12495.325
1043.61937	12456.925
1047.31584	12327.125
1051.00976	12147.325
1054.70114	12045.725
1058.38998	11985.225
1062.07627	12019.425
1065.76003	12113.625
1069.44126	12225.925
1073.11995	12416.325
1076.79611	12659.225
1080.46974	12741.725
1084.14085	12819.025
1087.80943	12953.125
1091.47549	13099.825
1095.13903	13146.325
1098.80005	12951.625
1102.45857	12606.125
1106.11456	12340.625
1109.76805	12248.125
1113.41903	12256.925
1117.06751	12394.225
1120.71348	12560.025
1124.35696	12788.125
1127.99793	13040.625
1131.63641	13219.925
1135.2724	13094.125
1138.90589	12932.925
1142.5369	12864.725
1146.16542	12845.325
1149.79145	12874.725
1153.415	12970.025
1157.03607	13107.725
1160.65467	13405.725
1164.27079	13990.925
1167.88443	14788.425
1171.49561	15759.125
1175.10432	17069.325
1178.71056	18740.525
1182.31434	20283.925
1185.91565	20978.725
1189.51451	20699.525
1193.11091	19871.625
1196.70485	18901.225
1200.29634	17959.125
1203.88538	17313.425
1207.47197	16760.525
1211.05612	16351.725
1214.63782	15971.725
1218.21708	15628.925
1221.79391	15352.725
1225.36829	15248.625
1228.94024	15106.925
1232.50976	14863.525
1236.07685	14593.025
1239.6415	14419.625
1243.20374	14378.125
1246.76355	14469.625
1250.32093	14658.025
1253.8759	14996.325
1257.42845	15486.825
1260.97859	15949.425
1264.52631	16453.525
1268.07163	16958.025
1271.61453	17472.325
1275.15503	17971.125
1278.69312	18445.525
1282.22882	18986.525
1285.76211	19599.525
1289.29301	20386.525
1292.82151	21330.325
1296.34761	22456.925
1299.87133	23785.425
1303.39266	25336.725
1306.9116	26907.725
1310.42815	28315.325
1313.94233	29057.725
1317.45412	28873.025
1320.96354	27961.725
1324.47058	26989.625
1327.97525	26119.425
1331.47754	25476.825
1334.97747	25054.125
1338.47502	24697.825
1341.97022	24333.325
1345.46305	24141.425
1348.95352	24158.125
1352.44163	24662.725
1355.92738	25808.625
1359.41078	27519.025
1362.89183	29113.025
1366.37053	29027.425
1369.84688	26475.825
1373.32088	23077.725
1376.79254	20673.825
1380.26186	19644.625
1383.72883	19362.525
1387.19347	19172.725
1390.65578	18804.625
1394.11575	18642.225
1397.57339	18752.425
1401.0287	19002.625
1404.48168	19154.825
1407.93234	19091.525
1411.38068	18741.025
1414.82669	18169.825
1418.27039	17558.925
1421.71177	16863.925
1425.15083	16292.125
1428.58758	15984.325
1432.02203	16090.425
1435.45416	16489.525
1438.88399	16892.725
1442.31151	17153.025
1445.73673	17362.725
1449.15965	17546.825
1452.58027	17630.825
1455.9986	17595.225
1459.41463	17650.125
1462.82837	17887.225
1466.23982	18216.825
1469.64898	18555.025
1473.05586	18740.525
1476.46045	18839.925
1479.86276	18840.225
1483.26279	18817.525
1486.66054	18874.325
1490.05602	19077.925
1493.44922	19464.825
1496.84016	19982.825
1500.22882	20635.825
1503.61521	21606.225
1506.99934	22778.625
1510.38121	23747.225
1513.76081	24064.225
1517.13816	23361.025
1520.51324	22009.025
1523.88607	20702.725
1527.25665	19987.925
1530.62498	19651.925
1533.99105	19350.625
1537.35488	19000.025
1540.71647	18581.625
1544.07581	18035.325
1547.4329	17518.725
1550.78776	17121.425
1554.14038	16808.425
1557.49077	16694.525
1560.83892	16728.725
1564.18484	16839.125
1567.52853	17064.425
1570.86999	17363.725
1574.20922	17681.225
1577.54624	17956.325
1580.88103	17861.425
1584.2136	17692.825
1587.54395	17915.825
1590.87208	18626.525
1594.19801	19696.725
1597.52172	20860.925
1600.84321	21305.425
1604.16251	20476.925
1607.47959	18875.825
1610.79447	17100.925
1614.10715	15523.325
1617.41763	14247.325
1620.7259	13490.425
1624.03199	13107.225
1627.33587	13079.725
1630.63757	13432.925
1633.93707	14225.225
1637.23439	15655.225
1640.52951	17750.425
1643.82246	20532.025
1647.11321	23013.125
1650.40179	23960.625
1653.68819	22635.425
1656.97241	19639.125
1660.25446	16480.225
1663.53433	14143.825
1666.81203	12644.025
1670.08756	11718.825
1673.36092	11134.825
1676.63211	10784.225
1679.90115	10523.425
1683.16801	10314.925
1686.43272	10148.125
1689.69527	10027.025
1692.95567	9947.525
1696.2139	9895.525
1699.46999	9873.225
1702.72392	9805.925
1705.97571	9772.925
1709.22535	9735.925
1712.47284	9677.525
1715.71819	9669.725
1718.96139	9616.925
1722.20246	9604.825
1725.44139	9521.525
1728.67818	9471.125
1731.91284	9422.825
1735.14537	9358.925
1738.37576	9318.925
1741.60403	9284.425
1744.83017	9254.125
1748.05418	9246.925
1751.27607	9229.625
1754.49584	9244.125
1757.71349	9254.225
1760.92903	9224.625
1764.14244	9198.325
1767.35375	9183.325
1770.56294	9142.525
1773.77002	9083.925
1776.97499	9066.525
1780.17785	9050.125
1783.37861	9014.525
1786.57727	8978.725
1789.77382	8980.025
1792.96828	8934.925
1796.16064	8912.425
1799.3509	8885.925
1802.53907	8870.725
1805.72514	8851.425
1808.90913	8792.425
1812.09102	8811.925
1815.27083	8772.925
1818.44856	8726.425
1821.6242	8732.925
1824.79776	8747.925
1827.96924	8712.625
1831.13864	8700.325
1834.30597	8704.725
1837.47122	8700.225
1840.6344	8714.725
1843.7955	8690.425
1846.95454	8692.925
1850.11151	8671.625
1853.26642	8660.525
1856.41926	8672.725
1859.57004	8650.525
1862.71876	8618.425
1865.86542	8635.025
1869.01003	8604.225
1872.15258	8606.225
1875.29308	8611.425
1878.43152	8585.125
1881.56792	8566.025
1884.70227	8558.925
1887.83457	8550.525
1890.96482	8550.125
1894.09304	8517.725
1897.21921	8521.325
1900.34335	8506.025
1903.46544	8513.425
1906.58551	8472.525
1909.70353	8457.825
1912.81953	8452.025
1915.93349	8427.725
1919.04543	8413.825
1922.15534	8391.525
1925.26322	8374.525
1928.36908	8344.025
1931.47292	8319.325
1934.57473	8294.925
1937.67453	8264.925
1940.77232	8242.925
1943.86808	8233.625
1946.96184	8201.325
1950.05358	8164.925
1953.14331	8144.725
1956.23103	8136.625
1959.31675	8114.925
1962.40046	8088.425
1965.48217	8066.925
1968.56188	8049.125
1971.63959	8027.625
1974.7153	8014.825
1977.78901	7972.625
1980.86073	7940.025
1983.93046	7914.225
1986.99819	7892.425
1990.06394	7875.525
1993.1277	7848.125
1996.18947	7795.825
1999.24925	7792.225
2002.30706	7766.525
2005.36288	7749.025
2008.41672	7719.825
2011.46859	7678.325
2014.51848	7651.725
2017.56639	7623.025
2020.61233	7626.725
2023.6563	7625.925
2026.6983	7601.725
2029.73833	7577.725
2032.7764	7558.925
2035.8125	7551.725
2038.84664	7543.025
2041.87881	7525.025
2044.90903	7494.925
2047.93729	7483.425
2050.96359	7506.525
2053.98794	7481.625
2057.01034	7483.725
2060.03078	7456.225
2063.04927	7430.025
2066.06582	7422.225
2069.08042	7433.525
2072.09307	7435.525
2075.10378	7423.525
2078.11255	7398.225
2081.11938	7413.725
2084.12426	7401.725
2087.12722	7399.725
2090.12824	7388.725
2093.12732	7382.325
2096.12447	7381.925
2099.11969	7393.425
2102.11299	7387.425
2105.10435	7379.925
2108.09379	7397.425
2111.08131	7380.425
2114.0669	7415.225
2117.05057	7424.625
2120.03233	7384.925
2123.01216	7423.825
2125.99008	7408.825
2128.96609	7415.525
2131.94018	7414.925
2134.91236	7416.425
2137.88263	7396.525
2140.851	7414.025
2143.81746	7416.925
2146.78201	7411.625
2149.74466	7433.425
2152.7054	7401.625
2155.66425	7398.225
2158.6212	7393.125
2161.57625	7389.225
2164.52941	7405.125
2167.48067	7369.425
2170.43004	7386.625
2173.37752	7374.225
2176.32311	7383.925
2179.26681	7362.825
2182.20863	7360.325
2185.14856	7381.725
2188.08661	7375.125
2191.02278	7378.925
2193.95707	7376.425
2196.88948	7359.225
2199.82001	7376.725
2202.74867	7352.225
2205.67545	7331.925
2208.60037	7332.725
2211.52341	7318.225
2214.44458	7311.325
2217.36388	7293.725
2220.28132	7276.225
2223.1969	7258.025
2226.11061	7271.225
2229.02246	7257.725
2231.93245	7231.325
2234.84058	7215.725
2237.74686	7180.225
2240.65128	7202.625
2243.55385	7165.425
2246.45456	7165.925
2249.35343	7145.625
2252.25044	7169.025
2255.14561	7134.525
2258.03893	7137.925
2260.93041	7117.325
2263.82004	7108.625
2266.70783	7085.125
2269.59378	7069.825
2272.4779	7053.725
2275.36017	7021.625
2278.24061	7009.925
2281.11922	7005.925
2283.996	6990.825
2286.87094	6989.225
2289.74405	6964.825
2292.61534	6958.225
2295.4848	6965.325
2298.35243	6947.525
2301.21824	6933.125
2304.08223	6948.225
2306.94439	6947.625
2309.80474	6931.825
2312.66327	6940.325
2315.51999	6936.225
2318.37489	6933.325
2321.22797	6904.525
2324.07925	6905.325
2326.92871	6885.925
2329.77637	6888.725
2332.62222	6906.225
2335.46626	6878.025
2338.3085	6866.125
2341.14893	6865.425
2343.98756	6860.325
2346.8244	6859.325
2349.65943	6869.025
2352.49267	6863.625
2355.32411	6862.625
2358.15376	6869.025
2360.98161	6867.125
2363.80768	6863.125
2366.63195	6843.825
2369.45444	6839.825
2372.27514	6817.625
2375.09405	6816.725
2377.91118	6805.825
2380.72652	6786.525
2383.54009	6773.725
2386.35187	6741.225
2389.16188	6711.525
2391.97011	6717.825
2394.77657	6715.925
2397.58125	6688.425
2400.38416	6676.225
2403.18529	6658.925
2405.98466	6654.825
2408.78226	6640.425
2411.57809	6635.325
2414.37216	6614.325
2417.16446	6620.225
2419.955	6592.325
2422.74378	6600.325
2425.5308	6584.525
2428.31606	6602.725
2431.09956	6589.125
2433.88131	6595.325
2436.6613	6597.125
2439.43954	6579.225
2442.21603	6600.725
2444.99077	6562.325
2447.76377	6575.125
2450.53501	6586.625
2453.30451	6583.425
2456.07226	6578.225
2458.83827	6556.025
2461.60254	6578.525
2464.36507	6555.725
2467.12586	6574.825
2469.88492	6564.625
2472.64224	6568.425
2475.39782	6558.025
2478.15167	6588.625
2480.90379	6546.625
2483.65417	6570.025
2486.40283	6549.225
2489.14976	6556.425
2491.89497	6554.725
2494.63845	6585.125
2497.3802	6552.925
2500.12024	6559.725
2502.85855	6560.225
2505.59514	6537.425
2508.33002	6530.725
2511.06318	6527.325
2513.79462	6509.625
2516.52435	6502.525
2519.25237	6511.625
2521.97867	6505.825
2524.70327	6481.025
2527.42616	6484.625
2530.14734	6469.325
2532.86681	6459.425
2535.58458	6459.225
2538.30065	6446.425
2541.01501	6441.925
2543.72768	6440.525
2546.43864	6427.225
2549.14791	6430.925
2551.85548	6423.625
2554.56136	6423.825
2557.26554	6394.525
2559.96803	6413.525
2562.66883	6374.425
2565.36794	6404.825
2568.06536	6390.525
2570.7611	6382.525
2573.45514	6379.225
2576.14751	6371.425
2578.83819	6359.525
2581.52719	6367.725
2584.21451	6351.425
2586.90015	6340.125
2589.58411	6348.825
2592.2664	6342.525
2594.94701	6315.325
2597.62594	6329.625
2600.30321	6300.425
2602.9788	6304.025
2605.65273	6281.625
2608.32498	6294.425
2610.99557	6289.025
2613.66449	6301.325
2616.33175	6263.125
2618.99734	6292.825
2621.66128	6271.525
2624.32355	6277.125
2626.98416	6277.825
2629.64311	6260.625
2632.30041	6272.725
2634.95605	6246.625
2637.61004	6248.425
2640.26238	6262.625
2642.91306	6245.325
2645.56209	6237.425
2648.20948	6223.025
2650.85521	6206.925
2653.4993	6230.225
2656.14175	6206.525
2658.78255	6210.525
2661.42171	6226.225
2664.05923	6231.425
2666.6951	6250.325
2669.32934	6256.325
2671.96194	6243.125
2674.59291	6240.925
2677.22224	6244.425
2679.84993	6250.225
2682.476	6235.325
2685.10043	6219.425
2687.72324	6226.525
2690.34441	6238.125
2692.96396	6231.125
2695.58188	6233.325
2698.19818	6227.525
2700.81285	6233.025
2703.4259	6260.925
2706.03733	6291.025
2708.64714	6253.725
2711.25533	6242.725
2713.86191	6240.225
2716.46687	6245.025
2719.07021	6250.725
2721.67194	6259.225
2724.27206	6231.025
2726.87057	6240.925
2729.46747	6250.925
2732.06276	6249.225
2734.65644	6250.325
2737.24852	6241.925
2739.83899	6220.725
2742.42786	6216.725
2745.01513	6210.125
2747.60079	6212.325
2750.18486	6210.825
2752.76733	6210.625
2755.3482	6210.325
2757.92747	6213.525
2760.50515	6196.925
2763.08123	6197.625
2765.65573	6182.225
2768.22863	6206.925
2770.79994	6170.825
2773.36967	6188.125
2775.9378	6178.725
2778.50435	6176.025
2781.06932	6181.825
2783.6327	6168.125
2786.1945	6171.925
2788.75471	6154.925
2791.31335	6147.125
2793.87041	6151.825
2796.42589	6104.625
2798.97979	6126.725
2801.53212	6103.225
2804.08288	6104.625
2806.63206	6107.925
2809.17967	6071.325
2811.72571	6086.225
2814.27018	6067.125
2816.81308	6075.925
2819.35442	6063.225
2821.89419	6064.825
2824.43239	6071.625
2826.96904	6057.225
2829.50412	6055.025
2832.03763	6044.125
2834.56959	6055.625
2837.1	6037.225
2839.62884	6047.525
2842.15613	6045.825
2844.68186	6075.425
2847.20604	6070.425
2849.72867	6057.225
2852.24974	6057.125
2854.76927	6072.925
2857.28724	6079.925
2859.80367	6046.325
2862.31855	6046.825
2864.83189	6033.125
2867.34368	6037.725
2869.85393	6029.925
2872.36264	6029.725
2874.8698	6013.225
2877.37543	6020.125
2879.87952	6043.725
2882.38207	6024.125
2884.88308	6023.725
2887.38256	6024.025
2889.88051	6020.525
2892.37692	6024.125
2894.8718	6017.625
2897.36515	6061.025
2899.85698	6038.025
2902.34727	6054.925
2904.83604	6042.225
2907.32328	6062.325
2909.809	6047.925
2912.29319	6067.325
2914.77587	6088.525
2917.25702	6087.525
2919.73665	6080.425
2922.21476	6054.125
2924.69136	6072.025
2927.16644	6066.125
2929.64	6077.625
2932.11205	6055.325
2934.58258	6049.325
2937.05161	6034.525
2939.51912	6025.725
2941.98513	6041.425
2944.44962	6021.025
2946.91261	5996.725
2949.37409	6007.925
2951.83407	5997.625
2954.29254	5995.725
2956.74951	6000.925
2959.20498	5969.025
2961.65895	5975.925
2964.11142	5951.125
2966.56239	5931.325
2969.01186	5917.925
2971.45984	5910.525
2973.90632	5891.325
2976.35131	5876.125
2978.7948	5861.625
2981.23681	5852.325
2983.67732	5841.325
2986.11635	5824.125
2988.55388	5803.025
2990.98993	5787.325
2993.4245	5762.325
2995.85758	5760.825
2998.28917	5739.625
3000.71928	5742.625
3003.14791	5745.225
3005.57506	5727.425
3008.00073	5727.225
3010.42493	5731.725
3012.84764	5717.025
3015.26888	5714.525
3017.68865	5692.125
3020.10694	5677.625
3022.52376	5675.825
3024.9391	5658.325
3027.35298	5671.425
3029.76539	5649.925
3032.17632	5638.925
3034.5858	5620.725
3036.9938	5623.425
3039.40034	5627.425
3041.80542	5613.425
3044.20903	5606.725
3046.61118	5608.225
3049.01187	5591.125
3051.4111	5583.325
3053.80888	5569.925
3056.20519	5582.825
3058.60005	5562.825
3060.99345	5548.525
3063.3854	5530.025
3065.7759	5518.525
3068.16494	5526.225
3070.55254	5512.725
3072.93868	5494.425
3075.32338	5471.125
3077.70662	5461.125
3080.08842	5452.325
3082.46878	5453.525
3084.84769	5442.625
3087.22515	5444.825
3089.60118	5436.125
3091.97576	5446.325
3094.3489	5447.825
3096.72061	5433.425
3099.09087	5439.325
3101.4597	5437.825
3103.82709	5430.925
3106.19305	5436.925
3108.55757	5434.925
3110.92066	5410.525
3113.28232	5397.925
3115.64255	5398.225
3118.00134	5385.625
3120.35871	5377.025
3122.71466	5366.025
3125.06917	5348.325
3127.42226	5358.125
3129.77393	5350.625
3132.12417	5360.425
3134.47299	5373.425
3136.82039	5362.325
3139.16636	5357.125
3141.51092	5357.325
3143.85406	5366.825
3146.19579	5369.125
3148.53609	5357.825
3150.87499	5359.225
3153.21246	5371.625
3155.54853	5380.525
3157.88318	5361.225
3160.21642	5383.825
3162.54826	5387.725
3164.87868	5379.825
3167.2077	5381.825
3169.5353	5376.625
3171.86151	5371.925
3174.18631	5373.625
3176.5097	5378.425
3178.83169	5351.425
3181.15228	5353.825
3183.47147	5354.625
3185.78926	5339.625
3188.10565	5355.425
3190.42065	5330.125
