Data from AgNPs_FTO_APTES_UA_50um_CRN_0.1mM_R6G_10uM_NaF_0.1M_Addition_RamanShift__17__15-22-49-244.txt Node

Date: Tue Dec 21 15:22:49 GMT 2021
User: TCL
Spectrometer: QEP01345
Trigger mode: 4
Integration Time (sec): 7.000000E0
Scans to average: 10
Electric dark correction enabled: true
Nonlinearity correction enabled: false
Boxcar width: 0
XAxis mode: Raman Shifts
Number of Pixels in Spectrum: 1044
>>>>>Begin Spectral Data<<<<<
46.04893	0.5875
50.45542	-0.3125
54.85868	0.3875
59.25871	-1.0125
63.6555	39.7875
68.04907	45.5875
72.43941	46.5875
76.82654	48.4875
81.21044	53.9875
85.59113	55.4875
89.96862	56.7875
94.34289	56.8875
98.71396	57.8875
103.08183	62.5875
107.4465	66.7875
111.80798	68.0875
116.16626	62.9875
120.52136	66.3875
124.87327	69.3875
129.222	67.3875
133.56755	75.8875
137.90993	82.7875
142.24913	80.8875
146.58517	93.0875
150.91804	104.0875
155.24774	126.5875
159.57429	147.2875
163.89768	193.8875
168.21792	243.1875
172.53501	327.6875
176.84895	451.1875
181.15975	629.7875
185.46741	878.5875
189.77193	1223.2875
194.07331	1632.7875
198.37157	2113.7875
202.6667	2617.6875
206.9587	3129.6875
211.24758	3645.3875
215.53334	4135.1875
219.81599	4678.4875
224.09553	5229.0875
228.37195	5878.8875
232.64527	6590.8875
236.91549	7332.3875
241.18261	8063.4875
245.44663	8737.9875
249.70755	9365.6875
253.96539	9849.9875
258.22014	10294.3875
262.4718	10639.0875
266.72039	10899.0875
270.96589	11003.7875
275.20832	10981.2875
279.44768	10955.3875
283.68397	10781.9875
287.91719	10693.8875
292.14735	10634.2875
296.37445	10630.8875
300.59849	10689.3875
304.81948	10745.4875
309.03742	10764.4875
313.25231	10636.8875
317.46415	10363.7875
321.67296	10050.8875
325.87872	9752.4875
330.08145	9613.0875
334.28114	9580.9875
338.47781	9652.4875
342.67145	9777.9875
346.86207	9950.0875
351.04966	10171.7875
355.23424	10383.2875
359.4158	10580.1875
363.59435	10720.2875
367.76989	10828.5875
371.94243	10889.5875
376.11196	10961.4875
380.27849	10993.7875
384.44203	11051.3875
388.60257	11111.8875
392.76012	11191.4875
396.91468	11312.8875
401.06626	11456.7875
405.21485	11560.8875
409.36047	11481.6875
413.50311	11257.5875
417.64277	11019.9875
421.77947	10923.3875
425.9132	10860.7875
430.04396	10915.2875
434.17176	10978.5875
438.2966	11057.6875
442.41849	11216.3875
446.53742	11452.3875
450.6534	11714.7875
454.76644	11942.3875
458.87653	12036.2875
462.98368	11996.8875
467.08789	11923.4875
471.18916	11801.0875
475.2875	11734.3875
479.38291	11707.0875
483.4754	11631.8875
487.56496	11518.1875
491.6516	11370.1875
495.73531	11250.8875
499.81612	11175.7875
503.89401	11221.4875
507.96899	11248.1875
512.04106	11210.0875
516.11023	11205.0875
520.1765	11153.1875
524.23987	11096.4875
528.30034	11042.1875
532.35792	10983.0875
536.41261	10908.5875
540.46441	10825.4875
544.51333	10786.2875
548.55936	10789.2875
552.60252	10955.8875
556.64279	11152.6875
560.6802	11270.8875
564.71473	11314.7875
568.7464	11468.0875
572.7752	11648.7875
576.80114	11754.5875
580.82422	11829.6875
584.84444	11921.8875
588.86181	12043.7875
592.87633	12158.3875
596.888	12199.6875
600.89682	12210.6875
604.9028	12584.1875
608.90594	13795.7875
612.90624	15245.1875
616.90371	14645.5875
620.89834	12155.4875
624.89015	10983.6875
628.87913	10786.9875
632.86528	10930.2875
636.84862	11072.0875
640.82913	11025.7875
644.80683	10759.5875
648.78172	10459.2875
652.75379	10333.2875
656.72306	10427.7875
660.68952	10617.2875
664.65319	10628.9875
668.61405	10474.7875
672.57211	10460.9875
676.52738	10544.7875
680.47986	10588.9875
684.42955	10502.4875
688.37646	10405.4875
692.32058	10322.8875
696.26192	10329.9875
700.20048	10365.8875
704.13626	10405.1875
708.06928	10393.8875
711.99952	10345.9875
715.927	10291.8875
719.85171	10279.4875
723.77365	10290.7875
727.69284	10234.8875
731.60928	10183.7875
735.52295	10146.9875
739.43388	10161.3875
743.34206	10171.3875
747.24749	10161.1875
751.15017	10196.0875
755.05012	10297.4875
758.94733	10524.8875
762.8418	11047.8875
766.73354	11963.2875
770.62254	12978.6875
774.50882	13446.0875
778.39237	12995.7875
782.27321	11884.7875
786.15132	10960.1875
790.02671	10344.2875
793.89938	10028.7875
797.76935	9897.2875
801.6366	9855.1875
805.50115	9811.8875
809.36299	9762.5875
813.22213	9723.2875
817.07857	9665.7875
820.93231	9609.0875
824.78336	9573.4875
828.63172	9549.6875
832.47738	9489.5875
836.32036	9495.1875
840.16066	9449.9875
843.99827	9440.2875
847.8332	9404.7875
851.66546	9390.5875
855.49504	9357.9875
859.32195	9408.7875
863.1462	9401.2875
866.96777	9394.0875
870.78668	9410.7875
874.60293	9405.4875
878.41652	9397.9875
882.22745	9417.8875
886.03573	9452.8875
889.84136	9455.0875
893.64433	9404.3875
897.44466	9371.4875
901.24235	9282.7875
905.0374	9215.7875
908.8298	9168.3875
912.61957	9134.3875
916.40671	9179.4875
920.19121	9264.9875
923.97308	9305.3875
927.75233	9305.6875
931.52895	9279.8875
935.30295	9164.9875
939.07433	9044.0875
942.84309	8915.7875
946.60924	8825.4875
950.37278	8781.4875
954.13371	8766.8875
957.89203	8738.7875
961.64774	8710.7875
965.40086	8656.6875
969.15137	8633.7875
972.89929	8579.3875
976.64461	8535.5875
980.38733	8512.1875
984.12747	8516.4875
987.86502	8528.7875
991.59999	8595.6875
995.33237	8644.6875
999.06217	8774.4875
1002.78939	8910.7875
1006.51404	9043.0875
1010.23611	9167.4875
1013.95561	9262.1875
1017.67255	9295.5875
1021.38692	9216.0875
1025.09872	9100.7875
1028.80796	8968.0875
1032.51465	8961.2875
1036.21877	9012.6875
1039.92035	9074.8875
1043.61937	9071.7875
1047.31584	9065.4875
1051.00976	9084.8875
1054.70114	9080.6875
1058.38998	9078.5875
1062.07627	9149.6875
1065.76003	9222.7875
1069.44126	9285.9875
1073.11995	9363.4875
1076.79611	9451.5875
1080.46974	9481.0875
1084.14085	9524.0875
1087.80943	9604.7875
1091.47549	9663.5875
1095.13903	9703.1875
1098.80005	9608.7875
1102.45857	9449.9875
1106.11456	9294.6875
1109.76805	9244.3875
1113.41903	9261.4875
1117.06751	9374.3875
1120.71348	9518.5875
1124.35696	9697.2875
1127.99793	9893.2875
1131.63641	10059.3875
1135.2724	10030.5875
1138.90589	9866.6875
1142.5369	9738.4875
1146.16542	9651.1875
1149.79145	9600.2875
1153.415	9591.0875
1157.03607	9668.9875
1160.65467	9829.4875
1164.27079	10159.3875
1167.88443	10604.1875
1171.49561	11176.4875
1175.10432	11970.4875
1178.71056	12984.1875
1182.31434	13946.1875
1185.91565	14358.3875
1189.51451	14328.1875
1193.11091	13867.8875
1196.70485	13312.1875
1200.29634	12723.8875
1203.88538	12271.9875
1207.47197	11858.2875
1211.05612	11460.9875
1214.63782	11147.1875
1218.21708	10937.5875
1221.79391	10800.5875
1225.36829	10720.2875
1228.94024	10632.4875
1232.50976	10503.2875
1236.07685	10416.4875
1239.6415	10343.8875
1243.20374	10321.7875
1246.76355	10386.8875
1250.32093	10493.3875
1253.8759	10639.1875
1257.42845	10913.3875
1260.97859	11187.5875
1264.52631	11416.1875
1268.07163	11682.0875
1271.61453	11950.9875
1275.15503	12236.2875
1278.69312	12452.7875
1282.22882	12726.0875
1285.76211	13032.2875
1289.29301	13442.6875
1292.82151	13953.3875
1296.34761	14560.3875
1299.87133	15270.3875
1303.39266	16097.4875
1306.9116	16948.0875
1310.42815	17817.2875
1313.94233	18433.7875
1317.45412	18453.4875
1320.96354	18121.0875
1324.47058	17664.1875
1327.97525	17228.5875
1331.47754	16876.4875
1334.97747	16620.3875
1338.47502	16534.7875
1341.97022	16511.6875
1345.46305	16553.3875
1348.95352	16679.0875
1352.44163	16943.2875
1355.92738	17517.2875
1359.41078	18397.3875
1362.89183	19239.6875
1366.37053	19096.6875
1369.84688	17475.7875
1373.32088	15457.1875
1376.79254	13988.5875
1380.26186	13326.0875
1383.72883	13119.9875
1387.19347	12992.0875
1390.65578	12844.1875
1394.11575	12740.1875
1397.57339	12773.8875
1401.0287	12901.1875
1404.48168	13004.1875
1407.93234	13001.3875
1411.38068	12808.0875
1414.82669	12447.2875
1418.27039	12014.3875
1421.71177	11539.6875
1425.15083	11160.3875
1428.58758	10901.9875
1432.02203	10872.1875
1435.45416	11011.5875
1438.88399	11278.8875
1442.31151	11444.7875
1445.73673	11652.0875
1449.15965	11854.3875
1452.58027	12013.1875
1455.9986	12130.5875
1459.41463	12224.5875
1462.82837	12401.1875
1466.23982	12575.6875
1469.64898	12743.6875
1473.05586	12862.7875
1476.46045	12840.5875
1479.86276	12826.4875
1483.26279	12761.4875
1486.66054	12719.0875
1490.05602	12783.1875
1493.44922	12933.4875
1496.84016	13239.3875
1500.22882	13733.0875
1503.61521	14484.9875
1506.99934	15373.9875
1510.38121	16160.1875
1513.76081	16444.8875
1517.13816	15993.5875
1520.51324	15019.5875
1523.88607	14071.7875
1527.25665	13463.0875
1530.62498	13132.3875
1533.99105	12910.6875
1537.35488	12759.6875
1540.71647	12548.5875
1544.07581	12290.0875
1547.4329	12045.0875
1550.78776	11841.2875
1554.14038	11734.7875
1557.49077	11724.3875
1560.83892	11800.2875
1564.18484	11925.0875
1567.52853	12079.7875
1570.86999	12195.4875
1574.20922	12362.0875
1577.54624	12448.4875
1580.88103	12326.1875
1584.2136	12138.2875
1587.54395	12052.9875
1590.87208	12295.9875
1594.19801	12761.2875
1597.52172	13384.0875
1600.84321	13659.6875
1604.16251	13299.7875
1607.47959	12545.1875
1610.79447	11666.6875
1614.10715	10859.3875
1617.41763	10118.5875
1620.7259	9608.9875
1624.03199	9313.9875
1627.33587	9226.1875
1630.63757	9340.1875
1633.93707	9772.1875
1637.23439	10479.7875
1640.52951	11546.1875
1643.82246	12956.2875
1647.11321	14291.9875
1650.40179	15008.2875
1653.68819	14570.2875
1656.97241	13086.5875
1660.25446	11340.1875
1663.53433	9952.5875
1666.81203	9066.7875
1670.08756	8461.4875
1673.36092	8078.8875
1676.63211	7839.6875
1679.90115	7648.6875
1683.16801	7530.2875
1686.43272	7401.2875
1689.69527	7341.8875
1692.95567	7252.8875
1696.2139	7219.9875
1699.46999	7188.4875
1702.72392	7135.2875
1705.97571	7086.3875
1709.22535	7042.4875
1712.47284	7001.8875
1715.71819	6969.5875
1718.96139	6946.4875
1722.20246	6903.9875
1725.44139	6867.4875
1728.67818	6810.5875
1731.91284	6791.9875
1735.14537	6737.2875
1738.37576	6706.8875
1741.60403	6693.5875
1744.83017	6666.3875
1748.05418	6650.0875
1751.27607	6668.3875
1754.49584	6686.4875
1757.71349	6669.5875
1760.92903	6663.4875
1764.14244	6633.8875
1767.35375	6600.4875
1770.56294	6579.3875
1773.77002	6528.5875
1776.97499	6486.9875
1780.17785	6447.0875
1783.37861	6452.3875
1786.57727	6411.4875
1789.77382	6382.2875
1792.96828	6357.2875
1796.16064	6335.1875
1799.3509	6312.0875
1802.53907	6288.3875
1805.72514	6246.8875
1808.90913	6247.6875
1812.09102	6207.4875
1815.27083	6195.7875
1818.44856	6189.0875
1821.6242	6185.9875
1824.79776	6163.9875
1827.96924	6139.0875
1831.13864	6134.4875
1834.30597	6161.3875
1837.47122	6120.7875
1840.6344	6116.2875
1843.7955	6104.4875
1846.95454	6099.0875
1850.11151	6079.8875
1853.26642	6090.5875
1856.41926	6070.4875
1859.57004	6057.4875
1862.71876	6049.7875
1865.86542	6042.9875
1869.01003	6043.5875
1872.15258	6043.9875
1875.29308	6018.1875
1878.43152	6009.6875
1881.56792	5998.2875
1884.70227	5982.0875
1887.83457	5983.6875
1890.96482	5956.7875
1894.09304	5947.9875
1897.21921	5940.0875
1900.34335	5939.8875
1903.46544	5920.9875
1906.58551	5922.0875
1909.70353	5915.7875
1912.81953	5903.5875
1915.93349	5880.1875
1919.04543	5869.9875
1922.15534	5854.8875
1925.26322	5837.8875
1928.36908	5813.4875
1931.47292	5803.3875
1934.57473	5789.5875
1937.67453	5763.4875
1940.77232	5760.6875
1943.86808	5732.0875
1946.96184	5723.2875
1950.05358	5694.9875
1953.14331	5689.9875
1956.23103	5672.9875
1959.31675	5647.1875
1962.40046	5624.0875
1965.48217	5608.3875
1968.56188	5595.2875
1971.63959	5561.2875
1974.7153	5567.4875
1977.78901	5534.0875
1980.86073	5513.9875
1983.93046	5490.1875
1986.99819	5482.6875
1990.06394	5447.4875
1993.1277	5449.7875
1996.18947	5392.0875
1999.24925	5402.2875
2002.30706	5365.6875
2005.36288	5362.7875
2008.41672	5343.9875
2011.46859	5340.4875
2014.51848	5302.1875
2017.56639	5283.5875
2020.61233	5289.7875
2023.6563	5256.7875
2026.6983	5235.8875
2029.73833	5228.3875
2032.7764	5210.4875
2035.8125	5212.1875
2038.84664	5196.0875
2041.87881	5180.4875
2044.90903	5160.1875
2047.93729	5148.6875
2050.96359	5154.2875
2053.98794	5147.2875
2057.01034	5123.5875
2060.03078	5113.0875
2063.04927	5105.9875
2066.06582	5099.0875
2069.08042	5103.2875
2072.09307	5096.6875
2075.10378	5083.6875
2078.11255	5078.7875
2081.11938	5097.1875
2084.12426	5090.2875
2087.12722	5073.6875
2090.12824	5062.9875
2093.12732	5072.4875
2096.12447	5063.3875
2099.11969	5065.1875
2102.11299	5052.8875
2105.10435	5053.5875
2108.09379	5062.7875
2111.08131	5051.5875
2114.0669	5042.1875
2117.05057	5051.8875
2120.03233	5071.3875
2123.01216	5058.9875
2125.99008	5061.3875
2128.96609	5049.9875
2131.94018	5068.7875
2134.91236	5046.9875
2137.88263	5057.8875
2140.851	5061.2875
2143.81746	5050.0875
2146.78201	5055.0875
2149.74466	5051.6875
2152.7054	5042.8875
2155.66425	5040.1875
2158.6212	5051.4875
2161.57625	5025.2875
2164.52941	5027.7875
2167.48067	5022.4875
2170.43004	5018.0875
2173.37752	5000.0875
2176.32311	4997.9875
2179.26681	5007.8875
2182.20863	4994.0875
2185.14856	4998.0875
2188.08661	4995.6875
2191.02278	4994.3875
2193.95707	4981.5875
2196.88948	4972.3875
2199.82001	4978.7875
2202.74867	4959.4875
2205.67545	4951.0875
2208.60037	4945.4875
2211.52341	4935.1875
2214.44458	4945.7875
2217.36388	4919.6875
2220.28132	4903.0875
2223.1969	4892.3875
2226.11061	4882.9875
2229.02246	4863.3875
2231.93245	4852.8875
2234.84058	4839.8875
2237.74686	4844.7875
2240.65128	4836.4875
2243.55385	4822.7875
2246.45456	4818.1875
2249.35343	4810.7875
2252.25044	4800.4875
2255.14561	4787.8875
2258.03893	4790.5875
2260.93041	4773.6875
2263.82004	4751.9875
2266.70783	4747.2875
2269.59378	4729.6875
2272.4779	4729.6875
2275.36017	4708.1875
2278.24061	4694.2875
2281.11922	4684.7875
2283.996	4653.4875
2286.87094	4673.8875
2289.74405	4645.2875
2292.61534	4639.2875
2295.4848	4641.0875
2298.35243	4640.3875
2301.21824	4627.7875
2304.08223	4605.4875
2306.94439	4622.4875
2309.80474	4606.8875
2312.66327	4606.3875
2315.51999	4603.0875
2318.37489	4592.8875
2321.22797	4569.6875
2324.07925	4561.7875
2326.92871	4571.3875
2329.77637	4570.0875
2332.62222	4562.7875
2335.46626	4556.0875
2338.3085	4559.0875
2341.14893	4539.9875
2343.98756	4539.4875
2346.8244	4535.8875
2349.65943	4528.9875
2352.49267	4537.3875
2355.32411	4522.7875
2358.15376	4528.1875
2360.98161	4528.7875
2363.80768	4519.7875
2366.63195	4531.6875
2369.45444	4526.6875
2372.27514	4503.6875
2375.09405	4498.4875
2377.91118	4491.0875
2380.72652	4475.2875
2383.54009	4458.5875
2386.35187	4454.9875
2389.16188	4425.5875
2391.97011	4443.6875
2394.77657	4415.5875
2397.58125	4401.6875
2400.38416	4395.5875
2403.18529	4399.2875
2405.98466	4380.1875
2408.78226	4364.8875
2411.57809	4355.7875
2414.37216	4339.4875
2417.16446	4362.7875
2419.955	4346.4875
2422.74378	4341.3875
2425.5308	4340.2875
2428.31606	4346.2875
2431.09956	4338.7875
2433.88131	4320.7875
2436.6613	4307.7875
2439.43954	4323.4875
2442.21603	4310.0875
2444.99077	4293.0875
2447.76377	4296.0875
2450.53501	4299.4875
2453.30451	4291.2875
2456.07226	4296.8875
2458.83827	4278.4875
2461.60254	4270.1875
2464.36507	4277.5875
2467.12586	4279.2875
2469.88492	4255.2875
2472.64224	4267.7875
2475.39782	4270.4875
2478.15167	4275.5875
2480.90379	4264.3875
2483.65417	4273.0875
2486.40283	4267.2875
2489.14976	4255.0875
2491.89497	4254.3875
2494.63845	4268.1875
2497.3802	4268.3875
2500.12024	4250.8875
2502.85855	4247.9875
2505.59514	4234.0875
2508.33002	4234.6875
2511.06318	4228.9875
2513.79462	4216.3875
2516.52435	4198.9875
2519.25237	4181.5875
2521.97867	4186.2875
2524.70327	4189.9875
2527.42616	4174.0875
2530.14734	4158.1875
2532.86681	4163.2875
2535.58458	4159.4875
2538.30065	4152.1875
2541.01501	4150.8875
2543.72768	4165.7875
2546.43864	4146.9875
2549.14791	4130.2875
2551.85548	4121.4875
2554.56136	4127.1875
2557.26554	4109.7875
2559.96803	4110.0875
2562.66883	4110.3875
2565.36794	4090.3875
2568.06536	4090.6875
2570.7611	4084.4875
2573.45514	4083.2875
2576.14751	4077.6875
2578.83819	4071.3875
2581.52719	4060.9875
2584.21451	4056.6875
2586.90015	4042.1875
2589.58411	4044.5875
2592.2664	4039.6875
2594.94701	4024.3875
2597.62594	4038.9875
2600.30321	4006.9875
2602.9788	4019.6875
2605.65273	3996.6875
2608.32498	4009.2875
2610.99557	4001.4875
2613.66449	4001.1875
2616.33175	3986.0875
2618.99734	3997.7875
2621.66128	3980.0875
2624.32355	3969.5875
2626.98416	3967.4875
2629.64311	3975.7875
2632.30041	3954.3875
2634.95605	3959.7875
2637.61004	3973.4875
2640.26238	3959.8875
2642.91306	3950.7875
2645.56209	3952.7875
2648.20948	3936.7875
2650.85521	3947.6875
2653.4993	3937.1875
2656.14175	3933.9875
2658.78255	3938.7875
2661.42171	3941.0875
2664.05923	3937.9875
2666.6951	3927.3875
2669.32934	3921.5875
2671.96194	3936.4875
2674.59291	3949.8875
2677.22224	3939.8875
2679.84993	3948.0875
2682.476	3929.4875
2685.10043	3912.5875
2687.72324	3927.2875
2690.34441	3913.8875
2692.96396	3924.1875
2695.58188	3924.2875
2698.19818	3925.0875
2700.81285	3923.6875
2703.4259	3944.8875
2706.03733	3992.3875
2708.64714	3944.3875
2711.25533	3923.7875
2713.86191	3924.1875
2716.46687	3925.1875
2719.07021	3917.1875
2721.67194	3919.4875
2724.27206	3914.0875
2726.87057	3917.1875
2729.46747	3914.4875
2732.06276	3934.7875
2734.65644	3907.7875
2737.24852	3917.6875
2739.83899	3894.7875
2742.42786	3909.4875
2745.01513	3890.1875
2747.60079	3889.4875
2750.18486	3893.7875
2752.76733	3886.1875
2755.3482	3880.7875
2757.92747	3887.8875
2760.50515	3873.4875
2763.08123	3869.9875
2765.65573	3870.0875
2768.22863	3878.6875
2770.79994	3856.0875
2773.36967	3848.1875
2775.9378	3853.1875
2778.50435	3853.1875
2781.06932	3836.5875
2783.6327	3843.4875
2786.1945	3831.1875
2788.75471	3837.5875
2791.31335	3819.9875
2793.87041	3816.6875
2796.42589	3796.9875
2798.97979	3815.3875
2801.53212	3795.6875
2804.08288	3798.5875
2806.63206	3771.1875
2809.17967	3776.2875
2811.72571	3782.4875
2814.27018	3767.9875
2816.81308	3774.3875
2819.35442	3753.6875
2821.89419	3767.4875
2824.43239	3751.2875
2826.96904	3758.4875
2829.50412	3740.5875
2832.03763	3740.1875
2834.56959	3749.4875
2837.1	3733.4875
2839.62884	3727.8875
2842.15613	3745.9875
2844.68186	3743.9875
2847.20604	3757.4875
2849.72867	3746.2875
2852.24974	3755.9875
2854.76927	3750.1875
2857.28724	3763.5875
2859.80367	3739.8875
2862.31855	3737.7875
2864.83189	3730.4875
2867.34368	3719.7875
2869.85393	3717.8875
2872.36264	3704.0875
2874.8698	3719.4875
2877.37543	3716.7875
2879.87952	3711.2875
2882.38207	3720.9875
2884.88308	3711.2875
2887.38256	3702.5875
2889.88051	3706.4875
2892.37692	3702.3875
2894.8718	3719.0875
2897.36515	3726.7875
2899.85698	3732.6875
2902.34727	3735.4875
2904.83604	3726.4875
2907.32328	3717.7875
2909.809	3729.6875
2912.29319	3734.8875
2914.77587	3744.5875
2917.25702	3737.3875
2919.73665	3738.2875
2922.21476	3741.9875
2924.69136	3738.0875
2927.16644	3727.4875
2929.64	3731.4875
2932.11205	3743.9875
2934.58258	3721.5875
2937.05161	3740.9875
2939.51912	3739.6875
2941.98513	3710.6875
2944.44962	3705.4875
2946.91261	3722.3875
2949.37409	3704.4875
2951.83407	3719.6875
2954.29254	3701.6875
2956.74951	3696.0875
2959.20498	3685.5875
2961.65895	3680.0875
2964.11142	3668.4875
2966.56239	3650.2875
2969.01186	3652.6875
2971.45984	3629.0875
2973.90632	3613.2875
2976.35131	3607.3875
2978.7948	3592.2875
2981.23681	3595.3875
2983.67732	3580.0875
2986.11635	3586.3875
2988.55388	3563.6875
2990.98993	3560.6875
2993.4245	3543.2875
2995.85758	3544.3875
2998.28917	3521.3875
3000.71928	3535.8875
3003.14791	3529.5875
3005.57506	3521.8875
3008.00073	3501.5875
3010.42493	3517.1875
3012.84764	3499.7875
3015.26888	3506.5875
3017.68865	3493.6875
3020.10694	3479.5875
3022.52376	3482.5875
3024.9391	3480.7875
3027.35298	3477.4875
3029.76539	3465.6875
3032.17632	3463.2875
3034.5858	3447.8875
3036.9938	3444.1875
3039.40034	3433.6875
3041.80542	3440.2875
3044.20903	3422.5875
3046.61118	3437.5875
3049.01187	3414.0875
3051.4111	3423.5875
3053.80888	3401.9875
3056.20519	3420.6875
3058.60005	3405.2875
3060.99345	3386.2875
3063.3854	3375.6875
3065.7759	3384.0875
3068.16494	3379.8875
3070.55254	3373.4875
3072.93868	3370.9875
3075.32338	3363.0875
3077.70662	3356.1875
3080.08842	3356.9875
3082.46878	3342.2875
3084.84769	3344.3875
3087.22515	3343.0875
3089.60118	3343.5875
3091.97576	3359.0875
3094.3489	3348.2875
