Data from AgNPs_FTO_APTES_UA_100um_CRN_0.1mM_R6G_10uM_NaF_0.1M_Addition_RamanShift__7__15-53-09-279.txt Node

Date: Tue Dec 21 15:53:09 GMT 2021
User: TCL
Spectrometer: QEP01345
Trigger mode: 4
Integration Time (sec): 7.000000E0
Scans to average: 10
Electric dark correction enabled: true
Nonlinearity correction enabled: false
Boxcar width: 0
XAxis mode: Raman Shifts
Number of Pixels in Spectrum: 1044
>>>>>Begin Spectral Data<<<<<
46.04893	0.175
50.45542	-1.025
54.85868	-1.225
59.25871	-0.025
63.6555	29.875
68.04907	40.075
72.43941	42.475
76.82654	42.575
81.21044	46.175
85.59113	47.175
89.96862	49.075
94.34289	52.175
98.71396	49.775
103.08183	56.675
107.4465	54.575
111.80798	56.175
116.16626	57.875
120.52136	58.475
124.87327	56.575
129.222	57.475
133.56755	65.375
137.90993	70.275
142.24913	71.275
146.58517	78.375
150.91804	89.875
155.24774	101.175
159.57429	123.375
163.89768	154.475
168.21792	202.275
172.53501	269.375
176.84895	368.475
181.15975	511.375
185.46741	723.975
189.77193	995.275
194.07331	1329.775
198.37157	1717.975
202.6667	2135.675
206.9587	2541.075
211.24758	2953.475
215.53334	3366.875
219.81599	3799.375
224.09553	4276.775
228.37195	4827.975
232.64527	5419.375
236.91549	6045.175
241.18261	6672.975
245.44663	7227.775
249.70755	7723.375
253.96539	8148.375
258.22014	8479.375
262.4718	8761.375
266.72039	8961.475
270.96589	9092.975
275.20832	9074.975
279.44768	9027.975
283.68397	8928.875
287.91719	8794.375
292.14735	8732.975
296.37445	8742.075
300.59849	8819.875
304.81948	8889.675
309.03742	8903.375
313.25231	8823.675
317.46415	8593.275
321.67296	8291.275
325.87872	8072.375
330.08145	7926.775
334.28114	7895.675
338.47781	7938.575
342.67145	8058.975
346.86207	8206.375
351.04966	8373.875
355.23424	8554.675
359.4158	8744.175
363.59435	8871.775
367.76989	8950.075
371.94243	9016.075
376.11196	9084.575
380.27849	9105.775
384.44203	9167.575
388.60257	9191.875
392.76012	9241.675
396.91468	9319.475
401.06626	9452.075
405.21485	9540.875
409.36047	9481.675
413.50311	9276.875
417.64277	9053.875
421.77947	8935.075
425.9132	8876.375
430.04396	8870.475
434.17176	8919.675
438.2966	8972.475
442.41849	9030.775
446.53742	9147.975
450.6534	9293.275
454.76644	9416.075
458.87653	9497.375
462.98368	9511.475
467.08789	9468.475
471.18916	9459.375
475.2875	9416.075
479.38291	9382.975
483.4754	9315.275
487.56496	9253.975
491.6516	9183.975
495.73531	9104.575
499.81612	9061.175
503.89401	9065.375
507.96899	9111.775
512.04106	9117.375
516.11023	9124.175
520.1765	9125.975
524.23987	9112.375
528.30034	9029.975
532.35792	8931.975
536.41261	8870.375
540.46441	8773.475
544.51333	8772.275
548.55936	8836.475
552.60252	8951.475
556.64279	9082.075
560.6802	9167.075
564.71473	9228.875
568.7464	9334.675
572.7752	9466.075
576.80114	9556.775
580.82422	9600.975
584.84444	9612.275
588.86181	9635.675
592.87633	9583.575
596.888	9568.675
600.89682	9622.175
604.9028	10008.275
608.90594	11058.975
612.90624	12448.775
616.90371	12181.475
620.89834	10136.575
624.89015	9086.475
628.87913	8951.675
632.86528	9115.175
636.84862	9287.975
640.82913	9279.575
644.80683	9027.575
648.78172	8777.475
652.75379	8661.975
656.72306	8695.875
660.68952	8826.575
664.65319	8804.275
668.61405	8616.975
672.57211	8536.875
676.52738	8550.975
680.47986	8543.375
684.42955	8507.775
688.37646	8467.175
692.32058	8444.275
696.26192	8474.675
700.20048	8521.175
704.13626	8535.175
708.06928	8569.175
711.99952	8551.675
715.927	8505.575
719.85171	8511.575
723.77365	8506.475
727.69284	8458.775
731.60928	8412.275
735.52295	8341.675
739.43388	8336.475
743.34206	8333.575
747.24749	8369.575
751.15017	8383.575
755.05012	8458.875
758.94733	8640.775
762.8418	9043.575
766.73354	9791.075
770.62254	10603.875
774.50882	11056.175
778.39237	10693.575
782.27321	9760.175
786.15132	9019.175
790.02671	8524.175
793.89938	8306.475
797.76935	8199.975
801.6366	8158.975
805.50115	8132.075
809.36299	8128.475
813.22213	8140.175
817.07857	8139.675
820.93231	8138.575
824.78336	8069.375
828.63172	8012.475
832.47738	7990.975
836.32036	7966.775
840.16066	7916.375
843.99827	7904.175
847.8332	7887.375
851.66546	7866.075
855.49504	7867.875
859.32195	7849.075
863.1462	7852.075
866.96777	7825.175
870.78668	7806.975
874.60293	7812.875
878.41652	7838.975
882.22745	7855.875
886.03573	7916.275
889.84136	7909.175
893.64433	7883.375
897.44466	7847.275
901.24235	7776.575
905.0374	7738.375
908.8298	7691.575
912.61957	7683.375
916.40671	7715.875
920.19121	7745.475
923.97308	7763.675
927.75233	7755.275
931.52895	7737.075
935.30295	7669.575
939.07433	7567.375
942.84309	7446.775
946.60924	7358.275
950.37278	7327.575
954.13371	7301.775
957.89203	7275.875
961.64774	7267.275
965.40086	7254.775
969.15137	7213.875
972.89929	7168.675
976.64461	7159.175
980.38733	7128.575
984.12747	7125.075
987.86502	7146.175
991.59999	7142.275
995.33237	7169.675
999.06217	7209.075
1002.78939	7275.275
1006.51404	7346.775
1010.23611	7433.075
1013.95561	7481.975
1017.67255	7491.675
1021.38692	7493.375
1025.09872	7422.375
1028.80796	7364.375
1032.51465	7299.175
1036.21877	7287.075
1039.92035	7322.675
1043.61937	7376.575
1047.31584	7385.575
1051.00976	7422.675
1054.70114	7448.875
1058.38998	7453.075
1062.07627	7502.175
1065.76003	7560.775
1069.44126	7615.175
1073.11995	7704.375
1076.79611	7782.475
1080.46974	7822.275
1084.14085	7816.675
1087.80943	7870.475
1091.47549	7917.575
1095.13903	7914.275
1098.80005	7861.675
1102.45857	7695.275
1106.11456	7595.675
1109.76805	7522.075
1113.41903	7557.275
1117.06751	7659.175
1120.71348	7819.575
1124.35696	7983.675
1127.99793	8166.575
1131.63641	8316.275
1135.2724	8243.275
1138.90589	8099.575
1142.5369	7951.875
1146.16542	7844.175
1149.79145	7779.075
1153.415	7738.775
1157.03607	7753.975
1160.65467	7820.375
1164.27079	7972.375
1167.88443	8252.275
1171.49561	8608.675
1175.10432	9199.875
1178.71056	9942.775
1182.31434	10593.175
1185.91565	10869.475
1189.51451	10789.475
1193.11091	10488.075
1196.70485	10078.475
1200.29634	9714.375
1203.88538	9438.375
1207.47197	9134.775
1211.05612	8859.075
1214.63782	8620.475
1218.21708	8429.875
1221.79391	8258.575
1225.36829	8146.775
1228.94024	8091.175
1232.50976	8058.675
1236.07685	8013.075
1239.6415	8007.775
1243.20374	8013.475
1246.76355	8054.275
1250.32093	8127.375
1253.8759	8255.375
1257.42845	8392.475
1260.97859	8583.575
1264.52631	8742.275
1268.07163	8918.075
1271.61453	9059.475
1275.15503	9197.175
1278.69312	9318.375
1282.22882	9435.675
1285.76211	9616.575
1289.29301	9825.275
1292.82151	10142.775
1296.34761	10509.075
1299.87133	10934.275
1303.39266	11407.675
1306.9116	12003.675
1310.42815	12638.275
1313.94233	13003.375
1317.45412	12941.975
1320.96354	12589.375
1324.47058	12266.975
1327.97525	11925.575
1331.47754	11641.075
1334.97747	11470.175
1338.47502	11377.875
1341.97022	11460.575
1345.46305	11594.675
1348.95352	11828.875
1352.44163	12132.175
1355.92738	12608.875
1359.41078	13433.975
1362.89183	14422.575
1366.37053	14493.875
1369.84688	13224.975
1373.32088	11589.975
1376.79254	10463.175
1380.26186	9919.975
1383.72883	9642.075
1387.19347	9486.775
1390.65578	9321.175
1394.11575	9148.575
1397.57339	9003.875
1401.0287	8948.575
1404.48168	8859.175
1407.93234	8741.275
1411.38068	8603.075
1414.82669	8397.175
1418.27039	8205.675
1421.71177	8023.575
1425.15083	7847.675
1428.58758	7719.675
1432.02203	7699.075
1435.45416	7756.475
1438.88399	7839.075
1442.31151	7910.575
1445.73673	7996.275
1449.15965	8092.475
1452.58027	8158.575
1455.9986	8212.475
1459.41463	8263.275
1462.82837	8359.475
1466.23982	8455.775
1469.64898	8577.475
1473.05586	8679.375
1476.46045	8731.775
1479.86276	8768.275
1483.26279	8829.575
1486.66054	8914.275
1490.05602	9069.575
1493.44922	9315.575
1496.84016	9741.075
1500.22882	10385.175
1503.61521	11271.875
1506.99934	12299.275
1510.38121	13073.275
1513.76081	13343.275
1517.13816	12811.775
1520.51324	11843.375
1523.88607	10892.775
1527.25665	10238.375
1530.62498	9859.475
1533.99105	9611.075
1537.35488	9406.575
1540.71647	9207.775
1544.07581	8992.775
1547.4329	8823.275
1550.78776	8697.075
1554.14038	8651.675
1557.49077	8675.775
1560.83892	8774.175
1564.18484	8871.175
1567.52853	9047.675
1570.86999	9199.275
1574.20922	9377.675
1577.54624	9390.175
1580.88103	9218.075
1584.2136	8926.475
1587.54395	8706.775
1590.87208	8672.675
1594.19801	8809.875
1597.52172	9086.075
1600.84321	9203.775
1604.16251	9004.075
1607.47959	8608.575
1610.79447	8201.975
1614.10715	7774.075
1617.41763	7431.775
1620.7259	7145.375
1624.03199	6989.775
1627.33587	6909.675
1630.63757	6974.575
1633.93707	7161.375
1637.23439	7538.875
1640.52951	8127.575
1643.82246	8924.475
1647.11321	9855.375
1650.40179	10542.075
1653.68819	10493.975
1656.97241	9648.375
1660.25446	8537.875
1663.53433	7593.075
1666.81203	6985.075
1670.08756	6556.375
1673.36092	6297.275
1676.63211	6143.975
1679.90115	6027.275
1683.16801	5920.275
1686.43272	5874.175
1689.69527	5812.475
1692.95567	5791.775
1696.2139	5799.375
1699.46999	5770.775
1702.72392	5747.375
1705.97571	5697.775
1709.22535	5616.175
1712.47284	5569.675
1715.71819	5525.075
1718.96139	5463.075
1722.20246	5421.475
1725.44139	5373.675
1728.67818	5308.775
1731.91284	5275.775
1735.14537	5258.975
1738.37576	5239.375
1741.60403	5215.375
1744.83017	5188.575
1748.05418	5188.875
1751.27607	5173.675
1754.49584	5169.375
1757.71349	5177.875
1760.92903	5173.375
1764.14244	5161.175
1767.35375	5144.175
1770.56294	5113.175
1773.77002	5089.975
1776.97499	5058.775
1780.17785	5025.475
1783.37861	5014.375
1786.57727	4988.675
1789.77382	4966.075
1792.96828	4969.975
1796.16064	4935.575
1799.3509	4927.775
1802.53907	4904.975
1805.72514	4867.975
1808.90913	4864.275
1812.09102	4842.975
1815.27083	4819.175
1818.44856	4817.175
1821.6242	4798.275
1824.79776	4796.475
1827.96924	4780.975
1831.13864	4759.075
1834.30597	4752.075
1837.47122	4752.675
1840.6344	4731.075
1843.7955	4734.275
1846.95454	4728.675
1850.11151	4707.175
1853.26642	4705.375
1856.41926	4696.975
1859.57004	4676.175
1862.71876	4666.175
1865.86542	4674.875
1869.01003	4660.575
1872.15258	4668.275
1875.29308	4653.575
1878.43152	4647.575
1881.56792	4636.875
1884.70227	4605.975
1887.83457	4605.475
1890.96482	4589.275
1894.09304	4575.675
1897.21921	4584.275
1900.34335	4561.675
1903.46544	4553.975
1906.58551	4538.275
1909.70353	4535.375
1912.81953	4523.575
1915.93349	4506.675
1919.04543	4498.775
1922.15534	4491.275
1925.26322	4475.575
1928.36908	4477.775
1931.47292	4448.875
1934.57473	4446.675
1937.67453	4418.275
1940.77232	4410.675
1943.86808	4394.275
1946.96184	4370.575
1950.05358	4370.775
1953.14331	4349.075
1956.23103	4320.675
1959.31675	4313.375
1962.40046	4316.175
1965.48217	4273.575
1968.56188	4274.975
1971.63959	4259.675
1974.7153	4245.275
1977.78901	4223.475
1980.86073	4217.875
1983.93046	4192.675
1986.99819	4165.875
1990.06394	4150.275
1993.1277	4128.575
1996.18947	4125.175
1999.24925	4112.275
2002.30706	4103.775
2005.36288	4068.875
2008.41672	4066.275
2011.46859	4037.575
2014.51848	4039.175
2017.56639	4001.975
2020.61233	3993.475
2023.6563	3990.675
2026.6983	3976.075
2029.73833	3949.475
2032.7764	3941.475
2035.8125	3920.775
2038.84664	3917.475
2041.87881	3922.775
2044.90903	3903.975
2047.93729	3880.875
2050.96359	3872.775
2053.98794	3875.375
2057.01034	3881.875
2060.03078	3852.775
2063.04927	3853.775
2066.06582	3832.475
2069.08042	3843.275
2072.09307	3832.775
2075.10378	3818.775
2078.11255	3811.975
2081.11938	3812.675
2084.12426	3813.675
2087.12722	3806.975
2090.12824	3803.275
2093.12732	3794.575
2096.12447	3807.375
2099.11969	3795.275
2102.11299	3783.775
2105.10435	3780.775
2108.09379	3790.375
2111.08131	3799.475
2114.0669	3786.675
2117.05057	3774.975
2120.03233	3787.475
2123.01216	3779.675
2125.99008	3780.975
2128.96609	3779.375
2131.94018	3771.775
2134.91236	3789.575
2137.88263	3777.675
2140.851	3775.375
2143.81746	3779.275
2146.78201	3772.775
2149.74466	3774.875
2152.7054	3769.075
2155.66425	3760.275
2158.6212	3756.575
2161.57625	3734.075
2164.52941	3742.775
2167.48067	3737.475
2170.43004	3736.075
2173.37752	3733.875
2176.32311	3725.775
2179.26681	3716.075
2182.20863	3731.175
2185.14856	3718.375
2188.08661	3705.975
2191.02278	3717.375
2193.95707	3694.675
2196.88948	3684.075
2199.82001	3680.875
2202.74867	3676.975
2205.67545	3665.875
2208.60037	3656.775
2211.52341	3644.475
2214.44458	3641.875
2217.36388	3643.375
2220.28132	3613.875
2223.1969	3602.475
2226.11061	3611.675
2229.02246	3586.675
2231.93245	3580.275
2234.84058	3579.475
2237.74686	3574.675
2240.65128	3554.775
2243.55385	3557.075
2246.45456	3549.075
2249.35343	3539.175
2252.25044	3538.575
2255.14561	3524.275
2258.03893	3530.675
2260.93041	3531.775
2263.82004	3500.175
2266.70783	3505.275
2269.59378	3476.575
2272.4779	3463.975
2275.36017	3463.575
2278.24061	3457.475
2281.11922	3441.775
2283.996	3426.575
2286.87094	3433.775
2289.74405	3417.275
2292.61534	3406.475
2295.4848	3392.475
2298.35243	3401.375
2301.21824	3364.675
2304.08223	3383.775
2306.94439	3368.175
2309.80474	3356.575
2312.66327	3351.275
2315.51999	3360.475
2318.37489	3349.775
2321.22797	3336.775
2324.07925	3333.375
2326.92871	3328.275
2329.77637	3334.275
2332.62222	3321.475
2335.46626	3297.875
2338.3085	3303.175
2341.14893	3290.675
2343.98756	3294.175
2346.8244	3272.575
2349.65943	3288.175
2352.49267	3283.475
2355.32411	3274.275
2358.15376	3285.375
2360.98161	3260.175
2363.80768	3263.575
2366.63195	3282.475
2369.45444	3261.575
2372.27514	3266.775
2375.09405	3254.475
2377.91118	3253.475
2380.72652	3248.675
2383.54009	3228.775
2386.35187	3215.975
2389.16188	3187.375
2391.97011	3185.275
2394.77657	3176.475
2397.58125	3165.675
2400.38416	3170.675
2403.18529	3147.675
2405.98466	3141.375
2408.78226	3145.175
2411.57809	3138.175
2414.37216	3119.275
2417.16446	3117.375
2419.955	3123.375
2422.74378	3116.875
2425.5308	3102.875
2428.31606	3090.575
2431.09956	3093.975
2433.88131	3087.375
2436.6613	3099.175
2439.43954	3088.075
2442.21603	3083.475
2444.99077	3062.475
2447.76377	3079.575
2450.53501	3072.675
2453.30451	3077.875
2456.07226	3068.075
2458.83827	3062.675
2461.60254	3052.975
2464.36507	3059.675
2467.12586	3043.475
2469.88492	3035.575
2472.64224	3035.075
2475.39782	3042.375
2478.15167	3044.475
2480.90379	3029.475
2483.65417	3040.075
2486.40283	3026.075
2489.14976	3029.075
2491.89497	3024.675
2494.63845	3036.875
2497.3802	3040.275
2500.12024	3015.275
2502.85855	3007.075
2505.59514	2994.875
2508.33002	2995.075
2511.06318	2983.375
2513.79462	2982.875
2516.52435	2948.275
2519.25237	2952.175
2521.97867	2949.575
2524.70327	2951.575
2527.42616	2930.375
2530.14734	2926.275
2532.86681	2929.675
2535.58458	2922.475
2538.30065	2907.075
2541.01501	2912.375
2543.72768	2914.275
2546.43864	2897.975
2549.14791	2893.975
2551.85548	2897.875
2554.56136	2884.175
2557.26554	2870.575
2559.96803	2873.075
2562.66883	2869.275
2565.36794	2862.375
2568.06536	2857.475
2570.7611	2848.575
2573.45514	2851.775
2576.14751	2834.775
2578.83819	2838.875
2581.52719	2827.675
2584.21451	2813.975
2586.90015	2812.475
2589.58411	2813.975
2592.2664	2794.675
2594.94701	2781.875
2597.62594	2780.375
2600.30321	2781.075
2602.9788	2768.175
2605.65273	2775.475
2608.32498	2760.675
2610.99557	2749.875
2613.66449	2744.575
2616.33175	2737.775
2618.99734	2735.075
2621.66128	2730.475
2624.32355	2736.475
2626.98416	2721.575
2629.64311	2728.675
2632.30041	2713.875
2634.95605	2710.975
2637.61004	2706.275
2640.26238	2702.575
2642.91306	2700.375
2645.56209	2697.175
2648.20948	2701.875
2650.85521	2679.975
2653.4993	2681.775
2656.14175	2683.275
2658.78255	2671.475
2661.42171	2686.575
2664.05923	2683.475
2666.6951	2682.875
2669.32934	2676.575
2671.96194	2683.375
2674.59291	2680.175
2677.22224	2683.075
2679.84993	2667.475
2682.476	2665.175
2685.10043	2667.475
2687.72324	2665.975
2690.34441	2667.675
2692.96396	2648.375
2695.58188	2671.375
2698.19818	2662.775
2700.81285	2658.075
2703.4259	2682.675
2706.03733	2741.175
2708.64714	2691.075
2711.25533	2677.975
2713.86191	2662.475
2716.46687	2675.075
2719.07021	2660.875
2721.67194	2656.875
2724.27206	2658.475
2726.87057	2645.075
2729.46747	2646.375
2732.06276	2648.375
2734.65644	2639.475
2737.24852	2642.475
2739.83899	2631.375
2742.42786	2625.675
2745.01513	2622.475
2747.60079	2615.075
2750.18486	2599.475
2752.76733	2604.075
2755.3482	2595.875
2757.92747	2601.375
2760.50515	2600.175
2763.08123	2603.575
2765.65573	2593.075
2768.22863	2589.175
2770.79994	2582.175
2773.36967	2574.775
2775.9378	2568.975
2778.50435	2569.175
2781.06932	2561.175
2783.6327	2552.975
2786.1945	2561.175
2788.75471	2543.275
2791.31335	2539.175
2793.87041	2527.675
2796.42589	2529.075
2798.97979	2518.175
2801.53212	2523.475
2804.08288	2536.575
2806.63206	2521.475
2809.17967	2502.075
2811.72571	2502.775
2814.27018	2497.675
2816.81308	2489.275
2819.35442	2497.975
2821.89419	2489.975
2824.43239	2490.775
2826.96904	2482.775
2829.50412	2483.475
2832.03763	2480.575
2834.56959	2479.675
2837.1	2461.275
2839.62884	2485.375
2842.15613	2478.875
2844.68186	2479.975
2847.20604	2496.675
2849.72867	2480.775
2852.24974	2497.375
2854.76927	2491.775
2857.28724	2502.475
2859.80367	2487.475
2862.31855	2484.575
2864.83189	2474.175
2867.34368	2473.875
2869.85393	2468.775
2872.36264	2457.975
2874.8698	2461.975
2877.37543	2456.775
2879.87952	2465.475
2882.38207	2455.675
2884.88308	2440.375
2887.38256	2449.875
2889.88051	2453.675
2892.37692	2447.475
2894.8718	2433.975
2897.36515	2441.375
2899.85698	2450.475
2902.34727	2451.675
2904.83604	2445.075
2907.32328	2453.075
2909.809	2449.775
2912.29319	2445.075
2914.77587	2452.375
2917.25702	2443.875
2919.73665	2436.575
2922.21476	2461.375
2924.69136	2466.175
2927.16644	2457.275
2929.64	2441.575
2932.11205	2449.175
2934.58258	2432.375
2937.05161	2439.075
2939.51912	2429.575
2941.98513	2435.475
2944.44962	2422.075
2946.91261	2419.875
2949.37409	2412.575
2951.83407	2409.575
2954.29254	2404.275
2956.74951	2405.975
2959.20498	2392.875
2961.65895	2393.475
2964.11142	2377.475
2966.56239	2376.075
2969.01186	2370.575
2971.45984	2367.675
2973.90632	2365.675
2976.35131	2341.275
2978.7948	2349.675
2981.23681	2347.275
2983.67732	2325.375
2986.11635	2335.375
2988.55388	2329.475
2990.98993	2322.975
2993.4245	2315.775
2995.85758	2317.875
2998.28917	2309.175
3000.71928	2303.375
3003.14791	2304.275
3005.57506	2301.075
3008.00073	2303.075
3010.42493	2295.175
3012.84764	2285.875
3015.26888	2287.075
3017.68865	2285.775
3020.10694	2280.075
3022.52376	2279.575
3024.9391	2275.675
3027.35298	2279.675
3029.76539	2262.075
3032.17632	2258.175
3034.5858	2259.875
3036.9938	2258.275
3039.40034	2254.175
3041.80542	2246.375
3044.20903	2253.375
3046.61118	2240.475
3049.01187	2238.175
3051.4111	2235.475
3053.80888	2231.975
3056.20519	2239.275
3058.60005	2230.475
3060.99345	2233.775
3063.3854	2220.175
3065.7759	2233.875
3068.16494	2230.975
3070.55254	2215.775
3072.93868	2216.375
3075.32338	2224.275
3077.70662	2212.275
3080.08842	2214.475
3082.46878	2215.775
3084.84769	2203.075
3087.22515	2204.275
3089.60118	2208.775
3091.97576	2207.075
3094.3489	2214.975
3096.72061	2202.975
3099.09087	2214.175
3101.4597	2216.175
3103.82709	2221.875
3106.19305	2217.275
3108.55757	2204.275
3110.92066	2221.775
3113.28232	2202.275
3115.64255	2208.475
3118.00134	2202.675
3120.35871	2203.075
3122.71466	2204.675
3125.06917	2201.775
3127.42226	2198.675
3129.77393	2202.975
3132.12417	2203.075
3134.47299	2217.775
3136.82039	2224.675
3139.16636	2208.275
3141.51092	2237.675
3143.85406	2231.975
3146.19579	2233.575
3148.53609	2243.375
3150.87499	2243.975
3153.21246	2242.275
3155.54853	2254.875
3157.88318	2253.375
3160.21642	2248.475
3162.54826	2265.175
3164.87868	2253.975
3167.2077	2257.475
3169.5353	2268.775
3171.86151	2277.175
3174.18631	2271.375
3176.5097	2278.075
3178.83169	2264.075
3181.15228	2280.975
3183.47147	2269.975
3185.78926	2261.875
3188.10565	2258.675
3190.42065	2269.775
3192.73424	2283.775
3195.04645	2275.275
3197.35725	2285.575
3199.66667	2290.875
3201.97469	2294.275
3204.28132	2293.175
3206.58656	2301.175
3208.8904	2294.675
3211.19287	2299.675
3213.49394	2316.275
3215.79363	2317.775
3218.09193	2314.075
3220.38884	2319.775
3222.68438	2331.175
3224.97853	2323.675
3227.2713	2316.375
3229.56269	2311.175
