Data from AgNPs_FTO_APTES_UA_1um_CRN_0.1mM_R6G_10uM_NaF_0.1M_Addition_RamanShift__0__11-34-08-983.txt Node

Date: Tue Dec 21 11:34:08 GMT 2021
User: TCL
Spectrometer: QEP01345
Trigger mode: 4
Integration Time (sec): 7.000000E0
Scans to average: 10
Electric dark correction enabled: true
Nonlinearity correction enabled: false
Boxcar width: 0
XAxis mode: Raman Shifts
Number of Pixels in Spectrum: 1044
>>>>>Begin Spectral Data<<<<<
46.04893	-0.0625
50.45542	-0.4625
54.85868	-0.4625
59.25871	0.7375
63.6555	4.2375
68.04907	13.0375
72.43941	12.5375
76.82654	11.8375
81.21044	13.4375
85.59113	14.6375
89.96862	15.9375
94.34289	13.4375
98.71396	12.4375
103.08183	16.1375
107.4465	13.6375
111.80798	15.3375
116.16626	13.3375
120.52136	18.7375
124.87327	13.9375
129.222	16.8375
133.56755	14.4375
137.90993	20.2375
142.24913	17.9375
146.58517	24.1375
150.91804	26.2375
155.24774	29.3375
159.57429	37.7375
163.89768	47.8375
168.21792	58.5375
172.53501	79.7375
176.84895	112.1375
181.15975	163.0375
185.46741	220.1375
189.77193	312.1375
194.07331	420.1375
198.37157	543.2375
202.6667	672.1375
206.9587	818.4375
211.24758	948.6375
215.53334	1104.6375
219.81599	1254.0375
224.09553	1442.4375
228.37195	1631.3375
232.64527	1822.1375
236.91549	2021.9375
241.18261	2206.5375
245.44663	2324.8375
249.70755	2434.0375
253.96539	2517.3375
258.22014	2582.5375
262.4718	2625.3375
266.72039	2664.7375
270.96589	2659.7375
275.20832	2625.4375
279.44768	2581.0375
283.68397	2517.8375
287.91719	2463.9375
292.14735	2445.8375
296.37445	2475.0375
300.59849	2564.4375
304.81948	2687.9375
309.03742	2794.6375
313.25231	2825.7375
317.46415	2763.6375
321.67296	2601.6375
325.87872	2428.3375
330.08145	2341.8375
334.28114	2322.6375
338.47781	2340.0375
342.67145	2404.3375
346.86207	2492.9375
351.04966	2614.4375
355.23424	2745.9375
359.4158	2831.2375
363.59435	2861.1375
367.76989	2853.2375
371.94243	2808.8375
376.11196	2787.4375
380.27849	2734.1375
384.44203	2718.4375
388.60257	2696.9375
392.76012	2690.2375
396.91468	2733.8375
401.06626	2802.9375
405.21485	2871.4375
409.36047	2864.3375
413.50311	2745.0375
417.64277	2617.3375
421.77947	2565.2375
425.9132	2542.1375
430.04396	2545.9375
434.17176	2539.6375
438.2966	2532.9375
442.41849	2577.5375
446.53742	2636.7375
450.6534	2701.9375
454.76644	2735.9375
458.87653	2701.3375
462.98368	2633.7375
467.08789	2577.2375
471.18916	2511.2375
475.2875	2460.5375
479.38291	2412.5375
483.4754	2376.7375
487.56496	2365.1375
491.6516	2369.6375
495.73531	2360.0375
499.81612	2359.6375
503.89401	2382.9375
507.96899	2377.7375
512.04106	2401.2375
516.11023	2409.7375
520.1765	2436.2375
524.23987	2448.6375
528.30034	2444.9375
532.35792	2420.6375
536.41261	2365.7375
540.46441	2286.2375
544.51333	2249.4375
548.55936	2244.7375
552.60252	2290.4375
556.64279	2373.6375
560.6802	2421.8375
564.71473	2452.5375
568.7464	2510.0375
572.7752	2577.7375
576.80114	2522.7375
580.82422	2481.5375
584.84444	2547.9375
588.86181	2690.8375
592.87633	2838.5375
596.888	2894.0375
600.89682	2815.1375
604.9028	2865.2375
608.90594	3506.8375
612.90624	4517.3375
616.90371	4462.1375
620.89834	3154.4375
624.89015	2442.6375
628.87913	2296.3375
632.86528	2337.8375
636.84862	2397.8375
640.82913	2362.7375
644.80683	2244.8375
648.78172	2159.9375
652.75379	2163.6375
656.72306	2264.1375
660.68952	2363.0375
664.65319	2334.9375
668.61405	2222.2375
672.57211	2156.8375
676.52738	2171.0375
680.47986	2179.2375
684.42955	2157.3375
688.37646	2120.8375
692.32058	2134.3375
696.26192	2164.0375
700.20048	2204.0375
704.13626	2258.6375
708.06928	2268.4375
711.99952	2237.7375
715.927	2224.9375
719.85171	2218.7375
723.77365	2216.9375
727.69284	2183.7375
731.60928	2157.8375
735.52295	2158.6375
739.43388	2157.4375
743.34206	2154.8375
747.24749	2162.2375
751.15017	2178.1375
755.05012	2214.0375
758.94733	2306.2375
762.8418	2541.0375
766.73354	2986.3375
770.62254	3453.7375
774.50882	3620.2375
778.39237	3478.0375
782.27321	3065.0375
786.15132	2629.2375
790.02671	2332.3375
793.89938	2201.0375
797.76935	2139.4375
801.6366	2109.4375
805.50115	2084.9375
809.36299	2082.1375
813.22213	2071.1375
817.07857	2052.8375
820.93231	2049.7375
824.78336	2059.3375
828.63172	2061.8375
832.47738	2065.4375
836.32036	2071.1375
840.16066	2045.8375
843.99827	2042.7375
847.8332	2033.7375
851.66546	2018.4375
855.49504	2018.6375
859.32195	2015.2375
863.1462	2009.7375
866.96777	2006.2375
870.78668	2006.1375
874.60293	2013.4375
878.41652	2013.4375
882.22745	2032.5375
886.03573	2050.1375
889.84136	2040.9375
893.64433	2018.1375
897.44466	2028.3375
901.24235	2016.5375
905.0374	2019.6375
908.8298	1985.0375
912.61957	1990.3375
916.40671	1991.6375
920.19121	2004.3375
923.97308	2022.6375
927.75233	2072.1375
931.52895	2137.7375
935.30295	2106.0375
939.07433	2025.5375
942.84309	1955.7375
946.60924	1909.6375
950.37278	1886.7375
954.13371	1873.2375
957.89203	1866.7375
961.64774	1866.6375
965.40086	1861.8375
969.15137	1855.3375
972.89929	1861.1375
976.64461	1840.6375
980.38733	1836.1375
984.12747	1838.3375
987.86502	1845.1375
991.59999	1849.1375
995.33237	1868.3375
999.06217	1889.3375
1002.78939	1920.6375
1006.51404	1970.6375
1010.23611	2006.9375
1013.95561	2036.2375
1017.67255	2044.9375
1021.38692	2033.7375
1025.09872	1991.0375
1028.80796	1952.4375
1032.51465	1929.2375
1036.21877	1955.0375
1039.92035	1973.0375
1043.61937	1983.3375
1047.31584	2000.1375
1051.00976	2006.1375
1054.70114	2002.1375
1058.38998	1988.7375
1062.07627	1990.5375
1065.76003	1986.2375
1069.44126	2000.5375
1073.11995	2048.8375
1076.79611	2112.0375
1080.46974	2153.0375
1084.14085	2184.5375
1087.80943	2247.3375
1091.47549	2275.2375
1095.13903	2266.0375
1098.80005	2180.4375
1102.45857	2099.8375
1106.11456	2039.5375
1109.76805	2037.9375
1113.41903	2071.5375
1117.06751	2117.8375
1120.71348	2202.0375
1124.35696	2314.9375
1127.99793	2414.6375
1131.63641	2430.3375
1135.2724	2332.1375
1138.90589	2210.7375
1142.5369	2143.8375
1146.16542	2111.6375
1149.79145	2085.7375
1153.415	2078.6375
1157.03607	2077.1375
1160.65467	2132.9375
1164.27079	2207.2375
1167.88443	2356.7375
1171.49561	2574.1375
1175.10432	2932.3375
1178.71056	3387.4375
1182.31434	3700.4375
1185.91565	3749.9375
1189.51451	3608.1375
1193.11091	3347.8375
1196.70485	3059.0375
1200.29634	2838.6375
1203.88538	2671.6375
1207.47197	2483.9375
1211.05612	2327.2375
1214.63782	2253.5375
1218.21708	2217.8375
1221.79391	2206.6375
1225.36829	2254.7375
1228.94024	2289.6375
1232.50976	2289.3375
1236.07685	2262.8375
1239.6415	2262.4375
1243.20374	2260.3375
1246.76355	2291.6375
1250.32093	2297.7375
1253.8759	2345.2375
1257.42845	2437.2375
1260.97859	2535.7375
1264.52631	2620.1375
1268.07163	2726.4375
1271.61453	2790.4375
1275.15503	2852.3375
1278.69312	2862.6375
1282.22882	2890.0375
1285.76211	2997.2375
1289.29301	3123.4375
1292.82151	3288.0375
1296.34761	3407.5375
1299.87133	3592.5375
1303.39266	3879.2375
1306.9116	4301.9375
1310.42815	4852.5375
1313.94233	5248.1375
1317.45412	5179.8375
1320.96354	4774.7375
1324.47058	4316.8375
1327.97525	3884.7375
1331.47754	3533.2375
1334.97747	3330.7375
1338.47502	3234.7375
1341.97022	3202.7375
1345.46305	3284.5375
1348.95352	3540.2375
1352.44163	3937.2375
1355.92738	4475.8375
1359.41078	5237.2375
1362.89183	6011.4375
1366.37053	6046.4375
1369.84688	5227.5375
1373.32088	4174.4375
1376.79254	3478.1375
1380.26186	3173.6375
1383.72883	3068.5375
1387.19347	2949.0375
1390.65578	2784.8375
1394.11575	2640.0375
1397.57339	2564.1375
1401.0287	2517.9375
1404.48168	2498.4375
1407.93234	2480.7375
1411.38068	2467.6375
1414.82669	2486.9375
1418.27039	2490.6375
1421.71177	2491.6375
1425.15083	2447.2375
1428.58758	2390.1375
1432.02203	2404.6375
1435.45416	2449.0375
1438.88399	2485.7375
1442.31151	2470.0375
1445.73673	2492.4375
1449.15965	2527.2375
1452.58027	2473.8375
1455.9986	2424.4375
1459.41463	2395.5375
1462.82837	2399.4375
1466.23982	2458.1375
1469.64898	2534.3375
1473.05586	2594.1375
1476.46045	2624.8375
1479.86276	2696.2375
1483.26279	2757.8375
1486.66054	2851.4375
1490.05602	2984.6375
1493.44922	3173.7375
1496.84016	3427.2375
1500.22882	3826.4375
1503.61521	4342.4375
1506.99934	4892.6375
1510.38121	5448.8375
1513.76081	5698.8375
1517.13816	5404.2375
1520.51324	4672.4375
1523.88607	3938.4375
1527.25665	3424.6375
1530.62498	3113.1375
1533.99105	2952.0375
1537.35488	2806.8375
1540.71647	2706.4375
1544.07581	2622.3375
1547.4329	2553.1375
1550.78776	2524.5375
1554.14038	2512.7375
1557.49077	2521.4375
1560.83892	2572.6375
1564.18484	2664.9375
1567.52853	2807.3375
1570.86999	2927.7375
1574.20922	3018.2375
1577.54624	3009.0375
1580.88103	2846.1375
1584.2136	2616.0375
1587.54395	2483.0375
1590.87208	2508.2375
1594.19801	2639.8375
1597.52172	2865.6375
1600.84321	3007.2375
1604.16251	2939.4375
1607.47959	2733.7375
1610.79447	2494.6375
1614.10715	2265.1375
1617.41763	2094.9375
1620.7259	2008.2375
1624.03199	1969.2375
1627.33587	1983.9375
1630.63757	2054.5375
1633.93707	2171.1375
1637.23439	2380.5375
1640.52951	2743.1375
1643.82246	3300.0375
1647.11321	4001.7375
1650.40179	4489.3375
1653.68819	4473.0375
1656.97241	3878.4375
1660.25446	3135.4375
1663.53433	2587.2375
1666.81203	2256.5375
1670.08756	2059.5375
1673.36092	1919.6375
1676.63211	1818.4375
1679.90115	1746.1375
1683.16801	1710.2375
1686.43272	1697.9375
1689.69527	1704.4375
1692.95567	1768.2375
1696.2139	1874.5375
1699.46999	2002.4375
1702.72392	1997.1375
1705.97571	1883.3375
1709.22535	1755.8375
1712.47284	1664.0375
1715.71819	1615.6375
1718.96139	1594.4375
1722.20246	1571.1375
1725.44139	1567.4375
1728.67818	1544.1375
1731.91284	1536.7375
1735.14537	1525.3375
1738.37576	1529.7375
1741.60403	1523.7375
1744.83017	1540.7375
1748.05418	1553.2375
1751.27607	1595.3375
1754.49584	1657.4375
1757.71349	1720.9375
1760.92903	1765.1375
1764.14244	1750.9375
1767.35375	1730.3375
1770.56294	1718.1375
1773.77002	1674.8375
1776.97499	1597.8375
1780.17785	1519.4375
1783.37861	1480.6375
1786.57727	1441.9375
1789.77382	1421.5375
1792.96828	1417.0375
1796.16064	1395.3375
1799.3509	1398.2375
1802.53907	1386.3375
1805.72514	1370.4375
1808.90913	1369.2375
1812.09102	1363.6375
1815.27083	1356.1375
1818.44856	1343.1375
1821.6242	1349.0375
1824.79776	1346.1375
1827.96924	1331.3375
1831.13864	1335.2375
1834.30597	1329.7375
1837.47122	1330.8375
1840.6344	1325.1375
1843.7955	1328.7375
1846.95454	1325.8375
1850.11151	1320.4375
1853.26642	1321.9375
1856.41926	1330.8375
1859.57004	1319.0375
1862.71876	1320.5375
1865.86542	1320.6375
1869.01003	1307.1375
1872.15258	1307.3375
1875.29308	1310.8375
1878.43152	1309.8375
1881.56792	1311.1375
1884.70227	1302.2375
1887.83457	1310.8375
1890.96482	1296.0375
1894.09304	1292.7375
1897.21921	1301.0375
1900.34335	1289.5375
1903.46544	1296.4375
1906.58551	1287.2375
1909.70353	1282.0375
1912.81953	1283.1375
1915.93349	1279.1375
1919.04543	1281.7375
1922.15534	1270.7375
1925.26322	1272.4375
1928.36908	1270.3375
1931.47292	1263.0375
1934.57473	1260.9375
1937.67453	1254.3375
1940.77232	1247.7375
1943.86808	1253.5375
1946.96184	1240.3375
1950.05358	1235.4375
1953.14331	1237.2375
1956.23103	1229.9375
1959.31675	1231.9375
1962.40046	1219.6375
1965.48217	1224.0375
1968.56188	1212.9375
1971.63959	1204.6375
1974.7153	1222.1375
1977.78901	1203.1375
1980.86073	1205.1375
1983.93046	1200.8375
1986.99819	1192.2375
1990.06394	1187.9375
1993.1277	1179.8375
1996.18947	1175.5375
1999.24925	1174.0375
2002.30706	1170.4375
2005.36288	1160.6375
2008.41672	1162.4375
2011.46859	1159.3375
2014.51848	1153.6375
2017.56639	1147.7375
2020.61233	1155.6375
2023.6563	1145.3375
2026.6983	1141.4375
2029.73833	1137.4375
2032.7764	1140.7375
2035.8125	1129.4375
2038.84664	1135.2375
2041.87881	1122.8375
2044.90903	1126.4375
2047.93729	1125.0375
2050.96359	1127.5375
2053.98794	1127.4375
2057.01034	1134.7375
2060.03078	1123.9375
2063.04927	1107.4375
2066.06582	1110.3375
2069.08042	1106.8375
2072.09307	1113.7375
2075.10378	1107.2375
2078.11255	1104.7375
2081.11938	1105.3375
2084.12426	1107.5375
2087.12722	1108.4375
2090.12824	1106.1375
2093.12732	1109.4375
2096.12447	1103.6375
2099.11969	1103.5375
2102.11299	1103.3375
2105.10435	1103.8375
2108.09379	1113.1375
2111.08131	1106.6375
2114.0669	1113.5375
2117.05057	1101.4375
2120.03233	1111.8375
2123.01216	1108.5375
2125.99008	1112.1375
2128.96609	1107.7375
2131.94018	1106.3375
2134.91236	1115.6375
2137.88263	1107.8375
2140.851	1106.3375
2143.81746	1110.9375
2146.78201	1110.7375
2149.74466	1111.0375
2152.7054	1100.2375
2155.66425	1107.0375
2158.6212	1102.3375
2161.57625	1097.5375
2164.52941	1098.0375
2167.48067	1098.6375
2170.43004	1097.3375
2173.37752	1095.8375
2176.32311	1099.5375
2179.26681	1099.9375
2182.20863	1096.4375
2185.14856	1091.2375
2188.08661	1095.5375
2191.02278	1088.9375
2193.95707	1087.7375
2196.88948	1089.8375
2199.82001	1093.7375
2202.74867	1087.1375
2205.67545	1086.3375
2208.60037	1083.5375
2211.52341	1080.5375
2214.44458	1082.9375
2217.36388	1077.5375
2220.28132	1075.7375
2223.1969	1067.3375
2226.11061	1063.4375
2229.02246	1060.3375
2231.93245	1062.3375
2234.84058	1070.3375
2237.74686	1056.2375
2240.65128	1064.7375
2243.55385	1057.3375
2246.45456	1063.2375
2249.35343	1055.1375
2252.25044	1053.5375
2255.14561	1064.1375
2258.03893	1069.7375
2260.93041	1121.1375
2263.82004	1072.9375
2266.70783	1065.2375
2269.59378	1067.3375
2272.4779	1043.9375
2275.36017	1043.3375
2278.24061	1032.9375
2281.11922	1039.1375
2283.996	1031.4375
2286.87094	1025.9375
2289.74405	1029.8375
2292.61534	1023.8375
2295.4848	1033.4375
2298.35243	1017.0375
2301.21824	1011.7375
2304.08223	1023.0375
2306.94439	1022.8375
2309.80474	1009.9375
2312.66327	1010.0375
2315.51999	1016.6375
2318.37489	1013.5375
2321.22797	1012.9375
2324.07925	1011.7375
2326.92871	1013.5375
2329.77637	1015.3375
2332.62222	1014.9375
2335.46626	1018.0375
2338.3085	1018.9375
2341.14893	1013.1375
2343.98756	1012.3375
2346.8244	1009.7375
2349.65943	1007.8375
2352.49267	1004.3375
2355.32411	1005.3375
2358.15376	1013.8375
2360.98161	1009.0375
2363.80768	1010.1375
2366.63195	1010.9375
2369.45444	1010.5375
2372.27514	1009.4375
2375.09405	1008.6375
2377.91118	1004.2375
2380.72652	995.2375
2383.54009	995.6375
2386.35187	986.2375
2389.16188	986.5375
2391.97011	982.3375
2394.77657	984.9375
2397.58125	980.2375
2400.38416	976.7375
2403.18529	977.0375
2405.98466	976.5375
2408.78226	972.9375
2411.57809	967.5375
2414.37216	963.9375
2417.16446	970.8375
2419.955	970.3375
2422.74378	964.9375
2425.5308	962.0375
2428.31606	965.9375
2431.09956	961.8375
2433.88131	960.0375
2436.6613	965.6375
2439.43954	962.7375
2442.21603	963.8375
2444.99077	960.8375
2447.76377	958.7375
2450.53501	961.8375
2453.30451	961.3375
2456.07226	956.3375
2458.83827	958.2375
2461.60254	959.6375
2464.36507	958.0375
2467.12586	959.1375
2469.88492	956.2375
2472.64224	956.7375
2475.39782	988.3375
2478.15167	990.1375
2480.90379	978.0375
2483.65417	971.7375
2486.40283	963.6375
2489.14976	964.2375
2491.89497	963.8375
2494.63845	998.1375
2497.3802	1011.5375
2500.12024	983.5375
2502.85855	973.2375
2505.59514	960.1375
2508.33002	951.9375
2511.06318	944.6375
2513.79462	940.4375
2516.52435	933.7375
2519.25237	940.8375
2521.97867	931.6375
2524.70327	922.0375
2527.42616	929.6375
2530.14734	914.7375
2532.86681	921.5375
2535.58458	923.2375
2538.30065	915.9375
2541.01501	920.1375
2543.72768	919.4375
2546.43864	915.0375
2549.14791	921.3375
2551.85548	911.9375
2554.56136	917.5375
2557.26554	907.1375
2559.96803	923.3375
2562.66883	916.6375
2565.36794	912.0375
2568.06536	907.0375
2570.7611	906.7375
2573.45514	910.6375
2576.14751	900.7375
2578.83819	909.6375
2581.52719	907.5375
2584.21451	899.4375
2586.90015	891.3375
2589.58411	898.3375
2592.2664	895.0375
2594.94701	893.4375
2597.62594	890.2375
2600.30321	883.4375
2602.9788	881.4375
2605.65273	880.4375
2608.32498	881.8375
2610.99557	885.3375
2613.66449	880.5375
2616.33175	878.8375
2618.99734	878.4375
2621.66128	879.5375
2624.32355	879.9375
2626.98416	878.0375
2629.64311	876.7375
2632.30041	868.0375
2634.95605	867.0375
2637.61004	869.6375
2640.26238	873.0375
2642.91306	861.1375
2645.56209	870.4375
2648.20948	872.5375
2650.85521	864.6375
2653.4993	863.1375
2656.14175	861.4375
2658.78255	866.8375
2661.42171	866.1375
2664.05923	867.1375
2666.6951	866.7375
2669.32934	863.4375
2671.96194	865.2375
2674.59291	871.3375
2677.22224	874.2375
2679.84993	869.0375
2682.476	867.0375
2685.10043	867.2375
2687.72324	861.7375
2690.34441	868.2375
2692.96396	861.5375
2695.58188	864.5375
2698.19818	866.5375
2700.81285	879.8375
2703.4259	930.5375
2706.03733	1078.9375
2708.64714	994.9375
2711.25533	930.6375
2713.86191	901.8375
2716.46687	898.5375
2719.07021	886.8375
2721.67194	878.6375
2724.27206	871.6375
2726.87057	866.0375
2729.46747	866.2375
2732.06276	863.4375
2734.65644	862.0375
2737.24852	864.5375
2739.83899	856.5375
2742.42786	863.6375
2745.01513	866.6375
2747.60079	860.6375
2750.18486	855.9375
2752.76733	857.7375
2755.3482	855.7375
2757.92747	850.2375
2760.50515	855.7375
2763.08123	850.8375
2765.65573	843.7375
2768.22863	854.8375
2770.79994	843.9375
2773.36967	856.7375
2775.9378	844.0375
2778.50435	846.6375
2781.06932	847.4375
2783.6327	850.9375
2786.1945	850.9375
2788.75471	843.6375
2791.31335	843.7375
2793.87041	840.2375
2796.42589	842.5375
2798.97979	838.6375
2801.53212	843.0375
2804.08288	844.5375
2806.63206	842.9375
2809.17967	852.4375
2811.72571	840.8375
2814.27018	842.5375
2816.81308	837.3375
2819.35442	847.4375
2821.89419	850.1375
2824.43239	845.6375
2826.96904	852.2375
2829.50412	850.6375
2832.03763	847.1375
2834.56959	850.5375
2837.1	854.4375
2839.62884	858.6375
2842.15613	860.0375
2844.68186	861.2375
2847.20604	873.0375
2849.72867	880.9375
2852.24974	878.6375
2854.76927	904.6375
2857.28724	941.5375
2859.80367	914.5375
2862.31855	899.5375
2864.83189	901.6375
2867.34368	890.4375
2869.85393	886.0375
2872.36264	885.2375
2874.8698	885.9375
2877.37543	885.1375
2879.87952	886.4375
2882.38207	884.6375
2884.88308	882.3375
2887.38256	888.1375
2889.88051	884.9375
2892.37692	893.2375
2894.8718	885.1375
2897.36515	895.5375
2899.85698	892.1375
2902.34727	900.9375
2904.83604	890.9375
2907.32328	901.4375
2909.809	903.2375
2912.29319	905.0375
2914.77587	908.2375
2917.25702	911.2375
2919.73665	905.1375
2922.21476	908.9375
2924.69136	908.2375
2927.16644	913.0375
2929.64	919.7375
2932.11205	910.1375
2934.58258	906.1375
2937.05161	916.9375
2939.51912	910.4375
2941.98513	906.0375
2944.44962	899.6375
2946.91261	887.2375
2949.37409	885.3375
2951.83407	885.7375
2954.29254	875.8375
2956.74951	872.0375
2959.20498	868.5375
2961.65895	861.9375
2964.11142	858.0375
2966.56239	847.7375
2969.01186	846.3375
2971.45984	844.9375
2973.90632	836.1375
2976.35131	834.4375
2978.7948	821.6375
2981.23681	824.9375
2983.67732	822.7375
2986.11635	818.7375
2988.55388	818.4375
2990.98993	811.0375
2993.4245	815.7375
2995.85758	814.3375
2998.28917	811.2375
3000.71928	816.4375
3003.14791	814.3375
3005.57506	810.9375
3008.00073	808.0375
3010.42493	801.3375
3012.84764	805.7375
3015.26888	802.9375
3017.68865	796.9375
3020.10694	794.9375
3022.52376	798.2375
3024.9391	797.6375
3027.35298	795.8375
3029.76539	789.1375
3032.17632	787.5375
3034.5858	780.9375
3036.9938	781.8375
3039.40034	777.3375
3041.80542	781.1375
3044.20903	776.4375
3046.61118	778.5375
3049.01187	769.8375
3051.4111	778.5375
3053.80888	775.1375
3056.20519	760.9375
3058.60005	770.8375
3060.99345	766.6375
3063.3854	764.0375
3065.7759	763.8375
3068.16494	760.4375
3070.55254	760.9375
3072.93868	760.7375
3075.32338	765.3375
3077.70662	758.8375
3080.08842	754.9375
3082.46878	758.6375
3084.84769	755.3375
3087.22515	751.1375
3089.60118	753.7375
3091.97576	757.0375
3094.3489	749.4375
3096.72061	753.7375
3099.09087	752.3375
3101.4597	749.5375
3103.82709	753.3375
3106.19305	748.1375
3108.55757	757.3375
3110.92066	749.2375
3113.28232	752.3375
3115.64255	746.0375
3118.00134	752.2375
3120.35871	749.8375
3122.71466	746.2375
3125.06917	748.7375
3127.42226	748.1375
3129.77393	750.6375
3132.12417	757.1375
3134.47299	751.7375
3136.82039	747.6375
3139.16636	751.7375
3141.51092	750.5375
3143.85406	753.4375
3146.19579	754.7375
3148.53609	756.5375
3150.87499	757.9375
3153.21246	754.9375
3155.54853	765.0375
3157.88318	765.8375
3160.21642	769.1375
