Data from AgNPs_FTO_APTES_UA_5um_CRN_0.1mM_R6G_10uM_NaF_0.1M_Addition_RamanShift__16__13-15-39-099.txt Node

Date: Tue Dec 21 13:15:39 GMT 2021
User: TCL
Spectrometer: QEP01345
Trigger mode: 4
Integration Time (sec): 7.000000E0
Scans to average: 10
Electric dark correction enabled: true
Nonlinearity correction enabled: false
Boxcar width: 0
XAxis mode: Raman Shifts
Number of Pixels in Spectrum: 1044
>>>>>Begin Spectral Data<<<<<
46.04893	0.525
50.45542	-1.075
54.85868	-2.175
59.25871	-0.575
63.6555	43.325
68.04907	50.925
72.43941	51.225
76.82654	52.425
81.21044	60.425
85.59113	57.525
89.96862	61.525
94.34289	58.825
98.71396	65.825
103.08183	67.625
107.4465	71.825
111.80798	73.925
116.16626	69.825
120.52136	75.325
124.87327	74.425
129.222	76.225
133.56755	84.425
137.90993	92.925
142.24913	97.625
146.58517	109.825
150.91804	127.925
155.24774	150.725
159.57429	187.825
163.89768	242.525
168.21792	315.125
172.53501	427.225
176.84895	593.125
181.15975	830.525
185.46741	1157.925
189.77193	1605.225
194.07331	2154.125
198.37157	2777.325
202.6667	3445.125
206.9587	4123.525
211.24758	4767.625
215.53334	5441.125
219.81599	6147.925
224.09553	6907.425
228.37195	7767.425
232.64527	8658.025
236.91549	9616.125
241.18261	10603.225
245.44663	11528.225
249.70755	12308.725
253.96539	12990.625
258.22014	13558.225
262.4718	13982.425
266.72039	14252.925
270.96589	14362.025
275.20832	14386.325
279.44768	14260.925
283.68397	14175.025
287.91719	14074.325
292.14735	13974.525
296.37445	13981.425
300.59849	14013.825
304.81948	14076.825
309.03742	14013.425
313.25231	13841.025
317.46415	13524.825
321.67296	13121.625
325.87872	12757.525
330.08145	12533.925
334.28114	12499.325
338.47781	12561.825
342.67145	12707.425
346.86207	12915.925
351.04966	13123.525
355.23424	13388.525
359.4158	13621.225
363.59435	13741.925
367.76989	13853.825
371.94243	13897.725
376.11196	13970.125
380.27849	14048.925
384.44203	14153.525
388.60257	14283.425
392.76012	14425.425
396.91468	14645.925
401.06626	14852.125
405.21485	15056.625
409.36047	15004.925
413.50311	14791.425
417.64277	14601.725
421.77947	14500.425
425.9132	14500.425
430.04396	14600.325
434.17176	14700.125
438.2966	14779.025
442.41849	14987.925
446.53742	15412.325
450.6534	15865.325
454.76644	16252.425
458.87653	16385.025
462.98368	16300.925
467.08789	16133.125
471.18916	15982.925
475.2875	15856.225
479.38291	15850.225
483.4754	15851.525
487.56496	15688.025
491.6516	15401.225
495.73531	15147.125
499.81612	15014.425
503.89401	15040.325
507.96899	15021.325
512.04106	14896.025
516.11023	14757.325
520.1765	14549.125
524.23987	14450.725
528.30034	14391.125
532.35792	14346.725
536.41261	14222.525
540.46441	14086.625
544.51333	14022.925
548.55936	14120.225
552.60252	14394.225
556.64279	14669.725
560.6802	14940.025
564.71473	15089.525
568.7464	15334.125
572.7752	15755.325
576.80114	16121.025
580.82422	16392.225
584.84444	16666.925
588.86181	16950.225
592.87633	17240.125
596.888	17282.325
600.89682	17171.225
604.9028	17460.625
608.90594	18673.125
612.90624	19939.125
616.90371	18604.225
620.89834	15578.525
624.89015	14161.525
628.87913	14042.525
632.86528	14262.225
636.84862	14385.725
640.82913	14250.025
644.80683	13862.625
648.78172	13529.825
652.75379	13385.825
656.72306	13465.025
660.68952	13657.525
664.65319	13650.225
668.61405	13510.625
672.57211	13535.825
676.52738	13722.925
680.47986	13753.625
684.42955	13691.325
688.37646	13507.725
692.32058	13440.225
696.26192	13442.025
700.20048	13530.125
704.13626	13615.825
708.06928	13618.625
711.99952	13524.125
715.927	13473.525
719.85171	13480.225
723.77365	13477.725
727.69284	13388.925
731.60928	13302.325
735.52295	13271.725
739.43388	13240.825
743.34206	13267.425
747.24749	13303.825
751.15017	13366.525
755.05012	13560.925
758.94733	13919.125
762.8418	14640.325
766.73354	15820.325
770.62254	17027.425
774.50882	17415.225
778.39237	16669.925
782.27321	15326.825
786.15132	14218.525
790.02671	13444.125
793.89938	13042.325
797.76935	12920.225
801.6366	12865.125
805.50115	12842.125
809.36299	12756.325
813.22213	12654.825
817.07857	12572.425
820.93231	12500.025
824.78336	12437.025
828.63172	12339.825
832.47738	12329.425
836.32036	12299.125
840.16066	12276.525
843.99827	12268.925
847.8332	12244.725
851.66546	12177.425
855.49504	12199.125
859.32195	12209.025
863.1462	12222.425
866.96777	12222.225
870.78668	12228.425
874.60293	12226.025
878.41652	12206.225
882.22745	12224.525
886.03573	12281.125
889.84136	12291.425
893.64433	12261.025
897.44466	12189.825
901.24235	12076.125
905.0374	11969.125
908.8298	11890.225
912.61957	11854.825
916.40671	11942.325
920.19121	12108.525
923.97308	12277.725
927.75233	12312.725
931.52895	12243.225
935.30295	12056.425
939.07433	11811.725
942.84309	11616.925
946.60924	11526.225
950.37278	11457.825
954.13371	11439.025
957.89203	11405.625
961.64774	11364.625
965.40086	11308.725
969.15137	11276.225
972.89929	11198.925
976.64461	11140.425
980.38733	11095.825
984.12747	11094.325
987.86502	11144.725
991.59999	11234.925
995.33237	11418.225
999.06217	11682.125
1002.78939	11980.525
1006.51404	12253.525
1010.23611	12461.125
1013.95561	12580.725
1017.67255	12659.325
1021.38692	12498.525
1025.09872	12257.725
1028.80796	12110.225
1032.51465	12138.425
1036.21877	12287.625
1039.92035	12413.625
1043.61937	12421.825
1047.31584	12327.125
1051.00976	12274.825
1054.70114	12219.225
1058.38998	12212.025
1062.07627	12300.425
1065.76003	12427.325
1069.44126	12559.225
1073.11995	12762.325
1076.79611	12949.325
1080.46974	12986.425
1084.14085	12972.225
1087.80943	13088.425
1091.47549	13253.125
1095.13903	13347.225
1098.80005	13247.325
1102.45857	12903.725
1106.11456	12601.325
1109.76805	12441.625
1113.41903	12446.625
1117.06751	12521.325
1120.71348	12678.425
1124.35696	12908.125
1127.99793	13115.625
1131.63641	13287.525
1135.2724	13296.125
1138.90589	13222.825
1142.5369	13122.925
1146.16542	13122.025
1149.79145	13145.525
1153.415	13214.425
1157.03607	13418.125
1160.65467	13774.225
1164.27079	14382.925
1167.88443	15242.125
1171.49561	16248.225
1175.10432	17546.425
1178.71056	19115.425
1182.31434	20569.725
1185.91565	21324.625
1189.51451	21339.925
1193.11091	20801.625
1196.70485	19885.625
1200.29634	18920.225
1203.88538	18063.725
1207.47197	17503.425
1211.05612	17033.125
1214.63782	16607.725
1218.21708	16291.725
1221.79391	16107.625
1225.36829	15974.425
1228.94024	15808.125
1232.50976	15504.525
1236.07685	15198.725
1239.6415	14997.125
1243.20374	14945.425
1246.76355	15020.925
1250.32093	15192.325
1253.8759	15545.425
1257.42845	16002.525
1260.97859	16516.925
1264.52631	17022.425
1268.07163	17564.125
1271.61453	18084.325
1275.15503	18641.425
1278.69312	19249.125
1282.22882	19852.525
1285.76211	20513.125
1289.29301	21319.425
1292.82151	22263.825
1296.34761	23418.325
1299.87133	24704.225
1303.39266	26090.625
1306.9116	27502.025
1310.42815	28799.725
1313.94233	29784.325
1317.45412	29983.425
1320.96354	29635.125
1324.47058	29176.225
1327.97525	28644.525
1331.47754	28222.825
1334.97747	27951.325
1338.47502	27667.525
1341.97022	27329.325
1345.46305	26890.825
1348.95352	26445.925
1352.44163	26344.625
1355.92738	26731.825
1359.41078	27563.525
1362.89183	28367.325
1366.37053	28125.425
1369.84688	26197.625
1373.32088	23540.025
1376.79254	21543.125
1380.26186	20582.825
1383.72883	20366.125
1387.19347	20266.025
1390.65578	20130.825
1394.11575	20157.625
1397.57339	20505.725
1401.0287	21034.725
1404.48168	21479.525
1407.93234	21558.125
1411.38068	21161.525
1414.82669	20398.625
1418.27039	19417.425
1421.71177	18412.325
1425.15083	17567.325
1428.58758	17068.325
1432.02203	17069.125
1435.45416	17411.925
1438.88399	17880.025
1442.31151	18391.025
1445.73673	18854.425
1449.15965	19290.625
1452.58027	19655.325
1455.9986	19863.225
1459.41463	20056.425
1462.82837	20421.825
1466.23982	20818.325
1469.64898	21167.525
1473.05586	21320.725
1476.46045	21249.725
1479.86276	21083.525
1483.26279	20810.225
1486.66054	20642.625
1490.05602	20668.325
1493.44922	20820.625
1496.84016	20985.525
1500.22882	21319.925
1503.61521	21879.525
1506.99934	22668.525
1510.38121	23296.225
1513.76081	23445.325
1517.13816	22814.925
1520.51324	21873.525
1523.88607	20955.225
1527.25665	20422.625
1530.62498	20160.425
1533.99105	20036.525
1537.35488	19888.125
1540.71647	19584.625
1544.07581	19144.025
1547.4329	18639.425
1550.78776	18176.525
1554.14038	17880.025
1557.49077	17790.425
1560.83892	17811.425
1564.18484	17896.225
1567.52853	18000.525
1570.86999	18172.325
1574.20922	18436.325
1577.54624	18707.625
1580.88103	18687.525
1584.2136	18681.925
1587.54395	19076.425
1590.87208	19830.725
1594.19801	21032.525
1597.52172	22291.025
1600.84321	22768.225
1604.16251	21930.925
1607.47959	20281.025
1610.79447	18379.225
1614.10715	16609.425
1617.41763	15227.425
1620.7259	14242.325
1624.03199	13698.625
1627.33587	13608.825
1630.63757	13937.725
1633.93707	14856.325
1637.23439	16335.825
1640.52951	18594.125
1643.82246	21383.125
1647.11321	23820.225
1650.40179	24672.125
1653.68819	23255.225
1656.97241	20376.725
1660.25446	17247.125
1663.53433	14735.925
1666.81203	13081.325
1670.08756	12030.725
1673.36092	11363.725
1676.63211	10970.625
1679.90115	10685.025
1683.16801	10441.825
1686.43272	10280.225
1689.69527	10156.325
1692.95567	10026.025
1696.2139	9992.725
1699.46999	9933.225
1702.72392	9876.525
1705.97571	9824.225
1709.22535	9805.525
1712.47284	9748.625
1715.71819	9690.325
1718.96139	9656.225
1722.20246	9625.225
1725.44139	9574.525
1728.67818	9499.325
1731.91284	9448.825
1735.14537	9407.525
1738.37576	9376.725
1741.60403	9323.425
1744.83017	9312.525
1748.05418	9297.225
1751.27607	9325.825
1754.49584	9331.825
1757.71349	9338.025
1760.92903	9321.225
1764.14244	9264.625
1767.35375	9218.025
1770.56294	9164.725
1773.77002	9099.125
1776.97499	9049.825
1780.17785	9004.925
1783.37861	8977.425
1786.57727	8929.025
1789.77382	8909.225
1792.96828	8879.425
1796.16064	8844.725
1799.3509	8804.825
1802.53907	8798.925
1805.72514	8774.225
1808.90913	8747.525
1812.09102	8709.825
1815.27083	8666.325
1818.44856	8682.225
1821.6242	8646.525
1824.79776	8634.825
1827.96924	8616.125
1831.13864	8609.325
1834.30597	8600.325
1837.47122	8596.925
1840.6344	8579.525
1843.7955	8574.125
1846.95454	8568.325
1850.11151	8567.525
1853.26642	8582.525
1856.41926	8576.325
1859.57004	8564.925
1862.71876	8560.325
1865.86542	8537.725
1869.01003	8536.925
1872.15258	8526.025
1875.29308	8518.225
1878.43152	8521.425
1881.56792	8484.625
1884.70227	8475.625
1887.83457	8486.125
1890.96482	8442.925
1894.09304	8447.625
1897.21921	8461.125
1900.34335	8436.825
1903.46544	8417.425
1906.58551	8414.825
1909.70353	8385.625
1912.81953	8350.225
1915.93349	8339.425
1919.04543	8307.425
1922.15534	8329.125
1925.26322	8288.725
1928.36908	8241.525
1931.47292	8216.325
1934.57473	8199.525
1937.67453	8197.025
1940.77232	8151.825
1943.86808	8124.225
1946.96184	8101.125
1950.05358	8064.825
1953.14331	8040.725
1956.23103	8031.925
1959.31675	7998.725
1962.40046	7956.325
1965.48217	7954.925
1968.56188	7918.225
1971.63959	7890.725
1974.7153	7877.425
1977.78901	7840.025
1980.86073	7802.125
1983.93046	7774.125
1986.99819	7752.125
1990.06394	7705.725
1993.1277	7688.025
1996.18947	7645.025
1999.24925	7644.625
2002.30706	7635.125
2005.36288	7587.925
2008.41672	7588.625
2011.46859	7570.525
2014.51848	7539.125
2017.56639	7516.225
2020.61233	7498.425
2023.6563	7486.925
2026.6983	7453.725
2029.73833	7460.825
2032.7764	7424.725
2035.8125	7410.525
2038.84664	7377.325
2041.87881	7378.225
2044.90903	7366.025
2047.93729	7345.625
2050.96359	7355.425
2053.98794	7323.925
2057.01034	7334.925
2060.03078	7295.925
2063.04927	7291.025
2066.06582	7271.925
2069.08042	7296.125
2072.09307	7277.125
2075.10378	7262.425
2078.11255	7266.825
2081.11938	7255.125
2084.12426	7232.925
2087.12722	7228.725
2090.12824	7234.225
2093.12732	7250.225
2096.12447	7242.525
2099.11969	7214.425
2102.11299	7223.825
2105.10435	7219.825
2108.09379	7251.925
2111.08131	7223.925
2114.0669	7230.325
2117.05057	7234.225
2120.03233	7225.825
2123.01216	7222.825
2125.99008	7219.825
2128.96609	7231.625
2131.94018	7224.725
2134.91236	7252.425
2137.88263	7244.825
2140.851	7220.625
2143.81746	7214.825
2146.78201	7233.525
2149.74466	7217.625
2152.7054	7224.125
2155.66425	7212.625
2158.6212	7210.925
2161.57625	7202.025
2164.52941	7182.725
2167.48067	7203.825
2170.43004	7172.625
2173.37752	7185.625
2176.32311	7158.925
2179.26681	7175.525
2182.20863	7174.225
2185.14856	7175.725
2188.08661	7154.225
2191.02278	7163.025
2193.95707	7162.125
2196.88948	7148.525
2199.82001	7152.225
2202.74867	7146.525
2205.67545	7152.525
2208.60037	7114.225
2211.52341	7103.825
2214.44458	7108.025
2217.36388	7065.425
2220.28132	7035.925
2223.1969	7044.725
2226.11061	7042.225
2229.02246	7006.925
2231.93245	7024.925
2234.84058	7005.225
2237.74686	6989.925
2240.65128	6973.225
2243.55385	6966.525
2246.45456	6948.525
2249.35343	6926.525
2252.25044	6924.725
2255.14561	6911.025
2258.03893	6891.325
2260.93041	6893.125
2263.82004	6876.325
2266.70783	6841.125
2269.59378	6810.925
2272.4779	6790.825
2275.36017	6774.225
2278.24061	6766.325
2281.11922	6733.925
2283.996	6738.125
2286.87094	6735.025
2289.74405	6715.625
2292.61534	6692.825
2295.4848	6688.625
2298.35243	6696.025
2301.21824	6688.225
2304.08223	6666.025
2306.94439	6676.925
2309.80474	6644.725
2312.66327	6688.325
2315.51999	6651.025
2318.37489	6639.825
2321.22797	6617.925
2324.07925	6627.525
2326.92871	6624.525
2329.77637	6636.025
2332.62222	6605.625
2335.46626	6618.025
2338.3085	6597.825
2341.14893	6615.625
2343.98756	6587.425
2346.8244	6588.825
2349.65943	6602.525
2352.49267	6596.225
2355.32411	6588.225
2358.15376	6591.825
2360.98161	6588.825
2363.80768	6582.625
2366.63195	6560.325
2369.45444	6554.725
2372.27514	6552.625
2375.09405	6533.925
2377.91118	6505.125
2380.72652	6507.225
2383.54009	6487.625
2386.35187	6454.525
2389.16188	6431.625
2391.97011	6438.025
2394.77657	6414.425
2397.58125	6432.925
2400.38416	6414.425
2403.18529	6398.925
2405.98466	6382.825
2408.78226	6385.225
2411.57809	6361.325
2414.37216	6356.225
2417.16446	6339.125
2419.955	6336.425
2422.74378	6336.325
2425.5308	6295.125
2428.31606	6315.725
2431.09956	6310.525
2433.88131	6309.925
2436.6613	6301.325
2439.43954	6304.625
2442.21603	6279.625
2444.99077	6266.225
2447.76377	6279.925
2450.53501	6270.525
2453.30451	6278.925
2456.07226	6273.425
2458.83827	6269.325
2461.60254	6272.225
2464.36507	6270.425
2467.12586	6271.225
2469.88492	6262.825
2472.64224	6269.525
2475.39782	6251.825
2478.15167	6265.125
2480.90379	6263.725
2483.65417	6273.725
2486.40283	6259.225
2489.14976	6264.525
2491.89497	6245.325
2494.63845	6263.825
2497.3802	6271.025
2500.12024	6270.225
2502.85855	6237.925
2505.59514	6225.925
2508.33002	6234.025
2511.06318	6227.325
2513.79462	6223.725
2516.52435	6195.925
2519.25237	6207.825
2521.97867	6177.425
2524.70327	6186.725
2527.42616	6184.225
2530.14734	6164.525
2532.86681	6170.425
2535.58458	6169.325
2538.30065	6139.825
2541.01501	6144.925
2543.72768	6139.125
2546.43864	6135.025
2549.14791	6142.525
2551.85548	6130.925
2554.56136	6120.025
2557.26554	6111.625
2559.96803	6097.725
2562.66883	6095.625
2565.36794	6093.325
2568.06536	6097.525
2570.7611	6074.725
2573.45514	6070.625
2576.14751	6065.125
2578.83819	6077.025
2581.52719	6071.225
2584.21451	6057.525
2586.90015	6050.425
2589.58411	6028.125
2592.2664	6039.925
2594.94701	6027.125
2597.62594	6035.325
2600.30321	6002.825
2602.9788	5999.925
2605.65273	5991.225
2608.32498	5993.025
2610.99557	5982.925
2613.66449	6009.025
2616.33175	5992.425
2618.99734	5994.425
2621.66128	5978.125
2624.32355	5979.225
2626.98416	5971.325
2629.64311	5974.825
2632.30041	5967.625
2634.95605	5988.425
2637.61004	5971.325
2640.26238	5955.625
2642.91306	5958.825
2645.56209	5943.025
2648.20948	5964.225
2650.85521	5953.825
2653.4993	5930.025
2656.14175	5947.625
2658.78255	5958.125
2661.42171	5944.825
2664.05923	5948.125
2666.6951	5945.725
2669.32934	5951.725
2671.96194	5959.425
2674.59291	5960.225
2677.22224	5961.425
2679.84993	5948.525
2682.476	5935.625
2685.10043	5951.125
2687.72324	5917.425
2690.34441	5919.625
2692.96396	5898.225
2695.58188	5922.425
2698.19818	5905.225
2700.81285	5920.825
2703.4259	5932.325
2706.03733	5985.425
2708.64714	5944.625
2711.25533	5946.325
2713.86191	5945.925
2716.46687	5946.425
2719.07021	5937.825
2721.67194	5939.225
2724.27206	5938.725
2726.87057	5936.625
2729.46747	5947.125
2732.06276	5946.425
2734.65644	5950.425
2737.24852	5950.825
2739.83899	5933.625
2742.42786	5932.425
2745.01513	5917.325
2747.60079	5918.225
2750.18486	5910.425
2752.76733	5908.825
2755.3482	5893.925
2757.92747	5911.825
2760.50515	5904.625
2763.08123	5905.025
2765.65573	5902.825
2768.22863	5901.625
2770.79994	5906.025
2773.36967	5899.725
2775.9378	5884.925
2778.50435	5897.025
2781.06932	5894.625
2783.6327	5897.825
2786.1945	5888.725
2788.75471	5886.625
2791.31335	5859.025
2793.87041	5854.725
2796.42589	5835.625
2798.97979	5847.025
2801.53212	5820.425
2804.08288	5828.325
2806.63206	5832.125
2809.17967	5801.525
2811.72571	5788.125
2814.27018	5789.925
2816.81308	5794.725
2819.35442	5798.925
2821.89419	5774.525
2824.43239	5766.925
2826.96904	5778.125
2829.50412	5780.925
2832.03763	5762.625
2834.56959	5764.125
2837.1	5753.925
2839.62884	5726.925
2842.15613	5735.525
2844.68186	5776.025
2847.20604	5763.125
2849.72867	5770.525
2852.24974	5752.125
2854.76927	5750.225
2857.28724	5754.125
2859.80367	5741.225
2862.31855	5728.225
2864.83189	5738.925
2867.34368	5737.925
2869.85393	5712.825
2872.36264	5702.825
2874.8698	5691.325
2877.37543	5705.725
2879.87952	5728.925
2882.38207	5725.325
2884.88308	5728.025
2887.38256	5739.025
2889.88051	5717.325
2892.37692	5720.625
2894.8718	5728.025
2897.36515	5739.425
2899.85698	5743.725
2902.34727	5780.925
2904.83604	5757.825
2907.32328	5778.025
2909.809	5786.325
2912.29319	5801.825
2914.77587	5806.925
2917.25702	5791.925
2919.73665	5798.725
2922.21476	5802.325
2924.69136	5780.725
2927.16644	5813.225
2929.64	5808.625
2932.11205	5786.225
2934.58258	5771.725
2937.05161	5783.125
2939.51912	5794.225
2941.98513	5783.525
2944.44962	5780.625
2946.91261	5751.425
2949.37409	5756.425
2951.83407	5744.125
2954.29254	5728.325
2956.74951	5719.725
2959.20498	5698.125
2961.65895	5673.925
2964.11142	5674.425
2966.56239	5631.925
2969.01186	5626.725
2971.45984	5598.525
2973.90632	5598.625
2976.35131	5574.925
2978.7948	5555.325
2981.23681	5550.925
2983.67732	5528.425
2986.11635	5516.425
2988.55388	5505.125
2990.98993	5476.725
2993.4245	5478.425
2995.85758	5450.725
2998.28917	5443.025
3000.71928	5436.425
3003.14791	5419.025
3005.57506	5428.125
3008.00073	5416.125
3010.42493	5412.925
3012.84764	5383.225
3015.26888	5387.125
3017.68865	5367.025
3020.10694	5346.925
3022.52376	5344.725
3024.9391	5333.725
3027.35298	5308.025
3029.76539	5321.525
3032.17632	5306.325
3034.5858	5299.025
3036.9938	5299.225
3039.40034	5285.725
3041.80542	5270.325
3044.20903	5258.025
3046.61118	5245.425
3049.01187	5222.725
3051.4111	5235.025
3053.80888	5223.225
3056.20519	5202.925
3058.60005	5208.725
3060.99345	5197.425
3063.3854	5166.325
3065.7759	5161.625
3068.16494	5144.925
3070.55254	5133.425
3072.93868	5120.725
3075.32338	5107.325
3077.70662	5100.225
3080.08842	5080.225
3082.46878	5075.125
3084.84769	5075.925
3087.22515	5074.225
3089.60118	5070.225
3091.97576	5071.025
3094.3489	5056.725
3096.72061	5067.725
3099.09087	5055.625
3101.4597	5058.925
3103.82709	5052.925
3106.19305	5040.825
3108.55757	5040.625
3110.92066	5023.625
3113.28232	5011.525
3115.64255	4992.425
3118.00134	5002.525
3120.35871	4998.525
3122.71466	4972.725
3125.06917	4992.625
3127.42226	4954.125
3129.77393	4968.825
3132.12417	4981.225
3134.47299	4975.825
3136.82039	4958.025
3139.16636	4953.925
3141.51092	4962.025
3143.85406	4952.825
3146.19579	4974.725
3148.53609	4971.425
3150.87499	4961.525
3153.21246	4965.525
3155.54853	4948.825
3157.88318	4965.325
3160.21642	4966.825
3162.54826	4961.925
3164.87868	4953.125
3167.2077	4958.725
3169.5353	4956.625
3171.86151	4957.925
3174.18631	4945.225
3176.5097	4938.325
3178.83169	4957.525
3181.15228	4963.525
3183.47147	4937.425
3185.78926	4942.525
3188.10565	4942.325
3190.42065	4943.625
