Data from AgNPs_FTO_APTES_UA_20um_CRN_0.1mM_R6G_10uM_NaF_0.1M_Addition_RamanShift__16__14-34-59-189.txt Node

Date: Tue Dec 21 14:34:59 GMT 2021
User: TCL
Spectrometer: QEP01345
Trigger mode: 4
Integration Time (sec): 7.000000E0
Scans to average: 10
Electric dark correction enabled: true
Nonlinearity correction enabled: false
Boxcar width: 0
XAxis mode: Raman Shifts
Number of Pixels in Spectrum: 1044
>>>>>Begin Spectral Data<<<<<
46.04893	0.1875
50.45542	-1.0125
54.85868	-1.6125
59.25871	0.6875
63.6555	44.3875
68.04907	48.7875
72.43941	48.9875
76.82654	50.0875
81.21044	56.7875
85.59113	54.9875
89.96862	56.4875
94.34289	59.3875
98.71396	61.6875
103.08183	66.9875
107.4465	65.8875
111.80798	71.4875
116.16626	69.1875
120.52136	72.2875
124.87327	75.1875
129.222	73.1875
133.56755	84.1875
137.90993	88.0875
142.24913	91.7875
146.58517	103.1875
150.91804	121.1875
155.24774	145.0875
159.57429	170.1875
163.89768	223.2875
168.21792	288.2875
172.53501	390.2875
176.84895	539.4875
181.15975	760.9875
185.46741	1063.6875
189.77193	1462.6875
194.07331	1964.3875
198.37157	2543.0875
202.6667	3162.0875
206.9587	3761.0875
211.24758	4381.0875
215.53334	4983.7875
219.81599	5618.8875
224.09553	6325.6875
228.37195	7089.4875
232.64527	7938.1875
236.91549	8816.6875
241.18261	9710.8875
245.44663	10551.3875
249.70755	11263.9875
253.96539	11873.2875
258.22014	12389.4875
262.4718	12806.6875
266.72039	13105.5875
270.96589	13280.4875
275.20832	13252.2875
279.44768	13173.8875
283.68397	13079.2875
287.91719	12936.0875
292.14735	12888.4875
296.37445	12893.8875
300.59849	12940.8875
304.81948	12997.1875
309.03742	12983.1875
313.25231	12799.2875
317.46415	12490.9875
321.67296	12079.2875
325.87872	11759.8875
330.08145	11571.5875
334.28114	11539.5875
338.47781	11637.8875
342.67145	11755.1875
346.86207	11966.7875
351.04966	12204.8875
355.23424	12447.1875
359.4158	12642.9875
363.59435	12826.0875
367.76989	12942.4875
371.94243	12994.1875
376.11196	13045.9875
380.27849	13128.8875
384.44203	13205.6875
388.60257	13312.1875
392.76012	13434.4875
396.91468	13558.2875
401.06626	13801.1875
405.21485	13922.5875
409.36047	13836.4875
413.50311	13621.8875
417.64277	13383.0875
421.77947	13268.6875
425.9132	13254.3875
430.04396	13285.7875
434.17176	13355.8875
438.2966	13462.2875
442.41849	13662.4875
446.53742	13975.3875
450.6534	14367.7875
454.76644	14653.1875
458.87653	14774.7875
462.98368	14749.1875
467.08789	14637.9875
471.18916	14513.0875
475.2875	14411.0875
479.38291	14432.6875
483.4754	14374.9875
487.56496	14205.4875
491.6516	13977.6875
495.73531	13753.3875
499.81612	13638.1875
503.89401	13676.0875
507.96899	13683.2875
512.04106	13630.9875
516.11023	13554.9875
520.1765	13418.0875
524.23987	13367.2875
528.30034	13295.0875
532.35792	13228.4875
536.41261	13174.3875
540.46441	13017.8875
544.51333	12974.9875
548.55936	13065.8875
552.60252	13271.4875
556.64279	13547.5875
560.6802	13736.7875
564.71473	13830.9875
568.7464	14015.8875
572.7752	14329.6875
576.80114	14514.8875
580.82422	14668.0875
584.84444	14799.0875
588.86181	14961.9875
592.87633	15094.6875
596.888	15156.8875
600.89682	15148.5875
604.9028	15528.1875
608.90594	16884.7875
612.90624	18421.6875
616.90371	17489.7875
620.89834	14602.7875
624.89015	13167.9875
628.87913	13009.2875
632.86528	13166.8875
636.84862	13282.8875
640.82913	13179.1875
644.80683	12858.8875
648.78172	12524.3875
652.75379	12425.0875
656.72306	12510.8875
660.68952	12727.0875
664.65319	12747.1875
668.61405	12579.2875
672.57211	12606.9875
676.52738	12720.9875
680.47986	12782.1875
684.42955	12681.0875
688.37646	12581.2875
692.32058	12461.4875
696.26192	12491.1875
700.20048	12568.6875
704.13626	12619.1875
708.06928	12631.9875
711.99952	12547.7875
715.927	12475.3875
719.85171	12449.3875
723.77365	12437.8875
727.69284	12389.3875
731.60928	12337.7875
735.52295	12285.9875
739.43388	12303.2875
743.34206	12310.1875
747.24749	12360.6875
751.15017	12379.3875
755.05012	12499.2875
758.94733	12804.0875
762.8418	13464.5875
766.73354	14552.7875
770.62254	15729.2875
774.50882	16193.0875
778.39237	15561.9875
782.27321	14342.7875
786.15132	13241.4875
790.02671	12540.9875
793.89938	12179.4875
797.76935	12018.6875
801.6366	11986.4875
805.50115	11946.6875
809.36299	11889.7875
813.22213	11765.3875
817.07857	11741.5875
820.93231	11663.7875
824.78336	11634.6875
828.63172	11560.8875
832.47738	11541.4875
836.32036	11512.9875
840.16066	11519.3875
843.99827	11507.8875
847.8332	11462.4875
851.66546	11428.3875
855.49504	11424.9875
859.32195	11434.9875
863.1462	11451.3875
866.96777	11453.6875
870.78668	11427.7875
874.60293	11433.7875
878.41652	11438.0875
882.22745	11440.6875
886.03573	11457.7875
889.84136	11495.1875
893.64433	11449.8875
897.44466	11381.2875
901.24235	11291.6875
905.0374	11172.4875
908.8298	11146.2875
912.61957	11134.1875
916.40671	11183.6875
920.19121	11341.5875
923.97308	11411.9875
927.75233	11440.2875
931.52895	11382.9875
935.30295	11254.2875
939.07433	11042.0875
942.84309	10879.2875
946.60924	10810.5875
950.37278	10748.7875
954.13371	10733.3875
957.89203	10701.8875
961.64774	10658.7875
965.40086	10615.1875
969.15137	10564.4875
972.89929	10502.1875
976.64461	10454.5875
980.38733	10411.9875
984.12747	10427.7875
987.86502	10507.0875
991.59999	10568.8875
995.33237	10691.5875
999.06217	10880.1875
1002.78939	11103.2875
1006.51404	11280.2875
1010.23611	11437.6875
1013.95561	11573.3875
1017.67255	11610.6875
1021.38692	11492.7875
1025.09872	11323.3875
1028.80796	11194.1875
1032.51465	11253.7875
1036.21877	11386.1875
1039.92035	11452.0875
1043.61937	11443.5875
1047.31584	11393.5875
1051.00976	11329.2875
1054.70114	11326.0875
1058.38998	11348.3875
1062.07627	11405.0875
1065.76003	11485.9875
1069.44126	11587.0875
1073.11995	11710.3875
1076.79611	11810.5875
1080.46974	11874.9875
1084.14085	11929.0875
1087.80943	12054.2875
1091.47549	12140.6875
1095.13903	12190.7875
1098.80005	12058.6875
1102.45857	11851.9875
1106.11456	11624.1875
1109.76805	11531.3875
1113.41903	11562.7875
1117.06751	11655.1875
1120.71348	11811.2875
1124.35696	11985.7875
1127.99793	12216.0875
1131.63641	12381.7875
1135.2724	12325.0875
1138.90589	12208.0875
1142.5369	12093.3875
1146.16542	12045.6875
1149.79145	12030.9875
1153.415	12078.1875
1157.03607	12250.3875
1160.65467	12502.7875
1164.27079	12940.1875
1167.88443	13567.8875
1171.49561	14411.8875
1175.10432	15471.7875
1178.71056	16823.9875
1182.31434	18056.3875
1185.91565	18666.1875
1189.51451	18599.2875
1193.11091	18113.2875
1196.70485	17391.0875
1200.29634	16589.0875
1203.88538	15940.3875
1207.47197	15386.4875
1211.05612	14987.1875
1214.63782	14606.3875
1218.21708	14334.6875
1221.79391	14109.9875
1225.36829	14063.6875
1228.94024	13884.6875
1232.50976	13701.3875
1236.07685	13488.5875
1239.6415	13366.9875
1243.20374	13356.9875
1246.76355	13420.3875
1250.32093	13584.0875
1253.8759	13831.5875
1257.42845	14186.8875
1260.97859	14586.3875
1264.52631	14944.0875
1268.07163	15318.3875
1271.61453	15746.4875
1275.15503	16143.2875
1278.69312	16586.5875
1282.22882	16991.8875
1285.76211	17475.5875
1289.29301	18014.2875
1292.82151	18733.2875
1296.34761	19603.5875
1299.87133	20629.8875
1303.39266	21704.9875
1306.9116	22886.4875
1310.42815	24027.4875
1313.94233	24795.5875
1317.45412	24917.6875
1320.96354	24596.1875
1324.47058	24125.9875
1327.97525	23670.2875
1331.47754	23260.6875
1334.97747	23010.9875
1338.47502	22876.6875
1341.97022	22766.7875
1345.46305	22640.1875
1348.95352	22536.5875
1352.44163	22623.5875
1355.92738	23099.8875
1359.41078	23940.3875
1362.89183	24817.7875
1366.37053	24523.6875
1369.84688	22618.5875
1373.32088	20166.8875
1376.79254	18451.5875
1380.26186	17642.3875
1383.72883	17451.4875
1387.19347	17372.0875
1390.65578	17205.1875
1394.11575	17123.5875
1397.57339	17307.2875
1401.0287	17570.8875
1404.48168	17804.2875
1407.93234	17835.4875
1411.38068	17541.2875
1414.82669	17004.4875
1418.27039	16307.9875
1421.71177	15601.4875
1425.15083	15012.5875
1428.58758	14642.5875
1432.02203	14613.3875
1435.45416	14826.8875
1438.88399	15200.5875
1442.31151	15517.9875
1445.73673	15848.6875
1449.15965	16205.1875
1452.58027	16451.8875
1455.9986	16588.3875
1459.41463	16745.1875
1462.82837	16966.9875
1466.23982	17281.8875
1469.64898	17543.3875
1473.05586	17661.4875
1476.46045	17608.4875
1479.86276	17548.7875
1483.26279	17363.7875
1486.66054	17259.2875
1490.05602	17291.0875
1493.44922	17454.4875
1496.84016	17733.3875
1500.22882	18220.7875
1503.61521	18952.3875
1506.99934	19830.9875
1510.38121	20670.6875
1513.76081	20909.0875
1517.13816	20420.8875
1520.51324	19389.3875
1523.88607	18394.4875
1527.25665	17779.7875
1530.62498	17452.2875
1533.99105	17301.3875
1537.35488	17101.7875
1540.71647	16828.5875
1544.07581	16507.1875
1547.4329	16128.8875
1550.78776	15818.8875
1554.14038	15648.4875
1557.49077	15600.3875
1560.83892	15618.3875
1564.18484	15765.2875
1567.52853	15896.0875
1570.86999	16030.8875
1574.20922	16276.2875
1577.54624	16419.7875
1580.88103	16395.6875
1584.2136	16254.0875
1587.54395	16341.8875
1590.87208	16781.6875
1594.19801	17579.4875
1597.52172	18501.3875
1600.84321	18914.7875
1604.16251	18342.6875
1607.47959	17182.2875
1610.79447	15822.9875
1614.10715	14579.4875
1617.41763	13449.4875
1620.7259	12703.2875
1624.03199	12252.6875
1627.33587	12167.5875
1630.63757	12381.5875
1633.93707	13013.9875
1637.23439	14070.4875
1640.52951	15723.2875
1643.82246	17720.9875
1647.11321	19565.7875
1650.40179	20308.1875
1653.68819	19448.0875
1656.97241	17310.4875
1660.25446	14884.1875
1663.53433	12992.6875
1666.81203	11696.7875
1670.08756	10898.0875
1673.36092	10411.8875
1676.63211	10039.2875
1679.90115	9808.1875
1683.16801	9613.0875
1686.43272	9472.6875
1689.69527	9366.5875
1692.95567	9291.4875
1696.2139	9245.0875
1699.46999	9204.6875
1702.72392	9144.4875
1705.97571	9088.3875
1709.22535	9047.1875
1712.47284	9026.7875
1715.71819	8986.6875
1718.96139	8954.0875
1722.20246	8908.9875
1725.44139	8860.0875
1728.67818	8802.1875
1731.91284	8765.3875
1735.14537	8712.9875
1738.37576	8681.5875
1741.60403	8670.0875
1744.83017	8636.0875
1748.05418	8619.2875
1751.27607	8629.6875
1754.49584	8631.5875
1757.71349	8660.8875
1760.92903	8600.0875
1764.14244	8587.2875
1767.35375	8554.6875
1770.56294	8507.7875
1773.77002	8445.0875
1776.97499	8403.5875
1780.17785	8377.9875
1783.37861	8351.8875
1786.57727	8313.7875
1789.77382	8298.5875
1792.96828	8261.1875
1796.16064	8229.9875
1799.3509	8213.1875
1802.53907	8166.9875
1805.72514	8163.4875
1808.90913	8133.1875
1812.09102	8097.5875
1815.27083	8074.6875
1818.44856	8066.9875
1821.6242	8048.0875
1824.79776	8027.3875
1827.96924	8011.0875
1831.13864	8014.5875
1834.30597	7997.2875
1837.47122	7996.0875
1840.6344	7987.0875
1843.7955	7955.9875
1846.95454	7975.6875
1850.11151	7937.1875
1853.26642	7955.2875
1856.41926	7937.9875
1859.57004	7945.9875
1862.71876	7927.0875
1865.86542	7930.9875
1869.01003	7912.2875
1872.15258	7890.4875
1875.29308	7875.9875
1878.43152	7869.9875
1881.56792	7870.7875
1884.70227	7862.1875
1887.83457	7845.8875
1890.96482	7847.6875
1894.09304	7793.4875
1897.21921	7817.0875
1900.34335	7799.0875
1903.46544	7800.5875
1906.58551	7786.0875
1909.70353	7760.1875
1912.81953	7744.2875
1915.93349	7728.1875
1919.04543	7701.1875
1922.15534	7694.9875
1925.26322	7675.7875
1928.36908	7635.4875
1931.47292	7630.4875
1934.57473	7596.7875
1937.67453	7577.1875
1940.77232	7539.8875
1943.86808	7532.3875
1946.96184	7511.1875
1950.05358	7492.8875
1953.14331	7465.6875
1956.23103	7450.1875
1959.31675	7425.6875
1962.40046	7397.5875
1965.48217	7381.5875
1968.56188	7351.4875
1971.63959	7332.7875
1974.7153	7293.0875
1977.78901	7290.4875
1980.86073	7255.4875
1983.93046	7239.9875
1986.99819	7219.2875
1990.06394	7181.6875
1993.1277	7164.3875
1996.18947	7139.4875
1999.24925	7108.5875
2002.30706	7074.8875
2005.36288	7039.8875
2008.41672	7046.5875
2011.46859	7015.4875
2014.51848	6991.9875
2017.56639	6983.3875
2020.61233	6948.8875
2023.6563	6941.9875
2026.6983	6916.3875
2029.73833	6918.1875
2032.7764	6892.1875
2035.8125	6878.4875
2038.84664	6867.3875
2041.87881	6851.7875
2044.90903	6819.8875
2047.93729	6833.9875
2050.96359	6809.5875
2053.98794	6799.0875
2057.01034	6787.2875
2060.03078	6795.4875
2063.04927	6768.0875
2066.06582	6763.8875
2069.08042	6747.2875
2072.09307	6747.4875
2075.10378	6744.2875
2078.11255	6734.9875
2081.11938	6736.8875
2084.12426	6722.4875
2087.12722	6716.3875
2090.12824	6697.8875
2093.12732	6711.2875
2096.12447	6702.4875
2099.11969	6702.1875
2102.11299	6695.1875
2105.10435	6708.0875
2108.09379	6720.6875
2111.08131	6703.6875
2114.0669	6703.7875
2117.05057	6712.9875
2120.03233	6722.8875
2123.01216	6699.7875
2125.99008	6723.3875
2128.96609	6710.2875
2131.94018	6705.6875
2134.91236	6720.3875
2137.88263	6717.4875
2140.851	6721.9875
2143.81746	6721.1875
2146.78201	6724.1875
2149.74466	6698.1875
2152.7054	6711.8875
2155.66425	6690.8875
2158.6212	6696.6875
2161.57625	6681.8875
2164.52941	6694.6875
2167.48067	6672.6875
2170.43004	6664.2875
2173.37752	6681.7875
2176.32311	6670.2875
2179.26681	6669.9875
2182.20863	6666.5875
2185.14856	6695.1875
2188.08661	6662.1875
2191.02278	6663.6875
2193.95707	6645.8875
2196.88948	6646.8875
2199.82001	6629.1875
2202.74867	6624.4875
2205.67545	6613.3875
2208.60037	6601.1875
2211.52341	6611.9875
2214.44458	6591.3875
2217.36388	6571.7875
2220.28132	6554.6875
2223.1969	6538.8875
2226.11061	6546.7875
2229.02246	6514.9875
2231.93245	6513.1875
2234.84058	6475.6875
2237.74686	6483.7875
2240.65128	6449.9875
2243.55385	6460.8875
2246.45456	6440.2875
2249.35343	6408.3875
2252.25044	6415.9875
2255.14561	6403.7875
2258.03893	6398.3875
2260.93041	6384.1875
2263.82004	6376.3875
2266.70783	6354.3875
2269.59378	6324.2875
2272.4779	6327.7875
2275.36017	6312.7875
2278.24061	6288.5875
2281.11922	6269.6875
2283.996	6250.7875
2286.87094	6259.6875
2289.74405	6243.0875
2292.61534	6236.2875
2295.4848	6220.0875
2298.35243	6226.0875
2301.21824	6202.3875
2304.08223	6219.6875
2306.94439	6196.5875
2309.80474	6201.9875
2312.66327	6187.8875
2315.51999	6189.1875
2318.37489	6178.1875
2321.22797	6160.5875
2324.07925	6155.5875
2326.92871	6149.4875
2329.77637	6141.8875
2332.62222	6136.2875
2335.46626	6129.1875
2338.3085	6116.4875
2341.14893	6106.7875
2343.98756	6133.3875
2346.8244	6137.8875
2349.65943	6104.6875
2352.49267	6114.0875
2355.32411	6100.7875
2358.15376	6118.4875
2360.98161	6099.8875
2363.80768	6108.6875
2366.63195	6085.4875
2369.45444	6087.9875
2372.27514	6067.1875
2375.09405	6050.3875
2377.91118	6056.6875
2380.72652	6027.9875
2383.54009	6002.7875
2386.35187	5989.9875
2389.16188	5981.9875
2391.97011	5966.9875
2394.77657	5950.8875
2397.58125	5951.8875
2400.38416	5930.4875
2403.18529	5925.1875
2405.98466	5912.4875
2408.78226	5899.0875
2411.57809	5863.9875
2414.37216	5876.0875
2417.16446	5875.2875
2419.955	5869.4875
2422.74378	5873.5875
2425.5308	5850.9875
2428.31606	5857.2875
2431.09956	5838.4875
2433.88131	5847.5875
2436.6613	5838.2875
2439.43954	5820.9875
2442.21603	5817.0875
2444.99077	5816.3875
2447.76377	5812.2875
2450.53501	5813.7875
2453.30451	5826.4875
2456.07226	5810.7875
2458.83827	5811.1875
2461.60254	5794.8875
2464.36507	5804.8875
2467.12586	5784.9875
2469.88492	5779.5875
2472.64224	5783.7875
2475.39782	5800.3875
2478.15167	5804.1875
2480.90379	5801.5875
2483.65417	5788.2875
2486.40283	5785.7875
2489.14976	5780.4875
2491.89497	5766.6875
2494.63845	5793.0875
2497.3802	5765.5875
2500.12024	5771.8875
2502.85855	5767.6875
2505.59514	5771.4875
2508.33002	5765.6875
2511.06318	5751.3875
2513.79462	5734.9875
2516.52435	5733.3875
2519.25237	5726.3875
2521.97867	5711.5875
2524.70327	5720.6875
2527.42616	5675.7875
2530.14734	5683.3875
2532.86681	5692.2875
2535.58458	5667.7875
2538.30065	5657.5875
2541.01501	5656.9875
2543.72768	5639.9875
2546.43864	5646.9875
2549.14791	5623.3875
2551.85548	5633.4875
2554.56136	5622.2875
2557.26554	5607.5875
2559.96803	5604.5875
2562.66883	5598.8875
2565.36794	5591.9875
2568.06536	5603.5875
2570.7611	5567.0875
2573.45514	5589.2875
2576.14751	5549.1875
2578.83819	5565.1875
2581.52719	5541.8875
2584.21451	5537.9875
2586.90015	5550.8875
2589.58411	5529.0875
2592.2664	5528.7875
2594.94701	5507.1875
2597.62594	5508.3875
2600.30321	5506.0875
2602.9788	5484.8875
2605.65273	5485.9875
2608.32498	5489.4875
2610.99557	5482.7875
2613.66449	5483.1875
2616.33175	5473.5875
2618.99734	5491.4875
2621.66128	5463.3875
2624.32355	5468.7875
2626.98416	5481.8875
2629.64311	5451.5875
2632.30041	5454.0875
2634.95605	5438.0875
2637.61004	5453.8875
2640.26238	5442.6875
2642.91306	5422.6875
2645.56209	5432.2875
2648.20948	5430.7875
2650.85521	5433.1875
2653.4993	5416.4875
2656.14175	5416.6875
2658.78255	5419.4875
2661.42171	5420.8875
2664.05923	5430.0875
2666.6951	5426.4875
2669.32934	5437.3875
2671.96194	5444.9875
2674.59291	5436.5875
2677.22224	5412.1875
2679.84993	5425.0875
2682.476	5420.5875
2685.10043	5411.7875
2687.72324	5418.1875
2690.34441	5410.5875
2692.96396	5407.3875
2695.58188	5429.0875
2698.19818	5413.4875
2700.81285	5422.9875
2703.4259	5429.5875
2706.03733	5445.9875
2708.64714	5419.5875
2711.25533	5423.5875
2713.86191	5410.3875
2716.46687	5411.8875
2719.07021	5420.5875
2721.67194	5419.4875
2724.27206	5392.7875
2726.87057	5425.7875
2729.46747	5410.7875
2732.06276	5407.6875
2734.65644	5408.9875
2737.24852	5421.6875
2739.83899	5380.7875
2742.42786	5402.4875
2745.01513	5385.2875
2747.60079	5386.7875
2750.18486	5379.0875
2752.76733	5381.7875
2755.3482	5369.7875
2757.92747	5370.6875
2760.50515	5362.2875
2763.08123	5365.0875
2765.65573	5360.2875
2768.22863	5358.0875
2770.79994	5345.1875
2773.36967	5346.5875
2775.9378	5342.6875
2778.50435	5338.7875
2781.06932	5342.0875
2783.6327	5333.7875
2786.1945	5330.8875
2788.75471	5322.2875
2791.31335	5304.4875
2793.87041	5320.4875
2796.42589	5294.2875
2798.97979	5274.9875
2801.53212	5285.5875
2804.08288	5275.5875
2806.63206	5260.9875
2809.17967	5264.8875
2811.72571	5234.1875
2814.27018	5243.1875
2816.81308	5242.4875
2819.35442	5214.7875
2821.89419	5219.0875
2824.43239	5213.3875
2826.96904	5210.1875
2829.50412	5217.7875
2832.03763	5201.9875
2834.56959	5212.6875
2837.1	5196.6875
2839.62884	5185.2875
2842.15613	5193.1875
2844.68186	5207.8875
2847.20604	5201.4875
2849.72867	5205.5875
2852.24974	5214.8875
2854.76927	5219.0875
2857.28724	5202.7875
2859.80367	5209.4875
2862.31855	5176.9875
2864.83189	5168.9875
2867.34368	5166.3875
2869.85393	5183.6875
2872.36264	5169.1875
2874.8698	5140.5875
2877.37543	5158.5875
2879.87952	5162.0875
2882.38207	5165.1875
2884.88308	5163.5875
2887.38256	5160.3875
2889.88051	5174.3875
2892.37692	5161.1875
2894.8718	5163.6875
2897.36515	5163.9875
2899.85698	5179.8875
2902.34727	5186.0875
2904.83604	5196.5875
2907.32328	5209.5875
2909.809	5206.0875
2912.29319	5208.9875
2914.77587	5216.8875
2917.25702	5202.1875
2919.73665	5210.7875
2922.21476	5222.1875
2924.69136	5210.2875
2927.16644	5207.7875
2929.64	5209.7875
2932.11205	5201.9875
2934.58258	5170.5875
2937.05161	5197.5875
2939.51912	5210.7875
2941.98513	5203.5875
2944.44962	5182.4875
2946.91261	5167.8875
2949.37409	5169.8875
2951.83407	5152.0875
2954.29254	5151.1875
2956.74951	5135.4875
2959.20498	5136.5875
2961.65895	5124.9875
2964.11142	5105.7875
2966.56239	5077.5875
2969.01186	5083.2875
2971.45984	5055.9875
2973.90632	5043.3875
2976.35131	5026.6875
2978.7948	5028.9875
2981.23681	5009.3875
2983.67732	4995.0875
2986.11635	4998.2875
2988.55388	4971.3875
2990.98993	4956.0875
2993.4245	4947.4875
2995.85758	4928.5875
2998.28917	4906.7875
3000.71928	4912.6875
3003.14791	4906.4875
3005.57506	4896.2875
3008.00073	4871.7875
3010.42493	4885.0875
3012.84764	4872.3875
3015.26888	4864.6875
3017.68865	4856.1875
3020.10694	4846.3875
3022.52376	4828.5875
3024.9391	4818.2875
3027.35298	4822.9875
3029.76539	4820.3875
3032.17632	4799.8875
3034.5858	4791.1875
3036.9938	4791.1875
3039.40034	4793.1875
3041.80542	4773.7875
3044.20903	4769.5875
3046.61118	4759.2875
3049.01187	4742.4875
3051.4111	4743.8875
3053.80888	4733.7875
3056.20519	4739.9875
3058.60005	4714.7875
3060.99345	4722.4875
3063.3854	4712.3875
3065.7759	4704.8875
3068.16494	4664.0875
3070.55254	4659.8875
3072.93868	4657.8875
3075.32338	4648.0875
3077.70662	4642.4875
3080.08842	4631.3875
