Data from AgNPs_FTO_APTES_UA_50um_CRN_0.1mM_R6G_10uM_NaF_0.1M_Addition_RamanShift__18__15-23-59-246.txt Node

Date: Tue Dec 21 15:23:59 GMT 2021
User: TCL
Spectrometer: QEP01345
Trigger mode: 4
Integration Time (sec): 7.000000E0
Scans to average: 10
Electric dark correction enabled: true
Nonlinearity correction enabled: false
Boxcar width: 0
XAxis mode: Raman Shifts
Number of Pixels in Spectrum: 1044
>>>>>Begin Spectral Data<<<<<
46.04893	0.9625
50.45542	-1.3375
54.85868	-0.3375
59.25871	0.6625
63.6555	38.9625
68.04907	43.1625
72.43941	47.8625
76.82654	49.6625
81.21044	49.4625
85.59113	54.9625
89.96862	59.2625
94.34289	55.9625
98.71396	57.0625
103.08183	64.9625
107.4465	64.0625
111.80798	67.8625
116.16626	65.4625
120.52136	66.0625
124.87327	66.5625
129.222	70.8625
133.56755	75.9625
137.90993	80.6625
142.24913	85.5625
146.58517	93.9625
150.91804	106.6625
155.24774	123.5625
159.57429	148.4625
163.89768	187.0625
168.21792	243.9625
172.53501	328.2625
176.84895	451.7625
181.15975	632.8625
185.46741	884.2625
189.77193	1215.3625
194.07331	1630.4625
198.37157	2105.7625
202.6667	2621.3625
206.9587	3117.9625
211.24758	3628.1625
215.53334	4135.9625
219.81599	4666.8625
224.09553	5247.6625
228.37195	5890.3625
232.64527	6593.5625
236.91549	7325.6625
241.18261	8071.1625
245.44663	8765.7625
249.70755	9352.7625
253.96539	9876.3625
258.22014	10303.5625
262.4718	10638.0625
266.72039	10904.3625
270.96589	11014.7625
275.20832	11002.1625
279.44768	10918.9625
283.68397	10800.5625
287.91719	10694.7625
292.14735	10654.2625
296.37445	10642.8625
300.59849	10688.8625
304.81948	10787.1625
309.03742	10795.0625
313.25231	10632.3625
317.46415	10395.4625
321.67296	10058.5625
325.87872	9741.5625
330.08145	9603.9625
334.28114	9599.2625
338.47781	9661.2625
342.67145	9788.7625
346.86207	9965.7625
351.04966	10158.6625
355.23424	10417.3625
359.4158	10608.3625
363.59435	10758.9625
367.76989	10841.2625
371.94243	10911.9625
376.11196	10984.2625
380.27849	11024.1625
384.44203	11072.8625
388.60257	11155.6625
392.76012	11183.8625
396.91468	11312.9625
401.06626	11452.5625
405.21485	11559.0625
409.36047	11503.2625
413.50311	11265.3625
417.64277	11063.7625
421.77947	10932.9625
425.9132	10917.4625
430.04396	10958.1625
434.17176	11017.2625
438.2966	11109.4625
442.41849	11278.5625
446.53742	11505.1625
450.6534	11771.2625
454.76644	12008.9625
458.87653	12113.9625
462.98368	12073.9625
467.08789	12001.1625
471.18916	11868.8625
475.2875	11777.6625
479.38291	11760.5625
483.4754	11723.4625
487.56496	11587.2625
491.6516	11423.9625
495.73531	11279.8625
499.81612	11215.4625
503.89401	11266.6625
507.96899	11298.3625
512.04106	11279.6625
516.11023	11261.7625
520.1765	11203.1625
524.23987	11149.7625
528.30034	11031.8625
532.35792	10998.9625
536.41261	10924.8625
540.46441	10815.8625
544.51333	10798.8625
548.55936	10836.2625
552.60252	11007.0625
556.64279	11187.7625
560.6802	11282.8625
564.71473	11350.4625
568.7464	11506.4625
572.7752	11696.5625
576.80114	11845.0625
580.82422	11880.7625
584.84444	11979.8625
588.86181	12130.6625
592.87633	12256.3625
596.888	12298.5625
600.89682	12310.0625
604.9028	12675.9625
608.90594	13859.6625
612.90624	15244.9625
616.90371	14635.3625
620.89834	12171.9625
624.89015	10975.8625
628.87913	10811.8625
632.86528	10950.4625
636.84862	11103.8625
640.82913	11030.9625
644.80683	10739.5625
648.78172	10470.4625
652.75379	10335.6625
656.72306	10433.3625
660.68952	10597.6625
664.65319	10621.0625
668.61405	10464.7625
672.57211	10468.8625
676.52738	10539.1625
680.47986	10599.9625
684.42955	10499.7625
688.37646	10394.2625
692.32058	10337.5625
696.26192	10326.5625
700.20048	10355.4625
704.13626	10420.0625
708.06928	10405.3625
711.99952	10360.9625
715.927	10291.1625
719.85171	10290.6625
723.77365	10288.6625
727.69284	10246.8625
731.60928	10193.0625
735.52295	10178.0625
739.43388	10156.5625
743.34206	10158.5625
747.24749	10193.5625
751.15017	10200.9625
755.05012	10280.2625
758.94733	10519.4625
762.8418	11059.9625
766.73354	11950.8625
770.62254	12978.6625
774.50882	13436.1625
778.39237	12965.3625
782.27321	11886.5625
786.15132	10950.8625
790.02671	10351.1625
793.89938	10000.4625
797.76935	9892.4625
801.6366	9843.0625
805.50115	9799.4625
809.36299	9778.2625
813.22213	9692.1625
817.07857	9657.0625
820.93231	9605.2625
824.78336	9558.6625
828.63172	9519.7625
832.47738	9484.2625
836.32036	9471.7625
840.16066	9442.8625
843.99827	9423.9625
847.8332	9404.9625
851.66546	9357.8625
855.49504	9361.7625
859.32195	9370.5625
863.1462	9377.6625
866.96777	9383.1625
870.78668	9391.4625
874.60293	9384.4625
878.41652	9388.6625
882.22745	9393.9625
886.03573	9432.5625
889.84136	9457.0625
893.64433	9406.9625
897.44466	9346.5625
901.24235	9269.3625
905.0374	9189.4625
908.8298	9137.2625
912.61957	9130.2625
916.40671	9154.9625
920.19121	9240.9625
923.97308	9301.6625
927.75233	9299.2625
931.52895	9244.0625
935.30295	9164.1625
939.07433	9018.3625
942.84309	8864.1625
946.60924	8793.3625
950.37278	8763.8625
954.13371	8721.5625
957.89203	8724.0625
961.64774	8678.6625
965.40086	8643.5625
969.15137	8583.1625
972.89929	8544.2625
976.64461	8504.1625
980.38733	8486.8625
984.12747	8478.9625
987.86502	8501.9625
991.59999	8553.8625
995.33237	8617.2625
999.06217	8732.7625
1002.78939	8891.8625
1006.51404	9041.0625
1010.23611	9144.7625
1013.95561	9256.2625
1017.67255	9296.1625
1021.38692	9205.7625
1025.09872	9087.8625
1028.80796	8945.6625
1032.51465	8966.8625
1036.21877	9000.3625
1039.92035	9061.9625
1043.61937	9072.5625
1047.31584	9051.6625
1051.00976	9058.0625
1054.70114	9024.1625
1058.38998	9045.4625
1062.07627	9105.3625
1065.76003	9193.7625
1069.44126	9243.6625
1073.11995	9321.6625
1076.79611	9411.2625
1080.46974	9474.3625
1084.14085	9491.2625
1087.80943	9558.4625
1091.47549	9632.2625
1095.13903	9668.6625
1098.80005	9576.5625
1102.45857	9381.0625
1106.11456	9256.4625
1109.76805	9192.2625
1113.41903	9234.9625
1117.06751	9356.1625
1120.71348	9470.1625
1124.35696	9656.4625
1127.99793	9854.5625
1131.63641	10024.1625
1135.2724	10002.8625
1138.90589	9857.5625
1142.5369	9737.5625
1146.16542	9664.1625
1149.79145	9578.0625
1153.415	9582.9625
1157.03607	9673.8625
1160.65467	9827.0625
1164.27079	10160.4625
1167.88443	10629.1625
1171.49561	11216.0625
1175.10432	12017.1625
1178.71056	13057.0625
1182.31434	14015.9625
1185.91565	14464.0625
1189.51451	14369.9625
1193.11091	13935.7625
1196.70485	13349.3625
1200.29634	12776.9625
1203.88538	12324.1625
1207.47197	11915.8625
1211.05612	11515.9625
1214.63782	11186.1625
1218.21708	11002.7625
1221.79391	10853.7625
1225.36829	10751.9625
1228.94024	10684.5625
1232.50976	10526.8625
1236.07685	10399.0625
1239.6415	10330.8625
1243.20374	10355.5625
1246.76355	10418.7625
1250.32093	10505.0625
1253.8759	10683.7625
1257.42845	10923.1625
1260.97859	11193.0625
1264.52631	11447.8625
1268.07163	11732.9625
1271.61453	12006.8625
1275.15503	12275.1625
1278.69312	12539.6625
1282.22882	12814.6625
1285.76211	13127.5625
1289.29301	13537.6625
1292.82151	14083.9625
1296.34761	14756.0625
1299.87133	15494.5625
1303.39266	16323.5625
1306.9116	17202.1625
1310.42815	18069.2625
1313.94233	18704.8625
1317.45412	18747.5625
1320.96354	18383.1625
1324.47058	17951.0625
1327.97525	17489.5625
1331.47754	17136.3625
1334.97747	16911.7625
1338.47502	16812.5625
1341.97022	16727.7625
1345.46305	16758.0625
1348.95352	16823.7625
1352.44163	17110.8625
1355.92738	17661.7625
1359.41078	18506.7625
1362.89183	19408.3625
1366.37053	19261.4625
1369.84688	17643.8625
1373.32088	15573.4625
1376.79254	14092.3625
1380.26186	13428.8625
1383.72883	13199.5625
1387.19347	13115.4625
1390.65578	12994.2625
1394.11575	12916.1625
1397.57339	12956.0625
1401.0287	13109.5625
1404.48168	13257.7625
1407.93234	13218.9625
1411.38068	13028.7625
1414.82669	12644.4625
1418.27039	12159.7625
1421.71177	11714.0625
1425.15083	11244.1625
1428.58758	10970.3625
1432.02203	10968.4625
1435.45416	11133.3625
1438.88399	11349.5625
1442.31151	11569.0625
1445.73673	11788.8625
1449.15965	12006.2625
1452.58027	12166.0625
1455.9986	12252.5625
1459.41463	12394.3625
1462.82837	12536.7625
1466.23982	12731.6625
1469.64898	12896.1625
1473.05586	13025.8625
1476.46045	13016.6625
1479.86276	12963.6625
1483.26279	12908.0625
1486.66054	12845.3625
1490.05602	12899.8625
1493.44922	13024.2625
1496.84016	13282.0625
1500.22882	13734.4625
1503.61521	14449.3625
1506.99934	15333.1625
1510.38121	16079.5625
1513.76081	16389.5625
1517.13816	15951.7625
1520.51324	14993.6625
1523.88607	14077.7625
1527.25665	13505.0625
1530.62498	13157.1625
1533.99105	13006.6625
1537.35488	12852.7625
1540.71647	12639.3625
1544.07581	12391.1625
1547.4329	12082.6625
1550.78776	11883.8625
1554.14038	11759.9625
1557.49077	11748.2625
1560.83892	11824.4625
1564.18484	11948.3625
1567.52853	12055.6625
1570.86999	12219.1625
1574.20922	12399.1625
1577.54624	12489.6625
1580.88103	12371.3625
1584.2136	12178.7625
1587.54395	12156.2625
1590.87208	12426.3625
1594.19801	12938.6625
1597.52172	13561.9625
1600.84321	13905.7625
1604.16251	13502.8625
1607.47959	12684.5625
1610.79447	11783.4625
1614.10715	10878.1625
1617.41763	10112.6625
1620.7259	9589.2625
1624.03199	9294.1625
1627.33587	9214.6625
1630.63757	9383.0625
1633.93707	9805.2625
1637.23439	10562.2625
1640.52951	11682.8625
1643.82246	13123.1625
1647.11321	14546.8625
1650.40179	15230.8625
1653.68819	14742.8625
1656.97241	13168.8625
1660.25446	11396.2625
1663.53433	9978.0625
1666.81203	9045.2625
1670.08756	8432.5625
1673.36092	8052.4625
1676.63211	7805.3625
1679.90115	7616.1625
1683.16801	7455.2625
1686.43272	7379.5625
1689.69527	7282.1625
1692.95567	7191.2625
1696.2139	7172.1625
1699.46999	7136.2625
1702.72392	7057.1625
1705.97571	7019.7625
1709.22535	6972.1625
1712.47284	6927.6625
1715.71819	6889.1625
1718.96139	6861.5625
1722.20246	6847.6625
1725.44139	6798.3625
1728.67818	6756.9625
1731.91284	6726.6625
1735.14537	6661.8625
1738.37576	6638.8625
1741.60403	6613.4625
1744.83017	6601.0625
1748.05418	6587.5625
1751.27607	6603.3625
1754.49584	6596.3625
1757.71349	6604.5625
1760.92903	6599.4625
1764.14244	6570.7625
1767.35375	6528.9625
1770.56294	6493.1625
1773.77002	6465.4625
1776.97499	6416.1625
1780.17785	6389.6625
1783.37861	6371.6625
1786.57727	6330.3625
1789.77382	6303.4625
1792.96828	6284.2625
1796.16064	6247.5625
1799.3509	6244.0625
1802.53907	6218.5625
1805.72514	6186.2625
1808.90913	6196.7625
1812.09102	6162.3625
1815.27083	6137.8625
1818.44856	6127.9625
1821.6242	6112.7625
1824.79776	6090.6625
1827.96924	6091.0625
1831.13864	6060.6625
1834.30597	6054.3625
1837.47122	6057.4625
1840.6344	6036.5625
1843.7955	6045.8625
1846.95454	6007.6625
1850.11151	6033.9625
1853.26642	6028.4625
1856.41926	6009.4625
1859.57004	5997.1625
1862.71876	5972.3625
1865.86542	5972.0625
1869.01003	5981.4625
1872.15258	5957.3625
1875.29308	5936.2625
1878.43152	5958.9625
1881.56792	5928.3625
1884.70227	5913.2625
1887.83457	5916.1625
1890.96482	5896.8625
1894.09304	5896.2625
1897.21921	5874.6625
1900.34335	5887.5625
1903.46544	5874.1625
1906.58551	5860.6625
1909.70353	5855.8625
1912.81953	5847.5625
1915.93349	5815.1625
1919.04543	5809.4625
1922.15534	5803.4625
1925.26322	5790.3625
1928.36908	5763.1625
1931.47292	5740.7625
1934.57473	5715.6625
1937.67453	5707.3625
1940.77232	5669.7625
1943.86808	5677.4625
1946.96184	5648.1625
1950.05358	5627.8625
1953.14331	5606.7625
1956.23103	5591.8625
1959.31675	5572.4625
1962.40046	5567.2625
1965.48217	5535.1625
1968.56188	5525.8625
1971.63959	5511.2625
1974.7153	5511.0625
1977.78901	5476.7625
1980.86073	5453.6625
1983.93046	5441.2625
1986.99819	5400.3625
1990.06394	5392.2625
1993.1277	5385.6625
1996.18947	5348.9625
1999.24925	5347.8625
2002.30706	5324.2625
2005.36288	5300.7625
2008.41672	5277.9625
2011.46859	5251.7625
2014.51848	5249.7625
2017.56639	5238.4625
2020.61233	5202.4625
2023.6563	5204.6625
2026.6983	5177.1625
2029.73833	5154.2625
2032.7764	5180.1625
2035.8125	5141.9625
2038.84664	5118.3625
2041.87881	5113.9625
2044.90903	5098.3625
2047.93729	5085.2625
2050.96359	5081.0625
2053.98794	5086.7625
2057.01034	5079.8625
2060.03078	5068.6625
2063.04927	5042.8625
2066.06582	5036.3625
2069.08042	5036.6625
2072.09307	5042.8625
2075.10378	5025.1625
2078.11255	5024.3625
2081.11938	5040.0625
2084.12426	5026.6625
2087.12722	5005.2625
2090.12824	5010.9625
2093.12732	5008.9625
2096.12447	5003.8625
2099.11969	5007.4625
2102.11299	4987.4625
2105.10435	4997.9625
2108.09379	5004.9625
2111.08131	5011.3625
2114.0669	4996.9625
2117.05057	5020.7625
2120.03233	5001.8625
2123.01216	5000.8625
2125.99008	4990.1625
2128.96609	5005.6625
2131.94018	5012.5625
2134.91236	4986.4625
2137.88263	4992.7625
2140.851	4994.6625
2143.81746	4994.8625
2146.78201	5001.1625
2149.74466	4989.2625
2152.7054	4993.7625
2155.66425	4983.6625
2158.6212	4966.2625
2161.57625	4967.3625
2164.52941	4980.2625
2167.48067	4973.8625
2170.43004	4968.1625
2173.37752	4935.8625
2176.32311	4937.7625
2179.26681	4941.8625
2182.20863	4950.6625
2185.14856	4931.7625
2188.08661	4922.3625
2191.02278	4927.3625
2193.95707	4909.3625
2196.88948	4910.7625
2199.82001	4917.3625
2202.74867	4910.0625
2205.67545	4906.1625
2208.60037	4883.1625
2211.52341	4883.8625
2214.44458	4862.2625
2217.36388	4849.9625
2220.28132	4835.2625
2223.1969	4832.6625
2226.11061	4827.3625
2229.02246	4804.0625
2231.93245	4802.7625
2234.84058	4796.0625
2237.74686	4780.3625
2240.65128	4775.2625
2243.55385	4783.9625
2246.45456	4761.8625
2249.35343	4758.8625
2252.25044	4743.8625
2255.14561	4719.2625
2258.03893	4721.0625
2260.93041	4719.7625
2263.82004	4695.1625
2266.70783	4687.1625
2269.59378	4662.2625
2272.4779	4661.6625
2275.36017	4640.9625
2278.24061	4630.8625
2281.11922	4636.8625
2283.996	4624.5625
2286.87094	4602.9625
2289.74405	4587.4625
2292.61534	4599.3625
2295.4848	4583.8625
2298.35243	4587.6625
2301.21824	4562.8625
2304.08223	4573.2625
2306.94439	4555.3625
2309.80474	4537.2625
2312.66327	4539.1625
2315.51999	4554.0625
2318.37489	4526.6625
2321.22797	4521.0625
2324.07925	4534.2625
2326.92871	4531.0625
2329.77637	4523.2625
2332.62222	4510.0625
2335.46626	4490.8625
2338.3085	4486.1625
2341.14893	4493.0625
2343.98756	4485.8625
2346.8244	4489.8625
2349.65943	4493.1625
2352.49267	4489.2625
2355.32411	4472.1625
2358.15376	4495.8625
2360.98161	4456.2625
2363.80768	4474.6625
2366.63195	4471.0625
2369.45444	4455.1625
2372.27514	4449.4625
2375.09405	4446.7625
2377.91118	4428.1625
2380.72652	4425.7625
2383.54009	4391.0625
2386.35187	4388.7625
2389.16188	4380.7625
2391.97011	4369.3625
2394.77657	4360.1625
2397.58125	4339.9625
2400.38416	4339.4625
2403.18529	4326.0625
2405.98466	4322.8625
2408.78226	4318.1625
2411.57809	4297.5625
2414.37216	4282.5625
2417.16446	4290.9625
2419.955	4289.7625
2422.74378	4286.4625
2425.5308	4276.4625
2428.31606	4268.5625
2431.09956	4260.9625
2433.88131	4246.6625
2436.6613	4266.4625
2439.43954	4252.1625
2442.21603	4266.2625
2444.99077	4234.9625
2447.76377	4252.9625
2450.53501	4237.4625
2453.30451	4232.1625
2456.07226	4230.7625
2458.83827	4233.8625
2461.60254	4248.6625
2464.36507	4211.4625
2467.12586	4219.8625
2469.88492	4215.4625
2472.64224	4221.8625
2475.39782	4236.2625
2478.15167	4226.3625
2480.90379	4208.4625
2483.65417	4222.5625
2486.40283	4206.9625
2489.14976	4203.2625
2491.89497	4201.9625
2494.63845	4222.2625
2497.3802	4211.3625
2500.12024	4201.3625
2502.85855	4195.9625
2505.59514	4197.7625
2508.33002	4177.7625
2511.06318	4170.1625
2513.79462	4163.7625
2516.52435	4163.2625
2519.25237	4148.4625
2521.97867	4147.9625
2524.70327	4143.4625
2527.42616	4127.5625
2530.14734	4121.0625
2532.86681	4125.7625
2535.58458	4102.9625
2538.30065	4096.1625
2541.01501	4097.9625
2543.72768	4098.7625
2546.43864	4105.7625
2549.14791	4075.5625
2551.85548	4079.4625
2554.56136	4063.2625
2557.26554	4055.4625
2559.96803	4053.9625
2562.66883	4050.7625
2565.36794	4048.1625
2568.06536	4045.7625
2570.7611	4033.9625
2573.45514	4033.6625
2576.14751	4038.5625
2578.83819	4017.6625
2581.52719	4014.9625
2584.21451	3999.9625
2586.90015	4007.5625
2589.58411	3988.8625
2592.2664	3990.2625
2594.94701	3999.5625
2597.62594	3983.0625
2600.30321	3975.0625
2602.9788	3962.4625
2605.65273	3967.2625
2608.32498	3953.5625
2610.99557	3934.9625
2613.66449	3961.2625
2616.33175	3934.8625
2618.99734	3950.3625
2621.66128	3943.1625
2624.32355	3939.5625
2626.98416	3933.6625
2629.64311	3933.1625
2632.30041	3928.0625
2634.95605	3921.7625
2637.61004	3918.3625
2640.26238	3925.9625
2642.91306	3924.3625
2645.56209	3911.4625
2648.20948	3906.5625
2650.85521	3900.9625
2653.4993	3900.4625
2656.14175	3902.1625
2658.78255	3910.2625
2661.42171	3906.7625
2664.05923	3889.6625
2666.6951	3904.4625
2669.32934	3897.4625
2671.96194	3899.5625
2674.59291	3901.3625
2677.22224	3905.9625
2679.84993	3892.6625
2682.476	3879.3625
2685.10043	3886.4625
2687.72324	3886.2625
2690.34441	3884.0625
2692.96396	3878.7625
2695.58188	3892.6625
2698.19818	3880.4625
2700.81285	3888.6625
2703.4259	3903.2625
2706.03733	3943.3625
2708.64714	3905.7625
2711.25533	3890.6625
2713.86191	3895.0625
2716.46687	3896.6625
2719.07021	3898.9625
2721.67194	3879.2625
2724.27206	3872.9625
2726.87057	3877.9625
2729.46747	3870.4625
2732.06276	3875.3625
2734.65644	3884.2625
2737.24852	3880.1625
2739.83899	3862.1625
2742.42786	3868.2625
2745.01513	3852.0625
2747.60079	3844.5625
2750.18486	3855.3625
2752.76733	3852.0625
2755.3482	3835.2625
2757.92747	3837.5625
2760.50515	3845.0625
2763.08123	3834.3625
2765.65573	3834.4625
2768.22863	3839.2625
2770.79994	3825.6625
2773.36967	3815.3625
2775.9378	3825.5625
2778.50435	3825.3625
2781.06932	3814.3625
2783.6327	3813.9625
2786.1945	3823.8625
2788.75471	3804.3625
2791.31335	3803.0625
2793.87041	3785.9625
2796.42589	3782.0625
2798.97979	3776.0625
2801.53212	3774.4625
2804.08288	3774.7625
2806.63206	3761.9625
2809.17967	3764.9625
2811.72571	3748.8625
2814.27018	3753.2625
2816.81308	3746.2625
2819.35442	3726.2625
2821.89419	3732.0625
2824.43239	3721.2625
2826.96904	3738.7625
2829.50412	3724.2625
2832.03763	3700.6625
2834.56959	3710.4625
2837.1	3696.1625
2839.62884	3710.7625
2842.15613	3710.9625
2844.68186	3721.4625
2847.20604	3719.1625
2849.72867	3728.7625
2852.24974	3725.3625
2854.76927	3733.9625
2857.28724	3741.8625
2859.80367	3711.1625
2862.31855	3712.6625
2864.83189	3701.8625
2867.34368	3685.0625
2869.85393	3699.7625
2872.36264	3686.6625
2874.8698	3690.4625
2877.37543	3681.0625
2879.87952	3703.0625
2882.38207	3669.7625
2884.88308	3694.9625
2887.38256	3695.2625
2889.88051	3696.0625
2892.37692	3692.9625
2894.8718	3691.4625
2897.36515	3698.0625
2899.85698	3695.4625
2902.34727	3700.4625
2904.83604	3720.4625
2907.32328	3709.5625
2909.809	3701.1625
2912.29319	3707.9625
2914.77587	3715.6625
2917.25702	3724.7625
2919.73665	3711.3625
2922.21476	3720.0625
2924.69136	3719.3625
2927.16644	3718.8625
2929.64	3709.9625
2932.11205	3713.0625
2934.58258	3698.0625
2937.05161	3713.7625
2939.51912	3720.3625
2941.98513	3696.2625
2944.44962	3683.5625
2946.91261	3698.3625
2949.37409	3674.9625
2951.83407	3680.8625
2954.29254	3675.4625
2956.74951	3665.3625
2959.20498	3659.9625
2961.65895	3651.9625
2964.11142	3636.5625
2966.56239	3623.9625
2969.01186	3622.6625
2971.45984	3606.8625
2973.90632	3600.7625
2976.35131	3587.0625
2978.7948	3575.5625
2981.23681	3566.7625
2983.67732	3558.6625
2986.11635	3554.7625
2988.55388	3543.3625
2990.98993	3521.0625
2993.4245	3519.3625
2995.85758	3518.9625
2998.28917	3507.6625
3000.71928	3512.8625
3003.14791	3506.9625
3005.57506	3501.5625
3008.00073	3492.6625
3010.42493	3478.2625
3012.84764	3474.4625
3015.26888	3475.2625
3017.68865	3473.9625
3020.10694	3464.0625
3022.52376	3458.1625
3024.9391	3444.3625
3027.35298	3458.9625
3029.76539	3435.1625
3032.17632	3417.9625
3034.5858	3431.2625
3036.9938	3425.2625
3039.40034	3424.4625
3041.80542	3424.0625
3044.20903	3411.1625
3046.61118	3409.8625
3049.01187	3393.8625
3051.4111	3402.0625
3053.80888	3385.5625
3056.20519	3375.5625
3058.60005	3381.5625
3060.99345	3374.3625
3063.3854	3361.9625
3065.7759	3362.5625
3068.16494	3350.2625
3070.55254	3358.1625
3072.93868	3346.1625
3075.32338	3343.6625
3077.70662	3331.5625
3080.08842	3312.3625
3082.46878	3323.9625
3084.84769	3328.7625
3087.22515	3315.4625
3089.60118	3319.4625
3091.97576	3323.3625
3094.3489	3315.9625
