Data from AgNPs_FTO_APTES_UA_10um_CRN_0.1mM_R6G_10uM_NaF_0.1M_Addition_RamanShift__1__13-36-39-123.txt Node

Date: Tue Dec 21 13:36:39 GMT 2021
User: TCL
Spectrometer: QEP01345
Trigger mode: 4
Integration Time (sec): 7.000000E0
Scans to average: 10
Electric dark correction enabled: true
Nonlinearity correction enabled: false
Boxcar width: 0
XAxis mode: Raman Shifts
Number of Pixels in Spectrum: 1044
>>>>>Begin Spectral Data<<<<<
46.04893	-0.425
50.45542	-0.425
54.85868	-1.625
59.25871	0.675
63.6555	45.675
68.04907	52.475
72.43941	56.575
76.82654	56.475
81.21044	60.875
85.59113	61.975
89.96862	61.875
94.34289	65.875
98.71396	62.075
103.08183	69.175
107.4465	73.175
111.80798	74.575
116.16626	74.475
120.52136	75.775
124.87327	76.275
129.222	80.975
133.56755	90.075
137.90993	99.575
142.24913	103.675
146.58517	122.075
150.91804	138.975
155.24774	165.575
159.57429	203.775
163.89768	262.875
168.21792	346.975
172.53501	468.875
176.84895	652.675
181.15975	920.275
185.46741	1289.275
189.77193	1778.475
194.07331	2397.475
198.37157	3089.875
202.6667	3851.375
206.9587	4575.175
211.24758	5309.275
215.53334	6052.975
219.81599	6847.875
224.09553	7707.875
228.37195	8651.075
232.64527	9665.675
236.91549	10761.975
241.18261	11845.875
245.44663	12861.975
249.70755	13720.775
253.96539	14446.275
258.22014	15066.475
262.4718	15539.375
266.72039	15887.575
270.96589	15993.575
275.20832	15953.975
279.44768	15824.075
283.68397	15613.275
287.91719	15431.975
292.14735	15303.175
296.37445	15267.875
300.59849	15382.375
304.81948	15509.175
309.03742	15574.575
313.25231	15537.575
317.46415	15297.875
321.67296	14876.875
325.87872	14571.575
330.08145	14373.575
334.28114	14352.275
338.47781	14384.575
342.67145	14571.475
346.86207	14813.975
351.04966	15101.475
355.23424	15437.975
359.4158	15725.475
363.59435	15909.175
367.76989	16035.375
371.94243	16084.675
376.11196	16140.075
380.27849	16204.375
384.44203	16303.775
388.60257	16436.975
392.76012	16619.375
396.91468	16830.075
401.06626	17124.075
405.21485	17359.775
409.36047	17322.275
413.50311	17046.375
417.64277	16789.275
421.77947	16605.775
425.9132	16584.375
430.04396	16587.675
434.17176	16679.075
438.2966	16789.275
442.41849	17050.375
446.53742	17505.375
450.6534	17966.975
454.76644	18307.775
458.87653	18342.575
462.98368	18247.075
467.08789	18077.375
471.18916	17819.575
475.2875	17638.875
479.38291	17457.875
483.4754	17386.475
487.56496	17269.175
491.6516	17034.675
495.73531	16802.775
499.81612	16734.075
503.89401	16749.275
507.96899	16773.175
512.04106	16682.175
516.11023	16618.775
520.1765	16501.475
524.23987	16472.375
528.30034	16445.175
532.35792	16364.775
536.41261	16160.775
540.46441	15939.575
544.51333	15833.875
548.55936	15900.175
552.60252	16179.475
556.64279	16470.575
560.6802	16778.775
564.71473	16935.475
568.7464	17197.075
572.7752	17591.675
576.80114	17934.175
580.82422	18249.575
584.84444	18851.175
588.86181	19653.875
592.87633	20367.875
596.888	20497.075
600.89682	19798.675
604.9028	19628.475
608.90594	21089.475
612.90624	23091.375
616.90371	22015.275
620.89834	18252.075
624.89015	16426.975
628.87913	16172.675
632.86528	16323.975
636.84862	16417.875
640.82913	16200.475
644.80683	15825.875
648.78172	15495.375
652.75379	15466.775
656.72306	15629.475
660.68952	15926.075
664.65319	15836.875
668.61405	15546.375
672.57211	15507.475
676.52738	15602.875
680.47986	15619.375
684.42955	15531.275
688.37646	15409.375
692.32058	15432.275
696.26192	15581.775
700.20048	15793.775
704.13626	15879.175
708.06928	15914.875
711.99952	15818.275
715.927	15823.275
719.85171	15883.975
723.77365	15813.075
727.69284	15658.875
731.60928	15468.175
735.52295	15434.275
739.43388	15417.975
743.34206	15445.475
747.24749	15517.575
751.15017	15608.875
755.05012	15801.575
758.94733	16202.875
762.8418	16948.075
766.73354	18234.375
770.62254	19566.475
774.50882	20105.775
778.39237	19455.675
782.27321	18086.575
786.15132	16803.175
790.02671	15926.175
793.89938	15493.575
797.76935	15310.075
801.6366	15237.375
805.50115	15173.575
809.36299	15101.175
813.22213	14988.275
817.07857	14928.075
820.93231	14870.375
824.78336	14794.275
828.63172	14741.875
832.47738	14733.775
836.32036	14747.975
840.16066	14741.675
843.99827	14722.275
847.8332	14649.675
851.66546	14631.575
855.49504	14610.775
859.32195	14628.275
863.1462	14585.375
866.96777	14573.575
870.78668	14566.575
874.60293	14587.775
878.41652	14638.375
882.22745	14674.275
886.03573	14724.675
889.84136	14733.975
893.64433	14701.075
897.44466	14606.775
901.24235	14510.775
905.0374	14422.875
908.8298	14360.075
912.61957	14339.675
916.40671	14421.275
920.19121	14542.175
923.97308	14716.575
927.75233	14840.075
931.52895	14792.775
935.30295	14623.275
939.07433	14292.975
942.84309	14094.975
946.60924	13958.875
950.37278	13888.975
954.13371	13878.075
957.89203	13861.775
961.64774	13847.175
965.40086	13850.375
969.15137	13812.575
972.89929	13741.775
976.64461	13719.775
980.38733	13721.175
984.12747	13762.775
987.86502	13809.775
991.59999	13899.375
995.33237	14073.875
999.06217	14331.575
1002.78939	14620.175
1006.51404	14953.475
1010.23611	15193.975
1013.95561	15370.775
1017.67255	15397.475
1021.38692	15272.675
1025.09872	14990.575
1028.80796	14814.375
1032.51465	14843.275
1036.21877	14959.075
1039.92035	15084.675
1043.61937	15115.175
1047.31584	15089.475
1051.00976	14982.375
1054.70114	14939.075
1058.38998	14921.975
1062.07627	14983.575
1065.76003	15108.775
1069.44126	15293.875
1073.11995	15593.075
1076.79611	15887.675
1080.46974	15985.275
1084.14085	16054.675
1087.80943	16158.075
1091.47549	16319.875
1095.13903	16424.675
1098.80005	16243.775
1102.45857	15852.975
1106.11456	15528.475
1109.76805	15352.075
1113.41903	15298.875
1117.06751	15401.875
1120.71348	15590.875
1124.35696	15839.275
1127.99793	16105.575
1131.63641	16261.875
1135.2724	16156.275
1138.90589	16007.575
1142.5369	15927.275
1146.16542	15951.775
1149.79145	16004.275
1153.415	16094.575
1157.03607	16245.375
1160.65467	16537.075
1164.27079	17164.875
1167.88443	17998.375
1171.49561	19038.675
1175.10432	20402.775
1178.71056	22151.675
1182.31434	23667.175
1185.91565	24369.775
1189.51451	24111.375
1193.11091	23364.075
1196.70485	22422.775
1200.29634	21490.275
1203.88538	20740.775
1207.47197	20205.275
1211.05612	19820.775
1214.63782	19419.575
1218.21708	19055.775
1221.79391	18703.475
1225.36829	18534.975
1228.94024	18424.575
1232.50976	18219.575
1236.07685	18024.075
1239.6415	17810.975
1243.20374	17724.575
1246.76355	17852.275
1250.32093	18084.075
1253.8759	18441.075
1257.42845	18932.575
1260.97859	19496.275
1264.52631	20068.575
1268.07163	20655.175
1271.61453	21202.675
1275.15503	21773.775
1278.69312	22317.775
1282.22882	22965.675
1285.76211	23769.375
1289.29301	24760.975
1292.82151	25804.675
1296.34761	26966.375
1299.87133	28215.275
1303.39266	29675.775
1306.9116	31159.275
1310.42815	32476.375
1313.94233	33370.375
1317.45412	33194.375
1320.96354	32229.875
1324.47058	31189.575
1327.97525	30319.575
1331.47754	29692.475
1334.97747	29253.675
1338.47502	28836.675
1341.97022	28498.475
1345.46305	28173.275
1348.95352	28265.075
1352.44163	28848.275
1355.92738	30015.875
1359.41078	31822.675
1362.89183	33472.875
1366.37053	33429.475
1369.84688	30903.375
1373.32088	27382.875
1376.79254	24815.675
1380.26186	23637.175
1383.72883	23281.775
1387.19347	22988.075
1390.65578	22549.975
1394.11575	22328.675
1397.57339	22416.775
1401.0287	22590.875
1404.48168	22763.675
1407.93234	22630.275
1411.38068	22300.175
1414.82669	21677.675
1418.27039	21013.275
1421.71177	20348.875
1425.15083	19784.775
1428.58758	19513.675
1432.02203	19622.675
1435.45416	20047.075
1438.88399	20477.175
1442.31151	20754.775
1445.73673	21008.075
1449.15965	21180.475
1452.58027	21273.375
1455.9986	21183.575
1459.41463	21245.675
1462.82837	21532.475
1466.23982	21976.275
1469.64898	22386.875
1473.05586	22675.075
1476.46045	22788.375
1479.86276	22814.675
1483.26279	22756.775
1486.66054	22801.275
1490.05602	23089.075
1493.44922	23504.175
1496.84016	23989.375
1500.22882	24737.275
1503.61521	25707.575
1506.99934	26856.375
1510.38121	27725.375
1513.76081	27975.275
1517.13816	27271.175
1520.51324	25942.575
1523.88607	24676.775
1527.25665	23876.675
1530.62498	23529.975
1533.99105	23220.975
1537.35488	22828.475
1540.71647	22296.575
1544.07581	21649.775
1547.4329	21061.475
1550.78776	20540.575
1554.14038	20263.075
1557.49077	20151.675
1560.83892	20168.875
1564.18484	20337.475
1567.52853	20540.975
1570.86999	20845.675
1574.20922	21188.975
1577.54624	21468.175
1580.88103	21371.675
1584.2136	21275.175
1587.54395	21581.475
1590.87208	22416.575
1594.19801	23613.575
1597.52172	24893.075
1600.84321	25359.975
1604.16251	24400.375
1607.47959	22564.475
1610.79447	20556.775
1614.10715	18777.075
1617.41763	17467.775
1620.7259	16584.675
1624.03199	16195.675
1627.33587	16177.675
1630.63757	16582.975
1633.93707	17524.875
1637.23439	19082.375
1640.52951	21516.375
1643.82246	24589.275
1647.11321	27487.175
1650.40179	28554.475
1653.68819	26956.575
1656.97241	23586.175
1660.25446	20091.875
1663.53433	17412.475
1666.81203	15717.175
1670.08756	14676.175
1673.36092	14036.975
1676.63211	13598.775
1679.90115	13321.575
1683.16801	13079.675
1686.43272	12911.575
1689.69527	12809.775
1692.95567	12693.175
1696.2139	12690.075
1699.46999	12646.375
1702.72392	12562.275
1705.97571	12537.875
1709.22535	12472.875
1712.47284	12445.575
1715.71819	12423.475
1718.96139	12408.575
1722.20246	12312.975
1725.44139	12259.575
1728.67818	12201.475
1731.91284	12153.375
1735.14537	12089.875
1738.37576	12022.375
1741.60403	11996.175
1744.83017	11947.375
1748.05418	11910.475
1751.27607	11901.875
1754.49584	11917.775
1757.71349	11927.575
1760.92903	11932.075
1764.14244	11897.775
1767.35375	11857.175
1770.56294	11821.175
1773.77002	11797.775
1776.97499	11737.475
1780.17785	11678.875
1783.37861	11647.675
1786.57727	11633.975
1789.77382	11590.275
1792.96828	11554.075
1796.16064	11528.675
1799.3509	11502.575
1802.53907	11499.675
1805.72514	11473.675
1808.90913	11421.275
1812.09102	11399.775
1815.27083	11369.475
1818.44856	11340.175
1821.6242	11333.575
1824.79776	11320.475
1827.96924	11324.275
1831.13864	11311.975
1834.30597	11286.775
1837.47122	11263.375
1840.6344	11262.675
1843.7955	11275.675
1846.95454	11260.075
1850.11151	11253.775
1853.26642	11225.675
1856.41926	11233.075
1859.57004	11242.075
1862.71876	11216.575
1865.86542	11221.275
1869.01003	11167.175
1872.15258	11175.775
1875.29308	11174.775
1878.43152	11133.175
1881.56792	11130.975
1884.70227	11105.375
1887.83457	11091.875
1890.96482	11063.475
1894.09304	11064.175
1897.21921	11078.475
1900.34335	11046.175
1903.46544	11053.975
1906.58551	11021.275
1909.70353	10992.475
1912.81953	10965.775
1915.93349	10980.375
1919.04543	10933.875
1922.15534	10926.775
1925.26322	10895.875
1928.36908	10860.975
1931.47292	10840.475
1934.57473	10802.275
1937.67453	10754.575
1940.77232	10734.775
1943.86808	10729.875
1946.96184	10681.275
1950.05358	10654.475
1953.14331	10645.175
1956.23103	10594.675
1959.31675	10589.075
1962.40046	10531.675
1965.48217	10528.375
1968.56188	10472.975
1971.63959	10417.175
1974.7153	10428.875
1977.78901	10389.475
1980.86073	10328.375
1983.93046	10327.975
1986.99819	10281.875
1990.06394	10237.175
1993.1277	10219.875
1996.18947	10175.475
1999.24925	10148.175
2002.30706	10109.475
2005.36288	10094.875
2008.41672	10044.075
2011.46859	10036.575
2014.51848	10007.875
2017.56639	9975.375
2020.61233	9947.275
2023.6563	9934.975
2026.6983	9898.075
2029.73833	9889.975
2032.7764	9839.475
2035.8125	9847.275
2038.84664	9812.475
2041.87881	9799.775
2044.90903	9792.575
2047.93729	9773.975
2050.96359	9763.375
2053.98794	9759.275
2057.01034	9739.175
2060.03078	9723.675
2063.04927	9707.975
2066.06582	9700.475
2069.08042	9686.075
2072.09307	9672.275
2075.10378	9665.275
2078.11255	9676.575
2081.11938	9679.575
2084.12426	9649.375
2087.12722	9667.575
2090.12824	9639.875
2093.12732	9649.875
2096.12447	9654.975
2099.11969	9642.375
2102.11299	9636.275
2105.10435	9662.775
2108.09379	9652.175
2111.08131	9661.175
2114.0669	9656.675
2117.05057	9650.275
2120.03233	9678.575
2123.01216	9674.775
2125.99008	9667.575
2128.96609	9693.175
2131.94018	9696.375
2134.91236	9686.875
2137.88263	9678.275
2140.851	9689.875
2143.81746	9702.275
2146.78201	9687.975
2149.74466	9685.175
2152.7054	9686.375
2155.66425	9674.575
2158.6212	9685.375
2161.57625	9658.275
2164.52941	9663.675
2167.48067	9686.275
2170.43004	9666.075
2173.37752	9658.575
2176.32311	9643.975
2179.26681	9626.675
2182.20863	9630.675
2185.14856	9627.875
2188.08661	9648.575
2191.02278	9604.875
2193.95707	9612.975
2196.88948	9622.275
2199.82001	9621.775
2202.74867	9577.375
2205.67545	9586.175
2208.60037	9560.975
2211.52341	9555.775
2214.44458	9557.775
2217.36388	9514.375
2220.28132	9517.775
2223.1969	9498.975
2226.11061	9487.975
2229.02246	9471.875
2231.93245	9458.375
2234.84058	9419.275
2237.74686	9423.175
2240.65128	9417.075
2243.55385	9401.375
2246.45456	9386.775
2249.35343	9373.175
2252.25044	9349.175
2255.14561	9337.375
2258.03893	9343.875
2260.93041	9334.075
2263.82004	9280.475
2266.70783	9262.975
2269.59378	9236.875
2272.4779	9208.275
2275.36017	9202.975
2278.24061	9169.075
2281.11922	9155.175
2283.996	9133.575
2286.87094	9120.775
2289.74405	9104.175
2292.61534	9098.475
2295.4848	9080.475
2298.35243	9085.475
2301.21824	9060.275
2304.08223	9050.575
2306.94439	9053.175
2309.80474	9059.275
2312.66327	9041.175
2315.51999	9029.675
2318.37489	9021.875
2321.22797	9001.775
2324.07925	8995.575
2326.92871	8981.075
2329.77637	8997.275
2332.62222	8982.975
2335.46626	8980.675
2338.3085	8967.575
2341.14893	8966.175
2343.98756	8941.975
2346.8244	8925.575
2349.65943	8919.575
2352.49267	8943.175
2355.32411	8926.075
2358.15376	8944.675
2360.98161	8927.075
2363.80768	8925.775
2366.63195	8916.675
2369.45444	8916.075
2372.27514	8884.875
2375.09405	8867.175
2377.91118	8873.875
2380.72652	8845.775
2383.54009	8824.275
2386.35187	8803.375
2389.16188	8769.175
2391.97011	8780.075
2394.77657	8744.675
2397.58125	8734.675
2400.38416	8729.975
2403.18529	8712.575
2405.98466	8706.575
2408.78226	8672.675
2411.57809	8663.175
2414.37216	8629.675
2417.16446	8638.275
2419.955	8615.275
2422.74378	8622.875
2425.5308	8599.875
2428.31606	8612.375
2431.09956	8611.075
2433.88131	8587.075
2436.6613	8605.275
2439.43954	8572.375
2442.21603	8578.875
2444.99077	8539.875
2447.76377	8568.775
2450.53501	8571.875
2453.30451	8575.175
2456.07226	8554.475
2458.83827	8585.075
2461.60254	8557.975
2464.36507	8539.275
2467.12586	8552.575
2469.88492	8521.775
2472.64224	8536.375
2475.39782	8565.475
2478.15167	8540.775
2480.90379	8540.275
2483.65417	8542.275
2486.40283	8531.475
2489.14976	8538.075
2491.89497	8530.775
2494.63845	8533.175
2497.3802	8527.775
2500.12024	8519.875
2502.85855	8495.075
2505.59514	8489.475
2508.33002	8474.875
2511.06318	8484.375
2513.79462	8457.575
2516.52435	8421.975
2519.25237	8445.075
2521.97867	8419.175
2524.70327	8419.375
2527.42616	8410.375
2530.14734	8374.575
2532.86681	8370.975
2535.58458	8388.175
2538.30065	8377.775
2541.01501	8357.875
2543.72768	8333.875
2546.43864	8329.775
2549.14791	8322.075
2551.85548	8341.775
2554.56136	8338.475
2557.26554	8301.775
2559.96803	8312.175
2562.66883	8288.575
2565.36794	8319.175
2568.06536	8289.475
2570.7611	8259.175
2573.45514	8281.475
2576.14751	8259.275
2578.83819	8256.775
2581.52719	8241.675
2584.21451	8243.675
2586.90015	8212.175
2589.58411	8203.975
2592.2664	8191.175
2594.94701	8190.975
2597.62594	8155.475
2600.30321	8147.575
2602.9788	8138.675
2605.65273	8141.275
2608.32498	8136.975
2610.99557	8139.675
2613.66449	8144.675
2616.33175	8115.975
2618.99734	8115.475
2621.66128	8096.075
2624.32355	8096.475
2626.98416	8082.075
2629.64311	8069.675
2632.30041	8055.775
2634.95605	8072.475
2637.61004	8061.275
2640.26238	8042.075
2642.91306	8023.375
2645.56209	8029.775
2648.20948	8021.875
2650.85521	8014.675
2653.4993	8016.675
2656.14175	8007.875
2658.78255	8034.075
2661.42171	8026.875
2664.05923	8033.175
2666.6951	8035.275
2669.32934	8031.075
2671.96194	8035.075
2674.59291	8049.075
2677.22224	8041.775
2679.84993	8029.275
2682.476	7996.775
2685.10043	8009.375
2687.72324	8015.875
2690.34441	7980.675
2692.96396	8003.875
2695.58188	8001.575
2698.19818	7994.675
2700.81285	7991.975
2703.4259	8023.775
2706.03733	8122.775
2708.64714	8057.675
2711.25533	8043.475
2713.86191	8017.075
2716.46687	8045.775
2719.07021	8027.975
2721.67194	8038.275
2724.27206	8037.675
2726.87057	8053.975
2729.46747	8051.575
2732.06276	8043.675
2734.65644	8023.475
2737.24852	8052.875
2739.83899	8012.075
2742.42786	8012.375
2745.01513	7992.275
2747.60079	7989.575
2750.18486	7962.275
2752.76733	7946.575
2755.3482	7959.875
2757.92747	7971.875
2760.50515	7947.575
2763.08123	7953.675
2765.65573	7951.775
2768.22863	7938.975
2770.79994	7924.975
2773.36967	7924.675
2775.9378	7932.675
2778.50435	7928.675
2781.06932	7901.575
2783.6327	7904.275
2786.1945	7887.475
2788.75471	7870.575
2791.31335	7864.575
2793.87041	7850.475
2796.42589	7828.575
2798.97979	7843.475
2801.53212	7808.975
2804.08288	7810.675
2806.63206	7801.475
2809.17967	7773.375
2811.72571	7755.975
2814.27018	7769.675
2816.81308	7752.375
2819.35442	7730.375
2821.89419	7728.675
2824.43239	7723.175
2826.96904	7721.675
2829.50412	7740.175
2832.03763	7714.375
2834.56959	7732.275
2837.1	7709.275
2839.62884	7696.575
2842.15613	7703.375
2844.68186	7724.875
2847.20604	7746.275
2849.72867	7733.475
2852.24974	7743.375
2854.76927	7705.675
2857.28724	7718.975
2859.80367	7705.875
2862.31855	7686.675
2864.83189	7670.375
2867.34368	7689.075
2869.85393	7668.375
2872.36264	7650.675
2874.8698	7662.675
2877.37543	7659.375
2879.87952	7644.675
2882.38207	7637.575
2884.88308	7648.475
2887.38256	7641.375
2889.88051	7622.375
2892.37692	7657.875
2894.8718	7650.075
2897.36515	7647.575
2899.85698	7659.875
2902.34727	7658.175
2904.83604	7647.075
2907.32328	7658.875
2909.809	7674.375
2912.29319	7685.675
2914.77587	7687.875
2917.25702	7692.675
2919.73665	7680.275
2922.21476	7681.175
2924.69136	7671.175
2927.16644	7699.275
2929.64	7666.175
2932.11205	7658.575
2934.58258	7634.575
2937.05161	7655.275
2939.51912	7654.175
2941.98513	7655.575
2944.44962	7618.275
2946.91261	7581.975
2949.37409	7615.575
2951.83407	7575.975
2954.29254	7560.875
2956.74951	7548.175
2959.20498	7535.575
2961.65895	7514.275
2964.11142	7503.275
2966.56239	7488.175
2969.01186	7482.475
2971.45984	7462.675
2973.90632	7448.875
2976.35131	7415.575
2978.7948	7416.475
2981.23681	7396.475
2983.67732	7361.275
2986.11635	7350.475
2988.55388	7344.775
2990.98993	7321.775
2993.4245	7308.275
2995.85758	7281.075
2998.28917	7274.075
3000.71928	7279.175
3003.14791	7252.475
3005.57506	7254.475
3008.00073	7231.075
3010.42493	7224.275
3012.84764	7223.975
3015.26888	7210.175
3017.68865	7183.375
3020.10694	7173.475
3022.52376	7145.375
3024.9391	7154.175
3027.35298	7142.675
3029.76539	7114.575
3032.17632	7097.575
3034.5858	7089.675
3036.9938	7081.975
3039.40034	7089.775
3041.80542	7070.775
3044.20903	7029.275
3046.61118	7052.575
3049.01187	7011.775
3051.4111	7035.875
3053.80888	7002.675
3056.20519	6995.675
3058.60005	6981.575
3060.99345	6988.175
3063.3854	6973.575
3065.7759	6941.875
3068.16494	6916.675
3070.55254	6905.075
3072.93868	6888.175
3075.32338	6890.975
3077.70662	6887.075
3080.08842	6848.875
3082.46878	6845.675
3084.84769	6811.775
3087.22515	6823.575
3089.60118	6807.275
3091.97576	6815.275
3094.3489	6817.975
3096.72061	6818.975
3099.09087	6814.275
3101.4597	6791.275
3103.82709	6810.575
3106.19305	6789.175
3108.55757	6789.375
3110.92066	6751.175
3113.28232	6762.775
3115.64255	6718.575
3118.00134	6724.075
3120.35871	6717.375
3122.71466	6690.575
3125.06917	6677.575
3127.42226	6689.875
3129.77393	6712.075
3132.12417	6674.975
3134.47299	6681.475
3136.82039	6684.175
3139.16636	6682.775
3141.51092	6660.575
3143.85406	6669.475
3146.19579	6676.375
3148.53609	6672.175
3150.87499	6675.775
3153.21246	6691.875
3155.54853	6691.075
3157.88318	6666.375
3160.21642	6670.575
3162.54826	6662.575
3164.87868	6675.775
3167.2077	6661.075
3169.5353	6662.475
3171.86151	6659.275
3174.18631	6654.175
3176.5097	6633.675
3178.83169	6609.775
