Data from AgNPs_FTO_APTES_UA_0um_CRN_0.1mM_R6G_10uM_NaF_0.1M_Addition_RamanShift__49__11-08-28-953.txt Node

Date: Tue Dec 21 11:08:28 GMT 2021
User: TCL
Spectrometer: QEP01345
Trigger mode: 4
Integration Time (sec): 7.000000E0
Scans to average: 10
Electric dark correction enabled: true
Nonlinearity correction enabled: false
Boxcar width: 0
XAxis mode: Raman Shifts
Number of Pixels in Spectrum: 1044
>>>>>Begin Spectral Data<<<<<
46.04893	-1.125
50.45542	-0.125
54.85868	-0.625
59.25871	-0.225
63.6555	39.875
68.04907	42.175
72.43941	45.275
76.82654	45.775
81.21044	49.475
85.59113	52.975
89.96862	56.275
94.34289	54.575
98.71396	56.575
103.08183	56.975
107.4465	62.475
111.80798	63.475
116.16626	64.175
120.52136	63.975
124.87327	67.375
129.222	69.975
133.56755	79.075
137.90993	84.275
142.24913	91.275
146.58517	102.875
150.91804	123.275
155.24774	147.475
159.57429	179.975
163.89768	233.175
168.21792	304.475
172.53501	415.575
176.84895	570.675
181.15975	819.975
185.46741	1142.975
189.77193	1578.275
194.07331	2108.375
198.37157	2713.475
202.6667	3342.475
206.9587	3989.175
211.24758	4630.275
215.53334	5256.575
219.81599	5940.175
224.09553	6686.575
228.37195	7484.775
232.64527	8389.875
236.91549	9320.275
241.18261	10246.675
245.44663	11086.075
249.70755	11832.475
253.96539	12428.975
258.22014	12941.875
262.4718	13381.675
266.72039	13641.975
270.96589	13795.275
275.20832	13826.975
279.44768	13723.875
283.68397	13670.475
287.91719	13657.675
292.14735	13649.375
296.37445	13682.875
300.59849	13715.175
304.81948	13792.175
309.03742	13851.575
313.25231	13734.875
317.46415	13427.675
321.67296	12972.075
325.87872	12532.575
330.08145	12296.675
334.28114	12166.875
338.47781	12222.275
342.67145	12338.275
346.86207	12552.975
351.04966	12771.275
355.23424	13061.675
359.4158	13303.075
363.59435	13405.375
367.76989	13479.275
371.94243	13456.975
376.11196	13434.475
380.27849	13455.675
384.44203	13482.475
388.60257	13620.475
392.76012	13786.375
396.91468	14017.075
401.06626	14282.775
405.21485	14484.575
409.36047	14380.375
413.50311	14191.775
417.64277	14113.675
421.77947	14223.375
425.9132	14224.875
430.04396	14244.875
434.17176	14323.475
438.2966	14398.275
442.41849	14618.875
446.53742	15032.975
450.6534	15579.775
454.76644	15942.775
458.87653	15965.975
462.98368	15792.575
467.08789	15575.575
471.18916	15296.475
475.2875	15075.175
479.38291	15005.675
483.4754	14974.175
487.56496	14880.375
491.6516	14714.875
495.73531	14479.275
499.81612	14348.475
503.89401	14353.975
507.96899	14378.575
512.04106	14221.975
516.11023	13967.075
520.1765	13639.575
524.23987	13423.075
528.30034	13295.875
532.35792	13129.875
536.41261	12956.575
540.46441	12737.675
544.51333	12708.775
548.55936	12895.975
552.60252	13320.375
556.64279	13797.275
560.6802	14102.675
564.71473	14324.375
568.7464	14672.675
572.7752	15315.875
576.80114	15957.475
580.82422	16560.275
584.84444	17160.675
588.86181	17713.575
592.87633	18197.775
596.888	18188.775
600.89682	17540.675
604.9028	17313.975
608.90594	18311.975
612.90624	19522.475
616.90371	18067.775
620.89834	14663.875
624.89015	13017.175
628.87913	12869.775
632.86528	13111.675
636.84862	13239.075
640.82913	13077.875
644.80683	12640.175
648.78172	12305.975
652.75379	12191.575
656.72306	12295.275
660.68952	12496.775
664.65319	12445.275
668.61405	12193.775
672.57211	12113.775
676.52738	12179.775
680.47986	12163.675
684.42955	12078.675
688.37646	11940.675
692.32058	11927.075
696.26192	12071.875
700.20048	12241.175
704.13626	12420.275
708.06928	12533.475
711.99952	12483.575
715.927	12469.675
719.85171	12455.175
723.77365	12370.075
727.69284	12182.975
731.60928	11971.575
735.52295	11922.075
739.43388	11920.275
743.34206	11961.575
747.24749	12098.475
751.15017	12267.275
755.05012	12561.275
758.94733	13095.175
762.8418	14034.375
766.73354	15548.875
770.62254	16818.575
774.50882	16864.975
778.39237	15715.775
782.27321	14280.575
786.15132	13167.375
790.02671	12477.575
793.89938	12084.775
797.76935	11927.275
801.6366	11867.475
805.50115	11885.775
809.36299	11757.675
813.22213	11613.475
817.07857	11525.275
820.93231	11436.975
824.78336	11347.975
828.63172	11277.175
832.47738	11220.575
836.32036	11227.275
840.16066	11201.675
843.99827	11175.375
847.8332	11137.875
851.66546	11124.875
855.49504	11142.475
859.32195	11147.175
863.1462	11104.175
866.96777	11061.075
870.78668	11017.975
874.60293	10989.875
878.41652	11036.475
882.22745	11060.575
886.03573	11103.075
889.84136	11108.575
893.64433	11108.575
897.44466	11090.275
901.24235	11038.975
905.0374	10940.975
908.8298	10864.675
912.61957	10847.275
916.40671	10940.675
920.19121	11133.175
923.97308	11337.475
927.75233	11406.675
931.52895	11278.375
935.30295	11012.775
939.07433	10701.675
942.84309	10476.375
946.60924	10301.275
950.37278	10276.275
954.13371	10242.675
957.89203	10245.375
961.64774	10238.175
965.40086	10238.075
969.15137	10178.775
972.89929	10120.175
976.64461	10035.975
980.38733	9951.675
984.12747	9981.175
987.86502	10012.175
991.59999	10097.575
995.33237	10204.675
999.06217	10498.175
1002.78939	10821.875
1006.51404	11124.975
1010.23611	11395.675
1013.95561	11595.975
1017.67255	11676.975
1021.38692	11536.075
1025.09872	11226.175
1028.80796	10977.175
1032.51465	10977.975
1036.21877	11064.875
1039.92035	11132.975
1043.61937	11126.475
1047.31584	11092.375
1051.00976	11071.375
1054.70114	11055.475
1058.38998	11106.075
1062.07627	11223.175
1065.76003	11367.275
1069.44126	11601.575
1073.11995	11891.575
1076.79611	12148.575
1080.46974	12235.475
1084.14085	12327.375
1087.80943	12517.475
1091.47549	12723.675
1095.13903	12819.775
1098.80005	12635.975
1102.45857	12179.675
1106.11456	11698.975
1109.76805	11481.875
1113.41903	11454.375
1117.06751	11532.875
1120.71348	11700.075
1124.35696	11922.075
1127.99793	12173.075
1131.63641	12307.875
1135.2724	12310.675
1138.90589	12220.575
1142.5369	12244.675
1146.16542	12325.475
1149.79145	12418.975
1153.415	12585.575
1157.03607	12873.475
1160.65467	13391.875
1164.27079	14225.275
1167.88443	15335.175
1171.49561	16685.175
1175.10432	18318.875
1178.71056	20427.275
1182.31434	22279.175
1185.91565	23223.275
1189.51451	23084.875
1193.11091	22410.975
1196.70485	21341.075
1200.29634	20038.175
1203.88538	18914.475
1207.47197	18160.375
1211.05612	17598.875
1214.63782	17105.575
1218.21708	16676.075
1221.79391	16377.375
1225.36829	16257.075
1228.94024	16075.075
1232.50976	15684.375
1236.07685	15247.475
1239.6415	14897.575
1243.20374	14762.175
1246.76355	14763.575
1250.32093	14939.975
1253.8759	15302.675
1257.42845	15873.775
1260.97859	16503.275
1264.52631	17169.675
1268.07163	17855.375
1271.61453	18506.275
1275.15503	19191.675
1278.69312	19919.075
1282.22882	20694.075
1285.76211	21641.375
1289.29301	22716.575
1292.82151	23948.775
1296.34761	25476.375
1299.87133	27295.075
1303.39266	29140.075
1306.9116	31019.675
1310.42815	32681.275
1313.94233	33910.275
1317.45412	34098.075
1320.96354	33662.475
1324.47058	33175.775
1327.97525	32772.575
1331.47754	32341.275
1334.97747	31885.975
1338.47502	31307.675
1341.97022	30558.775
1345.46305	29671.375
1348.95352	28837.875
1352.44163	28368.375
1355.92738	28642.575
1359.41078	29802.175
1362.89183	31084.775
1366.37053	31185.475
1369.84688	29298.175
1373.32088	26035.975
1376.79254	23359.275
1380.26186	22123.275
1383.72883	21879.475
1387.19347	21838.875
1390.65578	21671.375
1394.11575	21790.575
1397.57339	22263.375
1401.0287	23007.275
1404.48168	23538.075
1407.93234	23601.075
1411.38068	23109.475
1414.82669	22140.575
1418.27039	20874.775
1421.71177	19611.875
1425.15083	18516.775
1428.58758	17861.975
1432.02203	17806.975
1435.45416	18277.575
1438.88399	18973.675
1442.31151	19606.975
1445.73673	20179.175
1449.15965	20650.275
1452.58027	20993.575
1455.9986	21064.275
1459.41463	21178.575
1462.82837	21527.875
1466.23982	22026.075
1469.64898	22537.975
1473.05586	22738.675
1476.46045	22764.075
1479.86276	22636.475
1483.26279	22385.075
1486.66054	22277.575
1490.05602	22459.275
1493.44922	22757.475
1496.84016	23076.675
1500.22882	23566.775
1503.61521	24323.875
1506.99934	25263.675
1510.38121	26015.575
1513.76081	26129.175
1517.13816	25487.475
1520.51324	24325.675
1523.88607	23338.275
1527.25665	22701.475
1530.62498	22482.475
1533.99105	22289.575
1537.35488	22028.575
1540.71647	21531.775
1544.07581	20820.075
1547.4329	19996.575
1550.78776	19222.375
1554.14038	18738.775
1557.49077	18509.275
1560.83892	18470.975
1564.18484	18600.675
1567.52853	18769.375
1570.86999	19032.875
1574.20922	19354.275
1577.54624	19709.775
1580.88103	19752.075
1584.2136	19818.475
1587.54395	20402.075
1590.87208	21606.175
1594.19801	23257.475
1597.52172	24955.175
1600.84321	25629.875
1604.16251	24458.575
1607.47959	22160.275
1610.79447	19588.775
1614.10715	17278.475
1617.41763	15456.975
1620.7259	14238.375
1624.03199	13568.375
1627.33587	13495.175
1630.63757	13926.375
1633.93707	15053.875
1637.23439	17048.475
1640.52951	20138.275
1643.82246	24103.375
1647.11321	27697.975
1650.40179	29063.975
1653.68819	27331.175
1656.97241	23276.875
1660.25446	18977.875
1663.53433	15541.875
1666.81203	13289.375
1670.08756	11923.375
1673.36092	11064.775
1676.63211	10545.475
1679.90115	10178.975
1683.16801	9927.975
1686.43272	9708.575
1689.69527	9549.175
1692.95567	9441.175
1696.2139	9383.475
1699.46999	9317.875
1702.72392	9243.875
1705.97571	9192.475
1709.22535	9153.275
1712.47284	9101.775
1715.71819	9064.575
1718.96139	9021.675
1722.20246	8972.775
1725.44139	8904.575
1728.67818	8839.575
1731.91284	8761.875
1735.14537	8712.875
1738.37576	8652.875
1741.60403	8616.875
1744.83017	8597.675
1748.05418	8580.375
1751.27607	8580.775
1754.49584	8579.075
1757.71349	8592.375
1760.92903	8574.575
1764.14244	8539.875
1767.35375	8482.475
1770.56294	8485.775
1773.77002	8401.075
1776.97499	8376.575
1780.17785	8339.675
1783.37861	8301.575
1786.57727	8273.975
1789.77382	8235.375
1792.96828	8208.175
1796.16064	8176.075
1799.3509	8155.675
1802.53907	8117.975
1805.72514	8080.775
1808.90913	8068.975
1812.09102	8050.375
1815.27083	8018.475
1818.44856	7988.275
1821.6242	7988.675
1824.79776	7983.275
1827.96924	7966.675
1831.13864	7968.375
1834.30597	7962.275
1837.47122	7961.275
1840.6344	7949.775
1843.7955	7974.375
1846.95454	7950.475
1850.11151	7953.275
1853.26642	7958.275
1856.41926	7954.175
1859.57004	7951.275
1862.71876	7933.075
1865.86542	7930.075
1869.01003	7897.075
1872.15258	7901.175
1875.29308	7910.475
1878.43152	7891.175
1881.56792	7871.575
1884.70227	7848.875
1887.83457	7861.375
1890.96482	7855.275
1894.09304	7863.775
1897.21921	7822.775
1900.34335	7812.575
1903.46544	7811.275
1906.58551	7784.975
1909.70353	7769.675
1912.81953	7733.575
1915.93349	7716.075
1919.04543	7706.275
1922.15534	7676.775
1925.26322	7624.275
1928.36908	7610.575
1931.47292	7593.875
1934.57473	7571.375
1937.67453	7548.675
1940.77232	7500.275
1943.86808	7471.875
1946.96184	7473.775
1950.05358	7432.275
1953.14331	7420.375
1956.23103	7378.075
1959.31675	7349.875
1962.40046	7333.375
1965.48217	7294.175
1968.56188	7291.675
1971.63959	7259.075
1974.7153	7216.875
1977.78901	7191.175
1980.86073	7177.275
1983.93046	7161.175
1986.99819	7131.475
1990.06394	7105.275
1993.1277	7078.275
1996.18947	7042.775
1999.24925	7040.575
2002.30706	6992.075
2005.36288	6979.275
2008.41672	6967.275
2011.46859	6953.375
2014.51848	6922.575
2017.56639	6895.275
2020.61233	6885.175
2023.6563	6869.175
2026.6983	6854.375
2029.73833	6827.175
2032.7764	6814.175
2035.8125	6779.475
2038.84664	6794.375
2041.87881	6772.075
2044.90903	6759.375
2047.93729	6748.175
2050.96359	6746.075
2053.98794	6721.875
2057.01034	6716.875
2060.03078	6711.975
2063.04927	6733.875
2066.06582	6697.075
2069.08042	6691.875
2072.09307	6690.675
2075.10378	6665.975
2078.11255	6676.575
2081.11938	6667.075
2084.12426	6658.375
2087.12722	6668.375
2090.12824	6647.975
2093.12732	6647.575
2096.12447	6650.575
2099.11969	6655.975
2102.11299	6640.675
2105.10435	6648.075
2108.09379	6662.475
2111.08131	6654.075
2114.0669	6644.675
2117.05057	6649.175
2120.03233	6672.775
2123.01216	6647.375
2125.99008	6628.875
2128.96609	6626.175
2131.94018	6638.375
2134.91236	6644.975
2137.88263	6642.575
2140.851	6634.875
2143.81746	6631.175
2146.78201	6626.575
2149.74466	6613.975
2152.7054	6619.975
2155.66425	6621.375
2158.6212	6585.775
2161.57625	6606.275
2164.52941	6634.275
2167.48067	6609.475
2170.43004	6590.975
2173.37752	6602.275
2176.32311	6588.375
2179.26681	6589.275
2182.20863	6611.475
2185.14856	6578.375
2188.08661	6569.475
2191.02278	6585.775
2193.95707	6581.275
2196.88948	6538.375
2199.82001	6536.975
2202.74867	6539.575
2205.67545	6539.175
2208.60037	6547.275
2211.52341	6492.175
2214.44458	6517.975
2217.36388	6478.475
2220.28132	6472.875
2223.1969	6453.175
2226.11061	6450.575
2229.02246	6436.575
2231.93245	6441.675
2234.84058	6415.075
2237.74686	6402.575
2240.65128	6381.375
2243.55385	6401.875
2246.45456	6375.175
2249.35343	6360.175
2252.25044	6348.475
2255.14561	6330.675
2258.03893	6324.075
2260.93041	6311.875
2263.82004	6296.775
2266.70783	6278.575
2269.59378	6241.975
2272.4779	6221.375
2275.36017	6201.275
2278.24061	6193.475
2281.11922	6184.575
2283.996	6167.175
2286.87094	6178.475
2289.74405	6158.775
2292.61534	6139.775
2295.4848	6137.975
2298.35243	6122.375
2301.21824	6117.475
2304.08223	6120.175
2306.94439	6098.775
2309.80474	6111.975
2312.66327	6100.075
2315.51999	6101.075
2318.37489	6085.975
2321.22797	6080.375
2324.07925	6075.775
2326.92871	6071.375
2329.77637	6086.775
2332.62222	6065.575
2335.46626	6050.675
2338.3085	6029.075
2341.14893	6034.875
2343.98756	6044.075
2346.8244	6057.275
2349.65943	6042.175
2352.49267	6043.175
2355.32411	6042.775
2358.15376	6054.975
2360.98161	6054.975
2363.80768	6032.675
2366.63195	6046.075
2369.45444	6042.475
2372.27514	6025.775
2375.09405	6017.375
2377.91118	5998.675
2380.72652	5993.675
2383.54009	5948.675
2386.35187	5957.775
2389.16188	5916.975
2391.97011	5893.275
2394.77657	5899.675
2397.58125	5877.675
2400.38416	5882.975
2403.18529	5874.475
2405.98466	5866.875
2408.78226	5856.375
2411.57809	5835.675
2414.37216	5833.375
2417.16446	5811.775
2419.955	5815.375
2422.74378	5822.375
2425.5308	5808.175
2428.31606	5795.075
2431.09956	5795.675
2433.88131	5793.575
2436.6613	5793.375
2439.43954	5778.675
2442.21603	5764.775
2444.99077	5790.975
2447.76377	5774.675
2450.53501	5776.675
2453.30451	5770.875
2456.07226	5767.775
2458.83827	5776.075
2461.60254	5777.375
2464.36507	5768.575
2467.12586	5771.275
2469.88492	5773.775
2472.64224	5775.275
2475.39782	5775.775
2478.15167	5792.675
2480.90379	5782.875
2483.65417	5791.575
2486.40283	5773.275
2489.14976	5791.775
2491.89497	5756.475
2494.63845	5788.675
2497.3802	5787.875
2500.12024	5788.675
2502.85855	5771.175
2505.59514	5761.275
2508.33002	5748.375
2511.06318	5743.175
2513.79462	5743.375
2516.52435	5753.975
2519.25237	5737.675
2521.97867	5719.375
2524.70327	5700.275
2527.42616	5695.575
2530.14734	5689.675
2532.86681	5694.175
2535.58458	5684.475
2538.30065	5656.075
2541.01501	5670.875
2543.72768	5668.175
2546.43864	5658.475
2549.14791	5650.075
2551.85548	5660.675
2554.56136	5646.675
2557.26554	5652.275
2559.96803	5631.075
2562.66883	5640.175
2565.36794	5623.975
2568.06536	5634.175
2570.7611	5630.775
2573.45514	5620.875
2576.14751	5606.875
2578.83819	5605.275
2581.52719	5616.675
2584.21451	5607.575
2586.90015	5584.475
2589.58411	5609.975
2592.2664	5591.275
2594.94701	5580.975
2597.62594	5574.675
2600.30321	5554.775
2602.9788	5565.975
2605.65273	5599.975
2608.32498	5572.975
2610.99557	5578.875
2613.66449	5569.675
2616.33175	5561.275
2618.99734	5564.775
2621.66128	5546.575
2624.32355	5571.675
2626.98416	5570.675
2629.64311	5542.875
2632.30041	5554.275
2634.95605	5558.275
2637.61004	5553.075
2640.26238	5548.775
2642.91306	5535.675
2645.56209	5532.375
2648.20948	5526.875
2650.85521	5555.875
2653.4993	5542.175
2656.14175	5530.175
2658.78255	5530.975
2661.42171	5548.175
2664.05923	5539.575
2666.6951	5553.375
2669.32934	5565.575
2671.96194	5561.175
2674.59291	5575.675
2677.22224	5544.875
2679.84993	5551.675
2682.476	5547.375
2685.10043	5522.375
2687.72324	5525.475
2690.34441	5511.875
2692.96396	5516.275
2695.58188	5529.175
2698.19818	5520.075
2700.81285	5541.175
2703.4259	5551.375
2706.03733	5581.275
2708.64714	5576.375
2711.25533	5562.775
2713.86191	5542.475
2716.46687	5545.575
2719.07021	5558.075
2721.67194	5551.675
2724.27206	5534.275
2726.87057	5560.875
2729.46747	5551.975
2732.06276	5561.075
2734.65644	5558.075
2737.24852	5562.175
2739.83899	5538.975
2742.42786	5563.475
2745.01513	5551.075
2747.60079	5547.975
2750.18486	5545.375
2752.76733	5527.875
2755.3482	5523.575
2757.92747	5541.375
2760.50515	5551.675
2763.08123	5539.475
2765.65573	5520.475
2768.22863	5536.975
2770.79994	5533.375
2773.36967	5544.075
2775.9378	5541.175
2778.50435	5533.375
2781.06932	5523.675
2783.6327	5531.575
2786.1945	5543.375
2788.75471	5525.675
2791.31335	5526.575
2793.87041	5514.475
2796.42589	5508.675
2798.97979	5493.775
2801.53212	5519.575
2804.08288	5513.575
2806.63206	5498.875
2809.17967	5474.975
2811.72571	5478.775
2814.27018	5477.875
2816.81308	5456.675
2819.35442	5462.475
2821.89419	5444.175
2824.43239	5451.175
2826.96904	5460.375
2829.50412	5440.575
2832.03763	5420.575
2834.56959	5420.575
2837.1	5414.175
2839.62884	5404.775
2842.15613	5412.875
2844.68186	5417.975
2847.20604	5445.575
2849.72867	5457.975
2852.24974	5446.775
2854.76927	5444.575
2857.28724	5453.475
2859.80367	5430.775
2862.31855	5412.375
2864.83189	5410.175
2867.34368	5402.175
2869.85393	5409.675
2872.36264	5403.175
2874.8698	5402.275
2877.37543	5403.975
2879.87952	5412.575
2882.38207	5404.275
2884.88308	5386.075
2887.38256	5418.675
2889.88051	5398.575
2892.37692	5416.575
2894.8718	5400.075
2897.36515	5418.175
2899.85698	5413.075
2902.34727	5423.575
2904.83604	5440.775
2907.32328	5451.775
2909.809	5434.975
2912.29319	5452.975
2914.77587	5471.875
2917.25702	5457.675
2919.73665	5457.775
2922.21476	5471.775
2924.69136	5480.075
2927.16644	5446.575
2929.64	5457.075
2932.11205	5437.275
2934.58258	5425.975
2937.05161	5448.175
2939.51912	5424.375
2941.98513	5427.675
2944.44962	5422.175
2946.91261	5390.175
2949.37409	5388.575
2951.83407	5402.575
2954.29254	5376.375
2956.74951	5391.475
2959.20498	5358.675
2961.65895	5338.375
2964.11142	5329.375
2966.56239	5291.175
2969.01186	5308.875
2971.45984	5275.875
2973.90632	5261.575
2976.35131	5244.275
2978.7948	5230.375
2981.23681	5215.175
2983.67732	5194.275
2986.11635	5178.875
2988.55388	5177.975
2990.98993	5166.875
2993.4245	5135.175
2995.85758	5110.875
2998.28917	5120.175
3000.71928	5112.875
3003.14791	5094.175
3005.57506	5086.875
3008.00073	5081.575
3010.42493	5080.175
3012.84764	5072.875
3015.26888	5061.075
3017.68865	5023.975
3020.10694	5020.075
3022.52376	5014.175
3024.9391	4996.475
3027.35298	5004.575
3029.76539	4981.675
3032.17632	4994.475
3034.5858	4958.175
3036.9938	4972.875
3039.40034	4962.375
3041.80542	4952.275
3044.20903	4936.075
3046.61118	4951.975
3049.01187	4921.475
3051.4111	4921.175
3053.80888	4932.775
3056.20519	4903.875
3058.60005	4901.975
3060.99345	4888.975
3063.3854	4863.075
3065.7759	4874.575
3068.16494	4841.975
3070.55254	4815.075
3072.93868	4811.275
3075.32338	4791.875
3077.70662	4785.775
3080.08842	4762.975
3082.46878	4773.375
3084.84769	4763.875
3087.22515	4772.875
3089.60118	4760.275
3091.97576	4750.875
3094.3489	4746.475
3096.72061	4744.475
3099.09087	4746.475
3101.4597	4741.375
3103.82709	4742.875
3106.19305	4719.275
3108.55757	4718.675
3110.92066	4703.775
3113.28232	4698.375
3115.64255	4674.075
3118.00134	4666.575
3120.35871	4660.275
3122.71466	4647.975
3125.06917	4648.475
3127.42226	4631.975
3129.77393	4638.775
3132.12417	4621.775
3134.47299	4641.075
3136.82039	4641.775
3139.16636	4645.575
3141.51092	4627.575
3143.85406	4631.775
3146.19579	4629.775
3148.53609	4627.975
3150.87499	4623.875
3153.21246	4632.075
3155.54853	4647.775
3157.88318	4632.475
3160.21642	4638.675
3162.54826	4625.675
3164.87868	4647.275
3167.2077	4605.675
3169.5353	4625.875
3171.86151	4637.875
3174.18631	4631.775
3176.5097	4613.575
3178.83169	4625.275
3181.15228	4612.275
3183.47147	4595.775
3185.78926	4591.275
3188.10565	4591.775
3190.42065	4614.375
