Data from AgNPs_FTO_APTES_UA_0um_CRN_0.1mM_R6G_10uM_NaF_0.1M_Addition_RamanShift__15__10-28-48-908.txt Node

Date: Tue Dec 21 10:28:48 GMT 2021
User: TCL
Spectrometer: QEP01345
Trigger mode: 4
Integration Time (sec): 7.000000E0
Scans to average: 10
Electric dark correction enabled: true
Nonlinearity correction enabled: false
Boxcar width: 0
XAxis mode: Raman Shifts
Number of Pixels in Spectrum: 1044
>>>>>Begin Spectral Data<<<<<
46.04893	1.45
50.45542	-0.15
54.85868	-0.75
59.25871	0.65
63.6555	16.45
68.04907	22.55
72.43941	21.15
76.82654	23.05
81.21044	29.45
85.59113	28.45
89.96862	28.75
94.34289	28.55
98.71396	26.65
103.08183	27.15
107.4465	31.35
111.80798	35.45
116.16626	32.05
120.52136	31.05
124.87327	30.35
129.222	26.85
133.56755	32.35
137.90993	36.05
142.24913	32.55
146.58517	35.45
150.91804	36.05
155.24774	42.15
159.57429	47.45
163.89768	57.85
168.21792	72.25
172.53501	88.55
176.84895	113.15
181.15975	159.15
185.46741	212.15
189.77193	287.85
194.07331	396.75
198.37157	516.85
202.6667	658.75
206.9587	819.15
211.24758	974.05
215.53334	1132.55
219.81599	1286.75
224.09553	1440.45
228.37195	1591.95
232.64527	1731.05
236.91549	1859.45
241.18261	1978.95
245.44663	2091.55
249.70755	2157.05
253.96539	2216.65
258.22014	2248.95
262.4718	2249.35
266.72039	2227.75
270.96589	2183.85
275.20832	2133.75
279.44768	2059.45
283.68397	1988.65
287.91719	1920.05
292.14735	1861.55
296.37445	1820.95
300.59849	1792.15
304.81948	1777.85
309.03742	1773.15
313.25231	1747.85
317.46415	1712.05
321.67296	1672.45
325.87872	1643.75
330.08145	1617.25
334.28114	1612.05
338.47781	1624.25
342.67145	1633.65
346.86207	1655.25
351.04966	1681.65
355.23424	1714.45
359.4158	1735.75
363.59435	1752.25
367.76989	1761.95
371.94243	1768.75
376.11196	1769.95
380.27849	1773.95
384.44203	1763.85
388.60257	1768.75
392.76012	1779.65
396.91468	1779.55
401.06626	1788.25
405.21485	1803.35
409.36047	1790.75
413.50311	1776.75
417.64277	1769.55
421.77947	1769.55
425.9132	1757.05
430.04396	1771.95
434.17176	1797.95
438.2966	1810.75
442.41849	1835.45
446.53742	1854.55
450.6534	1889.55
454.76644	1913.85
458.87653	1935.85
462.98368	1935.85
467.08789	1919.35
471.18916	1916.65
475.2875	1892.75
479.38291	1882.85
483.4754	1879.15
487.56496	1865.85
491.6516	1876.55
495.73531	1868.45
499.81612	1876.25
503.89401	1884.05
507.96899	1891.15
512.04106	1893.75
516.11023	1885.95
520.1765	1872.25
524.23987	1862.85
528.30034	1852.75
532.35792	1852.15
536.41261	1843.45
540.46441	1829.25
544.51333	1832.45
548.55936	1834.75
552.60252	1834.05
556.64279	1836.95
560.6802	1855.05
564.71473	1851.15
568.7464	1878.85
572.7752	1900.15
576.80114	1898.35
580.82422	1887.55
584.84444	1852.45
588.86181	1840.35
592.87633	1848.25
596.888	1853.95
600.89682	1866.35
604.9028	1907.65
608.90594	2040.55
612.90624	2218.35
616.90371	2259.95
620.89834	2051.05
624.89015	1954.75
628.87913	1931.95
632.86528	1955.75
636.84862	1996.05
640.82913	2031.05
644.80683	2066.15
648.78172	2105.05
652.75379	2128.45
656.72306	2119.45
660.68952	2079.35
664.65319	2069.15
668.61405	2098.95
672.57211	2172.85
676.52738	2349.25
680.47986	2518.25
684.42955	2600.15
688.37646	2519.15
692.32058	2380.75
696.26192	2234.45
700.20048	2161.25
704.13626	2099.25
708.06928	2074.85
711.99952	2028.35
715.927	2008.45
719.85171	2003.65
723.77365	2010.95
727.69284	2033.55
731.60928	2044.45
735.52295	2032.35
739.43388	2007.95
743.34206	1996.15
747.24749	2000.15
751.15017	2021.35
755.05012	2042.95
758.94733	2061.95
762.8418	2086.85
766.73354	2125.05
770.62254	2167.25
774.50882	2183.45
778.39237	2136.75
782.27321	2048.15
786.15132	1966.75
790.02671	1927.95
793.89938	1910.65
797.76935	1910.55
801.6366	1916.05
805.50115	1912.55
809.36299	1931.65
813.22213	1900.45
817.07857	1891.75
820.93231	1868.55
824.78336	1863.25
828.63172	1849.95
832.47738	1846.65
836.32036	1845.15
840.16066	1843.85
843.99827	1843.65
847.8332	1841.45
851.66546	1838.35
855.49504	1841.65
859.32195	1840.45
863.1462	1865.05
866.96777	1878.35
870.78668	1879.65
874.60293	1886.05
878.41652	1860.85
882.22745	1871.75
886.03573	1860.15
889.84136	1862.75
893.64433	1868.75
897.44466	1861.35
901.24235	1866.35
905.0374	1852.95
908.8298	1877.45
912.61957	1887.05
916.40671	1906.85
920.19121	1971.85
923.97308	2013.95
927.75233	2075.15
931.52895	2113.45
935.30295	2131.15
939.07433	2094.55
942.84309	2048.55
946.60924	2006.95
950.37278	1966.25
954.13371	1925.65
957.89203	1898.15
961.64774	1887.05
965.40086	1872.55
969.15137	1846.95
972.89929	1833.35
976.64461	1815.85
980.38733	1786.25
984.12747	1772.05
987.86502	1772.95
991.59999	1758.95
995.33237	1757.65
999.06217	1767.15
1002.78939	1766.85
1006.51404	1778.75
1010.23611	1786.25
1013.95561	1809.75
1017.67255	1813.45
1021.38692	1809.35
1025.09872	1818.75
1028.80796	1827.55
1032.51465	1813.65
1036.21877	1832.95
1039.92035	1849.75
1043.61937	1849.65
1047.31584	1870.05
1051.00976	1878.85
1054.70114	1879.85
1058.38998	1854.35
1062.07627	1832.85
1065.76003	1809.95
1069.44126	1781.45
1073.11995	1756.85
1076.79611	1738.85
1080.46974	1734.75
1084.14085	1721.25
1087.80943	1726.65
1091.47549	1716.15
1095.13903	1709.15
1098.80005	1698.55
1102.45857	1694.45
1106.11456	1684.05
1109.76805	1678.25
1113.41903	1694.05
1117.06751	1704.15
1120.71348	1733.15
1124.35696	1753.55
1127.99793	1775.85
1131.63641	1805.05
1135.2724	1792.65
1138.90589	1779.25
1142.5369	1755.05
1146.16542	1761.75
1149.79145	1744.25
1153.415	1733.95
1157.03607	1725.75
1160.65467	1720.75
1164.27079	1732.55
1167.88443	1740.25
1171.49561	1755.25
1175.10432	1814.35
1178.71056	1878.15
1182.31434	1924.35
1185.91565	1946.35
1189.51451	1924.15
1193.11091	1882.25
1196.70485	1843.85
1200.29634	1820.05
1203.88538	1802.55
1207.47197	1784.05
1211.05612	1765.35
1214.63782	1745.75
1218.21708	1747.35
1221.79391	1744.55
1225.36829	1768.45
1228.94024	1775.25
1232.50976	1780.65
1236.07685	1807.05
1239.6415	1812.25
1243.20374	1817.35
1246.76355	1846.15
1250.32093	1851.95
1253.8759	1867.35
1257.42845	1880.05
1260.97859	1897.75
1264.52631	1913.55
1268.07163	1928.95
1271.61453	1932.55
1275.15503	1936.15
1278.69312	1945.25
1282.22882	1950.65
1285.76211	1965.95
1289.29301	1989.25
1292.82151	2007.55
1296.34761	2048.05
1299.87133	2089.15
1303.39266	2127.95
1306.9116	2214.45
1310.42815	2295.45
1313.94233	2355.35
1317.45412	2351.85
1320.96354	2282.25
1324.47058	2226.75
1327.97525	2177.05
1331.47754	2132.55
1334.97747	2132.95
1338.47502	2169.45
1341.97022	2206.95
1345.46305	2270.25
1348.95352	2361.95
1352.44163	2479.95
1355.92738	2604.65
1359.41078	2769.05
1362.89183	2937.05
1366.37053	2970.35
1369.84688	2811.95
1373.32088	2604.25
1376.79254	2464.45
1380.26186	2358.05
1383.72883	2277.05
1387.19347	2226.15
1390.65578	2185.15
1394.11575	2148.15
1397.57339	2128.75
1401.0287	2112.25
1404.48168	2114.85
1407.93234	2124.25
1411.38068	2159.25
1414.82669	2209.75
1418.27039	2257.85
1421.71177	2286.25
1425.15083	2290.65
1428.58758	2252.45
1432.02203	2193.45
1435.45416	2158.65
1438.88399	2132.95
1442.31151	2092.45
1445.73673	2095.85
1449.15965	2071.15
1452.58027	2068.05
1455.9986	2050.35
1459.41463	2046.95
1462.82837	2040.95
1466.23982	2033.35
1469.64898	2020.85
1473.05586	2020.85
1476.46045	1993.15
1479.86276	1969.15
1483.26279	1963.45
1486.66054	1947.05
1490.05602	1952.65
1493.44922	1946.45
1496.84016	1959.15
1500.22882	2014.75
1503.61521	2084.95
1506.99934	2171.65
1510.38121	2279.75
1513.76081	2330.35
1517.13816	2287.45
1520.51324	2173.55
1523.88607	2052.25
1527.25665	1962.35
1530.62498	1928.05
1533.99105	1908.95
1537.35488	1891.95
1540.71647	1897.25
1544.07581	1897.15
1547.4329	1912.25
1550.78776	1914.05
1554.14038	1924.45
1557.49077	1923.25
1560.83892	1933.95
1564.18484	1946.55
1567.52853	1964.45
1570.86999	1963.85
1574.20922	1954.95
1577.54624	1953.35
1580.88103	1908.45
1584.2136	1859.35
1587.54395	1824.25
1590.87208	1797.45
1594.19801	1800.45
1597.52172	1807.05
1600.84321	1823.65
1604.16251	1811.45
1607.47959	1776.85
1610.79447	1761.15
1614.10715	1738.95
1617.41763	1726.55
1620.7259	1716.45
1624.03199	1715.95
1627.33587	1706.95
1630.63757	1719.15
1633.93707	1736.85
1637.23439	1756.05
1640.52951	1771.15
1643.82246	1816.45
1647.11321	1876.75
1650.40179	1948.35
1653.68819	1940.05
1656.97241	1860.45
1660.25446	1771.55
1663.53433	1680.35
1666.81203	1636.55
1670.08756	1598.05
1673.36092	1581.35
1676.63211	1550.05
1679.90115	1519.45
1683.16801	1484.25
1686.43272	1443.05
1689.69527	1413.75
1692.95567	1370.55
1696.2139	1342.25
1699.46999	1309.35
1702.72392	1286.55
1705.97571	1270.95
1709.22535	1262.35
1712.47284	1266.55
1715.71819	1255.85
1718.96139	1248.35
1722.20246	1257.55
1725.44139	1260.45
1728.67818	1260.15
1731.91284	1266.75
1735.14537	1269.05
1738.37576	1272.45
1741.60403	1282.65
1744.83017	1311.35
1748.05418	1342.55
1751.27607	1376.65
1754.49584	1412.25
1757.71349	1408.65
1760.92903	1372.15
1764.14244	1323.15
1767.35375	1261.45
1770.56294	1207.55
1773.77002	1165.15
1776.97499	1138.75
1780.17785	1111.15
1783.37861	1102.75
1786.57727	1084.35
1789.77382	1063.45
1792.96828	1046.55
1796.16064	1029.05
1799.3509	1018.15
1802.53907	1011.05
1805.72514	1000.05
1808.90913	985.95
1812.09102	979.65
1815.27083	976.65
1818.44856	968.95
1821.6242	964.65
1824.79776	961.95
1827.96924	961.95
1831.13864	957.35
1834.30597	950.75
1837.47122	949.45
1840.6344	952.55
1843.7955	948.55
1846.95454	947.75
1850.11151	946.25
1853.26642	937.05
1856.41926	934.05
1859.57004	940.15
1862.71876	925.95
1865.86542	925.85
1869.01003	930.65
1872.15258	926.65
1875.29308	930.15
1878.43152	923.25
1881.56792	919.55
1884.70227	919.65
1887.83457	915.45
1890.96482	909.65
1894.09304	911.65
1897.21921	915.15
1900.34335	903.05
1903.46544	909.35
1906.58551	899.15
1909.70353	899.75
1912.81953	897.35
1915.93349	894.55
1919.04543	896.95
1922.15534	891.15
1925.26322	888.15
1928.36908	882.35
1931.47292	882.15
1934.57473	886.55
1937.67453	882.15
1940.77232	874.85
1943.86808	873.75
1946.96184	875.45
1950.05358	860.55
1953.14331	859.75
1956.23103	850.35
1959.31675	858.05
1962.40046	851.55
1965.48217	850.45
1968.56188	844.95
1971.63959	847.85
1974.7153	847.05
1977.78901	837.75
1980.86073	833.55
1983.93046	829.95
1986.99819	824.25
1990.06394	826.45
1993.1277	820.55
1996.18947	816.35
1999.24925	814.35
2002.30706	815.05
2005.36288	805.55
2008.41672	802.75
2011.46859	797.95
2014.51848	803.35
2017.56639	802.65
2020.61233	802.55
2023.6563	792.75
2026.6983	789.15
2029.73833	797.45
2032.7764	790.85
2035.8125	777.75
2038.84664	785.35
2041.87881	783.25
2044.90903	777.55
2047.93729	772.75
2050.96359	775.45
2053.98794	776.25
2057.01034	773.85
2060.03078	773.75
2063.04927	763.55
2066.06582	765.95
2069.08042	771.95
2072.09307	769.85
2075.10378	767.95
2078.11255	763.45
2081.11938	770.35
2084.12426	768.55
2087.12722	767.05
2090.12824	764.55
2093.12732	770.95
2096.12447	758.95
2099.11969	770.75
2102.11299	767.05
2105.10435	765.45
2108.09379	769.75
2111.08131	769.85
2114.0669	762.35
2117.05057	766.95
2120.03233	764.05
2123.01216	760.65
2125.99008	759.55
2128.96609	763.95
2131.94018	752.65
2134.91236	760.15
2137.88263	758.15
2140.851	756.15
2143.81746	753.05
2146.78201	756.75
2149.74466	751.65
2152.7054	751.15
2155.66425	748.85
2158.6212	749.75
2161.57625	741.95
2164.52941	752.65
2167.48067	743.05
2170.43004	745.15
2173.37752	742.05
2176.32311	741.95
2179.26681	742.85
2182.20863	744.15
2185.14856	740.95
2188.08661	744.05
2191.02278	737.95
2193.95707	734.75
2196.88948	733.85
2199.82001	736.15
2202.74867	728.85
2205.67545	728.85
2208.60037	730.65
2211.52341	733.15
2214.44458	726.45
2217.36388	725.35
2220.28132	722.05
2223.1969	713.65
2226.11061	716.45
2229.02246	715.25
2231.93245	709.25
2234.84058	703.95
2237.74686	702.75
2240.65128	697.95
2243.55385	709.75
2246.45456	701.05
2249.35343	694.95
2252.25044	698.85
2255.14561	692.95
2258.03893	687.15
2260.93041	693.35
2263.82004	693.75
2266.70783	692.95
2269.59378	684.05
2272.4779	684.25
2275.36017	681.65
2278.24061	677.25
2281.11922	676.05
2283.996	673.85
2286.87094	677.55
2289.74405	670.05
2292.61534	673.65
2295.4848	674.35
2298.35243	673.25
2301.21824	665.25
2304.08223	663.85
2306.94439	669.05
2309.80474	659.65
2312.66327	661.35
2315.51999	669.25
2318.37489	659.65
2321.22797	658.85
2324.07925	652.85
2326.92871	659.05
2329.77637	663.95
2332.62222	662.65
2335.46626	651.75
2338.3085	651.45
2341.14893	649.25
2343.98756	645.35
2346.8244	648.35
2349.65943	639.55
2352.49267	649.35
2355.32411	642.85
2358.15376	645.65
2360.98161	643.55
2363.80768	640.55
2366.63195	641.35
2369.45444	641.25
2372.27514	632.45
2375.09405	636.15
2377.91118	637.65
2380.72652	632.05
2383.54009	628.85
2386.35187	624.85
2389.16188	626.85
2391.97011	620.25
2394.77657	616.35
2397.58125	618.15
2400.38416	619.85
2403.18529	613.85
2405.98466	620.25
2408.78226	621.15
2411.57809	615.95
2414.37216	617.65
2417.16446	612.95
2419.955	612.05
2422.74378	613.85
2425.5308	607.35
2428.31606	609.85
2431.09956	606.05
2433.88131	615.45
2436.6613	612.25
2439.43954	603.25
2442.21603	595.35
2444.99077	605.15
2447.76377	599.05
2450.53501	605.85
2453.30451	600.05
2456.07226	600.35
2458.83827	591.65
2461.60254	596.65
2464.36507	587.85
2467.12586	592.75
2469.88492	595.25
2472.64224	591.45
2475.39782	589.35
2478.15167	598.45
2480.90379	589.85
2483.65417	584.35
2486.40283	588.25
2489.14976	588.35
2491.89497	586.85
2494.63845	593.95
2497.3802	591.15
2500.12024	583.85
2502.85855	579.55
2505.59514	580.75
2508.33002	579.15
2511.06318	579.15
2513.79462	574.75
2516.52435	574.85
2519.25237	575.65
2521.97867	572.95
2524.70327	573.95
2527.42616	569.25
2530.14734	565.35
2532.86681	562.85
2535.58458	567.25
2538.30065	556.15
2541.01501	558.65
2543.72768	559.75
2546.43864	560.95
2549.14791	561.05
2551.85548	556.55
2554.56136	556.65
2557.26554	554.55
2559.96803	557.15
2562.66883	556.35
2565.36794	548.95
2568.06536	546.55
2570.7611	551.45
2573.45514	551.45
2576.14751	542.55
2578.83819	544.15
2581.52719	547.95
2584.21451	544.45
2586.90015	544.05
2589.58411	540.15
2592.2664	538.35
2594.94701	535.35
2597.62594	531.75
2600.30321	534.95
2602.9788	534.15
2605.65273	535.25
2608.32498	534.15
2610.99557	533.25
2613.66449	527.05
2616.33175	529.45
2618.99734	529.35
2621.66128	518.45
2624.32355	525.55
2626.98416	525.15
2629.64311	523.75
2632.30041	525.85
2634.95605	520.95
2637.61004	518.45
2640.26238	523.85
2642.91306	522.35
2645.56209	518.05
2648.20948	517.15
2650.85521	515.05
2653.4993	515.35
2656.14175	520.65
2658.78255	517.25
2661.42171	522.35
2664.05923	522.15
2666.6951	523.85
2669.32934	522.35
2671.96194	521.15
2674.59291	523.15
2677.22224	523.15
2679.84993	525.45
2682.476	521.35
2685.10043	526.05
2687.72324	515.45
2690.34441	518.65
2692.96396	522.05
2695.58188	523.45
2698.19818	526.55
2700.81285	522.35
2703.4259	527.25
2706.03733	518.05
2708.64714	519.95
2711.25533	520.15
2713.86191	521.05
2716.46687	523.15
2719.07021	530.35
2721.67194	521.45
2724.27206	518.85
2726.87057	521.45
2729.46747	521.75
2732.06276	526.75
2734.65644	518.35
2737.24852	524.75
2739.83899	520.35
2742.42786	520.35
2745.01513	517.55
2747.60079	516.75
2750.18486	519.15
2752.76733	515.35
2755.3482	518.35
2757.92747	518.05
2760.50515	514.65
2763.08123	515.45
2765.65573	513.75
2768.22863	512.95
2770.79994	511.65
2773.36967	521.15
2775.9378	512.25
2778.50435	511.25
2781.06932	513.45
2783.6327	512.75
2786.1945	520.85
2788.75471	517.45
2791.31335	516.75
2793.87041	516.45
2796.42589	514.95
2798.97979	521.75
2801.53212	524.55
2804.08288	525.25
2806.63206	524.55
2809.17967	526.85
2811.72571	527.95
2814.27018	530.65
2816.81308	534.65
2819.35442	531.25
2821.89419	535.15
2824.43239	537.55
2826.96904	540.25
2829.50412	538.85
2832.03763	537.15
2834.56959	543.85
2837.1	546.35
2839.62884	536.95
2842.15613	547.15
2844.68186	551.05
2847.20604	555.35
2849.72867	558.85
2852.24974	555.95
2854.76927	556.15
2857.28724	561.55
2859.80367	556.95
2862.31855	559.55
2864.83189	563.65
2867.34368	568.35
2869.85393	570.45
2872.36264	576.15
2874.8698	578.85
2877.37543	585.05
2879.87952	593.05
2882.38207	602.85
2884.88308	610.95
2887.38256	620.05
2889.88051	623.95
2892.37692	635.25
2894.8718	640.65
2897.36515	647.35
2899.85698	660.75
2902.34727	672.35
2904.83604	684.05
2907.32328	693.75
2909.809	707.35
2912.29319	725.35
2914.77587	731.55
2917.25702	746.55
2919.73665	758.05
2922.21476	769.75
2924.69136	780.65
2927.16644	781.95
2929.64	798.75
2932.11205	810.85
2934.58258	811.95
2937.05161	825.45
2939.51912	824.15
2941.98513	827.15
2944.44962	828.25
2946.91261	827.05
2949.37409	823.85
2951.83407	818.05
2954.29254	807.15
2956.74951	794.85
2959.20498	778.55
2961.65895	756.25
2964.11142	747.45
2966.56239	725.15
2969.01186	711.55
2971.45984	695.25
2973.90632	676.85
2976.35131	662.55
2978.7948	655.35
2981.23681	643.15
2983.67732	630.85
2986.11635	627.15
2988.55388	624.75
2990.98993	619.75
2993.4245	617.55
2995.85758	608.65
2998.28917	611.45
3000.71928	618.55
3003.14791	612.45
3005.57506	617.15
3008.00073	611.95
3010.42493	607.15
3012.84764	605.65
3015.26888	609.25
3017.68865	606.05
3020.10694	593.85
3022.52376	591.15
3024.9391	587.85
3027.35298	584.55
3029.76539	577.45
3032.17632	570.05
3034.5858	568.75
3036.9938	560.95
3039.40034	553.15
3041.80542	553.75
3044.20903	548.95
3046.61118	544.75
3049.01187	538.25
3051.4111	538.55
3053.80888	535.35
3056.20519	541.25
3058.60005	535.75
3060.99345	535.45
3063.3854	534.65
3065.7759	530.75
3068.16494	535.15
3070.55254	532.85
3072.93868	539.15
3075.32338	541.05
3077.70662	534.25
3080.08842	536.45
3082.46878	541.95
3084.84769	543.85
3087.22515	543.05
3089.60118	547.25
3091.97576	548.55
3094.3489	548.55
3096.72061	552.15
3099.09087	554.15
3101.4597	565.05
3103.82709	567.25
3106.19305	568.05
3108.55757	566.85
3110.92066	567.45
3113.28232	573.45
3115.64255	578.45
3118.00134	577.65
3120.35871	580.25
3122.71466	586.15
3125.06917	594.95
3127.42226	588.75
3129.77393	595.85
3132.12417	598.45
3134.47299	606.45
3136.82039	606.35
3139.16636	613.85
3141.51092	612.55
3143.85406	620.65
3146.19579	625.55
3148.53609	627.55
3150.87499	633.25
3153.21246	637.95
3155.54853	640.35
3157.88318	651.75
3160.21642	648.25
3162.54826	656.55
3164.87868	663.15
3167.2077	663.05
3169.5353	669.55
3171.86151	674.55
3174.18631	682.75
3176.5097	685.55
3178.83169	682.45
3181.15228	688.25
3183.47147	688.05
3185.78926	692.35
3188.10565	695.65
3190.42065	707.95
3192.73424	704.45
3195.04645	711.65
3197.35725	710.85
3199.66667	720.15
3201.97469	721.95
3204.28132	720.45
3206.58656	733.55
3208.8904	736.15
3211.19287	736.55
3213.49394	733.75
3215.79363	737.45
3218.09193	744.25
3220.38884	739.45
3222.68438	742.35
3224.97853	747.95
3227.2713	752.65
3229.56269	752.95
3231.8527	753.55
3234.14133	751.65
3236.42858	749.35
3238.71446	759.65
3240.99896	757.45
3243.28209	752.95
3245.56384	760.45
3247.84423	761.15
3250.12324	755.65
3252.40088	759.95
3254.67715	766.75
3256.95205	760.35
3259.22558	774.65
3261.49775	757.95
3263.76855	753.95
3266.03799	763.55
3268.30606	762.25
3270.57277	753.85
3272.83812	762.25
3275.10211	762.75
3277.36474	761.85
3279.62601	757.75
3281.88593	762.55
3284.14448	770.05
3286.40168	768.85
3288.65753	751.55
3290.91202	760.05
3293.16516	762.15
3295.41695	755.55
3297.66738	750.95
3299.91647	754.15
3302.16421	745.65
3304.4106	750.65
3306.65564	745.75
3308.89933	737.45
3311.14169	734.15
3313.38269	734.65
3315.62236	734.95
3317.86068	730.75
3320.09766	730.05
3322.3333	721.75
3324.5676	723.55
3326.80056	705.45
3329.03219	705.75
3331.26248	-0.65
3333.49143	-0.55
3335.71905	0.45
