Data from AgNPs_FTO_APTES_UA_0um_CRN_0.1mM_R6G_10uM_NaF_0.1M_Addition_RamanShift__55__11-15-28-962.txt Node

Date: Tue Dec 21 11:15:28 GMT 2021
User: TCL
Spectrometer: QEP01345
Trigger mode: 4
Integration Time (sec): 7.000000E0
Scans to average: 10
Electric dark correction enabled: true
Nonlinearity correction enabled: false
Boxcar width: 0
XAxis mode: Raman Shifts
Number of Pixels in Spectrum: 1044
>>>>>Begin Spectral Data<<<<<
46.04893	0.775
50.45542	-1.925
54.85868	-1.025
59.25871	-0.425
63.6555	51.675
68.04907	55.975
72.43941	59.475
76.82654	57.975
81.21044	62.975
85.59113	64.875
89.96862	67.675
94.34289	67.775
98.71396	69.875
103.08183	73.275
107.4465	76.175
111.80798	79.675
116.16626	77.475
120.52136	82.775
124.87327	88.375
129.222	85.475
133.56755	97.175
137.90993	104.775
142.24913	113.575
146.58517	128.275
150.91804	150.575
155.24774	181.475
159.57429	225.175
163.89768	293.575
168.21792	386.475
172.53501	522.175
176.84895	728.975
181.15975	1022.275
185.46741	1425.675
189.77193	1964.975
194.07331	2613.075
198.37157	3357.575
202.6667	4156.775
206.9587	4926.375
211.24758	5721.975
215.53334	6520.375
219.81599	7364.175
224.09553	8259.575
228.37195	9318.175
232.64527	10406.575
236.91549	11555.675
241.18261	12665.675
245.44663	13718.275
249.70755	14635.675
253.96539	15438.575
258.22014	16114.875
262.4718	16692.475
266.72039	17107.475
270.96589	17286.175
275.20832	17346.375
279.44768	17295.275
283.68397	17236.175
287.91719	17288.675
292.14735	17261.175
296.37445	17273.175
300.59849	17262.975
304.81948	17275.975
309.03742	17215.275
313.25231	16975.075
317.46415	16547.875
321.67296	16019.975
325.87872	15539.575
330.08145	15313.675
334.28114	15281.075
338.47781	15366.875
342.67145	15540.175
346.86207	15769.875
351.04966	16084.875
355.23424	16464.075
359.4158	16792.575
363.59435	16952.375
367.76989	17040.975
371.94243	17099.675
376.11196	17126.575
380.27849	17224.675
384.44203	17345.175
388.60257	17483.975
392.76012	17654.875
396.91468	17924.875
401.06626	18276.475
405.21485	18529.575
409.36047	18505.275
413.50311	18265.975
417.64277	18149.675
421.77947	18222.075
425.9132	18424.675
430.04396	18650.775
434.17176	18891.175
438.2966	19163.275
442.41849	19649.875
446.53742	20548.175
450.6534	21537.375
454.76644	22217.475
458.87653	22223.375
462.98368	21769.075
467.08789	21144.275
471.18916	20648.175
475.2875	20301.775
479.38291	20256.475
483.4754	20314.175
487.56496	20141.075
491.6516	19714.575
495.73531	19243.375
499.81612	18946.475
503.89401	18920.375
507.96899	18909.075
512.04106	18660.575
516.11023	18221.375
520.1765	17784.175
524.23987	17471.075
528.30034	17348.575
532.35792	17229.275
536.41261	16975.375
540.46441	16645.175
544.51333	16545.075
548.55936	16782.075
552.60252	17308.375
556.64279	18018.975
560.6802	18639.075
564.71473	19078.375
568.7464	19695.375
572.7752	20518.375
576.80114	21103.475
580.82422	21576.275
584.84444	22013.375
588.86181	22938.075
592.87633	24116.575
596.888	24878.475
600.89682	24411.775
604.9028	23951.575
608.90594	24756.775
612.90624	25782.875
616.90371	23552.175
620.89834	19210.375
624.89015	17348.875
628.87913	17278.775
632.86528	17519.175
636.84862	17482.775
640.82913	17132.775
644.80683	16530.175
648.78172	16015.875
652.75379	15801.375
656.72306	15911.475
660.68952	16146.475
664.65319	16106.175
668.61405	15826.175
672.57211	15734.375
676.52738	15759.175
680.47986	15772.975
684.42955	15675.975
688.37646	15550.875
692.32058	15598.175
696.26192	15745.875
700.20048	16008.375
704.13626	16227.475
708.06928	16276.475
711.99952	16141.775
715.927	16029.375
719.85171	16012.875
723.77365	15972.775
727.69284	15785.575
731.60928	15606.975
735.52295	15632.175
739.43388	15654.675
743.34206	15746.775
747.24749	15829.575
751.15017	16091.575
755.05012	16499.875
758.94733	17214.875
762.8418	18346.075
766.73354	20111.275
770.62254	21683.475
774.50882	21680.275
778.39237	20209.375
782.27321	18338.475
786.15132	16870.175
790.02671	16031.275
793.89938	15585.175
797.76935	15426.675
801.6366	15425.475
805.50115	15441.775
809.36299	15372.975
813.22213	15195.075
817.07857	15084.075
820.93231	14998.775
824.78336	14889.375
828.63172	14815.875
832.47738	14761.075
836.32036	14784.875
840.16066	14803.175
843.99827	14795.575
847.8332	14724.875
851.66546	14657.675
855.49504	14623.475
859.32195	14610.675
863.1462	14565.975
866.96777	14479.775
870.78668	14443.875
874.60293	14407.975
878.41652	14416.875
882.22745	14476.575
886.03573	14544.275
889.84136	14524.075
893.64433	14497.175
897.44466	14419.375
901.24235	14352.175
905.0374	14244.575
908.8298	14137.275
912.61957	14134.475
916.40671	14278.375
920.19121	14587.775
923.97308	14859.275
927.75233	14946.875
931.52895	14811.575
935.30295	14490.275
939.07433	14105.475
942.84309	13792.075
946.60924	13600.575
950.37278	13565.375
954.13371	13556.775
957.89203	13515.875
961.64774	13483.475
965.40086	13460.075
969.15137	13410.475
972.89929	13277.275
976.64461	13178.575
980.38733	13147.375
984.12747	13159.575
987.86502	13286.675
991.59999	13459.475
995.33237	13799.075
999.06217	14355.875
1002.78939	15179.875
1006.51404	15785.375
1010.23611	16108.675
1013.95561	16277.375
1017.67255	16248.775
1021.38692	15829.275
1025.09872	15338.075
1028.80796	15144.675
1032.51465	15341.575
1036.21877	15644.875
1039.92035	15719.075
1043.61937	15605.775
1047.31584	15341.875
1051.00976	15028.575
1054.70114	14895.875
1058.38998	14871.875
1062.07627	14993.775
1065.76003	15111.175
1069.44126	15344.475
1073.11995	15676.675
1076.79611	15925.875
1080.46974	16012.175
1084.14085	16141.675
1087.80943	16421.875
1091.47549	16743.475
1095.13903	16829.675
1098.80005	16559.675
1102.45857	15990.975
1106.11456	15509.575
1109.76805	15326.875
1113.41903	15325.875
1117.06751	15510.975
1120.71348	15762.375
1124.35696	15950.375
1127.99793	16209.175
1131.63641	16388.975
1135.2724	16327.675
1138.90589	16261.675
1142.5369	16299.375
1146.16542	16402.975
1149.79145	16630.175
1153.415	16879.975
1157.03607	17251.975
1160.65467	17914.375
1164.27079	18957.975
1167.88443	20542.375
1171.49561	22506.675
1175.10432	25060.375
1178.71056	28168.175
1182.31434	30868.075
1185.91565	32146.475
1189.51451	31776.175
1193.11091	30581.575
1196.70485	29119.775
1200.29634	27490.175
1203.88538	26046.775
1207.47197	25056.875
1211.05612	24295.275
1214.63782	23712.075
1218.21708	23368.275
1221.79391	23321.475
1225.36829	23275.275
1228.94024	22854.775
1232.50976	21962.875
1236.07685	21091.075
1239.6415	20545.975
1243.20374	20359.575
1246.76355	20402.275
1250.32093	20683.475
1253.8759	21244.575
1257.42845	22046.775
1260.97859	22843.775
1264.52631	23614.275
1268.07163	24475.875
1271.61453	25416.575
1275.15503	26434.175
1278.69312	27509.775
1282.22882	28565.175
1285.76211	29823.075
1289.29301	31279.075
1292.82151	33062.775
1296.34761	35352.975
1299.87133	38050.575
1303.39266	40996.175
1306.9116	44138.575
1310.42815	47355.775
1313.94233	49825.075
1317.45412	50667.575
1320.96354	50082.875
1324.47058	49041.575
1327.97525	47978.875
1331.47754	46943.575
1334.97747	46298.975
1338.47502	45743.875
1341.97022	44875.275
1345.46305	43233.175
1348.95352	41445.175
1352.44163	40268.175
1355.92738	40557.875
1359.41078	42135.475
1362.89183	43950.075
1366.37053	44121.275
1369.84688	41425.075
1373.32088	36840.875
1376.79254	32977.275
1380.26186	31324.375
1383.72883	31200.975
1387.19347	31368.175
1390.65578	31405.875
1394.11575	32020.375
1397.57339	33403.775
1401.0287	35273.375
1404.48168	36960.875
1407.93234	37751.675
1411.38068	37471.675
1414.82669	36020.975
1418.27039	33697.175
1421.71177	31087.775
1425.15083	28806.275
1428.58758	27449.575
1432.02203	27183.275
1435.45416	27730.375
1438.88399	28769.375
1442.31151	29911.675
1445.73673	30937.175
1449.15965	31925.375
1452.58027	32575.775
1455.9986	32624.275
1459.41463	32762.475
1462.82837	33262.775
1466.23982	34306.175
1469.64898	35338.875
1473.05586	35807.675
1476.46045	35832.275
1479.86276	35549.875
1483.26279	34956.475
1486.66054	34396.275
1490.05602	34078.875
1493.44922	33817.375
1496.84016	33170.375
1500.22882	32482.875
1503.61521	32153.975
1506.99934	32365.275
1510.38121	32804.975
1513.76081	32928.375
1517.13816	32424.075
1520.51324	31407.075
1523.88607	30532.075
1527.25665	30164.175
1530.62498	30161.875
1533.99105	30365.875
1537.35488	30484.275
1540.71647	30256.275
1544.07581	29721.775
1547.4329	28803.975
1550.78776	27872.075
1554.14038	27104.175
1557.49077	26609.175
1560.83892	26369.075
1564.18484	26327.375
1567.52853	26272.575
1570.86999	26354.675
1574.20922	26766.675
1577.54624	27253.275
1580.88103	27497.575
1584.2136	27943.475
1587.54395	29272.975
1590.87208	31673.275
1594.19801	34966.975
1597.52172	38392.975
1600.84321	40195.075
1604.16251	38715.575
1607.47959	34795.675
1610.79447	30071.775
1614.10715	25834.175
1617.41763	22604.475
1620.7259	20599.675
1624.03199	19548.675
1627.33587	19376.475
1630.63757	20109.075
1633.93707	21853.175
1637.23439	24916.875
1640.52951	29586.175
1643.82246	35374.075
1647.11321	40439.575
1650.40179	41984.175
1653.68819	38883.375
1656.97241	32740.875
1660.25446	26452.175
1663.53433	21622.175
1666.81203	18462.475
1670.08756	16520.175
1673.36092	15307.975
1676.63211	14586.275
1679.90115	14079.175
1683.16801	13670.875
1686.43272	13409.075
1689.69527	13184.075
1692.95567	13019.375
1696.2139	12932.375
1699.46999	12846.975
1702.72392	12748.575
1705.97571	12672.875
1709.22535	12612.975
1712.47284	12560.975
1715.71819	12513.875
1718.96139	12471.375
1722.20246	12400.975
1725.44139	12306.175
1728.67818	12218.975
1731.91284	12149.175
1735.14537	12066.075
1738.37576	12018.475
1741.60403	11971.275
1744.83017	11932.775
1748.05418	11927.375
1751.27607	11885.075
1754.49584	11876.775
1757.71349	11853.675
1760.92903	11828.575
1764.14244	11799.675
1767.35375	11772.275
1770.56294	11721.675
1773.77002	11678.275
1776.97499	11647.275
1780.17785	11593.975
1783.37861	11583.675
1786.57727	11553.275
1789.77382	11513.675
1792.96828	11462.775
1796.16064	11435.475
1799.3509	11406.975
1802.53907	11382.075
1805.72514	11359.375
1808.90913	11313.375
1812.09102	11280.575
1815.27083	11257.875
1818.44856	11219.775
1821.6242	11197.375
1824.79776	11191.475
1827.96924	11177.775
1831.13864	11156.175
1834.30597	11153.475
1837.47122	11152.675
1840.6344	11149.475
1843.7955	11159.375
1846.95454	11157.675
1850.11151	11167.775
1853.26642	11175.175
1856.41926	11193.075
1859.57004	11196.075
1862.71876	11175.875
1865.86542	11159.875
1869.01003	11164.375
1872.15258	11171.375
1875.29308	11189.775
1878.43152	11164.775
1881.56792	11161.875
1884.70227	11160.275
1887.83457	11194.575
1890.96482	11183.175
1894.09304	11168.875
1897.21921	11204.775
1900.34335	11196.075
1903.46544	11218.275
1906.58551	11193.575
1909.70353	11191.075
1912.81953	11172.475
1915.93349	11129.575
1919.04543	11104.875
1922.15534	11050.875
1925.26322	11007.575
1928.36908	10965.775
1931.47292	10911.575
1934.57473	10869.575
1937.67453	10816.875
1940.77232	10798.675
1943.86808	10772.875
1946.96184	10708.575
1950.05358	10683.675
1953.14331	10626.575
1956.23103	10573.475
1959.31675	10535.875
1962.40046	10504.175
1965.48217	10470.675
1968.56188	10430.675
1971.63959	10377.775
1974.7153	10365.275
1977.78901	10303.975
1980.86073	10281.675
1983.93046	10267.475
1986.99819	10202.075
1990.06394	10174.875
1993.1277	10157.175
1996.18947	10123.575
1999.24925	10086.075
2002.30706	10054.775
2005.36288	9999.475
2008.41672	10017.675
2011.46859	9962.775
2014.51848	9930.475
2017.56639	9908.175
2020.61233	9883.275
2023.6563	9890.875
2026.6983	9863.975
2029.73833	9838.275
2032.7764	9829.475
2035.8125	9804.175
2038.84664	9786.675
2041.87881	9783.475
2044.90903	9738.375
2047.93729	9731.875
2050.96359	9750.475
2053.98794	9734.075
2057.01034	9716.275
2060.03078	9710.575
2063.04927	9690.975
2066.06582	9681.575
2069.08042	9674.875
2072.09307	9662.875
2075.10378	9638.175
2078.11255	9645.475
2081.11938	9617.375
2084.12426	9644.675
2087.12722	9611.575
2090.12824	9590.175
2093.12732	9608.475
2096.12447	9611.575
2099.11969	9592.075
2102.11299	9580.275
2105.10435	9592.875
2108.09379	9609.675
2111.08131	9572.575
2114.0669	9596.275
2117.05057	9582.775
2120.03233	9560.975
2123.01216	9575.375
2125.99008	9568.575
2128.96609	9562.775
2131.94018	9558.175
2134.91236	9583.075
2137.88263	9566.575
2140.851	9577.475
2143.81746	9580.075
2146.78201	9582.775
2149.74466	9577.975
2152.7054	9576.175
2155.66425	9537.875
2158.6212	9536.675
2161.57625	9558.375
2164.52941	9579.275
2167.48067	9542.975
2170.43004	9541.975
2173.37752	9539.075
2176.32311	9544.975
2179.26681	9540.575
2182.20863	9527.375
2185.14856	9544.275
2188.08661	9530.375
2191.02278	9535.375
2193.95707	9511.375
2196.88948	9521.975
2199.82001	9529.075
2202.74867	9518.675
2205.67545	9493.575
2208.60037	9497.075
2211.52341	9469.975
2214.44458	9474.175
2217.36388	9444.975
2220.28132	9424.975
2223.1969	9408.075
2226.11061	9393.575
2229.02246	9382.675
2231.93245	9365.375
2234.84058	9344.675
2237.74686	9348.175
2240.65128	9311.975
2243.55385	9303.775
2246.45456	9300.175
2249.35343	9274.375
2252.25044	9252.675
2255.14561	9207.675
2258.03893	9228.275
2260.93041	9195.575
2263.82004	9153.875
2266.70783	9119.075
2269.59378	9097.075
2272.4779	9053.775
2275.36017	9029.775
2278.24061	8994.375
2281.11922	9001.875
2283.996	9011.275
2286.87094	9004.375
2289.74405	8963.675
2292.61534	8959.275
2295.4848	8959.475
2298.35243	8967.875
2301.21824	8940.475
2304.08223	8959.375
2306.94439	8960.775
2309.80474	8943.575
2312.66327	8939.375
2315.51999	8943.075
2318.37489	8936.575
2321.22797	8929.175
2324.07925	8918.375
2326.92871	8919.175
2329.77637	8919.475
2332.62222	8914.075
2335.46626	8902.675
2338.3085	8914.475
2341.14893	8914.275
2343.98756	8903.675
2346.8244	8927.375
2349.65943	8901.275
2352.49267	8904.875
2355.32411	8915.575
2358.15376	8901.975
2360.98161	8899.575
2363.80768	8873.975
2366.63195	8893.375
2369.45444	8865.175
2372.27514	8859.775
2375.09405	8818.175
2377.91118	8808.875
2380.72652	8793.975
2383.54009	8765.175
2386.35187	8757.575
2389.16188	8710.675
2391.97011	8711.775
2394.77657	8701.675
2397.58125	8688.675
2400.38416	8673.375
2403.18529	8672.475
2405.98466	8654.275
2408.78226	8640.375
2411.57809	8624.275
2414.37216	8589.075
2417.16446	8609.275
2419.955	8578.675
2422.74378	8575.775
2425.5308	8563.075
2428.31606	8553.375
2431.09956	8549.775
2433.88131	8528.575
2436.6613	8530.575
2439.43954	8537.475
2442.21603	8518.775
2444.99077	8537.575
2447.76377	8551.975
2450.53501	8542.575
2453.30451	8523.675
2456.07226	8512.575
2458.83827	8536.875
2461.60254	8541.275
2464.36507	8553.875
2467.12586	8537.975
2469.88492	8545.275
2472.64224	8551.275
2475.39782	8541.375
2478.15167	8589.975
2480.90379	8574.275
2483.65417	8585.275
2486.40283	8575.475
2489.14976	8591.075
2491.89497	8592.575
2494.63845	8617.975
2497.3802	8634.075
2500.12024	8623.075
2502.85855	8620.175
2505.59514	8603.675
2508.33002	8580.275
2511.06318	8567.875
2513.79462	8555.475
2516.52435	8566.875
2519.25237	8544.675
2521.97867	8562.775
2524.70327	8543.175
2527.42616	8541.175
2530.14734	8526.375
2532.86681	8525.175
2535.58458	8511.575
2538.30065	8503.175
2541.01501	8498.775
2543.72768	8497.175
2546.43864	8501.775
2549.14791	8496.275
2551.85548	8486.375
2554.56136	8479.675
2557.26554	8465.275
2559.96803	8467.075
2562.66883	8478.175
2565.36794	8472.275
2568.06536	8473.775
2570.7611	8470.875
2573.45514	8462.675
2576.14751	8480.975
2578.83819	8470.775
2581.52719	8450.575
2584.21451	8485.475
2586.90015	8466.875
2589.58411	8471.475
2592.2664	8480.675
2594.94701	8455.175
2597.62594	8501.575
2600.30321	8450.675
2602.9788	8466.175
2605.65273	8464.775
2608.32498	8493.675
2610.99557	8486.275
2613.66449	8492.075
2616.33175	8484.375
2618.99734	8512.075
2621.66128	8500.475
2624.32355	8521.475
2626.98416	8513.475
2629.64311	8539.375
2632.30041	8527.775
2634.95605	8523.875
2637.61004	8516.275
2640.26238	8524.075
2642.91306	8511.875
2645.56209	8517.275
2648.20948	8491.775
2650.85521	8511.275
2653.4993	8489.975
2656.14175	8502.475
2658.78255	8495.375
2661.42171	8520.275
2664.05923	8540.275
2666.6951	8535.475
2669.32934	8524.575
2671.96194	8527.675
2674.59291	8544.775
2677.22224	8539.875
2679.84993	8526.575
2682.476	8525.275
2685.10043	8503.275
2687.72324	8494.675
2690.34441	8506.775
2692.96396	8505.575
2695.58188	8515.275
2698.19818	8494.875
2700.81285	8506.975
2703.4259	8507.075
2706.03733	8559.675
2708.64714	8526.475
2711.25533	8528.675
2713.86191	8537.475
2716.46687	8541.475
2719.07021	8547.775
2721.67194	8569.675
2724.27206	8538.775
2726.87057	8545.275
2729.46747	8563.575
2732.06276	8603.775
2734.65644	8553.475
2737.24852	8586.875
2739.83899	8576.275
2742.42786	8584.575
2745.01513	8572.375
2747.60079	8553.075
2750.18486	8589.475
2752.76733	8544.375
2755.3482	8564.775
2757.92747	8617.375
2760.50515	8578.575
2763.08123	8592.375
2765.65573	8602.775
2768.22863	8612.275
2770.79994	8636.375
2773.36967	8630.375
2775.9378	8643.775
2778.50435	8641.875
2781.06932	8641.775
2783.6327	8634.475
2786.1945	8659.875
2788.75471	8658.775
2791.31335	8639.475
2793.87041	8617.975
2796.42589	8570.675
2798.97979	8614.975
2801.53212	8586.675
2804.08288	8591.075
2806.63206	8583.375
2809.17967	8569.175
2811.72571	8548.475
2814.27018	8564.275
2816.81308	8528.075
2819.35442	8511.475
2821.89419	8517.775
2824.43239	8509.575
2826.96904	8511.575
2829.50412	8502.975
2832.03763	8467.875
2834.56959	8466.475
2837.1	8459.175
2839.62884	8446.575
2842.15613	8427.275
2844.68186	8462.675
2847.20604	8471.075
2849.72867	8458.775
2852.24974	8459.575
2854.76927	8448.575
2857.28724	8451.775
2859.80367	8421.575
2862.31855	8412.075
2864.83189	8422.875
2867.34368	8403.875
2869.85393	8424.575
2872.36264	8406.975
2874.8698	8418.575
2877.37543	8422.275
2879.87952	8404.075
2882.38207	8417.675
2884.88308	8427.375
2887.38256	8432.075
2889.88051	8422.975
2892.37692	8446.575
2894.8718	8418.275
2897.36515	8452.875
2899.85698	8469.775
2902.34727	8490.975
2904.83604	8504.275
2907.32328	8521.575
2909.809	8526.775
2912.29319	8513.175
2914.77587	8530.175
2917.25702	8552.175
2919.73665	8535.375
2922.21476	8537.675
2924.69136	8506.475
2927.16644	8537.075
2929.64	8504.675
2932.11205	8480.675
2934.58258	8475.575
2937.05161	8497.175
2939.51912	8494.275
2941.98513	8480.775
2944.44962	8451.575
2946.91261	8435.675
2949.37409	8424.075
2951.83407	8418.575
2954.29254	8422.375
2956.74951	8419.275
2959.20498	8391.675
2961.65895	8371.475
2964.11142	8361.875
2966.56239	8318.575
2969.01186	8315.375
2971.45984	8278.075
2973.90632	8256.775
2976.35131	8214.375
2978.7948	8202.275
2981.23681	8156.775
2983.67732	8133.475
2986.11635	8131.175
2988.55388	8087.275
2990.98993	8080.775
2993.4245	8056.275
2995.85758	8032.175
2998.28917	8024.175
3000.71928	8002.675
3003.14791	7986.975
3005.57506	7984.675
3008.00073	7969.475
3010.42493	7948.675
3012.84764	7933.275
3015.26888	7914.875
3017.68865	7887.575
3020.10694	7888.475
3022.52376	7857.275
3024.9391	7847.475
3027.35298	7816.175
3029.76539	7810.375
3032.17632	7818.975
3034.5858	7773.975
3036.9938	7791.675
3039.40034	7794.375
3041.80542	7785.775
3044.20903	7777.275
3046.61118	7773.775
3049.01187	7744.975
3051.4111	7747.675
3053.80888	7718.275
3056.20519	7707.175
3058.60005	7679.975
3060.99345	7667.275
3063.3854	7636.375
3065.7759	7598.075
3068.16494	7588.575
3070.55254	7551.375
3072.93868	7547.675
3075.32338	7514.175
3077.70662	7491.575
3080.08842	7471.275
3082.46878	7464.475
3084.84769	7431.275
3087.22515	7447.675
3089.60118	7421.475
3091.97576	7441.075
3094.3489	7433.575
3096.72061	7423.675
3099.09087	7429.275
3101.4597	7392.475
3103.82709	7415.475
3106.19305	7360.075
3108.55757	7351.275
3110.92066	7323.675
3113.28232	7315.975
3115.64255	7300.875
3118.00134	7279.075
3120.35871	7269.075
3122.71466	7264.275
3125.06917	7234.575
3127.42226	7236.175
3129.77393	7223.775
3132.12417	7234.375
3134.47299	7208.575
3136.82039	7204.075
3139.16636	7188.475
3141.51092	7194.475
3143.85406	7177.175
3146.19579	7168.875
3148.53609	7169.875
3150.87499	7186.175
3153.21246	7173.275
3155.54853	7175.375
3157.88318	7149.775
3160.21642	7159.975
3162.54826	7141.275
3164.87868	7156.175
3167.2077	7147.175
3169.5353	7147.275
3171.86151	7131.475
3174.18631	7144.675
3176.5097	7127.775
3178.83169	7126.975
