Data from AgNPs_FTO_APTES_UA_2um_CRN_0.1mM_R6G_10uM_NaF_0.1M_Addition_RamanShift__23__12-41-49-060.txt Node

Date: Tue Dec 21 12:41:49 GMT 2021
User: TCL
Spectrometer: QEP01345
Trigger mode: 4
Integration Time (sec): 7.000000E0
Scans to average: 10
Electric dark correction enabled: true
Nonlinearity correction enabled: false
Boxcar width: 0
XAxis mode: Raman Shifts
Number of Pixels in Spectrum: 1044
>>>>>Begin Spectral Data<<<<<
46.04893	-1.6875
50.45542	-0.3875
54.85868	-0.6875
59.25871	0.4125
63.6555	49.9125
68.04907	58.1125
72.43941	61.7125
76.82654	61.3125
81.21044	68.1125
85.59113	65.9125
89.96862	72.6125
94.34289	72.8125
98.71396	73.9125
103.08183	78.4125
107.4465	81.7125
111.80798	82.0125
116.16626	82.6125
120.52136	84.5125
124.87327	89.0125
129.222	91.8125
133.56755	98.8125
137.90993	110.4125
142.24913	114.2125
146.58517	134.4125
150.91804	150.8125
155.24774	180.6125
159.57429	220.2125
163.89768	285.4125
168.21792	372.1125
172.53501	502.6125
176.84895	703.7125
181.15975	982.6125
185.46741	1368.6125
189.77193	1889.6125
194.07331	2526.8125
198.37157	3247.5125
202.6667	4024.9125
206.9587	4808.0125
211.24758	5588.5125
215.53334	6362.5125
219.81599	7188.0125
224.09553	8094.5125
228.37195	9106.7125
232.64527	10211.0125
236.91549	11350.0125
241.18261	12470.8125
245.44663	13556.0125
249.70755	14471.4125
253.96539	15296.3125
258.22014	15961.2125
262.4718	16477.3125
266.72039	16877.1125
270.96589	17056.5125
275.20832	17113.7125
279.44768	16997.3125
283.68397	16897.2125
287.91719	16839.3125
292.14735	16777.0125
296.37445	16743.2125
300.59849	16796.5125
304.81948	16850.0125
309.03742	16803.9125
313.25231	16611.4125
317.46415	16222.0125
321.67296	15715.3125
325.87872	15367.9125
330.08145	15163.2125
334.28114	15153.8125
338.47781	15247.1125
342.67145	15455.2125
346.86207	15722.1125
351.04966	16009.7125
355.23424	16375.5125
359.4158	16694.6125
363.59435	16925.9125
367.76989	17066.0125
371.94243	17148.7125
376.11196	17213.7125
380.27849	17265.8125
384.44203	17411.1125
388.60257	17514.6125
392.76012	17702.8125
396.91468	17938.3125
401.06626	18230.1125
405.21485	18454.6125
409.36047	18420.0125
413.50311	18222.2125
417.64277	18024.6125
421.77947	18064.8125
425.9132	18190.2125
430.04396	18401.6125
434.17176	18642.4125
438.2966	18899.2125
442.41849	19392.3125
446.53742	20205.1125
450.6534	21125.9125
454.76644	21775.0125
458.87653	21841.7125
462.98368	21455.2125
467.08789	20924.2125
471.18916	20396.3125
475.2875	20085.8125
479.38291	19944.7125
483.4754	19917.0125
487.56496	19657.7125
491.6516	19300.8125
495.73531	18857.2125
499.81612	18645.3125
503.89401	18681.3125
507.96899	18678.3125
512.04106	18510.3125
516.11023	18222.3125
520.1765	17914.8125
524.23987	17776.1125
528.30034	17705.5125
532.35792	17619.4125
536.41261	17407.5125
540.46441	17140.0125
544.51333	17017.8125
548.55936	17135.8125
552.60252	17550.9125
556.64279	18098.5125
560.6802	18627.2125
564.71473	19003.3125
568.7464	19404.7125
572.7752	20018.1125
576.80114	20409.7125
580.82422	20676.4125
584.84444	21113.7125
588.86181	21820.4125
592.87633	22886.6125
596.888	23543.4125
600.89682	23199.4125
604.9028	22990.4125
608.90594	24165.1125
612.90624	25485.9125
616.90371	23517.1125
620.89834	19447.9125
624.89015	17624.6125
628.87913	17450.5125
632.86528	17663.2125
636.84862	17672.4125
640.82913	17379.7125
644.80683	16845.0125
648.78172	16393.1125
652.75379	16242.0125
656.72306	16338.5125
660.68952	16612.4125
664.65319	16545.5125
668.61405	16332.3125
672.57211	16337.5125
676.52738	16416.2125
680.47986	16379.8125
684.42955	16256.2125
688.37646	16090.4125
692.32058	16087.0125
696.26192	16229.3125
700.20048	16409.2125
704.13626	16549.2125
708.06928	16552.9125
711.99952	16397.0125
715.927	16294.8125
719.85171	16327.6125
723.77365	16303.5125
727.69284	16184.2125
731.60928	16113.5125
735.52295	16107.9125
739.43388	16151.8125
743.34206	16205.0125
747.24749	16279.1125
751.15017	16406.6125
755.05012	16672.8125
758.94733	17260.3125
762.8418	18260.1125
766.73354	19860.3125
770.62254	21328.6125
774.50882	21605.4125
778.39237	20444.9125
782.27321	18728.0125
786.15132	17234.5125
790.02671	16354.7125
793.89938	15877.2125
797.76935	15752.5125
801.6366	15709.4125
805.50115	15732.6125
809.36299	15623.5125
813.22213	15495.9125
817.07857	15377.7125
820.93231	15315.5125
824.78336	15202.1125
828.63172	15152.4125
832.47738	15146.2125
836.32036	15124.8125
840.16066	15134.7125
843.99827	15140.0125
847.8332	15067.7125
851.66546	15028.0125
855.49504	14988.5125
859.32195	15010.0125
863.1462	15023.5125
866.96777	14992.3125
870.78668	14954.9125
874.60293	14952.4125
878.41652	14915.3125
882.22745	14973.7125
886.03573	15017.4125
889.84136	15011.8125
893.64433	14949.1125
897.44466	14849.5125
901.24235	14753.3125
905.0374	14651.5125
908.8298	14552.2125
912.61957	14537.5125
916.40671	14652.7125
920.19121	14939.7125
923.97308	15134.1125
927.75233	15274.2125
931.52895	15119.7125
935.30295	14882.0125
939.07433	14557.5125
942.84309	14282.2125
946.60924	14157.6125
950.37278	14088.7125
954.13371	14089.3125
957.89203	14017.8125
961.64774	13951.9125
965.40086	13931.1125
969.15137	13858.0125
972.89929	13733.2125
976.64461	13646.1125
980.38733	13605.1125
984.12747	13671.8125
987.86502	13756.3125
991.59999	13925.8125
995.33237	14247.9125
999.06217	14764.0125
1002.78939	15487.2125
1006.51404	15978.9125
1010.23611	16314.9125
1013.95561	16456.2125
1017.67255	16473.8125
1021.38692	16145.8125
1025.09872	15744.3125
1028.80796	15545.3125
1032.51465	15739.8125
1036.21877	15986.9125
1039.92035	16082.0125
1043.61937	16004.0125
1047.31584	15697.8125
1051.00976	15413.5125
1054.70114	15226.8125
1058.38998	15204.2125
1062.07627	15250.8125
1065.76003	15358.6125
1069.44126	15504.9125
1073.11995	15730.8125
1076.79611	15881.1125
1080.46974	15959.4125
1084.14085	16087.7125
1087.80943	16284.2125
1091.47549	16553.7125
1095.13903	16579.8125
1098.80005	16378.3125
1102.45857	15923.9125
1106.11456	15598.3125
1109.76805	15464.7125
1113.41903	15585.7125
1117.06751	15728.1125
1120.71348	15983.2125
1124.35696	16238.3125
1127.99793	16528.4125
1131.63641	16677.0125
1135.2724	16651.3125
1138.90589	16552.3125
1142.5369	16508.9125
1146.16542	16500.2125
1149.79145	16611.3125
1153.415	16772.3125
1157.03607	17077.0125
1160.65467	17615.1125
1164.27079	18539.2125
1167.88443	19791.7125
1171.49561	21414.8125
1175.10432	23506.1125
1178.71056	26053.2125
1182.31434	28351.9125
1185.91565	29408.1125
1189.51451	29117.6125
1193.11091	28028.5125
1196.70485	26684.8125
1200.29634	25338.0125
1203.88538	24213.0125
1207.47197	23395.5125
1211.05612	22757.9125
1214.63782	22317.3125
1218.21708	22050.4125
1221.79391	22024.7125
1225.36829	22018.0125
1228.94024	21602.4125
1232.50976	20937.1125
1236.07685	20264.1125
1239.6415	19846.6125
1243.20374	19726.4125
1246.76355	19782.0125
1250.32093	20040.3125
1253.8759	20559.6125
1257.42845	21297.5125
1260.97859	21951.2125
1264.52631	22627.1125
1268.07163	23284.6125
1271.61453	24030.7125
1275.15503	24922.1125
1278.69312	25804.3125
1282.22882	26664.3125
1285.76211	27670.1125
1289.29301	28778.5125
1292.82151	30221.5125
1296.34761	32027.9125
1299.87133	34255.7125
1303.39266	36680.0125
1306.9116	39401.0125
1310.42815	42160.6125
1313.94233	44214.8125
1317.45412	44804.1125
1320.96354	44174.1125
1324.47058	43064.4125
1327.97525	41962.2125
1331.47754	41111.5125
1334.97747	40682.2125
1338.47502	40535.5125
1341.97022	40193.0125
1345.46305	39280.8125
1348.95352	38149.1125
1352.44163	37517.2125
1355.92738	38035.8125
1359.41078	39430.1125
1362.89183	40827.6125
1366.37053	40423.9125
1369.84688	37494.2125
1373.32088	33164.4125
1376.79254	29929.8125
1380.26186	28536.1125
1383.72883	28353.7125
1387.19347	28429.1125
1390.65578	28385.8125
1394.11575	28727.4125
1397.57339	29802.9125
1401.0287	31290.7125
1404.48168	32706.5125
1407.93234	33573.7125
1411.38068	33379.9125
1414.82669	32308.3125
1418.27039	30505.6125
1421.71177	28419.6125
1425.15083	26642.2125
1428.58758	25522.6125
1432.02203	25346.3125
1435.45416	25884.8125
1438.88399	26741.0125
1442.31151	27567.6125
1445.73673	28382.2125
1449.15965	29176.0125
1452.58027	29623.2125
1455.9986	29681.4125
1459.41463	29797.4125
1462.82837	30349.5125
1466.23982	31234.3125
1469.64898	32140.5125
1473.05586	32601.2125
1476.46045	32637.0125
1479.86276	32413.8125
1483.26279	31905.2125
1486.66054	31417.2125
1490.05602	31103.7125
1493.44922	30849.5125
1496.84016	30278.9125
1500.22882	29712.4125
1503.61521	29541.6125
1506.99934	29858.8125
1510.38121	30292.2125
1513.76081	30335.4125
1517.13816	29704.9125
1520.51324	28707.6125
1523.88607	27781.7125
1527.25665	27382.6125
1530.62498	27383.9125
1533.99105	27545.9125
1537.35488	27692.8125
1540.71647	27564.3125
1544.07581	27185.0125
1547.4329	26548.4125
1550.78776	25934.2125
1554.14038	25402.8125
1557.49077	25014.2125
1560.83892	24869.0125
1564.18484	24788.3125
1567.52853	24684.6125
1570.86999	24716.1125
1574.20922	24992.1125
1577.54624	25316.8125
1580.88103	25359.5125
1584.2136	25616.0125
1587.54395	26593.5125
1590.87208	28448.7125
1594.19801	31124.3125
1597.52172	34063.5125
1600.84321	35576.9125
1604.16251	34641.9125
1607.47959	31529.4125
1610.79447	27747.6125
1614.10715	24257.1125
1617.41763	21556.9125
1620.7259	19776.9125
1624.03199	18892.9125
1627.33587	18732.7125
1630.63757	19350.1125
1633.93707	20839.3125
1637.23439	23379.3125
1640.52951	27152.6125
1643.82246	31836.1125
1647.11321	35721.2125
1650.40179	36650.9125
1653.68819	33927.2125
1656.97241	28874.6125
1660.25446	23762.0125
1663.53433	19922.3125
1666.81203	17419.1125
1670.08756	15875.2125
1673.36092	14934.8125
1676.63211	14316.6125
1679.90115	13885.2125
1683.16801	13547.5125
1686.43272	13311.8125
1689.69527	13150.3125
1692.95567	13022.1125
1696.2139	12935.9125
1699.46999	12874.8125
1702.72392	12855.7125
1705.97571	12744.6125
1709.22535	12677.1125
1712.47284	12645.0125
1715.71819	12594.9125
1718.96139	12530.6125
1722.20246	12477.1125
1725.44139	12401.4125
1728.67818	12311.4125
1731.91284	12244.0125
1735.14537	12186.0125
1738.37576	12127.5125
1741.60403	12082.7125
1744.83017	12034.2125
1748.05418	12035.2125
1751.27607	12011.7125
1754.49584	12029.6125
1757.71349	11994.4125
1760.92903	11974.6125
1764.14244	11950.1125
1767.35375	11903.2125
1770.56294	11878.0125
1773.77002	11825.7125
1776.97499	11807.4125
1780.17785	11739.3125
1783.37861	11716.0125
1786.57727	11665.1125
1789.77382	11638.3125
1792.96828	11612.0125
1796.16064	11562.5125
1799.3509	11556.4125
1802.53907	11532.5125
1805.72514	11504.5125
1808.90913	11464.5125
1812.09102	11426.4125
1815.27083	11409.6125
1818.44856	11371.3125
1821.6242	11354.4125
1824.79776	11358.2125
1827.96924	11324.2125
1831.13864	11311.0125
1834.30597	11313.3125
1837.47122	11294.8125
1840.6344	11304.0125
1843.7955	11275.6125
1846.95454	11296.3125
1850.11151	11300.8125
1853.26642	11305.5125
1856.41926	11296.3125
1859.57004	11308.4125
1862.71876	11284.9125
1865.86542	11292.6125
1869.01003	11265.6125
1872.15258	11284.7125
1875.29308	11290.5125
1878.43152	11278.4125
1881.56792	11284.3125
1884.70227	11296.1125
1887.83457	11278.5125
1890.96482	11283.1125
1894.09304	11280.4125
1897.21921	11294.6125
1900.34335	11280.6125
1903.46544	11284.0125
1906.58551	11286.2125
1909.70353	11272.8125
1912.81953	11244.6125
1915.93349	11202.5125
1919.04543	11215.2125
1922.15534	11147.1125
1925.26322	11118.2125
1928.36908	11093.6125
1931.47292	11025.6125
1934.57473	11006.2125
1937.67453	10944.2125
1940.77232	10899.8125
1943.86808	10894.5125
1946.96184	10845.3125
1950.05358	10798.7125
1953.14331	10733.4125
1956.23103	10710.9125
1959.31675	10644.2125
1962.40046	10621.0125
1965.48217	10610.2125
1968.56188	10566.8125
1971.63959	10525.5125
1974.7153	10469.6125
1977.78901	10442.5125
1980.86073	10395.8125
1983.93046	10363.0125
1986.99819	10357.9125
1990.06394	10308.4125
1993.1277	10265.5125
1996.18947	10222.3125
1999.24925	10219.9125
2002.30706	10182.8125
2005.36288	10135.2125
2008.41672	10122.6125
2011.46859	10092.0125
2014.51848	10060.1125
2017.56639	10008.5125
2020.61233	10001.7125
2023.6563	9991.0125
2026.6983	9967.2125
2029.73833	9952.1125
2032.7764	9940.0125
2035.8125	9920.3125
2038.84664	9893.1125
2041.87881	9920.0125
2044.90903	9876.4125
2047.93729	9853.9125
2050.96359	9855.8125
2053.98794	9844.0125
2057.01034	9817.0125
2060.03078	9824.1125
2063.04927	9789.2125
2066.06582	9764.1125
2069.08042	9758.4125
2072.09307	9747.8125
2075.10378	9738.0125
2078.11255	9735.5125
2081.11938	9754.0125
2084.12426	9713.7125
2087.12722	9708.8125
2090.12824	9699.9125
2093.12732	9702.5125
2096.12447	9711.8125
2099.11969	9675.6125
2102.11299	9687.8125
2105.10435	9679.7125
2108.09379	9691.7125
2111.08131	9678.7125
2114.0669	9670.4125
2117.05057	9688.1125
2120.03233	9668.2125
2123.01216	9691.0125
2125.99008	9676.3125
2128.96609	9683.1125
2131.94018	9677.9125
2134.91236	9678.3125
2137.88263	9691.0125
2140.851	9680.2125
2143.81746	9694.6125
2146.78201	9699.7125
2149.74466	9683.8125
2152.7054	9667.3125
2155.66425	9679.0125
2158.6212	9638.7125
2161.57625	9651.9125
2164.52941	9635.3125
2167.48067	9638.7125
2170.43004	9645.3125
2173.37752	9640.0125
2176.32311	9627.9125
2179.26681	9617.4125
2182.20863	9621.0125
2185.14856	9646.5125
2188.08661	9631.5125
2191.02278	9614.2125
2193.95707	9649.4125
2196.88948	9596.4125
2199.82001	9596.8125
2202.74867	9608.3125
2205.67545	9588.2125
2208.60037	9571.0125
2211.52341	9556.3125
2214.44458	9548.6125
2217.36388	9523.8125
2220.28132	9518.9125
2223.1969	9498.5125
2226.11061	9482.9125
2229.02246	9459.7125
2231.93245	9459.5125
2234.84058	9446.6125
2237.74686	9437.2125
2240.65128	9409.8125
2243.55385	9381.8125
2246.45456	9391.6125
2249.35343	9351.8125
2252.25044	9339.1125
2255.14561	9333.7125
2258.03893	9321.1125
2260.93041	9283.5125
2263.82004	9255.5125
2266.70783	9213.6125
2269.59378	9167.3125
2272.4779	9167.3125
2275.36017	9141.8125
2278.24061	9115.9125
2281.11922	9098.7125
2283.996	9072.0125
2286.87094	9062.3125
2289.74405	9049.3125
2292.61534	9027.1125
2295.4848	9037.5125
2298.35243	9019.9125
2301.21824	9038.2125
2304.08223	9019.8125
2306.94439	9035.6125
2309.80474	9013.1125
2312.66327	9036.6125
2315.51999	9014.5125
2318.37489	9022.0125
2321.22797	9019.9125
2324.07925	8971.6125
2326.92871	8975.1125
2329.77637	8982.4125
2332.62222	8962.2125
2335.46626	8966.9125
2338.3085	8967.2125
2341.14893	8959.0125
2343.98756	8984.0125
2346.8244	8976.8125
2349.65943	8968.7125
2352.49267	8979.9125
2355.32411	8973.9125
2358.15376	8968.7125
2360.98161	8954.2125
2363.80768	8953.3125
2366.63195	8954.5125
2369.45444	8919.7125
2372.27514	8905.7125
2375.09405	8891.3125
2377.91118	8874.8125
2380.72652	8837.7125
2383.54009	8828.4125
2386.35187	8803.6125
2389.16188	8774.4125
2391.97011	8770.1125
2394.77657	8731.8125
2397.58125	8734.7125
2400.38416	8729.5125
2403.18529	8708.4125
2405.98466	8702.0125
2408.78226	8686.9125
2411.57809	8670.2125
2414.37216	8649.6125
2417.16446	8622.5125
2419.955	8608.5125
2422.74378	8615.7125
2425.5308	8586.7125
2428.31606	8591.6125
2431.09956	8595.5125
2433.88131	8571.7125
2436.6613	8568.6125
2439.43954	8548.7125
2442.21603	8560.3125
2444.99077	8547.3125
2447.76377	8572.4125
2450.53501	8539.6125
2453.30451	8554.2125
2456.07226	8559.0125
2458.83827	8568.1125
2461.60254	8531.2125
2464.36507	8553.9125
2467.12586	8544.9125
2469.88492	8521.0125
2472.64224	8565.0125
2475.39782	8575.0125
2478.15167	8584.1125
2480.90379	8564.1125
2483.65417	8592.8125
2486.40283	8579.4125
2489.14976	8610.8125
2491.89497	8571.0125
2494.63845	8610.7125
2497.3802	8594.1125
2500.12024	8603.1125
2502.85855	8599.3125
2505.59514	8572.8125
2508.33002	8586.2125
2511.06318	8571.8125
2513.79462	8543.1125
2516.52435	8529.7125
2519.25237	8550.3125
2521.97867	8530.9125
2524.70327	8514.7125
2527.42616	8517.1125
2530.14734	8509.8125
2532.86681	8481.0125
2535.58458	8527.6125
2538.30065	8515.8125
2541.01501	8494.6125
2543.72768	8460.5125
2546.43864	8457.5125
2549.14791	8450.3125
2551.85548	8450.4125
2554.56136	8441.0125
2557.26554	8420.6125
2559.96803	8440.4125
2562.66883	8435.1125
2565.36794	8412.3125
2568.06536	8428.2125
2570.7611	8413.3125
2573.45514	8432.5125
2576.14751	8424.6125
2578.83819	8414.0125
2581.52719	8428.8125
2584.21451	8425.6125
2586.90015	8411.7125
2589.58411	8407.7125
2592.2664	8386.8125
2594.94701	8388.2125
2597.62594	8393.3125
2600.30321	8393.0125
2602.9788	8380.9125
2605.65273	8380.5125
2608.32498	8402.4125
2610.99557	8405.5125
2613.66449	8405.5125
2616.33175	8411.8125
2618.99734	8421.8125
2621.66128	8403.0125
2624.32355	8407.0125
2626.98416	8397.2125
2629.64311	8410.3125
2632.30041	8426.7125
2634.95605	8427.8125
2637.61004	8413.6125
2640.26238	8400.4125
2642.91306	8401.9125
2645.56209	8405.4125
2648.20948	8412.0125
2650.85521	8394.1125
2653.4993	8395.8125
2656.14175	8388.6125
2658.78255	8390.7125
2661.42171	8413.0125
2664.05923	8388.5125
2666.6951	8415.6125
2669.32934	8408.2125
2671.96194	8419.4125
2674.59291	8424.6125
2677.22224	8413.9125
2679.84993	8409.2125
2682.476	8389.5125
2685.10043	8392.7125
2687.72324	8364.7125
2690.34441	8380.0125
2692.96396	8378.7125
2695.58188	8364.0125
2698.19818	8362.5125
2700.81285	8380.6125
2703.4259	8390.1125
2706.03733	8444.2125
2708.64714	8415.2125
2711.25533	8406.2125
2713.86191	8403.7125
2716.46687	8396.2125
2719.07021	8391.1125
2721.67194	8431.8125
2724.27206	8390.3125
2726.87057	8413.8125
2729.46747	8426.0125
2732.06276	8445.6125
2734.65644	8436.6125
2737.24852	8419.8125
2739.83899	8403.8125
2742.42786	8423.4125
2745.01513	8405.3125
2747.60079	8407.9125
2750.18486	8409.0125
2752.76733	8410.5125
2755.3482	8421.7125
2757.92747	8426.2125
2760.50515	8444.5125
2763.08123	8421.1125
2765.65573	8422.4125
2768.22863	8450.0125
2770.79994	8423.6125
2773.36967	8428.4125
2775.9378	8445.5125
2778.50435	8442.8125
2781.06932	8439.6125
2783.6327	8463.5125
2786.1945	8447.6125
2788.75471	8449.5125
2791.31335	8425.1125
2793.87041	8422.7125
2796.42589	8402.7125
2798.97979	8376.2125
2801.53212	8382.6125
2804.08288	8408.2125
2806.63206	8372.3125
2809.17967	8340.4125
2811.72571	8353.6125
2814.27018	8327.0125
2816.81308	8323.8125
2819.35442	8314.3125
2821.89419	8284.0125
2824.43239	8286.3125
2826.96904	8290.0125
2829.50412	8281.4125
2832.03763	8265.0125
2834.56959	8273.3125
2837.1	8259.8125
2839.62884	8244.5125
2842.15613	8257.6125
2844.68186	8260.9125
2847.20604	8250.3125
2849.72867	8254.5125
2852.24974	8249.1125
2854.76927	8222.8125
2857.28724	8248.2125
2859.80367	8204.2125
2862.31855	8206.2125
2864.83189	8183.6125
2867.34368	8189.7125
2869.85393	8202.2125
2872.36264	8167.2125
2874.8698	8167.4125
2877.37543	8189.1125
2879.87952	8206.9125
2882.38207	8186.0125
2884.88308	8189.5125
2887.38256	8204.9125
2889.88051	8195.4125
2892.37692	8215.1125
2894.8718	8203.8125
2897.36515	8225.8125
2899.85698	8232.9125
2902.34727	8251.4125
2904.83604	8244.2125
2907.32328	8274.5125
2909.809	8277.7125
2912.29319	8287.0125
2914.77587	8286.5125
2917.25702	8285.5125
2919.73665	8301.8125
2922.21476	8279.7125
2924.69136	8292.4125
2927.16644	8293.7125
2929.64	8264.7125
2932.11205	8283.4125
2934.58258	8242.2125
2937.05161	8244.1125
2939.51912	8257.8125
2941.98513	8226.7125
2944.44962	8221.7125
2946.91261	8200.1125
2949.37409	8220.9125
2951.83407	8182.2125
2954.29254	8179.5125
2956.74951	8152.6125
2959.20498	8136.5125
2961.65895	8103.3125
2964.11142	8096.5125
2966.56239	8064.0125
2969.01186	8044.9125
2971.45984	8014.7125
2973.90632	7990.3125
2976.35131	7956.6125
2978.7948	7953.8125
2981.23681	7945.5125
2983.67732	7888.2125
2986.11635	7860.6125
2988.55388	7847.7125
2990.98993	7832.4125
2993.4245	7792.1125
2995.85758	7792.7125
2998.28917	7762.8125
3000.71928	7784.3125
3003.14791	7759.1125
3005.57506	7755.5125
3008.00073	7737.3125
3010.42493	7719.4125
3012.84764	7692.2125
3015.26888	7684.9125
3017.68865	7664.0125
3020.10694	7620.3125
3022.52376	7604.9125
3024.9391	7586.5125
3027.35298	7589.3125
3029.76539	7577.9125
3032.17632	7568.3125
3034.5858	7544.0125
3036.9938	7552.0125
3039.40034	7547.4125
3041.80542	7523.7125
3044.20903	7514.5125
3046.61118	7521.7125
3049.01187	7493.1125
3051.4111	7488.7125
3053.80888	7458.2125
3056.20519	7453.7125
3058.60005	7450.9125
3060.99345	7433.5125
3063.3854	7384.0125
3065.7759	7361.4125
3068.16494	7338.6125
