Data from AgNPs_FTO_APTES_UA_5um_CRN_0.1mM_R6G_10uM_NaF_0.1M_Addition_RamanShift__7__13-05-09-087.txt Node

Date: Tue Dec 21 13:05:09 GMT 2021
User: TCL
Spectrometer: QEP01345
Trigger mode: 4
Integration Time (sec): 7.000000E0
Scans to average: 10
Electric dark correction enabled: true
Nonlinearity correction enabled: false
Boxcar width: 0
XAxis mode: Raman Shifts
Number of Pixels in Spectrum: 1044
>>>>>Begin Spectral Data<<<<<
46.04893	0.6125
50.45542	-1.8875
54.85868	-0.5875
59.25871	-0.4875
63.6555	41.3125
68.04907	46.9125
72.43941	46.9125
76.82654	50.5125
81.21044	55.3125
85.59113	54.5125
89.96862	58.9125
94.34289	58.7125
98.71396	57.7125
103.08183	63.7125
107.4465	64.4125
111.80798	68.5125
116.16626	68.7125
120.52136	74.1125
124.87327	91.4125
129.222	222.9125
133.56755	94.2125
137.90993	87.5125
142.24913	92.0125
146.58517	104.5125
150.91804	123.3125
155.24774	139.8125
159.57429	178.5125
163.89768	227.6125
168.21792	296.5125
172.53501	405.6125
176.84895	558.0125
181.15975	792.0125
185.46741	1091.4125
189.77193	1511.9125
194.07331	2018.8125
198.37157	2606.4125
202.6667	3229.1125
206.9587	3857.2125
211.24758	4500.9125
215.53334	5105.7125
219.81599	5791.6125
224.09553	6488.7125
228.37195	7284.9125
232.64527	8167.6125
236.91549	9059.9125
241.18261	9972.9125
245.44663	10795.7125
249.70755	11535.5125
253.96539	12128.5125
258.22014	12643.2125
262.4718	13034.0125
266.72039	13313.2125
270.96589	13384.8125
275.20832	13384.9125
279.44768	13244.0125
283.68397	13119.0125
287.91719	13009.5125
292.14735	12925.1125
296.37445	12906.4125
300.59849	12954.2125
304.81948	13025.1125
309.03742	13028.5125
313.25231	12976.5125
317.46415	12776.5125
321.67296	12469.3125
325.87872	12144.4125
330.08145	11966.1125
334.28114	11892.3125
338.47781	11920.0125
342.67145	12041.2125
346.86207	12209.0125
351.04966	12388.7125
355.23424	12625.3125
359.4158	12772.3125
363.59435	12896.3125
367.76989	12958.7125
371.94243	12994.4125
376.11196	13006.2125
380.27849	13022.5125
384.44203	13129.3125
388.60257	13274.9125
392.76012	13448.1125
396.91468	13713.6125
401.06626	13959.8125
405.21485	14138.7125
409.36047	14077.3125
413.50311	13931.6125
417.64277	13782.8125
421.77947	13822.8125
425.9132	13849.7125
430.04396	13924.3125
434.17176	13957.7125
438.2966	14025.8125
442.41849	14192.8125
446.53742	14579.0125
450.6534	14997.8125
454.76644	15258.9125
458.87653	15300.4125
462.98368	15180.3125
467.08789	15069.5125
471.18916	14892.9125
475.2875	14718.4125
479.38291	14660.2125
483.4754	14661.2125
487.56496	14503.4125
491.6516	14261.3125
495.73531	13979.3125
499.81612	13845.1125
503.89401	13851.9125
507.96899	13874.1125
512.04106	13788.1125
516.11023	13645.1125
520.1765	13434.7125
524.23987	13308.7125
528.30034	13225.6125
532.35792	13087.4125
536.41261	13018.0125
540.46441	12811.2125
544.51333	12756.6125
548.55936	12889.0125
552.60252	13188.2125
556.64279	13539.1125
560.6802	13833.0125
564.71473	13954.4125
568.7464	14253.6125
572.7752	14806.9125
576.80114	15368.5125
580.82422	16007.3125
584.84444	16782.3125
588.86181	17701.1125
592.87633	18472.9125
596.888	18393.5125
600.89682	17332.4125
604.9028	16682.7125
608.90594	17326.7125
612.90624	18239.5125
616.90371	16957.2125
620.89834	14214.1125
624.89015	12957.0125
628.87913	12841.9125
632.86528	13050.9125
636.84862	13102.3125
640.82913	12911.1125
644.80683	12534.4125
648.78172	12291.8125
652.75379	12264.1125
656.72306	12348.9125
660.68952	12497.6125
664.65319	12396.0125
668.61405	12268.3125
672.57211	12247.6125
676.52738	12367.3125
680.47986	12408.3125
684.42955	12331.6125
688.37646	12215.7125
692.32058	12225.9125
696.26192	12329.8125
700.20048	12490.6125
704.13626	12616.0125
708.06928	12665.0125
711.99952	12658.9125
715.927	12622.7125
719.85171	12652.2125
723.77365	12569.6125
727.69284	12385.3125
731.60928	12222.1125
735.52295	12184.4125
739.43388	12165.8125
743.34206	12196.6125
747.24749	12268.6125
751.15017	12383.1125
755.05012	12619.9125
758.94733	13021.9125
762.8418	13688.2125
766.73354	14735.4125
770.62254	15763.2125
774.50882	15902.2125
778.39237	15134.2125
782.27321	14037.8125
786.15132	13071.2125
790.02671	12458.0125
793.89938	12134.7125
797.76935	12006.7125
801.6366	11938.2125
805.50115	11913.6125
809.36299	11849.0125
813.22213	11735.1125
817.07857	11683.6125
820.93231	11606.3125
824.78336	11506.5125
828.63172	11402.0125
832.47738	11361.5125
836.32036	11349.2125
840.16066	11354.1125
843.99827	11309.4125
847.8332	11314.3125
851.66546	11278.2125
855.49504	11274.0125
859.32195	11282.9125
863.1462	11252.9125
866.96777	11217.0125
870.78668	11209.7125
874.60293	11216.6125
878.41652	11231.9125
882.22745	11272.0125
886.03573	11336.2125
889.84136	11326.9125
893.64433	11283.3125
897.44466	11234.5125
901.24235	11178.6125
905.0374	11101.1125
908.8298	11057.5125
912.61957	11028.1125
916.40671	11129.8125
920.19121	11332.6125
923.97308	11491.8125
927.75233	11559.8125
931.52895	11450.6125
935.30295	11200.0125
939.07433	10900.8125
942.84309	10724.2125
946.60924	10608.5125
950.37278	10547.0125
954.13371	10540.5125
957.89203	10539.0125
961.64774	10548.3125
965.40086	10564.5125
969.15137	10527.7125
972.89929	10445.0125
976.64461	10359.7125
980.38733	10343.2125
984.12747	10313.8125
987.86502	10354.8125
991.59999	10410.1125
995.33237	10509.7125
999.06217	10686.8125
1002.78939	10964.0125
1006.51404	11228.2125
1010.23611	11481.9125
1013.95561	11666.6125
1017.67255	11752.0125
1021.38692	11658.4125
1025.09872	11393.7125
1028.80796	11177.8125
1032.51465	11108.7125
1036.21877	11156.6125
1039.92035	11299.6125
1043.61937	11354.5125
1047.31584	11387.1125
1051.00976	11390.8125
1054.70114	11393.1125
1058.38998	11405.4125
1062.07627	11510.9125
1065.76003	11684.2125
1069.44126	11887.6125
1073.11995	12188.9125
1076.79611	12393.5125
1080.46974	12451.6125
1084.14085	12478.9125
1087.80943	12589.1125
1091.47549	12767.1125
1095.13903	12851.1125
1098.80005	12682.1125
1102.45857	12269.9125
1106.11456	11862.7125
1109.76805	11662.0125
1113.41903	11634.1125
1117.06751	11688.3125
1120.71348	11831.7125
1124.35696	12052.2125
1127.99793	12257.4125
1131.63641	12430.8125
1135.2724	12433.5125
1138.90589	12401.5125
1142.5369	12453.9125
1146.16542	12581.4125
1149.79145	12723.0125
1153.415	12854.8125
1157.03607	13034.2125
1160.65467	13455.0125
1164.27079	14177.9125
1167.88443	15098.7125
1171.49561	16130.1125
1175.10432	17373.2125
1178.71056	18824.3125
1182.31434	20165.5125
1185.91565	20790.1125
1189.51451	20586.8125
1193.11091	19970.1125
1196.70485	19085.4125
1200.29634	18178.8125
1203.88538	17532.6125
1207.47197	17216.0125
1211.05612	16999.9125
1214.63782	16604.4125
1218.21708	16121.4125
1221.79391	15625.1125
1225.36829	15305.3125
1228.94024	15200.9125
1232.50976	14976.3125
1236.07685	14716.5125
1239.6415	14505.1125
1243.20374	14413.6125
1246.76355	14521.0125
1250.32093	14684.5125
1253.8759	15038.4125
1257.42845	15586.0125
1260.97859	16131.2125
1264.52631	16731.2125
1268.07163	17256.8125
1271.61453	17762.3125
1275.15503	18336.4125
1278.69312	19010.8125
1282.22882	19802.4125
1285.76211	20770.7125
1289.29301	21873.4125
1292.82151	23073.9125
1296.34761	24398.7125
1299.87133	25850.1125
1303.39266	27290.3125
1306.9116	28502.3125
1310.42815	29430.8125
1313.94233	29900.2125
1317.45412	29652.4125
1320.96354	29038.6125
1324.47058	28383.6125
1327.97525	27986.8125
1331.47754	27721.0125
1334.97747	27373.7125
1338.47502	26955.9125
1341.97022	26403.7125
1345.46305	25814.1125
1348.95352	25494.4125
1352.44163	25569.2125
1355.92738	26302.1125
1359.41078	27588.1125
1362.89183	28718.6125
1366.37053	28737.8125
1369.84688	26915.7125
1373.32088	23970.6125
1376.79254	21616.8125
1380.26186	20629.4125
1383.72883	20387.1125
1387.19347	20288.9125
1390.65578	19987.3125
1394.11575	19864.7125
1397.57339	20124.4125
1401.0287	20494.8125
1404.48168	20747.9125
1407.93234	20620.3125
1411.38068	20095.4125
1414.82669	19264.6125
1418.27039	18364.8125
1421.71177	17487.9125
1425.15083	16826.5125
1428.58758	16481.1125
1432.02203	16597.9125
1435.45416	17067.0125
1438.88399	17576.2125
1442.31151	17955.5125
1445.73673	18278.5125
1449.15965	18530.2125
1452.58027	18653.7125
1455.9986	18669.6125
1459.41463	18749.6125
1462.82837	19085.8125
1466.23982	19501.2125
1469.64898	19942.1125
1473.05586	20152.8125
1476.46045	20182.1125
1479.86276	20162.7125
1483.26279	20047.3125
1486.66054	20064.7125
1490.05602	20290.9125
1493.44922	20632.4125
1496.84016	21015.9125
1500.22882	21455.2125
1503.61521	22025.5125
1506.99934	22643.5125
1510.38121	23064.2125
1513.76081	22958.8125
1517.13816	22474.7125
1520.51324	21793.8125
1523.88607	21330.0125
1527.25665	21103.5125
1530.62498	21031.1125
1533.99105	20838.4125
1537.35488	20428.0125
1540.71647	19798.8125
1544.07581	19018.0125
1547.4329	18296.7125
1550.78776	17641.6125
1554.14038	17234.1125
1557.49077	17037.4125
1560.83892	16970.9125
1564.18484	17046.8125
1567.52853	17191.6125
1570.86999	17421.6125
1574.20922	17808.1125
1577.54624	18147.0125
1580.88103	18287.6125
1584.2136	18448.5125
1587.54395	18943.3125
1590.87208	19870.4125
1594.19801	21126.5125
1597.52172	22337.4125
1600.84321	22656.0125
1604.16251	21559.4125
1607.47959	19628.3125
1610.79447	17573.2125
1614.10715	15800.8125
1617.41763	14450.9125
1620.7259	13518.8125
1624.03199	13113.3125
1627.33587	13093.3125
1630.63757	13506.6125
1633.93707	14554.5125
1637.23439	16316.3125
1640.52951	18980.9125
1643.82246	22380.4125
1647.11321	25236.6125
1650.40179	26066.5125
1653.68819	24193.4125
1656.97241	20685.0125
1660.25446	17111.1125
1663.53433	14439.4125
1666.81203	12668.8125
1670.08756	11575.3125
1673.36092	10904.1125
1676.63211	10495.4125
1679.90115	10165.5125
1683.16801	9942.5125
1686.43272	9781.3125
1689.69527	9662.1125
1692.95567	9571.8125
1696.2139	9509.5125
1699.46999	9471.4125
1702.72392	9433.3125
1705.97571	9384.8125
1709.22535	9306.8125
1712.47284	9269.4125
1715.71819	9239.4125
1718.96139	9193.6125
1722.20246	9151.7125
1725.44139	9104.4125
1728.67818	9058.2125
1731.91284	9015.5125
1735.14537	8934.0125
1738.37576	8888.2125
1741.60403	8833.4125
1744.83017	8814.5125
1748.05418	8822.1125
1751.27607	8788.9125
1754.49584	8822.5125
1757.71349	8846.9125
1760.92903	8830.0125
1764.14244	8800.9125
1767.35375	8771.2125
1770.56294	8721.7125
1773.77002	8679.5125
1776.97499	8616.7125
1780.17785	8594.8125
1783.37861	8554.6125
1786.57727	8525.5125
1789.77382	8480.8125
1792.96828	8461.2125
1796.16064	8440.7125
1799.3509	8425.1125
1802.53907	8387.4125
1805.72514	8374.7125
1808.90913	8345.8125
1812.09102	8333.9125
1815.27083	8316.0125
1818.44856	8306.9125
1821.6242	8277.0125
1824.79776	8276.7125
1827.96924	8269.9125
1831.13864	8270.0125
1834.30597	8263.8125
1837.47122	8246.2125
1840.6344	8255.9125
1843.7955	8226.7125
1846.95454	8237.6125
1850.11151	8235.8125
1853.26642	8225.2125
1856.41926	8219.2125
1859.57004	8233.5125
1862.71876	8203.8125
1865.86542	8203.8125
1869.01003	8185.6125
1872.15258	8156.1125
1875.29308	8149.8125
1878.43152	8137.8125
1881.56792	8130.4125
1884.70227	8114.9125
1887.83457	8095.4125
1890.96482	8068.5125
1894.09304	8090.0125
1897.21921	8075.4125
1900.34335	8056.7125
1903.46544	8023.9125
1906.58551	8034.9125
1909.70353	7984.0125
1912.81953	7994.0125
1915.93349	7968.1125
1919.04543	7950.3125
1922.15534	7915.6125
1925.26322	7893.5125
1928.36908	7876.1125
1931.47292	7840.5125
1934.57473	7832.0125
1937.67453	7793.2125
1940.77232	7767.7125
1943.86808	7771.4125
1946.96184	7760.0125
1950.05358	7731.4125
1953.14331	7703.7125
1956.23103	7659.4125
1959.31675	7650.5125
1962.40046	7625.1125
1965.48217	7624.4125
1968.56188	7570.1125
1971.63959	7558.7125
1974.7153	7509.3125
1977.78901	7488.2125
1980.86073	7480.3125
1983.93046	7426.3125
1986.99819	7412.1125
1990.06394	7395.5125
1993.1277	7373.1125
1996.18947	7331.4125
1999.24925	7340.0125
2002.30706	7305.2125
2005.36288	7262.7125
2008.41672	7261.1125
2011.46859	7233.4125
2014.51848	7208.7125
2017.56639	7202.2125
2020.61233	7169.9125
2023.6563	7161.3125
2026.6983	7141.5125
2029.73833	7143.9125
2032.7764	7105.0125
2035.8125	7079.9125
2038.84664	7065.2125
2041.87881	7076.0125
2044.90903	7053.0125
2047.93729	7056.7125
2050.96359	7034.0125
2053.98794	7017.5125
2057.01034	7015.9125
2060.03078	7019.1125
2063.04927	6988.1125
2066.06582	6990.7125
2069.08042	6987.7125
2072.09307	6968.9125
2075.10378	6963.4125
2078.11255	6957.3125
2081.11938	6961.5125
2084.12426	6977.4125
2087.12722	6938.1125
2090.12824	6941.4125
2093.12732	6940.2125
2096.12447	6951.7125
2099.11969	6930.0125
2102.11299	6940.1125
2105.10435	6944.4125
2108.09379	6929.3125
2111.08131	6945.7125
2114.0669	6948.9125
2117.05057	6949.6125
2120.03233	6958.2125
2123.01216	6959.2125
2125.99008	6947.1125
2128.96609	6939.0125
2131.94018	6955.0125
2134.91236	6944.0125
2137.88263	6959.3125
2140.851	6934.2125
2143.81746	6936.0125
2146.78201	6930.2125
2149.74466	6933.5125
2152.7054	6922.9125
2155.66425	6942.4125
2158.6212	6922.0125
2161.57625	6921.9125
2164.52941	6926.6125
2167.48067	6909.6125
2170.43004	6905.6125
2173.37752	6897.1125
2176.32311	6898.4125
2179.26681	6890.1125
2182.20863	6892.4125
2185.14856	6908.7125
2188.08661	6900.3125
2191.02278	6888.9125
2193.95707	6890.5125
2196.88948	6870.5125
2199.82001	6860.2125
2202.74867	6842.1125
2205.67545	6855.8125
2208.60037	6831.7125
2211.52341	6834.2125
2214.44458	6829.7125
2217.36388	6792.8125
2220.28132	6784.9125
2223.1969	6768.4125
2226.11061	6788.9125
2229.02246	6755.0125
2231.93245	6749.1125
2234.84058	6744.0125
2237.74686	6735.1125
2240.65128	6737.9125
2243.55385	6694.3125
2246.45456	6716.3125
2249.35343	6673.3125
2252.25044	6668.5125
2255.14561	6646.4125
2258.03893	6646.9125
2260.93041	6630.7125
2263.82004	6614.5125
2266.70783	6610.1125
2269.59378	6562.0125
2272.4779	6552.6125
2275.36017	6536.1125
2278.24061	6504.0125
2281.11922	6497.2125
2283.996	6508.8125
2286.87094	6479.6125
2289.74405	6463.0125
2292.61534	6459.0125
2295.4848	6456.3125
2298.35243	6441.5125
2301.21824	6442.8125
2304.08223	6448.1125
2306.94439	6442.9125
2309.80474	6434.7125
2312.66327	6422.4125
2315.51999	6414.5125
2318.37489	6401.3125
2321.22797	6379.7125
2324.07925	6383.2125
2326.92871	6385.1125
2329.77637	6385.5125
2332.62222	6375.3125
2335.46626	6369.0125
2338.3085	6374.4125
2341.14893	6353.5125
2343.98756	6344.8125
2346.8244	6356.1125
2349.65943	6360.1125
2352.49267	6353.4125
2355.32411	6353.2125
2358.15376	6356.2125
2360.98161	6342.2125
2363.80768	6361.3125
2366.63195	6327.9125
2369.45444	6321.7125
2372.27514	6316.4125
2375.09405	6298.9125
2377.91118	6290.8125
2380.72652	6272.2125
2383.54009	6261.1125
2386.35187	6246.7125
2389.16188	6225.0125
2391.97011	6223.1125
2394.77657	6201.6125
2397.58125	6200.3125
2400.38416	6192.9125
2403.18529	6180.4125
2405.98466	6164.4125
2408.78226	6171.0125
2411.57809	6140.3125
2414.37216	6130.1125
2417.16446	6130.1125
2419.955	6129.8125
2422.74378	6131.0125
2425.5308	6107.1125
2428.31606	6138.7125
2431.09956	6122.6125
2433.88131	6130.5125
2436.6613	6103.1125
2439.43954	6083.9125
2442.21603	6093.1125
2444.99077	6083.0125
2447.76377	6097.3125
2450.53501	6112.9125
2453.30451	6094.3125
2456.07226	6089.6125
2458.83827	6078.4125
2461.60254	6098.7125
2464.36507	6093.6125
2467.12586	6076.0125
2469.88492	6073.7125
2472.64224	6063.8125
2475.39782	6077.5125
2478.15167	6085.3125
2480.90379	6075.9125
2483.65417	6077.0125
2486.40283	6048.6125
2489.14976	6062.5125
2491.89497	6050.1125
2494.63845	6069.2125
2497.3802	6069.8125
2500.12024	6061.6125
2502.85855	6039.6125
2505.59514	6034.0125
2508.33002	6024.1125
2511.06318	6035.5125
2513.79462	6024.0125
2516.52435	6022.0125
2519.25237	6014.2125
2521.97867	6003.1125
2524.70327	5996.1125
2527.42616	6006.7125
2530.14734	5985.4125
2532.86681	5991.3125
2535.58458	5975.9125
2538.30065	5963.2125
2541.01501	5968.0125
2543.72768	5945.5125
2546.43864	5945.3125
2549.14791	5947.3125
2551.85548	5934.3125
2554.56136	5927.7125
2557.26554	5920.3125
2559.96803	5931.0125
2562.66883	5929.0125
2565.36794	5914.0125
2568.06536	5905.1125
2570.7611	5911.2125
2573.45514	5911.1125
2576.14751	5896.6125
2578.83819	5905.3125
2581.52719	5895.1125
2584.21451	5872.1125
2586.90015	5856.9125
2589.58411	5870.5125
2592.2664	5852.2125
2594.94701	5848.2125
2597.62594	5855.2125
2600.30321	5833.1125
2602.9788	5835.7125
2605.65273	5822.1125
2608.32498	5832.2125
2610.99557	5840.0125
2613.66449	5822.0125
2616.33175	5823.0125
2618.99734	5827.3125
2621.66128	5809.5125
2624.32355	5818.2125
2626.98416	5813.0125
2629.64311	5786.6125
2632.30041	5792.8125
2634.95605	5796.4125
2637.61004	5785.8125
2640.26238	5788.0125
2642.91306	5769.5125
2645.56209	5781.4125
2648.20948	5783.0125
2650.85521	5768.8125
2653.4993	5784.6125
2656.14175	5761.1125
2658.78255	5771.5125
2661.42171	5796.4125
2664.05923	5788.9125
2666.6951	5804.2125
2669.32934	5799.8125
2671.96194	5793.9125
2674.59291	5800.1125
2677.22224	5793.1125
2679.84993	5778.5125
2682.476	5791.9125
2685.10043	5791.3125
2687.72324	5778.8125
2690.34441	5776.6125
2692.96396	5768.7125
2695.58188	5793.0125
2698.19818	5763.8125
2700.81285	5780.3125
2703.4259	5794.1125
2706.03733	5848.4125
2708.64714	5811.7125
2711.25533	5801.2125
2713.86191	5789.9125
2716.46687	5796.6125
2719.07021	5772.5125
2721.67194	5783.2125
2724.27206	5807.1125
2726.87057	5801.0125
2729.46747	5808.1125
2732.06276	5807.0125
2734.65644	5810.3125
2737.24852	5809.7125
2739.83899	5797.7125
2742.42786	5792.3125
2745.01513	5790.9125
2747.60079	5788.3125
2750.18486	5779.3125
2752.76733	5772.1125
2755.3482	5766.5125
2757.92747	5773.8125
2760.50515	5756.5125
2763.08123	5763.5125
2765.65573	5770.6125
2768.22863	5778.4125
2770.79994	5760.0125
2773.36967	5762.3125
2775.9378	5764.7125
2778.50435	5762.1125
2781.06932	5743.0125
2783.6327	5743.6125
2786.1945	5754.6125
2788.75471	5738.8125
2791.31335	5739.8125
2793.87041	5714.7125
2796.42589	5700.8125
2798.97979	5703.2125
2801.53212	5678.9125
2804.08288	5696.9125
2806.63206	5677.0125
2809.17967	5676.0125
2811.72571	5649.1125
2814.27018	5659.3125
2816.81308	5636.5125
2819.35442	5644.2125
2821.89419	5651.5125
2824.43239	5652.0125
2826.96904	5637.0125
2829.50412	5631.3125
2832.03763	5629.2125
2834.56959	5628.4125
2837.1	5619.9125
2839.62884	5633.1125
2842.15613	5630.4125
2844.68186	5647.9125
2847.20604	5649.6125
2849.72867	5667.7125
2852.24974	5655.2125
2854.76927	5659.9125
2857.28724	5663.2125
2859.80367	5659.2125
2862.31855	5623.8125
2864.83189	5619.1125
2867.34368	5624.7125
2869.85393	5610.5125
2872.36264	5595.3125
2874.8698	5600.7125
2877.37543	5611.1125
2879.87952	5587.5125
2882.38207	5591.9125
2884.88308	5588.8125
2887.38256	5605.9125
2889.88051	5587.8125
2892.37692	5599.5125
2894.8718	5604.9125
2897.36515	5616.8125
2899.85698	5611.4125
2902.34727	5613.2125
2904.83604	5612.7125
2907.32328	5625.2125
2909.809	5647.3125
2912.29319	5650.0125
2914.77587	5637.5125
2917.25702	5652.4125
2919.73665	5645.9125
2922.21476	5651.0125
2924.69136	5665.0125
2927.16644	5640.4125
2929.64	5639.9125
2932.11205	5647.1125
2934.58258	5617.2125
2937.05161	5649.6125
2939.51912	5645.8125
2941.98513	5631.8125
2944.44962	5614.8125
2946.91261	5593.5125
2949.37409	5604.4125
2951.83407	5586.0125
2954.29254	5578.4125
2956.74951	5547.3125
2959.20498	5561.9125
2961.65895	5540.1125
2964.11142	5514.8125
2966.56239	5489.2125
2969.01186	5478.3125
2971.45984	5488.9125
2973.90632	5458.9125
2976.35131	5419.2125
2978.7948	5398.7125
2981.23681	5416.5125
2983.67732	5376.8125
2986.11635	5367.0125
2988.55388	5357.9125
2990.98993	5332.4125
2993.4245	5324.3125
2995.85758	5321.1125
2998.28917	5305.6125
3000.71928	5294.5125
3003.14791	5295.3125
3005.57506	5293.6125
3008.00073	5266.5125
3010.42493	5259.6125
3012.84764	5254.8125
3015.26888	5247.3125
3017.68865	5239.2125
3020.10694	5224.9125
3022.52376	5209.9125
3024.9391	5206.6125
3027.35298	5181.3125
3029.76539	5191.0125
3032.17632	5183.6125
3034.5858	5169.8125
3036.9938	5169.2125
3039.40034	5141.1125
3041.80542	5156.2125
3044.20903	5138.7125
3046.61118	5137.4125
3049.01187	5118.7125
3051.4111	5111.1125
3053.80888	5089.1125
3056.20519	5087.6125
3058.60005	5074.9125
3060.99345	5075.8125
3063.3854	5048.6125
3065.7759	5042.5125
3068.16494	5036.4125
3070.55254	5010.3125
3072.93868	5006.7125
3075.32338	4991.0125
3077.70662	4992.1125
3080.08842	4971.9125
