Data from AgNPs_FTO_APTES_UA_100um_CRN_0.1mM_R6G_10uM_NaF_0.1M_Addition_RamanShift__14__16-01-19-288.txt Node

Date: Tue Dec 21 16:01:19 GMT 2021
User: TCL
Spectrometer: QEP01345
Trigger mode: 4
Integration Time (sec): 7.000000E0
Scans to average: 10
Electric dark correction enabled: true
Nonlinearity correction enabled: false
Boxcar width: 0
XAxis mode: Raman Shifts
Number of Pixels in Spectrum: 1044
>>>>>Begin Spectral Data<<<<<
46.04893	-0.025
50.45542	-0.825
54.85868	-0.525
59.25871	0.375
63.6555	28.975
68.04907	36.475
72.43941	38.475
76.82654	38.075
81.21044	44.775
85.59113	43.475
89.96862	42.975
94.34289	45.675
98.71396	48.775
103.08183	47.675
107.4465	53.675
111.80798	51.875
116.16626	52.075
120.52136	54.075
124.87327	52.775
129.222	51.975
133.56755	56.475
137.90993	63.075
142.24913	62.775
146.58517	74.375
150.91804	78.575
155.24774	86.175
159.57429	111.375
163.89768	139.775
168.21792	179.575
172.53501	238.875
176.84895	333.175
181.15975	468.175
185.46741	653.175
189.77193	899.075
194.07331	1213.975
198.37157	1552.375
202.6667	1940.475
206.9587	2330.275
211.24758	2685.775
215.53334	3076.675
219.81599	3457.975
224.09553	3902.675
228.37195	4357.375
232.64527	4886.275
236.91549	5435.675
241.18261	5988.975
245.44663	6506.975
249.70755	6995.175
253.96539	7407.175
258.22014	7703.275
262.4718	7937.975
266.72039	8108.875
270.96589	8191.475
275.20832	8166.675
279.44768	8076.975
283.68397	7931.075
287.91719	7817.675
292.14735	7717.475
296.37445	7657.575
300.59849	7651.375
304.81948	7683.775
309.03742	7689.075
313.25231	7622.675
317.46415	7494.075
321.67296	7276.775
325.87872	7123.375
330.08145	7044.575
334.28114	7035.475
338.47781	7090.675
342.67145	7151.075
346.86207	7285.475
351.04966	7422.975
355.23424	7559.775
359.4158	7713.375
363.59435	7831.975
367.76989	7906.575
371.94243	7964.175
376.11196	8019.675
380.27849	8062.175
384.44203	8102.175
388.60257	8150.475
392.76012	8206.075
396.91468	8260.575
401.06626	8401.075
405.21485	8487.875
409.36047	8485.175
413.50311	8340.575
417.64277	8203.075
421.77947	8089.875
425.9132	8039.975
430.04396	8036.375
434.17176	8043.275
438.2966	8104.075
442.41849	8137.175
446.53742	8222.475
450.6534	8306.475
454.76644	8387.475
458.87653	8442.375
462.98368	8480.475
467.08789	8471.275
471.18916	8429.175
475.2875	8386.475
479.38291	8350.275
483.4754	8321.075
487.56496	8302.975
491.6516	8268.975
495.73531	8240.975
499.81612	8238.675
503.89401	8239.675
507.96899	8296.475
512.04106	8324.875
516.11023	8361.575
520.1765	8337.575
524.23987	8322.375
528.30034	8232.475
532.35792	8202.275
536.41261	8148.475
540.46441	8057.475
544.51333	8069.475
548.55936	8097.175
552.60252	8165.975
556.64279	8261.375
560.6802	8309.675
564.71473	8313.475
568.7464	8371.975
572.7752	8420.175
576.80114	8450.375
580.82422	8484.175
584.84444	8505.875
588.86181	8499.175
592.87633	8458.975
596.888	8445.575
600.89682	8528.675
604.9028	8848.175
608.90594	9660.075
612.90624	10684.975
616.90371	10504.075
620.89834	9082.075
624.89015	8321.675
628.87913	8192.475
632.86528	8280.275
636.84862	8390.275
640.82913	8369.775
644.80683	8198.675
648.78172	8087.275
652.75379	8054.475
656.72306	8127.275
660.68952	8244.575
664.65319	8279.175
668.61405	8189.175
672.57211	8186.075
676.52738	8193.475
680.47986	8225.775
684.42955	8214.775
688.37646	8165.375
692.32058	8155.575
696.26192	8179.175
700.20048	8218.875
704.13626	8196.975
708.06928	8180.075
711.99952	8096.875
715.927	8052.475
719.85171	8035.675
723.77365	8019.875
727.69284	7962.375
731.60928	7926.075
735.52295	7877.675
739.43388	7880.475
743.34206	7877.475
747.24749	7914.475
751.15017	7915.475
755.05012	7948.375
758.94733	8066.675
762.8418	8326.075
766.73354	8848.175
770.62254	9424.075
774.50882	9728.975
778.39237	9514.975
782.27321	8914.475
786.15132	8385.275
790.02671	8045.775
793.89938	7862.175
797.76935	7778.875
801.6366	7747.675
805.50115	7714.275
809.36299	7693.875
813.22213	7684.875
817.07857	7668.275
820.93231	7656.175
824.78336	7630.475
828.63172	7597.175
832.47738	7582.175
836.32036	7563.975
840.16066	7546.375
843.99827	7521.475
847.8332	7503.675
851.66546	7497.775
855.49504	7471.375
859.32195	7470.575
863.1462	7479.475
866.96777	7452.975
870.78668	7449.875
874.60293	7466.175
878.41652	7470.375
882.22745	7488.975
886.03573	7500.075
889.84136	7512.675
893.64433	7478.775
897.44466	7454.975
901.24235	7434.175
905.0374	7418.975
908.8298	7393.075
912.61957	7379.375
916.40671	7393.675
920.19121	7416.875
923.97308	7418.675
927.75233	7425.575
931.52895	7394.475
935.30295	7374.775
939.07433	7259.875
942.84309	7199.775
946.60924	7144.575
950.37278	7125.975
954.13371	7096.575
957.89203	7084.175
961.64774	7069.175
965.40086	7039.475
969.15137	7020.775
972.89929	7003.175
976.64461	6977.175
980.38733	6955.675
984.12747	6966.275
987.86502	6968.075
991.59999	6970.475
995.33237	6977.275
999.06217	7000.175
1002.78939	7036.575
1006.51404	7094.975
1010.23611	7135.575
1013.95561	7173.375
1017.67255	7183.175
1021.38692	7172.275
1025.09872	7137.175
1028.80796	7076.375
1032.51465	7049.175
1036.21877	7052.275
1039.92035	7072.475
1043.61937	7094.375
1047.31584	7096.775
1051.00976	7154.475
1054.70114	7170.375
1058.38998	7175.575
1062.07627	7209.375
1065.76003	7262.475
1069.44126	7276.875
1073.11995	7335.875
1076.79611	7389.975
1080.46974	7413.975
1084.14085	7420.375
1087.80943	7439.075
1091.47549	7485.975
1095.13903	7494.475
1098.80005	7444.275
1102.45857	7365.075
1106.11456	7282.675
1109.76805	7234.275
1113.41903	7254.675
1117.06751	7304.275
1120.71348	7398.975
1124.35696	7492.975
1127.99793	7582.775
1131.63641	7670.375
1135.2724	7591.475
1138.90589	7470.375
1142.5369	7394.575
1146.16542	7328.175
1149.79145	7301.075
1153.415	7249.175
1157.03607	7270.175
1160.65467	7293.775
1164.27079	7390.775
1167.88443	7550.875
1171.49561	7789.375
1175.10432	8126.975
1178.71056	8581.675
1182.31434	9029.475
1185.91565	9208.475
1189.51451	9205.675
1193.11091	9038.975
1196.70485	8769.275
1200.29634	8539.075
1203.88538	8298.275
1207.47197	8083.475
1211.05612	7877.075
1214.63782	7672.775
1218.21708	7584.775
1221.79391	7482.475
1225.36829	7458.175
1228.94024	7395.175
1232.50976	7378.075
1236.07685	7390.575
1239.6415	7380.175
1243.20374	7419.475
1246.76355	7454.675
1250.32093	7490.275
1253.8759	7568.875
1257.42845	7654.075
1260.97859	7760.775
1264.52631	7881.175
1268.07163	7961.475
1271.61453	8044.175
1275.15503	8116.775
1278.69312	8178.975
1282.22882	8219.675
1285.76211	8266.375
1289.29301	8363.475
1292.82151	8518.975
1296.34761	8696.775
1299.87133	8918.075
1303.39266	9219.175
1306.9116	9602.775
1310.42815	10023.075
1313.94233	10266.475
1317.45412	10207.175
1320.96354	9994.075
1324.47058	9742.875
1327.97525	9524.075
1331.47754	9328.175
1334.97747	9226.275
1338.47502	9244.675
1341.97022	9359.275
1345.46305	9586.075
1348.95352	9826.875
1352.44163	10132.275
1355.92738	10454.175
1359.41078	10981.275
1362.89183	11568.375
1366.37053	11523.975
1369.84688	10668.075
1373.32088	9628.075
1376.79254	8873.475
1380.26186	8455.975
1383.72883	8247.575
1387.19347	8097.475
1390.65578	7960.775
1394.11575	7814.475
1397.57339	7659.875
1401.0287	7597.675
1404.48168	7538.775
1407.93234	7489.975
1411.38068	7432.775
1414.82669	7367.475
1418.27039	7278.975
1421.71177	7181.875
1425.15083	7088.675
1428.58758	7015.875
1432.02203	6956.375
1435.45416	6944.675
1438.88399	6990.575
1442.31151	6981.275
1445.73673	6997.875
1449.15965	7062.975
1452.58027	7078.875
1455.9986	7089.175
1459.41463	7131.375
1462.82837	7192.875
1466.23982	7297.875
1469.64898	7380.775
1473.05586	7488.875
1476.46045	7529.275
1479.86276	7578.675
1483.26279	7645.375
1486.66054	7730.975
1490.05602	7843.375
1493.44922	8032.875
1496.84016	8320.375
1500.22882	8830.975
1503.61521	9439.175
1506.99934	10124.275
1510.38121	10614.375
1513.76081	10774.475
1517.13816	10371.575
1520.51324	9706.075
1523.88607	9037.975
1527.25665	8574.475
1530.62498	8298.975
1533.99105	8100.275
1537.35488	7976.575
1540.71647	7851.875
1544.07581	7756.775
1547.4329	7664.475
1550.78776	7626.675
1554.14038	7616.875
1557.49077	7635.375
1560.83892	7694.175
1564.18484	7799.875
1567.52853	7916.975
1570.86999	8029.475
1574.20922	8131.675
1577.54624	8110.175
1580.88103	7972.375
1584.2136	7705.575
1587.54395	7537.875
1590.87208	7468.775
1594.19801	7545.375
1597.52172	7712.175
1600.84321	7856.375
1604.16251	7740.875
1607.47959	7551.975
1610.79447	7352.575
1614.10715	7106.675
1617.41763	6891.375
1620.7259	6684.375
1624.03199	6560.375
1627.33587	6508.975
1630.63757	6518.075
1633.93707	6594.575
1637.23439	6769.475
1640.52951	7057.975
1643.82246	7498.575
1647.11321	8064.375
1650.40179	8516.075
1653.68819	8597.275
1656.97241	8145.575
1660.25446	7527.975
1663.53433	6956.475
1666.81203	6565.775
1670.08756	6275.475
1673.36092	6094.475
1676.63211	5976.275
1679.90115	5885.775
1683.16801	5815.975
1686.43272	5758.175
1689.69527	5698.375
1692.95567	5672.275
1696.2139	5671.875
1699.46999	5662.475
1702.72392	5629.875
1705.97571	5576.275
1709.22535	5552.675
1712.47284	5519.275
1715.71819	5503.075
1718.96139	5481.375
1722.20246	5463.675
1725.44139	5433.275
1728.67818	5394.375
1731.91284	5366.875
1735.14537	5337.675
1738.37576	5306.875
1741.60403	5292.775
1744.83017	5262.675
1748.05418	5256.675
1751.27607	5260.175
1754.49584	5249.075
1757.71349	5258.175
1760.92903	5254.575
1764.14244	5240.675
1767.35375	5242.075
1770.56294	5205.775
1773.77002	5168.475
1776.97499	5132.475
1780.17785	5093.775
1783.37861	5061.475
1786.57727	5041.475
1789.77382	5023.075
1792.96828	4997.075
1796.16064	4974.275
1799.3509	4943.075
1802.53907	4945.075
1805.72514	4917.675
1808.90913	4900.375
1812.09102	4873.775
1815.27083	4860.375
1818.44856	4842.775
1821.6242	4829.375
1824.79776	4830.775
1827.96924	4800.375
1831.13864	4819.375
1834.30597	4778.675
1837.47122	4782.075
1840.6344	4754.175
1843.7955	4764.375
1846.95454	4750.475
1850.11151	4746.675
1853.26642	4746.475
1856.41926	4722.975
1859.57004	4738.475
1862.71876	4709.775
1865.86542	4709.675
1869.01003	4696.675
1872.15258	4703.675
1875.29308	4689.275
1878.43152	4670.475
1881.56792	4656.475
1884.70227	4639.675
1887.83457	4639.875
1890.96482	4620.775
1894.09304	4613.475
1897.21921	4607.375
1900.34335	4592.375
1903.46544	4586.275
1906.58551	4586.175
1909.70353	4579.275
1912.81953	4573.675
1915.93349	4543.275
1919.04543	4538.775
1922.15534	4517.475
1925.26322	4519.275
1928.36908	4498.475
1931.47292	4497.675
1934.57473	4485.275
1937.67453	4466.075
1940.77232	4460.775
1943.86808	4434.475
1946.96184	4415.375
1950.05358	4401.475
1953.14331	4384.175
1956.23103	4386.875
1959.31675	4363.675
1962.40046	4357.975
1965.48217	4323.275
1968.56188	4322.175
1971.63959	4287.775
1974.7153	4300.075
1977.78901	4272.875
1980.86073	4260.075
1983.93046	4248.875
1986.99819	4235.375
1990.06394	4206.575
1993.1277	4197.375
1996.18947	4170.575
1999.24925	4170.875
2002.30706	4151.075
2005.36288	4133.375
2008.41672	4136.975
2011.46859	4097.875
2014.51848	4082.675
2017.56639	4062.675
2020.61233	4043.575
2023.6563	4048.775
2026.6983	4023.275
2029.73833	4014.275
2032.7764	4011.775
2035.8125	3987.675
2038.84664	3965.675
2041.87881	3961.075
2044.90903	3956.875
2047.93729	3954.975
2050.96359	3934.475
2053.98794	3932.375
2057.01034	3924.975
2060.03078	3913.175
2063.04927	3925.575
2066.06582	3892.675
2069.08042	3884.275
2072.09307	3887.575
2075.10378	3886.575
2078.11255	3865.575
2081.11938	3877.575
2084.12426	3861.875
2087.12722	3852.875
2090.12824	3871.075
2093.12732	3864.775
2096.12447	3853.775
2099.11969	3850.575
2102.11299	3870.075
2105.10435	3840.775
2108.09379	3849.075
2111.08131	3845.075
2114.0669	3859.075
2117.05057	3842.375
2120.03233	3845.975
2123.01216	3858.475
2125.99008	3859.375
2128.96609	3847.075
2131.94018	3836.375
2134.91236	3849.575
2137.88263	3858.675
2140.851	3829.675
2143.81746	3856.075
2146.78201	3839.675
2149.74466	3848.475
2152.7054	3836.975
2155.66425	3828.175
2158.6212	3829.975
2161.57625	3823.375
2164.52941	3819.075
2167.48067	3818.075
2170.43004	3806.775
2173.37752	3799.775
2176.32311	3792.975
2179.26681	3802.975
2182.20863	3807.675
2185.14856	3789.275
2188.08661	3788.075
2191.02278	3780.075
2193.95707	3772.175
2196.88948	3758.775
2199.82001	3766.575
2202.74867	3761.875
2205.67545	3750.775
2208.60037	3740.975
2211.52341	3739.975
2214.44458	3725.575
2217.36388	3717.275
2220.28132	3703.175
2223.1969	3686.675
2226.11061	3688.975
2229.02246	3674.175
2231.93245	3667.675
2234.84058	3648.075
2237.74686	3655.275
2240.65128	3638.175
2243.55385	3623.275
2246.45456	3631.575
2249.35343	3621.275
2252.25044	3596.475
2255.14561	3608.475
2258.03893	3601.475
2260.93041	3608.375
2263.82004	3586.075
2266.70783	3574.175
2269.59378	3559.975
2272.4779	3548.075
2275.36017	3543.775
2278.24061	3526.375
2281.11922	3510.075
2283.996	3508.975
2286.87094	3502.375
2289.74405	3492.575
2292.61534	3483.075
2295.4848	3487.775
2298.35243	3476.575
2301.21824	3453.475
2304.08223	3452.775
2306.94439	3445.875
2309.80474	3444.975
2312.66327	3434.375
2315.51999	3441.375
2318.37489	3437.775
2321.22797	3416.875
2324.07925	3422.675
2326.92871	3411.075
2329.77637	3410.575
2332.62222	3396.675
2335.46626	3394.775
2338.3085	3376.275
2341.14893	3376.075
2343.98756	3360.475
2346.8244	3373.075
2349.65943	3357.475
2352.49267	3357.675
2355.32411	3343.475
2358.15376	3356.475
2360.98161	3355.775
2363.80768	3342.675
2366.63195	3333.475
2369.45444	3330.275
2372.27514	3335.475
2375.09405	3312.875
2377.91118	3318.375
2380.72652	3301.975
2383.54009	3287.075
2386.35187	3304.175
2389.16188	3273.475
2391.97011	3265.175
2394.77657	3255.875
2397.58125	3245.775
2400.38416	3242.975
2403.18529	3233.975
2405.98466	3227.075
2408.78226	3202.675
2411.57809	3202.675
2414.37216	3199.675
2417.16446	3193.475
2419.955	3194.075
2422.74378	3186.875
2425.5308	3186.175
2428.31606	3164.775
2431.09956	3167.975
2433.88131	3163.475
2436.6613	3162.575
2439.43954	3149.575
2442.21603	3165.075
2444.99077	3138.575
2447.76377	3153.575
2450.53501	3139.875
2453.30451	3132.675
2456.07226	3118.575
2458.83827	3119.775
2461.60254	3116.875
2464.36507	3114.275
2467.12586	3101.575
2469.88492	3107.275
2472.64224	3096.775
2475.39782	3105.875
2478.15167	3104.575
2480.90379	3101.975
2483.65417	3098.075
2486.40283	3076.075
2489.14976	3083.675
2491.89497	3079.975
2494.63845	3088.175
2497.3802	3081.975
2500.12024	3066.175
2502.85855	3054.975
2505.59514	3047.375
2508.33002	3049.475
2511.06318	3036.975
2513.79462	3028.875
2516.52435	3030.675
2519.25237	3012.675
2521.97867	3011.075
2524.70327	3010.775
2527.42616	2997.375
2530.14734	2994.475
2532.86681	2976.675
2535.58458	2982.875
2538.30065	2968.375
2541.01501	2968.375
2543.72768	2982.475
2546.43864	2960.175
2549.14791	2942.075
2551.85548	2941.475
2554.56136	2942.175
2557.26554	2919.975
2559.96803	2929.075
2562.66883	2922.575
2565.36794	2905.275
2568.06536	2900.075
2570.7611	2893.475
2573.45514	2889.675
2576.14751	2889.675
2578.83819	2872.275
2581.52719	2859.475
2584.21451	2859.075
2586.90015	2859.475
2589.58411	2869.975
2592.2664	2840.275
2594.94701	2838.575
2597.62594	2829.975
2600.30321	2828.375
2602.9788	2806.875
2605.65273	2807.775
2608.32498	2812.175
2610.99557	2789.675
2613.66449	2788.575
2616.33175	2778.675
2618.99734	2791.275
2621.66128	2774.575
2624.32355	2762.975
2626.98416	2754.875
2629.64311	2760.875
2632.30041	2761.175
2634.95605	2755.575
2637.61004	2736.675
2640.26238	2737.475
2642.91306	2730.975
2645.56209	2728.075
2648.20948	2727.075
2650.85521	2723.375
2653.4993	2716.775
2656.14175	2710.575
2658.78255	2720.275
2661.42171	2707.975
2664.05923	2698.275
2666.6951	2708.475
2669.32934	2704.875
2671.96194	2707.775
2674.59291	2701.475
2677.22224	2706.575
2679.84993	2707.575
2682.476	2685.975
2685.10043	2694.475
2687.72324	2692.375
2690.34441	2687.875
2692.96396	2695.975
2695.58188	2689.175
2698.19818	2697.175
2700.81285	2689.575
2703.4259	2710.375
2706.03733	2758.575
2708.64714	2724.675
2711.25533	2685.875
2713.86191	2682.275
2716.46687	2683.975
2719.07021	2666.675
2721.67194	2687.775
2724.27206	2665.975
2726.87057	2675.475
2729.46747	2664.475
2732.06276	2677.475
2734.65644	2660.675
2737.24852	2662.575
2739.83899	2648.375
2742.42786	2646.375
2745.01513	2650.875
2747.60079	2641.875
2750.18486	2634.375
2752.76733	2633.675
2755.3482	2614.175
2757.92747	2629.675
2760.50515	2614.875
2763.08123	2610.575
2765.65573	2603.375
2768.22863	2610.375
2770.79994	2590.175
2773.36967	2602.675
2775.9378	2604.875
2778.50435	2590.175
2781.06932	2573.675
2783.6327	2571.875
2786.1945	2567.575
2788.75471	2561.275
2791.31335	2550.175
2793.87041	2547.575
2796.42589	2535.275
2798.97979	2544.575
2801.53212	2526.775
2804.08288	2535.075
2806.63206	2527.575
2809.17967	2515.475
2811.72571	2511.975
2814.27018	2506.075
2816.81308	2499.675
2819.35442	2501.975
2821.89419	2488.775
2824.43239	2486.575
2826.96904	2480.875
2829.50412	2492.875
2832.03763	2478.775
2834.56959	2480.675
2837.1	2473.275
2839.62884	2475.475
2842.15613	2479.075
2844.68186	2476.375
2847.20604	2480.175
2849.72867	2476.975
2852.24974	2479.575
2854.76927	2479.275
2857.28724	2472.875
2859.80367	2463.075
2862.31855	2458.275
2864.83189	2470.975
2867.34368	2447.375
2869.85393	2454.075
2872.36264	2441.175
2874.8698	2441.075
2877.37543	2446.575
2879.87952	2453.275
2882.38207	2442.175
2884.88308	2436.375
2887.38256	2437.175
2889.88051	2423.375
2892.37692	2431.875
2894.8718	2423.875
2897.36515	2425.475
2899.85698	2429.075
2902.34727	2426.275
2904.83604	2430.375
2907.32328	2429.475
2909.809	2433.575
2912.29319	2429.275
2914.77587	2428.075
2917.25702	2420.275
2919.73665	2410.675
2922.21476	2429.475
2924.69136	2418.375
2927.16644	2429.375
2929.64	2427.475
2932.11205	2413.775
2934.58258	2412.875
2937.05161	2426.675
2939.51912	2424.175
2941.98513	2417.575
2944.44962	2412.875
2946.91261	2399.075
2949.37409	2400.475
2951.83407	2405.875
2954.29254	2398.675
2956.74951	2393.375
2959.20498	2385.275
2961.65895	2383.075
2964.11142	2378.175
2966.56239	2374.175
2969.01186	2373.175
2971.45984	2367.375
2973.90632	2353.375
2976.35131	2350.675
2978.7948	2341.475
2981.23681	2349.275
2983.67732	2340.975
2986.11635	2321.975
2988.55388	2326.075
2990.98993	2320.675
2993.4245	2302.075
2995.85758	2316.875
2998.28917	2308.375
3000.71928	2304.575
3003.14791	2287.875
3005.57506	2285.975
3008.00073	2294.075
3010.42493	2283.875
3012.84764	2278.275
3015.26888	2283.875
3017.68865	2282.775
3020.10694	2267.275
3022.52376	2275.775
3024.9391	2260.975
3027.35298	2275.575
3029.76539	2259.675
3032.17632	2250.475
3034.5858	2244.375
3036.9938	2256.175
3039.40034	2245.075
3041.80542	2237.375
3044.20903	2234.575
3046.61118	2247.275
3049.01187	2232.275
3051.4111	2235.275
3053.80888	2225.775
3056.20519	2225.475
3058.60005	2229.775
3060.99345	2223.975
3063.3854	2213.375
3065.7759	2218.675
3068.16494	2210.675
3070.55254	2214.175
3072.93868	2198.375
3075.32338	2197.275
3077.70662	2205.275
3080.08842	2206.775
3082.46878	2195.375
3084.84769	2196.275
3087.22515	2202.075
3089.60118	2213.475
3091.97576	2200.475
3094.3489	2200.475
3096.72061	2207.175
3099.09087	2209.375
3101.4597	2207.075
3103.82709	2215.275
3106.19305	2206.575
3108.55757	2207.275
3110.92066	2194.575
3113.28232	2197.475
3115.64255	2199.275
3118.00134	2195.475
3120.35871	2197.975
3122.71466	2191.375
3125.06917	2197.375
3127.42226	2179.275
3129.77393	2191.875
3132.12417	2193.975
3134.47299	2189.975
3136.82039	2198.175
3139.16636	2199.075
3141.51092	2203.275
3143.85406	2209.175
3146.19579	2219.175
3148.53609	2212.075
3150.87499	2219.375
3153.21246	2220.075
3155.54853	2230.075
3157.88318	2219.575
3160.21642	2232.275
3162.54826	2240.475
3164.87868	2250.075
3167.2077	2239.675
3169.5353	2234.775
3171.86151	2232.875
3174.18631	2241.575
3176.5097	2246.575
3178.83169	2238.875
3181.15228	2242.075
3183.47147	2230.075
3185.78926	2239.075
3188.10565	2249.075
3190.42065	2250.275
3192.73424	2247.275
3195.04645	2255.175
3197.35725	2257.075
3199.66667	2262.575
3201.97469	2245.575
3204.28132	2261.375
3206.58656	2262.275
3208.8904	2267.875
3211.19287	2281.075
3213.49394	2273.275
3215.79363	2271.475
3218.09193	2283.075
3220.38884	2280.475
3222.68438	2294.175
3224.97853	2281.375
3227.2713	2271.075
3229.56269	2280.575
3231.8527	2271.975
3234.14133	2268.075
