Data from AgNPs_FTO_APTES_UA_10um_CRN_0.1mM_R6G_10uM_NaF_0.1M_Addition_RamanShift__21__13-59-59-149.txt Node

Date: Tue Dec 21 13:59:59 GMT 2021
User: TCL
Spectrometer: QEP01345
Trigger mode: 4
Integration Time (sec): 7.000000E0
Scans to average: 10
Electric dark correction enabled: true
Nonlinearity correction enabled: false
Boxcar width: 0
XAxis mode: Raman Shifts
Number of Pixels in Spectrum: 1044
>>>>>Begin Spectral Data<<<<<
46.04893	-0.5875
50.45542	-1.1875
54.85868	0.0125
59.25871	-0.1875
63.6555	50.3125
68.04907	53.3125
72.43941	59.3125
76.82654	59.7125
81.21044	62.0125
85.59113	65.1125
89.96862	67.2125
94.34289	65.4125
98.71396	70.2125
103.08183	72.0125
107.4465	76.3125
111.80798	79.1125
116.16626	78.3125
120.52136	81.3125
124.87327	83.8125
129.222	87.4125
133.56755	91.5125
137.90993	101.6125
142.24913	112.3125
146.58517	123.8125
150.91804	143.4125
155.24774	171.0125
159.57429	209.9125
163.89768	271.3125
168.21792	362.7125
172.53501	493.0125
176.84895	672.6125
181.15975	951.1125
185.46741	1337.3125
189.77193	1833.4125
194.07331	2468.3125
198.37157	3188.4125
202.6667	3965.2125
206.9587	4726.1125
211.24758	5472.9125
215.53334	6241.1125
219.81599	7040.0125
224.09553	7912.7125
228.37195	8871.1125
232.64527	9956.4125
236.91549	11068.2125
241.18261	12220.5125
245.44663	13308.0125
249.70755	14228.8125
253.96539	15025.1125
258.22014	15682.2125
262.4718	16240.6125
266.72039	16642.5125
270.96589	16785.5125
275.20832	16847.1125
279.44768	16763.7125
283.68397	16657.6125
287.91719	16579.6125
292.14735	16514.7125
296.37445	16489.9125
300.59849	16559.3125
304.81948	16547.7125
309.03742	16457.8125
313.25231	16243.2125
317.46415	15801.3125
321.67296	15306.4125
325.87872	14924.5125
330.08145	14723.9125
334.28114	14696.6125
338.47781	14794.8125
342.67145	14987.3125
346.86207	15267.3125
351.04966	15560.2125
355.23424	15878.7125
359.4158	16176.7125
363.59435	16435.0125
367.76989	16532.2125
371.94243	16657.4125
376.11196	16758.6125
380.27849	16831.6125
384.44203	16958.9125
388.60257	17105.7125
392.76012	17287.8125
396.91468	17478.0125
401.06626	17702.0125
405.21485	17953.3125
409.36047	17911.3125
413.50311	17673.6125
417.64277	17426.1125
421.77947	17369.5125
425.9132	17392.9125
430.04396	17506.0125
434.17176	17623.5125
438.2966	17800.6125
442.41849	18128.2125
446.53742	18655.3125
450.6534	19222.2125
454.76644	19706.2125
458.87653	19879.6125
462.98368	19823.8125
467.08789	19611.6125
471.18916	19414.3125
475.2875	19253.9125
479.38291	19285.4125
483.4754	19191.6125
487.56496	18965.0125
491.6516	18607.0125
495.73531	18294.3125
499.81612	18107.1125
503.89401	18099.1125
507.96899	18068.2125
512.04106	17976.8125
516.11023	17819.9125
520.1765	17691.6125
524.23987	17560.9125
528.30034	17511.4125
532.35792	17472.9125
536.41261	17360.0125
540.46441	17187.3125
544.51333	17083.5125
548.55936	17192.1125
552.60252	17456.6125
556.64279	17777.8125
560.6802	18085.3125
564.71473	18280.6125
568.7464	18573.9125
572.7752	18959.8125
576.80114	19216.0125
580.82422	19341.6125
584.84444	19480.0125
588.86181	19716.8125
592.87633	20080.9125
596.888	20408.5125
600.89682	20446.1125
604.9028	20923.9125
608.90594	22461.7125
612.90624	24051.9125
616.90371	22649.1125
620.89834	19101.0125
624.89015	17487.6125
628.87913	17351.7125
632.86528	17512.2125
636.84862	17650.2125
640.82913	17478.6125
644.80683	17006.3125
648.78172	16598.5125
652.75379	16416.9125
656.72306	16493.7125
660.68952	16798.9125
664.65319	16816.6125
668.61405	16680.7125
672.57211	16721.3125
676.52738	16862.5125
680.47986	16888.5125
684.42955	16773.6125
688.37646	16659.4125
692.32058	16571.5125
696.26192	16593.6125
700.20048	16683.0125
704.13626	16819.0125
708.06928	16799.3125
711.99952	16628.5125
715.927	16547.4125
719.85171	16524.8125
723.77365	16554.8125
727.69284	16472.8125
731.60928	16418.4125
735.52295	16391.7125
739.43388	16402.9125
743.34206	16450.5125
747.24749	16451.1125
751.15017	16532.1125
755.05012	16724.0125
758.94733	17163.8125
762.8418	17976.5125
766.73354	19320.9125
770.62254	20711.2125
774.50882	21206.1125
778.39237	20384.3125
782.27321	18817.3125
786.15132	17470.6125
790.02671	16575.7125
793.89938	16141.9125
797.76935	15973.7125
801.6366	15929.7125
805.50115	15930.5125
809.36299	15865.0125
813.22213	15720.1125
817.07857	15663.7125
820.93231	15645.5125
824.78336	15546.5125
828.63172	15505.0125
832.47738	15475.4125
836.32036	15451.4125
840.16066	15449.2125
843.99827	15461.0125
847.8332	15393.7125
851.66546	15374.6125
855.49504	15342.8125
859.32195	15366.1125
863.1462	15399.9125
866.96777	15385.6125
870.78668	15379.5125
874.60293	15389.9125
878.41652	15364.9125
882.22745	15402.4125
886.03573	15447.5125
889.84136	15474.9125
893.64433	15368.5125
897.44466	15292.1125
901.24235	15152.8125
905.0374	15060.6125
908.8298	14963.8125
912.61957	14946.0125
916.40671	15065.0125
920.19121	15222.6125
923.97308	15388.8125
927.75233	15432.7125
931.52895	15352.8125
935.30295	15195.1125
939.07433	14970.9125
942.84309	14748.7125
946.60924	14652.8125
950.37278	14576.7125
954.13371	14515.8125
957.89203	14451.9125
961.64774	14404.3125
965.40086	14354.2125
969.15137	14283.2125
972.89929	14190.3125
976.64461	14095.3125
980.38733	14080.4125
984.12747	14110.5125
987.86502	14212.9125
991.59999	14359.1125
995.33237	14576.3125
999.06217	14961.6125
1002.78939	15379.1125
1006.51404	15723.0125
1010.23611	15986.0125
1013.95561	16120.9125
1017.67255	16167.9125
1021.38692	15981.9125
1025.09872	15745.4125
1028.80796	15642.9125
1032.51465	15831.1125
1036.21877	16037.6125
1039.92035	16149.8125
1043.61937	16101.0125
1047.31584	15943.0125
1051.00976	15660.2125
1054.70114	15568.9125
1058.38998	15520.6125
1062.07627	15605.3125
1065.76003	15718.2125
1069.44126	15831.8125
1073.11995	15997.2125
1076.79611	16123.2125
1080.46974	16163.5125
1084.14085	16197.6125
1087.80943	16328.8125
1091.47549	16503.4125
1095.13903	16544.1125
1098.80005	16427.5125
1102.45857	16096.1125
1106.11456	15837.2125
1109.76805	15741.3125
1113.41903	15769.7125
1117.06751	15891.2125
1120.71348	16114.5125
1124.35696	16336.0125
1127.99793	16596.9125
1131.63641	16787.0125
1135.2724	16768.5125
1138.90589	16640.4125
1142.5369	16507.0125
1146.16542	16448.3125
1149.79145	16390.8125
1153.415	16523.2125
1157.03607	16672.0125
1160.65467	17056.0125
1164.27079	17691.3125
1167.88443	18606.5125
1171.49561	19679.1125
1175.10432	21118.7125
1178.71056	22912.0125
1182.31434	24588.0125
1185.91565	25512.3125
1189.51451	25589.9125
1193.11091	25010.1125
1196.70485	24029.4125
1200.29634	23011.8125
1203.88538	22131.9125
1207.47197	21442.7125
1211.05612	20896.1125
1214.63782	20413.6125
1218.21708	20156.6125
1221.79391	19988.4125
1225.36829	19831.8125
1228.94024	19558.7125
1232.50976	19210.5125
1236.07685	18932.3125
1239.6415	18784.2125
1243.20374	18755.8125
1246.76355	18862.0125
1250.32093	19102.7125
1253.8759	19459.6125
1257.42845	20068.7125
1260.97859	20574.8125
1264.52631	21046.1125
1268.07163	21562.2125
1271.61453	22197.8125
1275.15503	22821.6125
1278.69312	23475.7125
1282.22882	24133.8125
1285.76211	24717.9125
1289.29301	25510.0125
1292.82151	26527.5125
1296.34761	27761.5125
1299.87133	29262.4125
1303.39266	30852.7125
1306.9116	32610.1125
1310.42815	34317.6125
1313.94233	35478.9125
1317.45412	35748.0125
1320.96354	35270.5125
1324.47058	34638.7125
1327.97525	34046.9125
1331.47754	33533.8125
1334.97747	33310.3125
1338.47502	33386.9125
1341.97022	33322.3125
1345.46305	33010.4125
1348.95352	32522.0125
1352.44163	32241.5125
1355.92738	32501.0125
1359.41078	33411.0125
1362.89183	34266.2125
1366.37053	33712.7125
1369.84688	31311.5125
1373.32088	28233.6125
1376.79254	26022.6125
1380.26186	25000.6125
1383.72883	24790.8125
1387.19347	24771.4125
1390.65578	24682.2125
1394.11575	24859.7125
1397.57339	25307.1125
1401.0287	26049.6125
1404.48168	26713.6125
1407.93234	27035.5125
1411.38068	26855.6125
1414.82669	26092.4125
1418.27039	24976.3125
1421.71177	23718.5125
1425.15083	22608.4125
1428.58758	21973.0125
1432.02203	21806.1125
1435.45416	22156.9125
1438.88399	22613.5125
1442.31151	23104.1125
1445.73673	23594.8125
1449.15965	24122.3125
1452.58027	24587.8125
1455.9986	24814.8125
1459.41463	25101.9125
1462.82837	25504.4125
1466.23982	26022.8125
1469.64898	26466.5125
1473.05586	26656.8125
1476.46045	26538.8125
1479.86276	26370.3125
1483.26279	26087.7125
1486.66054	25790.6125
1490.05602	25782.2125
1493.44922	25835.0125
1496.84016	25754.4125
1500.22882	25869.6125
1503.61521	26276.5125
1506.99934	26987.7125
1510.38121	27647.0125
1513.76081	27876.0125
1517.13816	27311.6125
1520.51324	26279.4125
1523.88607	25325.0125
1527.25665	24695.9125
1530.62498	24467.2125
1533.99105	24378.7125
1537.35488	24315.4125
1540.71647	24152.9125
1544.07581	23792.8125
1547.4329	23387.0125
1550.78776	22966.0125
1554.14038	22652.1125
1557.49077	22569.0125
1560.83892	22596.6125
1564.18484	22658.7125
1567.52853	22673.0125
1570.86999	22732.0125
1574.20922	22947.7125
1577.54624	23171.5125
1580.88103	23182.6125
1584.2136	23309.0125
1587.54395	23780.2125
1590.87208	24859.6125
1594.19801	26310.6125
1597.52172	27879.8125
1600.84321	28632.0125
1604.16251	27747.1125
1607.47959	25810.3125
1610.79447	23470.2125
1614.10715	21316.1125
1617.41763	19568.6125
1620.7259	18371.0125
1624.03199	17789.5125
1627.33587	17623.7125
1630.63757	18034.1125
1633.93707	19014.0125
1637.23439	20655.5125
1640.52951	22957.6125
1643.82246	25802.8125
1647.11321	28165.5125
1650.40179	28893.6125
1653.68819	27469.6125
1656.97241	24345.4125
1660.25446	20970.0125
1663.53433	18312.1125
1666.81203	16555.2125
1670.08756	15402.7125
1673.36092	14723.9125
1676.63211	14233.9125
1679.90115	13899.1125
1683.16801	13642.8125
1686.43272	13444.2125
1689.69527	13289.6125
1692.95567	13186.1125
1696.2139	13115.6125
1699.46999	13066.2125
1702.72392	13009.2125
1705.97571	12941.8125
1709.22535	12878.1125
1712.47284	12824.2125
1715.71819	12772.0125
1718.96139	12756.3125
1722.20246	12688.4125
1725.44139	12640.8125
1728.67818	12596.5125
1731.91284	12528.6125
1735.14537	12469.1125
1738.37576	12412.9125
1741.60403	12367.4125
1744.83017	12362.9125
1748.05418	12328.5125
1751.27607	12331.3125
1754.49584	12317.6125
1757.71349	12332.8125
1760.92903	12284.1125
1764.14244	12230.3125
1767.35375	12188.2125
1770.56294	12165.8125
1773.77002	12122.5125
1776.97499	12061.9125
1780.17785	12032.5125
1783.37861	11987.7125
1786.57727	11944.3125
1789.77382	11933.5125
1792.96828	11887.0125
1796.16064	11873.3125
1799.3509	11842.1125
1802.53907	11820.6125
1805.72514	11783.6125
1808.90913	11760.1125
1812.09102	11721.1125
1815.27083	11680.4125
1818.44856	11682.5125
1821.6242	11663.4125
1824.79776	11674.1125
1827.96924	11625.3125
1831.13864	11602.9125
1834.30597	11610.0125
1837.47122	11583.7125
1840.6344	11602.3125
1843.7955	11586.7125
1846.95454	11597.4125
1850.11151	11580.2125
1853.26642	11560.6125
1856.41926	11582.8125
1859.57004	11572.9125
1862.71876	11555.7125
1865.86542	11552.3125
1869.01003	11547.8125
1872.15258	11536.5125
1875.29308	11557.2125
1878.43152	11502.9125
1881.56792	11485.9125
1884.70227	11507.9125
1887.83457	11492.5125
1890.96482	11483.3125
1894.09304	11468.2125
1897.21921	11491.7125
1900.34335	11486.1125
1903.46544	11464.5125
1906.58551	11428.3125
1909.70353	11448.7125
1912.81953	11391.1125
1915.93349	11358.0125
1919.04543	11365.4125
1922.15534	11333.7125
1925.26322	11311.0125
1928.36908	11255.1125
1931.47292	11260.6125
1934.57473	11210.1125
1937.67453	11166.6125
1940.77232	11158.3125
1943.86808	11129.4125
1946.96184	11085.2125
1950.05358	11032.1125
1953.14331	11014.9125
1956.23103	10964.3125
1959.31675	10924.2125
1962.40046	10923.1125
1965.48217	10873.1125
1968.56188	10836.8125
1971.63959	10810.4125
1974.7153	10761.3125
1977.78901	10710.7125
1980.86073	10678.3125
1983.93046	10659.1125
1986.99819	10629.7125
1990.06394	10600.7125
1993.1277	10540.7125
1996.18947	10493.6125
1999.24925	10495.3125
2002.30706	10486.5125
2005.36288	10439.8125
2008.41672	10411.0125
2011.46859	10352.6125
2014.51848	10323.3125
2017.56639	10323.5125
2020.61233	10282.4125
2023.6563	10283.5125
2026.6983	10225.8125
2029.73833	10221.7125
2032.7764	10206.9125
2035.8125	10154.9125
2038.84664	10159.8125
2041.87881	10153.1125
2044.90903	10124.6125
2047.93729	10128.0125
2050.96359	10112.3125
2053.98794	10081.3125
2057.01034	10079.9125
2060.03078	10083.3125
2063.04927	10053.9125
2066.06582	10036.6125
2069.08042	10027.7125
2072.09307	10003.0125
2075.10378	9991.0125
2078.11255	10003.0125
2081.11938	10009.1125
2084.12426	9981.3125
2087.12722	9975.0125
2090.12824	9952.9125
2093.12732	9971.7125
2096.12447	9968.7125
2099.11969	9947.6125
2102.11299	9952.0125
2105.10435	9955.9125
2108.09379	9951.7125
2111.08131	9957.6125
2114.0669	9944.0125
2117.05057	9951.7125
2120.03233	9957.5125
2123.01216	9971.6125
2125.99008	9966.1125
2128.96609	9967.5125
2131.94018	9980.0125
2134.91236	9976.2125
2137.88263	9984.7125
2140.851	9975.4125
2143.81746	9999.7125
2146.78201	9995.9125
2149.74466	10000.6125
2152.7054	9955.0125
2155.66425	9960.8125
2158.6212	9948.9125
2161.57625	9950.4125
2164.52941	9957.4125
2167.48067	9952.3125
2170.43004	9929.9125
2173.37752	9918.2125
2176.32311	9908.1125
2179.26681	9939.5125
2182.20863	9933.7125
2185.14856	9930.5125
2188.08661	9902.2125
2191.02278	9905.0125
2193.95707	9913.9125
2196.88948	9923.9125
2199.82001	9900.0125
2202.74867	9899.0125
2205.67545	9895.7125
2208.60037	9855.6125
2211.52341	9883.1125
2214.44458	9855.0125
2217.36388	9840.9125
2220.28132	9783.7125
2223.1969	9805.2125
2226.11061	9805.1125
2229.02246	9753.9125
2231.93245	9740.1125
2234.84058	9692.7125
2237.74686	9692.0125
2240.65128	9694.9125
2243.55385	9667.6125
2246.45456	9655.0125
2249.35343	9622.5125
2252.25044	9617.5125
2255.14561	9606.3125
2258.03893	9600.9125
2260.93041	9603.2125
2263.82004	9540.1125
2266.70783	9519.0125
2269.59378	9478.1125
2272.4779	9469.5125
2275.36017	9439.0125
2278.24061	9423.9125
2281.11922	9397.3125
2283.996	9376.7125
2286.87094	9372.5125
2289.74405	9356.2125
2292.61534	9355.2125
2295.4848	9324.2125
2298.35243	9319.9125
2301.21824	9303.1125
2304.08223	9323.3125
2306.94439	9326.6125
2309.80474	9297.1125
2312.66327	9297.2125
2315.51999	9274.6125
2318.37489	9302.6125
2321.22797	9281.5125
2324.07925	9277.2125
2326.92871	9260.4125
2329.77637	9262.5125
2332.62222	9243.4125
2335.46626	9235.7125
2338.3085	9258.0125
2341.14893	9228.0125
2343.98756	9235.4125
2346.8244	9234.8125
2349.65943	9213.3125
2352.49267	9226.7125
2355.32411	9200.6125
2358.15376	9204.3125
2360.98161	9222.6125
2363.80768	9185.6125
2366.63195	9169.1125
2369.45444	9170.4125
2372.27514	9144.6125
2375.09405	9118.6125
2377.91118	9094.2125
2380.72652	9085.4125
2383.54009	9068.8125
2386.35187	9045.1125
2389.16188	9006.0125
2391.97011	9011.9125
2394.77657	9003.8125
2397.58125	8996.3125
2400.38416	8971.9125
2403.18529	8964.6125
2405.98466	8928.2125
2408.78226	8925.7125
2411.57809	8884.7125
2414.37216	8904.9125
2417.16446	8877.9125
2419.955	8842.0125
2422.74378	8854.0125
2425.5308	8822.9125
2428.31606	8854.2125
2431.09956	8833.6125
2433.88131	8812.6125
2436.6613	8828.2125
2439.43954	8795.6125
2442.21603	8771.5125
2444.99077	8791.1125
2447.76377	8776.3125
2450.53501	8772.1125
2453.30451	8798.1125
2456.07226	8785.6125
2458.83827	8781.8125
2461.60254	8767.3125
2464.36507	8756.8125
2467.12586	8745.6125
2469.88492	8758.4125
2472.64224	8765.5125
2475.39782	8778.4125
2478.15167	8773.7125
2480.90379	8761.0125
2483.65417	8764.8125
2486.40283	8767.1125
2489.14976	8767.3125
2491.89497	8758.7125
2494.63845	8791.0125
2497.3802	8772.3125
2500.12024	8782.9125
2502.85855	8756.2125
2505.59514	8765.9125
2508.33002	8734.0125
2511.06318	8738.5125
2513.79462	8732.0125
2516.52435	8716.5125
2519.25237	8692.0125
2521.97867	8678.9125
2524.70327	8685.0125
2527.42616	8676.8125
2530.14734	8665.2125
2532.86681	8646.0125
2535.58458	8643.0125
2538.30065	8627.2125
2541.01501	8609.0125
2543.72768	8616.2125
2546.43864	8603.3125
2549.14791	8589.0125
2551.85548	8592.8125
2554.56136	8591.6125
2557.26554	8583.4125
2559.96803	8552.9125
2562.66883	8535.5125
2565.36794	8555.9125
2568.06536	8534.1125
2570.7611	8496.6125
2573.45514	8528.7125
2576.14751	8522.4125
2578.83819	8510.1125
2581.52719	8516.9125
2584.21451	8498.7125
2586.90015	8493.4125
2589.58411	8468.8125
2592.2664	8477.1125
2594.94701	8476.4125
2597.62594	8472.7125
2600.30321	8443.9125
2602.9788	8454.1125
2605.65273	8436.1125
2608.32498	8440.2125
2610.99557	8451.2125
2613.66449	8444.3125
2616.33175	8442.5125
2618.99734	8443.1125
2621.66128	8416.3125
2624.32355	8422.9125
2626.98416	8435.2125
2629.64311	8419.0125
2632.30041	8429.0125
2634.95605	8431.9125
2637.61004	8414.4125
2640.26238	8411.1125
2642.91306	8385.7125
2645.56209	8416.6125
2648.20948	8399.0125
2650.85521	8362.6125
2653.4993	8376.9125
2656.14175	8364.6125
2658.78255	8373.7125
2661.42171	8385.3125
2664.05923	8371.7125
2666.6951	8382.4125
2669.32934	8379.1125
2671.96194	8390.0125
2674.59291	8396.0125
2677.22224	8400.4125
2679.84993	8379.4125
2682.476	8368.1125
2685.10043	8371.2125
2687.72324	8353.5125
2690.34441	8346.5125
2692.96396	8338.1125
2695.58188	8353.1125
2698.19818	8347.5125
2700.81285	8349.7125
2703.4259	8364.9125
2706.03733	8429.0125
2708.64714	8396.9125
2711.25533	8395.9125
2713.86191	8364.6125
2716.46687	8390.6125
2719.07021	8376.4125
2721.67194	8392.5125
2724.27206	8363.4125
2726.87057	8382.7125
2729.46747	8390.5125
2732.06276	8396.4125
2734.65644	8373.5125
2737.24852	8389.9125
2739.83899	8354.9125
2742.42786	8363.3125
2745.01513	8355.8125
2747.60079	8349.9125
2750.18486	8339.6125
2752.76733	8331.2125
2755.3482	8344.2125
2757.92747	8351.9125
2760.50515	8334.4125
2763.08123	8355.6125
2765.65573	8332.0125
2768.22863	8336.5125
2770.79994	8342.6125
2773.36967	8335.7125
2775.9378	8336.1125
2778.50435	8325.2125
2781.06932	8329.7125
2783.6327	8305.4125
2786.1945	8322.5125
2788.75471	8303.0125
2791.31335	8290.1125
2793.87041	8280.1125
2796.42589	8233.2125
2798.97979	8260.0125
2801.53212	8250.6125
2804.08288	8230.9125
2806.63206	8210.7125
2809.17967	8207.9125
2811.72571	8193.3125
2814.27018	8189.2125
2816.81308	8172.1125
2819.35442	8153.0125
2821.89419	8159.5125
2824.43239	8146.4125
2826.96904	8153.5125
2829.50412	8165.9125
2832.03763	8143.4125
2834.56959	8135.6125
2837.1	8132.1125
2839.62884	8115.2125
2842.15613	8114.6125
2844.68186	8106.9125
2847.20604	8124.3125
2849.72867	8084.5125
2852.24974	8095.3125
2854.76927	8109.9125
2857.28724	8119.5125
2859.80367	8086.2125
2862.31855	8046.4125
2864.83189	8069.5125
2867.34368	8046.0125
2869.85393	8050.3125
2872.36264	8031.7125
2874.8698	8047.5125
2877.37543	8051.4125
2879.87952	8068.7125
2882.38207	8063.0125
2884.88308	8063.9125
2887.38256	8082.5125
2889.88051	8053.0125
2892.37692	8061.1125
2894.8718	8061.4125
2897.36515	8056.4125
2899.85698	8100.8125
2902.34727	8099.7125
2904.83604	8092.6125
2907.32328	8105.3125
2909.809	8128.1125
2912.29319	8119.3125
2914.77587	8136.3125
2917.25702	8126.8125
2919.73665	8127.9125
2922.21476	8137.3125
2924.69136	8138.9125
2927.16644	8146.7125
2929.64	8131.9125
2932.11205	8107.2125
2934.58258	8095.9125
2937.05161	8112.7125
2939.51912	8149.6125
2941.98513	8088.1125
2944.44962	8073.5125
2946.91261	8053.5125
2949.37409	8067.0125
2951.83407	8048.6125
2954.29254	8033.3125
2956.74951	8015.1125
2959.20498	7995.3125
2961.65895	7984.8125
2964.11142	7946.3125
2966.56239	7929.0125
2969.01186	7923.1125
2971.45984	7895.8125
2973.90632	7868.6125
2976.35131	7839.1125
2978.7948	7824.0125
2981.23681	7815.3125
2983.67732	7770.8125
2986.11635	7767.1125
2988.55388	7738.1125
2990.98993	7725.3125
2993.4245	7723.4125
2995.85758	7723.0125
2998.28917	7674.1125
3000.71928	7648.7125
3003.14791	7659.9125
3005.57506	7639.3125
3008.00073	7612.7125
3010.42493	7622.7125
3012.84764	7598.8125
3015.26888	7591.8125
3017.68865	7563.5125
3020.10694	7540.5125
3022.52376	7545.9125
3024.9391	7527.7125
3027.35298	7518.9125
3029.76539	7503.9125
3032.17632	7492.5125
3034.5858	7470.1125
3036.9938	7450.2125
3039.40034	7449.3125
3041.80542	7450.3125
3044.20903	7438.2125
3046.61118	7430.6125
3049.01187	7415.4125
3051.4111	7402.9125
3053.80888	7379.6125
3056.20519	7368.2125
3058.60005	7347.9125
3060.99345	7332.9125
3063.3854	7298.1125
3065.7759	7277.5125
