Data from AgNPs_FTO_APTES_UA_2um_CRN_0.1mM_R6G_10uM_NaF_0.1M_Addition_RamanShift__27__12-46-29-065.txt Node

Date: Tue Dec 21 12:46:29 GMT 2021
User: TCL
Spectrometer: QEP01345
Trigger mode: 4
Integration Time (sec): 7.000000E0
Scans to average: 10
Electric dark correction enabled: true
Nonlinearity correction enabled: false
Boxcar width: 0
XAxis mode: Raman Shifts
Number of Pixels in Spectrum: 1044
>>>>>Begin Spectral Data<<<<<
46.04893	-0.875
50.45542	-1.275
54.85868	-0.775
59.25871	-0.875
63.6555	55.825
68.04907	57.725
72.43941	58.425
76.82654	61.525
81.21044	65.625
85.59113	67.425
89.96862	68.825
94.34289	68.925
98.71396	70.525
103.08183	69.925
107.4465	79.025
111.80798	79.525
116.16626	82.925
120.52136	81.025
124.87327	87.625
129.222	89.425
133.56755	99.425
137.90993	107.525
142.24913	113.325
146.58517	132.425
150.91804	153.625
155.24774	177.425
159.57429	224.025
163.89768	285.325
168.21792	382.325
172.53501	512.425
176.84895	708.025
181.15975	998.025
185.46741	1396.425
189.77193	1922.325
194.07331	2569.925
198.37157	3337.225
202.6667	4127.625
206.9587	4934.425
211.24758	5757.725
215.53334	6596.325
219.81599	7495.825
224.09553	8544.625
228.37195	9678.925
232.64527	10898.925
236.91549	12128.225
241.18261	13309.325
245.44663	14292.525
249.70755	15136.425
253.96539	15907.825
258.22014	16511.025
262.4718	16963.225
266.72039	17305.725
270.96589	17433.825
275.20832	17357.325
279.44768	17225.725
283.68397	17051.225
287.91719	16909.725
292.14735	16935.825
296.37445	17193.925
300.59849	17643.125
304.81948	18263.425
309.03742	18676.125
313.25231	18659.425
317.46415	17861.225
321.67296	16668.425
325.87872	15601.125
330.08145	15107.825
334.28114	15026.525
338.47781	15286.025
342.67145	15695.025
346.86207	16272.225
351.04966	17112.425
355.23424	18119.625
359.4158	18891.325
363.59435	19244.625
367.76989	19334.125
371.94243	19239.425
376.11196	19159.325
380.27849	19022.725
384.44203	18885.925
388.60257	18715.325
392.76012	18629.725
396.91468	18800.425
401.06626	19266.925
405.21485	19644.425
409.36047	19402.925
413.50311	18598.225
417.64277	17848.625
421.77947	17417.125
425.9132	17393.325
430.04396	17468.025
434.17176	17677.325
438.2966	17947.325
442.41849	18522.725
446.53742	19407.025
450.6534	20224.425
454.76644	20740.325
458.87653	20776.025
462.98368	20400.025
467.08789	19860.625
471.18916	19419.625
475.2875	19022.225
479.38291	18729.925
483.4754	18470.625
487.56496	18113.225
491.6516	17710.425
495.73531	17381.325
499.81612	17284.225
503.89401	17420.525
507.96899	17553.625
512.04106	17635.325
516.11023	17639.125
520.1765	17635.925
524.23987	17540.325
528.30034	17338.125
532.35792	17082.625
536.41261	16718.325
540.46441	16307.425
544.51333	16068.625
548.55936	16141.725
552.60252	16532.125
556.64279	17122.125
560.6802	17644.225
564.71473	18162.125
568.7464	19066.425
572.7752	19841.225
576.80114	19555.525
580.82422	18975.925
584.84444	18793.225
588.86181	19050.425
592.87633	19714.625
596.888	20187.425
600.89682	20336.725
604.9028	21585.825
608.90594	25998.925
612.90624	31854.925
616.90371	30480.825
620.89834	21790.125
624.89015	17502.725
628.87913	16764.625
632.86528	16877.125
636.84862	17001.325
640.82913	16638.025
644.80683	15828.125
648.78172	15223.825
652.75379	15161.925
656.72306	15638.025
660.68952	16360.025
664.65319	16307.625
668.61405	15673.925
672.57211	15403.525
676.52738	15378.725
680.47986	15350.525
684.42955	15156.225
688.37646	15038.325
692.32058	15030.425
696.26192	15186.725
700.20048	15434.525
704.13626	15601.725
708.06928	15541.025
711.99952	15356.225
715.927	15246.025
719.85171	15248.725
723.77365	15258.325
727.69284	15155.125
731.60928	15014.425
735.52295	15037.825
739.43388	15096.825
743.34206	15173.625
747.24749	15275.325
751.15017	15411.025
755.05012	15716.325
758.94733	16534.325
762.8418	18226.925
766.73354	21133.725
770.62254	24121.925
774.50882	25442.925
778.39237	24351.025
782.27321	21202.325
786.15132	18080.425
790.02671	16163.125
793.89938	15292.025
797.76935	14960.625
801.6366	14840.225
805.50115	14743.625
809.36299	14661.125
813.22213	14572.725
817.07857	14510.725
820.93231	14486.425
824.78336	14482.425
828.63172	14526.225
832.47738	14549.825
836.32036	14519.125
840.16066	14423.225
843.99827	14389.825
847.8332	14340.925
851.66546	14259.925
855.49504	14215.025
859.32195	14213.725
863.1462	14154.925
866.96777	14081.525
870.78668	14061.125
874.60293	14061.425
878.41652	14111.325
882.22745	14191.725
886.03573	14284.125
889.84136	14260.325
893.64433	14129.825
897.44466	14075.825
901.24235	14009.425
905.0374	13905.025
908.8298	13822.525
912.61957	13762.725
916.40671	13843.525
920.19121	14054.425
923.97308	14287.225
927.75233	14493.625
931.52895	14598.125
935.30295	14370.425
939.07433	13895.425
942.84309	13483.025
946.60924	13267.825
950.37278	13155.625
954.13371	13094.825
957.89203	13018.125
961.64774	12963.825
965.40086	12934.825
969.15137	12850.125
972.89929	12785.125
976.64461	12718.525
980.38733	12722.225
984.12747	12762.625
987.86502	12843.025
991.59999	13026.725
995.33237	13321.325
999.06217	13869.025
1002.78939	14567.925
1006.51404	15148.625
1010.23611	15521.225
1013.95561	15730.425
1017.67255	15641.425
1021.38692	15234.325
1025.09872	14786.425
1028.80796	14675.425
1032.51465	14882.125
1036.21877	15200.425
1039.92035	15337.925
1043.61937	15262.825
1047.31584	14991.825
1051.00976	14668.225
1054.70114	14411.025
1058.38998	14344.325
1062.07627	14350.325
1065.76003	14419.925
1069.44126	14543.425
1073.11995	14759.225
1076.79611	14957.125
1080.46974	15231.525
1084.14085	15595.825
1087.80943	16058.025
1091.47549	16273.925
1095.13903	16100.525
1098.80005	15546.325
1102.45857	15058.525
1106.11456	14752.525
1109.76805	14772.525
1113.41903	15090.725
1117.06751	15542.825
1120.71348	16202.325
1124.35696	16943.225
1127.99793	17542.025
1131.63641	17505.425
1135.2724	16814.125
1138.90589	16142.125
1142.5369	15733.025
1146.16542	15509.525
1149.79145	15425.925
1153.415	15457.725
1157.03607	15660.125
1160.65467	16056.325
1164.27079	16822.225
1167.88443	18000.925
1171.49561	19753.325
1175.10432	22445.425
1178.71056	25893.625
1182.31434	28814.925
1185.91565	29816.825
1189.51451	29180.525
1193.11091	27580.225
1196.70485	25643.925
1200.29634	23948.525
1203.88538	22585.825
1207.47197	21208.925
1211.05612	20110.425
1214.63782	19523.025
1218.21708	19423.725
1221.79391	19496.725
1225.36829	19520.125
1228.94024	19199.425
1232.50976	18727.525
1236.07685	18301.425
1239.6415	18129.025
1243.20374	18112.425
1246.76355	18220.925
1250.32093	18531.425
1253.8759	19032.525
1257.42845	19799.925
1260.97859	20576.425
1264.52631	21288.125
1268.07163	22026.925
1271.61453	22804.825
1275.15503	23461.525
1278.69312	24035.225
1282.22882	24503.725
1285.76211	25282.325
1289.29301	26315.625
1292.82151	27576.325
1296.34761	29082.625
1299.87133	31096.825
1303.39266	33867.925
1306.9116	37580.125
1310.42815	41751.025
1313.94233	44280.025
1317.45412	44001.925
1320.96354	41774.125
1324.47058	39190.625
1327.97525	36902.325
1331.47754	35313.825
1334.97747	34645.125
1338.47502	34750.725
1341.97022	35123.625
1345.46305	35426.125
1348.95352	35775.925
1352.44163	36688.825
1355.92738	38947.625
1359.41078	43098.625
1362.89183	47084.625
1366.37053	46038.625
1369.84688	39997.825
1373.32088	33521.825
1376.79254	29318.725
1380.26186	27254.225
1383.72883	26416.925
1387.19347	25925.025
1390.65578	25417.125
1394.11575	25403.725
1397.57339	25974.825
1401.0287	26966.725
1404.48168	27976.125
1407.93234	28623.425
1411.38068	28698.725
1414.82669	28001.025
1418.27039	26704.725
1421.71177	25133.025
1425.15083	23753.725
1428.58758	22995.725
1432.02203	22935.825
1435.45416	23284.425
1438.88399	23689.325
1442.31151	24040.125
1445.73673	24483.125
1449.15965	24994.525
1452.58027	25319.725
1455.9986	25291.225
1459.41463	25392.425
1462.82837	25905.125
1466.23982	26662.425
1469.64898	27405.125
1473.05586	27790.825
1476.46045	27821.825
1479.86276	27841.025
1483.26279	27808.625
1486.66054	27937.625
1490.05602	28252.325
1493.44922	28712.425
1496.84016	29261.525
1500.22882	30363.125
1503.61521	32477.225
1506.99934	35322.925
1510.38121	38135.525
1513.76081	39339.325
1517.13816	37666.225
1520.51324	33905.825
1523.88607	30114.525
1527.25665	27636.725
1530.62498	26400.825
1533.99105	25796.225
1537.35488	25511.425
1540.71647	25291.325
1544.07581	25086.425
1547.4329	24775.425
1550.78776	24315.225
1554.14038	24000.825
1557.49077	23855.325
1560.83892	23985.025
1564.18484	24313.825
1567.52853	24798.125
1570.86999	25115.825
1574.20922	25421.225
1577.54624	25401.825
1580.88103	24702.825
1584.2136	23808.225
1587.54395	23791.125
1590.87208	25058.125
1594.19801	27390.125
1597.52172	30185.525
1600.84321	31805.025
1604.16251	30904.325
1607.47959	28161.225
1610.79447	24792.925
1614.10715	21672.025
1617.41763	19341.325
1620.7259	17863.725
1624.03199	17156.325
1627.33587	17082.225
1630.63757	17653.125
1633.93707	18943.025
1637.23439	21045.725
1640.52951	24138.325
1643.82246	28194.725
1647.11321	32297.125
1650.40179	34423.625
1653.68819	32691.625
1656.97241	27830.925
1660.25446	22496.425
1663.53433	18511.825
1666.81203	16084.625
1670.08756	14634.625
1673.36092	13791.025
1676.63211	13248.725
1679.90115	12865.525
1683.16801	12583.325
1686.43272	12366.625
1689.69527	12223.425
1692.95567	12141.625
1696.2139	12064.325
1699.46999	12042.525
1702.72392	11990.225
1705.97571	11940.925
1709.22535	11899.925
1712.47284	11867.425
1715.71819	11830.825
1718.96139	11816.525
1722.20246	11761.825
1725.44139	11684.725
1728.67818	11591.025
1731.91284	11529.025
1735.14537	11460.725
1738.37576	11381.325
1741.60403	11298.225
1744.83017	11276.325
1748.05418	11281.125
1751.27607	11250.225
1754.49584	11217.025
1757.71349	11223.225
1760.92903	11193.425
1764.14244	11156.725
1767.35375	11150.725
1770.56294	11088.425
1773.77002	11059.525
1776.97499	10985.825
1780.17785	10953.125
1783.37861	10903.125
1786.57727	10897.225
1789.77382	10862.325
1792.96828	10853.425
1796.16064	10833.025
1799.3509	10789.125
1802.53907	10780.425
1805.72514	10743.925
1808.90913	10698.025
1812.09102	10687.225
1815.27083	10623.025
1818.44856	10614.725
1821.6242	10599.325
1824.79776	10585.225
1827.96924	10545.925
1831.13864	10554.025
1834.30597	10535.625
1837.47122	10514.825
1840.6344	10497.125
1843.7955	10510.225
1846.95454	10502.525
1850.11151	10511.425
1853.26642	10496.225
1856.41926	10490.825
1859.57004	10502.225
1862.71876	10495.125
1865.86542	10508.525
1869.01003	10519.625
1872.15258	10508.925
1875.29308	10512.425
1878.43152	10512.225
1881.56792	10494.925
1884.70227	10521.625
1887.83457	10523.725
1890.96482	10511.125
1894.09304	10531.825
1897.21921	10541.325
1900.34335	10522.025
1903.46544	10527.525
1906.58551	10541.425
1909.70353	10532.225
1912.81953	10511.825
1915.93349	10508.125
1919.04543	10470.525
1922.15534	10468.325
1925.26322	10435.525
1928.36908	10410.925
1931.47292	10359.425
1934.57473	10306.225
1937.67453	10275.125
1940.77232	10201.225
1943.86808	10175.225
1946.96184	10163.625
1950.05358	10082.425
1953.14331	10070.425
1956.23103	9990.725
1959.31675	9982.225
1962.40046	9939.125
1965.48217	9899.525
1968.56188	9880.125
1971.63959	9844.425
1974.7153	9796.025
1977.78901	9754.825
1980.86073	9743.625
1983.93046	9706.425
1986.99819	9670.325
1990.06394	9627.525
1993.1277	9596.325
1996.18947	9542.625
1999.24925	9538.225
2002.30706	9499.025
2005.36288	9489.725
2008.41672	9446.825
2011.46859	9416.925
2014.51848	9375.925
2017.56639	9345.925
2020.61233	9337.125
2023.6563	9313.025
2026.6983	9295.325
2029.73833	9267.925
2032.7764	9258.225
2035.8125	9244.625
2038.84664	9222.325
2041.87881	9201.225
2044.90903	9223.425
2047.93729	9178.625
2050.96359	9163.525
2053.98794	9150.825
2057.01034	9129.225
2060.03078	9114.025
2063.04927	9091.425
2066.06582	9082.325
2069.08042	9071.525
2072.09307	9058.525
2075.10378	9065.125
2078.11255	9060.525
2081.11938	9063.925
2084.12426	9040.625
2087.12722	9012.025
2090.12824	9015.025
2093.12732	9009.125
2096.12447	9012.825
2099.11969	9002.325
2102.11299	8992.125
2105.10435	9000.025
2108.09379	8971.725
2111.08131	9007.825
2114.0669	8997.725
2117.05057	8997.925
2120.03233	9015.125
2123.01216	9018.225
2125.99008	9017.425
2128.96609	9017.225
2131.94018	9032.525
2134.91236	9017.625
2137.88263	9015.825
2140.851	9018.025
2143.81746	8992.025
2146.78201	9000.825
2149.74466	8990.225
2152.7054	8999.025
2155.66425	8980.525
2158.6212	8960.625
2161.57625	8980.225
2164.52941	8967.325
2167.48067	8955.225
2170.43004	8953.925
2173.37752	8945.725
2176.32311	8938.825
2179.26681	8927.225
2182.20863	8940.425
2185.14856	8935.925
2188.08661	8937.125
2191.02278	8925.825
2193.95707	8925.825
2196.88948	8918.125
2199.82001	8903.725
2202.74867	8910.125
2205.67545	8915.125
2208.60037	8883.525
2211.52341	8880.025
2214.44458	8885.125
2217.36388	8858.825
2220.28132	8836.925
2223.1969	8831.325
2226.11061	8798.825
2229.02246	8769.525
2231.93245	8764.125
2234.84058	8757.425
2237.74686	8745.625
2240.65128	8716.725
2243.55385	8692.625
2246.45456	8706.325
2249.35343	8678.925
2252.25044	8678.825
2255.14561	8660.725
2258.03893	8663.125
2260.93041	8650.325
2263.82004	8620.725
2266.70783	8612.825
2269.59378	8558.725
2272.4779	8561.625
2275.36017	8523.125
2278.24061	8528.525
2281.11922	8511.425
2283.996	8459.925
2286.87094	8459.925
2289.74405	8428.725
2292.61534	8421.925
2295.4848	8401.425
2298.35243	8402.025
2301.21824	8405.325
2304.08223	8408.225
2306.94439	8404.325
2309.80474	8397.425
2312.66327	8408.525
2315.51999	8396.625
2318.37489	8403.525
2321.22797	8369.725
2324.07925	8372.825
2326.92871	8354.925
2329.77637	8357.925
2332.62222	8372.825
2335.46626	8350.325
2338.3085	8348.725
2341.14893	8358.925
2343.98756	8360.025
2346.8244	8373.025
2349.65943	8374.025
2352.49267	8388.725
2355.32411	8378.225
2358.15376	8390.025
2360.98161	8383.825
2363.80768	8401.725
2366.63195	8391.625
2369.45444	8373.325
2372.27514	8356.925
2375.09405	8324.425
2377.91118	8312.925
2380.72652	8286.225
2383.54009	8252.525
2386.35187	8212.525
2389.16188	8179.125
2391.97011	8188.125
2394.77657	8151.225
2397.58125	8142.225
2400.38416	8127.125
2403.18529	8115.825
2405.98466	8084.325
2408.78226	8077.625
2411.57809	8048.125
2414.37216	8038.325
2417.16446	8029.625
2419.955	8021.025
2422.74378	8001.525
2425.5308	8005.325
2428.31606	7983.925
2431.09956	7999.525
2433.88131	8002.525
2436.6613	7994.625
2439.43954	7986.425
2442.21603	7965.725
2444.99077	7971.625
2447.76377	7983.625
2450.53501	7965.025
2453.30451	7977.325
2456.07226	8002.425
2458.83827	7969.425
2461.60254	7977.925
2464.36507	7978.825
2467.12586	7983.625
2469.88492	7961.125
2472.64224	7976.125
2475.39782	7990.625
2478.15167	8002.725
2480.90379	8008.725
2483.65417	8013.625
2486.40283	8007.225
2489.14976	8044.825
2491.89497	8055.625
2494.63845	8082.925
2497.3802	8093.225
2500.12024	8072.025
2502.85855	8033.725
2505.59514	8035.925
2508.33002	8007.725
2511.06318	7985.525
2513.79462	7963.225
2516.52435	7954.625
2519.25237	7925.125
2521.97867	7906.925
2524.70327	7880.325
2527.42616	7903.625
2530.14734	7871.225
2532.86681	7867.325
2535.58458	7877.725
2538.30065	7871.225
2541.01501	7867.025
2543.72768	7840.525
2546.43864	7847.925
2549.14791	7835.025
2551.85548	7852.025
2554.56136	7857.325
2557.26554	7845.925
2559.96803	7825.725
2562.66883	7838.225
2565.36794	7826.025
2568.06536	7829.125
2570.7611	7813.325
2573.45514	7790.425
2576.14751	7817.025
2578.83819	7803.925
2581.52719	7809.525
2584.21451	7779.725
2586.90015	7797.225
2589.58411	7769.725
2592.2664	7766.225
2594.94701	7777.325
2597.62594	7772.025
2600.30321	7753.725
2602.9788	7764.425
2605.65273	7753.325
2608.32498	7780.925
2610.99557	7753.525
2613.66449	7762.825
2616.33175	7760.125
2618.99734	7777.325
2621.66128	7766.525
2624.32355	7772.625
2626.98416	7776.025
2629.64311	7784.125
2632.30041	7798.825
2634.95605	7783.425
2637.61004	7749.525
2640.26238	7748.725
2642.91306	7711.025
2645.56209	7714.125
2648.20948	7741.625
2650.85521	7717.925
2653.4993	7710.625
2656.14175	7714.225
2658.78255	7720.825
2661.42171	7719.625
2664.05923	7714.925
2666.6951	7731.025
2669.32934	7744.725
2671.96194	7764.925
2674.59291	7766.125
2677.22224	7762.025
2679.84993	7772.225
2682.476	7754.025
2685.10043	7748.725
2687.72324	7720.125
2690.34441	7717.525
2692.96396	7724.125
2695.58188	7721.025
2698.19818	7715.825
2700.81285	7728.325
2703.4259	7743.325
2706.03733	7821.425
2708.64714	7766.825
2711.25533	7770.925
2713.86191	7755.325
2716.46687	7764.025
2719.07021	7757.725
2721.67194	7755.425
2724.27206	7766.625
2726.87057	7768.125
2729.46747	7756.425
2732.06276	7759.325
2734.65644	7751.025
2737.24852	7751.525
2739.83899	7735.525
2742.42786	7751.425
2745.01513	7751.725
2747.60079	7749.625
2750.18486	7716.225
2752.76733	7728.925
2755.3482	7711.125
2757.92747	7738.425
2760.50515	7711.425
2763.08123	7705.625
2765.65573	7711.225
2768.22863	7728.125
2770.79994	7729.725
2773.36967	7709.925
2775.9378	7727.525
2778.50435	7712.525
2781.06932	7727.325
2783.6327	7715.225
2786.1945	7726.225
2788.75471	7718.425
2791.31335	7703.225
2793.87041	7703.725
2796.42589	7677.725
2798.97979	7683.925
2801.53212	7670.925
2804.08288	7662.625
2806.63206	7667.225
2809.17967	7648.025
2811.72571	7631.725
2814.27018	7634.925
2816.81308	7637.025
2819.35442	7642.525
2821.89419	7632.025
2824.43239	7659.625
2826.96904	7649.325
2829.50412	7660.125
2832.03763	7619.425
2834.56959	7634.425
2837.1	7631.425
2839.62884	7628.625
2842.15613	7646.625
2844.68186	7659.125
2847.20604	7670.825
2849.72867	7713.425
2852.24974	7669.225
2854.76927	7692.725
2857.28724	7709.525
2859.80367	7687.125
2862.31855	7654.025
2864.83189	7659.525
2867.34368	7644.325
2869.85393	7665.025
2872.36264	7656.825
2874.8698	7623.825
2877.37543	7649.025
2879.87952	7645.325
2882.38207	7650.525
2884.88308	7626.425
2887.38256	7627.225
2889.88051	7629.225
2892.37692	7648.825
2894.8718	7638.825
2897.36515	7632.225
2899.85698	7661.525
2902.34727	7661.025
2904.83604	7670.125
2907.32328	7665.625
2909.809	7686.225
2912.29319	7681.725
2914.77587	7676.725
2917.25702	7671.125
2919.73665	7662.325
2922.21476	7648.625
2924.69136	7647.925
2927.16644	7643.625
2929.64	7639.225
2932.11205	7606.125
2934.58258	7589.225
2937.05161	7600.025
2939.51912	7575.425
2941.98513	7561.825
2944.44962	7541.125
2946.91261	7493.325
2949.37409	7488.925
2951.83407	7490.425
2954.29254	7450.925
2956.74951	7435.625
2959.20498	7445.125
2961.65895	7408.025
2964.11142	7372.525
2966.56239	7347.325
2969.01186	7331.325
2971.45984	7304.025
2973.90632	7285.025
2976.35131	7263.725
2978.7948	7227.025
2981.23681	7222.425
2983.67732	7197.525
2986.11635	7193.125
2988.55388	7149.625
2990.98993	7132.325
2993.4245	7137.525
2995.85758	7109.225
2998.28917	7087.825
3000.71928	7107.225
3003.14791	7083.525
3005.57506	7081.225
3008.00073	7047.825
3010.42493	7046.825
3012.84764	7012.825
3015.26888	7007.925
3017.68865	6986.425
3020.10694	6981.925
3022.52376	6937.525
3024.9391	6956.025
3027.35298	6940.725
3029.76539	6935.225
3032.17632	6910.225
3034.5858	6881.325
3036.9938	6873.225
3039.40034	6850.725
3041.80542	6861.025
3044.20903	6833.425
3046.61118	6841.025
3049.01187	6803.025
3051.4111	6795.425
3053.80888	6769.325
3056.20519	6769.325
3058.60005	6752.325
3060.99345	6725.525
3063.3854	6723.225
3065.7759	6691.125
3068.16494	6695.525
3070.55254	6650.325
3072.93868	6649.025
3075.32338	6619.825
3077.70662	6599.025
3080.08842	6585.225
3082.46878	6558.025
3084.84769	6526.325
3087.22515	6503.825
3089.60118	6520.625
3091.97576	6517.825
3094.3489	6523.625
3096.72061	6512.325
3099.09087	6500.425
3101.4597	6506.025
3103.82709	6480.625
3106.19305	6462.925
3108.55757	6451.525
3110.92066	6423.225
3113.28232	6423.525
3115.64255	6405.325
3118.00134	6382.725
3120.35871	6377.825
3122.71466	6365.025
3125.06917	6349.725
3127.42226	6338.325
3129.77393	6340.425
3132.12417	6354.025
3134.47299	6339.625
3136.82039	6327.525
3139.16636	6324.625
3141.51092	6334.825
3143.85406	6323.525
3146.19579	6324.025
3148.53609	6321.725
3150.87499	6314.625
3153.21246	6297.025
3155.54853	6324.425
3157.88318	6316.025
3160.21642	6301.325
3162.54826	6308.825
3164.87868	6288.225
3167.2077	6298.525
3169.5353	6279.025
3171.86151	6281.725
3174.18631	6281.025
3176.5097	6255.825
3178.83169	6262.625
3181.15228	6276.425
