Data from AgNPs_FTO_APTES_UA_5um_CRN_0.1mM_R6G_10uM_NaF_0.1M_Addition_RamanShift__10__13-08-39-091.txt Node

Date: Tue Dec 21 13:08:39 GMT 2021
User: TCL
Spectrometer: QEP01345
Trigger mode: 4
Integration Time (sec): 7.000000E0
Scans to average: 10
Electric dark correction enabled: true
Nonlinearity correction enabled: false
Boxcar width: 0
XAxis mode: Raman Shifts
Number of Pixels in Spectrum: 1044
>>>>>Begin Spectral Data<<<<<
46.04893	-0.0875
50.45542	-1.1875
54.85868	0.1125
59.25871	0.7125
63.6555	35.6125
68.04907	43.8125
72.43941	44.0125
76.82654	45.1125
81.21044	52.0125
85.59113	52.0125
89.96862	52.2125
94.34289	56.1125
98.71396	54.5125
103.08183	60.0125
107.4465	61.4125
111.80798	62.6125
116.16626	64.2125
120.52136	63.8125
124.87327	65.9125
129.222	65.6125
133.56755	74.7125
137.90993	83.4125
142.24913	84.0125
146.58517	96.0125
150.91804	110.1125
155.24774	128.6125
159.57429	160.1125
163.89768	206.1125
168.21792	269.8125
172.53501	360.5125
176.84895	495.0125
181.15975	701.3125
185.46741	973.7125
189.77193	1350.5125
194.07331	1805.5125
198.37157	2316.4125
202.6667	2899.9125
206.9587	3449.6125
211.24758	4006.7125
215.53334	4580.4125
219.81599	5156.7125
224.09553	5805.5125
228.37195	6518.5125
232.64527	7278.1125
236.91549	8088.1125
241.18261	8905.0125
245.44663	9669.4125
249.70755	10330.2125
253.96539	10902.2125
258.22014	11353.3125
262.4718	11718.2125
266.72039	11941.8125
270.96589	12038.0125
275.20832	11992.7125
279.44768	11859.2125
283.68397	11760.9125
287.91719	11666.2125
292.14735	11590.2125
296.37445	11562.2125
300.59849	11538.3125
304.81948	11589.8125
309.03742	11614.4125
313.25231	11556.7125
317.46415	11367.2125
321.67296	11106.3125
325.87872	10835.8125
330.08145	10681.0125
334.28114	10612.1125
338.47781	10626.9125
342.67145	10751.8125
346.86207	10865.7125
351.04966	11018.5125
355.23424	11205.8125
359.4158	11298.2125
363.59435	11421.1125
367.76989	11463.8125
371.94243	11487.2125
376.11196	11509.6125
380.27849	11501.9125
384.44203	11555.2125
388.60257	11668.3125
392.76012	11781.5125
396.91468	11998.4125
401.06626	12232.3125
405.21485	12407.7125
409.36047	12367.3125
413.50311	12200.1125
417.64277	12069.7125
421.77947	12052.6125
425.9132	12104.4125
430.04396	12156.6125
434.17176	12234.7125
438.2966	12290.4125
442.41849	12412.1125
446.53742	12619.1125
450.6534	12898.5125
454.76644	13106.4125
458.87653	13150.1125
462.98368	13139.3125
467.08789	13059.5125
471.18916	12947.1125
475.2875	12810.0125
479.38291	12738.5125
483.4754	12678.1125
487.56496	12632.2125
491.6516	12473.8125
495.73531	12301.7125
499.81612	12221.6125
503.89401	12222.6125
507.96899	12272.1125
512.04106	12175.6125
516.11023	12076.3125
520.1765	11965.9125
524.23987	11826.4125
528.30034	11724.8125
532.35792	11642.5125
536.41261	11511.1125
540.46441	11399.3125
544.51333	11358.6125
548.55936	11506.9125
552.60252	11731.8125
556.64279	11968.6125
560.6802	12152.2125
564.71473	12279.4125
568.7464	12515.4125
572.7752	12965.6125
576.80114	13479.1125
580.82422	14019.8125
584.84444	14576.5125
588.86181	15183.4125
592.87633	15633.1125
596.888	15626.7125
600.89682	14979.8125
604.9028	14549.4125
608.90594	15082.4125
612.90624	15811.3125
616.90371	14794.3125
620.89834	12631.5125
624.89015	11600.0125
628.87913	11550.6125
632.86528	11730.4125
636.84862	11835.0125
640.82913	11631.9125
644.80683	11334.7125
648.78172	11075.3125
652.75379	11051.2125
656.72306	11134.2125
660.68952	11288.0125
664.65319	11253.4125
668.61405	11145.7125
672.57211	11125.2125
676.52738	11204.6125
680.47986	11230.7125
684.42955	11176.2125
688.37646	11078.8125
692.32058	11061.4125
696.26192	11140.1125
700.20048	11252.9125
704.13626	11357.8125
708.06928	11429.9125
711.99952	11445.5125
715.927	11407.9125
719.85171	11371.4125
723.77365	11246.0125
727.69284	11104.2125
731.60928	10958.6125
735.52295	10887.5125
739.43388	10883.2125
743.34206	10879.2125
747.24749	10979.8125
751.15017	11096.8125
755.05012	11301.0125
758.94733	11635.2125
762.8418	12208.6125
766.73354	13142.3125
770.62254	14016.1125
774.50882	14106.5125
778.39237	13453.3125
782.27321	12509.3125
786.15132	11699.9125
790.02671	11201.4125
793.89938	10874.7125
797.76935	10754.1125
801.6366	10697.9125
805.50115	10643.9125
809.36299	10617.6125
813.22213	10526.4125
817.07857	10462.7125
820.93231	10440.3125
824.78336	10349.8125
828.63172	10312.9125
832.47738	10294.5125
836.32036	10285.8125
840.16066	10243.0125
843.99827	10237.7125
847.8332	10193.4125
851.66546	10185.5125
855.49504	10194.3125
859.32195	10202.2125
863.1462	10165.1125
866.96777	10146.5125
870.78668	10122.3125
874.60293	10136.3125
878.41652	10138.0125
882.22745	10170.1125
886.03573	10199.5125
889.84136	10212.1125
893.64433	10211.5125
897.44466	10145.8125
901.24235	10146.1125
905.0374	10106.5125
908.8298	10066.1125
912.61957	10067.4125
916.40671	10148.4125
920.19121	10311.2125
923.97308	10457.5125
927.75233	10509.1125
931.52895	10406.2125
935.30295	10186.2125
939.07433	9956.5125
942.84309	9759.7125
946.60924	9642.0125
950.37278	9587.5125
954.13371	9583.5125
957.89203	9568.7125
961.64774	9560.8125
965.40086	9556.1125
969.15137	9560.1125
972.89929	9490.9125
976.64461	9431.0125
980.38733	9387.6125
984.12747	9375.4125
987.86502	9390.3125
991.59999	9405.6125
995.33237	9492.5125
999.06217	9588.6125
1002.78939	9749.7125
1006.51404	9913.4125
1010.23611	10152.2125
1013.95561	10286.0125
1017.67255	10358.0125
1021.38692	10289.3125
1025.09872	10100.4125
1028.80796	9963.4125
1032.51465	9872.3125
1036.21877	9887.8125
1039.92035	9975.1125
1043.61937	10045.2125
1047.31584	10087.5125
1051.00976	10154.7125
1054.70114	10186.6125
1058.38998	10260.9125
1062.07627	10360.6125
1065.76003	10500.8125
1069.44126	10661.8125
1073.11995	10894.0125
1076.79611	11131.4125
1080.46974	11164.0125
1084.14085	11178.8125
1087.80943	11236.7125
1091.47549	11366.2125
1095.13903	11469.8125
1098.80005	11335.0125
1102.45857	11023.0125
1106.11456	10666.3125
1109.76805	10462.1125
1113.41903	10397.0125
1117.06751	10426.5125
1120.71348	10558.5125
1124.35696	10691.7125
1127.99793	10852.6125
1131.63641	11003.7125
1135.2724	10992.8125
1138.90589	10957.1125
1142.5369	10948.9125
1146.16542	11023.9125
1149.79145	11148.1125
1153.415	11264.0125
1157.03607	11419.0125
1160.65467	11676.1125
1164.27079	12150.7125
1167.88443	12801.6125
1171.49561	13543.7125
1175.10432	14440.7125
1178.71056	15523.8125
1182.31434	16502.2125
1185.91565	17069.4125
1189.51451	17140.8125
1193.11091	16851.1125
1196.70485	16294.2125
1200.29634	15576.1125
1203.88538	15010.9125
1207.47197	14661.1125
1211.05612	14425.5125
1214.63782	14123.6125
1218.21708	13751.6125
1221.79391	13293.3125
1225.36829	13028.8125
1228.94024	12877.8125
1232.50976	12734.6125
1236.07685	12619.2125
1239.6415	12522.0125
1243.20374	12472.8125
1246.76355	12533.7125
1250.32093	12662.2125
1253.8759	12889.1125
1257.42845	13270.0125
1260.97859	13693.8125
1264.52631	14135.6125
1268.07163	14552.4125
1271.61453	14978.6125
1275.15503	15412.7125
1278.69312	15869.8125
1282.22882	16459.2125
1285.76211	17125.7125
1289.29301	17840.1125
1292.82151	18591.3125
1296.34761	19433.3125
1299.87133	20390.0125
1303.39266	21334.2125
1306.9116	22196.3125
1310.42815	22856.2125
1313.94233	23189.9125
1317.45412	23096.2125
1320.96354	22708.4125
1324.47058	22420.2125
1327.97525	22228.0125
1331.47754	22124.2125
1334.97747	22047.1125
1338.47502	21897.8125
1341.97022	21692.8125
1345.46305	21513.2125
1348.95352	21355.0125
1352.44163	21367.2125
1355.92738	21592.0125
1359.41078	22250.3125
1362.89183	22948.6125
1366.37053	22878.2125
1369.84688	21633.9125
1373.32088	19633.1125
1376.79254	17915.0125
1380.26186	17035.7125
1383.72883	16777.7125
1387.19347	16556.9125
1390.65578	16298.6125
1394.11575	16172.7125
1397.57339	16220.7125
1401.0287	16348.0125
1404.48168	16477.7125
1407.93234	16386.7125
1411.38068	16037.9125
1414.82669	15494.0125
1418.27039	14858.2125
1421.71177	14290.1125
1425.15083	13828.5125
1428.58758	13562.4125
1432.02203	13594.8125
1435.45416	13797.6125
1438.88399	14130.1125
1442.31151	14365.3125
1445.73673	14530.4125
1449.15965	14757.0125
1452.58027	14947.4125
1455.9986	15038.8125
1459.41463	15144.9125
1462.82837	15410.7125
1466.23982	15736.6125
1469.64898	16095.4125
1473.05586	16270.5125
1476.46045	16373.9125
1479.86276	16408.2125
1483.26279	16407.4125
1486.66054	16521.8125
1490.05602	16796.6125
1493.44922	17181.3125
1496.84016	17700.6125
1500.22882	18268.5125
1503.61521	18906.1125
1506.99934	19555.9125
1510.38121	19924.6125
1513.76081	19826.7125
1517.13816	19391.4125
1520.51324	18796.5125
1523.88607	18261.7125
1527.25665	17980.8125
1530.62498	17750.6125
1533.99105	17515.3125
1537.35488	17120.5125
1540.71647	16589.5125
1544.07581	16032.3125
1547.4329	15426.0125
1550.78776	14927.7125
1554.14038	14651.5125
1557.49077	14519.8125
1560.83892	14520.3125
1564.18484	14637.5125
1567.52853	14748.4125
1570.86999	14923.8125
1574.20922	15150.8125
1577.54624	15338.1125
1580.88103	15328.1125
1584.2136	15263.0125
1587.54395	15429.3125
1590.87208	15944.1125
1594.19801	16740.1125
1597.52172	17566.2125
1600.84321	17808.2125
1604.16251	17197.8125
1607.47959	15985.0125
1610.79447	14697.2125
1614.10715	13452.1125
1617.41763	12455.5125
1620.7259	11758.1125
1624.03199	11347.8125
1627.33587	11255.2125
1630.63757	11428.4125
1633.93707	12088.3125
1637.23439	13228.0125
1640.52951	15000.2125
1643.82246	17300.3125
1647.11321	19531.3125
1650.40179	20585.6125
1653.68819	19859.6125
1656.97241	17693.4125
1660.25446	15108.1125
1663.53433	12930.8125
1666.81203	11368.0125
1670.08756	10362.6125
1673.36092	9729.8125
1676.63211	9326.0125
1679.90115	9066.2125
1683.16801	8860.1125
1686.43272	8737.2125
1689.69527	8601.6125
1692.95567	8529.5125
1696.2139	8474.3125
1699.46999	8462.3125
1702.72392	8404.7125
1705.97571	8341.1125
1709.22535	8313.2125
1712.47284	8261.7125
1715.71819	8255.2125
1718.96139	8205.3125
1722.20246	8180.3125
1725.44139	8127.7125
1728.67818	8069.8125
1731.91284	8033.9125
1735.14537	7962.0125
1738.37576	7921.4125
1741.60403	7901.3125
1744.83017	7857.3125
1748.05418	7848.6125
1751.27607	7856.5125
1754.49584	7881.2125
1757.71349	7877.6125
1760.92903	7883.5125
1764.14244	7855.4125
1767.35375	7856.2125
1770.56294	7809.0125
1773.77002	7740.2125
1776.97499	7708.7125
1780.17785	7674.4125
1783.37861	7634.6125
1786.57727	7611.7125
1789.77382	7566.3125
1792.96828	7560.2125
1796.16064	7541.5125
1799.3509	7497.8125
1802.53907	7485.6125
1805.72514	7457.8125
1808.90913	7445.8125
1812.09102	7412.9125
1815.27083	7378.9125
1818.44856	7369.9125
1821.6242	7357.6125
1824.79776	7369.0125
1827.96924	7348.3125
1831.13864	7324.1125
1834.30597	7317.8125
1837.47122	7310.5125
1840.6344	7305.6125
1843.7955	7287.1125
1846.95454	7300.0125
1850.11151	7302.3125
1853.26642	7291.5125
1856.41926	7296.8125
1859.57004	7291.4125
1862.71876	7271.7125
1865.86542	7251.2125
1869.01003	7242.9125
1872.15258	7216.6125
1875.29308	7215.7125
1878.43152	7187.2125
1881.56792	7175.5125
1884.70227	7166.2125
1887.83457	7143.5125
1890.96482	7148.3125
1894.09304	7118.5125
1897.21921	7124.6125
1900.34335	7106.8125
1903.46544	7103.3125
1906.58551	7074.8125
1909.70353	7053.6125
1912.81953	7045.6125
1915.93349	7036.8125
1919.04543	7028.9125
1922.15534	6987.3125
1925.26322	6978.7125
1928.36908	6957.0125
1931.47292	6936.8125
1934.57473	6904.4125
1937.67453	6901.3125
1940.77232	6880.2125
1943.86808	6864.6125
1946.96184	6845.1125
1950.05358	6802.4125
1953.14331	6802.1125
1956.23103	6771.0125
1959.31675	6747.5125
1962.40046	6724.6125
1965.48217	6702.4125
1968.56188	6677.7125
1971.63959	6640.0125
1974.7153	6628.7125
1977.78901	6603.5125
1980.86073	6592.4125
1983.93046	6539.0125
1986.99819	6528.6125
1990.06394	6500.5125
1993.1277	6485.8125
1996.18947	6466.4125
1999.24925	6455.1125
2002.30706	6404.5125
2005.36288	6406.4125
2008.41672	6384.9125
2011.46859	6352.1125
2014.51848	6339.8125
2017.56639	6327.5125
2020.61233	6303.7125
2023.6563	6283.4125
2026.6983	6286.0125
2029.73833	6251.9125
2032.7764	6232.3125
2035.8125	6217.4125
2038.84664	6205.5125
2041.87881	6198.0125
2044.90903	6189.3125
2047.93729	6176.5125
2050.96359	6164.5125
2053.98794	6152.7125
2057.01034	6149.3125
2060.03078	6117.8125
2063.04927	6113.7125
2066.06582	6109.3125
2069.08042	6094.6125
2072.09307	6104.1125
2075.10378	6090.1125
2078.11255	6091.4125
2081.11938	6099.5125
2084.12426	6099.6125
2087.12722	6090.7125
2090.12824	6075.7125
2093.12732	6063.1125
2096.12447	6072.7125
2099.11969	6065.8125
2102.11299	6073.5125
2105.10435	6057.3125
2108.09379	6080.9125
2111.08131	6072.4125
2114.0669	6068.3125
2117.05057	6052.0125
2120.03233	6070.1125
2123.01216	6068.3125
2125.99008	6076.9125
2128.96609	6087.5125
2131.94018	6073.1125
2134.91236	6078.6125
2137.88263	6055.1125
2140.851	6065.7125
2143.81746	6064.4125
2146.78201	6052.5125
2149.74466	6058.3125
2152.7054	6068.1125
2155.66425	6028.1125
2158.6212	6032.8125
2161.57625	6045.8125
2164.52941	6022.4125
2167.48067	6038.6125
2170.43004	6020.3125
2173.37752	6008.5125
2176.32311	6004.1125
2179.26681	6020.9125
2182.20863	6012.2125
2185.14856	6000.5125
2188.08661	6008.2125
2191.02278	6013.1125
2193.95707	5975.1125
2196.88948	5986.0125
2199.82001	5965.7125
2202.74867	5963.5125
2205.67545	5939.2125
2208.60037	5946.6125
2211.52341	5939.1125
2214.44458	5932.1125
2217.36388	5906.7125
2220.28132	5904.9125
2223.1969	5882.1125
2226.11061	5867.4125
2229.02246	5852.0125
2231.93245	5865.5125
2234.84058	5845.5125
2237.74686	5820.6125
2240.65128	5842.2125
2243.55385	5818.6125
2246.45456	5800.9125
2249.35343	5816.6125
2252.25044	5784.4125
2255.14561	5781.9125
2258.03893	5768.1125
2260.93041	5747.8125
2263.82004	5722.0125
2266.70783	5708.0125
2269.59378	5699.0125
2272.4779	5680.9125
2275.36017	5656.1125
2278.24061	5649.1125
2281.11922	5622.9125
2283.996	5621.3125
2286.87094	5616.4125
2289.74405	5578.8125
2292.61534	5600.8125
2295.4848	5580.9125
2298.35243	5578.1125
2301.21824	5559.6125
2304.08223	5557.2125
2306.94439	5553.9125
2309.80474	5537.6125
2312.66327	5533.0125
2315.51999	5504.7125
2318.37489	5509.6125
2321.22797	5494.6125
2324.07925	5490.7125
2326.92871	5493.1125
2329.77637	5512.5125
2332.62222	5488.9125
2335.46626	5493.8125
2338.3085	5467.0125
2341.14893	5469.1125
2343.98756	5455.4125
2346.8244	5447.5125
2349.65943	5461.6125
2352.49267	5473.1125
2355.32411	5449.2125
2358.15376	5441.7125
2360.98161	5450.3125
2363.80768	5453.1125
2366.63195	5445.6125
2369.45444	5444.1125
2372.27514	5422.9125
2375.09405	5411.3125
2377.91118	5406.7125
2380.72652	5394.4125
2383.54009	5383.7125
2386.35187	5370.1125
2389.16188	5340.2125
2391.97011	5328.3125
2394.77657	5338.1125
2397.58125	5315.3125
2400.38416	5305.3125
2403.18529	5304.8125
2405.98466	5308.3125
2408.78226	5290.0125
2411.57809	5261.5125
2414.37216	5245.9125
2417.16446	5262.2125
2419.955	5266.1125
2422.74378	5261.1125
2425.5308	5239.3125
2428.31606	5242.2125
2431.09956	5213.5125
2433.88131	5219.0125
2436.6613	5229.5125
2439.43954	5209.3125
2442.21603	5196.3125
2444.99077	5200.5125
2447.76377	5208.6125
2450.53501	5197.4125
2453.30451	5192.3125
2456.07226	5197.0125
2458.83827	5189.4125
2461.60254	5197.9125
2464.36507	5190.6125
2467.12586	5181.3125
2469.88492	5170.5125
2472.64224	5167.9125
2475.39782	5177.3125
2478.15167	5186.0125
2480.90379	5173.2125
2483.65417	5174.0125
2486.40283	5157.6125
2489.14976	5153.8125
2491.89497	5143.8125
2494.63845	5158.1125
2497.3802	5163.0125
2500.12024	5133.5125
2502.85855	5147.4125
2505.59514	5134.7125
2508.33002	5129.8125
2511.06318	5121.2125
2513.79462	5104.7125
2516.52435	5089.4125
2519.25237	5111.7125
2521.97867	5089.1125
2524.70327	5089.8125
2527.42616	5092.4125
2530.14734	5092.9125
2532.86681	5071.5125
2535.58458	5047.7125
2538.30065	5039.6125
2541.01501	5040.9125
2543.72768	5032.7125
2546.43864	5031.0125
2549.14791	5013.7125
2551.85548	5008.1125
2554.56136	5007.9125
2557.26554	5002.8125
2559.96803	5002.3125
2562.66883	4987.2125
2565.36794	4996.2125
2568.06536	4980.7125
2570.7611	4973.2125
2573.45514	4960.8125
2576.14751	4950.8125
2578.83819	4972.0125
2581.52719	4957.5125
2584.21451	4943.5125
2586.90015	4933.8125
2589.58411	4913.1125
2592.2664	4923.8125
2594.94701	4912.3125
2597.62594	4904.1125
2600.30321	4892.5125
2602.9788	4895.3125
2605.65273	4878.0125
2608.32498	4870.2125
2610.99557	4870.7125
2613.66449	4877.4125
2616.33175	4859.0125
2618.99734	4862.5125
2621.66128	4849.1125
2624.32355	4859.6125
2626.98416	4852.7125
2629.64311	4826.4125
2632.30041	4829.8125
2634.95605	4817.3125
2637.61004	4813.5125
2640.26238	4820.8125
2642.91306	4816.4125
2645.56209	4824.9125
2648.20948	4806.2125
2650.85521	4810.7125
2653.4993	4795.9125
2656.14175	4805.2125
2658.78255	4807.0125
2661.42171	4804.9125
2664.05923	4801.3125
2666.6951	4822.2125
2669.32934	4818.6125
2671.96194	4803.7125
2674.59291	4812.5125
2677.22224	4814.1125
2679.84993	4806.8125
2682.476	4802.5125
2685.10043	4815.2125
2687.72324	4799.2125
2690.34441	4801.2125
2692.96396	4781.4125
2695.58188	4814.9125
2698.19818	4787.9125
2700.81285	4802.2125
2703.4259	4818.1125
2706.03733	4857.9125
2708.64714	4832.1125
2711.25533	4812.6125
2713.86191	4808.3125
2716.46687	4793.5125
2719.07021	4796.8125
2721.67194	4794.8125
2724.27206	4801.0125
2726.87057	4800.8125
2729.46747	4796.7125
2732.06276	4822.8125
2734.65644	4799.4125
2737.24852	4791.7125
2739.83899	4777.4125
2742.42786	4812.6125
2745.01513	4775.7125
2747.60079	4783.5125
2750.18486	4772.8125
2752.76733	4763.2125
2755.3482	4753.4125
2757.92747	4751.3125
2760.50515	4741.2125
2763.08123	4759.8125
2765.65573	4742.1125
2768.22863	4754.3125
2770.79994	4734.0125
2773.36967	4732.9125
2775.9378	4747.2125
2778.50435	4731.3125
2781.06932	4727.4125
2783.6327	4719.9125
2786.1945	4715.7125
2788.75471	4719.7125
2791.31335	4700.4125
2793.87041	4702.3125
2796.42589	4666.6125
2798.97979	4656.5125
2801.53212	4671.3125
2804.08288	4662.7125
2806.63206	4671.2125
2809.17967	4640.2125
2811.72571	4635.0125
2814.27018	4643.0125
2816.81308	4641.4125
2819.35442	4608.9125
2821.89419	4620.2125
2824.43239	4616.8125
2826.96904	4596.1125
2829.50412	4603.0125
2832.03763	4600.9125
2834.56959	4615.7125
2837.1	4613.6125
2839.62884	4604.7125
2842.15613	4610.7125
2844.68186	4623.8125
2847.20604	4632.7125
2849.72867	4645.7125
2852.24974	4643.8125
2854.76927	4635.0125
2857.28724	4648.9125
2859.80367	4629.3125
2862.31855	4609.5125
2864.83189	4621.8125
2867.34368	4592.0125
2869.85393	4603.2125
2872.36264	4587.5125
2874.8698	4584.2125
2877.37543	4581.7125
2879.87952	4591.9125
2882.38207	4577.2125
2884.88308	4582.3125
2887.38256	4588.9125
2889.88051	4574.9125
2892.37692	4568.8125
2894.8718	4571.7125
2897.36515	4577.8125
2899.85698	4572.2125
2902.34727	4579.5125
2904.83604	4599.9125
2907.32328	4593.4125
2909.809	4591.0125
2912.29319	4614.1125
2914.77587	4600.4125
2917.25702	4604.7125
2919.73665	4610.4125
2922.21476	4606.1125
2924.69136	4606.2125
2927.16644	4618.9125
2929.64	4593.4125
2932.11205	4600.0125
2934.58258	4589.6125
2937.05161	4601.3125
2939.51912	4597.3125
2941.98513	4585.9125
2944.44962	4568.6125
2946.91261	4561.7125
2949.37409	4565.3125
2951.83407	4551.8125
2954.29254	4540.6125
2956.74951	4526.3125
2959.20498	4533.7125
2961.65895	4520.7125
2964.11142	4495.0125
2966.56239	4472.4125
2969.01186	4473.8125
2971.45984	4451.3125
2973.90632	4435.9125
2976.35131	4420.3125
2978.7948	4405.2125
2981.23681	4411.4125
2983.67732	4400.2125
2986.11635	4391.0125
2988.55388	4373.6125
2990.98993	4343.1125
2993.4245	4337.1125
2995.85758	4323.2125
2998.28917	4309.8125
3000.71928	4317.1125
3003.14791	4305.5125
3005.57506	4314.5125
3008.00073	4304.9125
3010.42493	4288.1125
3012.84764	4271.7125
3015.26888	4280.5125
3017.68865	4264.5125
3020.10694	4254.9125
3022.52376	4234.5125
3024.9391	4238.9125
3027.35298	4226.5125
3029.76539	4220.7125
3032.17632	4195.9125
3034.5858	4183.5125
3036.9938	4181.4125
3039.40034	4181.7125
3041.80542	4173.2125
3044.20903	4166.8125
3046.61118	4156.1125
3049.01187	4136.4125
3051.4111	4139.5125
3053.80888	4126.4125
3056.20519	4121.5125
3058.60005	4137.9125
3060.99345	4119.2125
3063.3854	4102.8125
3065.7759	4109.0125
3068.16494	4086.3125
3070.55254	4083.6125
3072.93868	4068.4125
3075.32338	4065.5125
3077.70662	4035.0125
3080.08842	4051.8125
3082.46878	4039.2125
3084.84769	4007.1125
