Data from AgNPs_FTO_APTES_UA_20um_CRN_0.1mM_R6G_10uM_NaF_0.1M_Addition_RamanShift__22__14-41-59-198.txt Node

Date: Tue Dec 21 14:41:59 GMT 2021
User: TCL
Spectrometer: QEP01345
Trigger mode: 4
Integration Time (sec): 7.000000E0
Scans to average: 10
Electric dark correction enabled: true
Nonlinearity correction enabled: false
Boxcar width: 0
XAxis mode: Raman Shifts
Number of Pixels in Spectrum: 1044
>>>>>Begin Spectral Data<<<<<
46.04893	0.125
50.45542	-1.875
54.85868	-1.375
59.25871	0.425
63.6555	48.225
68.04907	52.925
72.43941	56.725
76.82654	57.025
81.21044	62.325
85.59113	62.525
89.96862	67.525
94.34289	67.425
98.71396	68.725
103.08183	72.725
107.4465	72.525
111.80798	77.625
116.16626	77.825
120.52136	81.825
124.87327	82.125
129.222	82.625
133.56755	89.625
137.90993	98.025
142.24913	103.925
146.58517	121.525
150.91804	136.625
155.24774	154.425
159.57429	197.325
163.89768	250.325
168.21792	329.225
172.53501	443.225
176.84895	604.125
181.15975	853.125
185.46741	1198.125
189.77193	1650.525
194.07331	2205.925
198.37157	2840.325
202.6667	3533.925
206.9587	4222.825
211.24758	4899.125
215.53334	5596.625
219.81599	6300.625
224.09553	7099.125
228.37195	7975.625
232.64527	8925.625
236.91549	9957.125
241.18261	10996.725
245.44663	11907.525
249.70755	12761.825
253.96539	13461.825
258.22014	14071.225
262.4718	14528.925
266.72039	14912.525
270.96589	15066.525
275.20832	15100.025
279.44768	15026.825
283.68397	14863.225
287.91719	14757.925
292.14735	14669.425
296.37445	14712.625
300.59849	14801.425
304.81948	14832.025
309.03742	14783.225
313.25231	14550.725
317.46415	14161.825
321.67296	13718.225
325.87872	13365.125
330.08145	13176.025
334.28114	13132.225
338.47781	13286.825
342.67145	13451.925
346.86207	13707.125
351.04966	14008.625
355.23424	14337.325
359.4158	14583.225
363.59435	14800.625
367.76989	14956.025
371.94243	15049.425
376.11196	15143.225
380.27849	15249.125
384.44203	15354.525
388.60257	15455.425
392.76012	15552.325
396.91468	15734.425
401.06626	15943.225
405.21485	16141.825
409.36047	16109.425
413.50311	15806.325
417.64277	15533.125
421.77947	15407.025
425.9132	15452.025
430.04396	15540.425
434.17176	15621.025
438.2966	15811.325
442.41849	16118.125
446.53742	16533.725
450.6534	17065.325
454.76644	17506.425
458.87653	17605.825
462.98368	17545.025
467.08789	17340.625
471.18916	17117.225
475.2875	16988.425
479.38291	16964.925
483.4754	16923.825
487.56496	16694.125
491.6516	16393.225
495.73531	16087.325
499.81612	15928.525
503.89401	15968.925
507.96899	15984.425
512.04106	15910.425
516.11023	15812.225
520.1765	15699.825
524.23987	15665.625
528.30034	15619.325
532.35792	15557.525
536.41261	15432.725
540.46441	15279.125
544.51333	15158.925
548.55936	15237.325
552.60252	15447.025
556.64279	15791.425
560.6802	16052.425
564.71473	16182.925
568.7464	16419.125
572.7752	16734.025
576.80114	16887.125
580.82422	16953.125
584.84444	17050.025
588.86181	17253.725
592.87633	17641.625
596.888	17878.225
600.89682	17895.625
604.9028	18371.925
608.90594	19961.925
612.90624	21797.525
616.90371	20648.625
620.89834	17195.025
624.89015	15580.525
628.87913	15367.525
632.86528	15569.425
636.84862	15663.325
640.82913	15514.925
644.80683	15062.825
648.78172	14670.425
652.75379	14549.225
656.72306	14651.025
660.68952	14928.925
664.65319	14919.625
668.61405	14779.525
672.57211	14785.725
676.52738	14881.225
680.47986	14897.725
684.42955	14768.425
688.37646	14624.725
692.32058	14548.625
696.26192	14573.825
700.20048	14685.525
704.13626	14744.725
708.06928	14764.125
711.99952	14601.525
715.927	14534.025
719.85171	14530.225
723.77365	14508.725
727.69284	14471.625
731.60928	14424.525
735.52295	14391.025
739.43388	14430.525
743.34206	14495.225
747.24749	14511.225
751.15017	14590.325
755.05012	14716.025
758.94733	15087.525
762.8418	15863.225
766.73354	17075.525
770.62254	18455.125
774.50882	19046.925
778.39237	18305.325
782.27321	16796.225
786.15132	15494.225
790.02671	14652.325
793.89938	14236.625
797.76935	14064.725
801.6366	14025.225
805.50115	14021.225
809.36299	13969.125
813.22213	13879.125
817.07857	13829.025
820.93231	13779.825
824.78336	13687.625
828.63172	13643.625
832.47738	13624.525
836.32036	13623.025
840.16066	13603.425
843.99827	13590.925
847.8332	13534.525
851.66546	13522.425
855.49504	13464.825
859.32195	13489.925
863.1462	13521.025
866.96777	13550.425
870.78668	13560.925
874.60293	13503.025
878.41652	13479.325
882.22745	13529.625
886.03573	13558.025
889.84136	13549.325
893.64433	13497.625
897.44466	13386.025
901.24235	13310.425
905.0374	13197.125
908.8298	13115.525
912.61957	13105.725
916.40671	13175.325
920.19121	13316.625
923.97308	13438.925
927.75233	13490.125
931.52895	13425.525
935.30295	13325.925
939.07433	13086.225
942.84309	12904.725
946.60924	12802.725
950.37278	12753.825
954.13371	12707.625
957.89203	12666.725
961.64774	12611.425
965.40086	12527.325
969.15137	12467.325
972.89929	12375.025
976.64461	12321.025
980.38733	12276.325
984.12747	12298.225
987.86502	12390.425
991.59999	12525.125
995.33237	12704.525
999.06217	12999.925
1002.78939	13354.525
1006.51404	13669.825
1010.23611	13846.125
1013.95561	14012.825
1017.67255	14040.625
1021.38692	13883.825
1025.09872	13671.025
1028.80796	13578.225
1032.51465	13700.325
1036.21877	13876.325
1039.92035	13958.425
1043.61937	13902.425
1047.31584	13803.525
1051.00976	13582.325
1054.70114	13478.125
1058.38998	13438.025
1062.07627	13488.225
1065.76003	13589.625
1069.44126	13667.825
1073.11995	13738.525
1076.79611	13863.325
1080.46974	13907.825
1084.14085	13945.625
1087.80943	14118.925
1091.47549	14244.825
1095.13903	14248.925
1098.80005	14124.725
1102.45857	13854.325
1106.11456	13641.125
1109.76805	13605.825
1113.41903	13694.825
1117.06751	13832.425
1120.71348	14052.625
1124.35696	14279.025
1127.99793	14583.425
1131.63641	14761.225
1135.2724	14698.225
1138.90589	14556.425
1142.5369	14402.725
1146.16542	14262.825
1149.79145	14217.325
1153.415	14251.625
1157.03607	14363.925
1160.65467	14699.925
1164.27079	15219.725
1167.88443	15974.525
1171.49561	16916.025
1175.10432	18189.525
1178.71056	19788.225
1182.31434	21302.425
1185.91565	22081.225
1189.51451	22000.125
1193.11091	21342.825
1196.70485	20472.825
1200.29634	19579.025
1203.88538	18830.125
1207.47197	18237.325
1211.05612	17701.425
1214.63782	17321.925
1218.21708	17057.825
1221.79391	16913.725
1225.36829	16842.725
1228.94024	16655.025
1232.50976	16335.525
1236.07685	16060.925
1239.6415	15940.825
1243.20374	15952.925
1246.76355	16030.525
1250.32093	16214.825
1253.8759	16585.025
1257.42845	17006.725
1260.97859	17450.525
1264.52631	17823.625
1268.07163	18274.925
1271.61453	18717.925
1275.15503	19253.425
1278.69312	19814.525
1282.22882	20262.825
1285.76211	20762.425
1289.29301	21393.525
1292.82151	22275.325
1296.34761	23347.925
1299.87133	24666.225
1303.39266	26106.225
1306.9116	27631.225
1310.42815	29206.925
1313.94233	30259.925
1317.45412	30464.725
1320.96354	29959.125
1324.47058	29278.225
1327.97525	28566.425
1331.47754	28054.525
1334.97747	27811.725
1338.47502	27806.925
1341.97022	27791.525
1345.46305	27622.325
1348.95352	27387.425
1352.44163	27387.125
1355.92738	27939.525
1359.41078	29056.925
1362.89183	30113.025
1366.37053	29679.325
1369.84688	27271.125
1373.32088	24188.925
1376.79254	22114.925
1380.26186	21116.225
1383.72883	20883.925
1387.19347	20842.825
1390.65578	20766.925
1394.11575	20801.625
1397.57339	21151.525
1401.0287	21763.625
1404.48168	22273.425
1407.93234	22572.125
1411.38068	22447.425
1414.82669	21848.925
1418.27039	20925.925
1421.71177	19890.625
1425.15083	18965.625
1428.58758	18435.425
1432.02203	18320.825
1435.45416	18573.425
1438.88399	18986.825
1442.31151	19389.025
1445.73673	19750.025
1449.15965	20155.125
1452.58027	20507.925
1455.9986	20685.625
1459.41463	20912.925
1462.82837	21221.725
1466.23982	21654.325
1469.64898	22013.425
1473.05586	22196.725
1476.46045	22157.425
1479.86276	22004.225
1483.26279	21763.725
1486.66054	21576.325
1490.05602	21578.825
1493.44922	21579.325
1496.84016	21679.625
1500.22882	21902.825
1503.61521	22476.625
1506.99934	23307.825
1510.38121	24119.925
1513.76081	24442.825
1517.13816	23845.325
1520.51324	22726.725
1523.88607	21617.525
1527.25665	20934.425
1530.62498	20649.625
1533.99105	20552.225
1537.35488	20496.625
1540.71647	20292.325
1544.07581	20018.025
1547.4329	19671.425
1550.78776	19359.125
1554.14038	19168.925
1557.49077	19082.925
1560.83892	19126.425
1564.18484	19217.925
1567.52853	19301.325
1570.86999	19351.725
1574.20922	19513.425
1577.54624	19708.125
1580.88103	19652.025
1584.2136	19519.425
1587.54395	19834.425
1590.87208	20680.125
1594.19801	21872.925
1597.52172	23208.525
1600.84321	23919.525
1604.16251	23289.325
1607.47959	21660.025
1610.79447	19743.025
1614.10715	17950.825
1617.41763	16491.025
1620.7259	15484.225
1624.03199	14966.625
1627.33587	14861.725
1630.63757	15166.425
1633.93707	15958.325
1637.23439	17347.725
1640.52951	19303.925
1643.82246	21686.425
1647.11321	23789.025
1650.40179	24568.925
1653.68819	23368.525
1656.97241	20705.525
1660.25446	17775.525
1663.53433	15574.425
1666.81203	14064.625
1670.08756	13104.625
1673.36092	12522.825
1676.63211	12119.625
1679.90115	11821.325
1683.16801	11597.625
1686.43272	11448.225
1689.69527	11284.725
1692.95567	11190.425
1696.2139	11152.125
1699.46999	11092.725
1702.72392	11043.325
1705.97571	10996.725
1709.22535	10928.225
1712.47284	10873.125
1715.71819	10844.025
1718.96139	10836.425
1722.20246	10794.825
1725.44139	10744.425
1728.67818	10677.625
1731.91284	10633.125
1735.14537	10562.925
1738.37576	10522.325
1741.60403	10516.025
1744.83017	10469.725
1748.05418	10480.125
1751.27607	10454.225
1754.49584	10444.925
1757.71349	10418.325
1760.92903	10405.825
1764.14244	10376.025
1767.35375	10336.525
1770.56294	10284.325
1773.77002	10257.425
1776.97499	10250.325
1780.17785	10210.425
1783.37861	10176.625
1786.57727	10153.325
1789.77382	10125.025
1792.96828	10072.625
1796.16064	10052.025
1799.3509	10053.325
1802.53907	10012.725
1805.72514	9981.925
1808.90913	9950.625
1812.09102	9936.625
1815.27083	9926.425
1818.44856	9891.925
1821.6242	9880.225
1824.79776	9871.425
1827.96924	9856.225
1831.13864	9846.625
1834.30597	9832.925
1837.47122	9840.425
1840.6344	9817.725
1843.7955	9829.625
1846.95454	9802.725
1850.11151	9764.225
1853.26642	9781.525
1856.41926	9759.425
1859.57004	9777.325
1862.71876	9746.225
1865.86542	9759.725
1869.01003	9757.325
1872.15258	9756.025
1875.29308	9744.525
1878.43152	9721.525
1881.56792	9732.625
1884.70227	9725.325
1887.83457	9737.625
1890.96482	9728.525
1894.09304	9686.025
1897.21921	9699.925
1900.34335	9686.325
1903.46544	9687.725
1906.58551	9679.725
1909.70353	9627.825
1912.81953	9636.425
1915.93349	9604.025
1919.04543	9594.525
1922.15534	9582.825
1925.26322	9563.925
1928.36908	9497.225
1931.47292	9497.925
1934.57473	9454.025
1937.67453	9435.625
1940.77232	9394.625
1943.86808	9379.925
1946.96184	9329.725
1950.05358	9297.525
1953.14331	9263.925
1956.23103	9245.325
1959.31675	9244.225
1962.40046	9197.725
1965.48217	9180.025
1968.56188	9142.225
1971.63959	9136.125
1974.7153	9099.825
1977.78901	9071.325
1980.86073	9043.925
1983.93046	9004.725
1986.99819	8961.225
1990.06394	8931.525
1993.1277	8912.825
1996.18947	8880.625
1999.24925	8858.225
2002.30706	8835.225
2005.36288	8811.625
2008.41672	8767.525
2011.46859	8744.525
2014.51848	8712.025
2017.56639	8690.625
2020.61233	8674.125
2023.6563	8656.525
2026.6983	8629.825
2029.73833	8636.125
2032.7764	8605.525
2035.8125	8588.125
2038.84664	8580.525
2041.87881	8549.425
2044.90903	8535.625
2047.93729	8520.225
2050.96359	8521.525
2053.98794	8493.525
2057.01034	8506.225
2060.03078	8476.725
2063.04927	8449.225
2066.06582	8444.125
2069.08042	8438.125
2072.09307	8469.525
2075.10378	8436.325
2078.11255	8391.425
2081.11938	8419.625
2084.12426	8394.425
2087.12722	8413.025
2090.12824	8393.125
2093.12732	8397.825
2096.12447	8387.725
2099.11969	8364.725
2102.11299	8351.025
2105.10435	8364.825
2108.09379	8375.325
2111.08131	8370.625
2114.0669	8375.225
2117.05057	8367.325
2120.03233	8389.825
2123.01216	8389.225
2125.99008	8388.725
2128.96609	8396.325
2131.94018	8392.525
2134.91236	8397.125
2137.88263	8385.425
2140.851	8393.025
2143.81746	8395.625
2146.78201	8379.525
2149.74466	8394.925
2152.7054	8361.425
2155.66425	8346.925
2158.6212	8368.025
2161.57625	8360.925
2164.52941	8358.725
2167.48067	8369.625
2170.43004	8374.825
2173.37752	8355.225
2176.32311	8354.225
2179.26681	8350.225
2182.20863	8348.025
2185.14856	8341.225
2188.08661	8335.325
2191.02278	8319.725
2193.95707	8333.525
2196.88948	8314.325
2199.82001	8319.425
2202.74867	8290.325
2205.67545	8305.025
2208.60037	8319.325
2211.52341	8292.325
2214.44458	8267.225
2217.36388	8259.825
2220.28132	8242.625
2223.1969	8225.225
2226.11061	8212.025
2229.02246	8195.725
2231.93245	8178.825
2234.84058	8154.625
2237.74686	8149.925
2240.65128	8106.025
2243.55385	8115.025
2246.45456	8112.025
2249.35343	8065.425
2252.25044	8086.825
2255.14561	8066.325
2258.03893	8056.825
2260.93041	8025.325
2263.82004	7997.825
2266.70783	7994.025
2269.59378	7944.325
2272.4779	7957.125
2275.36017	7929.025
2278.24061	7931.325
2281.11922	7880.625
2283.996	7897.025
2286.87094	7881.725
2289.74405	7860.125
2292.61534	7817.825
2295.4848	7820.025
2298.35243	7843.625
2301.21824	7823.325
2304.08223	7830.725
2306.94439	7819.625
2309.80474	7801.125
2312.66327	7826.725
2315.51999	7787.325
2318.37489	7801.525
2321.22797	7815.225
2324.07925	7794.225
2326.92871	7785.225
2329.77637	7771.125
2332.62222	7764.825
2335.46626	7759.625
2338.3085	7728.425
2341.14893	7773.225
2343.98756	7760.925
2346.8244	7752.225
2349.65943	7749.925
2352.49267	7735.125
2355.32411	7730.625
2358.15376	7731.025
2360.98161	7715.625
2363.80768	7707.525
2366.63195	7700.025
2369.45444	7717.025
2372.27514	7690.425
2375.09405	7652.725
2377.91118	7658.125
2380.72652	7612.325
2383.54009	7581.525
2386.35187	7593.725
2389.16188	7560.825
2391.97011	7539.225
2394.77657	7557.525
2397.58125	7538.925
2400.38416	7500.525
2403.18529	7498.825
2405.98466	7480.825
2408.78226	7469.125
2411.57809	7453.925
2414.37216	7444.725
2417.16446	7436.425
2419.955	7421.225
2422.74378	7433.425
2425.5308	7425.625
2428.31606	7422.525
2431.09956	7418.125
2433.88131	7381.525
2436.6613	7389.725
2439.43954	7391.625
2442.21603	7373.025
2444.99077	7369.925
2447.76377	7383.325
2450.53501	7359.325
2453.30451	7367.825
2456.07226	7354.325
2458.83827	7369.925
2461.60254	7341.825
2464.36507	7359.025
2467.12586	7336.625
2469.88492	7330.225
2472.64224	7346.725
2475.39782	7349.925
2478.15167	7372.525
2480.90379	7346.025
2483.65417	7341.925
2486.40283	7343.225
2489.14976	7347.125
2491.89497	7340.625
2494.63845	7365.125
2497.3802	7353.825
2500.12024	7345.225
2502.85855	7332.525
2505.59514	7331.225
2508.33002	7333.125
2511.06318	7320.025
2513.79462	7299.125
2516.52435	7288.325
2519.25237	7268.225
2521.97867	7267.025
2524.70327	7272.725
2527.42616	7240.925
2530.14734	7256.725
2532.86681	7239.125
2535.58458	7211.525
2538.30065	7219.825
2541.01501	7221.325
2543.72768	7198.625
2546.43864	7202.025
2549.14791	7201.125
2551.85548	7197.225
2554.56136	7179.925
2557.26554	7165.325
2559.96803	7150.625
2562.66883	7131.225
2565.36794	7138.625
2568.06536	7145.625
2570.7611	7131.825
2573.45514	7136.725
2576.14751	7126.525
2578.83819	7118.125
2581.52719	7108.325
2584.21451	7097.925
2586.90015	7104.225
2589.58411	7104.525
2592.2664	7073.225
2594.94701	7075.225
2597.62594	7051.125
2600.30321	7066.725
2602.9788	7053.625
2605.65273	7051.325
2608.32498	7055.425
2610.99557	7045.925
2613.66449	7049.825
2616.33175	7033.925
2618.99734	7055.825
2621.66128	7038.025
2624.32355	7043.425
2626.98416	7041.725
2629.64311	7038.925
2632.30041	7027.025
2634.95605	7018.725
2637.61004	7016.425
2640.26238	7024.525
2642.91306	7022.925
2645.56209	7021.425
2648.20948	7017.525
2650.85521	6995.625
2653.4993	6991.925
2656.14175	7002.325
2658.78255	7022.625
2661.42171	7009.725
2664.05923	7033.425
2666.6951	7012.125
2669.32934	7027.825
2671.96194	7007.725
2674.59291	6997.025
2677.22224	7012.325
2679.84993	7004.725
2682.476	6997.425
2685.10043	6987.225
2687.72324	6986.325
2690.34441	6971.825
2692.96396	6998.325
2695.58188	6989.525
2698.19818	6994.825
2700.81285	6997.125
2703.4259	7010.725
2706.03733	7050.825
2708.64714	7006.525
2711.25533	7008.425
2713.86191	6978.925
2716.46687	6999.625
2719.07021	6984.125
2721.67194	7000.725
2724.27206	6982.325
2726.87057	6999.125
2729.46747	7010.625
2732.06276	7003.225
2734.65644	6996.925
2737.24852	7002.925
2739.83899	6965.725
2742.42786	6969.325
2745.01513	6956.625
2747.60079	6968.125
2750.18486	6970.525
2752.76733	6986.525
2755.3482	6971.525
2757.92747	6976.425
2760.50515	6945.525
2763.08123	6941.625
2765.65573	6970.425
2768.22863	6950.525
2770.79994	6957.025
2773.36967	6954.625
2775.9378	6939.725
2778.50435	6947.225
2781.06932	6942.625
2783.6327	6944.525
2786.1945	6942.525
2788.75471	6930.025
2791.31335	6908.025
2793.87041	6909.725
2796.42589	6896.025
2798.97979	6879.325
2801.53212	6869.625
2804.08288	6859.125
2806.63206	6849.925
2809.17967	6852.325
2811.72571	6835.025
2814.27018	6828.125
2816.81308	6818.225
2819.35442	6803.525
2821.89419	6802.625
2824.43239	6803.925
2826.96904	6783.825
2829.50412	6791.325
2832.03763	6773.025
2834.56959	6793.125
2837.1	6768.825
2839.62884	6767.825
2842.15613	6775.325
2844.68186	6770.425
2847.20604	6786.125
2849.72867	6768.625
2852.24974	6763.325
2854.76927	6758.925
2857.28724	6756.925
2859.80367	6760.225
2862.31855	6720.825
2864.83189	6726.625
2867.34368	6711.125
2869.85393	6721.525
2872.36264	6719.525
2874.8698	6720.625
2877.37543	6714.425
2879.87952	6730.025
2882.38207	6738.825
2884.88308	6727.025
2887.38256	6742.525
2889.88051	6725.925
2892.37692	6744.525
2894.8718	6757.925
2897.36515	6763.425
2899.85698	6756.525
2902.34727	6765.425
2904.83604	6752.525
2907.32328	6776.625
2909.809	6784.225
2912.29319	6789.325
2914.77587	6774.225
2917.25702	6791.925
2919.73665	6776.525
2922.21476	6802.825
2924.69136	6801.325
2927.16644	6779.425
2929.64	6793.825
2932.11205	6782.425
2934.58258	6763.525
2937.05161	6767.025
2939.51912	6756.325
2941.98513	6769.225
2944.44962	6743.925
2946.91261	6711.825
2949.37409	6734.225
2951.83407	6709.525
2954.29254	6704.025
2956.74951	6681.925
2959.20498	6686.125
2961.65895	6660.925
2964.11142	6674.325
2966.56239	6625.625
2969.01186	6604.325
2971.45984	6582.825
2973.90632	6557.125
2976.35131	6552.225
2978.7948	6525.925
2981.23681	6510.925
2983.67732	6495.625
2986.11635	6483.525
2988.55388	6460.625
2990.98993	6461.225
2993.4245	6434.725
2995.85758	6438.925
2998.28917	6379.725
3000.71928	6404.525
3003.14791	6383.825
3005.57506	6396.025
3008.00073	6367.225
3010.42493	6352.925
3012.84764	6355.825
3015.26888	6339.025
3017.68865	6336.625
3020.10694	6305.225
3022.52376	6305.825
3024.9391	6287.725
3027.35298	6292.325
3029.76539	6265.625
3032.17632	6243.425
3034.5858	6238.025
3036.9938	6241.125
3039.40034	6240.225
3041.80542	6234.225
3044.20903	6203.225
3046.61118	6202.325
3049.01187	6175.525
3051.4111	6193.925
3053.80888	6170.025
3056.20519	6169.725
3058.60005	6150.925
3060.99345	6130.725
3063.3854	6129.625
3065.7759	6092.125
3068.16494	6079.725
3070.55254	6057.025
3072.93868	6048.225
3075.32338	6033.825
3077.70662	6021.925
3080.08842	6009.325
3082.46878	6027.025
3084.84769	5998.825
3087.22515	6001.125
3089.60118	5994.025
3091.97576	6009.825
3094.3489	5986.125
3096.72061	5983.725
3099.09087	5973.025
3101.4597	5969.525
3103.82709	5968.825
3106.19305	5963.125
3108.55757	5967.625
3110.92066	5948.725
3113.28232	5932.725
3115.64255	5918.725
3118.00134	5911.125
3120.35871	5903.825
3122.71466	5911.925
3125.06917	5887.225
3127.42226	5869.225
3129.77393	5867.225
3132.12417	5873.725
3134.47299	5870.225
3136.82039	5872.925
3139.16636	5873.125
3141.51092	5882.225
3143.85406	5873.325
3146.19579	5876.225
3148.53609	5856.325
3150.87499	5862.525
3153.21246	5875.425
3155.54853	5882.225
3157.88318	5862.525
3160.21642	5878.925
3162.54826	5891.925
3164.87868	5870.125
3167.2077	5869.725
3169.5353	5880.825
3171.86151	5870.425
3174.18631	5843.225
3176.5097	5850.725
3178.83169	5855.925
3181.15228	5856.325
3183.47147	5845.525
3185.78926	5836.625
