Data from AgNPs_FTO_APTES_UA_50um_CRN_0.1mM_R6G_10uM_NaF_0.1M_Addition_RamanShift__12__15-16-59-238.txt Node

Date: Tue Dec 21 15:16:59 GMT 2021
User: TCL
Spectrometer: QEP01345
Trigger mode: 4
Integration Time (sec): 7.000000E0
Scans to average: 10
Electric dark correction enabled: true
Nonlinearity correction enabled: false
Boxcar width: 0
XAxis mode: Raman Shifts
Number of Pixels in Spectrum: 1044
>>>>>Begin Spectral Data<<<<<
46.04893	-0.8875
50.45542	-0.9875
54.85868	-0.3875
59.25871	1.0125
63.6555	35.0125
68.04907	38.7125
72.43941	40.7125
76.82654	44.0125
81.21044	47.6125
85.59113	49.0125
89.96862	52.6125
94.34289	50.6125
98.71396	53.7125
103.08183	59.1125
107.4465	60.8125
111.80798	58.0125
116.16626	58.5125
120.52136	59.8125
124.87327	61.3125
129.222	65.8125
133.56755	67.5125
137.90993	71.2125
142.24913	72.5125
146.58517	81.2125
150.91804	94.6125
155.24774	107.3125
159.57429	128.6125
163.89768	163.6125
168.21792	207.6125
172.53501	276.5125
176.84895	385.9125
181.15975	540.5125
185.46741	755.6125
189.77193	1037.4125
194.07331	1405.1125
198.37157	1806.0125
202.6667	2242.4125
206.9587	2680.4125
211.24758	3103.0125
215.53334	3534.5125
219.81599	3981.1125
224.09553	4486.4125
228.37195	5030.1125
232.64527	5629.7125
236.91549	6249.1125
241.18261	6897.1125
245.44663	7483.1125
249.70755	8024.4125
253.96539	8487.0125
258.22014	8841.7125
262.4718	9135.1125
266.72039	9297.2125
270.96589	9375.8125
275.20832	9348.5125
279.44768	9246.2125
283.68397	9141.8125
287.91719	9046.2125
292.14735	8979.5125
296.37445	8925.4125
300.59849	8919.5125
304.81948	8961.9125
309.03742	8941.6125
313.25231	8890.4125
317.46415	8713.4125
321.67296	8508.4125
325.87872	8327.8125
330.08145	8207.2125
334.28114	8196.1125
338.47781	8239.6125
342.67145	8327.3125
346.86207	8435.5125
351.04966	8590.2125
355.23424	8731.5125
359.4158	8847.7125
363.59435	8934.4125
367.76989	9025.4125
371.94243	9080.6125
376.11196	9096.5125
380.27849	9121.4125
384.44203	9150.3125
388.60257	9227.9125
392.76012	9284.7125
396.91468	9401.4125
401.06626	9579.0125
405.21485	9665.5125
409.36047	9666.5125
413.50311	9504.2125
417.64277	9363.9125
421.77947	9275.1125
425.9132	9274.4125
430.04396	9276.0125
434.17176	9324.2125
438.2966	9372.8125
442.41849	9454.5125
446.53742	9565.0125
450.6534	9722.0125
454.76644	9834.6125
458.87653	9889.9125
462.98368	9933.0125
467.08789	9893.9125
471.18916	9830.1125
475.2875	9755.6125
479.38291	9747.1125
483.4754	9689.5125
487.56496	9647.0125
491.6516	9587.1125
495.73531	9507.9125
499.81612	9474.8125
503.89401	9522.1125
507.96899	9546.9125
512.04106	9551.4125
516.11023	9550.2125
520.1765	9481.8125
524.23987	9428.2125
528.30034	9368.4125
532.35792	9292.9125
536.41261	9206.3125
540.46441	9144.5125
544.51333	9127.7125
548.55936	9210.5125
552.60252	9330.4125
556.64279	9490.2125
560.6802	9542.1125
564.71473	9592.0125
568.7464	9678.6125
572.7752	9862.1125
576.80114	9987.1125
580.82422	10150.8125
584.84444	10261.1125
588.86181	10318.6125
592.87633	10356.7125
596.888	10317.3125
600.89682	10315.4125
604.9028	10542.4125
608.90594	11302.0125
612.90624	12277.8125
616.90371	11863.2125
620.89834	10229.0125
624.89015	9397.1125
628.87913	9267.9125
632.86528	9369.5125
636.84862	9473.7125
640.82913	9405.3125
644.80683	9243.3125
648.78172	9061.3125
652.75379	9055.6125
656.72306	9109.1125
660.68952	9242.6125
664.65319	9245.4125
668.61405	9171.8125
672.57211	9162.8125
676.52738	9199.8125
680.47986	9213.3125
684.42955	9184.7125
688.37646	9141.9125
692.32058	9143.2125
696.26192	9132.0125
700.20048	9197.1125
704.13626	9188.5125
708.06928	9194.1125
711.99952	9156.9125
715.927	9125.3125
719.85171	9047.4125
723.77365	9032.4125
727.69284	8973.4125
731.60928	8903.0125
735.52295	8861.9125
739.43388	8857.1125
743.34206	8884.9125
747.24749	8932.5125
751.15017	8962.5125
755.05012	9058.7125
758.94733	9255.2125
762.8418	9622.5125
766.73354	10230.3125
770.62254	10877.5125
774.50882	11151.1125
778.39237	10809.5125
782.27321	10080.2125
786.15132	9483.3125
790.02671	9079.1125
793.89938	8871.5125
797.76935	8787.5125
801.6366	8719.5125
805.50115	8683.7125
809.36299	8650.2125
813.22213	8626.7125
817.07857	8596.4125
820.93231	8589.0125
824.78336	8545.6125
828.63172	8515.6125
832.47738	8516.3125
836.32036	8488.4125
840.16066	8454.2125
843.99827	8424.9125
847.8332	8429.4125
851.66546	8421.9125
855.49504	8416.5125
859.32195	8392.5125
863.1462	8395.9125
866.96777	8367.8125
870.78668	8371.6125
874.60293	8381.1125
878.41652	8380.1125
882.22745	8395.3125
886.03573	8418.5125
889.84136	8431.7125
893.64433	8420.0125
897.44466	8390.8125
901.24235	8375.2125
905.0374	8352.0125
908.8298	8334.5125
912.61957	8323.7125
916.40671	8359.7125
920.19121	8425.2125
923.97308	8442.5125
927.75233	8452.5125
931.52895	8394.8125
935.30295	8306.9125
939.07433	8185.3125
942.84309	8078.5125
946.60924	8010.0125
950.37278	7965.1125
954.13371	7970.4125
957.89203	7966.6125
961.64774	7930.4125
965.40086	7916.1125
969.15137	7879.0125
972.89929	7875.5125
976.64461	7828.8125
980.38733	7810.1125
984.12747	7803.0125
987.86502	7811.2125
991.59999	7821.1125
995.33237	7835.8125
999.06217	7883.1125
1002.78939	7965.7125
1006.51404	8024.4125
1010.23611	8082.6125
1013.95561	8168.9125
1017.67255	8219.4125
1021.38692	8164.0125
1025.09872	8111.3125
1028.80796	8027.5125
1032.51465	7986.6125
1036.21877	8008.4125
1039.92035	8031.9125
1043.61937	8059.0125
1047.31584	8105.0125
1051.00976	8135.5125
1054.70114	8178.1125
1058.38998	8190.5125
1062.07627	8261.5125
1065.76003	8336.3125
1069.44126	8381.7125
1073.11995	8500.8125
1076.79611	8569.1125
1080.46974	8605.2125
1084.14085	8633.1125
1087.80943	8647.6125
1091.47549	8736.3125
1095.13903	8728.4125
1098.80005	8685.2125
1102.45857	8548.5125
1106.11456	8409.1125
1109.76805	8327.0125
1113.41903	8296.8125
1117.06751	8352.5125
1120.71348	8444.9125
1124.35696	8536.2125
1127.99793	8682.6125
1131.63641	8762.4125
1135.2724	8688.1125
1138.90589	8591.8125
1142.5369	8531.2125
1146.16542	8524.7125
1149.79145	8506.1125
1153.415	8540.7125
1157.03607	8570.4125
1160.65467	8658.9125
1164.27079	8837.1125
1167.88443	9121.7125
1171.49561	9501.2125
1175.10432	9969.8125
1178.71056	10613.2125
1182.31434	11193.2125
1185.91565	11538.5125
1189.51451	11556.8125
1193.11091	11389.2125
1196.70485	11070.4125
1200.29634	10718.5125
1203.88538	10390.4125
1207.47197	10096.2125
1211.05612	9838.1125
1214.63782	9599.8125
1218.21708	9391.4125
1221.79391	9236.4125
1225.36829	9161.0125
1228.94024	9088.4125
1232.50976	9047.0125
1236.07685	9019.9125
1239.6415	8994.3125
1243.20374	9025.4125
1246.76355	9039.1125
1250.32093	9104.3125
1253.8759	9197.0125
1257.42845	9375.1125
1260.97859	9569.1125
1264.52631	9717.3125
1268.07163	9927.8125
1271.61453	10048.8125
1275.15503	10223.6125
1278.69312	10342.8125
1282.22882	10467.0125
1285.76211	10672.1125
1289.29301	10881.2125
1292.82151	11182.5125
1296.34761	11489.1125
1299.87133	11880.6125
1303.39266	12319.8125
1306.9116	12841.2125
1310.42815	13336.3125
1313.94233	13603.9125
1317.45412	13589.2125
1320.96354	13387.7125
1324.47058	13177.9125
1327.97525	12964.3125
1331.47754	12823.4125
1334.97747	12776.4125
1338.47502	12801.0125
1341.97022	12899.1125
1345.46305	13034.7125
1348.95352	13254.6125
1352.44163	13435.0125
1355.92738	13675.7125
1359.41078	14106.6125
1362.89183	14635.1125
1366.37053	14553.5125
1369.84688	13575.5125
1373.32088	12328.7125
1376.79254	11356.5125
1380.26186	10871.2125
1383.72883	10636.4125
1387.19347	10488.2125
1390.65578	10326.1125
1394.11575	10167.4125
1397.57339	10067.6125
1401.0287	10014.3125
1404.48168	9952.3125
1407.93234	9901.6125
1411.38068	9777.5125
1414.82669	9604.7125
1418.27039	9396.8125
1421.71177	9198.2125
1425.15083	8973.1125
1428.58758	8852.4125
1432.02203	8796.2125
1435.45416	8838.1125
1438.88399	8913.4125
1442.31151	8971.0125
1445.73673	9036.5125
1449.15965	9136.5125
1452.58027	9222.1125
1455.9986	9261.4125
1459.41463	9346.9125
1462.82837	9459.8125
1466.23982	9602.9125
1469.64898	9774.4125
1473.05586	9873.2125
1476.46045	9931.2125
1479.86276	10009.1125
1483.26279	10081.2125
1486.66054	10156.6125
1490.05602	10297.0125
1493.44922	10513.0125
1496.84016	10923.6125
1500.22882	11422.2125
1503.61521	12176.2125
1506.99934	12845.3125
1510.38121	13367.2125
1513.76081	13418.0125
1517.13816	12990.5125
1520.51324	12313.5125
1523.88607	11672.0125
1527.25665	11245.7125
1530.62498	10962.9125
1533.99105	10751.9125
1537.35488	10575.9125
1540.71647	10370.7125
1544.07581	10137.1125
1547.4329	9939.7125
1550.78776	9787.8125
1554.14038	9672.9125
1557.49077	9695.5125
1560.83892	9726.0125
1564.18484	9852.2125
1567.52853	9984.9125
1570.86999	10116.9125
1574.20922	10235.7125
1577.54624	10255.4125
1580.88103	10118.5125
1584.2136	9904.5125
1587.54395	9741.9125
1590.87208	9765.2125
1594.19801	9964.2125
1597.52172	10319.3125
1600.84321	10448.5125
1604.16251	10265.5125
1607.47959	9855.6125
1610.79447	9414.1125
1614.10715	8974.7125
1617.41763	8548.1125
1620.7259	8222.3125
1624.03199	8008.3125
1627.33587	7913.6125
1630.63757	7960.0125
1633.93707	8163.5125
1637.23439	8514.0125
1640.52951	9114.9125
1643.82246	9923.6125
1647.11321	10847.6125
1650.40179	11456.7125
1653.68819	11415.5125
1656.97241	10622.4125
1660.25446	9528.6125
1663.53433	8613.8125
1666.81203	7924.2125
1670.08756	7489.2125
1673.36092	7165.0125
1676.63211	6985.7125
1679.90115	6847.3125
1683.16801	6719.2125
1686.43272	6640.9125
1689.69527	6580.1125
1692.95567	6518.4125
1696.2139	6495.3125
1699.46999	6451.3125
1702.72392	6419.7125
1705.97571	6380.6125
1709.22535	6359.4125
1712.47284	6322.8125
1715.71819	6326.6125
1718.96139	6271.5125
1722.20246	6247.5125
1725.44139	6209.0125
1728.67818	6183.9125
1731.91284	6119.7125
1735.14537	6096.4125
1738.37576	6070.3125
1741.60403	6048.7125
1744.83017	6039.7125
1748.05418	6011.5125
1751.27607	6005.3125
1754.49584	6014.6125
1757.71349	6013.1125
1760.92903	6019.6125
1764.14244	6004.3125
1767.35375	5994.0125
1770.56294	5957.0125
1773.77002	5934.2125
1776.97499	5880.4125
1780.17785	5861.6125
1783.37861	5844.7125
1786.57727	5792.2125
1789.77382	5782.0125
1792.96828	5761.9125
1796.16064	5742.1125
1799.3509	5713.2125
1802.53907	5707.9125
1805.72514	5662.1125
1808.90913	5650.8125
1812.09102	5643.4125
1815.27083	5608.7125
1818.44856	5594.0125
1821.6242	5585.6125
1824.79776	5561.3125
1827.96924	5558.6125
1831.13864	5544.7125
1834.30597	5545.8125
1837.47122	5536.9125
1840.6344	5510.1125
1843.7955	5512.8125
1846.95454	5521.2125
1850.11151	5491.5125
1853.26642	5484.1125
1856.41926	5469.1125
1859.57004	5482.1125
1862.71876	5444.6125
1865.86542	5450.5125
1869.01003	5432.8125
1872.15258	5430.8125
1875.29308	5413.2125
1878.43152	5396.6125
1881.56792	5400.5125
1884.70227	5375.3125
1887.83457	5372.7125
1890.96482	5365.3125
1894.09304	5346.6125
1897.21921	5332.5125
1900.34335	5319.1125
1903.46544	5316.2125
1906.58551	5299.0125
1909.70353	5310.8125
1912.81953	5286.7125
1915.93349	5272.0125
1919.04543	5265.4125
1922.15534	5237.0125
1925.26322	5248.4125
1928.36908	5209.2125
1931.47292	5197.7125
1934.57473	5194.3125
1937.67453	5153.7125
1940.77232	5170.6125
1943.86808	5135.8125
1946.96184	5132.7125
1950.05358	5108.2125
1953.14331	5092.8125
1956.23103	5063.5125
1959.31675	5022.9125
1962.40046	5027.3125
1965.48217	5003.6125
1968.56188	5015.0125
1971.63959	4979.9125
1974.7153	4979.2125
1977.78901	4952.2125
1980.86073	4937.7125
1983.93046	4918.5125
1986.99819	4888.8125
1990.06394	4867.6125
1993.1277	4847.6125
1996.18947	4828.8125
1999.24925	4822.8125
2002.30706	4801.2125
2005.36288	4778.5125
2008.41672	4766.8125
2011.46859	4733.2125
2014.51848	4742.7125
2017.56639	4713.0125
2020.61233	4702.3125
2023.6563	4678.8125
2026.6983	4674.1125
2029.73833	4657.6125
2032.7764	4635.5125
2035.8125	4620.4125
2038.84664	4615.9125
2041.87881	4597.9125
2044.90903	4597.8125
2047.93729	4573.8125
2050.96359	4559.3125
2053.98794	4571.1125
2057.01034	4535.6125
2060.03078	4549.1125
2063.04927	4536.5125
2066.06582	4515.9125
2069.08042	4533.3125
2072.09307	4519.0125
2075.10378	4517.9125
2078.11255	4512.0125
2081.11938	4510.4125
2084.12426	4508.2125
2087.12722	4486.8125
2090.12824	4493.4125
2093.12732	4484.0125
2096.12447	4490.3125
2099.11969	4469.7125
2102.11299	4482.0125
2105.10435	4472.6125
2108.09379	4495.1125
2111.08131	4475.1125
2114.0669	4483.2125
2117.05057	4476.5125
2120.03233	4484.7125
2123.01216	4473.4125
2125.99008	4467.9125
2128.96609	4486.4125
2131.94018	4462.4125
2134.91236	4472.9125
2137.88263	4461.4125
2140.851	4468.4125
2143.81746	4469.5125
2146.78201	4450.3125
2149.74466	4466.7125
2152.7054	4461.6125
2155.66425	4439.8125
2158.6212	4449.3125
2161.57625	4441.3125
2164.52941	4452.6125
2167.48067	4437.2125
2170.43004	4435.2125
2173.37752	4411.1125
2176.32311	4406.2125
2179.26681	4409.2125
2182.20863	4410.9125
2185.14856	4400.9125
2188.08661	4391.0125
2191.02278	4396.2125
2193.95707	4388.8125
2196.88948	4378.1125
2199.82001	4364.4125
2202.74867	4355.1125
2205.67545	4363.8125
2208.60037	4349.7125
2211.52341	4337.4125
2214.44458	4328.2125
2217.36388	4313.1125
2220.28132	4314.3125
2223.1969	4288.1125
2226.11061	4294.3125
2229.02246	4280.4125
2231.93245	4262.0125
2234.84058	4246.5125
2237.74686	4239.3125
2240.65128	4245.2125
2243.55385	4239.1125
2246.45456	4226.5125
2249.35343	4197.5125
2252.25044	4219.3125
2255.14561	4196.2125
2258.03893	4196.7125
2260.93041	4177.6125
2263.82004	4180.2125
2266.70783	4173.6125
2269.59378	4153.1125
2272.4779	4131.7125
2275.36017	4123.0125
2278.24061	4121.4125
2281.11922	4102.8125
2283.996	4086.1125
2286.87094	4075.9125
2289.74405	4061.1125
2292.61534	4057.9125
2295.4848	4039.5125
2298.35243	4043.5125
2301.21824	4019.1125
2304.08223	4035.5125
2306.94439	4027.6125
2309.80474	4014.3125
2312.66327	4003.8125
2315.51999	4005.8125
2318.37489	4003.0125
2321.22797	3978.7125
2324.07925	3985.2125
2326.92871	3987.4125
2329.77637	3967.8125
2332.62222	3962.1125
2335.46626	3949.3125
2338.3085	3941.4125
2341.14893	3930.8125
2343.98756	3935.7125
2346.8244	3940.6125
2349.65943	3923.9125
2352.49267	3913.1125
2355.32411	3906.4125
2358.15376	3919.3125
2360.98161	3919.0125
2363.80768	3898.1125
2366.63195	3913.1125
2369.45444	3915.3125
2372.27514	3891.2125
2375.09405	3875.2125
2377.91118	3872.1125
2380.72652	3854.3125
2383.54009	3847.2125
2386.35187	3839.8125
2389.16188	3825.9125
2391.97011	3805.2125
2394.77657	3807.7125
2397.58125	3787.3125
2400.38416	3780.9125
2403.18529	3777.2125
2405.98466	3774.2125
2408.78226	3752.9125
2411.57809	3743.2125
2414.37216	3732.7125
2417.16446	3747.9125
2419.955	3734.0125
2422.74378	3728.6125
2425.5308	3722.9125
2428.31606	3735.7125
2431.09956	3716.1125
2433.88131	3706.9125
2436.6613	3714.8125
2439.43954	3694.1125
2442.21603	3688.4125
2444.99077	3690.5125
2447.76377	3689.1125
2450.53501	3690.5125
2453.30451	3681.7125
2456.07226	3674.0125
2458.83827	3672.3125
2461.60254	3665.5125
2464.36507	3658.7125
2467.12586	3661.7125
2469.88492	3647.1125
2472.64224	3651.5125
2475.39782	3658.5125
2478.15167	3644.6125
2480.90379	3624.7125
2483.65417	3634.2125
2486.40283	3615.3125
2489.14976	3633.0125
2491.89497	3621.6125
2494.63845	3635.6125
2497.3802	3638.6125
2500.12024	3617.9125
2502.85855	3615.9125
2505.59514	3588.2125
2508.33002	3587.1125
2511.06318	3588.0125
2513.79462	3577.1125
2516.52435	3573.0125
2519.25237	3570.8125
2521.97867	3553.5125
2524.70327	3550.0125
2527.42616	3542.6125
2530.14734	3531.9125
2532.86681	3529.0125
2535.58458	3529.5125
2538.30065	3524.0125
2541.01501	3513.3125
2543.72768	3509.6125
2546.43864	3497.8125
2549.14791	3490.7125
2551.85548	3491.4125
2554.56136	3482.3125
2557.26554	3475.4125
2559.96803	3466.5125
2562.66883	3452.7125
2565.36794	3445.6125
2568.06536	3441.6125
2570.7611	3439.6125
2573.45514	3434.8125
2576.14751	3425.2125
2578.83819	3409.7125
2581.52719	3410.4125
2584.21451	3396.1125
2586.90015	3393.4125
2589.58411	3384.5125
2592.2664	3368.6125
2594.94701	3366.4125
2597.62594	3367.7125
2600.30321	3353.8125
2602.9788	3345.5125
2605.65273	3343.1125
2608.32498	3330.6125
2610.99557	3331.5125
2613.66449	3325.5125
2616.33175	3326.6125
2618.99734	3328.0125
2621.66128	3315.0125
2624.32355	3287.4125
2626.98416	3304.2125
2629.64311	3289.3125
2632.30041	3282.4125
2634.95605	3293.5125
2637.61004	3276.4125
2640.26238	3272.9125
2642.91306	3277.8125
2645.56209	3244.8125
2648.20948	3264.0125
2650.85521	3252.1125
2653.4993	3251.7125
2656.14175	3245.1125
2658.78255	3249.0125
2661.42171	3249.9125
2664.05923	3253.9125
2666.6951	3242.2125
2669.32934	3259.4125
2671.96194	3253.7125
2674.59291	3253.0125
2677.22224	3245.8125
2679.84993	3241.0125
2682.476	3241.9125
2685.10043	3236.3125
2687.72324	3237.1125
2690.34441	3228.4125
2692.96396	3223.1125
2695.58188	3226.4125
2698.19818	3224.4125
2700.81285	3229.2125
2703.4259	3242.9125
2706.03733	3291.7125
2708.64714	3248.8125
2711.25533	3235.6125
2713.86191	3233.0125
2716.46687	3232.2125
2719.07021	3218.3125
2721.67194	3210.8125
2724.27206	3211.7125
2726.87057	3204.3125
2729.46747	3208.9125
2732.06276	3204.0125
2734.65644	3201.8125
2737.24852	3214.7125
2739.83899	3179.9125
2742.42786	3200.4125
2745.01513	3181.9125
2747.60079	3180.3125
2750.18486	3187.5125
2752.76733	3169.3125
2755.3482	3167.1125
2757.92747	3155.2125
2760.50515	3157.3125
2763.08123	3149.6125
2765.65573	3143.9125
2768.22863	3140.0125
2770.79994	3125.7125
2773.36967	3136.4125
2775.9378	3127.5125
2778.50435	3120.8125
2781.06932	3125.8125
2783.6327	3098.6125
2786.1945	3120.3125
2788.75471	3112.6125
2791.31335	3099.2125
2793.87041	3088.5125
2796.42589	3086.9125
2798.97979	3075.7125
2801.53212	3066.2125
2804.08288	3066.2125
2806.63206	3066.7125
2809.17967	3049.1125
2811.72571	3039.5125
2814.27018	3062.3125
2816.81308	3030.4125
2819.35442	3031.6125
2821.89419	3030.8125
2824.43239	3020.9125
2826.96904	3024.3125
2829.50412	3015.9125
2832.03763	3024.4125
2834.56959	3010.2125
2837.1	3006.8125
2839.62884	3013.3125
2842.15613	3016.1125
2844.68186	3040.0125
2847.20604	3030.2125
2849.72867	3046.8125
2852.24974	3029.1125
2854.76927	3034.0125
2857.28724	3037.0125
2859.80367	3022.7125
2862.31855	3016.9125
2864.83189	3006.0125
2867.34368	3011.1125
2869.85393	3009.9125
2872.36264	2996.7125
2874.8698	2993.4125
2877.37543	2983.6125
2879.87952	2990.4125
2882.38207	2981.4125
2884.88308	2989.9125
2887.38256	2985.9125
2889.88051	2972.8125
2892.37692	2981.3125
2894.8718	2980.2125
2897.36515	2986.2125
2899.85698	2979.5125
2902.34727	2974.7125
2904.83604	2984.4125
2907.32328	2992.0125
2909.809	2985.6125
2912.29319	2989.0125
2914.77587	2990.2125
2917.25702	2989.4125
2919.73665	2984.2125
2922.21476	2987.3125
2924.69136	2979.6125
2927.16644	2993.1125
2929.64	2992.4125
2932.11205	2980.5125
2934.58258	2965.3125
2937.05161	2980.1125
2939.51912	2975.2125
2941.98513	2966.0125
2944.44962	2961.2125
2946.91261	2957.3125
2949.37409	2946.5125
2951.83407	2956.5125
2954.29254	2946.9125
2956.74951	2933.4125
2959.20498	2937.2125
2961.65895	2921.3125
2964.11142	2909.4125
2966.56239	2912.2125
2969.01186	2880.8125
2971.45984	2894.9125
2973.90632	2877.8125
2976.35131	2878.3125
2978.7948	2845.6125
2981.23681	2865.0125
2983.67732	2849.6125
2986.11635	2845.9125
2988.55388	2842.0125
2990.98993	2815.8125
2993.4245	2817.7125
2995.85758	2806.8125
2998.28917	2803.0125
3000.71928	2798.3125
3003.14791	2799.4125
3005.57506	2807.2125
3008.00073	2792.5125
3010.42493	2787.0125
3012.84764	2785.8125
3015.26888	2781.3125
3017.68865	2779.3125
3020.10694	2762.1125
3022.52376	2763.5125
3024.9391	2769.0125
3027.35298	2772.9125
3029.76539	2748.2125
3032.17632	2735.5125
3034.5858	2735.0125
3036.9938	2733.0125
3039.40034	2724.7125
3041.80542	2730.2125
3044.20903	2730.8125
3046.61118	2733.0125
3049.01187	2718.7125
3051.4111	2707.4125
3053.80888	2705.8125
3056.20519	2704.3125
3058.60005	2702.9125
3060.99345	2702.0125
3063.3854	2695.4125
3065.7759	2689.7125
3068.16494	2687.7125
3070.55254	2683.5125
3072.93868	2677.1125
3075.32338	2675.8125
3077.70662	2673.7125
3080.08842	2661.0125
3082.46878	2668.7125
3084.84769	2662.5125
3087.22515	2669.4125
3089.60118	2661.0125
3091.97576	2671.8125
3094.3489	2674.5125
3096.72061	2670.6125
3099.09087	2672.4125
3101.4597	2662.9125
3103.82709	2674.6125
3106.19305	2659.3125
3108.55757	2670.5125
3110.92066	2662.3125
3113.28232	2655.9125
