Data from AgNPs_FTO_APTES_UA_1um_CRN_0.1mM_R6G_10uM_NaF_0.1M_Addition_RamanShift__28__12-06-49-020.txt Node

Date: Tue Dec 21 12:06:49 GMT 2021
User: TCL
Spectrometer: QEP01345
Trigger mode: 4
Integration Time (sec): 7.000000E0
Scans to average: 10
Electric dark correction enabled: true
Nonlinearity correction enabled: false
Boxcar width: 0
XAxis mode: Raman Shifts
Number of Pixels in Spectrum: 1044
>>>>>Begin Spectral Data<<<<<
46.04893	0.225
50.45542	-1.075
54.85868	-1.875
59.25871	0.025
63.6555	44.825
68.04907	51.625
72.43941	50.425
76.82654	54.825
81.21044	59.825
85.59113	60.025
89.96862	60.825
94.34289	61.925
98.71396	66.225
103.08183	69.525
107.4465	70.325
111.80798	74.525
116.16626	71.225
120.52136	81.025
124.87327	79.525
129.222	77.925
133.56755	85.425
137.90993	94.925
142.24913	97.925
146.58517	108.325
150.91804	128.125
155.24774	147.125
159.57429	183.125
163.89768	235.425
168.21792	308.825
172.53501	415.825
176.84895	570.825
181.15975	806.325
185.46741	1126.725
189.77193	1549.425
194.07331	2089.225
198.37157	2692.225
202.6667	3336.525
206.9587	4002.225
211.24758	4647.625
215.53334	5339.425
219.81599	6078.225
224.09553	6929.425
228.37195	7852.125
232.64527	8841.625
236.91549	9874.425
241.18261	10776.525
245.44663	11593.525
249.70755	12289.325
253.96539	12842.625
258.22014	13307.725
262.4718	13650.725
266.72039	13796.525
270.96589	13790.625
275.20832	13673.825
279.44768	13489.025
283.68397	13260.525
287.91719	13144.125
292.14735	13183.025
296.37445	13430.925
300.59849	13881.625
304.81948	14474.825
309.03742	14956.425
313.25231	14977.025
317.46415	14313.025
321.67296	13199.725
325.87872	12284.225
330.08145	11857.325
334.28114	11822.225
338.47781	12030.725
342.67145	12368.425
346.86207	12872.025
351.04966	13662.325
355.23424	14534.725
359.4158	15268.925
363.59435	15564.825
367.76989	15567.025
371.94243	15463.425
376.11196	15258.625
380.27849	15194.925
384.44203	15009.325
388.60257	14802.925
392.76012	14706.325
396.91468	14850.825
401.06626	15236.525
405.21485	15609.325
409.36047	15337.625
413.50311	14603.925
417.64277	13865.725
421.77947	13490.125
425.9132	13381.225
430.04396	13417.625
434.17176	13552.025
438.2966	13841.625
442.41849	14350.025
446.53742	15080.625
450.6534	15712.125
454.76644	16100.325
458.87653	16089.225
462.98368	15693.625
467.08789	15272.325
471.18916	14880.525
475.2875	14528.825
479.38291	14230.325
483.4754	13924.125
487.56496	13689.725
491.6516	13370.325
495.73531	13169.825
499.81612	13154.825
503.89401	13268.825
507.96899	13405.425
512.04106	13493.225
516.11023	13605.525
520.1765	13639.825
524.23987	13609.325
528.30034	13468.825
532.35792	13250.425
536.41261	12970.225
540.46441	12584.825
544.51333	12301.625
548.55936	12339.225
552.60252	12572.725
556.64279	13066.725
560.6802	13456.225
564.71473	13928.225
568.7464	14779.225
572.7752	15355.325
576.80114	15012.925
580.82422	14436.125
584.84444	14324.525
588.86181	14579.525
592.87633	15169.625
596.888	15686.925
600.89682	15920.425
604.9028	17006.625
608.90594	20853.125
612.90624	26240.825
616.90371	25134.625
620.89834	17360.125
624.89015	13532.825
628.87913	12869.625
632.86528	12989.925
636.84862	13106.525
640.82913	12824.725
644.80683	12162.725
648.78172	11653.325
652.75379	11582.925
656.72306	12047.325
660.68952	12667.225
664.65319	12641.425
668.61405	12064.625
672.57211	11784.025
676.52738	11836.025
680.47986	11810.325
684.42955	11587.225
688.37646	11464.825
692.32058	11422.825
696.26192	11539.225
700.20048	11754.525
704.13626	11902.125
708.06928	11875.525
711.99952	11687.825
715.927	11604.125
719.85171	11645.325
723.77365	11652.225
727.69284	11540.925
731.60928	11432.825
735.52295	11448.825
739.43388	11556.625
743.34206	11577.725
747.24749	11670.525
751.15017	11750.725
755.05012	12016.225
758.94733	12686.825
762.8418	14161.225
766.73354	16706.525
770.62254	19309.025
774.50882	20602.825
778.39237	19831.125
782.27321	17107.025
786.15132	14268.525
790.02671	12515.225
793.89938	11729.725
797.76935	11417.325
801.6366	11310.325
805.50115	11245.325
809.36299	11145.525
813.22213	11081.025
817.07857	11023.025
820.93231	11002.425
824.78336	11023.525
828.63172	11083.225
832.47738	11098.625
836.32036	11078.625
840.16066	11020.725
843.99827	10944.825
847.8332	10886.225
851.66546	10852.925
855.49504	10848.125
859.32195	10850.425
863.1462	10826.025
866.96777	10793.525
870.78668	10744.425
874.60293	10748.525
878.41652	10788.525
882.22745	10833.525
886.03573	10896.425
889.84136	10880.225
893.64433	10790.425
897.44466	10727.225
901.24235	10689.425
905.0374	10612.625
908.8298	10507.125
912.61957	10450.625
916.40671	10512.625
920.19121	10669.825
923.97308	10908.525
927.75233	11117.325
931.52895	11247.425
935.30295	11094.125
939.07433	10679.925
942.84309	10291.525
946.60924	10101.225
950.37278	9973.725
954.13371	9893.425
957.89203	9832.725
961.64774	9810.325
965.40086	9769.925
969.15137	9718.825
972.89929	9663.625
976.64461	9615.525
980.38733	9623.825
984.12747	9651.325
987.86502	9749.625
991.59999	9858.225
995.33237	10088.425
999.06217	10519.725
1002.78939	11055.425
1006.51404	11529.825
1010.23611	11842.225
1013.95561	11967.825
1017.67255	11840.225
1021.38692	11504.925
1025.09872	11126.725
1028.80796	10981.225
1032.51465	11117.325
1036.21877	11343.425
1039.92035	11487.625
1043.61937	11482.125
1047.31584	11312.225
1051.00976	11114.125
1054.70114	10955.925
1058.38998	10880.925
1062.07627	10867.125
1065.76003	10885.825
1069.44126	10999.325
1073.11995	11189.725
1076.79611	11395.925
1080.46974	11658.825
1084.14085	12008.125
1087.80943	12373.025
1091.47549	12551.425
1095.13903	12344.925
1098.80005	11872.025
1102.45857	11412.325
1106.11456	11206.625
1109.76805	11240.825
1113.41903	11509.525
1117.06751	11972.125
1120.71348	12585.525
1124.35696	13332.125
1127.99793	13895.925
1131.63641	13789.525
1135.2724	13086.525
1138.90589	12426.125
1142.5369	12038.125
1146.16542	11827.925
1149.79145	11694.625
1153.415	11725.925
1157.03607	11817.925
1160.65467	12097.725
1164.27079	12703.725
1167.88443	13650.325
1171.49561	15131.925
1175.10432	17386.725
1178.71056	20377.925
1182.31434	22835.925
1185.91565	23645.625
1189.51451	22970.725
1193.11091	21537.625
1196.70485	19792.125
1200.29634	18279.125
1203.88538	17005.925
1207.47197	15784.125
1211.05612	14848.225
1214.63782	14349.925
1218.21708	14330.025
1221.79391	14481.825
1225.36829	14570.325
1228.94024	14393.425
1232.50976	14026.225
1236.07685	13713.325
1239.6415	13577.425
1243.20374	13585.225
1246.76355	13637.125
1250.32093	13819.825
1253.8759	14204.725
1257.42845	14787.425
1260.97859	15462.325
1264.52631	16091.525
1268.07163	16734.925
1271.61453	17312.325
1275.15503	17796.125
1278.69312	18176.025
1282.22882	18585.625
1285.76211	19201.325
1289.29301	20074.225
1292.82151	21072.625
1296.34761	22230.325
1299.87133	23842.025
1303.39266	26147.625
1306.9116	29401.325
1310.42815	32991.125
1313.94233	35057.925
1317.45412	34404.725
1320.96354	32072.325
1324.47058	29564.425
1327.97525	27355.325
1331.47754	25847.525
1334.97747	25154.225
1338.47502	25238.725
1341.97022	25719.525
1345.46305	26146.725
1348.95352	26826.325
1352.44163	28212.425
1355.92738	30787.225
1359.41078	34774.825
1362.89183	38398.325
1366.37053	37410.525
1369.84688	32132.025
1373.32088	26664.925
1376.79254	23033.725
1380.26186	21083.525
1383.72883	20124.525
1387.19347	19471.125
1390.65578	18926.625
1394.11575	18776.625
1397.57339	19159.925
1401.0287	19875.925
1404.48168	20529.225
1407.93234	20895.825
1411.38068	20923.325
1414.82669	20533.925
1418.27039	19693.725
1421.71177	18614.425
1425.15083	17705.025
1428.58758	17197.725
1432.02203	17244.825
1435.45416	17527.625
1438.88399	17760.625
1442.31151	17924.225
1445.73673	18176.925
1449.15965	18497.725
1452.58027	18603.225
1455.9986	18461.925
1459.41463	18496.925
1462.82837	18916.325
1466.23982	19573.025
1469.64898	20167.925
1473.05586	20499.025
1476.46045	20563.625
1479.86276	20706.725
1483.26279	20817.425
1486.66054	21008.725
1490.05602	21402.525
1493.44922	21952.425
1496.84016	22572.925
1500.22882	23774.925
1503.61521	25939.725
1506.99934	28762.225
1510.38121	31380.825
1513.76081	32357.025
1517.13816	30587.225
1520.51324	26880.325
1523.88607	23303.025
1527.25665	21057.125
1530.62498	19832.525
1533.99105	19315.225
1537.35488	19011.725
1540.71647	18843.925
1544.07581	18671.325
1547.4329	18479.725
1550.78776	18192.825
1554.14038	17962.025
1557.49077	17831.525
1560.83892	17899.025
1564.18484	18277.125
1567.52853	18735.125
1570.86999	19185.125
1574.20922	19424.225
1577.54624	19376.625
1580.88103	18559.525
1584.2136	17621.225
1587.54395	17402.525
1590.87208	18241.125
1594.19801	20056.225
1597.52172	22326.725
1600.84321	23661.925
1604.16251	23061.825
1607.47959	20980.025
1610.79447	18315.325
1614.10715	15914.625
1617.41763	14151.425
1620.7259	13081.725
1624.03199	12619.025
1627.33587	12592.325
1630.63757	13029.025
1633.93707	13996.425
1637.23439	15589.625
1640.52951	18092.425
1643.82246	21521.825
1647.11321	25097.025
1650.40179	27035.225
1653.68819	25726.025
1656.97241	21668.225
1660.25446	17276.525
1663.53433	14122.425
1666.81203	12145.525
1670.08756	11058.425
1673.36092	10369.525
1676.63211	9954.425
1679.90115	9693.625
1683.16801	9447.225
1686.43272	9291.125
1689.69527	9182.825
1692.95567	9102.125
1696.2139	9052.925
1699.46999	9020.225
1702.72392	8980.125
1705.97571	8957.325
1709.22535	8935.725
1712.47284	8911.625
1715.71819	8889.625
1718.96139	8897.225
1722.20246	8876.625
1725.44139	8812.725
1728.67818	8754.725
1731.91284	8673.525
1735.14537	8628.125
1738.37576	8563.925
1741.60403	8525.625
1744.83017	8478.325
1748.05418	8484.925
1751.27607	8491.225
1754.49584	8454.025
1757.71349	8448.125
1760.92903	8417.125
1764.14244	8350.125
1767.35375	8347.725
1770.56294	8288.025
1773.77002	8235.425
1776.97499	8215.225
1780.17785	8167.325
1783.37861	8148.325
1786.57727	8103.425
1789.77382	8094.625
1792.96828	8080.125
1796.16064	8054.625
1799.3509	8049.925
1802.53907	8016.225
1805.72514	8005.225
1808.90913	7963.725
1812.09102	7952.725
1815.27083	7924.725
1818.44856	7891.825
1821.6242	7864.725
1824.79776	7872.325
1827.96924	7851.225
1831.13864	7849.725
1834.30597	7838.025
1837.47122	7794.225
1840.6344	7808.125
1843.7955	7817.025
1846.95454	7815.525
1850.11151	7781.225
1853.26642	7791.125
1856.41926	7792.225
1859.57004	7812.625
1862.71876	7796.325
1865.86542	7789.525
1869.01003	7811.025
1872.15258	7786.725
1875.29308	7830.025
1878.43152	7804.325
1881.56792	7791.825
1884.70227	7805.425
1887.83457	7813.425
1890.96482	7823.625
1894.09304	7801.425
1897.21921	7799.325
1900.34335	7819.725
1903.46544	7818.125
1906.58551	7832.925
1909.70353	7813.525
1912.81953	7803.825
1915.93349	7779.525
1919.04543	7792.525
1922.15534	7753.425
1925.26322	7736.125
1928.36908	7696.925
1931.47292	7658.925
1934.57473	7635.025
1937.67453	7623.825
1940.77232	7582.125
1943.86808	7533.325
1946.96184	7518.825
1950.05358	7484.225
1953.14331	7460.025
1956.23103	7412.825
1959.31675	7401.525
1962.40046	7356.525
1965.48217	7341.025
1968.56188	7342.725
1971.63959	7305.525
1974.7153	7279.825
1977.78901	7264.425
1980.86073	7225.325
1983.93046	7207.925
1986.99819	7168.225
1990.06394	7147.625
1993.1277	7130.425
1996.18947	7073.925
1999.24925	7080.525
2002.30706	7054.825
2005.36288	7014.125
2008.41672	7003.325
2011.46859	6990.825
2014.51848	6969.325
2017.56639	6941.825
2020.61233	6913.025
2023.6563	6901.525
2026.6983	6899.925
2029.73833	6871.425
2032.7764	6852.125
2035.8125	6848.525
2038.84664	6820.225
2041.87881	6825.025
2044.90903	6797.225
2047.93729	6794.325
2050.96359	6795.825
2053.98794	6808.625
2057.01034	6758.425
2060.03078	6767.625
2063.04927	6755.725
2066.06582	6711.725
2069.08042	6718.525
2072.09307	6697.425
2075.10378	6708.525
2078.11255	6713.025
2081.11938	6711.225
2084.12426	6672.225
2087.12722	6690.425
2090.12824	6677.125
2093.12732	6673.025
2096.12447	6694.825
2099.11969	6666.325
2102.11299	6665.325
2105.10435	6663.525
2108.09379	6663.125
2111.08131	6670.825
2114.0669	6662.825
2117.05057	6673.625
2120.03233	6682.325
2123.01216	6669.725
2125.99008	6673.825
2128.96609	6688.025
2131.94018	6692.525
2134.91236	6708.725
2137.88263	6684.925
2140.851	6673.025
2143.81746	6666.225
2146.78201	6681.825
2149.74466	6669.525
2152.7054	6656.525
2155.66425	6659.525
2158.6212	6649.525
2161.57625	6636.925
2164.52941	6628.625
2167.48067	6633.525
2170.43004	6640.825
2173.37752	6628.325
2176.32311	6625.225
2179.26681	6607.525
2182.20863	6639.825
2185.14856	6633.225
2188.08661	6627.925
2191.02278	6631.625
2193.95707	6622.125
2196.88948	6603.225
2199.82001	6615.225
2202.74867	6607.025
2205.67545	6610.225
2208.60037	6578.325
2211.52341	6577.925
2214.44458	6575.525
2217.36388	6556.425
2220.28132	6549.625
2223.1969	6526.925
2226.11061	6519.125
2229.02246	6512.525
2231.93245	6486.125
2234.84058	6479.225
2237.74686	6469.625
2240.65128	6463.925
2243.55385	6464.425
2246.45456	6447.025
2249.35343	6405.225
2252.25044	6434.025
2255.14561	6417.025
2258.03893	6417.225
2260.93041	6430.525
2263.82004	6403.225
2266.70783	6367.225
2269.59378	6375.225
2272.4779	6322.825
2275.36017	6315.225
2278.24061	6302.825
2281.11922	6292.925
2283.996	6261.325
2286.87094	6289.225
2289.74405	6246.925
2292.61534	6239.425
2295.4848	6228.425
2298.35243	6233.025
2301.21824	6222.025
2304.08223	6222.925
2306.94439	6219.825
2309.80474	6208.225
2312.66327	6232.925
2315.51999	6209.025
2318.37489	6214.825
2321.22797	6224.025
2324.07925	6191.825
2326.92871	6199.225
2329.77637	6195.125
2332.62222	6185.825
2335.46626	6208.325
2338.3085	6178.325
2341.14893	6190.925
2343.98756	6197.225
2346.8244	6201.425
2349.65943	6202.325
2352.49267	6196.625
2355.32411	6207.425
2358.15376	6206.525
2360.98161	6218.325
2363.80768	6213.825
2366.63195	6234.925
2369.45444	6210.725
2372.27514	6205.625
2375.09405	6192.425
2377.91118	6171.325
2380.72652	6141.025
2383.54009	6141.625
2386.35187	6103.025
2389.16188	6080.825
2391.97011	6051.625
2394.77657	6056.425
2397.58125	6034.525
2400.38416	6035.825
2403.18529	6016.225
2405.98466	5998.125
2408.78226	5984.925
2411.57809	5979.325
2414.37216	5962.625
2417.16446	5952.925
2419.955	5934.725
2422.74378	5935.825
2425.5308	5917.625
2428.31606	5920.425
2431.09956	5908.525
2433.88131	5913.125
2436.6613	5913.525
2439.43954	5925.325
2442.21603	5914.825
2444.99077	5916.325
2447.76377	5937.425
2450.53501	5926.225
2453.30451	5937.325
2456.07226	5945.825
2458.83827	5918.925
2461.60254	5929.125
2464.36507	5918.325
2467.12586	5934.925
2469.88492	5917.525
2472.64224	5922.625
2475.39782	5928.025
2478.15167	5952.925
2480.90379	5944.425
2483.65417	5959.325
2486.40283	5969.725
2489.14976	5993.425
2491.89497	6004.725
2494.63845	6028.725
2497.3802	6002.425
2500.12024	5977.625
2502.85855	5976.925
2505.59514	5949.225
2508.33002	5935.225
2511.06318	5918.725
2513.79462	5911.525
2516.52435	5877.025
2519.25237	5877.125
2521.97867	5853.725
2524.70327	5847.025
2527.42616	5838.725
2530.14734	5850.525
2532.86681	5827.225
2535.58458	5836.625
2538.30065	5808.925
2541.01501	5809.025
2543.72768	5816.925
2546.43864	5840.325
2549.14791	5804.425
2551.85548	5829.225
2554.56136	5811.425
2557.26554	5801.325
2559.96803	5820.325
2562.66883	5816.625
2565.36794	5794.725
2568.06536	5773.625
2570.7611	5780.025
2573.45514	5789.325
2576.14751	5797.125
2578.83819	5771.625
2581.52719	5772.025
2584.21451	5766.725
2586.90015	5756.925
2589.58411	5762.525
2592.2664	5747.025
2594.94701	5749.725
2597.62594	5756.225
2600.30321	5750.325
2602.9788	5743.325
2605.65273	5746.125
2608.32498	5744.925
2610.99557	5744.325
2613.66449	5744.025
2616.33175	5754.725
2618.99734	5756.025
2621.66128	5734.025
2624.32355	5745.225
2626.98416	5766.925
2629.64311	5717.925
2632.30041	5744.525
2634.95605	5749.425
2637.61004	5729.025
2640.26238	5721.925
2642.91306	5723.925
2645.56209	5710.925
2648.20948	5700.425
2650.85521	5695.225
2653.4993	5714.325
2656.14175	5699.525
2658.78255	5704.725
2661.42171	5700.525
2664.05923	5712.425
2666.6951	5723.025
2669.32934	5756.825
2671.96194	5748.825
2674.59291	5745.925
2677.22224	5745.925
2679.84993	5757.225
2682.476	5727.925
2685.10043	5729.225
2687.72324	5725.725
2690.34441	5710.725
2692.96396	5705.625
2695.58188	5714.425
2698.19818	5701.725
2700.81285	5706.925
2703.4259	5734.425
2706.03733	5809.725
2708.64714	5755.925
2711.25533	5748.825
2713.86191	5742.825
2716.46687	5761.125
2719.07021	5754.425
2721.67194	5754.025
2724.27206	5753.425
2726.87057	5747.825
2729.46747	5765.025
2732.06276	5731.325
2734.65644	5757.225
2737.24852	5748.025
2739.83899	5726.325
2742.42786	5725.525
2745.01513	5721.725
2747.60079	5733.125
2750.18486	5694.825
2752.76733	5722.825
2755.3482	5714.725
2757.92747	5719.525
2760.50515	5712.225
2763.08123	5715.525
2765.65573	5698.425
2768.22863	5702.925
2770.79994	5699.525
2773.36967	5721.825
2775.9378	5710.425
2778.50435	5710.425
2781.06932	5717.425
2783.6327	5735.925
2786.1945	5734.825
2788.75471	5750.425
2791.31335	5718.225
2793.87041	5724.325
2796.42589	5715.025
2798.97979	5694.125
2801.53212	5685.825
2804.08288	5696.025
2806.63206	5693.725
2809.17967	5704.625
2811.72571	5677.925
2814.27018	5712.025
2816.81308	5717.825
2819.35442	5706.125
2821.89419	5705.625
2824.43239	5710.625
2826.96904	5715.525
2829.50412	5739.525
2832.03763	5726.225
2834.56959	5730.925
2837.1	5716.725
2839.62884	5719.525
2842.15613	5741.925
2844.68186	5759.825
2847.20604	5792.225
2849.72867	5814.525
2852.24974	5818.725
2854.76927	5817.025
2857.28724	5825.425
2859.80367	5819.025
2862.31855	5803.625
2864.83189	5800.725
2867.34368	5789.225
2869.85393	5791.225
2872.36264	5791.225
2874.8698	5793.925
2877.37543	5773.525
2879.87952	5792.425
2882.38207	5800.825
2884.88308	5799.725
2887.38256	5810.725
2889.88051	5802.025
2892.37692	5804.125
2894.8718	5799.625
2897.36515	5825.125
2899.85698	5821.225
2902.34727	5822.025
2904.83604	5835.925
2907.32328	5836.525
2909.809	5832.725
2912.29319	5849.725
2914.77587	5843.825
2917.25702	5837.525
2919.73665	5821.725
2922.21476	5834.925
2924.69136	5830.225
2927.16644	5815.625
2929.64	5785.325
2932.11205	5781.325
2934.58258	5749.025
2937.05161	5759.725
2939.51912	5756.725
2941.98513	5736.825
2944.44962	5699.725
2946.91261	5677.625
2949.37409	5668.825
2951.83407	5638.425
2954.29254	5643.725
2956.74951	5625.625
2959.20498	5598.725
2961.65895	5562.925
2964.11142	5555.725
2966.56239	5520.725
2969.01186	5504.225
2971.45984	5491.325
2973.90632	5472.025
2976.35131	5439.825
2978.7948	5420.625
2981.23681	5398.425
2983.67732	5385.125
2986.11635	5362.725
2988.55388	5351.325
2990.98993	5334.025
2993.4245	5323.625
2995.85758	5329.225
2998.28917	5306.325
3000.71928	5309.725
3003.14791	5304.525
3005.57506	5294.925
3008.00073	5277.625
3010.42493	5276.525
3012.84764	5256.725
3015.26888	5261.225
3017.68865	5241.025
3020.10694	5227.825
3022.52376	5192.425
3024.9391	5192.325
3027.35298	5196.225
3029.76539	5175.625
3032.17632	5157.625
3034.5858	5160.025
3036.9938	5143.825
3039.40034	5134.925
3041.80542	5137.325
3044.20903	5098.425
3046.61118	5117.125
3049.01187	5073.825
3051.4111	5085.725
3053.80888	5068.925
3056.20519	5059.125
3058.60005	5045.725
3060.99345	5055.825
3063.3854	5021.625
3065.7759	4996.325
3068.16494	4990.525
3070.55254	4975.025
3072.93868	4973.325
3075.32338	4956.825
3077.70662	4929.825
3080.08842	4906.425
3082.46878	4919.525
3084.84769	4889.325
3087.22515	4891.325
3089.60118	4904.125
3091.97576	4898.525
3094.3489	4892.125
3096.72061	4886.725
3099.09087	4899.825
3101.4597	4875.925
3103.82709	4871.925
3106.19305	4868.625
3108.55757	4852.725
3110.92066	4839.525
3113.28232	4826.825
3115.64255	4800.525
3118.00134	4811.925
3120.35871	4799.325
3122.71466	4794.325
3125.06917	4797.225
3127.42226	4791.025
3129.77393	4783.425
3132.12417	4798.525
3134.47299	4796.525
3136.82039	4783.125
3139.16636	4785.825
3141.51092	4789.325
3143.85406	4796.725
3146.19579	4792.925
3148.53609	4770.025
3150.87499	4769.225
3153.21246	4784.525
3155.54853	4792.225
3157.88318	4767.325
3160.21642	4792.225
3162.54826	4787.725
3164.87868	4757.125
3167.2077	4777.625
3169.5353	4788.425
3171.86151	4780.325
3174.18631	4779.125
3176.5097	4760.725
3178.83169	4775.525
3181.15228	4774.025
3183.47147	4767.925
3185.78926	4757.025
3188.10565	4752.925
3190.42065	4773.425
3192.73424	4778.125
