Data from AgNPs_FTO_APTES_UA_0um_CRN_0.1mM_R6G_10uM_NaF_0.1M_Addition_RamanShift__38__10-55-38-939.txt Node

Date: Tue Dec 21 10:55:38 GMT 2021
User: TCL
Spectrometer: QEP01345
Trigger mode: 4
Integration Time (sec): 7.000000E0
Scans to average: 10
Electric dark correction enabled: true
Nonlinearity correction enabled: false
Boxcar width: 0
XAxis mode: Raman Shifts
Number of Pixels in Spectrum: 1044
>>>>>Begin Spectral Data<<<<<
46.04893	-0.225
50.45542	-0.925
54.85868	-0.525
59.25871	0.475
63.6555	41.875
68.04907	47.475
72.43941	49.675
76.82654	51.375
81.21044	55.075
85.59113	57.375
89.96862	56.975
94.34289	58.275
98.71396	58.075
103.08183	61.575
107.4465	67.675
111.80798	69.175
116.16626	66.075
120.52136	72.475
124.87327	70.075
129.222	71.275
133.56755	80.175
137.90993	89.275
142.24913	92.375
146.58517	104.475
150.91804	123.975
155.24774	139.975
159.57429	177.975
163.89768	227.075
168.21792	305.975
172.53501	405.175
176.84895	558.275
181.15975	784.275
185.46741	1089.175
189.77193	1502.575
194.07331	1999.275
198.37157	2570.975
202.6667	3171.175
206.9587	3770.475
211.24758	4361.875
215.53334	4955.975
219.81599	5581.075
224.09553	6313.175
228.37195	7119.275
232.64527	7940.675
236.91549	8815.475
241.18261	9649.575
245.44663	10403.775
249.70755	11049.275
253.96539	11581.775
258.22014	12007.675
262.4718	12355.775
266.72039	12631.875
270.96589	12698.175
275.20832	12619.975
279.44768	12480.575
283.68397	12328.875
287.91719	12223.575
292.14735	12161.875
296.37445	12188.275
300.59849	12228.275
304.81948	12365.975
309.03742	12511.475
313.25231	12574.675
317.46415	12565.475
321.67296	12437.875
325.87872	12339.375
330.08145	12222.875
334.28114	12175.075
338.47781	12183.475
342.67145	12301.075
346.86207	12477.575
351.04966	12718.175
355.23424	12904.975
359.4158	13051.375
363.59435	13113.775
367.76989	13124.475
371.94243	13159.075
376.11196	13181.075
380.27849	13204.775
384.44203	13335.575
388.60257	13491.375
392.76012	13589.875
396.91468	13708.575
401.06626	13902.475
405.21485	14021.175
409.36047	14012.575
413.50311	13958.675
417.64277	14067.175
421.77947	14283.275
425.9132	14449.875
430.04396	14571.075
434.17176	14720.775
438.2966	14904.975
442.41849	15384.375
446.53742	16265.875
450.6534	17105.775
454.76644	17567.575
458.87653	17325.275
462.98368	16727.575
467.08789	16033.875
471.18916	15339.175
475.2875	14682.075
479.38291	14229.175
483.4754	14014.475
487.56496	13875.275
491.6516	13715.775
495.73531	13593.375
499.81612	13524.475
503.89401	13640.475
507.96899	13664.575
512.04106	13523.875
516.11023	13234.475
520.1765	13007.975
524.23987	12930.075
528.30034	12979.675
532.35792	12969.575
536.41261	12745.875
540.46441	12406.475
544.51333	12223.175
548.55936	12375.975
552.60252	12819.675
556.64279	13546.075
560.6802	14128.175
564.71473	14269.275
568.7464	14242.675
572.7752	14675.675
576.80114	15329.575
580.82422	16233.675
584.84444	17731.775
588.86181	20047.475
592.87633	22590.975
596.888	23276.575
600.89682	20860.975
604.9028	18387.975
608.90594	18059.975
612.90624	18645.775
616.90371	17296.075
620.89834	14418.375
624.89015	12952.475
628.87913	12808.975
632.86528	12848.175
636.84862	12647.475
640.82913	12261.775
644.80683	11912.475
648.78172	11755.375
652.75379	11798.375
656.72306	11945.175
660.68952	12089.875
664.65319	11969.475
668.61405	11683.675
672.57211	11639.975
676.52738	11782.175
680.47986	11804.775
684.42955	11663.475
688.37646	11498.175
692.32058	11583.475
696.26192	11848.275
700.20048	12174.575
704.13626	12390.875
708.06928	12391.175
711.99952	12340.875
715.927	12398.175
719.85171	12557.175
723.77365	12508.475
727.69284	12219.975
731.60928	11948.975
735.52295	11921.875
739.43388	12008.975
743.34206	12065.175
747.24749	12217.675
751.15017	12382.475
755.05012	12657.875
758.94733	13121.375
762.8418	13870.375
766.73354	15035.575
770.62254	16096.275
774.50882	16119.775
778.39237	15152.375
782.27321	13966.775
786.15132	13003.975
790.02671	12394.575
793.89938	12114.175
797.76935	12026.575
801.6366	11978.775
805.50115	11943.375
809.36299	11879.875
813.22213	11734.975
817.07857	11574.775
820.93231	11400.375
824.78336	11286.275
828.63172	11225.575
832.47738	11200.475
836.32036	11281.975
840.16066	11358.675
843.99827	11404.975
847.8332	11366.475
851.66546	11320.875
855.49504	11306.475
859.32195	11310.475
863.1462	11241.475
866.96777	11168.675
870.78668	11098.275
874.60293	11107.775
878.41652	11137.575
882.22745	11193.375
886.03573	11240.375
889.84136	11243.175
893.64433	11135.175
897.44466	11075.475
901.24235	11043.875
905.0374	10971.675
908.8298	10910.375
912.61957	10912.075
916.40671	11037.175
920.19121	11282.175
923.97308	11560.175
927.75233	11718.975
931.52895	11564.275
935.30295	11231.175
939.07433	10891.375
942.84309	10630.275
946.60924	10538.275
950.37278	10531.075
954.13371	10545.575
957.89203	10515.575
961.64774	10485.675
965.40086	10494.975
969.15137	10457.775
972.89929	10357.475
976.64461	10301.175
980.38733	10299.575
984.12747	10332.275
987.86502	10405.875
991.59999	10519.375
995.33237	10785.175
999.06217	11176.075
1002.78939	11670.075
1006.51404	12101.875
1010.23611	12433.075
1013.95561	12715.075
1017.67255	12875.575
1021.38692	12679.175
1025.09872	12201.075
1028.80796	11903.275
1032.51465	12054.375
1036.21877	12354.575
1039.92035	12453.375
1043.61937	12354.775
1047.31584	12153.075
1051.00976	11853.775
1054.70114	11628.775
1058.38998	11561.375
1062.07627	11530.075
1065.76003	11598.175
1069.44126	11756.475
1073.11995	12002.175
1076.79611	12264.175
1080.46974	12413.275
1084.14085	12576.475
1087.80943	12824.775
1091.47549	12978.675
1095.13903	13033.475
1098.80005	12679.775
1102.45857	12209.475
1106.11456	11955.775
1109.76805	11879.275
1113.41903	11961.475
1117.06751	12085.775
1120.71348	12254.275
1124.35696	12430.175
1127.99793	12583.175
1131.63641	12704.375
1135.2724	12687.675
1138.90589	12709.975
1142.5369	12819.375
1146.16542	13061.775
1149.79145	13246.275
1153.415	13432.575
1157.03607	13707.575
1160.65467	14361.075
1164.27079	15521.075
1167.88443	16869.875
1171.49561	18354.475
1175.10432	20144.875
1178.71056	22556.375
1182.31434	24723.675
1185.91565	25269.475
1189.51451	24002.875
1193.11091	22401.275
1196.70485	21111.075
1200.29634	20070.175
1203.88538	19322.075
1207.47197	18926.775
1211.05612	18657.875
1214.63782	18232.975
1218.21708	17788.775
1221.79391	17681.175
1225.36829	17743.875
1228.94024	17732.775
1232.50976	17096.975
1236.07685	16167.475
1239.6415	15550.075
1243.20374	15297.975
1246.76355	15376.175
1250.32093	15646.275
1253.8759	16144.775
1257.42845	16804.975
1260.97859	17460.475
1264.52631	18159.575
1268.07163	18804.875
1271.61453	19478.575
1275.15503	20251.275
1278.69312	21213.475
1282.22882	22403.675
1285.76211	23992.975
1289.29301	25822.275
1292.82151	27778.675
1296.34761	30127.175
1299.87133	32916.075
1303.39266	35723.075
1306.9116	38270.275
1310.42815	40332.675
1313.94233	41615.375
1317.45412	41072.375
1320.96354	39032.875
1324.47058	36675.575
1327.97525	34803.075
1331.47754	33514.975
1334.97747	32591.275
1338.47502	31468.575
1341.97022	30092.875
1345.46305	28757.675
1348.95352	28290.075
1352.44163	29293.475
1355.92738	31902.075
1359.41078	35413.875
1362.89183	38097.575
1366.37053	38464.675
1369.84688	35435.275
1373.32088	29872.275
1376.79254	25640.075
1380.26186	24315.175
1383.72883	24371.675
1387.19347	24287.775
1390.65578	23720.375
1394.11575	23731.175
1397.57339	24458.975
1401.0287	25506.675
1404.48168	26187.775
1407.93234	26232.675
1411.38068	25603.775
1414.82669	24636.775
1418.27039	23465.575
1421.71177	22139.375
1425.15083	20908.075
1428.58758	20311.075
1432.02203	20685.875
1435.45416	21688.175
1438.88399	22744.375
1442.31151	23327.375
1445.73673	23590.775
1449.15965	23677.375
1452.58027	23294.275
1455.9986	22682.375
1459.41463	22232.975
1462.82837	22415.475
1466.23982	23195.175
1469.64898	24118.675
1473.05586	24809.675
1476.46045	25129.175
1479.86276	25182.975
1483.26279	24970.575
1486.66054	24691.875
1490.05602	24668.675
1493.44922	24748.875
1496.84016	24524.775
1500.22882	24059.375
1503.61521	23876.475
1506.99934	23842.275
1510.38121	23999.075
1513.76081	24009.375
1517.13816	23712.675
1520.51324	23354.375
1523.88607	23290.975
1527.25665	23718.075
1530.62498	24258.875
1533.99105	24454.975
1537.35488	24165.575
1540.71647	23417.575
1544.07581	22417.175
1547.4329	21328.575
1550.78776	20298.775
1554.14038	19443.975
1557.49077	18827.175
1560.83892	18415.575
1564.18484	18264.275
1567.52853	18327.375
1570.86999	18608.975
1574.20922	19112.475
1577.54624	19679.875
1580.88103	20002.075
1584.2136	20458.275
1587.54395	21745.075
1590.87208	24009.775
1594.19801	26938.475
1597.52172	29858.675
1600.84321	31265.975
1604.16251	29823.275
1607.47959	26113.575
1610.79447	21897.275
1614.10715	18442.775
1617.41763	16218.675
1620.7259	14985.275
1624.03199	14515.675
1627.33587	14630.475
1630.63757	15353.675
1633.93707	16870.075
1637.23439	19574.175
1640.52951	23967.375
1643.82246	29866.375
1647.11321	34919.375
1650.40179	35796.875
1653.68819	31494.175
1656.97241	25072.575
1660.25446	19507.675
1663.53433	15853.175
1666.81203	13734.575
1670.08756	12513.575
1673.36092	11728.375
1676.63211	11287.975
1679.90115	10960.375
1683.16801	10685.575
1686.43272	10510.675
1689.69527	10398.575
1692.95567	10279.075
1696.2139	10231.575
1699.46999	10199.675
1702.72392	10144.575
1705.97571	10090.175
1709.22535	10023.675
1712.47284	9999.575
1715.71819	9961.375
1718.96139	9939.675
1722.20246	9860.575
1725.44139	9832.375
1728.67818	9751.375
1731.91284	9674.075
1735.14537	9614.775
1738.37576	9559.275
1741.60403	9507.375
1744.83017	9453.175
1748.05418	9451.175
1751.27607	9429.275
1754.49584	9449.275
1757.71349	9452.775
1760.92903	9454.975
1764.14244	9416.675
1767.35375	9392.075
1770.56294	9370.575
1773.77002	9327.275
1776.97499	9269.675
1780.17785	9237.575
1783.37861	9239.275
1786.57727	9212.975
1789.77382	9169.075
1792.96828	9138.375
1796.16064	9115.575
1799.3509	9102.975
1802.53907	9074.975
1805.72514	9035.675
1808.90913	9034.275
1812.09102	9001.375
1815.27083	8984.575
1818.44856	8946.575
1821.6242	8937.775
1824.79776	8940.575
1827.96924	8933.875
1831.13864	8901.475
1834.30597	8917.775
1837.47122	8912.875
1840.6344	8904.675
1843.7955	8919.675
1846.95454	8904.075
1850.11151	8902.375
1853.26642	8900.575
1856.41926	8908.175
1859.57004	8919.475
1862.71876	8888.075
1865.86542	8881.775
1869.01003	8881.175
1872.15258	8908.975
1875.29308	8884.475
1878.43152	8855.875
1881.56792	8838.075
1884.70227	8864.375
1887.83457	8873.175
1890.96482	8876.575
1894.09304	8858.175
1897.21921	8865.775
1900.34335	8849.475
1903.46544	8858.975
1906.58551	8856.175
1909.70353	8817.075
1912.81953	8791.475
1915.93349	8775.475
1919.04543	8775.075
1922.15534	8715.475
1925.26322	8690.875
1928.36908	8670.975
1931.47292	8663.475
1934.57473	8601.975
1937.67453	8593.775
1940.77232	8583.575
1943.86808	8541.775
1946.96184	8523.975
1950.05358	8502.175
1953.14331	8489.575
1956.23103	8439.175
1959.31675	8440.475
1962.40046	8415.375
1965.48217	8405.175
1968.56188	8368.575
1971.63959	8331.975
1974.7153	8312.575
1977.78901	8283.275
1980.86073	8238.675
1983.93046	8224.775
1986.99819	8221.975
1990.06394	8183.375
1993.1277	8149.875
1996.18947	8129.475
1999.24925	8112.675
2002.30706	8119.275
2005.36288	8075.575
2008.41672	8049.175
2011.46859	8026.775
2014.51848	8011.975
2017.56639	7995.075
2020.61233	7987.175
2023.6563	7970.175
2026.6983	7933.375
2029.73833	7946.175
2032.7764	7928.475
2035.8125	7897.675
2038.84664	7880.775
2041.87881	7882.175
2044.90903	7863.475
2047.93729	7867.975
2050.96359	7885.975
2053.98794	7846.775
2057.01034	7851.775
2060.03078	7849.175
2063.04927	7814.675
2066.06582	7820.075
2069.08042	7817.175
2072.09307	7822.875
2075.10378	7807.475
2078.11255	7807.775
2081.11938	7794.075
2084.12426	7810.575
2087.12722	7806.675
2090.12824	7806.175
2093.12732	7803.075
2096.12447	7818.675
2099.11969	7789.575
2102.11299	7788.175
2105.10435	7799.875
2108.09379	7822.975
2111.08131	7803.675
2114.0669	7799.275
2117.05057	7794.575
2120.03233	7812.775
2123.01216	7804.375
2125.99008	7806.875
2128.96609	7805.275
2131.94018	7803.075
2134.91236	7812.475
2137.88263	7831.675
2140.851	7806.475
2143.81746	7822.175
2146.78201	7811.475
2149.74466	7808.375
2152.7054	7781.775
2155.66425	7824.175
2158.6212	7815.075
2161.57625	7819.075
2164.52941	7817.175
2167.48067	7799.875
2170.43004	7804.775
2173.37752	7823.875
2176.32311	7810.275
2179.26681	7807.875
2182.20863	7798.675
2185.14856	7812.475
2188.08661	7820.275
2191.02278	7838.775
2193.95707	7803.375
2196.88948	7818.075
2199.82001	7834.975
2202.74867	7817.675
2205.67545	7807.975
2208.60037	7776.075
2211.52341	7770.375
2214.44458	7768.475
2217.36388	7739.275
2220.28132	7742.175
2223.1969	7740.575
2226.11061	7734.075
2229.02246	7716.775
2231.93245	7714.275
2234.84058	7729.775
2237.74686	7713.975
2240.65128	7705.975
2243.55385	7692.475
2246.45456	7676.875
2249.35343	7647.375
2252.25044	7637.875
2255.14561	7603.975
2258.03893	7603.775
2260.93041	7592.475
2263.82004	7532.375
2266.70783	7518.075
2269.59378	7501.575
2272.4779	7513.775
2275.36017	7488.175
2278.24061	7465.975
2281.11922	7432.775
2283.996	7458.175
2286.87094	7464.775
2289.74405	7446.775
2292.61534	7443.175
2295.4848	7434.775
2298.35243	7429.375
2301.21824	7451.275
2304.08223	7447.475
2306.94439	7434.175
2309.80474	7427.675
2312.66327	7438.775
2315.51999	7475.175
2318.37489	7445.075
2321.22797	7463.575
2324.07925	7422.775
2326.92871	7432.375
2329.77637	7426.875
2332.62222	7420.275
2335.46626	7408.475
2338.3085	7407.375
2341.14893	7432.275
2343.98756	7432.775
2346.8244	7403.875
2349.65943	7412.875
2352.49267	7409.475
2355.32411	7398.975
2358.15376	7401.975
2360.98161	7386.675
2363.80768	7408.675
2366.63195	7387.375
2369.45444	7368.375
2372.27514	7370.675
2375.09405	7347.175
2377.91118	7332.075
2380.72652	7330.275
2383.54009	7312.675
2386.35187	7295.275
2389.16188	7281.175
2391.97011	7271.575
2394.77657	7253.375
2397.58125	7245.275
2400.38416	7262.175
2403.18529	7254.775
2405.98466	7232.475
2408.78226	7234.175
2411.57809	7233.575
2414.37216	7213.975
2417.16446	7202.875
2419.955	7207.175
2422.74378	7191.075
2425.5308	7168.375
2428.31606	7162.175
2431.09956	7174.275
2433.88131	7158.375
2436.6613	7165.675
2439.43954	7160.875
2442.21603	7138.675
2444.99077	7156.075
2447.76377	7178.275
2450.53501	7179.075
2453.30451	7175.875
2456.07226	7178.975
2458.83827	7179.775
2461.60254	7173.075
2464.36507	7168.075
2467.12586	7181.775
2469.88492	7174.875
2472.64224	7199.375
2475.39782	7204.575
2478.15167	7208.175
2480.90379	7193.975
2483.65417	7217.475
2486.40283	7213.275
2489.14976	7210.375
2491.89497	7212.175
2494.63845	7233.575
2497.3802	7232.475
2500.12024	7233.475
2502.85855	7218.575
2505.59514	7211.275
2508.33002	7210.975
2511.06318	7189.575
2513.79462	7185.275
2516.52435	7186.675
2519.25237	7154.375
2521.97867	7171.275
2524.70327	7172.775
2527.42616	7163.075
2530.14734	7161.075
2532.86681	7131.075
2535.58458	7160.075
2538.30065	7132.775
2541.01501	7149.875
2543.72768	7137.575
2546.43864	7155.575
2549.14791	7149.975
2551.85548	7149.775
2554.56136	7146.175
2557.26554	7140.975
2559.96803	7137.375
2562.66883	7156.875
2565.36794	7140.875
2568.06536	7150.475
2570.7611	7154.275
2573.45514	7157.975
2576.14751	7166.575
2578.83819	7151.775
2581.52719	7170.775
2584.21451	7144.975
2586.90015	7171.375
2589.58411	7165.975
2592.2664	7141.575
2594.94701	7147.375
2597.62594	7140.475
2600.30321	7130.175
2602.9788	7137.075
2605.65273	7151.675
2608.32498	7168.975
2610.99557	7133.975
2613.66449	7141.675
2616.33175	7140.175
2618.99734	7160.775
2621.66128	7144.975
2624.32355	7136.375
2626.98416	7127.375
2629.64311	7144.875
2632.30041	7148.975
2634.95605	7129.675
2637.61004	7139.375
2640.26238	7131.575
2642.91306	7114.875
2645.56209	7106.775
2648.20948	7118.275
2650.85521	7097.475
2653.4993	7115.375
2656.14175	7108.575
2658.78255	7122.275
2661.42171	7145.475
2664.05923	7174.175
2666.6951	7161.275
2669.32934	7176.875
2671.96194	7173.975
2674.59291	7160.275
2677.22224	7175.775
2679.84993	7167.675
2682.476	7140.775
2685.10043	7145.275
2687.72324	7136.075
2690.34441	7127.475
2692.96396	7123.675
2695.58188	7145.875
2698.19818	7138.475
2700.81285	7182.675
2703.4259	7185.575
2706.03733	7230.075
2708.64714	7207.775
2711.25533	7202.375
2713.86191	7200.775
2716.46687	7216.275
2719.07021	7213.075
2721.67194	7229.575
2724.27206	7207.075
2726.87057	7224.175
2729.46747	7242.475
2732.06276	7257.275
2734.65644	7246.875
2737.24852	7257.975
2739.83899	7225.375
2742.42786	7262.575
2745.01513	7249.375
2747.60079	7230.375
2750.18486	7227.375
2752.76733	7233.375
2755.3482	7229.875
2757.92747	7249.375
2760.50515	7252.275
2763.08123	7257.475
2765.65573	7239.175
2768.22863	7268.975
2770.79994	7242.975
2773.36967	7259.875
2775.9378	7263.975
2778.50435	7258.975
2781.06932	7264.575
2783.6327	7283.175
2786.1945	7258.675
2788.75471	7261.275
2791.31335	7256.475
2793.87041	7233.975
2796.42589	7218.375
2798.97979	7257.775
2801.53212	7219.675
2804.08288	7224.275
2806.63206	7216.075
2809.17967	7212.675
2811.72571	7205.875
2814.27018	7193.075
2816.81308	7194.475
2819.35442	7172.375
2821.89419	7159.375
2824.43239	7195.575
2826.96904	7191.475
2829.50412	7183.675
2832.03763	7173.175
2834.56959	7183.075
2837.1	7191.975
2839.62884	7191.775
2842.15613	7194.275
2844.68186	7226.975
2847.20604	7243.775
2849.72867	7268.375
2852.24974	7253.275
2854.76927	7252.275
2857.28724	7271.175
2859.80367	7248.075
2862.31855	7234.075
2864.83189	7212.175
2867.34368	7211.675
2869.85393	7212.275
2872.36264	7212.475
2874.8698	7206.275
2877.37543	7213.675
2879.87952	7208.575
2882.38207	7219.075
2884.88308	7220.375
2887.38256	7233.375
2889.88051	7234.675
2892.37692	7243.675
2894.8718	7239.075
2897.36515	7275.375
2899.85698	7268.975
2902.34727	7297.275
2904.83604	7319.175
2907.32328	7311.275
2909.809	7329.275
2912.29319	7305.575
2914.77587	7329.075
2917.25702	7329.175
2919.73665	7313.875
2922.21476	7332.475
2924.69136	7347.175
2927.16644	7325.975
2929.64	7330.075
2932.11205	7306.075
2934.58258	7304.775
2937.05161	7300.675
2939.51912	7302.475
2941.98513	7283.475
2944.44962	7279.475
2946.91261	7237.875
2949.37409	7264.675
2951.83407	7227.575
2954.29254	7222.375
2956.74951	7220.575
2959.20498	7214.075
2961.65895	7207.175
2964.11142	7178.775
2966.56239	7154.675
2969.01186	7163.275
2971.45984	7108.875
2973.90632	7100.175
2976.35131	7044.675
2978.7948	7048.875
2981.23681	7028.775
2983.67732	6999.275
2986.11635	6973.975
2988.55388	6965.075
2990.98993	6935.275
2993.4245	6943.975
2995.85758	6898.275
2998.28917	6914.175
3000.71928	6923.175
3003.14791	6897.975
3005.57506	6896.375
3008.00073	6870.675
3010.42493	6862.375
3012.84764	6873.275
3015.26888	6858.575
3017.68865	6837.875
3020.10694	6816.775
3022.52376	6806.975
3024.9391	6801.875
3027.35298	6783.275
3029.76539	6769.475
3032.17632	6786.375
3034.5858	6745.375
3036.9938	6765.975
3039.40034	6756.875
3041.80542	6746.975
3044.20903	6756.875
3046.61118	6756.375
3049.01187	6716.575
3051.4111	6738.575
3053.80888	6728.175
3056.20519	6712.175
3058.60005	6707.575
3060.99345	6696.975
3063.3854	6681.275
3065.7759	6667.675
3068.16494	6648.175
3070.55254	6627.475
3072.93868	6613.175
3075.32338	6580.775
3077.70662	6580.175
3080.08842	6555.675
3082.46878	6556.775
3084.84769	6532.275
3087.22515	6557.175
3089.60118	6553.575
3091.97576	6553.575
3094.3489	6548.975
3096.72061	6532.375
3099.09087	6525.975
3101.4597	6528.775
3103.82709	6521.675
3106.19305	6496.875
3108.55757	6497.575
3110.92066	6492.775
3113.28232	6456.775
3115.64255	6448.575
3118.00134	6446.575
3120.35871	6423.975
3122.71466	6436.275
3125.06917	6411.775
3127.42226	6417.975
3129.77393	6420.975
3132.12417	6417.375
3134.47299	6430.875
3136.82039	6411.575
3139.16636	6416.175
3141.51092	6409.575
3143.85406	6431.075
3146.19579	6416.675
3148.53609	6419.675
3150.87499	6415.275
3153.21246	6419.475
3155.54853	6424.475
3157.88318	6426.175
3160.21642	6412.075
3162.54826	6418.975
3164.87868	6425.975
3167.2077	6406.675
3169.5353	6405.575
3171.86151	6397.075
3174.18631	6400.075
3176.5097	6401.775
3178.83169	6408.175
3181.15228	6407.875
3183.47147	6400.075
3185.78926	6397.675
3188.10565	6408.175
3190.42065	6393.275
