Data from AgNPs_FTO_APTES_UA_0um_CRN_0.1mM_R6G_10uM_NaF_0.1M_Addition_RamanShift__16__10-29-58-909.txt Node

Date: Tue Dec 21 10:29:58 GMT 2021
User: TCL
Spectrometer: QEP01345
Trigger mode: 4
Integration Time (sec): 7.000000E0
Scans to average: 10
Electric dark correction enabled: true
Nonlinearity correction enabled: false
Boxcar width: 0
XAxis mode: Raman Shifts
Number of Pixels in Spectrum: 1044
>>>>>Begin Spectral Data<<<<<
46.04893	-1.35
50.45542	-0.45
54.85868	-0.75
59.25871	0.35
63.6555	16.75
68.04907	21.35
72.43941	22.75
76.82654	23.15
81.21044	27.25
85.59113	27.65
89.96862	28.85
94.34289	28.15
98.71396	26.45
103.08183	33.05
107.4465	33.15
111.80798	33.35
116.16626	29.85
120.52136	30.95
124.87327	32.85
129.222	32.65
133.56755	31.35
137.90993	37.25
142.24913	32.55
146.58517	38.05
150.91804	40.75
155.24774	41.25
159.57429	46.95
163.89768	58.85
168.21792	73.95
172.53501	90.25
176.84895	116.95
181.15975	156.65
185.46741	213.65
189.77193	296.85
194.07331	404.55
198.37157	532.15
202.6667	673.65
206.9587	834.95
211.24758	997.85
215.53334	1166.25
219.81599	1324.95
224.09553	1479.65
228.37195	1636.35
232.64527	1785.35
236.91549	1930.35
241.18261	2043.55
245.44663	2143.65
249.70755	2231.35
253.96539	2276.75
258.22014	2302.45
262.4718	2298.05
266.72039	2276.25
270.96589	2237.15
275.20832	2173.55
279.44768	2098.65
283.68397	2026.95
287.91719	1961.15
292.14735	1905.75
296.37445	1865.25
300.59849	1829.15
304.81948	1817.05
309.03742	1815.35
313.25231	1781.95
317.46415	1748.85
321.67296	1720.15
325.87872	1668.65
330.08145	1662.65
334.28114	1648.35
338.47781	1667.95
342.67145	1687.75
346.86207	1708.35
351.04966	1719.45
355.23424	1762.85
359.4158	1786.75
363.59435	1800.95
367.76989	1807.15
371.94243	1808.75
376.11196	1815.55
380.27849	1815.75
384.44203	1818.55
388.60257	1821.85
392.76012	1823.65
396.91468	1828.15
401.06626	1840.45
405.21485	1849.85
409.36047	1843.35
413.50311	1837.45
417.64277	1816.05
421.77947	1811.45
425.9132	1816.15
430.04396	1832.45
434.17176	1849.25
438.2966	1863.05
442.41849	1888.15
446.53742	1905.55
450.6534	1941.85
454.76644	1979.15
458.87653	1990.45
462.98368	2000.65
467.08789	1979.15
471.18916	1973.15
475.2875	1959.25
479.38291	1952.25
483.4754	1928.25
487.56496	1925.35
491.6516	1912.45
495.73531	1932.05
499.81612	1929.55
503.89401	1936.25
507.96899	1937.25
512.04106	1930.25
516.11023	1930.65
520.1765	1934.95
524.23987	1919.55
528.30034	1905.65
532.35792	1902.85
536.41261	1886.05
540.46441	1884.25
544.51333	1871.75
548.55936	1875.05
552.60252	1888.95
556.64279	1883.65
560.6802	1893.35
564.71473	1914.25
568.7464	1923.65
572.7752	1964.85
576.80114	1951.35
580.82422	1931.25
584.84444	1906.25
588.86181	1900.05
592.87633	1903.35
596.888	1916.25
600.89682	1938.75
604.9028	1975.35
608.90594	2096.25
612.90624	2293.35
616.90371	2314.05
620.89834	2119.35
624.89015	2002.55
628.87913	1990.15
632.86528	2018.85
636.84862	2039.75
640.82913	2086.35
644.80683	2121.95
648.78172	2160.75
652.75379	2184.35
656.72306	2174.15
660.68952	2135.05
664.65319	2121.25
668.61405	2160.25
672.57211	2247.35
676.52738	2405.15
680.47986	2578.55
684.42955	2650.75
688.37646	2571.95
692.32058	2439.55
696.26192	2288.15
700.20048	2217.25
704.13626	2170.55
708.06928	2122.85
711.99952	2087.15
715.927	2062.35
719.85171	2053.15
723.77365	2074.25
727.69284	2084.25
731.60928	2098.55
735.52295	2087.15
739.43388	2053.65
743.34206	2049.95
747.24749	2053.95
751.15017	2073.55
755.05012	2084.75
758.94733	2107.85
762.8418	2148.65
766.73354	2177.45
770.62254	2221.25
774.50882	2238.35
778.39237	2195.25
782.27321	2099.55
786.15132	2017.95
790.02671	1969.35
793.89938	1956.55
797.76935	1943.75
801.6366	1954.35
805.50115	1952.55
809.36299	1977.55
813.22213	1946.75
817.07857	1928.95
820.93231	1913.15
824.78336	1907.15
828.63172	1903.05
832.47738	1896.35
836.32036	1876.15
840.16066	1881.75
843.99827	1883.15
847.8332	1891.25
851.66546	1876.45
855.49504	1883.75
859.32195	1901.25
863.1462	1919.85
866.96777	1931.65
870.78668	1941.15
874.60293	1933.25
878.41652	1921.25
882.22745	1916.25
886.03573	1917.45
889.84136	1904.35
893.64433	1910.45
897.44466	1910.35
901.24235	1904.75
905.0374	1906.85
908.8298	1919.35
912.61957	1918.75
916.40671	1958.95
920.19121	2009.65
923.97308	2060.65
927.75233	2119.85
931.52895	2164.95
935.30295	2157.85
939.07433	2135.35
942.84309	2105.75
946.60924	2052.75
950.37278	2003.25
954.13371	1972.25
957.89203	1940.05
961.64774	1914.75
965.40086	1911.85
969.15137	1894.75
972.89929	1868.85
976.64461	1855.75
980.38733	1822.65
984.12747	1812.05
987.86502	1812.05
991.59999	1807.55
995.33237	1792.75
999.06217	1799.15
1002.78939	1809.75
1006.51404	1817.95
1010.23611	1837.85
1013.95561	1843.35
1017.67255	1857.35
1021.38692	1859.75
1025.09872	1862.15
1028.80796	1856.85
1032.51465	1861.75
1036.21877	1878.85
1039.92035	1874.85
1043.61937	1892.05
1047.31584	1911.65
1051.00976	1926.05
1054.70114	1911.45
1058.38998	1898.45
1062.07627	1875.05
1065.76003	1844.95
1069.44126	1816.15
1073.11995	1787.65
1076.79611	1771.25
1080.46974	1774.45
1084.14085	1764.95
1087.80943	1751.45
1091.47549	1764.75
1095.13903	1757.75
1098.80005	1745.45
1102.45857	1735.25
1106.11456	1721.75
1109.76805	1728.05
1113.41903	1727.95
1117.06751	1752.25
1120.71348	1778.15
1124.35696	1789.25
1127.99793	1825.95
1131.63641	1838.15
1135.2724	1836.75
1138.90589	1820.15
1142.5369	1801.85
1146.16542	1790.65
1149.79145	1788.15
1153.415	1770.65
1157.03607	1757.45
1160.65467	1762.55
1164.27079	1767.05
1167.88443	1790.85
1171.49561	1810.15
1175.10432	1857.95
1178.71056	1931.25
1182.31434	1984.25
1185.91565	2001.55
1189.51451	1985.35
1193.11091	1945.35
1196.70485	1888.55
1200.29634	1856.45
1203.88538	1853.55
1207.47197	1824.35
1211.05612	1805.55
1214.63782	1780.75
1218.21708	1785.85
1221.79391	1798.25
1225.36829	1805.25
1228.94024	1822.85
1232.50976	1829.25
1236.07685	1846.05
1239.6415	1859.05
1243.20374	1871.65
1246.76355	1888.55
1250.32093	1896.35
1253.8759	1903.35
1257.42845	1923.85
1260.97859	1939.65
1264.52631	1958.55
1268.07163	1968.85
1271.61453	1967.35
1275.15503	1978.65
1278.69312	1997.65
1282.22882	1995.15
1285.76211	2016.75
1289.29301	2040.05
1292.82151	2065.35
1296.34761	2100.15
1299.87133	2137.05
1303.39266	2181.85
1306.9116	2276.65
1310.42815	2360.15
1313.94233	2429.25
1317.45412	2413.55
1320.96354	2346.25
1324.47058	2285.85
1327.97525	2203.15
1331.47754	2187.65
1334.97747	2189.05
1338.47502	2222.05
1341.97022	2251.25
1345.46305	2323.45
1348.95352	2422.15
1352.44163	2545.85
1355.92738	2670.35
1359.41078	2827.65
1362.89183	2998.85
1366.37053	3029.15
1369.84688	2865.05
1373.32088	2652.15
1376.79254	2492.85
1380.26186	2377.65
1383.72883	2321.05
1387.19347	2251.15
1390.65578	2215.95
1394.11575	2190.25
1397.57339	2167.35
1401.0287	2147.35
1404.48168	2164.95
1407.93234	2183.65
1411.38068	2220.75
1414.82669	2264.55
1418.27039	2320.15
1421.71177	2351.15
1425.15083	2363.25
1428.58758	2320.75
1432.02203	2262.95
1435.45416	2223.75
1438.88399	2187.05
1442.31151	2151.05
1445.73673	2155.35
1449.15965	2132.75
1452.58027	2132.05
1455.9986	2097.85
1459.41463	2090.65
1462.82837	2090.45
1466.23982	2075.35
1469.64898	2069.35
1473.05586	2063.65
1476.46045	2044.25
1479.86276	2013.75
1483.26279	1991.85
1486.66054	1992.25
1490.05602	1979.95
1493.44922	1983.35
1496.84016	2000.25
1500.22882	2048.55
1503.61521	2118.45
1506.99934	2220.65
1510.38121	2325.95
1513.76081	2375.55
1517.13816	2331.25
1520.51324	2220.55
1523.88607	2102.85
1527.25665	2014.55
1530.62498	1966.75
1533.99105	1943.75
1537.35488	1932.05
1540.71647	1924.75
1544.07581	1936.55
1547.4329	1951.05
1550.78776	1953.15
1554.14038	1956.15
1557.49077	1965.75
1560.83892	1972.15
1564.18484	1975.05
1567.52853	1991.85
1570.86999	1996.25
1574.20922	2001.35
1577.54624	1990.35
1580.88103	1951.85
1584.2136	1900.35
1587.54395	1859.15
1590.87208	1838.45
1594.19801	1847.45
1597.52172	1865.15
1600.84321	1878.85
1604.16251	1870.75
1607.47959	1834.25
1610.79447	1803.45
1614.10715	1783.55
1617.41763	1763.45
1620.7259	1757.35
1624.03199	1757.75
1627.33587	1756.95
1630.63757	1761.85
1633.93707	1780.05
1637.23439	1797.15
1640.52951	1834.95
1643.82246	1869.05
1647.11321	1945.75
1650.40179	1999.55
1653.68819	2007.25
1656.97241	1917.45
1660.25446	1814.85
1663.53433	1729.05
1666.81203	1679.35
1670.08756	1651.45
1673.36092	1622.95
1676.63211	1595.05
1679.90115	1557.25
1683.16801	1509.95
1686.43272	1470.25
1689.69527	1435.85
1692.95567	1393.75
1696.2139	1371.85
1699.46999	1336.45
1702.72392	1313.15
1705.97571	1299.45
1709.22535	1289.65
1712.47284	1285.75
1715.71819	1288.45
1718.96139	1283.65
1722.20246	1285.65
1725.44139	1282.55
1728.67818	1285.65
1731.91284	1287.25
1735.14537	1302.25
1738.37576	1304.75
1741.60403	1315.45
1744.83017	1344.95
1748.05418	1380.45
1751.27607	1420.55
1754.49584	1437.55
1757.71349	1430.15
1760.92903	1399.05
1764.14244	1349.75
1767.35375	1290.05
1770.56294	1224.65
1773.77002	1180.35
1776.97499	1158.85
1780.17785	1142.75
1783.37861	1123.95
1786.57727	1092.85
1789.77382	1084.55
1792.96828	1074.45
1796.16064	1055.65
1799.3509	1037.75
1802.53907	1035.35
1805.72514	1018.05
1808.90913	1007.15
1812.09102	1006.45
1815.27083	1000.85
1818.44856	989.15
1821.6242	990.55
1824.79776	990.35
1827.96924	980.65
1831.13864	977.65
1834.30597	973.45
1837.47122	974.35
1840.6344	970.05
1843.7955	963.85
1846.95454	964.15
1850.11151	954.45
1853.26642	966.05
1856.41926	962.65
1859.57004	952.85
1862.71876	955.45
1865.86542	951.25
1869.01003	949.55
1872.15258	951.85
1875.29308	946.75
1878.43152	940.35
1881.56792	936.05
1884.70227	938.15
1887.83457	937.25
1890.96482	936.85
1894.09304	925.95
1897.21921	924.15
1900.34335	927.55
1903.46544	929.75
1906.58551	923.45
1909.70353	918.65
1912.81953	919.45
1915.93349	911.75
1919.04543	915.95
1922.15534	910.15
1925.26322	908.95
1928.36908	903.25
1931.47292	905.25
1934.57473	903.05
1937.67453	895.65
1940.77232	892.15
1943.86808	890.85
1946.96184	887.85
1950.05358	877.85
1953.14331	875.85
1956.23103	870.45
1959.31675	873.65
1962.40046	869.95
1965.48217	861.75
1968.56188	858.35
1971.63959	864.75
1974.7153	876.15
1977.78901	850.75
1980.86073	848.75
1983.93046	843.45
1986.99819	841.45
1990.06394	842.65
1993.1277	838.55
1996.18947	831.55
1999.24925	835.35
2002.30706	831.75
2005.36288	824.95
2008.41672	819.85
2011.46859	817.05
2014.51848	816.55
2017.56639	809.75
2020.61233	820.15
2023.6563	814.55
2026.6983	808.55
2029.73833	811.45
2032.7764	804.85
2035.8125	795.45
2038.84664	798.15
2041.87881	793.85
2044.90903	788.25
2047.93729	790.45
2050.96359	793.15
2053.98794	794.85
2057.01034	787.75
2060.03078	783.65
2063.04927	782.35
2066.06582	781.55
2069.08042	783.35
2072.09307	780.95
2075.10378	779.95
2078.11255	778.05
2081.11938	783.35
2084.12426	777.75
2087.12722	778.05
2090.12824	777.45
2093.12732	784.15
2096.12447	776.75
2099.11969	774.15
2102.11299	777.45
2105.10435	785.35
2108.09379	784.25
2111.08131	782.75
2114.0669	777.95
2117.05057	778.95
2120.03233	782.05
2123.01216	779.15
2125.99008	772.65
2128.96609	768.45
2131.94018	773.75
2134.91236	771.15
2137.88263	769.55
2140.851	770.15
2143.81746	768.35
2146.78201	766.65
2149.74466	764.85
2152.7054	766.15
2155.66425	760.95
2158.6212	766.85
2161.57625	762.35
2164.52941	759.85
2167.48067	766.35
2170.43004	752.65
2173.37752	749.85
2176.32311	750.45
2179.26681	757.05
2182.20863	754.45
2185.14856	754.85
2188.08661	750.95
2191.02278	751.75
2193.95707	749.95
2196.88948	751.35
2199.82001	748.45
2202.74867	745.45
2205.67545	747.65
2208.60037	743.75
2211.52341	743.55
2214.44458	737.75
2217.36388	734.45
2220.28132	739.05
2223.1969	733.45
2226.11061	732.35
2229.02246	727.05
2231.93245	719.15
2234.84058	722.65
2237.74686	718.55
2240.65128	715.15
2243.55385	715.15
2246.45456	721.25
2249.35343	709.25
2252.25044	719.55
2255.14561	712.45
2258.03893	705.35
2260.93041	707.05
2263.82004	700.65
2266.70783	697.35
2269.59378	702.35
2272.4779	698.75
2275.36017	697.25
2278.24061	691.65
2281.11922	689.35
2283.996	686.45
2286.87094	687.35
2289.74405	678.65
2292.61534	683.15
2295.4848	690.55
2298.35243	683.45
2301.21824	676.35
2304.08223	682.35
2306.94439	675.25
2309.80474	678.55
2312.66327	676.25
2315.51999	676.45
2318.37489	666.05
2321.22797	668.65
2324.07925	666.55
2326.92871	671.55
2329.77637	677.65
2332.62222	667.15
2335.46626	656.65
2338.3085	659.85
2341.14893	666.15
2343.98756	654.25
2346.8244	660.45
2349.65943	652.75
2352.49267	657.55
2355.32411	651.95
2358.15376	653.95
2360.98161	655.05
2363.80768	652.65
2366.63195	657.05
2369.45444	651.25
2372.27514	646.05
2375.09405	645.65
2377.91118	651.75
2380.72652	644.85
2383.54009	646.95
2386.35187	640.45
2389.16188	638.25
2391.97011	633.95
2394.77657	630.45
2397.58125	642.95
2400.38416	631.45
2403.18529	634.15
2405.98466	631.75
2408.78226	632.55
2411.57809	626.85
2414.37216	628.25
2417.16446	622.15
2419.955	624.15
2422.74378	626.65
2425.5308	618.45
2428.31606	617.05
2431.09956	622.85
2433.88131	624.65
2436.6613	619.55
2439.43954	618.65
2442.21603	614.65
2444.99077	614.45
2447.76377	613.55
2450.53501	610.45
2453.30451	610.45
2456.07226	608.35
2458.83827	608.05
2461.60254	603.45
2464.36507	609.25
2467.12586	602.95
2469.88492	600.15
2472.64224	600.75
2475.39782	602.65
2478.15167	599.75
2480.90379	590.75
2483.65417	607.05
2486.40283	595.35
2489.14976	595.45
2491.89497	598.25
2494.63845	596.65
2497.3802	597.15
2500.12024	597.05
2502.85855	597.45
2505.59514	589.65
2508.33002	586.45
2511.06318	588.25
2513.79462	583.75
2516.52435	586.65
2519.25237	578.05
2521.97867	579.65
2524.70327	578.15
2527.42616	578.35
2530.14734	576.55
2532.86681	570.15
2535.58458	569.85
2538.30065	570.45
2541.01501	571.05
2543.72768	572.95
2546.43864	567.65
2549.14791	564.85
2551.85548	569.55
2554.56136	567.65
2557.26554	557.95
2559.96803	563.95
2562.66883	564.65
2565.36794	565.55
2568.06536	562.85
2570.7611	556.35
2573.45514	553.35
2576.14751	557.35
2578.83819	557.15
2581.52719	559.85
2584.21451	550.55
2586.90015	546.05
2589.58411	554.85
2592.2664	548.95
2594.94701	542.65
2597.62594	545.55
2600.30321	540.85
2602.9788	543.35
2605.65273	544.35
2608.32498	542.55
2610.99557	538.65
2613.66449	538.95
2616.33175	530.25
2618.99734	541.45
2621.66128	531.65
2624.32355	539.65
2626.98416	533.95
2629.64311	530.35
2632.30041	531.75
2634.95605	536.55
2637.61004	529.45
2640.26238	532.35
2642.91306	531.65
2645.56209	528.65
2648.20948	531.15
2650.85521	526.35
2653.4993	526.65
2656.14175	526.45
2658.78255	524.05
2661.42171	532.55
2664.05923	531.65
2666.6951	533.25
2669.32934	530.25
2671.96194	529.35
2674.59291	529.05
2677.22224	526.05
2679.84993	532.65
2682.476	524.25
2685.10043	529.95
2687.72324	524.55
2690.34441	531.25
2692.96396	530.75
2695.58188	533.95
2698.19818	530.75
2700.81285	534.05
2703.4259	534.05
2706.03733	524.15
2708.64714	520.15
2711.25533	535.75
2713.86191	528.55
2716.46687	535.85
2719.07021	531.35
2721.67194	533.55
2724.27206	536.25
2726.87057	535.35
2729.46747	534.55
2732.06276	534.45
2734.65644	535.55
2737.24852	531.45
2739.83899	529.85
2742.42786	526.35
2745.01513	527.55
2747.60079	524.55
2750.18486	525.45
2752.76733	527.85
2755.3482	518.75
2757.92747	525.45
2760.50515	527.35
2763.08123	523.85
2765.65573	521.55
2768.22863	527.55
2770.79994	514.05
2773.36967	525.85
2775.9378	522.05
2778.50435	520.15
2781.06932	522.95
2783.6327	524.35
2786.1945	521.35
2788.75471	524.85
2791.31335	523.55
2793.87041	529.25
2796.42589	526.05
2798.97979	528.95
2801.53212	533.25
2804.08288	542.45
2806.63206	535.65
2809.17967	530.25
2811.72571	543.45
2814.27018	545.25
2816.81308	548.25
2819.35442	544.95
2821.89419	552.15
2824.43239	544.35
2826.96904	551.35
2829.50412	554.75
2832.03763	550.95
2834.56959	551.35
2837.1	548.75
2839.62884	554.25
2842.15613	557.85
2844.68186	563.95
2847.20604	566.85
2849.72867	573.95
2852.24974	567.85
2854.76927	562.95
2857.28724	569.85
2859.80367	570.85
2862.31855	570.85
2864.83189	575.65
2867.34368	578.65
2869.85393	587.25
2872.36264	588.25
2874.8698	590.65
2877.37543	592.15
2879.87952	613.15
2882.38207	620.95
2884.88308	625.65
2887.38256	632.35
2889.88051	636.95
2892.37692	656.55
2894.8718	660.55
2897.36515	671.65
2899.85698	682.15
2902.34727	694.65
2904.83604	708.25
2907.32328	726.25
2909.809	723.35
2912.29319	750.25
2914.77587	757.25
2917.25702	767.15
2919.73665	788.65
2922.21476	800.65
2924.69136	799.15
2927.16644	814.35
2929.64	830.55
2932.11205	836.85
2934.58258	836.25
2937.05161	853.85
2939.51912	848.15
2941.98513	853.95
2944.44962	854.35
2946.91261	851.05
2949.37409	844.45
2951.83407	835.95
2954.29254	827.75
2956.74951	816.85
2959.20498	797.85
2961.65895	777.25
2964.11142	763.85
2966.56239	746.15
2969.01186	727.85
2971.45984	713.65
2973.90632	694.75
2976.35131	681.35
2978.7948	668.35
2981.23681	665.65
2983.67732	647.55
2986.11635	651.05
2988.55388	633.05
2990.98993	631.15
2993.4245	634.35
2995.85758	628.45
2998.28917	625.25
3000.71928	630.35
3003.14791	621.85
3005.57506	623.95
3008.00073	623.05
3010.42493	617.45
3012.84764	619.35
3015.26888	615.85
3017.68865	614.65
3020.10694	606.65
3022.52376	600.25
3024.9391	600.65
3027.35298	597.25
3029.76539	587.25
3032.17632	581.85
3034.5858	575.25
3036.9938	568.65
3039.40034	572.95
3041.80542	561.25
3044.20903	558.65
3046.61118	555.05
3049.01187	546.95
3051.4111	548.05
3053.80888	548.55
3056.20519	538.35
3058.60005	541.75
3060.99345	540.15
3063.3854	540.95
3065.7759	544.05
3068.16494	541.65
3070.55254	535.95
3072.93868	539.95
3075.32338	546.05
3077.70662	539.75
3080.08842	538.85
3082.46878	546.55
3084.84769	542.75
3087.22515	548.25
3089.60118	555.05
3091.97576	556.05
3094.3489	557.45
3096.72061	559.25
3099.09087	558.25
3101.4597	566.35
3103.82709	574.55
3106.19305	570.25
3108.55757	570.15
3110.92066	566.55
3113.28232	579.85
3115.64255	578.75
3118.00134	582.35
3120.35871	590.15
3122.71466	589.75
3125.06917	592.95
3127.42226	594.25
3129.77393	601.55
3132.12417	598.25
3134.47299	606.45
3136.82039	613.15
3139.16636	614.75
3141.51092	626.85
3143.85406	627.15
3146.19579	626.35
3148.53609	634.05
3150.87499	637.45
3153.21246	650.65
3155.54853	651.75
3157.88318	651.95
3160.21642	652.15
3162.54826	658.25
3164.87868	669.55
3167.2077	669.75
3169.5353	669.65
3171.86151	680.05
3174.18631	677.35
3176.5097	691.05
3178.83169	688.05
3181.15228	700.35
3183.47147	695.95
3185.78926	701.85
3188.10565	695.85
3190.42065	704.75
3192.73424	714.05
3195.04645	711.85
3197.35725	717.85
3199.66667	718.45
3201.97469	720.35
3204.28132	725.75
3206.58656	736.75
3208.8904	732.45
3211.19287	733.15
3213.49394	739.35
3215.79363	737.65
3218.09193	746.35
3220.38884	744.05
3222.68438	744.45
3224.97853	745.95
3227.2713	747.65
3229.56269	756.95
3231.8527	760.35
3234.14133	757.95
3236.42858	753.75
3238.71446	756.65
3240.99896	751.85
3243.28209	756.05
3245.56384	761.25
3247.84423	760.35
3250.12324	763.05
3252.40088	763.25
3254.67715	761.75
3256.95205	763.25
3259.22558	759.35
3261.49775	767.05
3263.76855	767.25
3266.03799	763.65
3268.30606	764.25
3270.57277	760.45
3272.83812	758.35
3275.10211	766.65
3277.36474	761.45
3279.62601	759.25
3281.88593	764.65
3284.14448	763.75
3286.40168	766.45
3288.65753	763.15
3290.91202	763.15
3293.16516	763.25
3295.41695	759.35
3297.66738	755.95
3299.91647	753.35
3302.16421	754.45
3304.4106	750.05
3306.65564	747.15
3308.89933	753.15
3311.14169	746.65
3313.38269	750.55
3315.62236	731.75
3317.86068	732.65
3320.09766	723.35
3322.3333	727.85
3324.5676	727.75
3326.80056	714.75
3329.03219	712.85
3331.26248	1.05
3333.49143	0.35
3335.71905	0.95
