Data from AgNPs_FTO_APTES_UA_20um_CRN_0.1mM_R6G_10uM_NaF_0.1M_Addition_RamanShift__34__14-55-59-213.txt Node

Date: Tue Dec 21 14:55:59 GMT 2021
User: TCL
Spectrometer: QEP01345
Trigger mode: 4
Integration Time (sec): 7.000000E0
Scans to average: 10
Electric dark correction enabled: true
Nonlinearity correction enabled: false
Boxcar width: 0
XAxis mode: Raman Shifts
Number of Pixels in Spectrum: 1044
>>>>>Begin Spectral Data<<<<<
46.04893	-0.1375
50.45542	-1.2375
54.85868	-1.0375
59.25871	0.3625
63.6555	43.0625
68.04907	49.8625
72.43941	48.7625
76.82654	52.2625
81.21044	58.9625
85.59113	59.6625
89.96862	59.5625
94.34289	58.0625
98.71396	63.2625
103.08183	69.1625
107.4465	70.9625
111.80798	70.0625
116.16626	71.4625
120.52136	73.2625
124.87327	74.0625
129.222	76.4625
133.56755	79.5625
137.90993	88.5625
142.24913	92.7625
146.58517	99.2625
150.91804	114.1625
155.24774	133.2625
159.57429	166.8625
163.89768	212.6625
168.21792	277.3625
172.53501	366.6625
176.84895	509.2625
181.15975	719.9625
185.46741	1000.0625
189.77193	1374.1625
194.07331	1844.6625
198.37157	2384.0625
202.6667	2955.8625
206.9587	3511.7625
211.24758	4075.4625
215.53334	4636.8625
219.81599	5237.2625
224.09553	5910.7625
228.37195	6640.2625
232.64527	7456.7625
236.91549	8276.7625
241.18261	9096.5625
245.44663	9859.7625
249.70755	10492.4625
253.96539	11036.5625
258.22014	11511.0625
262.4718	11897.2625
266.72039	12174.5625
270.96589	12316.4625
275.20832	12307.3625
279.44768	12182.2625
283.68397	12037.1625
287.91719	11869.8625
292.14735	11762.5625
296.37445	11748.3625
300.59849	11851.1625
304.81948	11972.5625
309.03742	12014.0625
313.25231	11943.3625
317.46415	11722.8625
321.67296	11435.2625
325.87872	11164.7625
330.08145	11045.4625
334.28114	11039.1625
338.47781	11083.9625
342.67145	11249.4625
346.86207	11458.3625
351.04966	11699.0625
355.23424	11979.5625
359.4158	12212.0625
363.59435	12392.3625
367.76989	12460.8625
371.94243	12509.8625
376.11196	12577.1625
380.27849	12655.3625
384.44203	12740.7625
388.60257	12801.2625
392.76012	12882.0625
396.91468	13020.2625
401.06626	13218.3625
405.21485	13352.2625
409.36047	13271.5625
413.50311	13039.7625
417.64277	12826.7625
421.77947	12711.1625
425.9132	12714.6625
430.04396	12766.6625
434.17176	12855.7625
438.2966	12952.1625
442.41849	13232.2625
446.53742	13652.8625
450.6534	14079.4625
454.76644	14360.1625
458.87653	14350.2625
462.98368	14211.9625
467.08789	13998.6625
471.18916	13790.8625
475.2875	13575.3625
479.38291	13415.0625
483.4754	13350.2625
487.56496	13209.1625
491.6516	13050.7625
495.73531	12873.3625
499.81612	12770.2625
503.89401	12781.8625
507.96899	12777.7625
512.04106	12752.5625
516.11023	12695.3625
520.1765	12653.3625
524.23987	12626.2625
528.30034	12570.2625
532.35792	12507.3625
536.41261	12318.1625
540.46441	12159.8625
544.51333	12076.8625
548.55936	12114.2625
552.60252	12328.0625
556.64279	12620.0625
560.6802	12900.4625
564.71473	13023.1625
568.7464	13185.8625
572.7752	13520.8625
576.80114	13718.5625
580.82422	13902.8625
584.84444	14256.9625
588.86181	14923.0625
592.87633	15531.1625
596.888	15811.2625
600.89682	15297.5625
604.9028	15106.4625
608.90594	16209.8625
612.90624	17841.4625
616.90371	17079.8625
620.89834	14111.1625
624.89015	12665.0625
628.87913	12482.5625
632.86528	12566.8625
636.84862	12595.4625
640.82913	12450.6625
644.80683	12079.6625
648.78172	11848.0625
652.75379	11795.5625
656.72306	11892.6625
660.68952	12120.2625
664.65319	12059.6625
668.61405	11783.1625
672.57211	11700.2625
676.52738	11788.9625
680.47986	11775.2625
684.42955	11685.2625
688.37646	11608.0625
692.32058	11633.4625
696.26192	11730.7625
700.20048	11867.9625
704.13626	11983.7625
708.06928	11965.3625
711.99952	11907.5625
715.927	11897.7625
719.85171	11906.0625
723.77365	11903.8625
727.69284	11767.8625
731.60928	11661.4625
735.52295	11622.2625
739.43388	11644.2625
743.34206	11658.7625
747.24749	11730.8625
751.15017	11790.3625
755.05012	11976.1625
758.94733	12282.0625
762.8418	12865.6625
766.73354	13901.0625
770.62254	14966.7625
774.50882	15394.0625
778.39237	14863.5625
782.27321	13710.0625
786.15132	12676.9625
790.02671	12006.3625
793.89938	11686.3625
797.76935	11581.6625
801.6366	11484.8625
805.50115	11499.5625
809.36299	11413.0625
813.22213	11362.0625
817.07857	11319.5625
820.93231	11290.0625
824.78336	11210.5625
828.63172	11146.3625
832.47738	11154.1625
836.32036	11176.9625
840.16066	11158.1625
843.99827	11175.6625
847.8332	11140.4625
851.66546	11090.3625
855.49504	11061.4625
859.32195	11031.4625
863.1462	10997.5625
866.96777	10991.0625
870.78668	10970.9625
874.60293	10988.6625
878.41652	10988.8625
882.22745	11039.2625
886.03573	11070.6625
889.84136	11097.4625
893.64433	11035.7625
897.44466	10977.8625
901.24235	10898.1625
905.0374	10828.6625
908.8298	10777.8625
912.61957	10779.1625
916.40671	10834.1625
920.19121	10982.2625
923.97308	11094.5625
927.75233	11130.9625
931.52895	11120.6625
935.30295	10954.7625
939.07433	10741.4625
942.84309	10609.1625
946.60924	10471.8625
950.37278	10435.0625
954.13371	10410.9625
957.89203	10388.2625
961.64774	10361.5625
965.40086	10335.6625
969.15137	10333.0625
972.89929	10278.4625
976.64461	10251.0625
980.38733	10242.0625
984.12747	10289.9625
987.86502	10345.6625
991.59999	10428.6625
995.33237	10538.3625
999.06217	10751.7625
1002.78939	11020.4625
1006.51404	11247.9625
1010.23611	11442.1625
1013.95561	11538.8625
1017.67255	11576.0625
1021.38692	11428.4625
1025.09872	11225.0625
1028.80796	11138.1625
1032.51465	11226.3625
1036.21877	11418.7625
1039.92035	11500.7625
1043.61937	11479.9625
1047.31584	11370.1625
1051.00976	11211.0625
1054.70114	11108.7625
1058.38998	11083.0625
1062.07627	11100.6625
1065.76003	11188.5625
1069.44126	11278.6625
1073.11995	11436.9625
1076.79611	11560.8625
1080.46974	11650.3625
1084.14085	11766.2625
1087.80943	11900.0625
1091.47549	12006.9625
1095.13903	11992.8625
1098.80005	11843.6625
1102.45857	11573.5625
1106.11456	11388.7625
1109.76805	11335.0625
1113.41903	11358.9625
1117.06751	11497.0625
1120.71348	11651.0625
1124.35696	11870.4625
1127.99793	12075.5625
1131.63641	12241.0625
1135.2724	12136.1625
1138.90589	11996.6625
1142.5369	11904.8625
1146.16542	11901.3625
1149.79145	11917.7625
1153.415	11998.2625
1157.03607	12098.5625
1160.65467	12374.4625
1164.27079	12834.4625
1167.88443	13486.5625
1171.49561	14297.3625
1175.10432	15362.7625
1178.71056	16781.6625
1182.31434	18098.9625
1185.91565	18576.2625
1189.51451	18177.6625
1193.11091	17373.7625
1196.70485	16596.3625
1200.29634	15910.5625
1203.88538	15499.6625
1207.47197	15172.1625
1211.05612	14838.5625
1214.63782	14526.9625
1218.21708	14245.4625
1221.79391	14087.2625
1225.36829	14009.2625
1228.94024	13871.9625
1232.50976	13646.8625
1236.07685	13370.4625
1239.6415	13210.9625
1243.20374	13162.9625
1246.76355	13254.2625
1250.32093	13434.7625
1253.8759	13669.1625
1257.42845	14061.9625
1260.97859	14407.3625
1264.52631	14791.2625
1268.07163	15183.8625
1271.61453	15616.8625
1275.15503	15990.7625
1278.69312	16440.8625
1282.22882	16867.9625
1285.76211	17447.4625
1289.29301	18164.2625
1292.82151	19042.0625
1296.34761	20076.3625
1299.87133	21337.3625
1303.39266	22678.4625
1306.9116	24050.0625
1310.42815	25286.6625
1313.94233	25992.6625
1317.45412	25801.5625
1320.96354	24896.0625
1324.47058	23922.8625
1327.97525	23050.8625
1331.47754	22448.1625
1334.97747	22019.2625
1338.47502	21699.0625
1341.97022	21343.9625
1345.46305	21004.3625
1348.95352	21000.7625
1352.44163	21469.4625
1355.92738	22616.2625
1359.41078	24316.7625
1362.89183	25919.9625
1366.37053	25878.8625
1369.84688	23650.8625
1373.32088	20612.2625
1376.79254	18516.1625
1380.26186	17683.9625
1383.72883	17486.0625
1387.19347	17432.8625
1390.65578	17143.5625
1394.11575	17037.8625
1397.57339	17199.1625
1401.0287	17423.1625
1404.48168	17602.8625
1407.93234	17526.8625
1411.38068	17170.3625
1414.82669	16608.1625
1418.27039	16022.1625
1421.71177	15408.8625
1425.15083	14924.3625
1428.58758	14618.3625
1432.02203	14727.1625
1435.45416	15089.0625
1438.88399	15492.7625
1442.31151	15721.5625
1445.73673	15887.3625
1449.15965	16041.4625
1452.58027	16092.9625
1455.9986	15979.4625
1459.41463	15985.1625
1462.82837	16123.0625
1466.23982	16423.8625
1469.64898	16748.9625
1473.05586	16977.0625
1476.46045	17069.9625
1479.86276	17065.7625
1483.26279	17024.3625
1486.66054	16956.7625
1490.05602	17088.4625
1493.44922	17280.8625
1496.84016	17600.4625
1500.22882	18030.7625
1503.61521	18777.1625
1506.99934	19625.5625
1510.38121	20380.2625
1513.76081	20649.8625
1517.13816	20095.2625
1520.51324	19035.6625
1523.88607	18072.7625
1527.25665	17551.0625
1530.62498	17368.0625
1533.99105	17208.0625
1537.35488	16995.4625
1540.71647	16610.2625
1544.07581	16185.0625
1547.4329	15718.2625
1550.78776	15380.9625
1554.14038	15109.6625
1557.49077	14949.9625
1560.83892	14920.1625
1564.18484	15002.0625
1567.52853	15168.0625
1570.86999	15434.6625
1574.20922	15729.9625
1577.54624	15996.4625
1580.88103	15950.4625
1584.2136	15860.3625
1587.54395	16097.3625
1590.87208	16814.2625
1594.19801	17891.3625
1597.52172	18974.5625
1600.84321	19359.3625
1604.16251	18619.9625
1607.47959	17082.4625
1610.79447	15378.6625
1614.10715	13931.2625
1617.41763	12905.1625
1620.7259	12262.8625
1624.03199	11989.5625
1627.33587	12001.7625
1630.63757	12344.9625
1633.93707	13084.5625
1637.23439	14316.4625
1640.52951	16176.2625
1643.82246	18596.9625
1647.11321	20776.2625
1650.40179	21476.6625
1653.68819	20122.1625
1656.97241	17452.1625
1660.25446	14669.1625
1663.53433	12687.2625
1666.81203	11441.1625
1670.08756	10707.1625
1673.36092	10233.0625
1676.63211	9906.2625
1679.90115	9725.9625
1683.16801	9558.9625
1686.43272	9421.2625
1689.69527	9330.9625
1692.95567	9239.5625
1696.2139	9182.7625
1699.46999	9147.9625
1702.72392	9078.9625
1705.97571	9029.5625
1709.22535	8963.1625
1712.47284	8956.7625
1715.71819	8925.4625
1718.96139	8902.9625
1722.20246	8863.3625
1725.44139	8809.8625
1728.67818	8764.9625
1731.91284	8708.7625
1735.14537	8654.4625
1738.37576	8612.2625
1741.60403	8553.7625
1744.83017	8539.7625
1748.05418	8531.1625
1751.27607	8517.4625
1754.49584	8523.9625
1757.71349	8504.7625
1760.92903	8507.7625
1764.14244	8488.4625
1767.35375	8476.6625
1770.56294	8445.3625
1773.77002	8430.1625
1776.97499	8382.2625
1780.17785	8357.3625
1783.37861	8324.1625
1786.57727	8309.2625
1789.77382	8281.8625
1792.96828	8281.3625
1796.16064	8245.0625
1799.3509	8226.5625
1802.53907	8203.4625
1805.72514	8176.9625
1808.90913	8134.6625
1812.09102	8124.5625
1815.27083	8106.8625
1818.44856	8093.7625
1821.6242	8073.4625
1824.79776	8054.6625
1827.96924	8036.5625
1831.13864	8045.5625
1834.30597	8021.1625
1837.47122	8015.9625
1840.6344	8012.3625
1843.7955	8000.4625
1846.95454	8004.2625
1850.11151	7978.7625
1853.26642	7962.6625
1856.41926	7962.3625
1859.57004	7961.5625
1862.71876	7945.8625
1865.86542	7939.0625
1869.01003	7923.0625
1872.15258	7923.0625
1875.29308	7890.8625
1878.43152	7919.1625
1881.56792	7889.2625
1884.70227	7874.5625
1887.83457	7875.8625
1890.96482	7870.9625
1894.09304	7865.7625
1897.21921	7845.2625
1900.34335	7832.3625
1903.46544	7812.2625
1906.58551	7813.7625
1909.70353	7812.4625
1912.81953	7770.2625
1915.93349	7766.5625
1919.04543	7757.8625
1922.15534	7747.8625
1925.26322	7725.8625
1928.36908	7688.5625
1931.47292	7685.1625
1934.57473	7655.7625
1937.67453	7641.7625
1940.77232	7608.0625
1943.86808	7573.0625
1946.96184	7559.0625
1950.05358	7540.3625
1953.14331	7521.9625
1956.23103	7504.9625
1959.31675	7486.3625
1962.40046	7484.2625
1965.48217	7444.2625
1968.56188	7407.9625
1971.63959	7368.5625
1974.7153	7362.4625
1977.78901	7363.9625
1980.86073	7317.4625
1983.93046	7309.3625
1986.99819	7275.7625
1990.06394	7256.1625
1993.1277	7218.8625
1996.18947	7217.4625
1999.24925	7187.3625
2002.30706	7138.0625
2005.36288	7136.6625
2008.41672	7112.4625
2011.46859	7081.1625
2014.51848	7067.8625
2017.56639	7039.6625
2020.61233	7035.2625
2023.6563	7023.6625
2026.6983	7009.4625
2029.73833	6985.9625
2032.7764	6964.8625
2035.8125	6943.9625
2038.84664	6927.9625
2041.87881	6926.8625
2044.90903	6902.2625
2047.93729	6902.1625
2050.96359	6891.8625
2053.98794	6886.2625
2057.01034	6887.4625
2060.03078	6884.0625
2063.04927	6850.7625
2066.06582	6833.4625
2069.08042	6844.7625
2072.09307	6840.9625
2075.10378	6829.1625
2078.11255	6826.8625
2081.11938	6817.6625
2084.12426	6805.8625
2087.12722	6809.6625
2090.12824	6800.6625
2093.12732	6808.6625
2096.12447	6792.5625
2099.11969	6778.3625
2102.11299	6777.1625
2105.10435	6798.6625
2108.09379	6799.9625
2111.08131	6804.8625
2114.0669	6804.9625
2117.05057	6802.3625
2120.03233	6799.4625
2123.01216	6805.4625
2125.99008	6796.8625
2128.96609	6801.2625
2131.94018	6806.8625
2134.91236	6815.5625
2137.88263	6804.5625
2140.851	6792.8625
2143.81746	6808.7625
2146.78201	6803.3625
2149.74466	6783.7625
2152.7054	6799.1625
2155.66425	6771.3625
2158.6212	6796.6625
2161.57625	6768.8625
2164.52941	6782.3625
2167.48067	6783.2625
2170.43004	6769.0625
2173.37752	6773.9625
2176.32311	6768.0625
2179.26681	6758.6625
2182.20863	6755.7625
2185.14856	6767.1625
2188.08661	6748.0625
2191.02278	6759.1625
2193.95707	6774.2625
2196.88948	6747.2625
2199.82001	6737.1625
2202.74867	6714.5625
2205.67545	6730.9625
2208.60037	6718.1625
2211.52341	6705.5625
2214.44458	6680.7625
2217.36388	6674.8625
2220.28132	6658.0625
2223.1969	6641.3625
2226.11061	6647.6625
2229.02246	6634.2625
2231.93245	6623.6625
2234.84058	6608.4625
2237.74686	6599.0625
2240.65128	6590.1625
2243.55385	6578.1625
2246.45456	6558.7625
2249.35343	6519.2625
2252.25044	6533.5625
2255.14561	6521.4625
2258.03893	6518.2625
2260.93041	6502.5625
2263.82004	6477.0625
2266.70783	6469.0625
2269.59378	6469.4625
2272.4779	6444.7625
2275.36017	6415.7625
2278.24061	6417.2625
2281.11922	6388.3625
2283.996	6383.7625
2286.87094	6373.6625
2289.74405	6365.8625
2292.61534	6359.6625
2295.4848	6339.7625
2298.35243	6349.1625
2301.21824	6340.6625
2304.08223	6345.8625
2306.94439	6324.3625
2309.80474	6324.9625
2312.66327	6325.2625
2315.51999	6313.6625
2318.37489	6326.4625
2321.22797	6301.4625
2324.07925	6300.1625
2326.92871	6294.1625
2329.77637	6289.0625
2332.62222	6282.6625
2335.46626	6266.6625
2338.3085	6265.4625
2341.14893	6253.6625
2343.98756	6248.1625
2346.8244	6256.8625
2349.65943	6247.4625
2352.49267	6246.3625
2355.32411	6240.9625
2358.15376	6242.8625
2360.98161	6236.7625
2363.80768	6230.7625
2366.63195	6247.3625
2369.45444	6231.6625
2372.27514	6207.4625
2375.09405	6204.8625
2377.91118	6181.1625
2380.72652	6167.4625
2383.54009	6160.3625
2386.35187	6123.5625
2389.16188	6120.8625
2391.97011	6111.0625
2394.77657	6088.5625
2397.58125	6098.7625
2400.38416	6082.3625
2403.18529	6062.5625
2405.98466	6062.3625
2408.78226	6052.9625
2411.57809	6041.5625
2414.37216	6035.5625
2417.16446	6010.1625
2419.955	5997.2625
2422.74378	6008.8625
2425.5308	5997.7625
2428.31606	5982.5625
2431.09956	6011.0625
2433.88131	5982.1625
2436.6613	5994.3625
2439.43954	5978.1625
2442.21603	5972.3625
2444.99077	5963.6625
2447.76377	5985.3625
2450.53501	5981.8625
2453.30451	5974.3625
2456.07226	5949.7625
2458.83827	5958.9625
2461.60254	5961.1625
2464.36507	5949.1625
2467.12586	5940.2625
2469.88492	5950.6625
2472.64224	5943.3625
2475.39782	5947.2625
2478.15167	5950.6625
2480.90379	5947.0625
2483.65417	5950.3625
2486.40283	5938.4625
2489.14976	5940.2625
2491.89497	5955.3625
2494.63845	5956.5625
2497.3802	5964.6625
2500.12024	5941.6625
2502.85855	5930.2625
2505.59514	5928.4625
2508.33002	5923.8625
2511.06318	5915.6625
2513.79462	5899.6625
2516.52435	5873.8625
2519.25237	5872.8625
2521.97867	5894.6625
2524.70327	5876.3625
2527.42616	5865.8625
2530.14734	5867.4625
2532.86681	5835.6625
2535.58458	5850.2625
2538.30065	5832.1625
2541.01501	5826.3625
2543.72768	5843.8625
2546.43864	5814.7625
2549.14791	5822.5625
2551.85548	5807.7625
2554.56136	5807.9625
2557.26554	5787.8625
2559.96803	5794.7625
2562.66883	5801.4625
2565.36794	5776.6625
2568.06536	5777.7625
2570.7611	5764.1625
2573.45514	5761.1625
2576.14751	5745.3625
2578.83819	5742.3625
2581.52719	5760.9625
2584.21451	5732.9625
2586.90015	5735.6625
2589.58411	5743.3625
2592.2664	5709.9625
2594.94701	5726.5625
2597.62594	5714.3625
2600.30321	5695.7625
2602.9788	5684.3625
2605.65273	5668.2625
2608.32498	5670.7625
2610.99557	5665.8625
2613.66449	5666.6625
2616.33175	5660.4625
2618.99734	5683.1625
2621.66128	5684.2625
2624.32355	5652.5625
2626.98416	5653.4625
2629.64311	5643.8625
2632.30041	5645.1625
2634.95605	5637.8625
2637.61004	5623.8625
2640.26238	5630.1625
2642.91306	5606.9625
2645.56209	5604.9625
2648.20948	5605.4625
2650.85521	5606.4625
2653.4993	5618.7625
2656.14175	5592.2625
2658.78255	5598.9625
2661.42171	5614.9625
2664.05923	5638.3625
2666.6951	5627.8625
2669.32934	5627.2625
2671.96194	5622.5625
2674.59291	5616.6625
2677.22224	5622.8625
2679.84993	5629.4625
2682.476	5629.1625
2685.10043	5608.4625
2687.72324	5593.4625
2690.34441	5603.7625
2692.96396	5622.4625
2695.58188	5625.2625
2698.19818	5589.1625
2700.81285	5602.3625
2703.4259	5601.9625
2706.03733	5681.4625
2708.64714	5647.6625
2711.25533	5613.9625
2713.86191	5632.6625
2716.46687	5618.2625
2719.07021	5641.0625
2721.67194	5629.0625
2724.27206	5626.1625
2726.87057	5632.4625
2729.46747	5628.9625
2732.06276	5637.5625
2734.65644	5618.5625
2737.24852	5621.9625
2739.83899	5589.7625
2742.42786	5607.4625
2745.01513	5608.3625
2747.60079	5587.7625
2750.18486	5587.8625
2752.76733	5586.3625
2755.3482	5573.8625
2757.92747	5586.2625
2760.50515	5577.1625
2763.08123	5585.0625
2765.65573	5574.2625
2768.22863	5577.1625
2770.79994	5565.7625
2773.36967	5568.8625
2775.9378	5582.3625
2778.50435	5564.9625
2781.06932	5551.5625
2783.6327	5553.5625
2786.1945	5541.1625
2788.75471	5535.9625
2791.31335	5528.6625
2793.87041	5524.2625
2796.42589	5497.2625
2798.97979	5496.4625
2801.53212	5485.4625
2804.08288	5478.1625
2806.63206	5488.7625
2809.17967	5464.0625
2811.72571	5462.7625
2814.27018	5452.6625
2816.81308	5447.5625
2819.35442	5436.7625
2821.89419	5438.3625
2824.43239	5423.3625
2826.96904	5430.5625
2829.50412	5410.2625
2832.03763	5415.6625
2834.56959	5413.6625
2837.1	5415.3625
2839.62884	5426.8625
2842.15613	5411.4625
2844.68186	5444.8625
2847.20604	5452.3625
2849.72867	5475.9625
2852.24974	5445.0625
2854.76927	5465.5625
2857.28724	5468.3625
2859.80367	5443.4625
2862.31855	5436.2625
2864.83189	5425.3625
2867.34368	5428.1625
2869.85393	5408.7625
2872.36264	5413.8625
2874.8698	5418.4625
2877.37543	5417.0625
2879.87952	5428.9625
2882.38207	5436.0625
2884.88308	5416.6625
2887.38256	5407.3625
2889.88051	5408.1625
2892.37692	5415.5625
2894.8718	5404.7625
2897.36515	5411.5625
2899.85698	5427.7625
2902.34727	5428.4625
2904.83604	5428.8625
2907.32328	5447.2625
2909.809	5443.2625
2912.29319	5442.0625
2914.77587	5420.5625
2917.25702	5428.6625
2919.73665	5430.3625
2922.21476	5442.2625
2924.69136	5444.6625
2927.16644	5441.2625
2929.64	5422.6625
2932.11205	5436.3625
2934.58258	5424.3625
2937.05161	5414.5625
2939.51912	5418.9625
2941.98513	5405.5625
2944.44962	5387.5625
2946.91261	5370.9625
2949.37409	5371.1625
2951.83407	5364.1625
2954.29254	5338.7625
2956.74951	5364.6625
2959.20498	5356.0625
2961.65895	5325.1625
2964.11142	5309.5625
2966.56239	5290.2625
2969.01186	5287.8625
2971.45984	5265.2625
2973.90632	5264.9625
2976.35131	5251.7625
2978.7948	5233.6625
2981.23681	5219.7625
2983.67732	5200.2625
2986.11635	5199.9625
2988.55388	5176.1625
2990.98993	5163.0625
2993.4245	5153.1625
2995.85758	5137.7625
2998.28917	5131.4625
3000.71928	5141.2625
3003.14791	5123.9625
3005.57506	5122.5625
3008.00073	5108.3625
3010.42493	5091.2625
3012.84764	5088.5625
3015.26888	5100.9625
3017.68865	5082.8625
3020.10694	5079.8625
3022.52376	5062.2625
3024.9391	5046.6625
3027.35298	5047.6625
3029.76539	5024.5625
3032.17632	5045.9625
3034.5858	5032.7625
3036.9938	5029.6625
3039.40034	5022.8625
3041.80542	4998.6625
3044.20903	5003.7625
3046.61118	5000.6625
3049.01187	4989.8625
3051.4111	4978.0625
3053.80888	4967.5625
3056.20519	4969.7625
3058.60005	4957.6625
3060.99345	4964.7625
3063.3854	4960.7625
3065.7759	4931.9625
3068.16494	4935.8625
3070.55254	4910.4625
3072.93868	4902.9625
3075.32338	4886.1625
3077.70662	4874.1625
3080.08842	4880.4625
