Data from AgNPs_FTO_APTES_UA_2um_CRN_0.1mM_R6G_10uM_NaF_0.1M_Addition_RamanShift__21__12-39-29-057.txt Node

Date: Tue Dec 21 12:39:29 GMT 2021
User: TCL
Spectrometer: QEP01345
Trigger mode: 4
Integration Time (sec): 7.000000E0
Scans to average: 10
Electric dark correction enabled: true
Nonlinearity correction enabled: false
Boxcar width: 0
XAxis mode: Raman Shifts
Number of Pixels in Spectrum: 1044
>>>>>Begin Spectral Data<<<<<
46.04893	-0.125
50.45542	-1.425
54.85868	-1.025
59.25871	0.475
63.6555	51.975
68.04907	59.475
72.43941	61.275
76.82654	65.575
81.21044	72.275
85.59113	70.275
89.96862	69.275
94.34289	74.775
98.71396	77.075
103.08183	78.975
107.4465	82.375
111.80798	84.075
116.16626	83.575
120.52136	87.075
124.87327	88.975
129.222	91.675
133.56755	102.175
137.90993	111.975
142.24913	117.375
146.58517	137.375
150.91804	156.875
155.24774	183.375
159.57429	230.475
163.89768	295.975
168.21792	381.175
172.53501	521.975
176.84895	725.975
181.15975	1018.175
185.46741	1407.975
189.77193	1953.975
194.07331	2612.975
198.37157	3353.575
202.6667	4163.375
206.9587	4979.475
211.24758	5768.575
215.53334	6584.775
219.81599	7409.175
224.09553	8350.975
228.37195	9389.975
232.64527	10564.975
236.91549	11716.575
241.18261	12879.175
245.44663	14001.575
249.70755	14983.575
253.96539	15783.175
258.22014	16505.675
262.4718	17102.175
266.72039	17505.775
270.96589	17674.275
275.20832	17661.375
279.44768	17601.475
283.68397	17488.575
287.91719	17393.775
292.14735	17338.375
296.37445	17341.975
300.59849	17336.975
304.81948	17406.775
309.03742	17340.175
313.25231	17157.075
317.46415	16758.175
321.67296	16244.575
325.87872	15850.675
330.08145	15638.275
334.28114	15596.575
338.47781	15731.775
342.67145	15939.375
346.86207	16176.275
351.04966	16512.975
355.23424	16858.975
359.4158	17207.175
363.59435	17409.275
367.76989	17545.175
371.94243	17641.975
376.11196	17733.875
380.27849	17813.775
384.44203	17940.875
388.60257	18039.375
392.76012	18211.175
396.91468	18462.875
401.06626	18787.875
405.21485	19004.275
409.36047	18949.675
413.50311	18732.675
417.64277	18545.775
421.77947	18575.675
425.9132	18687.775
430.04396	18881.075
434.17176	19104.875
438.2966	19367.875
442.41849	19824.075
446.53742	20659.875
450.6534	21549.275
454.76644	22173.675
458.87653	22269.575
462.98368	21865.975
467.08789	21373.475
471.18916	20832.175
475.2875	20529.775
479.38291	20413.575
483.4754	20346.775
487.56496	20101.475
491.6516	19733.975
495.73531	19355.175
499.81612	19153.775
503.89401	19192.175
507.96899	19150.175
512.04106	19001.575
516.11023	18752.875
520.1765	18414.275
524.23987	18246.375
528.30034	18164.375
532.35792	18085.775
536.41261	17874.775
540.46441	17606.875
544.51333	17499.275
548.55936	17628.275
552.60252	18051.475
556.64279	18609.675
560.6802	19111.275
564.71473	19458.375
568.7464	19820.575
572.7752	20422.875
576.80114	20890.575
580.82422	21235.775
584.84444	21625.875
588.86181	22308.775
592.87633	23359.875
596.888	23971.675
600.89682	23603.075
604.9028	23479.075
608.90594	24717.275
612.90624	26106.975
616.90371	24128.375
620.89834	19967.375
624.89015	18101.175
628.87913	17907.875
632.86528	18121.475
636.84862	18158.075
640.82913	17878.075
644.80683	17345.575
648.78172	16878.775
652.75379	16733.075
656.72306	16824.975
660.68952	17104.975
664.65319	17054.575
668.61405	16820.575
672.57211	16785.875
676.52738	16904.575
680.47986	16882.375
684.42955	16736.675
688.37646	16604.975
692.32058	16542.275
696.26192	16680.575
700.20048	16903.275
704.13626	17029.475
708.06928	17038.575
711.99952	16895.275
715.927	16768.575
719.85171	16814.475
723.77365	16775.975
727.69284	16666.275
731.60928	16567.475
735.52295	16563.475
739.43388	16585.975
743.34206	16661.675
747.24749	16775.175
751.15017	16864.875
755.05012	17173.675
758.94733	17756.875
762.8418	18771.075
766.73354	20439.675
770.62254	21941.475
774.50882	22228.975
778.39237	21071.875
782.27321	19276.675
786.15132	17773.075
790.02671	16799.775
793.89938	16352.675
797.76935	16183.975
801.6366	16207.275
805.50115	16179.475
809.36299	16086.375
813.22213	15933.175
817.07857	15807.075
820.93231	15719.175
824.78336	15652.975
828.63172	15563.575
832.47738	15564.775
836.32036	15578.375
840.16066	15560.775
843.99827	15544.275
847.8332	15495.275
851.66546	15433.875
855.49504	15441.475
859.32195	15439.675
863.1462	15450.975
866.96777	15394.575
870.78668	15369.975
874.60293	15364.475
878.41652	15365.775
882.22745	15365.275
886.03573	15442.575
889.84136	15448.175
893.64433	15362.175
897.44466	15285.675
901.24235	15206.975
905.0374	15072.675
908.8298	14989.775
912.61957	14966.875
916.40671	15084.375
920.19121	15351.375
923.97308	15577.475
927.75233	15656.075
931.52895	15555.875
935.30295	15292.575
939.07433	14951.375
942.84309	14698.775
946.60924	14572.675
950.37278	14490.475
954.13371	14473.875
957.89203	14430.775
961.64774	14387.775
965.40086	14337.275
969.15137	14247.475
972.89929	14131.875
976.64461	14051.175
980.38733	14006.675
984.12747	14046.775
987.86502	14145.175
991.59999	14321.175
995.33237	14599.875
999.06217	15156.575
1002.78939	15822.575
1006.51404	16347.975
1010.23611	16643.075
1013.95561	16863.975
1017.67255	16855.975
1021.38692	16574.475
1025.09872	16106.075
1028.80796	15891.675
1032.51465	16027.075
1036.21877	16344.775
1039.92035	16425.175
1043.61937	16320.575
1047.31584	16132.275
1051.00976	15790.875
1054.70114	15640.075
1058.38998	15592.675
1062.07627	15676.575
1065.76003	15816.075
1069.44126	15952.375
1073.11995	16160.575
1076.79611	16370.275
1080.46974	16427.875
1084.14085	16551.375
1087.80943	16805.875
1091.47549	17022.075
1095.13903	17073.175
1098.80005	16819.475
1102.45857	16401.875
1106.11456	16043.275
1109.76805	15952.075
1113.41903	15982.475
1117.06751	16172.175
1120.71348	16422.775
1124.35696	16668.875
1127.99793	16946.275
1131.63641	17138.475
1135.2724	17068.375
1138.90589	16981.775
1142.5369	16915.275
1146.16542	16934.775
1149.79145	16994.875
1153.415	17192.675
1157.03607	17456.575
1160.65467	18071.375
1164.27079	19026.075
1167.88443	20300.275
1171.49561	21941.775
1175.10432	24046.575
1178.71056	26606.275
1182.31434	28939.475
1185.91565	30050.775
1189.51451	29754.275
1193.11091	28681.875
1196.70485	27318.175
1200.29634	25912.475
1203.88538	24757.775
1207.47197	23927.775
1211.05612	23215.075
1214.63782	22730.175
1218.21708	22476.475
1221.79391	22430.075
1225.36829	22367.275
1228.94024	22035.075
1232.50976	21363.475
1236.07685	20723.075
1239.6415	20339.475
1243.20374	20197.475
1246.76355	20241.475
1250.32093	20498.175
1253.8759	21025.575
1257.42845	21739.075
1260.97859	22454.675
1264.52631	23113.175
1268.07163	23846.875
1271.61453	24617.175
1275.15503	25493.175
1278.69312	26395.375
1282.22882	27270.075
1285.76211	28235.775
1289.29301	29417.375
1292.82151	30826.275
1296.34761	32574.175
1299.87133	34760.975
1303.39266	37201.375
1306.9116	39916.775
1310.42815	42649.975
1313.94233	44718.575
1317.45412	45303.175
1320.96354	44648.675
1324.47058	43625.075
1327.97525	42509.075
1331.47754	41695.975
1334.97747	41193.575
1338.47502	41035.975
1341.97022	40696.175
1345.46305	39784.675
1348.95352	38783.875
1352.44163	38210.575
1355.92738	38641.775
1359.41078	40069.775
1362.89183	41451.675
1366.37053	41019.875
1369.84688	38090.075
1373.32088	33804.175
1376.79254	30455.275
1380.26186	29028.375
1383.72883	28841.375
1387.19347	28840.875
1390.65578	28763.775
1394.11575	29073.675
1397.57339	30068.875
1401.0287	31472.475
1404.48168	32799.975
1407.93234	33581.375
1411.38068	33491.375
1414.82669	32424.475
1418.27039	30660.175
1421.71177	28647.175
1425.15083	26874.875
1428.58758	25789.675
1432.02203	25676.875
1435.45416	26156.975
1438.88399	27041.675
1442.31151	27947.075
1445.73673	28728.875
1449.15965	29488.775
1452.58027	29975.375
1455.9986	30022.375
1459.41463	30141.475
1462.82837	30664.675
1466.23982	31566.675
1469.64898	32450.175
1473.05586	32944.075
1476.46045	32957.275
1479.86276	32723.375
1483.26279	32240.675
1486.66054	31723.475
1490.05602	31540.275
1493.44922	31363.575
1496.84016	30848.275
1500.22882	30297.075
1503.61521	30263.275
1506.99934	30637.675
1510.38121	31099.275
1513.76081	31247.075
1517.13816	30564.475
1520.51324	29535.675
1523.88607	28479.875
1527.25665	28040.175
1530.62498	27945.975
1533.99105	28143.075
1537.35488	28203.175
1540.71647	28113.175
1544.07581	27625.075
1547.4329	27053.275
1550.78776	26406.075
1554.14038	25865.875
1557.49077	25524.575
1560.83892	25351.575
1564.18484	25288.075
1567.52853	25242.175
1570.86999	25242.675
1574.20922	25550.875
1577.54624	25822.475
1580.88103	25880.775
1584.2136	26076.775
1587.54395	26997.075
1590.87208	28886.675
1594.19801	31446.475
1597.52172	34294.275
1600.84321	35830.375
1604.16251	34886.975
1607.47959	31840.275
1610.79447	28168.175
1614.10715	24679.475
1617.41763	21989.375
1620.7259	20186.575
1624.03199	19271.575
1627.33587	19113.775
1630.63757	19700.175
1633.93707	21198.175
1637.23439	23712.075
1640.52951	27588.675
1643.82246	32269.875
1647.11321	36186.075
1650.40179	37174.075
1653.68819	34456.875
1656.97241	29356.975
1660.25446	24203.375
1663.53433	20343.475
1666.81203	17784.375
1670.08756	16269.275
1673.36092	15292.475
1676.63211	14685.875
1679.90115	14243.275
1683.16801	13899.775
1686.43272	13658.475
1689.69527	13504.675
1692.95567	13366.675
1696.2139	13289.675
1699.46999	13223.775
1702.72392	13166.275
1705.97571	13082.575
1709.22535	13032.175
1712.47284	12967.475
1715.71819	12909.075
1718.96139	12868.375
1722.20246	12807.775
1725.44139	12730.675
1728.67818	12670.275
1731.91284	12569.575
1735.14537	12506.475
1738.37576	12434.475
1741.60403	12394.275
1744.83017	12363.175
1748.05418	12351.975
1751.27607	12311.575
1754.49584	12341.175
1757.71349	12322.075
1760.92903	12309.575
1764.14244	12246.075
1767.35375	12239.675
1770.56294	12177.075
1773.77002	12136.375
1776.97499	12101.475
1780.17785	12062.475
1783.37861	11994.775
1786.57727	11976.075
1789.77382	11928.475
1792.96828	11922.275
1796.16064	11886.675
1799.3509	11845.175
1802.53907	11842.975
1805.72514	11779.375
1808.90913	11741.975
1812.09102	11728.275
1815.27083	11673.375
1818.44856	11641.775
1821.6242	11625.475
1824.79776	11633.575
1827.96924	11635.775
1831.13864	11603.675
1834.30597	11587.875
1837.47122	11576.775
1840.6344	11571.775
1843.7955	11579.375
1846.95454	11572.175
1850.11151	11580.975
1853.26642	11574.875
1856.41926	11591.175
1859.57004	11568.375
1862.71876	11570.375
1865.86542	11568.275
1869.01003	11585.175
1872.15258	11572.875
1875.29308	11567.975
1878.43152	11556.175
1881.56792	11553.575
1884.70227	11525.475
1887.83457	11570.775
1890.96482	11552.875
1894.09304	11545.175
1897.21921	11572.475
1900.34335	11559.375
1903.46544	11561.375
1906.58551	11549.675
1909.70353	11531.175
1912.81953	11516.675
1915.93349	11502.275
1919.04543	11432.675
1922.15534	11419.375
1925.26322	11375.975
1928.36908	11345.575
1931.47292	11298.375
1934.57473	11243.375
1937.67453	11226.975
1940.77232	11170.975
1943.86808	11128.475
1946.96184	11086.975
1950.05358	11045.575
1953.14331	11009.375
1956.23103	10993.975
1959.31675	10921.475
1962.40046	10883.475
1965.48217	10849.275
1968.56188	10798.475
1971.63959	10789.775
1974.7153	10740.575
1977.78901	10696.475
1980.86073	10648.875
1983.93046	10647.475
1986.99819	10590.475
1990.06394	10549.675
1993.1277	10517.775
1996.18947	10480.475
1999.24925	10467.975
2002.30706	10454.975
2005.36288	10405.075
2008.41672	10364.075
2011.46859	10314.375
2014.51848	10310.975
2017.56639	10278.775
2020.61233	10264.575
2023.6563	10231.375
2026.6983	10219.975
2029.73833	10187.875
2032.7764	10178.775
2035.8125	10149.875
2038.84664	10135.875
2041.87881	10130.175
2044.90903	10139.575
2047.93729	10086.375
2050.96359	10079.075
2053.98794	10067.675
2057.01034	10039.175
2060.03078	10027.275
2063.04927	10030.475
2066.06582	10012.375
2069.08042	9982.775
2072.09307	9983.975
2075.10378	9964.575
2078.11255	9987.675
2081.11938	9995.975
2084.12426	9957.175
2087.12722	9928.375
2090.12824	9945.175
2093.12732	9926.075
2096.12447	9933.475
2099.11969	9917.475
2102.11299	9907.675
2105.10435	9919.075
2108.09379	9909.075
2111.08131	9915.475
2114.0669	9890.075
2117.05057	9904.475
2120.03233	9905.875
2123.01216	9915.475
2125.99008	9922.175
2128.96609	9920.675
2131.94018	9917.475
2134.91236	9925.775
2137.88263	9917.275
2140.851	9933.275
2143.81746	9936.375
2146.78201	9921.775
2149.74466	9908.175
2152.7054	9906.575
2155.66425	9899.475
2158.6212	9901.675
2161.57625	9880.575
2164.52941	9872.275
2167.48067	9907.275
2170.43004	9865.575
2173.37752	9861.475
2176.32311	9852.375
2179.26681	9837.575
2182.20863	9855.675
2185.14856	9862.775
2188.08661	9852.875
2191.02278	9861.875
2193.95707	9861.475
2196.88948	9841.975
2199.82001	9854.175
2202.74867	9819.975
2205.67545	9830.975
2208.60037	9806.975
2211.52341	9796.875
2214.44458	9799.475
2217.36388	9778.175
2220.28132	9729.875
2223.1969	9732.675
2226.11061	9701.575
2229.02246	9672.075
2231.93245	9699.875
2234.84058	9664.575
2237.74686	9643.075
2240.65128	9645.775
2243.55385	9626.875
2246.45456	9600.375
2249.35343	9579.775
2252.25044	9571.375
2255.14561	9559.375
2258.03893	9529.375
2260.93041	9515.375
2263.82004	9483.575
2266.70783	9437.775
2269.59378	9406.975
2272.4779	9384.575
2275.36017	9336.575
2278.24061	9359.475
2281.11922	9305.675
2283.996	9311.475
2286.87094	9289.775
2289.74405	9275.575
2292.61534	9293.475
2295.4848	9255.075
2298.35243	9258.075
2301.21824	9235.575
2304.08223	9250.975
2306.94439	9242.475
2309.80474	9250.875
2312.66327	9257.275
2315.51999	9235.075
2318.37489	9251.175
2321.22797	9220.375
2324.07925	9209.575
2326.92871	9208.775
2329.77637	9185.775
2332.62222	9182.775
2335.46626	9177.475
2338.3085	9183.875
2341.14893	9190.775
2343.98756	9192.975
2346.8244	9183.475
2349.65943	9192.175
2352.49267	9199.975
2355.32411	9167.875
2358.15376	9169.775
2360.98161	9194.575
2363.80768	9150.375
2366.63195	9158.275
2369.45444	9152.375
2372.27514	9120.275
2375.09405	9092.675
2377.91118	9076.475
2380.72652	9032.575
2383.54009	9046.175
2386.35187	9025.775
2389.16188	8970.175
2391.97011	8963.575
2394.77657	8954.175
2397.58125	8952.175
2400.38416	8971.075
2403.18529	8910.975
2405.98466	8898.475
2408.78226	8881.575
2411.57809	8862.275
2414.37216	8842.975
2417.16446	8830.575
2419.955	8828.875
2422.74378	8826.875
2425.5308	8808.275
2428.31606	8795.075
2431.09956	8778.775
2433.88131	8789.775
2436.6613	8771.375
2439.43954	8757.375
2442.21603	8766.075
2444.99077	8744.775
2447.76377	8761.675
2450.53501	8775.775
2453.30451	8755.875
2456.07226	8752.775
2458.83827	8757.675
2461.60254	8758.075
2464.36507	8757.775
2467.12586	8753.075
2469.88492	8751.575
2472.64224	8769.275
2475.39782	8781.275
2478.15167	8778.675
2480.90379	8761.275
2483.65417	8793.175
2486.40283	8787.775
2489.14976	8786.375
2491.89497	8770.975
2494.63845	8794.475
2497.3802	8775.675
2500.12024	8808.475
2502.85855	8781.275
2505.59514	8767.375
2508.33002	8768.575
2511.06318	8749.275
2513.79462	8769.775
2516.52435	8719.275
2519.25237	8729.275
2521.97867	8679.775
2524.70327	8706.075
2527.42616	8703.175
2530.14734	8718.275
2532.86681	8681.675
2535.58458	8678.675
2538.30065	8679.475
2541.01501	8655.775
2543.72768	8659.675
2546.43864	8646.775
2549.14791	8648.175
2551.85548	8638.375
2554.56136	8642.475
2557.26554	8623.875
2559.96803	8623.775
2562.66883	8600.375
2565.36794	8624.175
2568.06536	8614.075
2570.7611	8595.975
2573.45514	8600.675
2576.14751	8600.275
2578.83819	8599.575
2581.52719	8599.575
2584.21451	8588.975
2586.90015	8569.475
2589.58411	8594.675
2592.2664	8575.375
2594.94701	8591.775
2597.62594	8569.675
2600.30321	8561.875
2602.9788	8566.475
2605.65273	8553.975
2608.32498	8574.875
2610.99557	8549.475
2613.66449	8576.775
2616.33175	8564.375
2618.99734	8593.175
2621.66128	8573.975
2624.32355	8579.475
2626.98416	8589.075
2629.64311	8593.875
2632.30041	8591.475
2634.95605	8589.875
2637.61004	8595.575
2640.26238	8569.375
2642.91306	8568.975
2645.56209	8559.475
2648.20948	8564.275
2650.85521	8548.375
2653.4993	8554.275
2656.14175	8563.775
2658.78255	8559.275
2661.42171	8562.475
2664.05923	8563.475
2666.6951	8576.375
2669.32934	8595.175
2671.96194	8580.375
2674.59291	8593.675
2677.22224	8583.675
2679.84993	8595.675
2682.476	8554.075
2685.10043	8557.275
2687.72324	8539.075
2690.34441	8536.075
2692.96396	8530.975
2695.58188	8554.775
2698.19818	8532.675
2700.81285	8547.275
2703.4259	8586.175
2706.03733	8620.975
2708.64714	8590.975
2711.25533	8573.675
2713.86191	8553.675
2716.46687	8560.375
2719.07021	8568.675
2721.67194	8596.775
2724.27206	8571.375
2726.87057	8599.675
2729.46747	8589.875
2732.06276	8620.175
2734.65644	8597.075
2737.24852	8612.675
2739.83899	8598.975
2742.42786	8570.875
2745.01513	8595.175
2747.60079	8592.175
2750.18486	8584.575
2752.76733	8584.375
2755.3482	8582.175
2757.92747	8605.875
2760.50515	8585.475
2763.08123	8615.775
2765.65573	8573.575
2768.22863	8585.875
2770.79994	8606.575
2773.36967	8610.575
2775.9378	8601.075
2778.50435	8610.975
2781.06932	8613.475
2783.6327	8624.075
2786.1945	8614.275
2788.75471	8597.575
2791.31335	8598.475
2793.87041	8577.175
2796.42589	8543.175
2798.97979	8566.475
2801.53212	8550.075
2804.08288	8515.175
2806.63206	8519.975
2809.17967	8518.375
2811.72571	8488.375
2814.27018	8467.575
2816.81308	8476.575
2819.35442	8454.375
2821.89419	8461.275
2824.43239	8459.675
2826.96904	8453.675
2829.50412	8428.475
2832.03763	8415.075
2834.56959	8396.675
2837.1	8403.375
2839.62884	8400.875
2842.15613	8385.375
2844.68186	8413.875
2847.20604	8416.875
2849.72867	8398.075
2852.24974	8387.175
2854.76927	8397.675
2857.28724	8368.675
2859.80367	8383.775
2862.31855	8375.975
2864.83189	8339.775
2867.34368	8355.775
2869.85393	8351.575
2872.36264	8340.675
2874.8698	8330.175
2877.37543	8319.475
2879.87952	8343.375
2882.38207	8334.975
2884.88308	8340.475
2887.38256	8355.175
2889.88051	8364.175
2892.37692	8373.375
2894.8718	8359.675
2897.36515	8379.175
2899.85698	8383.775
2902.34727	8413.475
2904.83604	8404.675
2907.32328	8436.575
2909.809	8417.475
2912.29319	8440.275
2914.77587	8436.275
2917.25702	8456.975
2919.73665	8427.175
2922.21476	8442.175
2924.69136	8444.375
2927.16644	8456.875
2929.64	8421.475
2932.11205	8412.375
2934.58258	8412.375
2937.05161	8423.675
2939.51912	8396.175
2941.98513	8408.575
2944.44962	8388.075
2946.91261	8365.575
2949.37409	8372.075
2951.83407	8349.075
2954.29254	8322.975
2956.74951	8292.675
2959.20498	8296.975
2961.65895	8270.175
2964.11142	8259.275
2966.56239	8209.775
2969.01186	8198.775
2971.45984	8165.275
2973.90632	8142.675
2976.35131	8134.475
2978.7948	8101.875
2981.23681	8094.575
2983.67732	8052.675
2986.11635	8029.075
2988.55388	7970.875
2990.98993	7965.775
2993.4245	7965.375
2995.85758	7960.975
2998.28917	7921.375
3000.71928	7928.275
3003.14791	7900.675
3005.57506	7907.175
3008.00073	7867.675
3010.42493	7871.275
3012.84764	7863.775
3015.26888	7843.475
3017.68865	7793.675
3020.10694	7795.075
3022.52376	7756.375
3024.9391	7748.375
3027.35298	7732.675
3029.76539	7717.775
3032.17632	7727.675
3034.5858	7693.575
3036.9938	7686.275
3039.40034	7690.075
3041.80542	7670.075
3044.20903	7681.475
3046.61118	7669.775
3049.01187	7640.475
3051.4111	7642.775
3053.80888	7616.475
3056.20519	7596.175
3058.60005	7603.075
3060.99345	7569.275
3063.3854	7540.475
3065.7759	7537.875
3068.16494	7487.775
3070.55254	7460.075
3072.93868	7465.375
3075.32338	7425.775
3077.70662	7424.375
3080.08842	7373.475
3082.46878	7392.875
3084.84769	7349.275
3087.22515	7358.575
3089.60118	7344.775
3091.97576	7347.275
3094.3489	7334.375
3096.72061	7339.375
3099.09087	7342.675
3101.4597	7319.375
3103.82709	7315.675
3106.19305	7288.575
3108.55757	7289.675
3110.92066	7262.875
3113.28232	7268.375
3115.64255	7197.775
3118.00134	7208.275
3120.35871	7194.575
3122.71466	7177.275
3125.06917	7155.675
3127.42226	7151.375
3129.77393	7159.375
3132.12417	7151.075
3134.47299	7150.875
3136.82039	7156.875
3139.16636	7121.875
3141.51092	7127.575
3143.85406	7133.175
3146.19579	7111.675
3148.53609	7118.075
3150.87499	7103.075
3153.21246	7104.275
3155.54853	7127.375
3157.88318	7113.375
3160.21642	7120.975
3162.54826	7096.675
3164.87868	7107.275
3167.2077	7080.175
3169.5353	7088.775
3171.86151	7078.275
3174.18631	7061.275
3176.5097	7055.075
