Data from AgNPs_FTO_APTES_UA_0um_CRN_0.1mM_R6G_10uM_NaF_0.1M_Addition_RamanShift__9__10-21-48-900.txt Node

Date: Tue Dec 21 10:21:48 GMT 2021
User: TCL
Spectrometer: QEP01345
Trigger mode: 4
Integration Time (sec): 7.000000E0
Scans to average: 10
Electric dark correction enabled: true
Nonlinearity correction enabled: false
Boxcar width: 0
XAxis mode: Raman Shifts
Number of Pixels in Spectrum: 1044
>>>>>Begin Spectral Data<<<<<
46.04893	0.7875
50.45542	-1.8125
54.85868	-0.2125
59.25871	2.8875
63.6555	18.4875
68.04907	21.1875
72.43941	22.5875
76.82654	22.2875
81.21044	27.2875
85.59113	28.9875
89.96862	27.4875
94.34289	30.1875
98.71396	26.6875
103.08183	29.8875
107.4465	33.7875
111.80798	33.1875
116.16626	28.8875
120.52136	30.7875
124.87327	31.4875
129.222	29.7875
133.56755	31.8875
137.90993	32.9875
142.24913	33.9875
146.58517	34.7875
150.91804	39.5875
155.24774	41.1875
159.57429	47.8875
163.89768	60.7875
168.21792	69.1875
172.53501	84.7875
176.84895	108.7875
181.15975	149.6875
185.46741	200.4875
189.77193	275.1875
194.07331	371.9875
198.37157	490.4875
202.6667	618.8875
206.9587	769.2875
211.24758	924.2875
215.53334	1073.0875
219.81599	1234.9875
224.09553	1403.6875
228.37195	1584.2875
232.64527	1749.8875
236.91549	1907.9875
241.18261	2071.4875
245.44663	2203.6875
249.70755	2312.6875
253.96539	2388.5875
258.22014	2434.0875
262.4718	2453.6875
266.72039	2432.4875
270.96589	2385.1875
275.20832	2320.7875
279.44768	2237.6875
283.68397	2147.3875
287.91719	2055.4875
292.14735	1965.8875
296.37445	1898.5875
300.59849	1830.1875
304.81948	1767.9875
309.03742	1723.6875
313.25231	1679.0875
317.46415	1642.1875
321.67296	1609.3875
325.87872	1588.6875
330.08145	1560.8875
334.28114	1563.7875
338.47781	1554.6875
342.67145	1556.0875
346.86207	1550.1875
351.04966	1556.6875
355.23424	1550.1875
359.4158	1538.8875
363.59435	1538.9875
367.76989	1531.9875
371.94243	1519.4875
376.11196	1520.9875
380.27849	1490.5875
384.44203	1493.4875
388.60257	1488.4875
392.76012	1483.6875
396.91468	1476.2875
401.06626	1487.8875
405.21485	1488.6875
409.36047	1488.4875
413.50311	1495.5875
417.64277	1503.2875
421.77947	1507.5875
425.9132	1502.5875
430.04396	1509.1875
434.17176	1516.0875
438.2966	1522.4875
442.41849	1543.5875
446.53742	1561.6875
450.6534	1575.1875
454.76644	1592.9875
458.87653	1604.2875
462.98368	1613.3875
467.08789	1609.4875
471.18916	1590.1875
475.2875	1593.8875
479.38291	1602.2875
483.4754	1578.7875
487.56496	1586.7875
491.6516	1585.4875
495.73531	1590.4875
499.81612	1582.6875
503.89401	1582.0875
507.96899	1581.5875
512.04106	1568.9875
516.11023	1556.9875
520.1765	1553.5875
524.23987	1549.7875
528.30034	1540.3875
532.35792	1536.7875
536.41261	1553.1875
540.46441	1531.5875
544.51333	1531.2875
548.55936	1542.5875
552.60252	1528.1875
556.64279	1533.3875
560.6802	1536.7875
564.71473	1538.0875
568.7464	1543.7875
572.7752	1549.0875
576.80114	1544.5875
580.82422	1545.2875
584.84444	1532.4875
588.86181	1519.4875
592.87633	1519.1875
596.888	1520.7875
600.89682	1528.1875
604.9028	1550.8875
608.90594	1585.0875
612.90624	1643.6875
616.90371	1653.1875
620.89834	1597.9875
624.89015	1578.0875
628.87913	1571.5875
632.86528	1584.6875
636.84862	1594.5875
640.82913	1607.7875
644.80683	1635.6875
648.78172	1668.7875
652.75379	1684.7875
656.72306	1677.9875
660.68952	1668.9875
664.65319	1680.9875
668.61405	1714.2875
672.57211	1812.9875
676.52738	1934.7875
680.47986	2057.8875
684.42955	2124.9875
688.37646	2116.1875
692.32058	2034.1875
696.26192	1929.9875
700.20048	1853.9875
704.13626	1809.6875
708.06928	1782.9875
711.99952	1756.9875
715.927	1733.5875
719.85171	1718.0875
723.77365	1720.2875
727.69284	1724.6875
731.60928	1727.4875
735.52295	1724.6875
739.43388	1701.7875
743.34206	1684.0875
747.24749	1664.3875
751.15017	1670.5875
755.05012	1666.1875
758.94733	1695.9875
762.8418	1689.3875
766.73354	1707.1875
770.62254	1710.9875
774.50882	1719.1875
778.39237	1697.1875
782.27321	1661.2875
786.15132	1637.4875
790.02671	1621.0875
793.89938	1622.0875
797.76935	1625.8875
801.6366	1631.2875
805.50115	1631.3875
809.36299	1637.0875
813.22213	1628.7875
817.07857	1633.0875
820.93231	1615.5875
824.78336	1614.2875
828.63172	1607.7875
832.47738	1608.5875
836.32036	1597.7875
840.16066	1596.8875
843.99827	1591.3875
847.8332	1590.7875
851.66546	1584.2875
855.49504	1572.4875
859.32195	1581.6875
863.1462	1586.7875
866.96777	1588.6875
870.78668	1593.9875
874.60293	1611.0875
878.41652	1614.2875
882.22745	1620.6875
886.03573	1621.0875
889.84136	1630.7875
893.64433	1643.4875
897.44466	1656.7875
901.24235	1665.2875
905.0374	1667.9875
908.8298	1683.2875
912.61957	1710.6875
916.40671	1763.6875
920.19121	1818.3875
923.97308	1858.4875
927.75233	1911.3875
931.52895	1927.0875
935.30295	1923.4875
939.07433	1892.5875
942.84309	1852.5875
946.60924	1811.1875
950.37278	1785.4875
954.13371	1770.4875
957.89203	1746.6875
961.64774	1723.9875
965.40086	1706.7875
969.15137	1715.8875
972.89929	1684.0875
976.64461	1675.2875
980.38733	1655.9875
984.12747	1645.4875
987.86502	1642.0875
991.59999	1623.6875
995.33237	1617.9875
999.06217	1632.3875
1002.78939	1628.2875
1006.51404	1630.8875
1010.23611	1620.7875
1013.95561	1637.7875
1017.67255	1639.2875
1021.38692	1654.9875
1025.09872	1658.8875
1028.80796	1661.0875
1032.51465	1676.0875
1036.21877	1691.2875
1039.92035	1696.5875
1043.61937	1720.7875
1047.31584	1730.5875
1051.00976	1753.9875
1054.70114	1749.2875
1058.38998	1737.3875
1062.07627	1703.9875
1065.76003	1690.3875
1069.44126	1645.2875
1073.11995	1617.8875
1076.79611	1590.5875
1080.46974	1571.3875
1084.14085	1548.2875
1087.80943	1541.9875
1091.47549	1519.9875
1095.13903	1513.0875
1098.80005	1511.0875
1102.45857	1499.3875
1106.11456	1496.7875
1109.76805	1485.3875
1113.41903	1494.9875
1117.06751	1511.3875
1120.71348	1494.5875
1124.35696	1522.1875
1127.99793	1531.7875
1131.63641	1544.5875
1135.2724	1546.1875
1138.90589	1545.1875
1142.5369	1539.0875
1146.16542	1530.3875
1149.79145	1533.1875
1153.415	1532.4875
1157.03607	1523.3875
1160.65467	1526.3875
1164.27079	1521.3875
1167.88443	1521.8875
1171.49561	1531.4875
1175.10432	1544.7875
1178.71056	1578.2875
1182.31434	1589.9875
1185.91565	1606.7875
1189.51451	1615.6875
1193.11091	1595.7875
1196.70485	1596.9875
1200.29634	1583.0875
1203.88538	1570.6875
1207.47197	1567.8875
1211.05612	1552.9875
1214.63782	1548.1875
1218.21708	1550.9875
1221.79391	1552.5875
1225.36829	1562.3875
1228.94024	1575.2875
1232.50976	1582.0875
1236.07685	1604.5875
1239.6415	1604.2875
1243.20374	1623.1875
1246.76355	1651.8875
1250.32093	1659.5875
1253.8759	1663.3875
1257.42845	1682.3875
1260.97859	1690.4875
1264.52631	1698.5875
1268.07163	1704.6875
1271.61453	1718.3875
1275.15503	1726.1875
1278.69312	1732.8875
1282.22882	1738.4875
1285.76211	1755.9875
1289.29301	1772.9875
1292.82151	1800.1875
1296.34761	1842.0875
1299.87133	1860.9875
1303.39266	1879.5875
1306.9116	1917.0875
1310.42815	1958.3875
1313.94233	1974.2875
1317.45412	1982.0875
1320.96354	1959.6875
1324.47058	1933.9875
1327.97525	1931.2875
1331.47754	1914.1875
1334.97747	1926.8875
1338.47502	1938.8875
1341.97022	1980.1875
1345.46305	2007.8875
1348.95352	2055.5875
1352.44163	2115.5875
1355.92738	2155.8875
1359.41078	2222.9875
1362.89183	2291.2875
1366.37053	2313.0875
1369.84688	2265.3875
1373.32088	2217.5875
1376.79254	2185.3875
1380.26186	2159.6875
1383.72883	2132.6875
1387.19347	2119.6875
1390.65578	2102.3875
1394.11575	2105.4875
1397.57339	2093.5875
1401.0287	2083.6875
1404.48168	2087.5875
1407.93234	2088.1875
1411.38068	2108.5875
1414.82669	2136.0875
1418.27039	2160.0875
1421.71177	2171.4875
1425.15083	2151.2875
1428.58758	2105.6875
1432.02203	2058.1875
1435.45416	2000.0875
1438.88399	1967.8875
1442.31151	1963.6875
1445.73673	1948.8875
1449.15965	1952.6875
1452.58027	1939.9875
1455.9986	1938.6875
1459.41463	1929.4875
1462.82837	1925.1875
1466.23982	1911.3875
1469.64898	1902.8875
1473.05586	1894.5875
1476.46045	1872.2875
1479.86276	1856.0875
1483.26279	1825.9875
1486.66054	1820.1875
1490.05602	1807.2875
1493.44922	1805.0875
1496.84016	1810.3875
1500.22882	1821.1875
1503.61521	1843.5875
1506.99934	1858.7875
1510.38121	1895.0875
1513.76081	1901.2875
1517.13816	1878.9875
1520.51324	1845.6875
1523.88607	1808.0875
1527.25665	1786.0875
1530.62498	1756.8875
1533.99105	1755.4875
1537.35488	1750.6875
1540.71647	1753.7875
1544.07581	1749.4875
1547.4329	1740.4875
1550.78776	1734.5875
1554.14038	1741.3875
1557.49077	1731.5875
1560.83892	1725.7875
1564.18484	1724.8875
1567.52853	1731.7875
1570.86999	1728.2875
1574.20922	1712.6875
1577.54624	1702.2875
1580.88103	1677.1875
1584.2136	1658.5875
1587.54395	1632.0875
1590.87208	1621.4875
1594.19801	1611.4875
1597.52172	1605.7875
1600.84321	1606.8875
1604.16251	1591.2875
1607.47959	1590.6875
1610.79447	1578.3875
1614.10715	1571.5875
1617.41763	1565.2875
1620.7259	1559.0875
1624.03199	1554.8875
1627.33587	1552.5875
1630.63757	1559.3875
1633.93707	1559.6875
1637.23439	1555.8875
1640.52951	1558.6875
1643.82246	1557.1875
1647.11321	1566.7875
1650.40179	1565.1875
1653.68819	1545.4875
1656.97241	1514.8875
1660.25446	1461.7875
1663.53433	1436.0875
1666.81203	1395.3875
1670.08756	1374.0875
1673.36092	1348.7875
1676.63211	1321.9875
1679.90115	1302.8875
1683.16801	1272.0875
1686.43272	1253.9875
1689.69527	1245.0875
1692.95567	1221.0875
1696.2139	1204.4875
1699.46999	1188.2875
1702.72392	1164.4875
1705.97571	1171.1875
1709.22535	1162.0875
1712.47284	1152.6875
1715.71819	1151.3875
1718.96139	1144.2875
1722.20246	1136.4875
1725.44139	1133.4875
1728.67818	1136.2875
1731.91284	1127.4875
1735.14537	1126.1875
1738.37576	1128.2875
1741.60403	1122.2875
1744.83017	1143.4875
1748.05418	1151.1875
1751.27607	1182.6875
1754.49584	1215.3875
1757.71349	1235.5875
1760.92903	1244.2875
1764.14244	1227.9875
1767.35375	1204.2875
1770.56294	1162.6875
1773.77002	1126.2875
1776.97499	1106.0875
1780.17785	1083.2875
1783.37861	1067.3875
1786.57727	1062.0875
1789.77382	1042.1875
1792.96828	1028.1875
1796.16064	1012.6875
1799.3509	1003.5875
1802.53907	983.8875
1805.72514	974.0875
1808.90913	970.4875
1812.09102	965.5875
1815.27083	965.2875
1818.44856	951.0875
1821.6242	945.1875
1824.79776	948.6875
1827.96924	948.5875
1831.13864	949.1875
1834.30597	946.1875
1837.47122	946.0875
1840.6344	939.1875
1843.7955	933.9875
1846.95454	938.4875
1850.11151	935.1875
1853.26642	928.4875
1856.41926	931.0875
1859.57004	930.7875
1862.71876	922.0875
1865.86542	922.9875
1869.01003	920.9875
1872.15258	924.6875
1875.29308	921.9875
1878.43152	917.1875
1881.56792	918.4875
1884.70227	912.0875
1887.83457	913.2875
1890.96482	913.7875
1894.09304	914.0875
1897.21921	910.9875
1900.34335	909.3875
1903.46544	910.0875
1906.58551	894.1875
1909.70353	898.5875
1912.81953	907.2875
1915.93349	901.9875
1919.04543	899.2875
1922.15534	902.9875
1925.26322	904.4875
1928.36908	898.2875
1931.47292	892.2875
1934.57473	893.1875
1937.67453	886.5875
1940.77232	885.8875
1943.86808	887.7875
1946.96184	886.6875
1950.05358	881.5875
1953.14331	881.7875
1956.23103	866.0875
1959.31675	877.9875
1962.40046	864.1875
1965.48217	858.8875
1968.56188	862.1875
1971.63959	860.8875
1974.7153	861.8875
1977.78901	852.7875
1980.86073	857.7875
1983.93046	848.2875
1986.99819	845.7875
1990.06394	842.0875
1993.1277	846.3875
1996.18947	838.5875
1999.24925	840.7875
2002.30706	834.8875
2005.36288	831.7875
2008.41672	830.2875
2011.46859	825.0875
2014.51848	824.4875
2017.56639	817.6875
2020.61233	816.9875
2023.6563	821.4875
2026.6983	821.8875
2029.73833	809.4875
2032.7764	810.8875
2035.8125	811.2875
2038.84664	805.3875
2041.87881	807.9875
2044.90903	806.2875
2047.93729	808.1875
2050.96359	811.3875
2053.98794	813.9875
2057.01034	809.8875
2060.03078	823.1875
2063.04927	820.5875
2066.06582	821.8875
2069.08042	827.9875
2072.09307	831.1875
2075.10378	832.6875
2078.11255	835.3875
2081.11938	844.6875
2084.12426	847.1875
2087.12722	850.6875
2090.12824	856.2875
2093.12732	863.6875
2096.12447	861.6875
2099.11969	861.4875
2102.11299	865.1875
2105.10435	877.4875
2108.09379	873.3875
2111.08131	868.7875
2114.0669	872.0875
2117.05057	865.9875
2120.03233	867.9875
2123.01216	858.4875
2125.99008	852.6875
2128.96609	854.3875
2131.94018	850.8875
2134.91236	848.7875
2137.88263	846.1875
2140.851	837.4875
2143.81746	831.1875
2146.78201	828.6875
2149.74466	822.3875
2152.7054	813.7875
2155.66425	808.5875
2158.6212	804.4875
2161.57625	799.4875
2164.52941	795.5875
2167.48067	795.4875
2170.43004	789.1875
2173.37752	787.6875
2176.32311	785.4875
2179.26681	774.6875
2182.20863	779.7875
2185.14856	783.6875
2188.08661	772.3875
2191.02278	769.6875
2193.95707	779.3875
2196.88948	770.7875
2199.82001	775.5875
2202.74867	765.3875
2205.67545	765.5875
2208.60037	775.3875
2211.52341	766.0875
2214.44458	765.4875
2217.36388	753.3875
2220.28132	764.5875
2223.1969	753.9875
2226.11061	752.9875
2229.02246	751.4875
2231.93245	745.6875
2234.84058	751.8875
2237.74686	754.8875
2240.65128	747.5875
2243.55385	742.9875
2246.45456	750.4875
2249.35343	742.9875
2252.25044	743.9875
2255.14561	739.8875
2258.03893	736.2875
2260.93041	734.6875
2263.82004	733.1875
2266.70783	729.7875
2269.59378	732.7875
2272.4779	726.9875
2275.36017	726.8875
2278.24061	728.7875
2281.11922	726.3875
2283.996	717.8875
2286.87094	720.6875
2289.74405	715.8875
2292.61534	711.7875
2295.4848	717.7875
2298.35243	720.4875
2301.21824	708.7875
2304.08223	711.7875
2306.94439	709.1875
2309.80474	705.0875
2312.66327	707.4875
2315.51999	705.8875
2318.37489	701.3875
2321.22797	697.4875
2324.07925	694.2875
2326.92871	702.6875
2329.77637	706.3875
2332.62222	697.4875
2335.46626	702.4875
2338.3085	692.8875
2341.14893	695.2875
2343.98756	693.5875
2346.8244	683.8875
2349.65943	685.8875
2352.49267	684.3875
2355.32411	680.6875
2358.15376	687.1875
2360.98161	683.4875
2363.80768	686.5875
2366.63195	684.5875
2369.45444	684.9875
2372.27514	683.8875
2375.09405	679.5875
2377.91118	682.1875
2380.72652	680.8875
2383.54009	679.0875
2386.35187	671.9875
2389.16188	677.2875
2391.97011	663.6875
2394.77657	672.8875
2397.58125	672.1875
2400.38416	674.3875
2403.18529	665.4875
2405.98466	664.8875
2408.78226	657.6875
2411.57809	665.5875
2414.37216	663.2875
2417.16446	665.5875
2419.955	660.0875
2422.74378	661.4875
2425.5308	657.5875
2428.31606	652.9875
2431.09956	659.3875
2433.88131	651.6875
2436.6613	656.4875
2439.43954	653.6875
2442.21603	645.6875
2444.99077	653.0875
2447.76377	653.3875
2450.53501	646.5875
2453.30451	649.1875
2456.07226	648.8875
2458.83827	644.0875
2461.60254	639.1875
2464.36507	648.5875
2467.12586	635.6875
2469.88492	644.4875
2472.64224	641.6875
2475.39782	638.4875
2478.15167	644.4875
2480.90379	639.2875
2483.65417	636.1875
2486.40283	633.0875
2489.14976	639.2875
2491.89497	637.4875
2494.63845	641.8875
2497.3802	635.0875
2500.12024	629.9875
2502.85855	633.7875
2505.59514	636.4875
2508.33002	634.1875
2511.06318	629.8875
2513.79462	630.1875
2516.52435	636.3875
2519.25237	632.3875
2521.97867	618.0875
2524.70327	631.9875
2527.42616	626.4875
2530.14734	620.3875
2532.86681	621.7875
2535.58458	621.1875
2538.30065	615.6875
2541.01501	613.5875
2543.72768	620.2875
2546.43864	620.1875
2549.14791	619.1875
2551.85548	609.9875
2554.56136	609.6875
2557.26554	605.7875
2559.96803	615.8875
2562.66883	614.5875
2565.36794	609.5875
2568.06536	608.6875
2570.7611	609.5875
2573.45514	603.9875
2576.14751	605.4875
2578.83819	605.1875
2581.52719	606.3875
2584.21451	602.4875
2586.90015	600.3875
2589.58411	603.7875
2592.2664	600.6875
2594.94701	598.4875
2597.62594	600.1875
2600.30321	600.4875
2602.9788	594.4875
2605.65273	588.6875
2608.32498	591.3875
2610.99557	584.0875
2613.66449	586.1875
2616.33175	584.3875
2618.99734	591.4875
2621.66128	581.3875
2624.32355	587.7875
2626.98416	581.7875
2629.64311	583.0875
2632.30041	585.8875
2634.95605	590.3875
2637.61004	586.3875
2640.26238	589.2875
2642.91306	578.0875
2645.56209	582.5875
2648.20948	578.5875
2650.85521	575.3875
2653.4993	576.6875
2656.14175	582.7875
2658.78255	581.6875
2661.42171	580.5875
2664.05923	580.4875
2666.6951	576.8875
2669.32934	583.0875
2671.96194	578.1875
2674.59291	584.6875
2677.22224	584.0875
2679.84993	585.6875
2682.476	582.8875
2685.10043	588.2875
2687.72324	576.3875
2690.34441	586.7875
2692.96396	583.7875
2695.58188	585.2875
2698.19818	579.3875
2700.81285	581.3875
2703.4259	587.9875
2706.03733	593.3875
2708.64714	589.4875
2711.25533	587.8875
2713.86191	589.0875
2716.46687	588.4875
2719.07021	592.5875
2721.67194	589.4875
2724.27206	588.8875
2726.87057	582.8875
2729.46747	591.0875
2732.06276	589.1875
2734.65644	586.5875
2737.24852	586.7875
2739.83899	583.3875
2742.42786	578.9875
2745.01513	581.2875
2747.60079	580.2875
2750.18486	583.6875
2752.76733	580.0875
2755.3482	577.0875
2757.92747	578.6875
2760.50515	577.1875
2763.08123	582.7875
2765.65573	579.0875
2768.22863	575.8875
2770.79994	573.7875
2773.36967	570.6875
2775.9378	576.9875
2778.50435	574.1875
2781.06932	567.4875
2783.6327	573.3875
2786.1945	574.5875
2788.75471	576.3875
2791.31335	568.2875
2793.87041	568.9875
2796.42589	567.0875
2798.97979	566.4875
2801.53212	572.5875
2804.08288	577.7875
2806.63206	574.8875
2809.17967	576.5875
2811.72571	577.9875
2814.27018	577.4875
2816.81308	577.2875
2819.35442	576.6875
2821.89419	576.9875
2824.43239	574.7875
2826.96904	575.6875
2829.50412	576.0875
2832.03763	569.1875
2834.56959	573.3875
2837.1	573.7875
2839.62884	574.7875
2842.15613	570.4875
2844.68186	578.4875
2847.20604	582.3875
2849.72867	583.7875
2852.24974	583.8875
2854.76927	584.5875
2857.28724	587.9875
2859.80367	581.8875
2862.31855	577.3875
2864.83189	590.2875
2867.34368	584.8875
2869.85393	585.0875
2872.36264	590.7875
2874.8698	593.4875
2877.37543	598.6875
2879.87952	606.7875
2882.38207	606.7875
2884.88308	607.1875
2887.38256	621.6875
2889.88051	619.7875
2892.37692	631.7875
2894.8718	630.2875
2897.36515	644.1875
2899.85698	654.5875
2902.34727	654.6875
2904.83604	662.7875
2907.32328	669.8875
2909.809	675.2875
2912.29319	684.1875
2914.77587	695.4875
2917.25702	704.3875
2919.73665	716.2875
2922.21476	724.7875
2924.69136	731.5875
2927.16644	747.2875
2929.64	744.2875
2932.11205	765.2875
2934.58258	762.5875
2937.05161	777.1875
2939.51912	785.5875
2941.98513	786.8875
2944.44962	783.1875
2946.91261	793.1875
2949.37409	794.2875
2951.83407	782.5875
2954.29254	773.6875
2956.74951	768.8875
2959.20498	754.0875
2961.65895	738.9875
2964.11142	736.1875
2966.56239	715.9875
2969.01186	704.9875
2971.45984	695.3875
2973.90632	687.6875
2976.35131	675.3875
2978.7948	665.6875
2981.23681	661.6875
2983.67732	649.2875
2986.11635	643.7875
2988.55388	642.7875
2990.98993	638.3875
2993.4245	637.4875
2995.85758	633.8875
2998.28917	632.0875
3000.71928	634.6875
3003.14791	629.6875
3005.57506	630.2875
3008.00073	628.6875
3010.42493	624.2875
3012.84764	629.3875
3015.26888	628.8875
3017.68865	632.4875
3020.10694	622.3875
3022.52376	618.9875
3024.9391	620.3875
3027.35298	618.4875
3029.76539	609.9875
3032.17632	606.2875
3034.5858	605.8875
3036.9938	604.9875
3039.40034	596.0875
3041.80542	596.3875
3044.20903	594.3875
3046.61118	592.3875
3049.01187	584.6875
3051.4111	588.5875
3053.80888	581.5875
3056.20519	587.2875
3058.60005	584.9875
3060.99345	592.2875
3063.3854	587.3875
3065.7759	589.0875
3068.16494	584.4875
3070.55254	584.5875
3072.93868	592.3875
3075.32338	591.3875
3077.70662	587.8875
3080.08842	591.7875
3082.46878	597.9875
3084.84769	596.7875
3087.22515	600.6875
3089.60118	607.2875
3091.97576	610.6875
3094.3489	613.4875
3096.72061	609.6875
3099.09087	609.9875
3101.4597	617.5875
3103.82709	621.5875
3106.19305	622.6875
3108.55757	630.9875
3110.92066	631.0875
3113.28232	628.7875
3115.64255	631.0875
3118.00134	638.2875
3120.35871	637.5875
3122.71466	636.6875
3125.06917	643.2875
3127.42226	650.7875
3129.77393	655.1875
3132.12417	655.6875
3134.47299	661.9875
3136.82039	674.0875
3139.16636	671.8875
3141.51092	669.7875
3143.85406	679.5875
3146.19579	684.1875
3148.53609	680.7875
3150.87499	694.1875
3153.21246	698.5875
3155.54853	703.0875
3157.88318	708.4875
3160.21642	708.0875
3162.54826	711.7875
3164.87868	718.4875
3167.2077	724.6875
3169.5353	728.0875
3171.86151	729.8875
3174.18631	738.8875
3176.5097	737.5875
3178.83169	741.3875
3181.15228	748.7875
3183.47147	744.8875
