Data from AgNPs_FTO_APTES_UA_1um_CRN_0.1mM_R6G_10uM_NaF_0.1M_Addition_RamanShift__23__12-00-59-014.txt Node

Date: Tue Dec 21 12:00:59 GMT 2021
User: TCL
Spectrometer: QEP01345
Trigger mode: 4
Integration Time (sec): 7.000000E0
Scans to average: 10
Electric dark correction enabled: true
Nonlinearity correction enabled: false
Boxcar width: 0
XAxis mode: Raman Shifts
Number of Pixels in Spectrum: 1044
>>>>>Begin Spectral Data<<<<<
46.04893	-1.275
50.45542	0.025
54.85868	-1.075
59.25871	-0.175
63.6555	43.825
68.04907	50.225
72.43941	48.425
76.82654	53.025
81.21044	59.625
85.59113	58.425
89.96862	59.725
94.34289	63.125
98.71396	63.625
103.08183	66.825
107.4465	68.525
111.80798	67.225
116.16626	72.225
120.52136	75.725
124.87327	75.225
129.222	78.125
133.56755	85.325
137.90993	91.625
142.24913	95.625
146.58517	108.925
150.91804	123.725
155.24774	144.625
159.57429	176.425
163.89768	229.625
168.21792	293.725
172.53501	395.525
176.84895	546.025
181.15975	764.325
185.46741	1065.725
189.77193	1457.325
194.07331	1960.025
198.37157	2525.325
202.6667	3131.925
206.9587	3721.425
211.24758	4326.525
215.53334	4928.125
219.81599	5562.425
224.09553	6285.625
228.37195	7079.825
232.64527	7933.625
236.91549	8798.825
241.18261	9663.525
245.44663	10463.825
249.70755	11174.225
253.96539	11754.025
258.22014	12264.625
262.4718	12646.125
266.72039	12913.225
270.96589	12980.325
275.20832	12960.325
279.44768	12855.625
283.68397	12758.725
287.91719	12638.625
292.14735	12581.025
296.37445	12562.225
300.59849	12552.425
304.81948	12581.625
309.03742	12519.225
313.25231	12403.725
317.46415	12169.825
321.67296	11791.825
325.87872	11528.825
330.08145	11380.025
334.28114	11393.725
338.47781	11481.425
342.67145	11601.425
346.86207	11775.825
351.04966	12003.025
355.23424	12259.225
359.4158	12484.925
363.59435	12656.525
367.76989	12758.425
371.94243	12817.225
376.11196	12842.925
380.27849	12918.625
384.44203	12989.525
388.60257	13085.725
392.76012	13182.625
396.91468	13394.925
401.06626	13637.725
405.21485	13816.825
409.36047	13792.325
413.50311	13616.125
417.64277	13436.125
421.77947	13450.925
425.9132	13555.825
430.04396	13706.325
434.17176	13865.025
438.2966	14066.725
442.41849	14516.725
446.53742	15147.925
450.6534	15871.625
454.76644	16288.025
458.87653	16271.625
462.98368	15919.725
467.08789	15429.125
471.18916	15092.125
475.2875	14846.925
479.38291	14745.425
483.4754	14634.025
487.56496	14477.625
491.6516	14169.325
495.73531	13909.825
499.81612	13793.525
503.89401	13826.225
507.96899	13825.225
512.04106	13716.925
516.11023	13484.425
520.1765	13281.425
524.23987	13184.125
528.30034	13135.525
532.35792	13140.225
536.41261	12964.525
540.46441	12710.225
544.51333	12547.425
548.55936	12609.225
552.60252	12896.725
556.64279	13296.025
560.6802	13697.725
564.71473	13982.225
568.7464	14329.125
572.7752	14779.325
576.80114	15084.525
580.82422	15320.225
584.84444	15643.525
588.86181	16264.125
592.87633	17309.325
596.888	18005.625
600.89682	17847.625
604.9028	17558.125
608.90594	18220.625
612.90624	19083.525
616.90371	17583.225
620.89834	14410.225
624.89015	12990.725
628.87913	12897.125
632.86528	13085.225
636.84862	13138.625
640.82913	12897.025
644.80683	12494.125
648.78172	12169.025
652.75379	12048.525
656.72306	12123.425
660.68952	12284.225
664.65319	12278.225
668.61405	12114.925
672.57211	12137.325
676.52738	12217.525
680.47986	12240.225
684.42955	12100.525
688.37646	11945.625
692.32058	11892.125
696.26192	11967.925
700.20048	12071.925
704.13626	12225.425
708.06928	12186.325
711.99952	12093.625
715.927	11976.625
719.85171	11961.425
723.77365	11976.425
727.69284	11877.925
731.60928	11789.425
735.52295	11802.625
739.43388	11854.425
743.34206	11873.025
747.24749	11954.925
751.15017	12069.925
755.05012	12258.925
758.94733	12686.025
762.8418	13445.725
766.73354	14647.825
770.62254	15804.825
774.50882	16066.125
778.39237	15221.925
782.27321	13899.125
786.15132	12751.225
790.02671	12004.325
793.89938	11630.125
797.76935	11510.425
801.6366	11492.025
805.50115	11470.425
809.36299	11410.725
813.22213	11285.125
817.07857	11204.925
820.93231	11143.125
824.78336	11065.225
828.63172	11045.325
832.47738	11061.425
836.32036	11034.925
840.16066	11032.225
843.99827	11025.125
847.8332	10978.225
851.66546	10932.225
855.49504	10937.225
859.32195	10971.225
863.1462	10969.125
866.96777	10954.325
870.78668	10915.425
874.60293	10871.725
878.41652	10879.225
882.22745	10908.025
886.03573	10923.125
889.84136	10940.225
893.64433	10907.925
897.44466	10826.425
901.24235	10741.125
905.0374	10657.325
908.8298	10586.725
912.61957	10542.325
916.40671	10638.725
920.19121	10824.825
923.97308	11041.625
927.75233	11133.925
931.52895	11096.125
935.30295	10938.125
939.07433	10640.725
942.84309	10421.625
946.60924	10291.425
950.37278	10222.125
954.13371	10204.325
957.89203	10148.225
961.64774	10119.825
965.40086	10072.825
969.15137	10030.725
972.89929	9960.125
976.64461	9895.725
980.38733	9877.425
984.12747	9889.725
987.86502	9947.625
991.59999	10099.125
995.33237	10321.525
999.06217	10712.225
1002.78939	11251.925
1006.51404	11705.325
1010.23611	11959.625
1013.95561	12073.025
1017.67255	12052.425
1021.38692	11774.625
1025.09872	11411.225
1028.80796	11157.525
1032.51465	11231.225
1036.21877	11429.125
1039.92035	11508.825
1043.61937	11475.325
1047.31584	11333.925
1051.00976	11132.225
1054.70114	11043.225
1058.38998	11014.525
1062.07627	11005.325
1065.76003	11077.025
1069.44126	11209.025
1073.11995	11378.425
1076.79611	11558.425
1080.46974	11587.925
1084.14085	11689.125
1087.80943	11872.125
1091.47549	12021.025
1095.13903	12059.125
1098.80005	11838.825
1102.45857	11493.325
1106.11456	11235.325
1109.76805	11159.525
1113.41903	11222.325
1117.06751	11341.825
1120.71348	11552.625
1124.35696	11757.625
1127.99793	11978.025
1131.63641	12122.725
1135.2724	12079.825
1138.90589	11990.525
1142.5369	11937.425
1146.16542	11931.525
1149.79145	11996.625
1153.415	12067.325
1157.03607	12283.025
1160.65467	12663.925
1164.27079	13288.525
1167.88443	14306.025
1171.49561	15565.525
1175.10432	17260.925
1178.71056	19366.825
1182.31434	21233.625
1185.91565	22073.325
1189.51451	21766.825
1193.11091	20779.925
1196.70485	19628.425
1200.29634	18415.625
1203.88538	17373.225
1207.47197	16602.525
1211.05612	16067.725
1214.63782	15704.225
1218.21708	15663.525
1221.79391	15820.025
1225.36829	16024.525
1228.94024	15786.725
1232.50976	15253.825
1236.07685	14715.825
1239.6415	14355.325
1243.20374	14223.125
1246.76355	14198.325
1250.32093	14369.225
1253.8759	14709.925
1257.42845	15205.825
1260.97859	15716.225
1264.52631	16274.425
1268.07163	16822.625
1271.61453	17395.325
1275.15503	17990.625
1278.69312	18643.425
1282.22882	19317.225
1285.76211	20093.125
1289.29301	20918.825
1292.82151	22000.625
1296.34761	23355.525
1299.87133	24963.025
1303.39266	26810.625
1306.9116	28907.225
1310.42815	31148.425
1313.94233	32866.625
1317.45412	33358.125
1320.96354	32746.525
1324.47058	31656.125
1327.97525	30616.025
1331.47754	29671.025
1334.97747	29041.525
1338.47502	28773.225
1341.97022	28424.925
1345.46305	27722.025
1348.95352	27040.225
1352.44163	26879.525
1355.92738	27627.625
1359.41078	29029.225
1362.89183	30408.325
1366.37053	30356.925
1369.84688	28275.225
1373.32088	24959.325
1376.79254	22291.825
1380.26186	21006.525
1383.72883	20689.725
1387.19347	20542.625
1390.65578	20431.825
1394.11575	20658.425
1397.57339	21507.425
1401.0287	22667.725
1404.48168	23705.025
1407.93234	24346.125
1411.38068	24206.325
1414.82669	23452.125
1418.27039	22160.125
1421.71177	20668.125
1425.15083	19373.725
1428.58758	18614.825
1432.02203	18495.625
1435.45416	18850.025
1438.88399	19421.225
1442.31151	19973.625
1445.73673	20480.025
1449.15965	21007.325
1452.58027	21299.925
1455.9986	21283.025
1459.41463	21334.025
1462.82837	21778.525
1466.23982	22525.925
1469.64898	23237.425
1473.05586	23594.925
1476.46045	23645.025
1479.86276	23497.825
1483.26279	23203.425
1486.66054	22890.025
1490.05602	22818.225
1493.44922	22620.525
1496.84016	22269.125
1500.22882	21847.425
1503.61521	21760.625
1506.99934	22039.725
1510.38121	22385.825
1513.76081	22380.525
1517.13816	21811.325
1520.51324	20849.825
1523.88607	20017.825
1527.25665	19653.625
1530.62498	19556.525
1533.99105	19667.725
1537.35488	19755.825
1540.71647	19659.725
1544.07581	19358.125
1547.4329	18926.025
1550.78776	18461.125
1554.14038	18023.425
1557.49077	17782.925
1560.83892	17644.125
1564.18484	17559.125
1567.52853	17544.925
1570.86999	17632.925
1574.20922	17825.225
1577.54624	17979.025
1580.88103	17977.925
1584.2136	18016.525
1587.54395	18630.825
1590.87208	19981.725
1594.19801	22020.425
1597.52172	24252.025
1600.84321	25591.225
1604.16251	24968.125
1607.47959	22726.025
1610.79447	19869.225
1614.10715	17199.825
1617.41763	15207.625
1620.7259	13920.725
1624.03199	13291.125
1627.33587	13187.925
1630.63757	13586.125
1633.93707	14676.525
1637.23439	16578.525
1640.52951	19475.325
1643.82246	23140.225
1647.11321	26340.425
1650.40179	27323.225
1653.68819	25277.225
1656.97241	21392.125
1660.25446	17430.025
1663.53433	14456.325
1666.81203	12535.725
1670.08756	11378.525
1673.36092	10673.725
1676.63211	10251.425
1679.90115	9918.825
1683.16801	9669.825
1686.43272	9507.125
1689.69527	9377.725
1692.95567	9289.025
1696.2139	9230.125
1699.46999	9164.725
1702.72392	9115.825
1705.97571	9082.425
1709.22535	9018.725
1712.47284	8990.125
1715.71819	8959.825
1718.96139	8902.625
1722.20246	8870.825
1725.44139	8831.225
1728.67818	8775.825
1731.91284	8726.925
1735.14537	8681.925
1738.37576	8649.725
1741.60403	8610.125
1744.83017	8588.225
1748.05418	8598.325
1751.27607	8588.125
1754.49584	8574.725
1757.71349	8570.625
1760.92903	8549.625
1764.14244	8486.225
1767.35375	8441.525
1770.56294	8419.825
1773.77002	8384.025
1776.97499	8346.325
1780.17785	8303.325
1783.37861	8273.525
1786.57727	8248.525
1789.77382	8213.825
1792.96828	8192.725
1796.16064	8180.325
1799.3509	8135.925
1802.53907	8131.825
1805.72514	8089.825
1808.90913	8066.125
1812.09102	8045.225
1815.27083	8009.725
1818.44856	8011.125
1821.6242	8007.725
1824.79776	7986.425
1827.96924	7990.125
1831.13864	7957.825
1834.30597	7958.725
1837.47122	7934.825
1840.6344	7951.525
1843.7955	7953.225
1846.95454	7973.525
1850.11151	7948.825
1853.26642	7952.525
1856.41926	7933.425
1859.57004	7951.125
1862.71876	7935.325
1865.86542	7969.025
1869.01003	7947.025
1872.15258	7952.725
1875.29308	7956.925
1878.43152	7946.125
1881.56792	7947.425
1884.70227	7927.925
1887.83457	7948.325
1890.96482	7941.825
1894.09304	7938.425
1897.21921	7959.525
1900.34335	7938.125
1903.46544	7935.525
1906.58551	7941.425
1909.70353	7920.625
1912.81953	7907.025
1915.93349	7876.125
1919.04543	7849.325
1922.15534	7831.625
1925.26322	7818.525
1928.36908	7764.125
1931.47292	7753.025
1934.57473	7718.425
1937.67453	7672.925
1940.77232	7655.325
1943.86808	7634.225
1946.96184	7590.325
1950.05358	7554.525
1953.14331	7534.525
1956.23103	7490.025
1959.31675	7470.525
1962.40046	7462.025
1965.48217	7444.825
1968.56188	7408.125
1971.63959	7369.325
1974.7153	7353.225
1977.78901	7307.925
1980.86073	7282.325
1983.93046	7286.725
1986.99819	7248.225
1990.06394	7214.925
1993.1277	7206.025
1996.18947	7169.925
1999.24925	7149.625
2002.30706	7128.225
2005.36288	7108.225
2008.41672	7097.325
2011.46859	7086.725
2014.51848	7055.425
2017.56639	7039.325
2020.61233	7008.725
2023.6563	6989.625
2026.6983	6989.925
2029.73833	6972.825
2032.7764	6953.725
2035.8125	6970.125
2038.84664	6928.125
2041.87881	6949.525
2044.90903	6905.425
2047.93729	6896.925
2050.96359	6908.425
2053.98794	6896.925
2057.01034	6881.025
2060.03078	6866.625
2063.04927	6839.625
2066.06582	6842.125
2069.08042	6843.725
2072.09307	6843.625
2075.10378	6843.425
2078.11255	6818.725
2081.11938	6822.025
2084.12426	6791.225
2087.12722	6798.925
2090.12824	6800.325
2093.12732	6793.625
2096.12447	6779.825
2099.11969	6781.925
2102.11299	6768.725
2105.10435	6763.125
2108.09379	6777.925
2111.08131	6786.525
2114.0669	6770.925
2117.05057	6765.525
2120.03233	6758.025
2123.01216	6755.625
2125.99008	6763.325
2128.96609	6781.525
2131.94018	6772.225
2134.91236	6772.125
2137.88263	6776.025
2140.851	6758.625
2143.81746	6762.125
2146.78201	6750.725
2149.74466	6750.325
2152.7054	6762.225
2155.66425	6739.625
2158.6212	6750.125
2161.57625	6756.025
2164.52941	6758.725
2167.48067	6724.625
2170.43004	6739.925
2173.37752	6722.425
2176.32311	6729.025
2179.26681	6727.325
2182.20863	6718.625
2185.14856	6714.925
2188.08661	6730.125
2191.02278	6715.625
2193.95707	6725.625
2196.88948	6707.525
2199.82001	6723.825
2202.74867	6686.625
2205.67545	6688.425
2208.60037	6667.825
2211.52341	6679.525
2214.44458	6669.325
2217.36388	6637.025
2220.28132	6626.525
2223.1969	6622.525
2226.11061	6615.625
2229.02246	6587.425
2231.93245	6602.625
2234.84058	6589.725
2237.74686	6580.925
2240.65128	6574.125
2243.55385	6557.125
2246.45456	6558.125
2249.35343	6530.925
2252.25044	6519.825
2255.14561	6524.925
2258.03893	6490.425
2260.93041	6495.625
2263.82004	6472.925
2266.70783	6417.225
2269.59378	6403.325
2272.4779	6379.625
2275.36017	6338.925
2278.24061	6359.725
2281.11922	6349.125
2283.996	6329.225
2286.87094	6305.925
2289.74405	6315.725
2292.61534	6317.125
2295.4848	6298.325
2298.35243	6301.625
2301.21824	6260.825
2304.08223	6288.125
2306.94439	6281.725
2309.80474	6278.725
2312.66327	6270.925
2315.51999	6264.825
2318.37489	6294.225
2321.22797	6263.825
2324.07925	6246.825
2326.92871	6251.025
2329.77637	6262.525
2332.62222	6243.525
2335.46626	6237.625
2338.3085	6241.925
2341.14893	6255.125
2343.98756	6255.625
2346.8244	6246.125
2349.65943	6246.725
2352.49267	6234.825
2355.32411	6258.825
2358.15376	6233.125
2360.98161	6223.425
2363.80768	6233.125
2366.63195	6216.225
2369.45444	6218.525
2372.27514	6211.425
2375.09405	6177.625
2377.91118	6164.325
2380.72652	6161.125
2383.54009	6143.825
2386.35187	6126.725
2389.16188	6096.425
2391.97011	6111.925
2394.77657	6101.925
2397.58125	6066.725
2400.38416	6062.725
2403.18529	6056.925
2405.98466	6052.425
2408.78226	6046.425
2411.57809	6038.425
2414.37216	6010.125
2417.16446	6008.325
2419.955	6006.325
2422.74378	5992.925
2425.5308	5986.325
2428.31606	5980.425
2431.09956	5981.125
2433.88131	5977.525
2436.6613	5972.725
2439.43954	5958.225
2442.21603	5947.525
2444.99077	5948.125
2447.76377	5966.125
2450.53501	5956.525
2453.30451	5957.725
2456.07226	5964.225
2458.83827	5969.425
2461.60254	5942.625
2464.36507	5963.125
2467.12586	5959.625
2469.88492	5956.125
2472.64224	5947.925
2475.39782	5959.525
2478.15167	5985.125
2480.90379	5978.625
2483.65417	5978.925
2486.40283	5980.625
2489.14976	5994.325
2491.89497	5982.325
2494.63845	5998.125
2497.3802	6011.225
2500.12024	5990.425
2502.85855	5997.025
2505.59514	5975.025
2508.33002	5969.025
2511.06318	5957.825
2513.79462	5970.825
2516.52435	5941.125
2519.25237	5965.425
2521.97867	5920.125
2524.70327	5934.925
2527.42616	5932.325
2530.14734	5922.325
2532.86681	5905.225
2535.58458	5904.225
2538.30065	5902.525
2541.01501	5901.925
2543.72768	5890.725
2546.43864	5880.725
2549.14791	5889.925
2551.85548	5889.225
2554.56136	5850.325
2557.26554	5862.725
2559.96803	5874.925
2562.66883	5858.325
2565.36794	5860.025
2568.06536	5850.025
2570.7611	5848.325
2573.45514	5846.325
2576.14751	5870.325
2578.83819	5849.925
2581.52719	5871.625
2584.21451	5852.625
2586.90015	5856.425
2589.58411	5852.025
2592.2664	5846.425
2594.94701	5831.425
2597.62594	5840.825
2600.30321	5838.725
2602.9788	5829.325
2605.65273	5834.625
2608.32498	5826.025
2610.99557	5843.025
2613.66449	5831.425
2616.33175	5832.825
2618.99734	5851.725
2621.66128	5833.325
2624.32355	5839.325
2626.98416	5854.025
2629.64311	5850.625
2632.30041	5863.725
2634.95605	5854.325
2637.61004	5836.725
2640.26238	5851.125
2642.91306	5846.125
2645.56209	5836.025
2648.20948	5836.725
2650.85521	5845.025
2653.4993	5826.025
2656.14175	5829.325
2658.78255	5859.125
2661.42171	5839.225
2664.05923	5848.425
2666.6951	5845.125
2669.32934	5867.525
2671.96194	5862.725
2674.59291	5870.325
2677.22224	5853.125
2679.84993	5877.625
2682.476	5851.625
2685.10043	5845.925
2687.72324	5823.725
2690.34441	5833.125
2692.96396	5826.625
2695.58188	5839.425
2698.19818	5823.925
2700.81285	5817.425
2703.4259	5841.525
2706.03733	5894.125
2708.64714	5872.425
2711.25533	5855.225
2713.86191	5850.825
2716.46687	5848.625
2719.07021	5869.025
2721.67194	5853.625
2724.27206	5843.925
2726.87057	5879.925
2729.46747	5860.725
2732.06276	5875.625
2734.65644	5858.525
2737.24852	5860.925
2739.83899	5865.225
2742.42786	5863.725
2745.01513	5855.425
2747.60079	5858.725
2750.18486	5865.825
2752.76733	5845.325
2755.3482	5852.525
2757.92747	5881.225
2760.50515	5863.225
2763.08123	5889.625
2765.65573	5876.025
2768.22863	5904.625
2770.79994	5887.425
2773.36967	5882.825
2775.9378	5906.725
2778.50435	5893.525
2781.06932	5899.925
2783.6327	5896.225
2786.1945	5895.425
2788.75471	5895.825
2791.31335	5879.525
2793.87041	5868.325
2796.42589	5852.025
2798.97979	5865.825
2801.53212	5842.125
2804.08288	5846.425
2806.63206	5851.725
2809.17967	5837.725
2811.72571	5814.725
2814.27018	5824.425
2816.81308	5815.025
2819.35442	5815.025
2821.89419	5805.325
2824.43239	5834.325
2826.96904	5813.625
2829.50412	5825.825
2832.03763	5809.325
2834.56959	5795.525
2837.1	5788.625
2839.62884	5800.325
2842.15613	5772.025
2844.68186	5791.125
2847.20604	5789.825
2849.72867	5783.625
2852.24974	5783.425
2854.76927	5768.925
2857.28724	5776.325
2859.80367	5768.225
2862.31855	5744.425
2864.83189	5757.225
2867.34368	5742.925
2869.85393	5765.125
2872.36264	5762.325
2874.8698	5743.425
2877.37543	5771.825
2879.87952	5756.225
2882.38207	5782.225
2884.88308	5772.025
2887.38256	5784.525
2889.88051	5797.625
2892.37692	5813.525
2894.8718	5799.825
2897.36515	5827.425
2899.85698	5828.325
2902.34727	5840.225
2904.83604	5851.425
2907.32328	5870.325
2909.809	5877.725
2912.29319	5890.425
2914.77587	5891.125
2917.25702	5891.725
2919.73665	5898.925
2922.21476	5894.225
2924.69136	5886.125
2927.16644	5880.325
2929.64	5882.625
2932.11205	5883.425
2934.58258	5878.725
2937.05161	5889.125
2939.51912	5882.725
2941.98513	5873.025
2944.44962	5846.625
2946.91261	5846.325
2949.37409	5836.025
2951.83407	5833.025
2954.29254	5812.925
2956.74951	5809.125
2959.20498	5793.925
2961.65895	5770.425
2964.11142	5724.325
2966.56239	5709.625
2969.01186	5704.825
2971.45984	5666.325
2973.90632	5654.025
2976.35131	5629.025
2978.7948	5607.725
2981.23681	5577.725
2983.67732	5562.525
2986.11635	5550.025
2988.55388	5518.025
2990.98993	5507.425
2993.4245	5500.125
2995.85758	5501.025
2998.28917	5469.825
3000.71928	5478.725
3003.14791	5452.725
3005.57506	5458.825
3008.00073	5435.825
3010.42493	5434.225
3012.84764	5415.825
3015.26888	5425.625
3017.68865	5386.025
3020.10694	5394.125
3022.52376	5370.525
3024.9391	5360.625
3027.35298	5344.425
3029.76539	5344.525
3032.17632	5323.125
3034.5858	5304.125
3036.9938	5313.725
3039.40034	5291.725
3041.80542	5295.525
3044.20903	5281.325
3046.61118	5291.125
3049.01187	5263.525
3051.4111	5275.025
3053.80888	5238.625
3056.20519	5231.325
3058.60005	5237.525
3060.99345	5215.825
3063.3854	5200.725
3065.7759	5170.125
3068.16494	5149.625
3070.55254	5133.525
3072.93868	5128.125
3075.32338	5115.625
3077.70662	5089.025
3080.08842	5098.225
3082.46878	5107.125
3084.84769	5062.725
3087.22515	5077.025
3089.60118	5073.725
3091.97576	5085.725
3094.3489	5083.125
3096.72061	5087.325
3099.09087	5095.025
3101.4597	5065.325
3103.82709	5070.025
3106.19305	5045.525
3108.55757	5036.625
3110.92066	5029.125
3113.28232	5020.025
3115.64255	5016.925
3118.00134	5001.625
3120.35871	4999.525
3122.71466	4980.925
3125.06917	4966.025
3127.42226	4959.625
3129.77393	4986.925
3132.12417	4951.125
3134.47299	4970.525
3136.82039	4970.825
3139.16636	4959.625
3141.51092	4945.425
3143.85406	4953.925
3146.19579	4947.225
3148.53609	4936.825
3150.87499	4942.225
3153.21246	4926.125
3155.54853	4956.225
3157.88318	4937.025
3160.21642	4923.725
3162.54826	4936.925
3164.87868	4937.625
3167.2077	4931.825
3169.5353	4955.625
3171.86151	4932.625
3174.18631	4940.425
3176.5097	4933.725
3178.83169	4923.025
3181.15228	4939.225
3183.47147	4932.525
3185.78926	4918.725
3188.10565	4914.525
3190.42065	4936.025
