Data from AgNPs_FTO_APTES_UA_2um_CRN_0.1mM_R6G_10uM_NaF_0.1M_Addition_RamanShift__11__12-27-49-044.txt Node

Date: Tue Dec 21 12:27:49 GMT 2021
User: TCL
Spectrometer: QEP01345
Trigger mode: 4
Integration Time (sec): 7.000000E0
Scans to average: 10
Electric dark correction enabled: true
Nonlinearity correction enabled: false
Boxcar width: 0
XAxis mode: Raman Shifts
Number of Pixels in Spectrum: 1044
>>>>>Begin Spectral Data<<<<<
46.04893	0.275
50.45542	-2.125
54.85868	-0.225
59.25871	0.775
63.6555	42.775
68.04907	47.975
72.43941	48.975
76.82654	48.675
81.21044	57.775
85.59113	56.675
89.96862	57.075
94.34289	59.875
98.71396	59.875
103.08183	65.175
107.4465	67.875
111.80798	66.775
116.16626	69.775
120.52136	71.475
124.87327	72.975
129.222	73.975
133.56755	75.275
137.90993	89.575
142.24913	91.475
146.58517	102.775
150.91804	117.975
155.24774	143.575
159.57429	173.275
163.89768	222.875
168.21792	292.875
172.53501	392.575
176.84895	540.975
181.15975	765.375
185.46741	1063.575
189.77193	1466.475
194.07331	1970.075
198.37157	2541.475
202.6667	3167.375
206.9587	3778.175
211.24758	4392.875
215.53334	4997.275
219.81599	5640.975
224.09553	6333.975
228.37195	7114.875
232.64527	7989.475
236.91549	8865.675
241.18261	9740.475
245.44663	10581.275
249.70755	11245.175
253.96539	11862.575
258.22014	12346.275
262.4718	12705.975
266.72039	12947.775
270.96589	13052.775
275.20832	13005.375
279.44768	12869.775
283.68397	12765.875
287.91719	12651.875
292.14735	12584.975
296.37445	12559.175
300.59849	12572.275
304.81948	12635.175
309.03742	12705.575
313.25231	12676.975
317.46415	12528.375
321.67296	12253.875
325.87872	11967.675
330.08145	11756.675
334.28114	11659.975
338.47781	11704.375
342.67145	11819.475
346.86207	11981.475
351.04966	12195.375
355.23424	12389.675
359.4158	12539.875
363.59435	12619.275
367.76989	12690.375
371.94243	12694.675
376.11196	12645.575
380.27849	12594.075
384.44203	12630.975
388.60257	12733.675
392.76012	12880.375
396.91468	13113.375
401.06626	13363.475
405.21485	13508.275
409.36047	13466.175
413.50311	13266.775
417.64277	13112.575
421.77947	13150.075
425.9132	13291.575
430.04396	13377.175
434.17176	13495.375
438.2966	13539.575
442.41849	13694.975
446.53742	13997.375
450.6534	14323.875
454.76644	14518.075
458.87653	14485.375
462.98368	14402.975
467.08789	14266.175
471.18916	14045.475
475.2875	13827.375
479.38291	13653.175
483.4754	13542.075
487.56496	13448.575
491.6516	13306.275
495.73531	13166.075
499.81612	13085.975
503.89401	13134.375
507.96899	13192.675
512.04106	13149.375
516.11023	13039.075
520.1765	12834.575
524.23987	12685.575
528.30034	12573.875
532.35792	12430.675
536.41261	12252.175
540.46441	12091.975
544.51333	12072.475
548.55936	12195.875
552.60252	12487.775
556.64279	12826.175
560.6802	13048.975
564.71473	13171.275
568.7464	13416.075
572.7752	13972.575
576.80114	14628.275
580.82422	15377.975
584.84444	16118.875
588.86181	17034.075
592.87633	17960.075
596.888	18223.675
600.89682	17365.075
604.9028	16486.675
608.90594	16814.775
612.90624	17617.475
616.90371	16364.875
620.89834	13635.375
624.89015	12381.675
628.87913	12327.475
632.86528	12545.175
636.84862	12628.775
640.82913	12373.075
644.80683	11964.275
648.78172	11696.075
652.75379	11666.075
656.72306	11772.875
660.68952	11924.375
664.65319	11870.975
668.61405	11672.175
672.57211	11639.475
676.52738	11703.975
680.47986	11724.075
684.42955	11639.575
688.37646	11512.775
692.32058	11522.875
696.26192	11637.975
700.20048	11814.175
704.13626	11941.275
708.06928	12085.475
711.99952	12081.975
715.927	12043.375
719.85171	11978.475
723.77365	11838.275
727.69284	11624.575
731.60928	11434.575
735.52295	11341.375
739.43388	11349.875
743.34206	11379.675
747.24749	11499.475
751.15017	11662.875
755.05012	11951.775
758.94733	12370.675
762.8418	13173.075
766.73354	14366.575
770.62254	15436.175
774.50882	15462.675
778.39237	14548.175
782.27321	13355.875
786.15132	12449.675
790.02671	11788.175
793.89938	11458.475
797.76935	11289.675
801.6366	11220.775
805.50115	11153.375
809.36299	11073.975
813.22213	10957.475
817.07857	10882.775
820.93231	10811.975
824.78336	10771.175
828.63172	10713.675
832.47738	10665.675
836.32036	10634.375
840.16066	10589.175
843.99827	10564.675
847.8332	10559.775
851.66546	10550.375
855.49504	10602.675
859.32195	10608.275
863.1462	10543.675
866.96777	10490.475
870.78668	10485.875
874.60293	10510.175
878.41652	10503.475
882.22745	10520.375
886.03573	10556.975
889.84136	10608.375
893.64433	10555.075
897.44466	10524.275
901.24235	10527.875
905.0374	10504.475
908.8298	10433.075
912.61957	10451.175
916.40671	10548.675
920.19121	10761.275
923.97308	10940.675
927.75233	11043.075
931.52895	10914.275
935.30295	10622.575
939.07433	10305.975
942.84309	10067.875
946.60924	9945.775
950.37278	9860.475
954.13371	9839.175
957.89203	9848.175
961.64774	9851.375
965.40086	9830.675
969.15137	9819.475
972.89929	9746.675
976.64461	9680.275
980.38733	9618.575
984.12747	9592.575
987.86502	9604.575
991.59999	9648.075
995.33237	9703.275
999.06217	9887.375
1002.78939	10052.975
1006.51404	10285.575
1010.23611	10565.875
1013.95561	10751.175
1017.67255	10801.275
1021.38692	10770.675
1025.09872	10498.275
1028.80796	10309.575
1032.51465	10159.475
1036.21877	10158.075
1039.92035	10244.375
1043.61937	10334.475
1047.31584	10399.775
1051.00976	10448.975
1054.70114	10508.775
1058.38998	10583.875
1062.07627	10686.575
1065.76003	10820.375
1069.44126	11056.775
1073.11995	11312.675
1076.79611	11543.675
1080.46974	11630.575
1084.14085	11733.675
1087.80943	11863.575
1091.47549	12043.875
1095.13903	12087.375
1098.80005	11928.275
1102.45857	11476.975
1106.11456	11086.575
1109.76805	10854.175
1113.41903	10792.075
1117.06751	10864.975
1120.71348	11017.975
1124.35696	11256.575
1127.99793	11455.075
1131.63641	11588.375
1135.2724	11582.475
1138.90589	11539.975
1142.5369	11536.675
1146.16542	11627.675
1149.79145	11759.475
1153.415	11936.475
1157.03607	12114.475
1160.65467	12475.475
1164.27079	13156.875
1167.88443	14016.375
1171.49561	14989.075
1175.10432	16176.275
1178.71056	17555.675
1182.31434	18865.275
1185.91565	19542.875
1189.51451	19600.875
1193.11091	19145.475
1196.70485	18375.175
1200.29634	17401.175
1203.88538	16654.875
1207.47197	16122.475
1211.05612	15846.175
1214.63782	15486.475
1218.21708	14999.775
1221.79391	14540.675
1225.36829	14231.575
1228.94024	14089.175
1232.50976	13955.475
1236.07685	13720.275
1239.6415	13529.475
1243.20374	13428.675
1246.76355	13455.375
1250.32093	13546.475
1253.8759	13859.075
1257.42845	14312.775
1260.97859	14829.675
1264.52631	15412.375
1268.07163	15894.475
1271.61453	16406.775
1275.15503	16920.075
1278.69312	17562.475
1282.22882	18221.675
1285.76211	19086.575
1289.29301	19994.275
1292.82151	20961.275
1296.34761	22080.975
1299.87133	23347.475
1303.39266	24691.275
1306.9116	25918.075
1310.42815	26953.875
1313.94233	27466.775
1317.45412	27246.975
1320.96354	26564.575
1324.47058	26066.475
1327.97525	25791.575
1331.47754	25595.875
1334.97747	25504.175
1338.47502	25328.775
1341.97022	25091.575
1345.46305	24904.975
1348.95352	24745.275
1352.44163	24768.575
1355.92738	25189.975
1359.41078	26135.575
1362.89183	27123.375
1366.37053	27143.475
1369.84688	25457.575
1373.32088	22632.575
1376.79254	20240.575
1380.26186	19107.975
1383.72883	18811.875
1387.19347	18569.375
1390.65578	18245.775
1394.11575	18060.375
1397.57339	18171.275
1401.0287	18461.875
1404.48168	18713.475
1407.93234	18642.875
1411.38068	18247.375
1414.82669	17578.175
1418.27039	16807.275
1421.71177	16051.175
1425.15083	15415.775
1428.58758	15079.675
1432.02203	15116.875
1435.45416	15466.675
1438.88399	15879.475
1442.31151	16143.475
1445.73673	16462.575
1449.15965	16692.075
1452.58027	16865.775
1455.9986	16908.975
1459.41463	17069.875
1462.82837	17370.975
1466.23982	17786.775
1469.64898	18198.275
1473.05586	18492.375
1476.46045	18633.575
1479.86276	18733.075
1483.26279	18824.375
1486.66054	18955.975
1490.05602	19342.875
1493.44922	19846.375
1496.84016	20534.175
1500.22882	21230.375
1503.61521	21969.175
1506.99934	22616.175
1510.38121	22977.075
1513.76081	22859.975
1517.13816	22224.475
1520.51324	21482.975
1523.88607	20841.275
1527.25665	20516.075
1530.62498	20348.775
1533.99105	20075.375
1537.35488	19583.775
1540.71647	18942.275
1544.07581	18134.375
1547.4329	17391.775
1550.78776	16753.275
1554.14038	16367.475
1557.49077	16142.475
1560.83892	16130.375
1564.18484	16266.275
1567.52853	16433.475
1570.86999	16620.675
1574.20922	16923.275
1577.54624	17129.675
1580.88103	17016.675
1584.2136	16876.075
1587.54395	17062.975
1590.87208	17810.275
1594.19801	18934.775
1597.52172	20165.375
1600.84321	20638.475
1604.16251	19866.575
1607.47959	18314.575
1610.79447	16629.975
1614.10715	15065.775
1617.41763	13722.675
1620.7259	12781.475
1624.03199	12252.775
1627.33587	12094.875
1630.63757	12401.375
1633.93707	13221.375
1637.23439	14711.175
1640.52951	17093.575
1643.82246	20228.975
1647.11321	23294.275
1650.40179	24749.375
1653.68819	23752.875
1656.97241	20702.375
1660.25446	17226.575
1663.53433	14316.975
1666.81203	12346.275
1670.08756	11101.775
1673.36092	10335.575
1676.63211	9838.775
1679.90115	9507.775
1683.16801	9288.375
1686.43272	9089.175
1689.69527	8973.775
1692.95567	8844.175
1696.2139	8815.975
1699.46999	8757.875
1702.72392	8700.175
1705.97571	8648.775
1709.22535	8566.375
1712.47284	8545.575
1715.71819	8515.675
1718.96139	8473.275
1722.20246	8408.475
1725.44139	8359.275
1728.67818	8308.075
1731.91284	8236.275
1735.14537	8168.575
1738.37576	8125.175
1741.60403	8070.475
1744.83017	8034.375
1748.05418	8026.075
1751.27607	8017.175
1754.49584	8040.575
1757.71349	8040.375
1760.92903	8046.275
1764.14244	8037.375
1767.35375	7996.675
1770.56294	7963.475
1773.77002	7913.675
1776.97499	7880.675
1780.17785	7807.575
1783.37861	7785.775
1786.57727	7743.375
1789.77382	7703.275
1792.96828	7696.275
1796.16064	7665.575
1799.3509	7634.875
1802.53907	7601.175
1805.72514	7567.675
1808.90913	7533.775
1812.09102	7537.175
1815.27083	7507.075
1818.44856	7483.875
1821.6242	7465.275
1824.79776	7469.975
1827.96924	7458.375
1831.13864	7455.175
1834.30597	7465.375
1837.47122	7430.675
1840.6344	7435.175
1843.7955	7440.875
1846.95454	7452.675
1850.11151	7419.375
1853.26642	7422.175
1856.41926	7420.075
1859.57004	7428.575
1862.71876	7385.775
1865.86542	7390.075
1869.01003	7361.375
1872.15258	7371.975
1875.29308	7311.575
1878.43152	7320.875
1881.56792	7295.475
1884.70227	7281.475
1887.83457	7256.775
1890.96482	7246.975
1894.09304	7237.675
1897.21921	7237.775
1900.34335	7214.575
1903.46544	7220.175
1906.58551	7206.475
1909.70353	7171.875
1912.81953	7148.975
1915.93349	7115.475
1919.04543	7120.875
1922.15534	7107.775
1925.26322	7069.475
1928.36908	7041.075
1931.47292	7002.375
1934.57473	6999.375
1937.67453	6967.975
1940.77232	6951.075
1943.86808	6932.175
1946.96184	6901.475
1950.05358	6879.275
1953.14331	6851.675
1956.23103	6830.875
1959.31675	6803.375
1962.40046	6800.075
1965.48217	6788.975
1968.56188	6747.575
1971.63959	6716.175
1974.7153	6688.575
1977.78901	6655.575
1980.86073	6625.975
1983.93046	6617.675
1986.99819	6577.175
1990.06394	6571.175
1993.1277	6530.775
1996.18947	6515.575
1999.24925	6514.475
2002.30706	6483.475
2005.36288	6438.575
2008.41672	6433.775
2011.46859	6402.075
2014.51848	6389.075
2017.56639	6360.875
2020.61233	6349.875
2023.6563	6317.875
2026.6983	6315.775
2029.73833	6289.775
2032.7764	6255.675
2035.8125	6243.875
2038.84664	6239.675
2041.87881	6227.975
2044.90903	6213.375
2047.93729	6190.375
2050.96359	6196.375
2053.98794	6197.075
2057.01034	6188.675
2060.03078	6156.175
2063.04927	6165.075
2066.06582	6136.675
2069.08042	6120.675
2072.09307	6127.775
2075.10378	6132.975
2078.11255	6118.575
2081.11938	6130.875
2084.12426	6118.375
2087.12722	6106.975
2090.12824	6114.175
2093.12732	6124.175
2096.12447	6108.675
2099.11969	6094.475
2102.11299	6090.475
2105.10435	6085.075
2108.09379	6083.875
2111.08131	6101.375
2114.0669	6090.275
2117.05057	6080.975
2120.03233	6101.175
2123.01216	6081.275
2125.99008	6105.675
2128.96609	6098.675
2131.94018	6095.575
2134.91236	6092.475
2137.88263	6077.875
2140.851	6095.275
2143.81746	6087.575
2146.78201	6061.375
2149.74466	6057.775
2152.7054	6055.975
2155.66425	6045.075
2158.6212	6040.875
2161.57625	6045.475
2164.52941	6046.575
2167.48067	6036.775
2170.43004	6017.575
2173.37752	6015.275
2176.32311	6000.275
2179.26681	6021.075
2182.20863	6003.775
2185.14856	6008.475
2188.08661	6004.375
2191.02278	6005.075
2193.95707	5988.275
2196.88948	5966.875
2199.82001	5968.675
2202.74867	5945.275
2205.67545	5957.575
2208.60037	5933.375
2211.52341	5944.775
2214.44458	5919.675
2217.36388	5896.275
2220.28132	5876.075
2223.1969	5855.375
2226.11061	5857.475
2229.02246	5845.775
2231.93245	5837.675
2234.84058	5847.375
2237.74686	5856.775
2240.65128	5830.975
2243.55385	5830.575
2246.45456	5809.575
2249.35343	5789.275
2252.25044	5777.875
2255.14561	5771.575
2258.03893	5757.475
2260.93041	5766.375
2263.82004	5720.675
2266.70783	5682.075
2269.59378	5680.175
2272.4779	5641.675
2275.36017	5658.275
2278.24061	5635.275
2281.11922	5613.475
2283.996	5597.475
2286.87094	5584.675
2289.74405	5567.175
2292.61534	5554.075
2295.4848	5560.575
2298.35243	5541.075
2301.21824	5531.075
2304.08223	5531.675
2306.94439	5545.975
2309.80474	5514.575
2312.66327	5491.575
2315.51999	5503.175
2318.37489	5500.075
2321.22797	5477.675
2324.07925	5476.375
2326.92871	5466.575
2329.77637	5466.875
2332.62222	5456.575
2335.46626	5457.475
2338.3085	5438.275
2341.14893	5434.375
2343.98756	5441.175
2346.8244	5437.475
2349.65943	5433.775
2352.49267	5429.875
2355.32411	5421.375
2358.15376	5435.875
2360.98161	5431.475
2363.80768	5416.175
2366.63195	5452.575
2369.45444	5421.875
2372.27514	5424.275
2375.09405	5408.675
2377.91118	5399.775
2380.72652	5396.875
2383.54009	5379.575
2386.35187	5347.675
2389.16188	5318.575
2391.97011	5314.675
2394.77657	5307.675
2397.58125	5298.875
2400.38416	5276.475
2403.18529	5265.275
2405.98466	5264.875
2408.78226	5233.975
2411.57809	5224.675
2414.37216	5241.475
2417.16446	5251.675
2419.955	5222.975
2422.74378	5239.075
2425.5308	5228.275
2428.31606	5208.575
2431.09956	5206.875
2433.88131	5208.875
2436.6613	5195.775
2439.43954	5173.675
2442.21603	5176.775
2444.99077	5169.475
2447.76377	5205.875
2450.53501	5174.975
2453.30451	5187.075
2456.07226	5167.875
2458.83827	5176.275
2461.60254	5161.775
2464.36507	5163.775
2467.12586	5163.875
2469.88492	5160.775
2472.64224	5152.375
2475.39782	5145.775
2478.15167	5168.075
2480.90379	5154.675
2483.65417	5155.475
2486.40283	5156.075
2489.14976	5155.975
2491.89497	5139.475
2494.63845	5165.075
2497.3802	5129.775
2500.12024	5152.775
2502.85855	5131.775
2505.59514	5113.575
2508.33002	5109.375
2511.06318	5100.675
2513.79462	5101.075
2516.52435	5088.075
2519.25237	5088.475
2521.97867	5082.175
2524.70327	5070.875
2527.42616	5053.775
2530.14734	5057.475
2532.86681	5043.975
2535.58458	5042.575
2538.30065	5016.175
2541.01501	5043.375
2543.72768	5004.475
2546.43864	5023.975
2549.14791	5007.375
2551.85548	4995.975
2554.56136	4997.075
2557.26554	5009.375
2559.96803	5002.475
2562.66883	4983.975
2565.36794	4983.275
2568.06536	4966.475
2570.7611	4955.975
2573.45514	4977.475
2576.14751	4973.675
2578.83819	4937.975
2581.52719	4938.375
2584.21451	4930.275
2586.90015	4920.575
2589.58411	4920.175
2592.2664	4905.575
2594.94701	4900.475
2597.62594	4895.175
2600.30321	4900.475
2602.9788	4889.275
2605.65273	4886.375
2608.32498	4881.775
2610.99557	4871.475
2613.66449	4868.875
2616.33175	4868.375
2618.99734	4867.775
2621.66128	4852.175
2624.32355	4852.675
2626.98416	4850.975
2629.64311	4846.875
2632.30041	4841.675
2634.95605	4833.075
2637.61004	4823.275
2640.26238	4842.375
2642.91306	4836.775
2645.56209	4819.275
2648.20948	4821.775
2650.85521	4828.675
2653.4993	4833.175
2656.14175	4822.775
2658.78255	4818.675
2661.42171	4822.575
2664.05923	4837.275
2666.6951	4835.675
2669.32934	4825.175
2671.96194	4826.375
2674.59291	4832.475
2677.22224	4822.275
2679.84993	4834.875
2682.476	4833.175
2685.10043	4819.875
2687.72324	4811.875
2690.34441	4818.175
2692.96396	4820.775
2695.58188	4831.075
2698.19818	4804.675
2700.81285	4823.475
2703.4259	4836.475
2706.03733	4893.075
2708.64714	4860.075
2711.25533	4837.975
2713.86191	4819.075
2716.46687	4822.575
2719.07021	4811.175
2721.67194	4825.075
2724.27206	4830.075
2726.87057	4822.775
2729.46747	4827.275
2732.06276	4838.475
2734.65644	4826.275
2737.24852	4830.875
2739.83899	4820.375
2742.42786	4816.975
2745.01513	4809.475
2747.60079	4813.475
2750.18486	4790.375
2752.76733	4795.475
2755.3482	4780.575
2757.92747	4806.875
2760.50515	4778.975
2763.08123	4789.475
2765.65573	4776.175
2768.22863	4769.175
2770.79994	4765.375
2773.36967	4769.975
2775.9378	4771.975
2778.50435	4767.575
2781.06932	4758.975
2783.6327	4761.975
2786.1945	4745.275
2788.75471	4755.575
2791.31335	4736.575
2793.87041	4738.975
2796.42589	4707.275
2798.97979	4712.675
2801.53212	4713.875
2804.08288	4719.675
2806.63206	4708.475
2809.17967	4692.475
2811.72571	4700.075
2814.27018	4694.575
2816.81308	4679.275
2819.35442	4683.175
2821.89419	4684.675
2824.43239	4663.275
2826.96904	4661.975
2829.50412	4666.575
2832.03763	4661.675
2834.56959	4666.775
2837.1	4652.975
2839.62884	4655.975
2842.15613	4666.175
2844.68186	4674.875
2847.20604	4669.375
2849.72867	4693.475
2852.24974	4689.975
2854.76927	4695.075
2857.28724	4704.375
2859.80367	4678.075
2862.31855	4664.175
2864.83189	4663.075
2867.34368	4650.375
2869.85393	4645.575
2872.36264	4632.175
2874.8698	4626.175
2877.37543	4632.975
2879.87952	4640.975
2882.38207	4634.875
2884.88308	4619.275
2887.38256	4620.075
2889.88051	4627.675
2892.37692	4629.375
2894.8718	4615.675
2897.36515	4617.675
2899.85698	4630.075
2902.34727	4639.975
2904.83604	4630.475
2907.32328	4647.475
2909.809	4646.375
2912.29319	4651.475
2914.77587	4650.575
2917.25702	4657.275
2919.73665	4651.975
2922.21476	4656.275
2924.69136	4649.175
2927.16644	4643.975
2929.64	4664.375
2932.11205	4660.375
2934.58258	4624.375
2937.05161	4659.975
2939.51912	4643.475
2941.98513	4634.175
2944.44962	4608.675
2946.91261	4608.775
2949.37409	4605.375
2951.83407	4595.675
2954.29254	4590.475
2956.74951	4571.475
2959.20498	4555.775
2961.65895	4552.475
2964.11142	4549.275
2966.56239	4520.275
2969.01186	4516.675
2971.45984	4497.975
2973.90632	4484.975
2976.35131	4465.875
2978.7948	4445.175
2981.23681	4459.975
2983.67732	4422.475
2986.11635	4438.575
2988.55388	4409.175
2990.98993	4380.075
2993.4245	4377.375
2995.85758	4364.675
2998.28917	4365.575
3000.71928	4343.475
3003.14791	4340.475
3005.57506	4339.975
3008.00073	4317.875
3010.42493	4305.975
3012.84764	4299.575
3015.26888	4302.475
3017.68865	4292.275
3020.10694	4258.275
3022.52376	4270.075
3024.9391	4251.775
3027.35298	4241.875
3029.76539	4224.275
3032.17632	4238.275
3034.5858	4215.475
3036.9938	4200.975
3039.40034	4195.275
3041.80542	4203.775
3044.20903	4188.775
3046.61118	4184.075
3049.01187	4169.775
3051.4111	4179.475
3053.80888	4157.075
3056.20519	4160.875
3058.60005	4161.575
3060.99345	4131.175
3063.3854	4124.775
3065.7759	4126.575
3068.16494	4120.375
3070.55254	4096.075
3072.93868	4097.075
3075.32338	4088.475
3077.70662	4070.575
3080.08842	4060.375
3082.46878	4066.175
3084.84769	4035.575
3087.22515	4031.575
3089.60118	4034.075
3091.97576	4044.675
3094.3489	4029.375
3096.72061	4034.875
3099.09087	4016.675
3101.4597	4015.675
3103.82709	4028.375
3106.19305	4010.075
3108.55757	4006.075
3110.92066	3985.875
3113.28232	3995.075
3115.64255	3974.275
3118.00134	3964.375
3120.35871	3942.175
3122.71466	3950.375
3125.06917	3961.575
3127.42226	3951.375
3129.77393	3948.375
3132.12417	3952.475
3134.47299	3940.975
3136.82039	3945.675
3139.16636	3941.275
3141.51092	3936.175
3143.85406	3949.775
3146.19579	3949.975
3148.53609	3940.075
3150.87499	3960.775
3153.21246	3960.075
3155.54853	3951.475
3157.88318	3957.675
3160.21642	3945.975
3162.54826	3961.675
3164.87868	3939.875
3167.2077	3937.975
3169.5353	3941.875
3171.86151	3922.575
3174.18631	3932.475
3176.5097	3928.475
3178.83169	3927.275
3181.15228	3927.575
3183.47147	3911.475
3185.78926	3901.175
3188.10565	3909.275
3190.42065	3906.675
3192.73424	3914.575
