Data from AgNPs_FTO_APTES_UA_10um_CRN_0.1mM_R6G_10uM_NaF_0.1M_Addition_RamanShift__9__13-45-59-133.txt Node

Date: Tue Dec 21 13:45:59 GMT 2021
User: TCL
Spectrometer: QEP01345
Trigger mode: 4
Integration Time (sec): 7.000000E0
Scans to average: 10
Electric dark correction enabled: true
Nonlinearity correction enabled: false
Boxcar width: 0
XAxis mode: Raman Shifts
Number of Pixels in Spectrum: 1044
>>>>>Begin Spectral Data<<<<<
46.04893	-1.8125
50.45542	-0.7125
54.85868	0.1875
59.25871	1.4875
63.6555	40.9875
68.04907	46.0875
72.43941	48.7875
76.82654	46.4875
81.21044	54.5875
85.59113	54.9875
89.96862	56.3875
94.34289	56.5875
98.71396	59.5875
103.08183	63.0875
107.4465	65.4875
111.80798	65.5875
116.16626	66.3875
120.52136	68.5875
124.87327	75.0875
129.222	72.4875
133.56755	76.4875
137.90993	87.2875
142.24913	91.9875
146.58517	105.7875
150.91804	119.7875
155.24774	139.7875
159.57429	174.9875
163.89768	225.5875
168.21792	299.9875
172.53501	403.4875
176.84895	560.9875
181.15975	784.6875
185.46741	1083.1875
189.77193	1510.5875
194.07331	2039.3875
198.37157	2626.2875
202.6667	3254.4875
206.9587	3882.2875
211.24758	4504.3875
215.53334	5155.0875
219.81599	5804.4875
224.09553	6536.7875
228.37195	7317.6875
232.64527	8188.5875
236.91549	9082.0875
241.18261	10014.3875
245.44663	10843.9875
249.70755	11609.8875
253.96539	12226.2875
258.22014	12752.4875
262.4718	13162.8875
266.72039	13442.2875
270.96589	13569.8875
275.20832	13554.0875
279.44768	13447.4875
283.68397	13355.7875
287.91719	13243.2875
292.14735	13198.8875
296.37445	13193.3875
300.59849	13254.4875
304.81948	13327.8875
309.03742	13338.1875
313.25231	13245.4875
317.46415	12997.1875
321.67296	12661.1875
325.87872	12329.9875
330.08145	12129.4875
334.28114	12045.5875
338.47781	12095.8875
342.67145	12212.3875
346.86207	12412.7875
351.04966	12581.2875
355.23424	12780.8875
359.4158	12983.7875
363.59435	13123.7875
367.76989	13178.2875
371.94243	13257.9875
376.11196	13258.9875
380.27849	13300.2875
384.44203	13398.8875
388.60257	13526.7875
392.76012	13685.3875
396.91468	13928.0875
401.06626	14144.0875
405.21485	14326.1875
409.36047	14265.6875
413.50311	14079.1875
417.64277	13904.5875
421.77947	13883.8875
425.9132	13899.4875
430.04396	13943.1875
434.17176	14031.5875
438.2966	14087.1875
442.41849	14211.9875
446.53742	14537.0875
450.6534	14889.3875
454.76644	15159.0875
458.87653	15259.6875
462.98368	15242.5875
467.08789	15124.8875
471.18916	15025.1875
475.2875	14920.8875
479.38291	14900.6875
483.4754	14857.1875
487.56496	14710.1875
491.6516	14467.0875
495.73531	14191.3875
499.81612	14044.1875
503.89401	14042.9875
507.96899	14075.1875
512.04106	14040.8875
516.11023	13935.2875
520.1765	13771.4875
524.23987	13642.5875
528.30034	13509.0875
532.35792	13422.5875
536.41261	13303.5875
540.46441	13137.7875
544.51333	13141.8875
548.55936	13242.5875
552.60252	13531.2875
556.64279	13849.1875
560.6802	14092.0875
564.71473	14237.6875
568.7464	14491.8875
572.7752	14961.0875
576.80114	15465.0875
580.82422	15912.1875
584.84444	16438.6875
588.86181	17031.4875
592.87633	17454.5875
596.888	17349.0875
600.89682	16714.2875
604.9028	16527.9875
608.90594	17407.9875
612.90624	18482.5875
616.90371	17348.4875
620.89834	14622.7875
624.89015	13370.8875
628.87913	13223.3875
632.86528	13409.9875
636.84862	13486.2875
640.82913	13359.0875
644.80683	13020.9875
648.78172	12735.6875
652.75379	12698.7875
656.72306	12764.2875
660.68952	12963.3875
664.65319	12896.0875
668.61405	12719.3875
672.57211	12730.2875
676.52738	12800.9875
680.47986	12882.6875
684.42955	12796.2875
688.37646	12699.9875
692.32058	12691.0875
696.26192	12770.8875
700.20048	12923.1875
704.13626	13021.8875
708.06928	13106.3875
711.99952	13041.2875
715.927	12997.7875
719.85171	12992.3875
723.77365	12935.0875
727.69284	12758.3875
731.60928	12605.3875
735.52295	12563.4875
739.43388	12532.9875
743.34206	12549.3875
747.24749	12616.9875
751.15017	12715.3875
755.05012	12933.8875
758.94733	13298.8875
762.8418	13959.4875
766.73354	15024.3875
770.62254	16040.0875
774.50882	16272.2875
778.39237	15574.8875
782.27321	14428.9875
786.15132	13474.7875
790.02671	12863.3875
793.89938	12552.7875
797.76935	12399.5875
801.6366	12378.0875
805.50115	12319.5875
809.36299	12270.4875
813.22213	12167.1875
817.07857	12093.7875
820.93231	12043.5875
824.78336	11949.3875
828.63172	11880.5875
832.47738	11841.4875
836.32036	11819.2875
840.16066	11803.5875
843.99827	11774.0875
847.8332	11743.1875
851.66546	11705.8875
855.49504	11736.9875
859.32195	11741.6875
863.1462	11709.9875
866.96777	11667.5875
870.78668	11685.6875
874.60293	11699.7875
878.41652	11694.1875
882.22745	11731.1875
886.03573	11780.5875
889.84136	11808.0875
893.64433	11778.7875
897.44466	11728.4875
901.24235	11662.6875
905.0374	11555.2875
908.8298	11531.1875
912.61957	11517.8875
916.40671	11631.4875
920.19121	11766.2875
923.97308	11936.3875
927.75233	11958.5875
931.52895	11806.2875
935.30295	11618.7875
939.07433	11376.1875
942.84309	11207.0875
946.60924	11074.3875
950.37278	11046.3875
954.13371	11028.2875
957.89203	11033.9875
961.64774	11009.6875
965.40086	11029.5875
969.15137	10995.8875
972.89929	10902.9875
976.64461	10842.5875
980.38733	10801.9875
984.12747	10811.0875
987.86502	10850.2875
991.59999	10911.2875
995.33237	11009.5875
999.06217	11153.3875
1002.78939	11401.1875
1006.51404	11623.0875
1010.23611	11845.1875
1013.95561	12021.1875
1017.67255	12073.3875
1021.38692	11986.6875
1025.09872	11767.5875
1028.80796	11584.4875
1032.51465	11509.3875
1036.21877	11580.3875
1039.92035	11636.4875
1043.61937	11751.1875
1047.31584	11751.1875
1051.00976	11789.7875
1054.70114	11802.1875
1058.38998	11846.1875
1062.07627	11951.3875
1065.76003	12136.0875
1069.44126	12314.0875
1073.11995	12568.2875
1076.79611	12741.6875
1080.46974	12828.4875
1084.14085	12833.2875
1087.80943	12908.4875
1091.47549	13065.6875
1095.13903	13177.8875
1098.80005	13051.4875
1102.45857	12669.0875
1106.11456	12319.9875
1109.76805	12122.4875
1113.41903	12095.7875
1117.06751	12112.9875
1120.71348	12273.7875
1124.35696	12464.5875
1127.99793	12666.8875
1131.63641	12814.2875
1135.2724	12811.0875
1138.90589	12760.4875
1142.5369	12778.9875
1146.16542	12858.7875
1149.79145	12957.0875
1153.415	13105.4875
1157.03607	13268.8875
1160.65467	13599.5875
1164.27079	14200.8875
1167.88443	14993.5875
1171.49561	15929.8875
1175.10432	17044.6875
1178.71056	18359.3875
1182.31434	19670.5875
1185.91565	20302.5875
1189.51451	20268.4875
1193.11091	19811.4875
1196.70485	19104.7875
1200.29634	18213.5875
1203.88538	17612.0875
1207.47197	17230.4875
1211.05612	16953.5875
1214.63782	16585.9875
1218.21708	16133.3875
1221.79391	15632.6875
1225.36829	15307.9875
1228.94024	15132.8875
1232.50976	15003.2875
1236.07685	14811.9875
1239.6415	14664.3875
1243.20374	14663.8875
1246.76355	14717.1875
1250.32093	14911.5875
1253.8759	15245.9875
1257.42845	15703.9875
1260.97859	16178.2875
1264.52631	16733.5875
1268.07163	17205.3875
1271.61453	17663.7875
1275.15503	18154.2875
1278.69312	18708.9875
1282.22882	19300.2875
1285.76211	20053.5875
1289.29301	20956.5875
1292.82151	21987.0875
1296.34761	23093.5875
1299.87133	24324.3875
1303.39266	25557.9875
1306.9116	26552.3875
1310.42815	27421.4875
1313.94233	27860.3875
1317.45412	27728.9875
1320.96354	27283.1875
1324.47058	26868.5875
1327.97525	26605.6875
1331.47754	26438.5875
1334.97747	26264.4875
1338.47502	26045.1875
1341.97022	25804.9875
1345.46305	25508.2875
1348.95352	25316.6875
1352.44163	25286.3875
1355.92738	25712.5875
1359.41078	26578.3875
1362.89183	27407.5875
1366.37053	27254.8875
1369.84688	25481.5875
1373.32088	22905.0875
1376.79254	20924.4875
1380.26186	20045.2875
1383.72883	19868.6875
1387.19347	19744.3875
1390.65578	19496.7875
1394.11575	19404.3875
1397.57339	19460.4875
1401.0287	19689.9875
1404.48168	19805.4875
1407.93234	19675.3875
1411.38068	19216.2875
1414.82669	18517.7875
1418.27039	17702.6875
1421.71177	17019.4875
1425.15083	16429.1875
1428.58758	16119.5875
1432.02203	16235.7875
1435.45416	16598.2875
1438.88399	17014.3875
1442.31151	17321.8875
1445.73673	17605.4875
1449.15965	17905.0875
1452.58027	18065.4875
1455.9986	18121.1875
1459.41463	18292.2875
1462.82837	18558.2875
1466.23982	18917.4875
1469.64898	19196.5875
1473.05586	19462.1875
1476.46045	19461.3875
1479.86276	19399.4875
1483.26279	19259.1875
1486.66054	19269.1875
1490.05602	19470.5875
1493.44922	19817.9875
1496.84016	20231.8875
1500.22882	20815.9875
1503.61521	21514.8875
1506.99934	22312.3875
1510.38121	22879.4875
1513.76081	22894.8875
1517.13816	22390.4875
1520.51324	21651.4875
1523.88607	20989.8875
1527.25665	20693.9875
1530.62498	20520.9875
1533.99105	20368.4875
1537.35488	19981.6875
1540.71647	19415.9875
1544.07581	18778.2875
1547.4329	18093.1875
1550.78776	17591.1875
1554.14038	17222.7875
1557.49077	17029.5875
1560.83892	17050.3875
1564.18484	17137.0875
1567.52853	17284.1875
1570.86999	17496.1875
1574.20922	17880.7875
1577.54624	18151.7875
1580.88103	18202.8875
1584.2136	18281.0875
1587.54395	18567.7875
1590.87208	19274.2875
1594.19801	20218.9875
1597.52172	21188.9875
1600.84321	21477.1875
1604.16251	20582.8875
1607.47959	19036.1875
1610.79447	17341.9875
1614.10715	15828.0875
1617.41763	14597.6875
1620.7259	13739.9875
1624.03199	13282.2875
1627.33587	13212.8875
1630.63757	13542.1875
1633.93707	14418.2875
1637.23439	15881.8875
1640.52951	18083.9875
1643.82246	20851.9875
1647.11321	23265.6875
1650.40179	24067.8875
1653.68819	22674.5875
1656.97241	19784.1875
1660.25446	16762.9875
1663.53433	14372.6875
1666.81203	12808.5875
1670.08756	11780.5875
1673.36092	11142.2875
1676.63211	10763.9875
1679.90115	10478.1875
1683.16801	10229.1875
1686.43272	10072.9875
1689.69527	9939.8875
1692.95567	9849.0875
1696.2139	9783.7875
1699.46999	9762.1875
1702.72392	9701.5875
1705.97571	9649.5875
1709.22535	9575.2875
1712.47284	9534.1875
1715.71819	9485.4875
1718.96139	9469.9875
1722.20246	9440.3875
1725.44139	9356.7875
1728.67818	9325.3875
1731.91284	9266.1875
1735.14537	9210.7875
1738.37576	9153.2875
1741.60403	9104.9875
1744.83017	9098.2875
1748.05418	9068.5875
1751.27607	9051.0875
1754.49584	9058.6875
1757.71349	9094.0875
1760.92903	9095.7875
1764.14244	9074.6875
1767.35375	9035.3875
1770.56294	9007.9875
1773.77002	8956.3875
1776.97499	8909.5875
1780.17785	8843.3875
1783.37861	8847.2875
1786.57727	8801.2875
1789.77382	8746.6875
1792.96828	8733.6875
1796.16064	8698.9875
1799.3509	8659.7875
1802.53907	8666.9875
1805.72514	8608.2875
1808.90913	8577.0875
1812.09102	8588.5875
1815.27083	8546.1875
1818.44856	8527.0875
1821.6242	8529.1875
1824.79776	8520.6875
1827.96924	8513.6875
1831.13864	8483.7875
1834.30597	8476.4875
1837.47122	8468.6875
1840.6344	8477.4875
1843.7955	8487.4875
1846.95454	8460.2875
1850.11151	8461.3875
1853.26642	8438.1875
1856.41926	8445.0875
1859.57004	8432.0875
1862.71876	8419.0875
1865.86542	8407.7875
1869.01003	8403.8875
1872.15258	8381.3875
1875.29308	8377.9875
1878.43152	8346.6875
1881.56792	8335.0875
1884.70227	8306.3875
1887.83457	8297.4875
1890.96482	8271.2875
1894.09304	8263.9875
1897.21921	8278.5875
1900.34335	8286.2875
1903.46544	8240.5875
1906.58551	8219.0875
1909.70353	8207.5875
1912.81953	8181.3875
1915.93349	8152.4875
1919.04543	8145.5875
1922.15534	8106.7875
1925.26322	8117.7875
1928.36908	8061.5875
1931.47292	8059.6875
1934.57473	8032.0875
1937.67453	8013.5875
1940.77232	8002.8875
1943.86808	7975.2875
1946.96184	7948.3875
1950.05358	7925.9875
1953.14331	7882.6875
1956.23103	7870.3875
1959.31675	7858.5875
1962.40046	7833.1875
1965.48217	7794.6875
1968.56188	7764.3875
1971.63959	7755.7875
1974.7153	7721.6875
1977.78901	7686.7875
1980.86073	7662.0875
1983.93046	7638.1875
1986.99819	7620.4875
1990.06394	7594.1875
1993.1277	7557.6875
1996.18947	7542.5875
1999.24925	7514.8875
2002.30706	7503.6875
2005.36288	7466.4875
2008.41672	7436.4875
2011.46859	7427.3875
2014.51848	7389.9875
2017.56639	7372.5875
2020.61233	7351.6875
2023.6563	7327.6875
2026.6983	7299.2875
2029.73833	7304.6875
2032.7764	7287.4875
2035.8125	7257.3875
2038.84664	7248.3875
2041.87881	7236.9875
2044.90903	7221.6875
2047.93729	7217.8875
2050.96359	7203.8875
2053.98794	7195.1875
2057.01034	7187.2875
2060.03078	7192.3875
2063.04927	7158.3875
2066.06582	7160.6875
2069.08042	7133.0875
2072.09307	7150.0875
2075.10378	7119.3875
2078.11255	7120.4875
2081.11938	7129.3875
2084.12426	7103.9875
2087.12722	7100.8875
2090.12824	7109.5875
2093.12732	7121.7875
2096.12447	7090.2875
2099.11969	7094.9875
2102.11299	7092.4875
2105.10435	7101.0875
2108.09379	7087.2875
2111.08131	7114.5875
2114.0669	7103.7875
2117.05057	7116.2875
2120.03233	7106.9875
2123.01216	7085.5875
2125.99008	7116.4875
2128.96609	7108.0875
2131.94018	7118.1875
2134.91236	7111.2875
2137.88263	7126.6875
2140.851	7116.6875
2143.81746	7106.0875
2146.78201	7117.6875
2149.74466	7109.6875
2152.7054	7093.3875
2155.66425	7109.7875
2158.6212	7073.0875
2161.57625	7082.4875
2164.52941	7083.4875
2167.48067	7087.3875
2170.43004	7071.2875
2173.37752	7054.6875
2176.32311	7048.2875
2179.26681	7037.3875
2182.20863	7050.4875
2185.14856	7052.9875
2188.08661	7043.3875
2191.02278	7041.2875
2193.95707	7020.7875
2196.88948	7013.6875
2199.82001	7018.8875
2202.74867	7000.4875
2205.67545	6994.7875
2208.60037	6969.2875
2211.52341	6974.3875
2214.44458	6933.1875
2217.36388	6931.1875
2220.28132	6939.2875
2223.1969	6902.7875
2226.11061	6901.1875
2229.02246	6892.3875
2231.93245	6884.4875
2234.84058	6862.8875
2237.74686	6857.9875
2240.65128	6862.8875
2243.55385	6850.0875
2246.45456	6825.4875
2249.35343	6797.4875
2252.25044	6785.9875
2255.14561	6797.9875
2258.03893	6780.4875
2260.93041	6789.5875
2263.82004	6738.7875
2266.70783	6721.6875
2269.59378	6698.9875
2272.4779	6681.0875
2275.36017	6665.2875
2278.24061	6668.0875
2281.11922	6649.1875
2283.996	6633.1875
2286.87094	6616.3875
2289.74405	6597.5875
2292.61534	6603.1875
2295.4848	6582.0875
2298.35243	6582.5875
2301.21824	6571.2875
2304.08223	6574.0875
2306.94439	6559.4875
2309.80474	6536.0875
2312.66327	6540.5875
2315.51999	6508.0875
2318.37489	6518.6875
2321.22797	6504.8875
2324.07925	6489.5875
2326.92871	6491.6875
2329.77637	6501.8875
2332.62222	6487.8875
2335.46626	6468.1875
2338.3085	6456.0875
2341.14893	6484.7875
2343.98756	6472.6875
2346.8244	6454.8875
2349.65943	6453.2875
2352.49267	6457.3875
2355.32411	6444.1875
2358.15376	6455.9875
2360.98161	6436.2875
2363.80768	6460.1875
2366.63195	6431.7875
2369.45444	6422.8875
2372.27514	6425.8875
2375.09405	6409.6875
2377.91118	6394.5875
2380.72652	6372.8875
2383.54009	6354.2875
2386.35187	6339.9875
2389.16188	6326.1875
2391.97011	6302.4875
2394.77657	6294.0875
2397.58125	6303.9875
2400.38416	6292.2875
2403.18529	6283.3875
2405.98466	6258.3875
2408.78226	6264.9875
2411.57809	6239.1875
2414.37216	6222.8875
2417.16446	6233.7875
2419.955	6217.2875
2422.74378	6221.2875
2425.5308	6196.5875
2428.31606	6208.9875
2431.09956	6207.3875
2433.88131	6211.6875
2436.6613	6183.3875
2439.43954	6167.1875
2442.21603	6161.5875
2444.99077	6157.3875
2447.76377	6167.8875
2450.53501	6147.8875
2453.30451	6167.6875
2456.07226	6166.6875
2458.83827	6164.9875
2461.60254	6153.8875
2464.36507	6146.4875
2467.12586	6153.8875
2469.88492	6134.3875
2472.64224	6149.6875
2475.39782	6165.9875
2478.15167	6155.6875
2480.90379	6146.8875
2483.65417	6148.9875
2486.40283	6136.6875
2489.14976	6139.2875
2491.89497	6138.1875
2494.63845	6151.6875
2497.3802	6139.8875
2500.12024	6126.9875
2502.85855	6119.9875
2505.59514	6137.1875
2508.33002	6109.1875
2511.06318	6095.6875
2513.79462	6086.5875
2516.52435	6077.1875
2519.25237	6073.7875
2521.97867	6058.1875
2524.70327	6054.1875
2527.42616	6053.8875
2530.14734	6035.7875
2532.86681	6028.1875
2535.58458	6044.9875
2538.30065	6022.1875
2541.01501	6019.4875
2543.72768	6014.5875
2546.43864	5985.2875
2549.14791	6008.1875
2551.85548	5997.0875
2554.56136	5976.7875
2557.26554	5986.0875
2559.96803	5977.4875
2562.66883	5974.9875
2565.36794	5968.7875
2568.06536	5943.9875
2570.7611	5932.9875
2573.45514	5945.2875
2576.14751	5942.1875
2578.83819	5921.6875
2581.52719	5942.4875
2584.21451	5940.0875
2586.90015	5894.1875
2589.58411	5901.6875
2592.2664	5889.0875
2594.94701	5885.7875
2597.62594	5891.5875
2600.30321	5851.9875
2602.9788	5867.7875
2605.65273	5856.0875
2608.32498	5861.4875
2610.99557	5842.5875
2613.66449	5853.5875
2616.33175	5842.3875
2618.99734	5818.8875
2621.66128	5800.7875
2624.32355	5820.3875
2626.98416	5828.3875
2629.64311	5808.6875
2632.30041	5790.6875
2634.95605	5823.1875
2637.61004	5782.8875
2640.26238	5797.6875
2642.91306	5801.6875
2645.56209	5789.0875
2648.20948	5798.2875
2650.85521	5796.6875
2653.4993	5782.8875
2656.14175	5791.4875
2658.78255	5776.9875
2661.42171	5781.4875
2664.05923	5779.6875
2666.6951	5795.6875
2669.32934	5803.7875
2671.96194	5796.6875
2674.59291	5796.2875
2677.22224	5801.0875
2679.84993	5800.6875
2682.476	5785.4875
2685.10043	5767.6875
2687.72324	5781.9875
2690.34441	5776.8875
2692.96396	5766.1875
2695.58188	5793.3875
2698.19818	5770.8875
2700.81285	5790.6875
2703.4259	5786.0875
2706.03733	5859.0875
2708.64714	5810.8875
2711.25533	5808.6875
2713.86191	5798.0875
2716.46687	5811.0875
2719.07021	5794.6875
2721.67194	5791.1875
2724.27206	5802.2875
2726.87057	5811.4875
2729.46747	5801.5875
2732.06276	5792.9875
2734.65644	5805.6875
2737.24852	5785.2875
2739.83899	5770.5875
2742.42786	5790.8875
2745.01513	5773.0875
2747.60079	5770.1875
2750.18486	5767.1875
2752.76733	5761.4875
2755.3482	5754.1875
2757.92747	5748.7875
2760.50515	5725.1875
2763.08123	5764.0875
2765.65573	5732.2875
2768.22863	5755.9875
2770.79994	5737.0875
2773.36967	5736.9875
2775.9378	5748.1875
2778.50435	5711.8875
2781.06932	5717.0875
2783.6327	5699.3875
2786.1945	5707.7875
2788.75471	5715.4875
2791.31335	5686.2875
2793.87041	5693.2875
2796.42589	5645.3875
2798.97979	5673.2875
2801.53212	5658.7875
2804.08288	5656.3875
2806.63206	5652.7875
2809.17967	5639.5875
2811.72571	5621.7875
2814.27018	5617.2875
2816.81308	5625.2875
2819.35442	5607.7875
2821.89419	5603.1875
2824.43239	5595.5875
2826.96904	5588.9875
2829.50412	5610.4875
2832.03763	5582.1875
2834.56959	5587.1875
2837.1	5565.1875
2839.62884	5576.0875
2842.15613	5589.4875
2844.68186	5585.2875
2847.20604	5609.4875
2849.72867	5618.4875
2852.24974	5605.4875
2854.76927	5605.2875
2857.28724	5602.8875
2859.80367	5593.2875
2862.31855	5573.6875
2864.83189	5557.8875
2867.34368	5556.7875
2869.85393	5565.1875
2872.36264	5548.8875
2874.8698	5546.7875
2877.37543	5546.0875
2879.87952	5551.8875
2882.38207	5537.0875
2884.88308	5550.7875
2887.38256	5543.1875
2889.88051	5539.3875
2892.37692	5554.1875
2894.8718	5543.8875
2897.36515	5556.8875
2899.85698	5541.9875
2902.34727	5555.4875
2904.83604	5556.0875
2907.32328	5577.1875
2909.809	5565.1875
2912.29319	5577.4875
2914.77587	5587.4875
2917.25702	5574.5875
2919.73665	5592.4875
2922.21476	5589.6875
2924.69136	5576.1875
2927.16644	5572.9875
2929.64	5583.3875
2932.11205	5570.2875
2934.58258	5553.6875
2937.05161	5574.0875
2939.51912	5574.7875
2941.98513	5554.3875
2944.44962	5543.0875
2946.91261	5509.4875
2949.37409	5524.2875
2951.83407	5499.9875
2954.29254	5503.9875
2956.74951	5495.5875
2959.20498	5456.8875
2961.65895	5437.9875
2964.11142	5448.4875
2966.56239	5421.8875
2969.01186	5418.2875
2971.45984	5411.8875
2973.90632	5387.2875
2976.35131	5371.2875
2978.7948	5348.4875
2981.23681	5346.5875
2983.67732	5325.8875
2986.11635	5325.0875
2988.55388	5294.7875
2990.98993	5285.1875
2993.4245	5271.9875
2995.85758	5274.3875
2998.28917	5249.1875
3000.71928	5239.9875
3003.14791	5229.1875
3005.57506	5225.9875
3008.00073	5222.6875
3010.42493	5207.8875
3012.84764	5207.8875
3015.26888	5209.1875
3017.68865	5169.9875
3020.10694	5165.0875
3022.52376	5156.1875
3024.9391	5163.8875
3027.35298	5145.3875
3029.76539	5140.3875
3032.17632	5124.0875
3034.5858	5109.2875
3036.9938	5107.7875
3039.40034	5100.5875
3041.80542	5081.6875
3044.20903	5080.1875
3046.61118	5066.3875
3049.01187	5049.4875
3051.4111	5065.1875
3053.80888	5043.0875
3056.20519	5033.7875
3058.60005	5036.2875
3060.99345	5020.4875
3063.3854	4999.4875
3065.7759	4990.4875
3068.16494	4985.1875
3070.55254	4951.9875
3072.93868	4959.6875
3075.32338	4972.6875
3077.70662	4923.6875
3080.08842	4926.7875
