Data from AgNPs_FTO_APTES_UA_2um_CRN_0.1mM_R6G_10uM_NaF_0.1M_Addition_RamanShift__29__12-48-49-068.txt Node

Date: Tue Dec 21 12:48:49 GMT 2021
User: TCL
Spectrometer: QEP01345
Trigger mode: 4
Integration Time (sec): 7.000000E0
Scans to average: 10
Electric dark correction enabled: true
Nonlinearity correction enabled: false
Boxcar width: 0
XAxis mode: Raman Shifts
Number of Pixels in Spectrum: 1044
>>>>>Begin Spectral Data<<<<<
46.04893	0.4125
50.45542	-0.3875
54.85868	-1.0875
59.25871	0.6125
63.6555	35.0125
68.04907	39.6125
72.43941	40.8125
76.82654	44.7125
81.21044	49.0125
85.59113	52.0125
89.96862	49.4125
94.34289	52.4125
98.71396	49.8125
103.08183	56.9125
107.4465	58.1125
111.80798	56.8125
116.16626	58.2125
120.52136	57.8125
124.87327	61.5125
129.222	64.3125
133.56755	68.8125
137.90993	70.0125
142.24913	74.8125
146.58517	79.5125
150.91804	93.6125
155.24774	108.8125
159.57429	130.0125
163.89768	164.5125
168.21792	211.7125
172.53501	279.1125
176.84895	385.6125
181.15975	535.4125
185.46741	749.2125
189.77193	1022.8125
194.07331	1368.5125
198.37157	1767.2125
202.6667	2188.7125
206.9587	2604.2125
211.24758	3033.8125
215.53334	3475.7125
219.81599	3970.5125
224.09553	4532.8125
228.37195	5138.0125
232.64527	5820.6125
236.91549	6517.8125
241.18261	7110.4125
245.44663	7625.7125
249.70755	8058.7125
253.96539	8413.9125
258.22014	8634.3125
262.4718	8845.3125
266.72039	8964.8125
270.96589	9020.5125
275.20832	8997.2125
279.44768	8901.1125
283.68397	8830.6125
287.91719	8801.0125
292.14735	8839.8125
296.37445	9024.5125
300.59849	9338.5125
304.81948	9745.6125
309.03742	10125.7125
313.25231	10133.8125
317.46415	9660.7125
321.67296	8853.8125
325.87872	8151.5125
330.08145	7823.1125
334.28114	7791.9125
338.47781	7915.9125
342.67145	8191.7125
346.86207	8557.4125
351.04966	9147.7125
355.23424	9800.3125
359.4158	10264.4125
363.59435	10466.6125
367.76989	10431.0125
371.94243	10320.8125
376.11196	10169.9125
380.27849	10011.3125
384.44203	9877.9125
388.60257	9721.9125
392.76012	9672.1125
396.91468	9789.1125
401.06626	10106.7125
405.21485	10375.8125
409.36047	10255.2125
413.50311	9677.0125
417.64277	9137.7125
421.77947	8840.3125
425.9132	8748.9125
430.04396	8731.0125
434.17176	8798.8125
438.2966	8916.2125
442.41849	9164.9125
446.53742	9490.9125
450.6534	9802.2125
454.76644	9991.1125
458.87653	9972.7125
462.98368	9824.6125
467.08789	9608.4125
471.18916	9368.9125
475.2875	9106.0125
479.38291	8894.9125
483.4754	8722.0125
487.56496	8603.5125
491.6516	8492.1125
495.73531	8471.3125
499.81612	8490.8125
503.89401	8618.6125
507.96899	8718.6125
512.04106	8790.2125
516.11023	8881.7125
520.1765	8909.4125
524.23987	8851.1125
528.30034	8711.1125
532.35792	8481.9125
536.41261	8248.4125
540.46441	7983.4125
544.51333	7849.8125
548.55936	7897.3125
552.60252	8114.0125
556.64279	8392.4125
560.6802	8602.3125
564.71473	8861.6125
568.7464	9360.2125
572.7752	9775.9125
576.80114	9613.0125
580.82422	9290.8125
584.84444	9167.0125
588.86181	9137.5125
592.87633	9189.2125
596.888	9290.4125
600.89682	9562.0125
604.9028	10582.6125
608.90594	13492.3125
612.90624	17447.5125
616.90371	16964.0125
620.89834	11579.8125
624.89015	8846.0125
628.87913	8372.1125
632.86528	8421.8125
636.84862	8554.9125
640.82913	8405.5125
644.80683	7936.5125
648.78172	7612.5125
652.75379	7624.5125
656.72306	8007.3125
660.68952	8500.1125
664.65319	8461.1125
668.61405	7976.8125
672.57211	7753.3125
676.52738	7727.5125
680.47986	7700.4125
684.42955	7617.7125
688.37646	7573.2125
692.32058	7590.6125
696.26192	7665.8125
700.20048	7829.8125
704.13626	7980.4125
708.06928	8010.2125
711.99952	7904.1125
715.927	7805.0125
719.85171	7779.2125
723.77365	7732.7125
727.69284	7613.0125
731.60928	7509.1125
735.52295	7471.6125
739.43388	7526.6125
743.34206	7594.1125
747.24749	7668.5125
751.15017	7788.8125
755.05012	7992.1125
758.94733	8517.9125
762.8418	9617.2125
766.73354	11463.0125
770.62254	13297.2125
774.50882	14152.0125
778.39237	13577.6125
782.27321	11688.0125
786.15132	9667.1125
790.02671	8417.5125
793.89938	7884.4125
797.76935	7653.0125
801.6366	7566.9125
805.50115	7490.3125
809.36299	7443.5125
813.22213	7400.1125
817.07857	7371.9125
820.93231	7348.0125
824.78336	7372.8125
828.63172	7431.3125
832.47738	7434.4125
836.32036	7430.5125
840.16066	7369.0125
843.99827	7290.5125
847.8332	7259.7125
851.66546	7220.3125
855.49504	7255.4125
859.32195	7233.3125
863.1462	7186.8125
866.96777	7130.4125
870.78668	7105.5125
874.60293	7120.9125
878.41652	7156.8125
882.22745	7210.3125
886.03573	7259.0125
889.84136	7245.3125
893.64433	7195.6125
897.44466	7154.3125
901.24235	7165.9125
905.0374	7132.0125
908.8298	7068.2125
912.61957	7071.7125
916.40671	7103.3125
920.19121	7231.6125
923.97308	7353.2125
927.75233	7437.7125
931.52895	7497.8125
935.30295	7356.7125
939.07433	7067.1125
942.84309	6801.7125
946.60924	6692.1125
950.37278	6609.1125
954.13371	6573.4125
957.89203	6535.1125
961.64774	6513.4125
965.40086	6482.1125
969.15137	6464.7125
972.89929	6431.9125
976.64461	6421.4125
980.38733	6420.1125
984.12747	6423.3125
987.86502	6473.3125
991.59999	6495.8125
995.33237	6597.2125
999.06217	6794.8125
1002.78939	7017.5125
1006.51404	7286.3125
1010.23611	7508.8125
1013.95561	7612.5125
1017.67255	7583.9125
1021.38692	7385.3125
1025.09872	7188.0125
1028.80796	7095.0125
1032.51465	7124.3125
1036.21877	7258.6125
1039.92035	7389.0125
1043.61937	7458.9125
1047.31584	7434.3125
1051.00976	7397.1125
1054.70114	7340.9125
1058.38998	7319.4125
1062.07627	7362.5125
1065.76003	7449.3125
1069.44126	7550.9125
1073.11995	7707.3125
1076.79611	7825.6125
1080.46974	7956.7125
1084.14085	8147.7125
1087.80943	8416.8125
1091.47549	8493.7125
1095.13903	8358.0125
1098.80005	7985.6125
1102.45857	7608.5125
1106.11456	7431.4125
1109.76805	7416.0125
1113.41903	7591.8125
1117.06751	7875.2125
1120.71348	8304.4125
1124.35696	8844.0125
1127.99793	9229.2125
1131.63641	9118.6125
1135.2724	8606.7125
1138.90589	8141.6125
1142.5369	7873.3125
1146.16542	7699.9125
1149.79145	7623.8125
1153.415	7634.1125
1157.03607	7729.8125
1160.65467	7926.7125
1164.27079	8255.2125
1167.88443	8805.3125
1171.49561	9697.0125
1175.10432	11178.6125
1178.71056	13049.4125
1182.31434	14367.3125
1185.91565	14646.5125
1189.51451	14177.6125
1193.11091	13377.0125
1196.70485	12406.1125
1200.29634	11580.1125
1203.88538	10842.8125
1207.47197	10028.7125
1211.05612	9352.1125
1214.63782	8975.6125
1218.21708	8883.6125
1221.79391	8897.0125
1225.36829	8981.8125
1228.94024	8999.6125
1232.50976	8989.4125
1236.07685	8921.1125
1239.6415	8883.9125
1243.20374	8874.9125
1246.76355	8904.5125
1250.32093	8992.0125
1253.8759	9213.6125
1257.42845	9581.1125
1260.97859	9934.1125
1264.52631	10308.4125
1268.07163	10637.3125
1271.61453	11008.4125
1275.15503	11265.7125
1278.69312	11421.5125
1282.22882	11564.1125
1285.76211	11920.6125
1289.29301	12421.8125
1292.82151	12917.5125
1296.34761	13483.6125
1299.87133	14283.7125
1303.39266	15567.0125
1306.9116	17459.1125
1310.42815	19588.8125
1313.94233	20827.4125
1317.45412	20510.9125
1320.96354	19106.2125
1324.47058	17647.7125
1327.97525	16441.4125
1331.47754	15646.0125
1334.97747	15301.1125
1338.47502	15341.9125
1341.97022	15608.0125
1345.46305	16053.5125
1348.95352	16728.2125
1352.44163	17671.2125
1355.92738	19294.0125
1359.41078	21813.6125
1362.89183	24031.8125
1366.37053	23300.3125
1369.84688	20182.6125
1373.32088	16990.0125
1376.79254	14750.0125
1380.26186	13406.1125
1383.72883	12692.7125
1387.19347	12178.6125
1390.65578	11737.3125
1394.11575	11525.8125
1397.57339	11496.5125
1401.0287	11679.4125
1404.48168	11907.5125
1407.93234	12075.7125
1411.38068	12070.5125
1414.82669	11888.6125
1418.27039	11476.9125
1421.71177	11016.2125
1425.15083	10646.1125
1428.58758	10464.3125
1432.02203	10478.9125
1435.45416	10547.4125
1438.88399	10583.7125
1442.31151	10597.8125
1445.73673	10654.9125
1449.15965	10744.2125
1452.58027	10757.3125
1455.9986	10702.2125
1459.41463	10705.0125
1462.82837	10909.8125
1466.23982	11218.0125
1469.64898	11435.2125
1473.05586	11625.1125
1476.46045	11731.6125
1479.86276	11907.7125
1483.26279	12110.6125
1486.66054	12381.3125
1490.05602	12827.3125
1493.44922	13403.9125
1496.84016	14310.9125
1500.22882	15686.6125
1503.61521	17544.6125
1506.99934	19580.1125
1510.38121	21359.4125
1513.76081	22095.6125
1517.13816	21059.4125
1520.51324	18483.1125
1523.88607	15943.0125
1527.25665	14311.6125
1530.62498	13388.5125
1533.99105	12854.8125
1537.35488	12531.9125
1540.71647	12337.4125
1544.07581	12166.8125
1547.4329	11983.1125
1550.78776	11834.1125
1554.14038	11683.3125
1557.49077	11621.3125
1560.83892	11752.8125
1564.18484	12104.2125
1567.52853	12530.1125
1570.86999	12862.2125
1574.20922	13052.0125
1577.54624	12978.3125
1580.88103	12310.0125
1584.2136	11422.7125
1587.54395	11058.1125
1590.87208	11349.7125
1594.19801	12192.5125
1597.52172	13271.0125
1600.84321	13836.4125
1604.16251	13370.0125
1607.47959	12323.1125
1610.79447	11064.8125
1614.10715	9924.6125
1617.41763	9068.3125
1620.7259	8517.6125
1624.03199	8283.8125
1627.33587	8271.4125
1630.63757	8479.7125
1633.93707	8973.7125
1637.23439	9796.4125
1640.52951	10976.1125
1643.82246	12610.1125
1647.11321	14453.3125
1650.40179	15701.7125
1653.68819	15359.1125
1656.97241	13307.1125
1660.25446	10884.1125
1663.53433	9077.2125
1666.81203	7972.5125
1670.08756	7345.5125
1673.36092	6940.4125
1676.63211	6696.4125
1679.90115	6526.6125
1683.16801	6378.4125
1686.43272	6283.4125
1689.69527	6212.4125
1692.95567	6166.6125
1696.2139	6142.4125
1699.46999	6138.6125
1702.72392	6110.4125
1705.97571	6072.6125
1709.22535	6034.9125
1712.47284	6022.4125
1715.71819	6030.6125
1718.96139	6041.2125
1722.20246	6017.6125
1725.44139	5976.3125
1728.67818	5930.2125
1731.91284	5881.9125
1735.14537	5825.2125
1738.37576	5790.1125
1741.60403	5756.1125
1744.83017	5729.4125
1748.05418	5713.7125
1751.27607	5710.9125
1754.49584	5707.7125
1757.71349	5708.3125
1760.92903	5696.3125
1764.14244	5645.9125
1767.35375	5638.2125
1770.56294	5605.9125
1773.77002	5568.8125
1776.97499	5535.4125
1780.17785	5510.5125
1783.37861	5490.2125
1786.57727	5457.8125
1789.77382	5430.9125
1792.96828	5424.1125
1796.16064	5400.8125
1799.3509	5393.0125
1802.53907	5384.3125
1805.72514	5358.2125
1808.90913	5355.7125
1812.09102	5323.6125
1815.27083	5314.5125
1818.44856	5304.6125
1821.6242	5288.7125
1824.79776	5283.4125
1827.96924	5269.2125
1831.13864	5253.3125
1834.30597	5240.2125
1837.47122	5231.7125
1840.6344	5224.5125
1843.7955	5210.7125
1846.95454	5221.9125
1850.11151	5217.8125
1853.26642	5214.1125
1856.41926	5221.8125
1859.57004	5211.7125
1862.71876	5213.4125
1865.86542	5218.0125
1869.01003	5221.0125
1872.15258	5228.0125
1875.29308	5219.0125
1878.43152	5220.8125
1881.56792	5218.0125
1884.70227	5217.2125
1887.83457	5211.9125
1890.96482	5221.7125
1894.09304	5220.9125
1897.21921	5232.0125
1900.34335	5215.3125
1903.46544	5236.0125
1906.58551	5239.8125
1909.70353	5243.0125
1912.81953	5244.0125
1915.93349	5212.4125
1919.04543	5217.9125
1922.15534	5213.6125
1925.26322	5213.4125
1928.36908	5192.1125
1931.47292	5153.1125
1934.57473	5123.8125
1937.67453	5104.1125
1940.77232	5084.7125
1943.86808	5050.4125
1946.96184	5030.8125
1950.05358	5002.9125
1953.14331	4976.4125
1956.23103	4945.8125
1959.31675	4929.1125
1962.40046	4918.5125
1965.48217	4896.0125
1968.56188	4882.4125
1971.63959	4864.1125
1974.7153	4858.7125
1977.78901	4831.5125
1980.86073	4803.0125
1983.93046	4789.5125
1986.99819	4769.8125
1990.06394	4757.5125
1993.1277	4740.5125
1996.18947	4724.7125
1999.24925	4704.4125
2002.30706	4679.7125
2005.36288	4659.0125
2008.41672	4661.3125
2011.46859	4647.6125
2014.51848	4639.6125
2017.56639	4627.6125
2020.61233	4600.9125
2023.6563	4585.4125
2026.6983	4569.5125
2029.73833	4572.0125
2032.7764	4545.1125
2035.8125	4526.7125
2038.84664	4536.2125
2041.87881	4521.0125
2044.90903	4511.6125
2047.93729	4500.8125
2050.96359	4497.4125
2053.98794	4490.5125
2057.01034	4482.5125
2060.03078	4465.0125
2063.04927	4474.9125
2066.06582	4445.4125
2069.08042	4436.4125
2072.09307	4436.0125
2075.10378	4455.0125
2078.11255	4455.1125
2081.11938	4443.7125
2084.12426	4436.7125
2087.12722	4427.9125
2090.12824	4420.9125
2093.12732	4414.5125
2096.12447	4423.7125
2099.11969	4393.3125
2102.11299	4422.0125
2105.10435	4408.5125
2108.09379	4410.0125
2111.08131	4419.2125
2114.0669	4410.0125
2117.05057	4411.5125
2120.03233	4421.4125
2123.01216	4409.7125
2125.99008	4426.2125
2128.96609	4408.9125
2131.94018	4424.0125
2134.91236	4427.0125
2137.88263	4424.7125
2140.851	4417.7125
2143.81746	4421.2125
2146.78201	4426.6125
2149.74466	4423.9125
2152.7054	4409.7125
2155.66425	4389.9125
2158.6212	4390.5125
2161.57625	4389.9125
2164.52941	4389.3125
2167.48067	4376.7125
2170.43004	4375.2125
2173.37752	4385.7125
2176.32311	4357.6125
2179.26681	4369.6125
2182.20863	4371.5125
2185.14856	4379.1125
2188.08661	4368.0125
2191.02278	4373.6125
2193.95707	4370.8125
2196.88948	4363.5125
2199.82001	4349.7125
2202.74867	4343.6125
2205.67545	4348.6125
2208.60037	4326.2125
2211.52341	4308.5125
2214.44458	4298.9125
2217.36388	4297.2125
2220.28132	4281.8125
2223.1969	4269.6125
2226.11061	4278.3125
2229.02246	4247.2125
2231.93245	4249.1125
2234.84058	4231.5125
2237.74686	4230.2125
2240.65128	4227.7125
2243.55385	4209.8125
2246.45456	4224.9125
2249.35343	4181.0125
2252.25044	4207.5125
2255.14561	4199.1125
2258.03893	4197.5125
2260.93041	4212.3125
2263.82004	4201.0125
2266.70783	4167.4125
2269.59378	4154.9125
2272.4779	4148.8125
2275.36017	4145.4125
2278.24061	4120.7125
2281.11922	4127.3125
2283.996	4117.7125
2286.87094	4092.8125
2289.74405	4087.7125
2292.61534	4075.4125
2295.4848	4065.3125
2298.35243	4062.1125
2301.21824	4049.3125
2304.08223	4056.3125
2306.94439	4054.2125
2309.80474	4060.1125
2312.66327	4057.5125
2315.51999	4044.3125
2318.37489	4029.5125
2321.22797	4033.1125
2324.07925	4017.2125
2326.92871	4007.3125
2329.77637	4024.2125
2332.62222	4021.5125
2335.46626	4007.2125
2338.3085	4008.9125
2341.14893	4004.2125
2343.98756	4018.5125
2346.8244	3999.3125
2349.65943	4004.3125
2352.49267	4000.6125
2355.32411	4023.3125
2358.15376	4015.5125
2360.98161	4029.3125
2363.80768	4026.5125
2366.63195	4033.7125
2369.45444	4024.3125
2372.27514	4028.9125
2375.09405	4007.7125
2377.91118	3997.6125
2380.72652	3995.0125
2383.54009	3977.5125
2386.35187	3960.4125
2389.16188	3935.9125
2391.97011	3931.5125
2394.77657	3913.2125
2397.58125	3896.3125
2400.38416	3883.0125
2403.18529	3868.9125
2405.98466	3875.5125
2408.78226	3845.5125
2411.57809	3836.6125
2414.37216	3853.0125
2417.16446	3843.6125
2419.955	3817.2125
2422.74378	3840.1125
2425.5308	3821.2125
2428.31606	3821.4125
2431.09956	3815.0125
2433.88131	3821.6125
2436.6613	3821.2125
2439.43954	3825.3125
2442.21603	3811.3125
2444.99077	3807.7125
2447.76377	3802.8125
2450.53501	3832.6125
2453.30451	3814.6125
2456.07226	3827.4125
2458.83827	3819.8125
2461.60254	3805.4125
2464.36507	3804.3125
2467.12586	3797.6125
2469.88492	3799.2125
2472.64224	3787.6125
2475.39782	3817.3125
2478.15167	3819.6125
2480.90379	3812.7125
2483.65417	3817.5125
2486.40283	3833.5125
2489.14976	3839.8125
2491.89497	3830.2125
2494.63845	3852.8125
2497.3802	3844.8125
2500.12024	3850.5125
2502.85855	3833.5125
2505.59514	3826.6125
2508.33002	3796.7125
2511.06318	3787.4125
2513.79462	3774.3125
2516.52435	3760.7125
2519.25237	3752.3125
2521.97867	3730.8125
2524.70327	3735.4125
2527.42616	3716.3125
2530.14734	3706.8125
2532.86681	3703.3125
2535.58458	3706.7125
2538.30065	3694.8125
2541.01501	3692.5125
2543.72768	3701.0125
2546.43864	3687.4125
2549.14791	3675.9125
2551.85548	3681.6125
2554.56136	3682.2125
2557.26554	3688.3125
2559.96803	3681.0125
2562.66883	3688.9125
2565.36794	3671.4125
2568.06536	3649.3125
2570.7611	3659.0125
2573.45514	3657.1125
2576.14751	3639.3125
2578.83819	3634.0125
2581.52719	3647.1125
2584.21451	3625.1125
2586.90015	3629.9125
2589.58411	3632.2125
2592.2664	3629.3125
2594.94701	3616.2125
2597.62594	3617.0125
2600.30321	3611.8125
2602.9788	3596.4125
2605.65273	3610.8125
2608.32498	3599.8125
2610.99557	3606.7125
2613.66449	3608.2125
2616.33175	3594.5125
2618.99734	3585.9125
2621.66128	3590.9125
2624.32355	3582.4125
2626.98416	3591.9125
2629.64311	3587.8125
2632.30041	3584.0125
2634.95605	3571.4125
2637.61004	3556.8125
2640.26238	3558.1125
2642.91306	3560.5125
2645.56209	3552.8125
2648.20948	3559.4125
2650.85521	3540.1125
2653.4993	3542.1125
2656.14175	3540.0125
2658.78255	3546.9125
2661.42171	3555.2125
2664.05923	3555.4125
2666.6951	3562.1125
2669.32934	3568.0125
2671.96194	3559.9125
2674.59291	3580.2125
2677.22224	3569.1125
2679.84993	3565.0125
2682.476	3566.3125
2685.10043	3569.8125
2687.72324	3563.4125
2690.34441	3568.0125
2692.96396	3558.1125
2695.58188	3570.8125
2698.19818	3576.2125
2700.81285	3575.8125
2703.4259	3598.3125
2706.03733	3667.0125
2708.64714	3617.2125
2711.25533	3609.1125
2713.86191	3606.3125
2716.46687	3605.4125
2719.07021	3602.0125
2721.67194	3606.6125
2724.27206	3584.9125
2726.87057	3587.1125
2729.46747	3600.9125
2732.06276	3600.8125
2734.65644	3589.6125
2737.24852	3577.5125
2739.83899	3564.8125
2742.42786	3569.0125
2745.01513	3552.1125
2747.60079	3556.8125
2750.18486	3547.5125
2752.76733	3535.9125
2755.3482	3534.4125
2757.92747	3527.1125
2760.50515	3542.1125
2763.08123	3541.6125
2765.65573	3526.5125
2768.22863	3536.3125
2770.79994	3526.3125
2773.36967	3522.0125
2775.9378	3532.8125
2778.50435	3534.0125
2781.06932	3534.6125
2783.6327	3541.5125
2786.1945	3531.0125
2788.75471	3546.3125
2791.31335	3533.8125
2793.87041	3536.7125
2796.42589	3537.9125
2798.97979	3547.7125
2801.53212	3542.1125
2804.08288	3544.2125
2806.63206	3556.2125
2809.17967	3538.7125
2811.72571	3554.6125
2814.27018	3570.9125
2816.81308	3579.5125
2819.35442	3583.9125
2821.89419	3579.0125
2824.43239	3586.6125
2826.96904	3594.9125
2829.50412	3599.9125
2832.03763	3596.5125
2834.56959	3603.8125
2837.1	3595.9125
2839.62884	3619.9125
2842.15613	3659.0125
2844.68186	3687.8125
2847.20604	3753.9125
2849.72867	3811.9125
2852.24974	3815.5125
2854.76927	3841.4125
2857.28724	3831.5125
2859.80367	3810.3125
2862.31855	3788.4125
2864.83189	3761.6125
2867.34368	3754.6125
2869.85393	3752.3125
2872.36264	3729.1125
2874.8698	3725.4125
2877.37543	3734.8125
2879.87952	3721.0125
2882.38207	3711.4125
2884.88308	3693.9125
2887.38256	3716.3125
2889.88051	3708.0125
2892.37692	3705.5125
2894.8718	3705.1125
2897.36515	3729.8125
2899.85698	3719.2125
2902.34727	3740.9125
2904.83604	3717.7125
2907.32328	3719.3125
2909.809	3723.5125
2912.29319	3727.3125
2914.77587	3708.7125
2917.25702	3714.3125
2919.73665	3689.8125
2922.21476	3706.9125
2924.69136	3694.3125
2927.16644	3686.8125
2929.64	3682.8125
2932.11205	3666.4125
2934.58258	3639.6125
2937.05161	3637.6125
2939.51912	3626.7125
2941.98513	3598.5125
2944.44962	3560.0125
2946.91261	3537.8125
2949.37409	3503.7125
2951.83407	3467.9125
2954.29254	3465.0125
2956.74951	3427.8125
2959.20498	3418.3125
2961.65895	3403.9125
2964.11142	3396.2125
2966.56239	3368.0125
2969.01186	3352.6125
2971.45984	3345.2125
2973.90632	3322.1125
2976.35131	3311.0125
2978.7948	3295.5125
2981.23681	3303.0125
2983.67732	3286.1125
2986.11635	3280.3125
2988.55388	3261.8125
2990.98993	3242.0125
2993.4245	3234.8125
2995.85758	3226.6125
2998.28917	3211.3125
3000.71928	3218.7125
3003.14791	3203.1125
3005.57506	3218.6125
3008.00073	3199.3125
3010.42493	3194.5125
3012.84764	3175.6125
3015.26888	3174.8125
3017.68865	3169.4125
3020.10694	3164.6125
3022.52376	3166.0125
3024.9391	3149.4125
3027.35298	3157.0125
3029.76539	3150.6125
3032.17632	3149.0125
3034.5858	3127.9125
3036.9938	3116.5125
3039.40034	3099.2125
3041.80542	3123.5125
3044.20903	3086.5125
3046.61118	3107.8125
3049.01187	3096.8125
3051.4111	3085.5125
3053.80888	3087.2125
3056.20519	3071.1125
3058.60005	3074.8125
3060.99345	3062.3125
3063.3854	3063.1125
3065.7759	3047.5125
3068.16494	3049.3125
3070.55254	3024.4125
3072.93868	3022.4125
3075.32338	3026.3125
3077.70662	3005.2125
3080.08842	2987.7125
3082.46878	2980.7125
3084.84769	2969.2125
3087.22515	2975.3125
3089.60118	2962.6125
3091.97576	2963.5125
3094.3489	2957.5125
3096.72061	2960.3125
3099.09087	2961.2125
3101.4597	2941.3125
3103.82709	2951.2125
3106.19305	2954.6125
3108.55757	2945.6125
