Data from AgNPs_FTO_APTES_UA_100um_CRN_0.1mM_R6G_10uM_NaF_0.1M_Addition_RamanShift__2__15-47-19-272.txt Node

Date: Tue Dec 21 15:47:19 GMT 2021
User: TCL
Spectrometer: QEP01345
Trigger mode: 4
Integration Time (sec): 7.000000E0
Scans to average: 10
Electric dark correction enabled: true
Nonlinearity correction enabled: false
Boxcar width: 0
XAxis mode: Raman Shifts
Number of Pixels in Spectrum: 1044
>>>>>Begin Spectral Data<<<<<
46.04893	0.875
50.45542	-1.525
54.85868	-0.325
59.25871	-0.025
63.6555	36.475
68.04907	41.175
72.43941	42.975
76.82654	46.375
81.21044	49.575
85.59113	52.075
89.96862	52.075
94.34289	55.875
98.71396	54.175
103.08183	58.975
107.4465	58.975
111.80798	59.875
116.16626	57.475
120.52136	59.075
124.87327	60.775
129.222	59.175
133.56755	66.975
137.90993	73.575
142.24913	77.175
146.58517	83.675
150.91804	93.075
155.24774	107.375
159.57429	132.575
163.89768	163.475
168.21792	212.675
172.53501	279.875
176.84895	395.875
181.15975	545.575
185.46741	763.275
189.77193	1053.775
194.07331	1414.975
198.37157	1824.475
202.6667	2269.675
206.9587	2703.275
211.24758	3142.475
215.53334	3584.075
219.81599	4054.075
224.09553	4566.575
228.37195	5136.075
232.64527	5768.375
236.91549	6452.175
241.18261	7093.675
245.44663	7666.175
249.70755	8198.075
253.96539	8631.275
258.22014	8982.275
262.4718	9273.275
266.72039	9516.575
270.96589	9629.175
275.20832	9603.275
279.44768	9558.375
283.68397	9451.575
287.91719	9296.375
292.14735	9252.475
296.37445	9256.875
300.59849	9371.575
304.81948	9503.175
309.03742	9523.075
313.25231	9441.575
317.46415	9219.375
321.67296	8841.975
325.87872	8561.075
330.08145	8406.575
334.28114	8368.675
338.47781	8434.975
342.67145	8530.275
346.86207	8726.775
351.04966	8946.475
355.23424	9199.675
359.4158	9400.075
363.59435	9556.775
367.76989	9646.275
371.94243	9693.875
376.11196	9772.775
380.27849	9826.675
384.44203	9815.775
388.60257	9852.275
392.76012	9926.475
396.91468	9998.475
401.06626	10159.375
405.21485	10249.975
409.36047	10207.375
413.50311	9938.975
417.64277	9684.175
421.77947	9492.975
425.9132	9420.075
430.04396	9409.575
434.17176	9444.875
438.2966	9515.075
442.41849	9605.275
446.53742	9717.575
450.6534	9866.875
454.76644	10009.675
458.87653	10082.275
462.98368	10095.475
467.08789	10062.275
471.18916	10020.175
475.2875	9954.475
479.38291	9900.575
483.4754	9861.575
487.56496	9789.675
491.6516	9708.375
495.73531	9633.675
499.81612	9582.375
503.89401	9618.275
507.96899	9605.375
512.04106	9637.175
516.11023	9695.475
520.1765	9699.375
524.23987	9652.175
528.30034	9582.775
532.35792	9538.575
536.41261	9418.575
540.46441	9326.075
544.51333	9293.975
548.55936	9368.475
552.60252	9475.075
556.64279	9621.475
560.6802	9715.075
564.71473	9763.175
568.7464	9879.475
572.7752	10048.675
576.80114	10118.975
580.82422	10086.975
584.84444	10117.575
588.86181	10156.175
592.87633	10125.475
596.888	10116.975
600.89682	10190.875
604.9028	10642.575
608.90594	12000.275
612.90624	13758.375
616.90371	13459.375
620.89834	11010.575
624.89015	9724.475
628.87913	9569.775
632.86528	9740.875
636.84862	9924.575
640.82913	9888.175
644.80683	9586.475
648.78172	9306.575
652.75379	9174.275
656.72306	9238.875
660.68952	9403.875
664.65319	9379.575
668.61405	9125.975
672.57211	9015.075
676.52738	9007.475
680.47986	9041.675
684.42955	9000.975
688.37646	8961.075
692.32058	8926.575
696.26192	8952.875
700.20048	8994.275
704.13626	9046.575
708.06928	9066.875
711.99952	9010.875
715.927	9021.075
719.85171	9007.175
723.77365	9019.475
727.69284	8980.775
731.60928	8924.775
735.52295	8856.075
739.43388	8834.375
743.34206	8851.775
747.24749	8866.375
751.15017	8895.775
755.05012	8962.675
758.94733	9177.575
762.8418	9682.775
766.73354	10542.575
770.62254	11532.075
774.50882	12077.075
778.39237	11651.875
782.27321	10600.075
786.15132	9654.175
790.02671	9111.575
793.89938	8822.575
797.76935	8722.575
801.6366	8685.175
805.50115	8631.475
809.36299	8632.575
813.22213	8664.875
817.07857	8648.475
820.93231	8624.075
824.78336	8580.775
828.63172	8533.275
832.47738	8511.875
836.32036	8474.175
840.16066	8433.875
843.99827	8420.375
847.8332	8398.175
851.66546	8365.175
855.49504	8350.675
859.32195	8353.775
863.1462	8330.075
866.96777	8304.075
870.78668	8311.675
874.60293	8328.675
878.41652	8358.875
882.22745	8376.075
886.03573	8420.075
889.84136	8439.075
893.64433	8393.775
897.44466	8340.775
901.24235	8278.375
905.0374	8241.375
908.8298	8188.375
912.61957	8160.075
916.40671	8165.575
920.19121	8209.775
923.97308	8255.475
927.75233	8226.875
931.52895	8261.275
935.30295	8193.175
939.07433	8046.575
942.84309	7904.575
946.60924	7840.375
950.37278	7781.975
954.13371	7759.875
957.89203	7756.475
961.64774	7732.075
965.40086	7689.975
969.15137	7651.775
972.89929	7624.475
976.64461	7602.075
980.38733	7587.875
984.12747	7578.675
987.86502	7606.475
991.59999	7616.775
995.33237	7625.075
999.06217	7698.775
1002.78939	7778.475
1006.51404	7862.275
1010.23611	7960.975
1013.95561	8022.875
1017.67255	8047.875
1021.38692	7990.675
1025.09872	7958.975
1028.80796	7850.175
1032.51465	7831.075
1036.21877	7814.875
1039.92035	7850.375
1043.61937	7898.475
1047.31584	7909.775
1051.00976	7938.075
1054.70114	7939.175
1058.38998	7960.375
1062.07627	7992.475
1065.76003	8074.975
1069.44126	8130.475
1073.11995	8207.975
1076.79611	8301.175
1080.46974	8358.675
1084.14085	8375.475
1087.80943	8427.475
1091.47549	8482.275
1095.13903	8507.575
1098.80005	8411.275
1102.45857	8223.975
1106.11456	8106.775
1109.76805	8050.475
1113.41903	8107.175
1117.06751	8217.375
1120.71348	8399.675
1124.35696	8618.975
1127.99793	8838.375
1131.63641	8987.775
1135.2724	8882.875
1138.90589	8689.475
1142.5369	8507.675
1146.16542	8376.175
1149.79145	8306.075
1153.415	8253.275
1157.03607	8237.575
1160.65467	8339.475
1164.27079	8512.275
1167.88443	8837.575
1171.49561	9258.575
1175.10432	9937.875
1178.71056	10786.975
1182.31434	11550.975
1185.91565	11826.175
1189.51451	11698.775
1193.11091	11308.575
1196.70485	10826.075
1200.29634	10413.875
1203.88538	10094.775
1207.47197	9770.075
1211.05612	9435.775
1214.63782	9186.275
1218.21708	8989.675
1221.79391	8821.875
1225.36829	8727.475
1228.94024	8671.775
1232.50976	8628.575
1236.07685	8622.575
1239.6415	8591.075
1243.20374	8621.675
1246.76355	8662.375
1250.32093	8725.175
1253.8759	8831.775
1257.42845	9017.675
1260.97859	9211.075
1264.52631	9400.075
1268.07163	9593.575
1271.61453	9769.875
1275.15503	9890.775
1278.69312	10018.075
1282.22882	10148.675
1285.76211	10329.575
1289.29301	10647.375
1292.82151	10971.075
1296.34761	11399.775
1299.87133	11869.575
1303.39266	12429.275
1306.9116	13204.075
1310.42815	13974.575
1313.94233	14429.375
1317.45412	14303.575
1320.96354	13855.475
1324.47058	13377.975
1327.97525	12890.775
1331.47754	12526.475
1334.97747	12279.175
1338.47502	12170.075
1341.97022	12222.375
1345.46305	12373.375
1348.95352	12675.175
1352.44163	13064.175
1355.92738	13756.175
1359.41078	14865.675
1362.89183	16149.675
1366.37053	16216.375
1369.84688	14639.075
1373.32088	12667.075
1376.79254	11353.775
1380.26186	10673.375
1383.72883	10384.875
1387.19347	10189.575
1390.65578	10019.275
1394.11575	9830.875
1397.57339	9670.175
1401.0287	9594.475
1404.48168	9560.575
1407.93234	9453.675
1411.38068	9299.975
1414.82669	9109.475
1418.27039	8914.975
1421.71177	8726.775
1425.15083	8544.175
1428.58758	8411.575
1432.02203	8412.975
1435.45416	8483.375
1438.88399	8550.275
1442.31151	8603.775
1445.73673	8710.975
1449.15965	8811.275
1452.58027	8857.775
1455.9986	8909.175
1459.41463	8944.375
1462.82837	9014.675
1466.23982	9158.175
1469.64898	9287.575
1473.05586	9373.475
1476.46045	9430.575
1479.86276	9476.375
1483.26279	9565.875
1486.66054	9674.875
1490.05602	9887.375
1493.44922	10179.375
1496.84016	10673.075
1500.22882	11450.875
1503.61521	12520.975
1506.99934	13741.075
1510.38121	14752.275
1513.76081	15063.975
1517.13816	14396.275
1520.51324	13173.075
1523.88607	11971.575
1527.25665	11147.475
1530.62498	10652.275
1533.99105	10364.275
1537.35488	10159.175
1540.71647	9924.775
1544.07581	9724.675
1547.4329	9539.575
1550.78776	9433.775
1554.14038	9371.875
1557.49077	9432.475
1560.83892	9544.875
1564.18484	9692.775
1567.52853	9919.475
1570.86999	10104.375
1574.20922	10284.275
1577.54624	10326.475
1580.88103	10081.175
1584.2136	9727.475
1587.54395	9461.475
1590.87208	9448.275
1594.19801	9653.475
1597.52172	10000.775
1600.84321	10108.575
1604.16251	9859.875
1607.47959	9416.975
1610.79447	8960.475
1614.10715	8527.075
1617.41763	8104.575
1620.7259	7788.975
1624.03199	7638.675
1627.33587	7572.175
1630.63757	7636.875
1633.93707	7886.975
1637.23439	8302.775
1640.52951	8935.175
1643.82246	9854.975
1647.11321	10934.375
1650.40179	11765.875
1653.68819	11703.975
1656.97241	10714.275
1660.25446	9402.775
1663.53433	8358.575
1666.81203	7656.575
1670.08756	7205.275
1673.36092	6926.775
1676.63211	6724.475
1679.90115	6591.375
1683.16801	6502.475
1686.43272	6425.375
1689.69527	6375.075
1692.95567	6360.075
1696.2139	6347.775
1699.46999	6319.475
1702.72392	6282.875
1705.97571	6196.175
1709.22535	6121.175
1712.47284	6073.175
1715.71819	6046.075
1718.96139	5990.975
1722.20246	5954.975
1725.44139	5917.375
1728.67818	5876.475
1731.91284	5851.975
1735.14537	5801.475
1738.37576	5796.975
1741.60403	5751.875
1744.83017	5735.575
1748.05418	5739.875
1751.27607	5721.975
1754.49584	5719.675
1757.71349	5721.575
1760.92903	5719.175
1764.14244	5694.275
1767.35375	5682.475
1770.56294	5647.875
1773.77002	5622.475
1776.97499	5596.175
1780.17785	5566.875
1783.37861	5547.375
1786.57727	5532.375
1789.77382	5539.175
1792.96828	5505.875
1796.16064	5495.275
1799.3509	5457.575
1802.53907	5458.875
1805.72514	5426.275
1808.90913	5394.875
1812.09102	5391.375
1815.27083	5376.475
1818.44856	5338.775
1821.6242	5342.775
1824.79776	5341.375
1827.96924	5296.975
1831.13864	5308.275
1834.30597	5290.775
1837.47122	5264.175
1840.6344	5274.675
1843.7955	5266.375
1846.95454	5275.975
1850.11151	5247.775
1853.26642	5253.175
1856.41926	5232.975
1859.57004	5218.775
1862.71876	5223.075
1865.86542	5214.475
1869.01003	5185.275
1872.15258	5190.175
1875.29308	5193.575
1878.43152	5180.575
1881.56792	5152.775
1884.70227	5136.875
1887.83457	5159.575
1890.96482	5127.775
1894.09304	5114.675
1897.21921	5119.675
1900.34335	5103.675
1903.46544	5100.075
1906.58551	5084.475
1909.70353	5084.175
1912.81953	5065.275
1915.93349	5060.275
1919.04543	5046.875
1922.15534	5038.275
1925.26322	5017.375
1928.36908	5009.775
1931.47292	4986.275
1934.57473	4974.475
1937.67453	4965.775
1940.77232	4934.275
1943.86808	4928.275
1946.96184	4917.275
1950.05358	4903.275
1953.14331	4875.775
1956.23103	4867.775
1959.31675	4846.375
1962.40046	4834.275
1965.48217	4818.375
1968.56188	4806.575
1971.63959	4789.375
1974.7153	4763.075
1977.78901	4747.275
1980.86073	4740.175
1983.93046	4724.075
1986.99819	4685.575
1990.06394	4682.475
1993.1277	4664.775
1996.18947	4637.375
1999.24925	4640.075
2002.30706	4621.275
2005.36288	4590.775
2008.41672	4569.575
2011.46859	4544.775
2014.51848	4539.975
2017.56639	4535.775
2020.61233	4502.175
2023.6563	4505.575
2026.6983	4485.675
2029.73833	4455.075
2032.7764	4448.975
2035.8125	4443.375
2038.84664	4430.275
2041.87881	4427.475
2044.90903	4407.475
2047.93729	4388.875
2050.96359	4397.875
2053.98794	4373.875
2057.01034	4398.875
2060.03078	4359.375
2063.04927	4364.675
2066.06582	4342.875
2069.08042	4349.775
2072.09307	4328.075
2075.10378	4321.275
2078.11255	4321.075
2081.11938	4320.175
2084.12426	4325.075
2087.12722	4318.575
2090.12824	4321.375
2093.12732	4323.375
2096.12447	4316.175
2099.11969	4301.975
2102.11299	4308.875
2105.10435	4301.375
2108.09379	4311.175
2111.08131	4308.675
2114.0669	4297.475
2117.05057	4291.075
2120.03233	4309.775
2123.01216	4308.375
2125.99008	4312.875
2128.96609	4294.075
2131.94018	4305.175
2134.91236	4300.975
2137.88263	4292.275
2140.851	4300.575
2143.81746	4302.975
2146.78201	4294.075
2149.74466	4307.975
2152.7054	4283.875
2155.66425	4286.975
2158.6212	4264.675
2161.57625	4267.075
2164.52941	4255.475
2167.48067	4258.075
2170.43004	4258.575
2173.37752	4262.575
2176.32311	4255.475
2179.26681	4259.675
2182.20863	4257.975
2185.14856	4245.075
2188.08661	4236.375
2191.02278	4238.075
2193.95707	4218.675
2196.88948	4212.375
2199.82001	4224.975
2202.74867	4208.875
2205.67545	4182.075
2208.60037	4190.275
2211.52341	4184.875
2214.44458	4185.975
2217.36388	4170.575
2220.28132	4156.475
2223.1969	4145.475
2226.11061	4144.775
2229.02246	4131.475
2231.93245	4107.575
2234.84058	4105.175
2237.74686	4099.775
2240.65128	4089.475
2243.55385	4085.675
2246.45456	4072.275
2249.35343	4061.675
2252.25044	4050.775
2255.14561	4065.175
2258.03893	4040.675
2260.93041	4050.775
2263.82004	4033.275
2266.70783	4015.975
2269.59378	3998.875
2272.4779	4005.375
2275.36017	3979.175
2278.24061	3965.675
2281.11922	3962.275
2283.996	3960.375
2286.87094	3950.375
2289.74405	3929.275
2292.61534	3925.275
2295.4848	3906.275
2298.35243	3908.775
2301.21824	3887.975
2304.08223	3894.075
2306.94439	3890.475
2309.80474	3870.675
2312.66327	3871.075
2315.51999	3876.575
2318.37489	3869.675
2321.22797	3855.375
2324.07925	3852.875
2326.92871	3849.575
2329.77637	3837.475
2332.62222	3821.075
2335.46626	3828.475
2338.3085	3827.575
2341.14893	3816.475
2343.98756	3799.875
2346.8244	3811.375
2349.65943	3795.075
2352.49267	3800.375
2355.32411	3786.975
2358.15376	3797.175
2360.98161	3789.575
2363.80768	3788.675
2366.63195	3793.575
2369.45444	3796.675
2372.27514	3770.775
2375.09405	3770.175
2377.91118	3781.675
2380.72652	3755.775
2383.54009	3740.775
2386.35187	3741.175
2389.16188	3719.375
2391.97011	3700.075
2394.77657	3690.675
2397.58125	3683.075
2400.38416	3680.375
2403.18529	3659.275
2405.98466	3663.675
2408.78226	3652.975
2411.57809	3640.975
2414.37216	3643.175
2417.16446	3639.775
2419.955	3621.075
2422.74378	3628.675
2425.5308	3615.275
2428.31606	3618.475
2431.09956	3600.475
2433.88131	3592.275
2436.6613	3598.675
2439.43954	3596.675
2442.21603	3590.275
2444.99077	3574.575
2447.76377	3585.075
2450.53501	3563.975
2453.30451	3578.375
2456.07226	3571.775
2458.83827	3567.675
2461.60254	3549.775
2464.36507	3557.975
2467.12586	3550.475
2469.88492	3544.575
2472.64224	3543.475
2475.39782	3553.375
2478.15167	3546.675
2480.90379	3540.775
2483.65417	3549.275
2486.40283	3544.275
2489.14976	3543.775
2491.89497	3534.875
2494.63845	3543.275
2497.3802	3544.475
2500.12024	3533.975
2502.85855	3519.375
2505.59514	3518.075
2508.33002	3508.575
2511.06318	3486.975
2513.79462	3478.675
2516.52435	3466.875
2519.25237	3473.475
2521.97867	3448.275
2524.70327	3445.975
2527.42616	3443.975
2530.14734	3431.175
2532.86681	3436.575
2535.58458	3436.575
2538.30065	3413.175
2541.01501	3427.375
2543.72768	3408.275
2546.43864	3412.475
2549.14791	3402.175
2551.85548	3397.975
2554.56136	3383.275
2557.26554	3371.575
2559.96803	3375.475
2562.66883	3355.675
2565.36794	3360.375
2568.06536	3350.975
2570.7611	3341.675
2573.45514	3355.675
2576.14751	3338.875
2578.83819	3316.875
2581.52719	3317.875
2584.21451	3315.775
2586.90015	3298.975
2589.58411	3308.475
2592.2664	3295.975
2594.94701	3279.475
2597.62594	3278.775
2600.30321	3280.275
2602.9788	3264.775
2605.65273	3273.875
2608.32498	3253.375
2610.99557	3254.675
2613.66449	3241.175
2616.33175	3242.775
2618.99734	3249.175
2621.66128	3244.675
2624.32355	3233.575
2626.98416	3226.875
2629.64311	3211.075
2632.30041	3203.175
2634.95605	3194.975
2637.61004	3201.175
2640.26238	3199.275
2642.91306	3186.075
2645.56209	3172.175
2648.20948	3177.575
2650.85521	3163.975
2653.4993	3173.275
2656.14175	3173.875
2658.78255	3175.275
2661.42171	3189.275
2664.05923	3176.175
2666.6951	3170.675
2669.32934	3172.375
2671.96194	3165.575
2674.59291	3178.875
2677.22224	3156.575
2679.84993	3168.375
2682.476	3150.575
2685.10043	3171.675
2687.72324	3164.775
2690.34441	3165.775
2692.96396	3170.475
2695.58188	3159.475
2698.19818	3154.875
2700.81285	3148.375
2703.4259	3174.575
2706.03733	3228.675
2708.64714	3190.275
2711.25533	3169.575
2713.86191	3161.975
2716.46687	3173.275
2719.07021	3164.675
2721.67194	3152.875
2724.27206	3128.875
2726.87057	3137.875
2729.46747	3145.975
2732.06276	3140.775
2734.65644	3133.775
2737.24852	3147.775
2739.83899	3133.275
2742.42786	3132.375
2745.01513	3114.975
2747.60079	3111.375
2750.18486	3103.775
2752.76733	3107.375
2755.3482	3088.075
2757.92747	3100.375
2760.50515	3082.275
2763.08123	3077.375
2765.65573	3074.675
2768.22863	3089.375
2770.79994	3068.875
2773.36967	3074.975
2775.9378	3070.475
2778.50435	3064.575
2781.06932	3046.375
2783.6327	3040.175
2786.1945	3051.375
2788.75471	3042.675
2791.31335	3040.175
2793.87041	3025.275
2796.42589	3017.775
2798.97979	3008.175
2801.53212	3001.375
2804.08288	3006.575
2806.63206	3004.875
2809.17967	2999.475
2811.72571	2988.975
2814.27018	3002.275
2816.81308	2981.175
2819.35442	2977.275
2821.89419	2975.875
2824.43239	2982.975
2826.96904	2970.075
2829.50412	2978.875
2832.03763	2975.475
2834.56959	2968.375
2837.1	2948.675
2839.62884	2969.075
2842.15613	2968.875
2844.68186	2971.375
2847.20604	2976.175
2849.72867	2981.875
2852.24974	2975.275
2854.76927	2990.875
2857.28724	2995.275
2859.80367	2972.875
2862.31855	2969.275
2864.83189	2968.575
2867.34368	2960.875
2869.85393	2960.575
2872.36264	2940.275
2874.8698	2951.475
2877.37543	2954.875
2879.87952	2950.175
2882.38207	2949.475
2884.88308	2939.775
2887.38256	2944.675
2889.88051	2928.175
2892.37692	2943.975
2894.8718	2936.575
2897.36515	2932.775
2899.85698	2924.175
2902.34727	2949.975
2904.83604	2944.475
2907.32328	2942.975
2909.809	2957.975
2912.29319	2950.575
2914.77587	2945.975
2917.25702	2952.775
2919.73665	2952.375
2922.21476	2935.575
2924.69136	2955.875
2927.16644	2947.875
2929.64	2941.475
2932.11205	2938.875
2934.58258	2935.175
2937.05161	2943.275
2939.51912	2919.975
2941.98513	2924.475
2944.44962	2911.975
2946.91261	2910.075
2949.37409	2921.275
2951.83407	2896.875
2954.29254	2888.575
2956.74951	2891.675
2959.20498	2899.275
2961.65895	2880.375
2964.11142	2866.175
2966.56239	2859.575
2969.01186	2864.275
2971.45984	2846.875
2973.90632	2853.075
2976.35131	2841.675
2978.7948	2825.475
2981.23681	2810.875
2983.67732	2821.575
2986.11635	2825.875
2988.55388	2805.575
2990.98993	2810.275
2993.4245	2803.575
2995.85758	2793.875
2998.28917	2792.975
3000.71928	2791.375
3003.14791	2791.775
3005.57506	2773.575
3008.00073	2777.975
3010.42493	2762.675
3012.84764	2772.475
3015.26888	2765.275
3017.68865	2766.075
3020.10694	2757.775
3022.52376	2746.175
3024.9391	2738.875
3027.35298	2741.075
3029.76539	2735.375
3032.17632	2741.075
3034.5858	2736.575
3036.9938	2726.175
3039.40034	2734.075
3041.80542	2714.175
3044.20903	2721.375
3046.61118	2711.475
3049.01187	2704.275
3051.4111	2708.475
3053.80888	2710.375
3056.20519	2712.775
3058.60005	2711.975
3060.99345	2704.475
3063.3854	2699.475
3065.7759	2690.075
3068.16494	2692.175
3070.55254	2676.275
3072.93868	2680.375
3075.32338	2670.175
3077.70662	2667.575
3080.08842	2672.375
3082.46878	2671.175
3084.84769	2669.575
3087.22515	2673.375
3089.60118	2665.775
3091.97576	2666.575
3094.3489	2671.575
3096.72061	2668.575
3099.09087	2680.575
3101.4597	2668.575
3103.82709	2675.175
3106.19305	2669.275
3108.55757	2679.575
3110.92066	2658.475
3113.28232	2663.375
3115.64255	2652.475
3118.00134	2659.575
3120.35871	2647.475
3122.71466	2645.075
3125.06917	2663.075
3127.42226	2648.575
3129.77393	2650.875
3132.12417	2671.375
3134.47299	2656.875
3136.82039	2661.075
3139.16636	2668.775
3141.51092	2686.375
3143.85406	2675.175
3146.19579	2684.475
3148.53609	2690.075
3150.87499	2679.475
3153.21246	2693.575
3155.54853	2690.975
3157.88318	2695.475
3160.21642	2703.275
3162.54826	2707.975
3164.87868	2711.575
3167.2077	2717.975
3169.5353	2713.375
3171.86151	2702.575
3174.18631	2718.475
3176.5097	2711.275
3178.83169	2707.775
3181.15228	2723.675
3183.47147	2724.575
3185.78926	2716.275
3188.10565	2705.375
3190.42065	2709.275
3192.73424	2727.775
3195.04645	2722.275
3197.35725	2728.975
3199.66667	2720.875
3201.97469	2731.275
3204.28132	2749.475
3206.58656	2749.875
3208.8904	2742.075
3211.19287	2748.975
3213.49394	2747.875
3215.79363	2758.675
3218.09193	2751.775
3220.38884	2772.175
3222.68438	2784.375
3224.97853	2766.775
