Data from AgNPs_FTO_APTES_UA_20um_CRN_0.1mM_R6G_10uM_NaF_0.1M_Addition_RamanShift__35__14-57-09-215.txt Node

Date: Tue Dec 21 14:57:09 GMT 2021
User: TCL
Spectrometer: QEP01345
Trigger mode: 4
Integration Time (sec): 7.000000E0
Scans to average: 10
Electric dark correction enabled: true
Nonlinearity correction enabled: false
Boxcar width: 0
XAxis mode: Raman Shifts
Number of Pixels in Spectrum: 1044
>>>>>Begin Spectral Data<<<<<
46.04893	0.475
50.45542	-0.225
54.85868	-0.125
59.25871	-0.425
63.6555	43.475
68.04907	50.275
72.43941	51.475
76.82654	51.875
81.21044	60.375
85.59113	60.175
89.96862	60.075
94.34289	61.275
98.71396	62.275
103.08183	69.175
107.4465	71.775
111.80798	72.075
116.16626	70.575
120.52136	77.575
124.87327	75.875
129.222	76.575
133.56755	79.375
137.90993	89.575
142.24913	89.275
146.58517	100.975
150.91804	121.975
155.24774	136.175
159.57429	168.275
163.89768	214.475
168.21792	274.075
172.53501	362.375
176.84895	501.075
181.15975	702.075
185.46741	978.575
189.77193	1349.275
194.07331	1812.575
198.37157	2324.875
202.6667	2891.275
206.9587	3440.475
211.24758	3982.275
215.53334	4537.775
219.81599	5150.975
224.09553	5776.675
228.37195	6505.275
232.64527	7295.775
236.91549	8103.675
241.18261	8926.375
245.44663	9625.575
249.70755	10255.175
253.96539	10781.675
258.22014	11261.975
262.4718	11589.675
266.72039	11854.675
270.96589	11986.075
275.20832	11977.175
279.44768	11869.475
283.68397	11692.675
287.91719	11571.775
292.14735	11481.775
296.37445	11523.375
300.59849	11554.775
304.81948	11695.675
309.03742	11751.675
313.25231	11695.475
317.46415	11492.175
321.67296	11157.575
325.87872	10895.675
330.08145	10776.975
334.28114	10724.775
338.47781	10787.775
342.67145	10903.775
346.86207	11160.075
351.04966	11348.775
355.23424	11635.275
359.4158	11831.175
363.59435	11996.775
367.76989	12095.975
371.94243	12159.875
376.11196	12206.675
380.27849	12238.375
384.44203	12324.175
388.60257	12364.175
392.76012	12468.875
396.91468	12618.075
401.06626	12817.475
405.21485	12959.875
409.36047	12879.275
413.50311	12618.875
417.64277	12429.975
421.77947	12315.275
425.9132	12322.175
430.04396	12367.075
434.17176	12429.175
438.2966	12544.475
442.41849	12780.575
446.53742	13123.775
450.6534	13544.275
454.76644	13781.375
458.87653	13783.975
462.98368	13667.975
467.08789	13489.675
471.18916	13317.975
475.2875	13107.975
479.38291	12993.675
483.4754	12905.375
487.56496	12811.775
491.6516	12610.075
495.73531	12430.375
499.81612	12310.075
503.89401	12343.075
507.96899	12335.975
512.04106	12331.275
516.11023	12280.275
520.1765	12218.775
524.23987	12166.175
528.30034	12075.875
532.35792	12043.575
536.41261	11858.175
540.46441	11703.975
544.51333	11631.475
548.55936	11675.975
552.60252	11894.375
556.64279	12203.275
560.6802	12462.375
564.71473	12563.975
568.7464	12750.775
572.7752	13064.675
576.80114	13329.075
580.82422	13547.775
584.84444	13940.675
588.86181	14534.975
592.87633	15181.275
596.888	15299.675
600.89682	14798.875
604.9028	14626.675
608.90594	15670.075
612.90624	17170.675
616.90371	16429.175
620.89834	13571.775
624.89015	12141.375
628.87913	11914.675
632.86528	12052.575
636.84862	12121.975
640.82913	11975.075
644.80683	11634.675
648.78172	11362.175
652.75379	11309.075
656.72306	11445.875
660.68952	11636.075
664.65319	11558.475
668.61405	11303.475
672.57211	11258.475
676.52738	11300.975
680.47986	11319.975
684.42955	11216.675
688.37646	11133.475
692.32058	11134.075
696.26192	11243.075
700.20048	11396.575
704.13626	11496.675
708.06928	11489.175
711.99952	11419.975
715.927	11422.275
719.85171	11444.875
723.77365	11436.275
727.69284	11276.775
731.60928	11170.275
735.52295	11131.275
739.43388	11139.875
743.34206	11195.175
747.24749	11233.875
751.15017	11317.075
755.05012	11491.875
758.94733	11791.175
762.8418	12369.075
766.73354	13381.775
770.62254	14475.875
774.50882	14888.275
778.39237	14363.275
782.27321	13175.875
786.15132	12148.775
790.02671	11491.275
793.89938	11205.375
797.76935	11084.175
801.6366	11001.975
805.50115	10958.575
809.36299	10902.875
813.22213	10889.275
817.07857	10821.975
820.93231	10765.475
824.78336	10704.875
828.63172	10628.675
832.47738	10621.775
836.32036	10610.475
840.16066	10605.275
843.99827	10620.375
847.8332	10583.075
851.66546	10550.475
855.49504	10501.875
859.32195	10506.975
863.1462	10475.775
866.96777	10449.075
870.78668	10437.175
874.60293	10453.975
878.41652	10472.075
882.22745	10509.475
886.03573	10549.175
889.84136	10560.675
893.64433	10512.775
897.44466	10438.475
901.24235	10383.975
905.0374	10302.675
908.8298	10269.075
912.61957	10245.375
916.40671	10313.575
920.19121	10440.175
923.97308	10562.775
927.75233	10584.675
931.52895	10572.475
935.30295	10406.175
939.07433	10178.375
942.84309	10042.175
946.60924	9933.775
950.37278	9885.475
954.13371	9866.175
957.89203	9853.975
961.64774	9805.975
965.40086	9830.275
969.15137	9771.575
972.89929	9753.975
976.64461	9707.275
980.38733	9710.475
984.12747	9740.175
987.86502	9765.475
991.59999	9834.075
995.33237	9931.875
999.06217	10114.175
1002.78939	10326.775
1006.51404	10537.975
1010.23611	10720.175
1013.95561	10877.975
1017.67255	10887.675
1021.38692	10751.675
1025.09872	10560.775
1028.80796	10468.375
1032.51465	10456.075
1036.21877	10589.275
1039.92035	10680.475
1043.61937	10675.175
1047.31584	10616.875
1051.00976	10531.175
1054.70114	10476.675
1058.38998	10473.975
1062.07627	10532.175
1065.76003	10617.875
1069.44126	10732.875
1073.11995	10855.375
1076.79611	11030.275
1080.46974	11113.875
1084.14085	11207.975
1087.80943	11286.775
1091.47549	11453.475
1095.13903	11451.075
1098.80005	11277.575
1102.45857	11013.675
1106.11456	10836.575
1109.76805	10743.275
1113.41903	10773.575
1117.06751	10886.775
1120.71348	11093.175
1124.35696	11265.475
1127.99793	11492.175
1131.63641	11662.075
1135.2724	11597.675
1138.90589	11430.775
1142.5369	11369.275
1146.16542	11339.875
1149.79145	11397.275
1153.415	11441.875
1157.03607	11562.075
1160.65467	11799.875
1164.27079	12261.575
1167.88443	12923.375
1171.49561	13714.675
1175.10432	14763.275
1178.71056	16131.575
1182.31434	17361.675
1185.91565	17859.875
1189.51451	17487.275
1193.11091	16723.575
1196.70485	15985.075
1200.29634	15370.475
1203.88538	14927.175
1207.47197	14610.175
1211.05612	14318.775
1214.63782	13995.075
1218.21708	13675.475
1221.79391	13436.675
1225.36829	13305.975
1228.94024	13206.675
1232.50976	13003.475
1236.07685	12762.075
1239.6415	12589.375
1243.20374	12578.575
1246.76355	12643.875
1250.32093	12827.275
1253.8759	13089.575
1257.42845	13419.475
1260.97859	13780.775
1264.52631	14150.275
1268.07163	14506.775
1271.61453	14895.275
1275.15503	15311.575
1278.69312	15705.975
1282.22882	16173.575
1285.76211	16750.475
1289.29301	17479.275
1292.82151	18348.575
1296.34761	19398.475
1299.87133	20615.475
1303.39266	21925.775
1306.9116	23170.675
1310.42815	24348.875
1313.94233	24983.375
1317.45412	24717.175
1320.96354	23923.875
1324.47058	23046.275
1327.97525	22341.875
1331.47754	21816.575
1334.97747	21417.475
1338.47502	21104.675
1341.97022	20737.075
1345.46305	20478.275
1348.95352	20435.775
1352.44163	20879.375
1355.92738	21893.675
1359.41078	23493.875
1362.89183	24967.075
1366.37053	24951.475
1369.84688	22860.775
1373.32088	19910.975
1376.79254	17843.475
1380.26186	17022.875
1383.72883	16894.575
1387.19347	16772.575
1390.65578	16543.675
1394.11575	16442.675
1397.57339	16576.475
1401.0287	16812.175
1404.48168	16921.875
1407.93234	16808.875
1411.38068	16449.275
1414.82669	15913.175
1418.27039	15302.275
1421.71177	14697.275
1425.15083	14175.575
1428.58758	13916.075
1432.02203	14007.275
1435.45416	14349.775
1438.88399	14735.275
1442.31151	14977.375
1445.73673	15088.175
1449.15965	15288.575
1452.58027	15328.175
1455.9986	15285.675
1459.41463	15298.775
1462.82837	15459.375
1466.23982	15756.675
1469.64898	16037.975
1473.05586	16241.875
1476.46045	16338.875
1479.86276	16309.575
1483.26279	16234.075
1486.66054	16224.175
1490.05602	16369.875
1493.44922	16629.775
1496.84016	16969.875
1500.22882	17483.775
1503.61521	18249.875
1506.99934	19178.475
1510.38121	19957.875
1513.76081	20203.375
1517.13816	19617.875
1520.51324	18527.575
1523.88607	17619.975
1527.25665	17093.175
1530.62498	16881.575
1533.99105	16751.575
1537.35488	16473.375
1540.71647	16065.875
1544.07581	15608.175
1547.4329	15126.175
1550.78776	14761.275
1554.14038	14523.575
1557.49077	14354.475
1560.83892	14366.775
1564.18484	14497.775
1567.52853	14659.275
1570.86999	14892.175
1574.20922	15218.075
1577.54624	15432.775
1580.88103	15402.475
1584.2136	15323.475
1587.54395	15547.875
1590.87208	16151.975
1594.19801	17142.375
1597.52172	18131.675
1600.84321	18481.275
1604.16251	17728.275
1607.47959	16279.875
1610.79447	14690.275
1614.10715	13367.675
1617.41763	12346.975
1620.7259	11695.275
1624.03199	11386.975
1627.33587	11431.075
1630.63757	11737.875
1633.93707	12420.475
1637.23439	13663.375
1640.52951	15499.075
1643.82246	17867.175
1647.11321	20065.475
1650.40179	20803.675
1653.68819	19576.575
1656.97241	16903.275
1660.25446	14199.275
1663.53433	12204.175
1666.81203	10968.775
1670.08756	10189.375
1673.36092	9697.175
1676.63211	9403.575
1679.90115	9205.875
1683.16801	9021.675
1686.43272	8897.975
1689.69527	8802.175
1692.95567	8703.275
1696.2139	8649.575
1699.46999	8632.175
1702.72392	8551.175
1705.97571	8510.675
1709.22535	8447.875
1712.47284	8416.875
1715.71819	8379.575
1718.96139	8340.675
1722.20246	8323.975
1725.44139	8268.375
1728.67818	8232.375
1731.91284	8168.575
1735.14537	8119.275
1738.37576	8072.975
1741.60403	8044.275
1744.83017	8029.575
1748.05418	8016.975
1751.27607	8002.775
1754.49584	7999.375
1757.71349	8009.675
1760.92903	7978.575
1764.14244	7950.075
1767.35375	7927.175
1770.56294	7920.575
1773.77002	7891.675
1776.97499	7834.975
1780.17785	7828.075
1783.37861	7811.375
1786.57727	7783.175
1789.77382	7756.475
1792.96828	7743.775
1796.16064	7720.275
1799.3509	7688.475
1802.53907	7668.275
1805.72514	7643.175
1808.90913	7614.975
1812.09102	7588.275
1815.27083	7574.775
1818.44856	7566.375
1821.6242	7531.775
1824.79776	7550.275
1827.96924	7526.875
1831.13864	7507.075
1834.30597	7515.675
1837.47122	7499.175
1840.6344	7465.075
1843.7955	7490.275
1846.95454	7474.075
1850.11151	7466.875
1853.26642	7446.675
1856.41926	7453.875
1859.57004	7430.175
1862.71876	7421.375
1865.86542	7421.175
1869.01003	7409.475
1872.15258	7386.275
1875.29308	7382.475
1878.43152	7372.475
1881.56792	7388.175
1884.70227	7351.075
1887.83457	7366.175
1890.96482	7351.575
1894.09304	7338.875
1897.21921	7317.275
1900.34335	7304.975
1903.46544	7294.475
1906.58551	7295.575
1909.70353	7271.575
1912.81953	7278.475
1915.93349	7245.575
1919.04543	7233.675
1922.15534	7234.775
1925.26322	7190.175
1928.36908	7192.075
1931.47292	7158.275
1934.57473	7138.175
1937.67453	7114.175
1940.77232	7093.375
1943.86808	7073.975
1946.96184	7041.075
1950.05358	7037.075
1953.14331	7006.675
1956.23103	6973.175
1959.31675	6985.475
1962.40046	6949.075
1965.48217	6939.775
1968.56188	6903.975
1971.63959	6871.075
1974.7153	6871.775
1977.78901	6838.875
1980.86073	6839.175
1983.93046	6793.075
1986.99819	6769.375
1990.06394	6751.775
1993.1277	6728.975
1996.18947	6699.375
1999.24925	6691.675
2002.30706	6665.575
2005.36288	6638.775
2008.41672	6609.575
2011.46859	6586.475
2014.51848	6567.775
2017.56639	6548.875
2020.61233	6550.375
2023.6563	6550.875
2026.6983	6519.875
2029.73833	6503.975
2032.7764	6476.875
2035.8125	6468.275
2038.84664	6452.575
2041.87881	6436.475
2044.90903	6439.575
2047.93729	6415.975
2050.96359	6409.375
2053.98794	6400.075
2057.01034	6397.275
2060.03078	6388.175
2063.04927	6377.275
2066.06582	6345.275
2069.08042	6355.975
2072.09307	6345.575
2075.10378	6352.075
2078.11255	6315.975
2081.11938	6332.475
2084.12426	6321.575
2087.12722	6316.775
2090.12824	6318.175
2093.12732	6316.775
2096.12447	6316.075
2099.11969	6307.775
2102.11299	6309.775
2105.10435	6327.575
2108.09379	6324.775
2111.08131	6327.975
2114.0669	6308.675
2117.05057	6323.175
2120.03233	6323.175
2123.01216	6324.075
2125.99008	6316.075
2128.96609	6334.475
2131.94018	6318.275
2134.91236	6331.675
2137.88263	6313.175
2140.851	6335.975
2143.81746	6325.575
2146.78201	6300.575
2149.74466	6302.475
2152.7054	6323.275
2155.66425	6291.975
2158.6212	6304.075
2161.57625	6293.275
2164.52941	6302.875
2167.48067	6300.775
2170.43004	6288.675
2173.37752	6282.975
2176.32311	6279.775
2179.26681	6274.775
2182.20863	6279.175
2185.14856	6277.575
2188.08661	6261.375
2191.02278	6278.475
2193.95707	6251.975
2196.88948	6265.675
2199.82001	6243.675
2202.74867	6236.175
2205.67545	6234.475
2208.60037	6239.475
2211.52341	6225.375
2214.44458	6211.675
2217.36388	6183.275
2220.28132	6179.975
2223.1969	6158.975
2226.11061	6152.275
2229.02246	6135.775
2231.93245	6146.775
2234.84058	6127.475
2237.74686	6101.875
2240.65128	6103.275
2243.55385	6074.675
2246.45456	6083.175
2249.35343	6069.475
2252.25044	6056.275
2255.14561	6056.675
2258.03893	6048.175
2260.93041	6033.675
2263.82004	6010.375
2266.70783	5990.275
2269.59378	5994.275
2272.4779	5959.775
2275.36017	5958.975
2278.24061	5942.075
2281.11922	5920.175
2283.996	5904.675
2286.87094	5898.775
2289.74405	5885.975
2292.61534	5882.575
2295.4848	5871.375
2298.35243	5875.175
2301.21824	5873.575
2304.08223	5865.575
2306.94439	5853.375
2309.80474	5848.975
2312.66327	5831.175
2315.51999	5843.075
2318.37489	5846.575
2321.22797	5832.475
2324.07925	5818.575
2326.92871	5817.475
2329.77637	5832.475
2332.62222	5813.175
2335.46626	5796.075
2338.3085	5783.975
2341.14893	5803.975
2343.98756	5784.675
2346.8244	5771.775
2349.65943	5785.475
2352.49267	5774.875
2355.32411	5795.375
2358.15376	5771.875
2360.98161	5769.775
2363.80768	5778.475
2366.63195	5770.275
2369.45444	5765.175
2372.27514	5742.675
2375.09405	5739.675
2377.91118	5735.375
2380.72652	5707.275
2383.54009	5702.275
2386.35187	5665.875
2389.16188	5649.275
2391.97011	5643.575
2394.77657	5646.475
2397.58125	5616.975
2400.38416	5596.675
2403.18529	5603.775
2405.98466	5600.675
2408.78226	5576.675
2411.57809	5557.675
2414.37216	5588.675
2417.16446	5566.475
2419.955	5576.775
2422.74378	5548.975
2425.5308	5558.775
2428.31606	5535.475
2431.09956	5534.775
2433.88131	5533.475
2436.6613	5539.575
2439.43954	5533.975
2442.21603	5527.975
2444.99077	5510.575
2447.76377	5537.175
2450.53501	5521.675
2453.30451	5519.875
2456.07226	5509.575
2458.83827	5514.075
2461.60254	5515.375
2464.36507	5511.775
2467.12586	5507.675
2469.88492	5501.075
2472.64224	5508.475
2475.39782	5505.075
2478.15167	5512.475
2480.90379	5494.675
2483.65417	5498.475
2486.40283	5485.175
2489.14976	5489.875
2491.89497	5490.775
2494.63845	5494.975
2497.3802	5498.675
2500.12024	5487.975
2502.85855	5480.275
2505.59514	5484.675
2508.33002	5469.875
2511.06318	5460.175
2513.79462	5458.175
2516.52435	5448.675
2519.25237	5443.275
2521.97867	5421.875
2524.70327	5421.575
2527.42616	5415.375
2530.14734	5389.875
2532.86681	5386.275
2535.58458	5393.675
2538.30065	5372.075
2541.01501	5379.975
2543.72768	5378.675
2546.43864	5376.175
2549.14791	5380.275
2551.85548	5375.775
2554.56136	5349.975
2557.26554	5330.475
2559.96803	5350.575
2562.66883	5338.775
2565.36794	5325.975
2568.06536	5326.975
2570.7611	5313.575
2573.45514	5321.875
2576.14751	5306.475
2578.83819	5310.875
2581.52719	5298.275
2584.21451	5301.075
2586.90015	5295.875
2589.58411	5276.775
2592.2664	5269.275
2594.94701	5274.875
2597.62594	5263.875
2600.30321	5251.775
2602.9788	5250.075
2605.65273	5246.075
2608.32498	5260.875
2610.99557	5239.475
2613.66449	5246.075
2616.33175	5241.175
2618.99734	5243.575
2621.66128	5231.275
2624.32355	5226.875
2626.98416	5206.175
2629.64311	5215.675
2632.30041	5194.075
2634.95605	5183.075
2637.61004	5176.375
2640.26238	5186.375
2642.91306	5172.175
2645.56209	5186.875
2648.20948	5190.075
2650.85521	5175.675
2653.4993	5187.275
2656.14175	5178.475
2658.78255	5170.575
2661.42171	5193.575
2664.05923	5206.575
2666.6951	5194.575
2669.32934	5183.075
2671.96194	5193.875
2674.59291	5189.375
2677.22224	5182.875
2679.84993	5173.275
2682.476	5189.975
2685.10043	5187.475
2687.72324	5165.675
2690.34441	5178.575
2692.96396	5177.475
2695.58188	5180.975
2698.19818	5158.675
2700.81285	5175.575
2703.4259	5203.375
2706.03733	5236.175
2708.64714	5201.675
2711.25533	5191.375
2713.86191	5192.875
2716.46687	5198.775
2719.07021	5201.075
2721.67194	5189.275
2724.27206	5203.075
2726.87057	5187.775
2729.46747	5198.975
2732.06276	5196.775
2734.65644	5207.975
2737.24852	5184.275
2739.83899	5158.075
2742.42786	5185.375
2745.01513	5157.475
2747.60079	5155.975
2750.18486	5170.175
2752.76733	5157.275
2755.3482	5140.275
2757.92747	5158.075
2760.50515	5130.275
2763.08123	5138.975
2765.65573	5137.175
2768.22863	5132.975
2770.79994	5132.875
2773.36967	5143.475
2775.9378	5128.675
2778.50435	5140.175
2781.06932	5101.175
2783.6327	5112.875
2786.1945	5109.175
2788.75471	5116.675
2791.31335	5108.075
2793.87041	5096.175
2796.42589	5068.375
2798.97979	5079.675
2801.53212	5058.175
2804.08288	5060.775
2806.63206	5063.275
2809.17967	5043.975
2811.72571	5019.475
2814.27018	5037.275
2816.81308	5008.575
2819.35442	5011.375
2821.89419	5007.175
2824.43239	5004.175
2826.96904	5001.275
2829.50412	5013.175
2832.03763	5012.475
2834.56959	5005.675
2837.1	4997.675
2839.62884	5002.375
2842.15613	5013.975
2844.68186	5016.575
2847.20604	5020.675
2849.72867	5028.775
2852.24974	5029.175
2854.76927	5028.975
2857.28724	5017.975
2859.80367	5013.075
2862.31855	5001.775
2864.83189	4994.575
2867.34368	4992.775
2869.85393	4987.075
2872.36264	4993.675
2874.8698	5000.975
2877.37543	4976.275
2879.87952	4987.175
2882.38207	4994.375
2884.88308	4984.775
2887.38256	4975.775
2889.88051	4995.075
2892.37692	4998.275
2894.8718	4979.775
2897.36515	4984.775
2899.85698	4989.575
2902.34727	4997.075
2904.83604	4991.775
2907.32328	5004.075
2909.809	4995.375
2912.29319	5002.275
2914.77587	5022.375
2917.25702	5009.275
2919.73665	5002.675
2922.21476	5010.375
2924.69136	5004.475
2927.16644	5016.475
2929.64	5016.875
2932.11205	5000.075
2934.58258	4992.075
2937.05161	5005.075
2939.51912	4992.475
2941.98513	4994.675
2944.44962	4953.675
2946.91261	4946.375
2949.37409	4946.975
2951.83407	4955.975
2954.29254	4929.375
2956.74951	4941.175
2959.20498	4900.075
2961.65895	4901.075
2964.11142	4891.975
2966.56239	4870.575
2969.01186	4866.375
2971.45984	4858.275
2973.90632	4852.975
2976.35131	4830.475
2978.7948	4817.775
2981.23681	4814.275
2983.67732	4770.775
2986.11635	4786.275
2988.55388	4761.775
2990.98993	4749.575
2993.4245	4750.175
2995.85758	4738.775
2998.28917	4716.675
3000.71928	4722.475
3003.14791	4715.175
3005.57506	4714.275
3008.00073	4694.775
3010.42493	4693.975
3012.84764	4671.575
3015.26888	4689.275
3017.68865	4691.375
3020.10694	4661.475
3022.52376	4662.675
3024.9391	4637.975
3027.35298	4642.975
3029.76539	4649.475
3032.17632	4628.075
3034.5858	4601.075
3036.9938	4616.575
3039.40034	4597.575
3041.80542	4604.075
3044.20903	4604.075
3046.61118	4603.875
3049.01187	4577.875
3051.4111	4576.075
3053.80888	4567.275
3056.20519	4574.075
3058.60005	4554.275
3060.99345	4552.075
3063.3854	4540.675
3065.7759	4535.075
3068.16494	4518.675
3070.55254	4485.175
3072.93868	4490.375
3075.32338	4500.075
3077.70662	4484.575
3080.08842	4482.175
3082.46878	4483.175
3084.84769	4460.375
3087.22515	4467.575
3089.60118	4450.175
3091.97576	4457.675
3094.3489	4456.175
3096.72061	4476.075
3099.09087	4454.475
3101.4597	4440.675
3103.82709	4444.675
3106.19305	4458.075
3108.55757	4452.175
3110.92066	4434.175
3113.28232	4426.975
3115.64255	4406.975
3118.00134	4395.775
3120.35871	4415.775
3122.71466	4394.175
3125.06917	4397.075
3127.42226	4371.875
3129.77393	4384.275
3132.12417	4391.075
3134.47299	4395.875
3136.82039	4391.075
3139.16636	4380.275
3141.51092	4386.275
3143.85406	4398.575
3146.19579	4409.575
3148.53609	4399.575
3150.87499	4397.775
3153.21246	4401.575
3155.54853	4406.175
3157.88318	4420.075
3160.21642	4410.575
3162.54826	4408.975
3164.87868	4422.075
3167.2077	4410.475
3169.5353	4413.575
3171.86151	4418.675
3174.18631	4414.975
3176.5097	4419.075
3178.83169	4396.075
3181.15228	4409.375
3183.47147	4405.975
3185.78926	4387.275
3188.10565	4387.675
3190.42065	4391.875
3192.73424	4388.275
