Data from AgNPs_FTO_APTES_UA_1um_CRN_0.1mM_R6G_10uM_NaF_0.1M_Addition_RamanShift__1__11-35-18-984.txt Node

Date: Tue Dec 21 11:35:18 GMT 2021
User: TCL
Spectrometer: QEP01345
Trigger mode: 4
Integration Time (sec): 7.000000E0
Scans to average: 10
Electric dark correction enabled: true
Nonlinearity correction enabled: false
Boxcar width: 0
XAxis mode: Raman Shifts
Number of Pixels in Spectrum: 1044
>>>>>Begin Spectral Data<<<<<
46.04893	0.3875
50.45542	-1.5125
54.85868	-0.9125
59.25871	0.2875
63.6555	32.8875
68.04907	43.1875
72.43941	43.5875
76.82654	46.3875
81.21044	48.7875
85.59113	50.1875
89.96862	50.6875
94.34289	53.8875
98.71396	54.3875
103.08183	58.0875
107.4465	58.3875
111.80798	60.9875
116.16626	60.3875
120.52136	58.8875
124.87327	63.6875
129.222	59.3875
133.56755	66.3875
137.90993	75.9875
142.24913	76.8875
146.58517	86.3875
150.91804	95.8875
155.24774	107.6875
159.57429	130.4875
163.89768	170.1875
168.21792	217.4875
172.53501	295.3875
176.84895	399.6875
181.15975	565.8875
185.46741	790.3875
189.77193	1082.8875
194.07331	1473.7875
198.37157	1912.7875
202.6667	2374.0875
206.9587	2847.4875
211.24758	3336.7875
215.53334	3848.1875
219.81599	4362.9875
224.09553	4989.5875
228.37195	5631.5875
232.64527	6341.9875
236.91549	7029.4875
241.18261	7629.6875
245.44663	8147.9875
249.70755	8502.7875
253.96539	8806.2875
258.22014	9013.7875
262.4718	9191.0875
266.72039	9304.1875
270.96589	9320.1875
275.20832	9211.1875
279.44768	9009.9875
283.68397	8775.3875
287.91719	8659.7875
292.14735	8579.8875
296.37445	8697.0875
300.59849	8934.3875
304.81948	9292.3875
309.03742	9637.5875
313.25231	9778.5875
317.46415	9555.2875
321.67296	9043.7875
325.87872	8560.7875
330.08145	8274.6875
334.28114	8188.4875
338.47781	8267.0875
342.67145	8435.6875
346.86207	8748.2875
351.04966	9112.9875
355.23424	9510.7875
359.4158	9772.2875
363.59435	9869.2875
367.76989	9817.2875
371.94243	9708.4875
376.11196	9598.8875
380.27849	9510.2875
384.44203	9474.3875
388.60257	9409.3875
392.76012	9441.3875
396.91468	9589.8875
401.06626	9842.9875
405.21485	10058.2875
409.36047	9972.3875
413.50311	9567.8875
417.64277	9166.2875
421.77947	8951.1875
425.9132	8858.2875
430.04396	8801.1875
434.17176	8745.2875
438.2966	8808.1875
442.41849	9013.6875
446.53742	9310.3875
450.6534	9590.4875
454.76644	9699.3875
458.87653	9602.0875
462.98368	9410.0875
467.08789	9224.7875
471.18916	9023.8875
475.2875	8804.6875
479.38291	8586.3875
483.4754	8475.0875
487.56496	8383.2875
491.6516	8352.3875
495.73531	8355.1875
499.81612	8398.6875
503.89401	8443.7875
507.96899	8500.0875
512.04106	8524.5875
516.11023	8542.0875
520.1765	8607.3875
524.23987	8653.9875
528.30034	8665.5875
532.35792	8614.8875
536.41261	8424.1875
540.46441	8160.5875
544.51333	8035.1875
548.55936	8065.5875
552.60252	8253.1875
556.64279	8531.8875
560.6802	8713.3875
564.71473	8774.9875
568.7464	8935.0875
572.7752	9160.5875
576.80114	9104.7875
580.82422	9108.8875
584.84444	9439.4875
588.86181	10028.1875
592.87633	10562.8875
596.888	10776.3875
600.89682	10384.4875
604.9028	10455.9875
608.90594	12401.4875
612.90624	15462.7875
616.90371	15144.7875
620.89834	10965.6875
624.89015	8699.8875
628.87913	8305.4875
632.86528	8429.9875
636.84862	8612.4875
640.82913	8512.2875
644.80683	8159.6875
648.78172	7885.6875
652.75379	7900.3875
656.72306	8119.6875
660.68952	8444.1875
664.65319	8375.9875
668.61405	7999.6875
672.57211	7841.9875
676.52738	7909.0875
680.47986	7937.3875
684.42955	7834.1875
688.37646	7691.9875
692.32058	7655.7875
696.26192	7740.0875
700.20048	7846.5875
704.13626	7939.1875
708.06928	7948.8875
711.99952	7879.3875
715.927	7872.5875
719.85171	7913.4875
723.77365	7925.3875
727.69284	7822.4875
731.60928	7708.5875
735.52295	7708.6875
739.43388	7707.0875
743.34206	7745.6875
747.24749	7780.2875
751.15017	7842.3875
755.05012	8005.7875
758.94733	8354.5875
762.8418	9190.2875
766.73354	10673.0875
770.62254	12150.4875
774.50882	12652.9875
778.39237	12093.0875
782.27321	10797.9875
786.15132	9358.7875
790.02671	8400.7875
793.89938	7970.8875
797.76935	7779.7875
801.6366	7689.5875
805.50115	7616.8875
809.36299	7568.4875
813.22213	7495.3875
817.07857	7450.3875
820.93231	7420.0875
824.78336	7422.3875
828.63172	7449.7875
832.47738	7463.8875
836.32036	7463.7875
840.16066	7427.9875
843.99827	7417.8875
847.8332	7385.8875
851.66546	7372.6875
855.49504	7367.3875
859.32195	7347.4875
863.1462	7322.2875
866.96777	7296.0875
870.78668	7290.2875
874.60293	7321.9875
878.41652	7326.5875
882.22745	7374.2875
886.03573	7426.3875
889.84136	7438.8875
893.64433	7402.6875
897.44466	7445.7875
901.24235	7403.3875
905.0374	7325.3875
908.8298	7284.9875
912.61957	7255.7875
916.40671	7273.8875
920.19121	7326.2875
923.97308	7438.1875
927.75233	7625.3875
931.52895	7762.0875
935.30295	7688.8875
939.07433	7406.8875
942.84309	7168.6875
946.60924	7033.3875
950.37278	6944.6875
954.13371	6906.7875
957.89203	6895.2875
961.64774	6881.4875
965.40086	6865.4875
969.15137	6851.3875
972.89929	6845.9875
976.64461	6821.7875
980.38733	6802.8875
984.12747	6815.2875
987.86502	6852.5875
991.59999	6890.9875
995.33237	6953.6875
999.06217	7091.0875
1002.78939	7251.8875
1006.51404	7397.3875
1010.23611	7565.1875
1013.95561	7678.9875
1017.67255	7711.9875
1021.38692	7670.9875
1025.09872	7509.5875
1028.80796	7400.1875
1032.51465	7394.3875
1036.21877	7502.8875
1039.92035	7569.8875
1043.61937	7589.7875
1047.31584	7601.6875
1051.00976	7558.9875
1054.70114	7516.9875
1058.38998	7484.9875
1062.07627	7463.4875
1065.76003	7471.7875
1069.44126	7536.1875
1073.11995	7734.1875
1076.79611	7933.4875
1080.46974	8078.4875
1084.14085	8189.1875
1087.80943	8388.7875
1091.47549	8490.6875
1095.13903	8414.5875
1098.80005	8144.3875
1102.45857	7835.7875
1106.11456	7650.6875
1109.76805	7579.9875
1113.41903	7676.3875
1117.06751	7854.0875
1120.71348	8134.4875
1124.35696	8492.4875
1127.99793	8835.3875
1131.63641	8893.9875
1135.2724	8574.4875
1138.90589	8221.4875
1142.5369	8038.1875
1146.16542	7927.3875
1149.79145	7884.2875
1153.415	7861.2875
1157.03607	7893.3875
1160.65467	8049.5875
1164.27079	8421.9875
1167.88443	8963.1875
1171.49561	9771.0875
1175.10432	11046.1875
1178.71056	12582.2875
1182.31434	13784.2875
1185.91565	14102.3875
1189.51451	13665.0875
1193.11091	12794.8875
1196.70485	11821.6875
1200.29634	11003.1875
1203.88538	10321.2875
1207.47197	9644.9875
1211.05612	9101.8875
1214.63782	8757.0875
1218.21708	8625.1875
1221.79391	8622.6875
1225.36829	8770.2875
1228.94024	8861.3875
1232.50976	8834.9875
1236.07685	8710.7875
1239.6415	8571.1875
1243.20374	8539.1875
1246.76355	8533.8875
1250.32093	8619.7875
1253.8759	8775.9875
1257.42845	9064.4875
1260.97859	9430.3875
1264.52631	9791.7875
1268.07163	10155.3875
1271.61453	10501.3875
1275.15503	10749.0875
1278.69312	10980.4875
1282.22882	11187.9875
1285.76211	11639.1875
1289.29301	12187.9875
1292.82151	12754.1875
1296.34761	13299.7875
1299.87133	14017.5875
1303.39266	15081.5875
1306.9116	16591.3875
1310.42815	18476.5875
1313.94233	19769.3875
1317.45412	19506.6875
1320.96354	18134.7875
1324.47058	16524.5875
1327.97525	15087.9875
1331.47754	14067.1875
1334.97747	13403.7875
1338.47502	13040.2875
1341.97022	12915.7875
1345.46305	13136.4875
1348.95352	13907.7875
1352.44163	15179.2875
1355.92738	16897.4875
1359.41078	19337.2875
1362.89183	21755.5875
1366.37053	21788.7875
1369.84688	18923.8875
1373.32088	15395.2875
1376.79254	13095.7875
1380.26186	11956.5875
1383.72883	11398.3875
1387.19347	10861.2875
1390.65578	10357.7875
1394.11575	10033.3875
1397.57339	9927.5875
1401.0287	9928.8875
1404.48168	9878.4875
1407.93234	9828.4875
1411.38068	9789.0875
1414.82669	9787.4875
1418.27039	9794.9875
1421.71177	9701.4875
1425.15083	9536.2875
1428.58758	9395.3875
1432.02203	9444.8875
1435.45416	9617.0875
1438.88399	9714.8875
1442.31151	9693.0875
1445.73673	9707.7875
1449.15965	9761.3875
1452.58027	9728.7875
1455.9986	9586.5875
1459.41463	9524.9875
1462.82837	9638.3875
1466.23982	9872.1875
1469.64898	10143.6875
1473.05586	10358.3875
1476.46045	10503.8875
1479.86276	10685.6875
1483.26279	10867.0875
1486.66054	11193.0875
1490.05602	11665.8875
1493.44922	12292.3875
1496.84016	13207.0875
1500.22882	14555.6875
1503.61521	16304.3875
1506.99934	18287.3875
1510.38121	20011.8875
1513.76081	20601.8875
1517.13816	19410.3875
1520.51324	16986.9875
1523.88607	14588.9875
1527.25665	12959.2875
1530.62498	12058.3875
1533.99105	11474.3875
1537.35488	11065.2875
1540.71647	10679.2875
1544.07581	10336.4875
1547.4329	10115.0875
1550.78776	9903.5875
1554.14038	9847.5875
1557.49077	9873.8875
1560.83892	9977.5875
1564.18484	10304.4875
1567.52853	10752.4875
1570.86999	11115.0875
1574.20922	11430.9875
1577.54624	11415.7875
1580.88103	10908.8875
1584.2136	10186.6875
1587.54395	9816.1875
1590.87208	9922.0875
1594.19801	10523.0875
1597.52172	11299.1875
1600.84321	11814.3875
1604.16251	11580.7875
1607.47959	10787.6875
1610.79447	9832.0875
1614.10715	8947.3875
1617.41763	8263.8875
1620.7259	7850.6875
1624.03199	7665.2875
1627.33587	7675.9875
1630.63757	7868.2875
1633.93707	8315.5875
1637.23439	9075.9875
1640.52951	10457.0875
1643.82246	12434.6875
1647.11321	14711.1875
1650.40179	16257.2875
1653.68819	15795.8875
1656.97241	13526.2875
1660.25446	10926.0875
1663.53433	9008.0875
1666.81203	7900.3875
1670.08756	7281.5875
1673.36092	6904.3875
1676.63211	6670.9875
1679.90115	6538.1875
1683.16801	6404.1875
1686.43272	6339.7875
1689.69527	6262.3875
1692.95567	6227.2875
1696.2139	6195.8875
1699.46999	6199.3875
1702.72392	6163.5875
1705.97571	6151.6875
1709.22535	6110.9875
1712.47284	6099.2875
1715.71819	6096.7875
1718.96139	6101.3875
1722.20246	6095.7875
1725.44139	6042.8875
1728.67818	6025.9875
1731.91284	5969.8875
1735.14537	5928.2875
1738.37576	5905.9875
1741.60403	5887.7875
1744.83017	5857.3875
1748.05418	5859.3875
1751.27607	5874.1875
1754.49584	5911.0875
1757.71349	5906.8875
1760.92903	5892.7875
1764.14244	5869.4875
1767.35375	5832.9875
1770.56294	5780.2875
1773.77002	5754.9875
1776.97499	5713.1875
1780.17785	5669.1875
1783.37861	5653.8875
1786.57727	5626.1875
1789.77382	5623.3875
1792.96828	5585.4875
1796.16064	5575.0875
1799.3509	5569.0875
1802.53907	5544.5875
1805.72514	5527.4875
1808.90913	5510.9875
1812.09102	5500.4875
1815.27083	5484.4875
1818.44856	5467.9875
1821.6242	5465.6875
1824.79776	5459.7875
1827.96924	5433.0875
1831.13864	5457.9875
1834.30597	5441.3875
1837.47122	5436.4875
1840.6344	5431.8875
1843.7955	5419.7875
1846.95454	5432.4875
1850.11151	5426.1875
1853.26642	5425.5875
1856.41926	5400.0875
1859.57004	5407.9875
1862.71876	5402.1875
1865.86542	5404.6875
1869.01003	5386.8875
1872.15258	5390.3875
1875.29308	5381.3875
1878.43152	5378.6875
1881.56792	5358.5875
1884.70227	5348.1875
1887.83457	5353.4875
1890.96482	5325.9875
1894.09304	5316.0875
1897.21921	5318.9875
1900.34335	5319.3875
1903.46544	5318.1875
1906.58551	5325.5875
1909.70353	5298.4875
1912.81953	5277.4875
1915.93349	5275.1875
1919.04543	5259.8875
1922.15534	5236.6875
1925.26322	5220.8875
1928.36908	5234.8875
1931.47292	5219.0875
1934.57473	5183.2875
1937.67453	5159.3875
1940.77232	5171.9875
1943.86808	5152.4875
1946.96184	5136.7875
1950.05358	5108.7875
1953.14331	5096.2875
1956.23103	5066.3875
1959.31675	5074.7875
1962.40046	5057.4875
1965.48217	5045.4875
1968.56188	5043.9875
1971.63959	5017.7875
1974.7153	5025.8875
1977.78901	4990.9875
1980.86073	4965.1875
1983.93046	4961.9875
1986.99819	4951.9875
1990.06394	4913.1875
1993.1277	4907.9875
1996.18947	4890.3875
1999.24925	4880.3875
2002.30706	4866.1875
2005.36288	4848.7875
2008.41672	4821.5875
2011.46859	4830.3875
2014.51848	4801.0875
2017.56639	4785.0875
2020.61233	4780.5875
2023.6563	4775.2875
2026.6983	4763.7875
2029.73833	4758.4875
2032.7764	4721.0875
2035.8125	4734.3875
2038.84664	4725.4875
2041.87881	4716.0875
2044.90903	4696.2875
2047.93729	4697.1875
2050.96359	4691.7875
2053.98794	4680.8875
2057.01034	4689.6875
2060.03078	4665.4875
2063.04927	4664.8875
2066.06582	4668.2875
2069.08042	4659.2875
2072.09307	4658.3875
2075.10378	4643.3875
2078.11255	4655.2875
2081.11938	4659.1875
2084.12426	4664.9875
2087.12722	4644.4875
2090.12824	4642.5875
2093.12732	4646.2875
2096.12447	4648.4875
2099.11969	4663.7875
2102.11299	4655.5875
2105.10435	4658.7875
2108.09379	4657.8875
2111.08131	4675.1875
2114.0669	4667.4875
2117.05057	4649.9875
2120.03233	4669.9875
2123.01216	4672.9875
2125.99008	4684.7875
2128.96609	4692.9875
2131.94018	4682.1875
2134.91236	4708.0875
2137.88263	4700.9875
2140.851	4680.5875
2143.81746	4691.4875
2146.78201	4693.2875
2149.74466	4679.8875
2152.7054	4679.1875
2155.66425	4681.6875
2158.6212	4681.8875
2161.57625	4664.9875
2164.52941	4674.4875
2167.48067	4666.6875
2170.43004	4676.7875
2173.37752	4671.5875
2176.32311	4664.6875
2179.26681	4662.2875
2182.20863	4659.8875
2185.14856	4668.1875
2188.08661	4664.0875
2191.02278	4662.2875
2193.95707	4651.3875
2196.88948	4641.6875
2199.82001	4650.6875
2202.74867	4647.8875
2205.67545	4643.0875
2208.60037	4641.5875
2211.52341	4629.5875
2214.44458	4632.8875
2217.36388	4606.8875
2220.28132	4601.0875
2223.1969	4585.3875
2226.11061	4580.7875
2229.02246	4570.7875
2231.93245	4565.4875
2234.84058	4567.6875
2237.74686	4559.7875
2240.65128	4553.6875
2243.55385	4557.5875
2246.45456	4571.6875
2249.35343	4551.1875
2252.25044	4542.1875
2255.14561	4534.7875
2258.03893	4539.3875
2260.93041	4524.6875
2263.82004	4529.3875
2266.70783	4512.1875
2269.59378	4504.4875
2272.4779	4494.1875
2275.36017	4485.1875
2278.24061	4489.5875
2281.11922	4471.6875
2283.996	4466.6875
2286.87094	4437.3875
2289.74405	4446.8875
2292.61534	4425.0875
2295.4848	4407.5875
2298.35243	4432.0875
2301.21824	4408.1875
2304.08223	4396.2875
2306.94439	4413.7875
2309.80474	4399.8875
2312.66327	4402.9875
2315.51999	4405.7875
2318.37489	4416.6875
2321.22797	4398.3875
2324.07925	4391.4875
2326.92871	4390.4875
2329.77637	4390.8875
2332.62222	4375.0875
2335.46626	4368.4875
2338.3085	4366.5875
2341.14893	4381.7875
2343.98756	4376.6875
2346.8244	4364.4875
2349.65943	4369.6875
2352.49267	4364.5875
2355.32411	4364.2875
2358.15376	4384.7875
2360.98161	4384.6875
2363.80768	4387.7875
2366.63195	4388.1875
2369.45444	4383.8875
2372.27514	4378.6875
2375.09405	4374.9875
2377.91118	4364.7875
2380.72652	4352.5875
2383.54009	4344.5875
2386.35187	4319.9875
2389.16188	4303.3875
2391.97011	4291.6875
2394.77657	4288.8875
2397.58125	4269.4875
2400.38416	4272.5875
2403.18529	4252.3875
2405.98466	4248.4875
2408.78226	4237.3875
2411.57809	4243.5875
2414.37216	4239.0875
2417.16446	4236.3875
2419.955	4226.1875
2422.74378	4213.0875
2425.5308	4245.4875
2428.31606	4213.8875
2431.09956	4220.2875
2433.88131	4220.1875
2436.6613	4212.2875
2439.43954	4224.3875
2442.21603	4213.0875
2444.99077	4197.3875
2447.76377	4219.0875
2450.53501	4224.9875
2453.30451	4230.4875
2456.07226	4226.6875
2458.83827	4213.1875
2461.60254	4214.5875
2464.36507	4221.8875
2467.12586	4228.1875
2469.88492	4204.0875
2472.64224	4220.4875
2475.39782	4215.5875
2478.15167	4212.3875
2480.90379	4218.3875
2483.65417	4223.5875
2486.40283	4227.7875
2489.14976	4223.1875
2491.89497	4232.9875
2494.63845	4253.3875
2497.3802	4241.7875
2500.12024	4231.4875
2502.85855	4217.3875
2505.59514	4202.4875
2508.33002	4192.3875
2511.06318	4177.4875
2513.79462	4172.5875
2516.52435	4155.1875
2519.25237	4151.4875
2521.97867	4138.1875
2524.70327	4112.8875
2527.42616	4121.7875
2530.14734	4101.5875
2532.86681	4114.2875
2535.58458	4089.1875
2538.30065	4084.6875
2541.01501	4094.3875
2543.72768	4093.6875
2546.43864	4095.2875
2549.14791	4084.4875
2551.85548	4087.1875
2554.56136	4083.7875
2557.26554	4079.5875
2559.96803	4084.5875
2562.66883	4081.2875
2565.36794	4067.0875
2568.06536	4066.9875
2570.7611	4061.9875
2573.45514	4056.3875
2576.14751	4062.3875
2578.83819	4041.4875
2581.52719	4043.6875
2584.21451	4027.9875
2586.90015	4014.6875
2589.58411	4020.2875
2592.2664	4019.2875
2594.94701	4013.1875
2597.62594	4004.8875
2600.30321	3993.2875
2602.9788	3987.6875
2605.65273	3987.8875
2608.32498	3977.9875
2610.99557	3977.2875
2613.66449	3964.8875
2616.33175	3973.1875
2618.99734	3979.9875
2621.66128	3960.5875
2624.32355	3953.3875
2626.98416	3959.9875
2629.64311	3945.1875
2632.30041	3937.8875
2634.95605	3930.4875
2637.61004	3928.3875
2640.26238	3927.0875
2642.91306	3912.8875
2645.56209	3917.4875
2648.20948	3900.3875
2650.85521	3924.8875
2653.4993	3901.0875
2656.14175	3908.3875
2658.78255	3915.7875
2661.42171	3915.7875
2664.05923	3911.6875
2666.6951	3926.9875
2669.32934	3927.7875
2671.96194	3942.4875
2674.59291	3946.9875
2677.22224	3935.0875
2679.84993	3937.3875
2682.476	3933.4875
2685.10043	3941.8875
2687.72324	3929.0875
2690.34441	3916.8875
2692.96396	3909.8875
2695.58188	3917.9875
2698.19818	3922.8875
2700.81285	3922.5875
2703.4259	3940.8875
2706.03733	4006.8875
2708.64714	3959.6875
2711.25533	3962.4875
2713.86191	3947.7875
2716.46687	3950.6875
2719.07021	3946.8875
2721.67194	3965.3875
2724.27206	3938.1875
2726.87057	3940.4875
2729.46747	3947.0875
2732.06276	3959.4875
2734.65644	3932.5875
2737.24852	3922.8875
2739.83899	3934.6875
2742.42786	3923.2875
2745.01513	3925.1875
2747.60079	3906.4875
2750.18486	3910.5875
2752.76733	3909.0875
2755.3482	3900.4875
2757.92747	3892.9875
2760.50515	3888.8875
2763.08123	3869.9875
2765.65573	3894.3875
2768.22863	3891.2875
2770.79994	3883.3875
2773.36967	3875.8875
2775.9378	3880.2875
2778.50435	3870.0875
2781.06932	3872.5875
2783.6327	3866.0875
2786.1945	3864.5875
2788.75471	3862.1875
2791.31335	3855.7875
2793.87041	3861.3875
2796.42589	3833.3875
2798.97979	3849.5875
2801.53212	3841.9875
2804.08288	3849.1875
2806.63206	3840.2875
2809.17967	3839.2875
2811.72571	3839.5875
2814.27018	3852.0875
2816.81308	3840.8875
2819.35442	3840.2875
2821.89419	3855.4875
2824.43239	3851.7875
2826.96904	3871.0875
2829.50412	3861.3875
2832.03763	3852.3875
2834.56959	3852.3875
2837.1	3866.3875
2839.62884	3863.0875
2842.15613	3877.5875
2844.68186	3894.1875
2847.20604	3918.2875
2849.72867	3933.4875
2852.24974	3928.5875
2854.76927	3928.2875
2857.28724	3942.6875
2859.80367	3936.8875
2862.31855	3913.2875
2864.83189	3931.1875
2867.34368	3928.7875
2869.85393	3935.3875
2872.36264	3926.0875
2874.8698	3943.4875
2877.37543	3931.7875
2879.87952	3942.1875
2882.38207	3949.3875
2884.88308	3942.2875
2887.38256	3935.5875
2889.88051	3950.2875
2892.37692	3966.5875
2894.8718	3970.9875
2897.36515	3943.1875
2899.85698	3972.5875
2902.34727	3995.8875
2904.83604	3986.1875
2907.32328	4002.0875
2909.809	4001.6875
2912.29319	4014.8875
2914.77587	4033.0875
2917.25702	4021.6875
2919.73665	4024.3875
2922.21476	4047.8875
2924.69136	4038.8875
2927.16644	4043.5875
2929.64	4048.6875
2932.11205	4042.6875
2934.58258	4018.2875
2937.05161	4039.9875
2939.51912	4032.0875
2941.98513	4035.6875
2944.44962	4001.9875
2946.91261	3986.9875
2949.37409	3976.2875
2951.83407	3965.8875
2954.29254	3956.1875
2956.74951	3941.1875
2959.20498	3937.3875
2961.65895	3900.6875
2964.11142	3903.0875
2966.56239	3871.5875
2969.01186	3857.9875
2971.45984	3849.9875
2973.90632	3826.5875
2976.35131	3810.5875
2978.7948	3793.1875
2981.23681	3786.9875
2983.67732	3765.2875
2986.11635	3764.7875
2988.55388	3759.4875
2990.98993	3747.7875
2993.4245	3735.0875
2995.85758	3744.8875
2998.28917	3715.0875
3000.71928	3733.1875
3003.14791	3720.4875
3005.57506	3721.2875
3008.00073	3707.5875
3010.42493	3720.1875
3012.84764	3694.7875
3015.26888	3698.4875
3017.68865	3686.4875
3020.10694	3682.5875
3022.52376	3669.1875
3024.9391	3663.7875
3027.35298	3666.5875
3029.76539	3639.5875
3032.17632	3639.0875
3034.5858	3625.6875
3036.9938	3620.9875
3039.40034	3608.5875
3041.80542	3595.4875
3044.20903	3592.0875
3046.61118	3588.7875
3049.01187	3585.1875
3051.4111	3588.8875
3053.80888	3572.8875
3056.20519	3570.7875
3058.60005	3563.1875
3060.99345	3564.8875
3063.3854	3563.3875
3065.7759	3559.3875
3068.16494	3557.2875
3070.55254	3535.9875
3072.93868	3534.6875
3075.32338	3531.6875
3077.70662	3529.8875
3080.08842	3513.8875
3082.46878	3519.9875
3084.84769	3516.6875
3087.22515	3504.3875
3089.60118	3504.8875
3091.97576	3507.0875
3094.3489	3508.6875
3096.72061	3513.9875
3099.09087	3511.9875
3101.4597	3509.2875
3103.82709	3506.9875
3106.19305	3512.1875
3108.55757	3506.5875
3110.92066	3497.2875
3113.28232	3498.8875
