Data from AgNPs_FTO_APTES_UA_20um_CRN_0.1mM_R6G_10uM_NaF_0.1M_Addition_RamanShift__12__14-30-19-184.txt Node

Date: Tue Dec 21 14:30:19 GMT 2021
User: TCL
Spectrometer: QEP01345
Trigger mode: 4
Integration Time (sec): 7.000000E0
Scans to average: 10
Electric dark correction enabled: true
Nonlinearity correction enabled: false
Boxcar width: 0
XAxis mode: Raman Shifts
Number of Pixels in Spectrum: 1044
>>>>>Begin Spectral Data<<<<<
46.04893	0.5625
50.45542	-0.7375
54.85868	-0.2375
59.25871	0.1625
63.6555	36.3625
68.04907	44.3625
72.43941	47.0625
76.82654	45.4625
81.21044	52.3625
85.59113	54.0625
89.96862	55.5625
94.34289	56.1625
98.71396	55.4625
103.08183	58.3625
107.4465	61.7625
111.80798	62.9625
116.16626	64.7625
120.52136	65.4625
124.87327	64.6625
129.222	67.7625
133.56755	72.7625
137.90993	78.1625
142.24913	81.2625
146.58517	90.9625
150.91804	103.0625
155.24774	117.9625
159.57429	143.5625
163.89768	181.7625
168.21792	236.4625
172.53501	319.1625
176.84895	440.8625
181.15975	619.0625
185.46741	864.4625
189.77193	1186.7625
194.07331	1597.2625
198.37157	2075.5625
202.6667	2577.8625
206.9587	3086.7625
211.24758	3589.9625
215.53334	4086.3625
219.81599	4604.3625
224.09553	5178.7625
228.37195	5796.6625
232.64527	6498.9625
236.91549	7221.2625
241.18261	7976.8625
245.44663	8638.5625
249.70755	9241.7625
253.96539	9758.4625
258.22014	10185.7625
262.4718	10502.8625
266.72039	10725.9625
270.96589	10836.7625
275.20832	10814.5625
279.44768	10745.6625
283.68397	10630.3625
287.91719	10540.5625
292.14735	10443.8625
296.37445	10428.1625
300.59849	10421.5625
304.81948	10466.1625
309.03742	10456.5625
313.25231	10363.0625
317.46415	10191.9625
321.67296	9918.5625
325.87872	9666.8625
330.08145	9523.9625
334.28114	9496.7625
338.47781	9566.9625
342.67145	9656.2625
346.86207	9811.6625
351.04966	9933.2625
355.23424	10095.4625
359.4158	10237.7625
363.59435	10340.6625
367.76989	10404.3625
371.94243	10441.3625
376.11196	10467.1625
380.27849	10503.6625
384.44203	10550.7625
388.60257	10617.4625
392.76012	10718.9625
396.91468	10866.0625
401.06626	11037.1625
405.21485	11169.8625
409.36047	11152.5625
413.50311	11000.2625
417.64277	10848.9625
421.77947	10749.2625
425.9132	10755.1625
430.04396	10771.7625
434.17176	10849.1625
438.2966	10874.9625
442.41849	10980.1625
446.53742	11145.0625
450.6534	11300.4625
454.76644	11433.6625
458.87653	11498.5625
462.98368	11575.1625
467.08789	11520.3625
471.18916	11470.8625
475.2875	11401.3625
479.38291	11348.0625
483.4754	11309.0625
487.56496	11238.5625
491.6516	11175.1625
495.73531	11054.1625
499.81612	11030.0625
503.89401	11038.0625
507.96899	11076.9625
512.04106	11057.3625
516.11023	11035.5625
520.1765	10974.6625
524.23987	10899.8625
528.30034	10810.2625
532.35792	10725.3625
536.41261	10650.9625
540.46441	10573.7625
544.51333	10550.1625
548.55936	10649.7625
552.60252	10858.5625
556.64279	10996.3625
560.6802	11102.8625
564.71473	11185.6625
568.7464	11307.3625
572.7752	11555.9625
576.80114	11791.0625
580.82422	12049.2625
584.84444	12234.1625
588.86181	12320.9625
592.87633	12279.8625
596.888	12231.0625
600.89682	12185.1625
604.9028	12393.6625
608.90594	13237.1625
612.90624	14259.2625
616.90371	13704.3625
620.89834	11778.6625
624.89015	10853.4625
628.87913	10716.9625
632.86528	10844.0625
636.84862	10919.2625
640.82913	10857.5625
644.80683	10639.4625
648.78172	10453.6625
652.75379	10388.9625
656.72306	10466.1625
660.68952	10657.9625
664.65319	10664.9625
668.61405	10554.6625
672.57211	10557.4625
676.52738	10605.0625
680.47986	10633.0625
684.42955	10586.9625
688.37646	10552.3625
692.32058	10555.0625
696.26192	10559.7625
700.20048	10634.3625
704.13626	10705.7625
708.06928	10725.4625
711.99952	10667.3625
715.927	10596.4625
719.85171	10552.8625
723.77365	10502.5625
727.69284	10401.8625
731.60928	10311.8625
735.52295	10252.4625
739.43388	10263.5625
743.34206	10274.9625
747.24749	10309.0625
751.15017	10361.8625
755.05012	10488.7625
758.94733	10723.9625
762.8418	11182.2625
766.73354	11944.0625
770.62254	12707.6625
774.50882	12967.1625
778.39237	12486.7625
782.27321	11715.0625
786.15132	11000.1625
790.02671	10554.4625
793.89938	10311.2625
797.76935	10191.5625
801.6366	10098.7625
805.50115	10037.2625
809.36299	10009.1625
813.22213	9952.0625
817.07857	9930.7625
820.93231	9923.4625
824.78336	9910.5625
828.63172	9863.1625
832.47738	9856.9625
836.32036	9822.8625
840.16066	9817.4625
843.99827	9794.5625
847.8332	9771.4625
851.66546	9759.2625
855.49504	9769.0625
859.32195	9762.0625
863.1462	9730.0625
866.96777	9725.3625
870.78668	9714.8625
874.60293	9724.2625
878.41652	9750.2625
882.22745	9735.8625
886.03573	9747.9625
889.84136	9774.0625
893.64433	9756.8625
897.44466	9746.1625
901.24235	9723.6625
905.0374	9677.2625
908.8298	9672.1625
912.61957	9679.6625
916.40671	9750.6625
920.19121	9843.3625
923.97308	9891.1625
927.75233	9877.4625
931.52895	9803.0625
935.30295	9715.7625
939.07433	9549.2625
942.84309	9441.4625
946.60924	9347.2625
950.37278	9279.6625
954.13371	9257.0625
957.89203	9250.1625
961.64774	9223.9625
965.40086	9225.8625
969.15137	9203.8625
972.89929	9161.3625
976.64461	9134.3625
980.38733	9092.5625
984.12747	9114.8625
987.86502	9096.9625
991.59999	9133.5625
995.33237	9148.1625
999.06217	9224.3625
1002.78939	9296.5625
1006.51404	9387.1625
1010.23611	9522.4625
1013.95561	9606.3625
1017.67255	9590.4625
1021.38692	9590.0625
1025.09872	9507.0625
1028.80796	9413.5625
1032.51465	9360.9625
1036.21877	9378.3625
1039.92035	9415.2625
1043.61937	9466.9625
1047.31584	9541.8625
1051.00976	9594.7625
1054.70114	9619.3625
1058.38998	9690.2625
1062.07627	9770.0625
1065.76003	9863.0625
1069.44126	9964.9625
1073.11995	10090.9625
1076.79611	10194.6625
1080.46974	10230.3625
1084.14085	10262.8625
1087.80943	10288.8625
1091.47549	10357.2625
1095.13903	10415.2625
1098.80005	10356.5625
1102.45857	10165.2625
1106.11456	9973.2625
1109.76805	9818.6625
1113.41903	9773.3625
1117.06751	9812.0625
1120.71348	9909.6625
1124.35696	10043.7625
1127.99793	10166.9625
1131.63641	10277.6625
1135.2724	10230.5625
1138.90589	10138.4625
1142.5369	10072.9625
1146.16542	10062.5625
1149.79145	10094.3625
1153.415	10139.3625
1157.03607	10236.2625
1160.65467	10371.3625
1164.27079	10629.8625
1167.88443	10969.0625
1171.49561	11439.6625
1175.10432	12075.4625
1178.71056	12861.4625
1182.31434	13603.3625
1185.91565	14024.6625
1189.51451	14098.8625
1193.11091	13979.9625
1196.70485	13595.2625
1200.29634	13098.0625
1203.88538	12658.4625
1207.47197	12280.3625
1211.05612	11956.1625
1214.63782	11718.2625
1218.21708	11465.2625
1221.79391	11223.0625
1225.36829	11061.5625
1228.94024	10940.6625
1232.50976	10903.9625
1236.07685	10867.5625
1239.6415	10867.8625
1243.20374	10875.3625
1246.76355	10929.0625
1250.32093	10996.6625
1253.8759	11132.2625
1257.42845	11357.2625
1260.97859	11616.1625
1264.52631	11846.8625
1268.07163	12095.7625
1271.61453	12292.9625
1275.15503	12551.2625
1278.69312	12721.5625
1282.22882	12989.9625
1285.76211	13223.7625
1289.29301	13527.7625
1292.82151	13891.6625
1296.34761	14325.0625
1299.87133	14832.0625
1303.39266	15345.0625
1306.9116	15947.1625
1310.42815	16527.5625
1313.94233	16828.6625
1317.45412	16818.2625
1320.96354	16617.7625
1324.47058	16439.9625
1327.97525	16306.3625
1331.47754	16233.7625
1334.97747	16205.3625
1338.47502	16297.8625
1341.97022	16386.8625
1345.46305	16605.8625
1348.95352	16785.9625
1352.44163	16862.5625
1355.92738	17042.2625
1359.41078	17391.5625
1362.89183	17855.0625
1366.37053	17650.5625
1369.84688	16543.7625
1373.32088	15081.5625
1376.79254	13977.6625
1380.26186	13404.2625
1383.72883	13111.4625
1387.19347	12960.8625
1390.65578	12774.3625
1394.11575	12613.0625
1397.57339	12485.5625
1401.0287	12450.9625
1404.48168	12384.5625
1407.93234	12326.0625
1411.38068	12169.7625
1414.82669	11936.7625
1418.27039	11625.6625
1421.71177	11332.3625
1425.15083	11026.9625
1428.58758	10856.4625
1432.02203	10826.8625
1435.45416	10886.1625
1438.88399	11022.1625
1442.31151	11092.8625
1445.73673	11224.7625
1449.15965	11377.1625
1452.58027	11494.7625
1455.9986	11617.5625
1459.41463	11712.3625
1462.82837	11891.9625
1466.23982	12058.4625
1469.64898	12264.4625
1473.05586	12440.7625
1476.46045	12510.5625
1479.86276	12563.5625
1483.26279	12601.8625
1486.66054	12735.1625
1490.05602	12931.0625
1493.44922	13221.9625
1496.84016	13685.7625
1500.22882	14355.2625
1503.61521	15128.8625
1506.99934	15947.9625
1510.38121	16454.0625
1513.76081	16515.7625
1517.13816	16027.0625
1520.51324	15240.0625
1523.88607	14544.7625
1527.25665	14043.4625
1530.62498	13780.3625
1533.99105	13497.9625
1537.35488	13266.6625
1540.71647	12974.0625
1544.07581	12661.6625
1547.4329	12367.6625
1550.78776	12117.8625
1554.14038	12002.5625
1557.49077	11968.3625
1560.83892	12024.7625
1564.18484	12171.1625
1567.52853	12317.2625
1570.86999	12456.6625
1574.20922	12566.4625
1577.54624	12655.7625
1580.88103	12505.9625
1584.2136	12231.6625
1587.54395	12116.3625
1590.87208	12209.7625
1594.19801	12489.3625
1597.52172	12926.0625
1600.84321	13086.1625
1604.16251	12799.6625
1607.47959	12282.1625
1610.79447	11684.7625
1614.10715	11068.1625
1617.41763	10517.9625
1620.7259	10076.7625
1624.03199	9759.3625
1627.33587	9644.5625
1630.63757	9700.8625
1633.93707	9988.7625
1637.23439	10502.8625
1640.52951	11315.6625
1643.82246	12464.5625
1647.11321	13627.3625
1650.40179	14403.9625
1653.68819	14323.7625
1656.97241	13300.2625
1660.25446	11899.1625
1663.53433	10633.1625
1666.81203	9705.4625
1670.08756	9075.1625
1673.36092	8655.1625
1676.63211	8418.5625
1679.90115	8220.9625
1683.16801	8081.5625
1686.43272	7971.5625
1689.69527	7906.4625
1692.95567	7842.2625
1696.2139	7806.5625
1699.46999	7767.3625
1702.72392	7731.3625
1705.97571	7706.2625
1709.22535	7669.6625
1712.47284	7631.4625
1715.71819	7643.9625
1718.96139	7586.4625
1722.20246	7558.0625
1725.44139	7537.9625
1728.67818	7476.2625
1731.91284	7449.5625
1735.14537	7409.0625
1738.37576	7363.6625
1741.60403	7320.6625
1744.83017	7322.4625
1748.05418	7300.5625
1751.27607	7295.3625
1754.49584	7288.1625
1757.71349	7310.2625
1760.92903	7297.9625
1764.14244	7289.1625
1767.35375	7266.9625
1770.56294	7238.5625
1773.77002	7201.5625
1776.97499	7159.8625
1780.17785	7129.3625
1783.37861	7114.8625
1786.57727	7064.2625
1789.77382	7033.0625
1792.96828	7032.5625
1796.16064	7009.5625
1799.3509	6977.4625
1802.53907	6954.6625
1805.72514	6929.7625
1808.90913	6903.5625
1812.09102	6882.6625
1815.27083	6858.2625
1818.44856	6850.0625
1821.6242	6840.3625
1824.79776	6826.4625
1827.96924	6814.5625
1831.13864	6800.8625
1834.30597	6797.2625
1837.47122	6785.8625
1840.6344	6779.4625
1843.7955	6766.7625
1846.95454	6762.0625
1850.11151	6740.6625
1853.26642	6714.7625
1856.41926	6739.8625
1859.57004	6720.0625
1862.71876	6687.7625
1865.86542	6700.3625
1869.01003	6671.5625
1872.15258	6662.0625
1875.29308	6650.8625
1878.43152	6634.6625
1881.56792	6630.1625
1884.70227	6595.6625
1887.83457	6618.7625
1890.96482	6585.4625
1894.09304	6573.0625
1897.21921	6552.2625
1900.34335	6538.7625
1903.46544	6532.4625
1906.58551	6530.6625
1909.70353	6506.9625
1912.81953	6485.8625
1915.93349	6495.7625
1919.04543	6494.9625
1922.15534	6455.4625
1925.26322	6453.8625
1928.36908	6430.9625
1931.47292	6398.4625
1934.57473	6385.5625
1937.67453	6358.6625
1940.77232	6343.0625
1943.86808	6321.6625
1946.96184	6311.0625
1950.05358	6273.9625
1953.14331	6268.9625
1956.23103	6232.1625
1959.31675	6215.5625
1962.40046	6219.1625
1965.48217	6197.9625
1968.56188	6158.0625
1971.63959	6149.7625
1974.7153	6122.7625
1977.78901	6117.1625
1980.86073	6092.9625
1983.93046	6073.1625
1986.99819	6047.6625
1990.06394	6018.3625
1993.1277	5999.9625
1996.18947	5968.8625
1999.24925	5948.8625
2002.30706	5930.7625
2005.36288	5903.1625
2008.41672	5900.8625
2011.46859	5880.8625
2014.51848	5822.0625
2017.56639	5833.6625
2020.61233	5825.1625
2023.6563	5785.2625
2026.6983	5773.6625
2029.73833	5770.6625
2032.7764	5746.7625
2035.8125	5723.7625
2038.84664	5710.4625
2041.87881	5710.1625
2044.90903	5688.5625
2047.93729	5659.5625
2050.96359	5662.1625
2053.98794	5655.4625
2057.01034	5636.7625
2060.03078	5633.3625
2063.04927	5628.5625
2066.06582	5604.5625
2069.08042	5622.0625
2072.09307	5618.0625
2075.10378	5589.7625
2078.11255	5597.0625
2081.11938	5588.5625
2084.12426	5588.2625
2087.12722	5576.3625
2090.12824	5589.2625
2093.12732	5569.2625
2096.12447	5570.2625
2099.11969	5559.5625
2102.11299	5553.3625
2105.10435	5552.1625
2108.09379	5552.8625
2111.08131	5569.4625
2114.0669	5575.8625
2117.05057	5555.1625
2120.03233	5573.1625
2123.01216	5574.1625
2125.99008	5561.8625
2128.96609	5566.1625
2131.94018	5562.1625
2134.91236	5575.0625
2137.88263	5562.4625
2140.851	5571.3625
2143.81746	5555.5625
2146.78201	5556.5625
2149.74466	5552.8625
2152.7054	5553.3625
2155.66425	5543.4625
2158.6212	5535.1625
2161.57625	5531.4625
2164.52941	5544.6625
2167.48067	5523.0625
2170.43004	5520.3625
2173.37752	5514.4625
2176.32311	5514.0625
2179.26681	5508.4625
2182.20863	5507.2625
2185.14856	5499.8625
2188.08661	5497.8625
2191.02278	5500.5625
2193.95707	5491.7625
2196.88948	5492.7625
2199.82001	5462.2625
2202.74867	5461.0625
2205.67545	5455.7625
2208.60037	5446.0625
2211.52341	5443.8625
2214.44458	5424.4625
2217.36388	5405.8625
2220.28132	5407.7625
2223.1969	5378.5625
2226.11061	5359.5625
2229.02246	5368.2625
2231.93245	5337.8625
2234.84058	5354.0625
2237.74686	5310.2625
2240.65128	5310.6625
2243.55385	5303.8625
2246.45456	5300.3625
2249.35343	5271.3625
2252.25044	5277.5625
2255.14561	5261.5625
2258.03893	5261.1625
2260.93041	5254.8625
2263.82004	5226.0625
2266.70783	5221.5625
2269.59378	5187.5625
2272.4779	5193.3625
2275.36017	5180.4625
2278.24061	5172.4625
2281.11922	5154.7625
2283.996	5138.1625
2286.87094	5133.9625
2289.74405	5108.6625
2292.61534	5112.6625
2295.4848	5104.7625
2298.35243	5093.6625
2301.21824	5078.9625
2304.08223	5081.0625
2306.94439	5066.9625
2309.80474	5061.1625
2312.66327	5071.8625
2315.51999	5049.3625
2318.37489	5030.7625
2321.22797	5015.2625
2324.07925	5029.8625
2326.92871	5009.4625
2329.77637	4994.0625
2332.62222	5009.6625
2335.46626	4996.6625
2338.3085	4967.6625
2341.14893	4962.0625
2343.98756	4964.1625
2346.8244	4966.1625
2349.65943	4942.4625
2352.49267	4968.7625
2355.32411	4953.7625
2358.15376	4943.6625
2360.98161	4949.5625
2363.80768	4919.4625
2366.63195	4950.2625
2369.45444	4948.3625
2372.27514	4936.5625
2375.09405	4918.5625
2377.91118	4906.0625
2380.72652	4896.0625
2383.54009	4882.2625
2386.35187	4863.6625
2389.16188	4854.9625
2391.97011	4820.1625
2394.77657	4819.0625
2397.58125	4809.7625
2400.38416	4799.7625
2403.18529	4771.6625
2405.98466	4772.1625
2408.78226	4764.0625
2411.57809	4769.1625
2414.37216	4749.6625
2417.16446	4758.8625
2419.955	4728.7625
2422.74378	4745.3625
2425.5308	4740.6625
2428.31606	4752.0625
2431.09956	4725.5625
2433.88131	4710.6625
2436.6613	4718.1625
2439.43954	4705.0625
2442.21603	4703.6625
2444.99077	4695.5625
2447.76377	4703.7625
2450.53501	4683.7625
2453.30451	4676.2625
2456.07226	4664.8625
2458.83827	4670.9625
2461.60254	4662.4625
2464.36507	4671.4625
2467.12586	4657.7625
2469.88492	4640.4625
2472.64224	4656.5625
2475.39782	4648.3625
2478.15167	4648.7625
2480.90379	4637.7625
2483.65417	4634.9625
2486.40283	4617.3625
2489.14976	4618.0625
2491.89497	4625.1625
2494.63845	4624.9625
2497.3802	4603.4625
2500.12024	4600.5625
2502.85855	4606.4625
2505.59514	4592.6625
2508.33002	4585.8625
2511.06318	4554.9625
2513.79462	4571.4625
2516.52435	4559.8625
2519.25237	4543.6625
2521.97867	4549.2625
2524.70327	4533.4625
2527.42616	4530.0625
2530.14734	4517.4625
2532.86681	4504.8625
2535.58458	4508.5625
2538.30065	4484.9625
2541.01501	4490.7625
2543.72768	4483.5625
2546.43864	4489.7625
2549.14791	4470.2625
2551.85548	4469.1625
2554.56136	4442.7625
2557.26554	4429.0625
2559.96803	4435.4625
2562.66883	4426.5625
2565.36794	4412.4625
2568.06536	4411.6625
2570.7611	4392.6625
2573.45514	4386.5625
2576.14751	4386.3625
2578.83819	4376.0625
2581.52719	4375.9625
2584.21451	4344.1625
2586.90015	4361.8625
2589.58411	4344.7625
2592.2664	4332.0625
2594.94701	4312.4625
2597.62594	4319.7625
2600.30321	4295.8625
2602.9788	4296.8625
2605.65273	4282.3625
2608.32498	4298.5625
2610.99557	4292.7625
2613.66449	4269.1625
2616.33175	4268.9625
2618.99734	4268.9625
2621.66128	4261.8625
2624.32355	4245.8625
2626.98416	4233.9625
2629.64311	4237.1625
2632.30041	4243.1625
2634.95605	4213.9625
2637.61004	4215.7625
2640.26238	4209.6625
2642.91306	4226.8625
2645.56209	4202.7625
2648.20948	4190.0625
2650.85521	4199.1625
2653.4993	4178.5625
2656.14175	4193.5625
2658.78255	4189.7625
2661.42171	4193.9625
2664.05923	4206.1625
2666.6951	4191.4625
2669.32934	4180.9625
2671.96194	4190.4625
2674.59291	4179.9625
2677.22224	4187.2625
2679.84993	4179.2625
2682.476	4192.7625
2685.10043	4169.9625
2687.72324	4173.5625
2690.34441	4172.9625
2692.96396	4167.3625
2695.58188	4187.8625
2698.19818	4170.9625
2700.81285	4185.4625
2703.4259	4191.3625
2706.03733	4216.7625
2708.64714	4195.6625
2711.25533	4185.3625
2713.86191	4163.9625
2716.46687	4162.3625
2719.07021	4169.6625
2721.67194	4169.0625
2724.27206	4155.8625
2726.87057	4162.8625
2729.46747	4152.3625
2732.06276	4156.2625
2734.65644	4145.8625
2737.24852	4150.9625
2739.83899	4124.7625
2742.42786	4131.2625
2745.01513	4127.0625
2747.60079	4128.2625
2750.18486	4114.2625
2752.76733	4100.9625
2755.3482	4107.4625
2757.92747	4104.1625
2760.50515	4085.8625
2763.08123	4089.6625
2765.65573	4081.9625
2768.22863	4074.4625
2770.79994	4071.4625
2773.36967	4074.6625
2775.9378	4061.5625
2778.50435	4071.0625
2781.06932	4052.4625
2783.6327	4030.5625
2786.1945	4037.3625
2788.75471	4035.6625
2791.31335	4022.9625
2793.87041	4004.8625
2796.42589	3991.2625
2798.97979	3995.5625
2801.53212	3978.1625
2804.08288	3995.9625
2806.63206	3979.6625
2809.17967	3962.3625
2811.72571	3958.9625
2814.27018	3961.4625
2816.81308	3953.4625
2819.35442	3950.8625
2821.89419	3933.3625
2824.43239	3926.9625
2826.96904	3937.8625
2829.50412	3932.1625
2832.03763	3914.9625
2834.56959	3929.9625
2837.1	3918.4625
2839.62884	3917.3625
2842.15613	3915.3625
2844.68186	3927.7625
2847.20604	3941.6625
2849.72867	3946.7625
2852.24974	3940.1625
2854.76927	3927.4625
2857.28724	3952.2625
2859.80367	3925.0625
2862.31855	3913.8625
2864.83189	3903.0625
2867.34368	3911.9625
2869.85393	3900.2625
2872.36264	3896.2625
2874.8698	3888.4625
2877.37543	3878.6625
2879.87952	3889.2625
2882.38207	3894.5625
2884.88308	3882.4625
2887.38256	3866.0625
2889.88051	3880.4625
2892.37692	3868.7625
2894.8718	3878.8625
2897.36515	3876.2625
2899.85698	3872.8625
2902.34727	3875.1625
2904.83604	3875.2625
2907.32328	3887.7625
2909.809	3875.0625
2912.29319	3878.9625
2914.77587	3879.0625
2917.25702	3899.2625
2919.73665	3892.3625
2922.21476	3896.3625
2924.69136	3884.0625
2927.16644	3884.4625
2929.64	3882.1625
2932.11205	3877.8625
2934.58258	3879.3625
2937.05161	3885.9625
2939.51912	3871.9625
2941.98513	3884.5625
2944.44962	3874.7625
2946.91261	3842.1625
2949.37409	3861.7625
2951.83407	3852.4625
2954.29254	3822.3625
2956.74951	3824.0625
2959.20498	3824.6625
2961.65895	3825.0625
2964.11142	3805.8625
2966.56239	3779.2625
2969.01186	3785.5625
2971.45984	3780.4625
2973.90632	3761.5625
2976.35131	3759.6625
2978.7948	3735.0625
2981.23681	3731.1625
2983.67732	3714.5625
2986.11635	3721.7625
2988.55388	3698.7625
2990.98993	3698.6625
2993.4245	3690.8625
2995.85758	3671.6625
2998.28917	3654.6625
3000.71928	3656.5625
3003.14791	3655.4625
3005.57506	3644.4625
3008.00073	3638.6625
3010.42493	3644.6625
3012.84764	3623.6625
3015.26888	3625.4625
3017.68865	3633.6625
3020.10694	3612.1625
3022.52376	3610.8625
3024.9391	3599.0625
3027.35298	3586.5625
3029.76539	3586.8625
3032.17632	3577.7625
3034.5858	3572.7625
3036.9938	3579.8625
3039.40034	3557.6625
3041.80542	3554.0625
3044.20903	3540.2625
3046.61118	3553.2625
3049.01187	3544.9625
3051.4111	3527.2625
3053.80888	3529.1625
3056.20519	3534.2625
3058.60005	3524.0625
3060.99345	3532.6625
3063.3854	3501.3625
3065.7759	3501.5625
3068.16494	3485.0625
3070.55254	3485.7625
3072.93868	3480.4625
3075.32338	3475.3625
3077.70662	3462.9625
3080.08842	3455.1625
3082.46878	3452.6625
3084.84769	3457.4625
3087.22515	3440.5625
3089.60118	3453.3625
3091.97576	3438.2625
