Data from AgNPs_FTO_APTES_UA_0um_CRN_0.1mM_R6G_10uM_NaF_0.1M_Addition_RamanShift__25__10-40-28-921.txt Node

Date: Tue Dec 21 10:40:28 GMT 2021
User: TCL
Spectrometer: QEP01345
Trigger mode: 4
Integration Time (sec): 7.000000E0
Scans to average: 10
Electric dark correction enabled: true
Nonlinearity correction enabled: false
Boxcar width: 0
XAxis mode: Raman Shifts
Number of Pixels in Spectrum: 1044
>>>>>Begin Spectral Data<<<<<
46.04893	0.9125
50.45542	-1.0875
54.85868	-0.1875
59.25871	0.6125
63.6555	18.3125
68.04907	21.8125
72.43941	25.0125
76.82654	24.6125
81.21044	29.9125
85.59113	29.8125
89.96862	32.2125
94.34289	29.8125
98.71396	31.4125
103.08183	34.8125
107.4465	34.2125
111.80798	37.9125
116.16626	33.7125
120.52136	32.9125
124.87327	35.3125
129.222	31.0125
133.56755	32.7125
137.90993	37.4125
142.24913	37.0125
146.58517	38.3125
150.91804	44.9125
155.24774	47.7125
159.57429	56.1125
163.89768	70.1125
168.21792	88.4125
172.53501	113.0125
176.84895	143.9125
181.15975	197.2125
185.46741	270.4125
189.77193	371.2125
194.07331	498.9125
198.37157	643.0125
202.6667	804.2125
206.9587	967.7125
211.24758	1128.5125
215.53334	1289.1125
219.81599	1452.8125
224.09553	1619.9125
228.37195	1820.3125
232.64527	2011.5125
236.91549	2229.7125
241.18261	2421.7125
245.44663	2589.7125
249.70755	2750.5125
253.96539	2910.7125
258.22014	2998.9125
262.4718	3035.3125
266.72039	3013.2125
270.96589	2959.3125
275.20832	2879.5125
279.44768	2789.0125
283.68397	2707.9125
287.91719	2623.7125
292.14735	2590.0125
296.37445	2593.6125
300.59849	2662.1125
304.81948	2784.5125
309.03742	2870.7125
313.25231	2886.7125
317.46415	2780.3125
321.67296	2576.2125
325.87872	2402.7125
330.08145	2296.1125
334.28114	2290.6125
338.47781	2332.3125
342.67145	2382.2125
346.86207	2483.7125
351.04966	2633.9125
355.23424	2804.7125
359.4158	2934.6125
363.59435	3031.4125
367.76989	3072.9125
371.94243	3039.2125
376.11196	3033.8125
380.27849	3028.0125
384.44203	2979.2125
388.60257	2925.5125
392.76012	2882.9125
396.91468	2898.3125
401.06626	2935.2125
405.21485	2970.2125
409.36047	2938.1125
413.50311	2803.2125
417.64277	2645.6125
421.77947	2574.3125
425.9132	2537.9125
430.04396	2548.1125
434.17176	2573.4125
438.2966	2645.7125
442.41849	2734.5125
446.53742	2834.7125
450.6534	2950.8125
454.76644	3006.0125
458.87653	2992.4125
462.98368	2933.2125
467.08789	2866.0125
471.18916	2783.8125
475.2875	2716.5125
479.38291	2625.8125
483.4754	2548.0125
487.56496	2516.9125
491.6516	2480.7125
495.73531	2472.6125
499.81612	2471.9125
503.89401	2491.2125
507.96899	2516.7125
512.04106	2563.1125
516.11023	2633.3125
520.1765	2664.0125
524.23987	2672.3125
528.30034	2634.7125
532.35792	2574.9125
536.41261	2531.7125
540.46441	2469.2125
544.51333	2445.3125
548.55936	2454.4125
552.60252	2458.8125
556.64279	2531.1125
560.6802	2563.8125
564.71473	2576.8125
568.7464	2694.1125
572.7752	2760.3125
576.80114	2687.5125
580.82422	2555.1125
584.84444	2475.7125
588.86181	2465.4125
592.87633	2535.0125
596.888	2613.6125
600.89682	2713.7125
604.9028	3012.5125
608.90594	3802.0125
612.90624	4912.8125
616.90371	4916.6125
620.89834	3520.6125
624.89015	2707.5125
628.87913	2536.0125
632.86528	2530.5125
636.84862	2557.9125
640.82913	2579.6125
644.80683	2499.5125
648.78172	2452.4125
652.75379	2457.7125
656.72306	2555.7125
660.68952	2670.9125
664.65319	2640.5125
668.61405	2509.7125
672.57211	2450.8125
676.52738	2495.8125
680.47986	2540.6125
684.42955	2530.9125
688.37646	2496.0125
692.32058	2541.8125
696.26192	2587.3125
700.20048	2681.4125
704.13626	2687.8125
708.06928	2626.6125
711.99952	2515.3125
715.927	2445.2125
719.85171	2424.9125
723.77365	2409.3125
727.69284	2401.3125
731.60928	2402.4125
735.52295	2422.9125
739.43388	2419.1125
743.34206	2425.4125
747.24749	2416.5125
751.15017	2410.6125
755.05012	2455.7125
758.94733	2558.8125
762.8418	2755.8125
766.73354	3123.5125
770.62254	3576.6125
774.50882	3892.6125
778.39237	3841.5125
782.27321	3381.5125
786.15132	2860.7125
790.02671	2565.7125
793.89938	2427.9125
797.76935	2365.0125
801.6366	2355.7125
805.50115	2345.7125
809.36299	2328.7125
813.22213	2321.7125
817.07857	2308.6125
820.93231	2286.8125
824.78336	2287.5125
828.63172	2305.1125
832.47738	2310.5125
836.32036	2305.6125
840.16066	2299.9125
843.99827	2287.0125
847.8332	2302.3125
851.66546	2330.1125
855.49504	2385.0125
859.32195	2435.9125
863.1462	2481.6125
866.96777	2425.7125
870.78668	2372.9125
874.60293	2308.7125
878.41652	2272.5125
882.22745	2257.3125
886.03573	2268.6125
889.84136	2258.4125
893.64433	2248.0125
897.44466	2231.3125
901.24235	2233.6125
905.0374	2227.4125
908.8298	2231.5125
912.61957	2223.7125
916.40671	2263.5125
920.19121	2335.9125
923.97308	2419.4125
927.75233	2487.2125
931.52895	2566.1125
935.30295	2539.7125
939.07433	2424.7125
942.84309	2303.1125
946.60924	2199.4125
950.37278	2127.9125
954.13371	2079.7125
957.89203	2053.1125
961.64774	2040.2125
965.40086	2023.7125
969.15137	2008.3125
972.89929	2001.6125
976.64461	1998.3125
980.38733	1985.5125
984.12747	1989.8125
987.86502	1986.2125
991.59999	1995.8125
995.33237	2005.4125
999.06217	2036.0125
1002.78939	2056.7125
1006.51404	2076.2125
1010.23611	2116.2125
1013.95561	2125.8125
1017.67255	2144.6125
1021.38692	2118.4125
1025.09872	2096.9125
1028.80796	2084.3125
1032.51465	2102.3125
1036.21877	2132.7125
1039.92035	2179.4125
1043.61937	2229.1125
1047.31584	2228.9125
1051.00976	2227.2125
1054.70114	2184.6125
1058.38998	2131.1125
1062.07627	2106.1125
1065.76003	2073.7125
1069.44126	2060.5125
1073.11995	2075.0125
1076.79611	2120.3125
1080.46974	2164.9125
1084.14085	2225.3125
1087.80943	2281.5125
1091.47549	2295.3125
1095.13903	2245.4125
1098.80005	2155.7125
1102.45857	2089.0125
1106.11456	2067.7125
1109.76805	2104.8125
1113.41903	2175.7125
1117.06751	2268.6125
1120.71348	2373.7125
1124.35696	2500.6125
1127.99793	2616.8125
1131.63641	2622.4125
1135.2724	2489.1125
1138.90589	2326.5125
1142.5369	2229.1125
1146.16542	2167.3125
1149.79145	2116.5125
1153.415	2110.5125
1157.03607	2125.5125
1160.65467	2166.2125
1164.27079	2234.9125
1167.88443	2340.2125
1171.49561	2503.3125
1175.10432	2802.9125
1178.71056	3212.5125
1182.31434	3572.9125
1185.91565	3672.5125
1189.51451	3584.8125
1193.11091	3356.2125
1196.70485	3079.5125
1200.29634	2884.9125
1203.88538	2707.0125
1207.47197	2493.8125
1211.05612	2340.5125
1214.63782	2241.7125
1218.21708	2217.2125
1221.79391	2200.2125
1225.36829	2181.7125
1228.94024	2159.0125
1232.50976	2153.3125
1236.07685	2170.3125
1239.6415	2191.0125
1243.20374	2242.2125
1246.76355	2260.6125
1250.32093	2295.3125
1253.8759	2346.2125
1257.42845	2432.1125
1260.97859	2525.8125
1264.52631	2642.9125
1268.07163	2734.6125
1271.61453	2801.8125
1275.15503	2810.5125
1278.69312	2776.0125
1282.22882	2763.6125
1285.76211	2790.2125
1289.29301	2880.1125
1292.82151	2990.3125
1296.34761	3095.3125
1299.87133	3244.1125
1303.39266	3476.3125
1306.9116	3855.1125
1310.42815	4307.4125
1313.94233	4612.6125
1317.45412	4485.2125
1320.96354	4089.5125
1324.47058	3658.2125
1327.97525	3258.7125
1331.47754	3052.1125
1334.97747	2979.2125
1338.47502	3052.1125
1341.97022	3175.1125
1345.46305	3321.4125
1348.95352	3609.6125
1352.44163	4017.9125
1355.92738	4614.0125
1359.41078	5408.8125
1362.89183	6168.1125
1366.37053	6106.5125
1369.84688	5225.9125
1373.32088	4262.1125
1376.79254	3625.0125
1380.26186	3243.1125
1383.72883	3057.8125
1387.19347	2893.4125
1390.65578	2719.7125
1394.11575	2570.3125
1397.57339	2509.0125
1401.0287	2501.3125
1404.48168	2517.8125
1407.93234	2574.6125
1411.38068	2634.3125
1414.82669	2701.6125
1418.27039	2773.5125
1421.71177	2818.7125
1425.15083	2804.2125
1428.58758	2812.9125
1432.02203	2828.3125
1435.45416	2844.8125
1438.88399	2823.9125
1442.31151	2746.6125
1445.73673	2697.4125
1449.15965	2664.1125
1452.58027	2612.2125
1455.9986	2514.6125
1459.41463	2465.8125
1462.82837	2444.1125
1466.23982	2474.8125
1469.64898	2540.4125
1473.05586	2599.7125
1476.46045	2623.8125
1479.86276	2676.6125
1483.26279	2731.4125
1486.66054	2778.7125
1490.05602	2811.8125
1493.44922	2894.5125
1496.84016	3045.7125
1500.22882	3325.5125
1503.61521	3756.1125
1506.99934	4342.6125
1510.38121	4885.4125
1513.76081	5177.6125
1517.13816	4913.5125
1520.51324	4235.2125
1523.88607	3519.3125
1527.25665	3045.8125
1530.62498	2786.3125
1533.99105	2653.7125
1537.35488	2577.5125
1540.71647	2539.8125
1544.07581	2516.7125
1547.4329	2518.4125
1550.78776	2514.4125
1554.14038	2515.8125
1557.49077	2524.1125
1560.83892	2556.1125
1564.18484	2633.0125
1567.52853	2764.9125
1570.86999	2909.4125
1574.20922	2989.6125
1577.54624	3001.7125
1580.88103	2840.3125
1584.2136	2576.5125
1587.54395	2412.1125
1590.87208	2397.2125
1594.19801	2513.0125
1597.52172	2703.4125
1600.84321	2858.0125
1604.16251	2795.3125
1607.47959	2631.6125
1610.79447	2415.3125
1614.10715	2230.9125
1617.41763	2109.9125
1620.7259	2035.9125
1624.03199	2019.5125
1627.33587	2013.7125
1630.63757	2053.5125
1633.93707	2121.0125
1637.23439	2237.3125
1640.52951	2464.0125
1643.82246	2798.9125
1647.11321	3216.1125
1650.40179	3556.0125
1653.68819	3493.7125
1656.97241	3056.0125
1660.25446	2525.6125
1663.53433	2144.5125
1666.81203	1927.6125
1670.08756	1814.9125
1673.36092	1740.1125
1676.63211	1676.4125
1679.90115	1635.0125
1683.16801	1584.4125
1686.43272	1561.3125
1689.69527	1533.7125
1692.95567	1511.8125
1696.2139	1505.4125
1699.46999	1488.3125
1702.72392	1484.8125
1705.97571	1470.6125
1709.22535	1466.0125
1712.47284	1464.0125
1715.71819	1489.1125
1718.96139	1487.6125
1722.20246	1491.9125
1725.44139	1478.2125
1728.67818	1455.9125
1731.91284	1442.6125
1735.14537	1424.5125
1738.37576	1410.4125
1741.60403	1389.3125
1744.83017	1392.3125
1748.05418	1393.6125
1751.27607	1375.5125
1754.49584	1363.6125
1757.71349	1343.5125
1760.92903	1311.8125
1764.14244	1283.4125
1767.35375	1284.2125
1770.56294	1257.1125
1773.77002	1250.9125
1776.97499	1233.3125
1780.17785	1226.1125
1783.37861	1220.4125
1786.57727	1216.9125
1789.77382	1205.4125
1792.96828	1193.7125
1796.16064	1196.0125
1799.3509	1177.4125
1802.53907	1175.9125
1805.72514	1182.7125
1808.90913	1162.1125
1812.09102	1153.8125
1815.27083	1148.8125
1818.44856	1145.7125
1821.6242	1145.2125
1824.79776	1141.6125
1827.96924	1133.9125
1831.13864	1133.7125
1834.30597	1125.4125
1837.47122	1121.5125
1840.6344	1118.8125
1843.7955	1120.7125
1846.95454	1108.7125
1850.11151	1111.9125
1853.26642	1108.2125
1856.41926	1110.3125
1859.57004	1103.5125
1862.71876	1098.6125
1865.86542	1098.4125
1869.01003	1095.2125
1872.15258	1088.8125
1875.29308	1093.0125
1878.43152	1086.8125
1881.56792	1086.6125
1884.70227	1080.6125
1887.83457	1079.3125
1890.96482	1081.3125
1894.09304	1071.9125
1897.21921	1076.8125
1900.34335	1068.3125
1903.46544	1066.0125
1906.58551	1066.5125
1909.70353	1066.3125
1912.81953	1071.6125
1915.93349	1057.9125
1919.04543	1067.6125
1922.15534	1057.6125
1925.26322	1050.7125
1928.36908	1045.2125
1931.47292	1045.4125
1934.57473	1043.8125
1937.67453	1042.0125
1940.77232	1023.6125
1943.86808	1030.9125
1946.96184	1033.1125
1950.05358	1015.8125
1953.14331	1023.5125
1956.23103	1010.7125
1959.31675	1013.6125
1962.40046	1003.7125
1965.48217	998.6125
1968.56188	1001.6125
1971.63959	999.7125
1974.7153	996.6125
1977.78901	992.0125
1980.86073	979.8125
1983.93046	974.6125
1986.99819	973.2125
1990.06394	974.3125
1993.1277	968.7125
1996.18947	956.7125
1999.24925	959.2125
2002.30706	955.9125
2005.36288	955.4125
2008.41672	949.5125
2011.46859	943.2125
2014.51848	943.7125
2017.56639	935.0125
2020.61233	939.1125
2023.6563	934.1125
2026.6983	932.7125
2029.73833	925.2125
2032.7764	920.8125
2035.8125	914.7125
2038.84664	914.3125
2041.87881	911.4125
2044.90903	915.4125
2047.93729	898.6125
2050.96359	910.1125
2053.98794	911.5125
2057.01034	905.3125
2060.03078	906.0125
2063.04927	890.4125
2066.06582	899.6125
2069.08042	897.3125
2072.09307	891.0125
2075.10378	893.5125
2078.11255	891.6125
2081.11938	894.4125
2084.12426	900.4125
2087.12722	901.6125
2090.12824	886.9125
2093.12732	895.0125
2096.12447	899.2125
2099.11969	901.2125
2102.11299	897.3125
2105.10435	900.9125
2108.09379	902.7125
2111.08131	892.0125
2114.0669	891.3125
2117.05057	889.8125
2120.03233	891.5125
2123.01216	885.9125
2125.99008	884.1125
2128.96609	873.1125
2131.94018	872.4125
2134.91236	880.4125
2137.88263	877.2125
2140.851	870.3125
2143.81746	871.4125
2146.78201	870.0125
2149.74466	870.8125
2152.7054	868.7125
2155.66425	856.2125
2158.6212	866.5125
2161.57625	865.4125
2164.52941	857.9125
2167.48067	862.0125
2170.43004	857.8125
2173.37752	862.1125
2176.32311	854.3125
2179.26681	855.2125
2182.20863	858.7125
2185.14856	855.1125
2188.08661	854.9125
2191.02278	848.0125
2193.95707	850.3125
2196.88948	850.5125
2199.82001	851.4125
2202.74867	844.1125
2205.67545	840.9125
2208.60037	840.2125
2211.52341	841.3125
2214.44458	837.1125
2217.36388	833.3125
2220.28132	836.3125
2223.1969	826.6125
2226.11061	830.1125
2229.02246	810.4125
2231.93245	808.8125
2234.84058	814.3125
2237.74686	812.5125
2240.65128	802.8125
2243.55385	813.8125
2246.45456	812.1125
2249.35343	804.6125
2252.25044	812.1125
2255.14561	801.9125
2258.03893	814.8125
2260.93041	815.5125
2263.82004	807.2125
2266.70783	801.8125
2269.59378	801.2125
2272.4779	796.7125
2275.36017	792.8125
2278.24061	793.7125
2281.11922	786.7125
2283.996	780.7125
2286.87094	787.3125
2289.74405	779.0125
2292.61534	781.9125
2295.4848	779.0125
2298.35243	770.3125
2301.21824	765.1125
2304.08223	773.9125
2306.94439	768.1125
2309.80474	764.2125
2312.66327	765.0125
2315.51999	764.9125
2318.37489	766.7125
2321.22797	763.4125
2324.07925	755.6125
2326.92871	761.2125
2329.77637	766.3125
2332.62222	760.9125
2335.46626	758.3125
2338.3085	749.7125
2341.14893	755.8125
2343.98756	754.7125
2346.8244	750.4125
2349.65943	748.5125
2352.49267	751.7125
2355.32411	747.8125
2358.15376	742.5125
2360.98161	753.5125
2363.80768	748.8125
2366.63195	756.1125
2369.45444	761.9125
2372.27514	757.5125
2375.09405	754.3125
2377.91118	756.5125
2380.72652	747.3125
2383.54009	750.4125
2386.35187	737.4125
2389.16188	735.6125
2391.97011	732.9125
2394.77657	732.5125
2397.58125	725.6125
2400.38416	725.7125
2403.18529	720.9125
2405.98466	720.5125
2408.78226	723.9125
2411.57809	716.0125
2414.37216	721.6125
2417.16446	721.1125
2419.955	711.7125
2422.74378	714.0125
2425.5308	715.6125
2428.31606	714.0125
2431.09956	710.4125
2433.88131	712.1125
2436.6613	712.6125
2439.43954	715.2125
2442.21603	705.1125
2444.99077	704.8125
2447.76377	702.4125
2450.53501	706.0125
2453.30451	710.9125
2456.07226	705.3125
2458.83827	706.1125
2461.60254	700.3125
2464.36507	697.5125
2467.12586	703.0125
2469.88492	697.4125
2472.64224	705.3125
2475.39782	707.6125
2478.15167	708.6125
2480.90379	699.7125
2483.65417	706.9125
2486.40283	705.7125
2489.14976	708.4125
2491.89497	711.1125
2494.63845	711.3125
2497.3802	717.1125
2500.12024	708.9125
2502.85855	709.3125
2505.59514	702.4125
2508.33002	695.7125
2511.06318	684.2125
2513.79462	683.1125
2516.52435	683.5125
2519.25237	677.5125
2521.97867	677.8125
2524.70327	678.1125
2527.42616	675.2125
2530.14734	672.6125
2532.86681	666.0125
2535.58458	667.9125
2538.30065	667.9125
2541.01501	668.7125
2543.72768	671.1125
2546.43864	670.6125
2549.14791	672.5125
2551.85548	662.9125
2554.56136	669.4125
2557.26554	664.5125
2559.96803	668.2125
2562.66883	660.7125
2565.36794	661.4125
2568.06536	668.9125
2570.7611	660.1125
2573.45514	658.8125
2576.14751	667.5125
2578.83819	664.2125
2581.52719	656.9125
2584.21451	656.9125
2586.90015	653.3125
2589.58411	652.9125
2592.2664	654.3125
2594.94701	646.3125
2597.62594	650.1125
2600.30321	647.7125
2602.9788	644.9125
2605.65273	648.4125
2608.32498	645.9125
2610.99557	649.8125
2613.66449	649.9125
2616.33175	640.1125
2618.99734	653.5125
2621.66128	641.4125
2624.32355	639.5125
2626.98416	637.5125
2629.64311	632.7125
2632.30041	634.8125
2634.95605	635.9125
2637.61004	635.7125
2640.26238	637.5125
2642.91306	636.9125
2645.56209	628.7125
2648.20948	629.7125
2650.85521	637.4125
2653.4993	632.2125
2656.14175	640.6125
2658.78255	633.1125
2661.42171	645.3125
2664.05923	640.5125
2666.6951	639.0125
2669.32934	647.0125
2671.96194	648.3125
2674.59291	650.2125
2677.22224	647.6125
2679.84993	657.8125
2682.476	650.7125
2685.10043	656.8125
2687.72324	650.6125
2690.34441	654.3125
2692.96396	657.1125
2695.58188	657.9125
2698.19818	665.3125
2700.81285	667.4125
2703.4259	680.8125
2706.03733	715.3125
2708.64714	690.2125
2711.25533	687.0125
2713.86191	682.6125
2716.46687	697.9125
2719.07021	692.5125
2721.67194	685.7125
2724.27206	687.3125
2726.87057	691.2125
2729.46747	692.9125
2732.06276	684.0125
2734.65644	692.9125
2737.24852	691.9125
2739.83899	681.4125
2742.42786	679.5125
2745.01513	681.1125
2747.60079	680.6125
2750.18486	684.0125
2752.76733	684.0125
2755.3482	683.4125
2757.92747	683.3125
2760.50515	689.9125
2763.08123	693.3125
2765.65573	700.6125
2768.22863	705.5125
2770.79994	704.6125
2773.36967	720.0125
2775.9378	717.0125
2778.50435	734.0125
2781.06932	741.1125
2783.6327	747.8125
2786.1945	755.5125
2788.75471	757.6125
2791.31335	770.9125
2793.87041	780.3125
2796.42589	783.7125
2798.97979	796.2125
2801.53212	811.5125
2804.08288	829.4125
2806.63206	841.0125
2809.17967	848.8125
2811.72571	868.9125
2814.27018	880.3125
2816.81308	891.6125
2819.35442	897.6125
2821.89419	908.1125
2824.43239	912.9125
2826.96904	914.0125
2829.50412	918.0125
2832.03763	931.3125
2834.56959	929.8125
2837.1	939.1125
2839.62884	962.7125
2842.15613	982.0125
2844.68186	1031.2125
2847.20604	1056.1125
2849.72867	1088.3125
2852.24974	1101.2125
2854.76927	1113.7125
2857.28724	1111.6125
2859.80367	1108.3125
2862.31855	1091.3125
2864.83189	1094.1125
2867.34368	1092.5125
2869.85393	1088.0125
2872.36264	1096.8125
2874.8698	1100.5125
2877.37543	1097.3125
2879.87952	1109.1125
2882.38207	1125.5125
2884.88308	1139.0125
2887.38256	1133.4125
2889.88051	1137.8125
2892.37692	1150.9125
2894.8718	1149.2125
2897.36515	1165.7125
2899.85698	1170.6125
2902.34727	1178.4125
2904.83604	1172.9125
2907.32328	1184.9125
2909.809	1185.7125
2912.29319	1183.3125
2914.77587	1186.1125
2917.25702	1187.6125
2919.73665	1179.2125
2922.21476	1171.4125
2924.69136	1173.7125
2927.16644	1153.5125
2929.64	1145.3125
2932.11205	1134.7125
2934.58258	1105.8125
2937.05161	1090.5125
2939.51912	1063.8125
2941.98513	1036.9125
2944.44962	1002.3125
2946.91261	977.0125
2949.37409	957.2125
2951.83407	917.4125
2954.29254	898.7125
2956.74951	875.9125
2959.20498	857.6125
2961.65895	831.3125
2964.11142	818.3125
2966.56239	798.0125
2969.01186	789.9125
2971.45984	772.9125
2973.90632	764.6125
2976.35131	755.0125
2978.7948	740.8125
2981.23681	729.1125
2983.67732	718.9125
2986.11635	720.1125
2988.55388	703.6125
2990.98993	705.1125
2993.4245	697.5125
2995.85758	694.7125
2998.28917	687.5125
3000.71928	687.6125
3003.14791	690.2125
3005.57506	686.6125
3008.00073	686.3125
3010.42493	676.5125
3012.84764	674.2125
3015.26888	672.1125
3017.68865	670.2125
3020.10694	666.2125
3022.52376	665.7125
3024.9391	662.5125
3027.35298	656.7125
3029.76539	654.2125
3032.17632	648.4125
3034.5858	648.5125
3036.9938	650.1125
3039.40034	649.8125
3041.80542	641.9125
3044.20903	644.1125
3046.61118	639.5125
3049.01187	637.4125
3051.4111	640.3125
3053.80888	631.1125
3056.20519	638.5125
3058.60005	643.3125
3060.99345	639.3125
3063.3854	640.0125
3065.7759	644.4125
3068.16494	638.4125
3070.55254	643.0125
3072.93868	643.6125
3075.32338	641.8125
3077.70662	635.8125
3080.08842	645.4125
3082.46878	637.9125
3084.84769	633.6125
3087.22515	637.5125
3089.60118	646.4125
3091.97576	641.9125
3094.3489	632.8125
3096.72061	639.6125
3099.09087	644.7125
3101.4597	642.5125
3103.82709	648.8125
3106.19305	648.2125
3108.55757	647.1125
3110.92066	647.4125
3113.28232	651.3125
3115.64255	653.8125
3118.00134	658.4125
3120.35871	657.9125
3122.71466	656.9125
3125.06917	662.2125
3127.42226	668.8125
3129.77393	673.0125
3132.12417	680.2125
3134.47299	686.3125
3136.82039	693.4125
3139.16636	688.1125
3141.51092	694.9125
3143.85406	693.0125
3146.19579	704.6125
3148.53609	707.5125
3150.87499	713.4125
3153.21246	718.5125
3155.54853	720.7125
3157.88318	731.6125
3160.21642	730.7125
3162.54826	740.2125
3164.87868	741.9125
3167.2077	744.7125
3169.5353	747.6125
3171.86151	757.4125
