Data from AgNPs_FTO_APTES_UA_50um_CRN_0.1mM_R6G_10uM_NaF_0.1M_Addition_RamanShift__27__15-34-29-257.txt Node

Date: Tue Dec 21 15:34:29 GMT 2021
User: TCL
Spectrometer: QEP01345
Trigger mode: 4
Integration Time (sec): 7.000000E0
Scans to average: 10
Electric dark correction enabled: true
Nonlinearity correction enabled: false
Boxcar width: 0
XAxis mode: Raman Shifts
Number of Pixels in Spectrum: 1044
>>>>>Begin Spectral Data<<<<<
46.04893	-0.425
50.45542	-1.625
54.85868	-0.625
59.25871	-0.225
63.6555	44.375
68.04907	50.975
72.43941	53.875
76.82654	54.775
81.21044	59.575
85.59113	60.975
89.96862	61.375
94.34289	63.275
98.71396	64.775
103.08183	64.775
107.4465	71.075
111.80798	71.775
116.16626	71.675
120.52136	71.975
124.87327	76.875
129.222	79.675
133.56755	82.075
137.90993	88.875
142.24913	95.275
146.58517	106.775
150.91804	120.275
155.24774	140.475
159.57429	166.975
163.89768	216.075
168.21792	277.275
172.53501	375.475
176.84895	518.375
181.15975	734.475
185.46741	1014.575
189.77193	1399.775
194.07331	1880.875
198.37157	2422.775
202.6667	2997.575
206.9587	3588.375
211.24758	4138.675
215.53334	4752.075
219.81599	5341.275
224.09553	6043.175
228.37195	6816.975
232.64527	7626.475
236.91549	8492.175
241.18261	9339.875
245.44663	10147.175
249.70755	10809.775
253.96539	11389.475
258.22014	11882.175
262.4718	12329.375
266.72039	12596.475
270.96589	12741.175
275.20832	12761.875
279.44768	12623.975
283.68397	12474.375
287.91719	12298.675
292.14735	12279.375
296.37445	12345.575
300.59849	12529.375
304.81948	12708.575
309.03742	12836.775
313.25231	12688.675
317.46415	12272.475
321.67296	11716.775
325.87872	11219.275
330.08145	10958.975
334.28114	11001.275
338.47781	11124.675
342.67145	11313.775
346.86207	11606.275
351.04966	12015.075
355.23424	12449.975
359.4158	12851.875
363.59435	13062.675
367.76989	13192.375
371.94243	13315.475
376.11196	13335.475
380.27849	13361.875
384.44203	13384.775
388.60257	13345.675
392.76012	13330.475
396.91468	13432.175
401.06626	13671.075
405.21485	13851.075
409.36047	13738.375
413.50311	13321.775
417.64277	12933.075
421.77947	12667.075
425.9132	12602.675
430.04396	12612.075
434.17176	12697.175
438.2966	12839.975
442.41849	13053.075
446.53742	13378.075
450.6534	13729.975
454.76644	13992.175
458.87653	14083.175
462.98368	13954.075
467.08789	13813.575
471.18916	13653.275
475.2875	13544.275
479.38291	13476.475
483.4754	13343.775
487.56496	13214.475
491.6516	13036.575
495.73531	12892.575
499.81612	12808.275
503.89401	12860.875
507.96899	12897.275
512.04106	12927.875
516.11023	12995.475
520.1765	13002.575
524.23987	12992.075
528.30034	12870.175
532.35792	12741.775
536.41261	12602.375
540.46441	12398.475
544.51333	12347.075
548.55936	12347.775
552.60252	12557.575
556.64279	12822.775
560.6802	12965.675
564.71473	13092.775
568.7464	13348.275
572.7752	13601.775
576.80114	13506.175
580.82422	13296.475
584.84444	13285.875
588.86181	13380.375
592.87633	13581.775
596.888	13744.175
600.89682	13887.675
604.9028	14606.875
608.90594	16741.475
612.90624	19619.575
616.90371	19133.375
620.89834	15082.775
624.89015	13068.875
628.87913	12759.875
632.86528	12910.375
636.84862	13112.675
640.82913	12928.875
644.80683	12481.775
648.78172	12082.375
652.75379	11949.375
656.72306	12110.375
660.68952	12413.475
664.65319	12396.075
668.61405	12062.875
672.57211	11927.975
676.52738	11952.175
680.47986	11938.375
684.42955	11880.275
688.37646	11799.375
692.32058	11774.575
696.26192	11822.375
700.20048	11906.675
704.13626	11974.075
708.06928	11938.375
711.99952	11846.675
715.927	11809.475
719.85171	11816.375
723.77365	11797.575
727.69284	11753.575
731.60928	11680.775
735.52295	11662.175
739.43388	11658.775
743.34206	11674.375
747.24749	11724.075
751.15017	11755.975
755.05012	11895.875
758.94733	12256.775
762.8418	13024.875
766.73354	14380.875
770.62254	15886.675
774.50882	16689.875
778.39237	16120.275
782.27321	14471.375
786.15132	12985.375
790.02671	12045.475
793.89938	11628.475
797.76935	11457.975
801.6366	11414.375
805.50115	11433.875
809.36299	11464.375
813.22213	11402.875
817.07857	11407.475
820.93231	11325.475
824.78336	11252.775
828.63172	11216.775
832.47738	11140.175
836.32036	11126.375
840.16066	11104.875
843.99827	11052.475
847.8332	11036.975
851.66546	10973.875
855.49504	10925.575
859.32195	10953.875
863.1462	10907.775
866.96777	10900.875
870.78668	10889.775
874.60293	10914.875
878.41652	10945.475
882.22745	11018.875
886.03573	11066.875
889.84136	11068.475
893.64433	10991.675
897.44466	10886.075
901.24235	10813.875
905.0374	10739.775
908.8298	10672.875
912.61957	10633.475
916.40671	10632.175
920.19121	10710.275
923.97308	10786.675
927.75233	10841.075
931.52895	10837.475
935.30295	10735.275
939.07433	10568.175
942.84309	10371.875
946.60924	10284.575
950.37278	10194.575
954.13371	10157.175
957.89203	10145.275
961.64774	10104.475
965.40086	10068.875
969.15137	10012.875
972.89929	9962.075
976.64461	9923.475
980.38733	9893.575
984.12747	9897.675
987.86502	9947.575
991.59999	10004.375
995.33237	10098.875
999.06217	10265.275
1002.78939	10513.775
1006.51404	10753.875
1010.23611	10917.175
1013.95561	11062.475
1017.67255	11092.075
1021.38692	10953.875
1025.09872	10791.675
1028.80796	10695.475
1032.51465	10720.575
1036.21877	10800.875
1039.92035	10829.875
1043.61937	10792.575
1047.31584	10734.175
1051.00976	10632.375
1054.70114	10584.675
1058.38998	10541.875
1062.07627	10611.375
1065.76003	10676.775
1069.44126	10723.675
1073.11995	10813.775
1076.79611	10846.375
1080.46974	10944.775
1084.14085	11066.775
1087.80943	11205.775
1091.47549	11315.375
1095.13903	11246.175
1098.80005	11051.775
1102.45857	10805.375
1106.11456	10707.275
1109.76805	10698.075
1113.41903	10818.975
1117.06751	11053.175
1120.71348	11362.675
1124.35696	11680.075
1127.99793	12015.075
1131.63641	12151.175
1135.2724	11941.375
1138.90589	11622.275
1142.5369	11393.775
1146.16542	11191.275
1149.79145	11056.875
1153.415	11007.575
1157.03607	11052.375
1160.65467	11188.675
1164.27079	11501.775
1167.88443	11984.175
1171.49561	12706.675
1175.10432	13773.175
1178.71056	15279.075
1182.31434	16671.075
1185.91565	17186.275
1189.51451	16943.475
1193.11091	16241.675
1196.70485	15404.475
1200.29634	14688.975
1203.88538	14169.775
1207.47197	13612.575
1211.05612	13097.575
1214.63782	12701.675
1218.21708	12485.675
1221.79391	12361.675
1225.36829	12296.975
1228.94024	12170.075
1232.50976	12024.675
1236.07685	11913.175
1239.6415	11868.375
1243.20374	11903.275
1246.76355	11985.675
1250.32093	12098.275
1253.8759	12328.075
1257.42845	12617.475
1260.97859	12919.275
1264.52631	13180.675
1268.07163	13455.975
1271.61453	13737.675
1275.15503	14014.275
1278.69312	14228.275
1282.22882	14420.175
1285.76211	14723.075
1289.29301	15151.775
1292.82151	15771.775
1296.34761	16469.475
1299.87133	17362.975
1303.39266	18575.975
1306.9116	20083.875
1310.42815	21688.875
1313.94233	22647.875
1317.45412	22478.075
1320.96354	21604.875
1324.47058	20565.975
1327.97525	19641.875
1331.47754	18964.075
1334.97747	18667.075
1338.47502	18696.175
1341.97022	18909.975
1345.46305	19132.975
1348.95352	19417.675
1352.44163	19994.375
1355.92738	21056.775
1359.41078	22889.675
1362.89183	24820.875
1366.37053	24569.675
1369.84688	21775.675
1373.32088	18582.475
1376.79254	16507.775
1380.26186	15535.775
1383.72883	15140.075
1387.19347	14951.675
1390.65578	14749.375
1394.11575	14622.075
1397.57339	14734.475
1401.0287	15008.175
1404.48168	15302.975
1407.93234	15450.975
1411.38068	15403.775
1414.82669	15116.175
1418.27039	14593.475
1421.71177	14001.375
1425.15083	13437.175
1428.58758	13106.075
1432.02203	13052.975
1435.45416	13164.375
1438.88399	13358.975
1442.31151	13510.675
1445.73673	13692.575
1449.15965	13916.175
1452.58027	14046.175
1455.9986	14127.875
1459.41463	14190.975
1462.82837	14375.975
1466.23982	14656.175
1469.64898	14851.675
1473.05586	15007.975
1476.46045	14987.875
1479.86276	15022.475
1483.26279	15020.975
1486.66054	15115.275
1490.05602	15280.675
1493.44922	15552.875
1496.84016	16007.275
1500.22882	16798.975
1503.61521	18084.775
1506.99934	19722.975
1510.38121	21150.275
1513.76081	21662.475
1517.13816	20715.875
1520.51324	18866.775
1523.88607	17065.475
1527.25665	15880.375
1530.62498	15215.275
1533.99105	14911.975
1537.35488	14714.975
1540.71647	14593.475
1544.07581	14457.975
1547.4329	14300.575
1550.78776	14162.275
1554.14038	14061.775
1557.49077	14101.375
1560.83892	14208.175
1564.18484	14385.475
1567.52853	14594.975
1570.86999	14822.875
1574.20922	14995.475
1577.54624	15082.875
1580.88103	14783.975
1584.2136	14308.375
1587.54395	14172.275
1590.87208	14476.075
1594.19801	15217.675
1597.52172	16139.975
1600.84321	16652.175
1604.16251	16262.775
1607.47959	15267.675
1610.79447	14085.675
1614.10715	12942.975
1617.41763	12028.175
1620.7259	11412.675
1624.03199	11057.075
1627.33587	11001.775
1630.63757	11212.675
1633.93707	11677.675
1637.23439	12458.075
1640.52951	13698.575
1643.82246	15302.275
1647.11321	17045.275
1650.40179	18127.575
1653.68819	17620.675
1656.97241	15645.775
1660.25446	13400.275
1663.53433	11721.975
1666.81203	10643.975
1670.08756	9968.675
1673.36092	9526.075
1676.63211	9290.375
1679.90115	9068.175
1683.16801	8912.275
1686.43272	8824.975
1689.69527	8719.775
1692.95567	8663.675
1696.2139	8617.775
1699.46999	8581.675
1702.72392	8495.075
1705.97571	8425.875
1709.22535	8375.975
1712.47284	8343.375
1715.71819	8319.475
1718.96139	8297.475
1722.20246	8272.375
1725.44139	8218.675
1728.67818	8143.875
1731.91284	8104.775
1735.14537	8073.175
1738.37576	8037.675
1741.60403	8017.475
1744.83017	7990.775
1748.05418	7954.275
1751.27607	7939.975
1754.49584	7945.475
1757.71349	7938.175
1760.92903	7930.175
1764.14244	7887.975
1767.35375	7890.075
1770.56294	7863.675
1773.77002	7816.475
1776.97499	7770.775
1780.17785	7770.575
1783.37861	7739.975
1786.57727	7716.575
1789.77382	7685.675
1792.96828	7677.275
1796.16064	7655.575
1799.3509	7632.575
1802.53907	7632.675
1805.72514	7591.675
1808.90913	7572.775
1812.09102	7562.275
1815.27083	7521.575
1818.44856	7526.975
1821.6242	7493.075
1824.79776	7482.575
1827.96924	7463.075
1831.13864	7452.175
1834.30597	7438.275
1837.47122	7434.675
1840.6344	7413.775
1843.7955	7421.575
1846.95454	7392.475
1850.11151	7414.075
1853.26642	7382.075
1856.41926	7400.775
1859.57004	7390.575
1862.71876	7380.575
1865.86542	7381.575
1869.01003	7373.875
1872.15258	7362.975
1875.29308	7344.675
1878.43152	7331.675
1881.56792	7350.175
1884.70227	7341.575
1887.83457	7323.375
1890.96482	7311.875
1894.09304	7304.775
1897.21921	7321.675
1900.34335	7309.175
1903.46544	7293.275
1906.58551	7289.675
1909.70353	7257.175
1912.81953	7243.275
1915.93349	7258.275
1919.04543	7249.075
1922.15534	7227.775
1925.26322	7200.875
1928.36908	7188.475
1931.47292	7167.275
1934.57473	7146.275
1937.67453	7121.575
1940.77232	7098.775
1943.86808	7076.175
1946.96184	7041.175
1950.05358	7026.775
1953.14331	6997.575
1956.23103	6987.675
1959.31675	6937.375
1962.40046	6953.775
1965.48217	6920.475
1968.56188	6903.375
1971.63959	6887.675
1974.7153	6863.775
1977.78901	6809.375
1980.86073	6814.075
1983.93046	6803.575
1986.99819	6741.475
1990.06394	6731.475
1993.1277	6717.375
1996.18947	6689.975
1999.24925	6680.075
2002.30706	6644.875
2005.36288	6632.075
2008.41672	6614.575
2011.46859	6595.775
2014.51848	6570.875
2017.56639	6532.275
2020.61233	6534.275
2023.6563	6518.575
2026.6983	6484.875
2029.73833	6465.775
2032.7764	6439.275
2035.8125	6450.575
2038.84664	6435.175
2041.87881	6436.175
2044.90903	6416.675
2047.93729	6396.175
2050.96359	6383.975
2053.98794	6377.275
2057.01034	6381.175
2060.03078	6364.275
2063.04927	6343.075
2066.06582	6358.975
2069.08042	6329.575
2072.09307	6345.475
2075.10378	6314.175
2078.11255	6306.875
2081.11938	6324.575
2084.12426	6305.875
2087.12722	6296.775
2090.12824	6290.675
2093.12732	6295.875
2096.12447	6275.975
2099.11969	6281.775
2102.11299	6290.575
2105.10435	6276.475
2108.09379	6273.575
2111.08131	6292.475
2114.0669	6294.575
2117.05057	6307.575
2120.03233	6279.275
2123.01216	6296.975
2125.99008	6293.175
2128.96609	6287.075
2131.94018	6297.675
2134.91236	6305.875
2137.88263	6299.575
2140.851	6297.775
2143.81746	6294.675
2146.78201	6287.075
2149.74466	6283.675
2152.7054	6284.075
2155.66425	6280.075
2158.6212	6267.075
2161.57625	6270.475
2164.52941	6245.075
2167.48067	6283.075
2170.43004	6248.775
2173.37752	6254.875
2176.32311	6245.675
2179.26681	6248.975
2182.20863	6232.875
2185.14856	6253.775
2188.08661	6251.375
2191.02278	6226.975
2193.95707	6214.275
2196.88948	6216.575
2199.82001	6197.375
2202.74867	6210.975
2205.67545	6204.475
2208.60037	6198.475
2211.52341	6182.075
2214.44458	6178.075
2217.36388	6155.875
2220.28132	6162.575
2223.1969	6140.675
2226.11061	6126.175
2229.02246	6103.575
2231.93245	6096.675
2234.84058	6087.275
2237.74686	6067.475
2240.65128	6072.275
2243.55385	6059.675
2246.45456	6042.975
2249.35343	6045.275
2252.25044	6019.775
2255.14561	6031.675
2258.03893	6021.175
2260.93041	6001.975
2263.82004	5992.675
2266.70783	5970.175
2269.59378	5950.875
2272.4779	5949.475
2275.36017	5917.375
2278.24061	5921.275
2281.11922	5907.375
2283.996	5880.675
2286.87094	5873.975
2289.74405	5864.075
2292.61534	5861.675
2295.4848	5849.775
2298.35243	5836.475
2301.21824	5839.775
2304.08223	5826.475
2306.94439	5820.275
2309.80474	5834.275
2312.66327	5813.275
2315.51999	5818.575
2318.37489	5816.675
2321.22797	5808.375
2324.07925	5793.975
2326.92871	5775.675
2329.77637	5800.675
2332.62222	5780.875
2335.46626	5764.075
2338.3085	5782.775
2341.14893	5770.375
2343.98756	5744.375
2346.8244	5758.475
2349.65943	5758.675
2352.49267	5743.475
2355.32411	5753.375
2358.15376	5754.475
2360.98161	5751.475
2363.80768	5765.975
2366.63195	5746.175
2369.45444	5740.775
2372.27514	5743.375
2375.09405	5709.775
2377.91118	5700.475
2380.72652	5682.675
2383.54009	5669.975
2386.35187	5646.075
2389.16188	5639.675
2391.97011	5628.075
2394.77657	5618.475
2397.58125	5585.575
2400.38416	5585.375
2403.18529	5575.575
2405.98466	5566.675
2408.78226	5549.175
2411.57809	5527.175
2414.37216	5532.075
2417.16446	5530.675
2419.955	5505.075
2422.74378	5496.875
2425.5308	5503.075
2428.31606	5503.675
2431.09956	5481.475
2433.88131	5486.375
2436.6613	5475.575
2439.43954	5481.775
2442.21603	5464.575
2444.99077	5462.275
2447.76377	5489.375
2450.53501	5463.775
2453.30451	5457.475
2456.07226	5452.975
2458.83827	5462.575
2461.60254	5443.275
2464.36507	5441.775
2467.12586	5445.175
2469.88492	5428.075
2472.64224	5433.375
2475.39782	5438.675
2478.15167	5467.675
2480.90379	5423.175
2483.65417	5452.675
2486.40283	5438.075
2489.14976	5452.175
2491.89497	5431.975
2494.63845	5450.375
2497.3802	5451.975
2500.12024	5446.375
2502.85855	5433.175
2505.59514	5437.675
2508.33002	5425.375
2511.06318	5406.675
2513.79462	5374.775
2516.52435	5371.575
2519.25237	5369.375
2521.97867	5348.375
2524.70327	5355.375
2527.42616	5335.075
2530.14734	5325.275
2532.86681	5320.675
2535.58458	5321.675
2538.30065	5310.975
2541.01501	5290.175
2543.72768	5301.175
2546.43864	5301.375
2549.14791	5293.475
2551.85548	5288.775
2554.56136	5271.075
2557.26554	5276.875
2559.96803	5272.475
2562.66883	5247.275
2565.36794	5238.375
2568.06536	5234.875
2570.7611	5238.375
2573.45514	5243.775
2576.14751	5237.275
2578.83819	5203.875
2581.52719	5213.475
2584.21451	5197.075
2586.90015	5203.875
2589.58411	5176.975
2592.2664	5190.075
2594.94701	5175.275
2597.62594	5160.175
2600.30321	5153.575
2602.9788	5174.075
2605.65273	5144.775
2608.32498	5157.775
2610.99557	5161.075
2613.66449	5159.775
2616.33175	5150.175
2618.99734	5148.575
2621.66128	5121.675
2624.32355	5135.075
2626.98416	5127.975
2629.64311	5132.675
2632.30041	5112.675
2634.95605	5128.475
2637.61004	5100.775
2640.26238	5087.175
2642.91306	5109.875
2645.56209	5090.875
2648.20948	5096.275
2650.85521	5068.475
2653.4993	5076.975
2656.14175	5072.175
2658.78255	5070.275
2661.42171	5075.375
2664.05923	5082.975
2666.6951	5077.575
2669.32934	5087.075
2671.96194	5093.275
2674.59291	5085.975
2677.22224	5107.575
2679.84993	5100.975
2682.476	5097.475
2685.10043	5101.975
2687.72324	5076.075
2690.34441	5082.075
2692.96396	5080.775
2695.58188	5086.975
2698.19818	5076.075
2700.81285	5069.875
2703.4259	5096.575
2706.03733	5150.375
2708.64714	5106.375
2711.25533	5100.675
2713.86191	5082.375
2716.46687	5090.975
2719.07021	5090.575
2721.67194	5086.875
2724.27206	5076.875
2726.87057	5074.675
2729.46747	5083.175
2732.06276	5078.275
2734.65644	5060.775
2737.24852	5076.575
2739.83899	5054.375
2742.42786	5052.675
2745.01513	5034.475
2747.60079	5057.775
2750.18486	5042.475
2752.76733	5056.675
2755.3482	5049.275
2757.92747	5026.175
2760.50515	5028.675
2763.08123	5035.775
2765.65573	5015.075
2768.22863	5017.775
2770.79994	4997.675
2773.36967	5017.675
2775.9378	5011.575
2778.50435	5017.375
2781.06932	5004.075
2783.6327	5002.175
2786.1945	4991.875
2788.75471	5005.975
2791.31335	4984.575
2793.87041	4950.275
2796.42589	4974.775
2798.97979	4955.575
2801.53212	4933.375
2804.08288	4961.375
2806.63206	4941.175
2809.17967	4941.075
2811.72571	4905.975
2814.27018	4908.775
2816.81308	4923.475
2819.35442	4910.175
2821.89419	4905.575
2824.43239	4881.675
2826.96904	4899.175
2829.50412	4894.775
2832.03763	4882.575
2834.56959	4887.875
2837.1	4866.575
2839.62884	4875.375
2842.15613	4878.975
2844.68186	4879.175
2847.20604	4891.075
2849.72867	4905.175
2852.24974	4898.575
2854.76927	4887.875
2857.28724	4911.375
2859.80367	4870.175
2862.31855	4872.675
2864.83189	4866.375
2867.34368	4856.575
2869.85393	4860.575
2872.36264	4847.175
2874.8698	4856.275
2877.37543	4860.875
2879.87952	4858.575
2882.38207	4851.275
2884.88308	4835.075
2887.38256	4850.075
2889.88051	4834.175
2892.37692	4854.875
2894.8718	4847.975
2897.36515	4858.775
2899.85698	4844.675
2902.34727	4855.475
2904.83604	4854.175
2907.32328	4844.175
2909.809	4854.375
2912.29319	4867.875
2914.77587	4873.175
2917.25702	4861.075
2919.73665	4845.075
2922.21476	4879.775
2924.69136	4844.675
2927.16644	4852.975
2929.64	4842.975
2932.11205	4846.075
2934.58258	4845.575
2937.05161	4831.375
2939.51912	4826.575
2941.98513	4813.575
2944.44962	4805.375
2946.91261	4785.575
2949.37409	4801.475
2951.83407	4801.375
2954.29254	4790.075
2956.74951	4777.875
2959.20498	4774.575
2961.65895	4772.975
2964.11142	4770.675
2966.56239	4742.375
2969.01186	4756.275
2971.45984	4712.075
2973.90632	4714.775
2976.35131	4694.475
2978.7948	4684.175
2981.23681	4681.075
2983.67732	4669.875
2986.11635	4657.175
2988.55388	4629.075
2990.98993	4621.575
2993.4245	4632.575
2995.85758	4609.375
2998.28917	4596.875
3000.71928	4598.075
3003.14791	4596.175
3005.57506	4588.575
3008.00073	4574.775
3010.42493	4591.475
3012.84764	4571.975
3015.26888	4572.075
3017.68865	4557.175
3020.10694	4553.275
3022.52376	4552.175
3024.9391	4554.775
3027.35298	4555.975
3029.76539	4540.375
3032.17632	4522.775
3034.5858	4507.975
3036.9938	4499.175
3039.40034	4511.275
3041.80542	4485.975
3044.20903	4479.275
3046.61118	4478.575
3049.01187	4478.375
3051.4111	4464.675
3053.80888	4466.675
3056.20519	4459.875
3058.60005	4439.575
3060.99345	4427.975
3063.3854	4429.875
3065.7759	4417.775
3068.16494	4396.475
3070.55254	4399.575
3072.93868	4397.175
3075.32338	4385.975
3077.70662	4385.175
3080.08842	4346.175
3082.46878	4341.875
3084.84769	4356.475
3087.22515	4351.175
3089.60118	4364.975
3091.97576	4343.075
3094.3489	4371.375
3096.72061	4350.675
3099.09087	4356.775
3101.4597	4350.575
3103.82709	4335.675
3106.19305	4345.475
3108.55757	4324.675
3110.92066	4332.575
3113.28232	4329.175
3115.64255	4305.275
3118.00134	4302.475
3120.35871	4288.475
3122.71466	4286.575
3125.06917	4294.775
3127.42226	4268.475
3129.77393	4292.575
3132.12417	4289.475
3134.47299	4303.075
3136.82039	4293.375
3139.16636	4303.275
3141.51092	4305.575
3143.85406	4301.575
3146.19579	4300.175
3148.53609	4302.275
3150.87499	4320.675
3153.21246	4305.475
3155.54853	4320.575
3157.88318	4332.175
3160.21642	4321.175
3162.54826	4322.675
3164.87868	4310.575
3167.2077	4320.675
3169.5353	4317.475
3171.86151	4337.975
3174.18631	4326.975
3176.5097	4316.575
3178.83169	4313.475
3181.15228	4313.875
3183.47147	4303.775
3185.78926	4300.275
3188.10565	4320.275
3190.42065	4306.575
