Data from AgNPs_FTO_APTES_UA_10um_CRN_0.1mM_R6G_10uM_NaF_0.1M_Addition_RamanShift__27__14-06-59-157.txt Node

Date: Tue Dec 21 14:06:59 GMT 2021
User: TCL
Spectrometer: QEP01345
Trigger mode: 4
Integration Time (sec): 7.000000E0
Scans to average: 10
Electric dark correction enabled: true
Nonlinearity correction enabled: false
Boxcar width: 0
XAxis mode: Raman Shifts
Number of Pixels in Spectrum: 1044
>>>>>Begin Spectral Data<<<<<
46.04893	0.775
50.45542	-0.625
54.85868	-1.725
59.25871	-1.325
63.6555	47.575
68.04907	52.375
72.43941	57.275
76.82654	55.675
81.21044	61.375
85.59113	62.275
89.96862	62.675
94.34289	65.275
98.71396	65.975
103.08183	71.975
107.4465	73.075
111.80798	74.875
116.16626	76.475
120.52136	80.075
124.87327	84.175
129.222	81.975
133.56755	89.875
137.90993	100.275
142.24913	107.275
146.58517	122.875
150.91804	141.075
155.24774	166.075
159.57429	205.575
163.89768	269.875
168.21792	356.575
172.53501	479.675
176.84895	669.375
181.15975	933.875
185.46741	1306.475
189.77193	1802.175
194.07331	2427.875
198.37157	3120.375
202.6667	3879.275
206.9587	4640.975
211.24758	5395.675
215.53334	6186.475
219.81599	6996.175
224.09553	7925.375
228.37195	8959.875
232.64527	10059.275
236.91549	11230.175
241.18261	12370.375
245.44663	13376.675
249.70755	14209.375
253.96539	14933.675
258.22014	15558.675
262.4718	16052.575
266.72039	16402.675
270.96589	16536.275
275.20832	16542.675
279.44768	16403.175
283.68397	16229.275
287.91719	16105.775
292.14735	16099.175
296.37445	16281.375
300.59849	16609.575
304.81948	17023.575
309.03742	17268.575
313.25231	17125.375
317.46415	16415.975
321.67296	15467.275
325.87872	14648.875
330.08145	14205.375
334.28114	14190.475
338.47781	14388.875
342.67145	14719.375
346.86207	15198.475
351.04966	15866.875
355.23424	16644.175
359.4158	17271.975
363.59435	17616.475
367.76989	17769.975
371.94243	17778.275
376.11196	17804.075
380.27849	17800.775
384.44203	17756.575
388.60257	17668.075
392.76012	17656.175
396.91468	17779.375
401.06626	18162.675
405.21485	18495.575
409.36047	18304.575
413.50311	17665.375
417.64277	16994.675
421.77947	16659.975
425.9132	16526.975
430.04396	16525.375
434.17176	16637.875
438.2966	16896.475
442.41849	17300.675
446.53742	17854.375
450.6534	18449.075
454.76644	18888.275
458.87653	19030.075
462.98368	18892.475
467.08789	18606.975
471.18916	18350.475
475.2875	18001.975
479.38291	17854.075
483.4754	17649.875
487.56496	17339.575
491.6516	17015.675
495.73531	16720.275
499.81612	16641.175
503.89401	16692.375
507.96899	16815.175
512.04106	16902.275
516.11023	16945.975
520.1765	16997.475
524.23987	16980.375
528.30034	16785.075
532.35792	16570.075
536.41261	16327.075
540.46441	16063.075
544.51333	15869.775
548.55936	15907.475
552.60252	16189.375
556.64279	16587.975
560.6802	16875.075
564.71473	17185.775
568.7464	17771.275
572.7752	18202.275
576.80114	18025.975
580.82422	17638.875
584.84444	17508.275
588.86181	17594.475
592.87633	17900.775
596.888	18215.475
600.89682	18500.275
604.9028	19770.975
608.90594	23479.175
612.90624	28295.975
616.90371	27310.075
620.89834	20458.975
624.89015	17056.475
628.87913	16460.075
632.86528	16627.275
636.84862	16774.975
640.82913	16503.775
644.80683	15837.775
648.78172	15301.875
652.75379	15200.575
656.72306	15576.375
660.68952	16140.075
664.65319	16118.575
668.61405	15641.875
672.57211	15448.775
676.52738	15472.475
680.47986	15492.675
684.42955	15328.875
688.37646	15188.575
692.32058	15212.575
696.26192	15243.175
700.20048	15426.875
704.13626	15524.875
708.06928	15493.975
711.99952	15333.375
715.927	15254.375
719.85171	15267.175
723.77365	15292.475
727.69284	15169.675
731.60928	15058.075
735.52295	15088.575
739.43388	15073.675
743.34206	15168.375
747.24749	15214.375
751.15017	15306.075
755.05012	15553.775
758.94733	16163.275
762.8418	17445.775
766.73354	19725.775
770.62254	22208.675
774.50882	23481.075
778.39237	22570.275
782.27321	20018.175
786.15132	17466.475
790.02671	15918.875
793.89938	15191.775
797.76935	14891.475
801.6366	14820.975
805.50115	14769.875
809.36299	14748.075
813.22213	14703.375
817.07857	14675.875
820.93231	14620.975
824.78336	14579.975
828.63172	14583.075
832.47738	14553.475
836.32036	14536.875
840.16066	14455.675
843.99827	14424.875
847.8332	14401.975
851.66546	14315.775
855.49504	14306.375
859.32195	14311.075
863.1462	14274.675
866.96777	14223.675
870.78668	14210.775
874.60293	14257.275
878.41652	14236.675
882.22745	14303.075
886.03573	14402.175
889.84136	14369.375
893.64433	14310.275
897.44466	14196.075
901.24235	14108.275
905.0374	13999.875
908.8298	13910.875
912.61957	13910.175
916.40671	13972.975
920.19121	14106.375
923.97308	14306.175
927.75233	14420.075
931.52895	14503.175
935.30295	14348.575
939.07433	14004.675
942.84309	13705.075
946.60924	13516.975
950.37278	13416.075
954.13371	13349.175
957.89203	13292.175
961.64774	13246.075
965.40086	13205.675
969.15137	13073.575
972.89929	13028.375
976.64461	12948.875
980.38733	12971.975
984.12747	12996.075
987.86502	13062.875
991.59999	13218.375
995.33237	13467.175
999.06217	13845.975
1002.78939	14383.775
1006.51404	14831.575
1010.23611	15155.875
1013.95561	15396.275
1017.67255	15363.375
1021.38692	15131.575
1025.09872	14878.475
1028.80796	14839.775
1032.51465	15034.475
1036.21877	15295.175
1039.92035	15380.275
1043.61937	15310.375
1047.31584	15046.575
1051.00976	14757.075
1054.70114	14536.575
1058.38998	14495.875
1062.07627	14481.775
1065.76003	14584.675
1069.44126	14653.675
1073.11995	14788.875
1076.79611	14950.575
1080.46974	15105.675
1084.14085	15330.375
1087.80943	15604.575
1091.47549	15801.175
1095.13903	15668.375
1098.80005	15314.775
1102.45857	14938.375
1106.11456	14711.175
1109.76805	14705.975
1113.41903	14964.975
1117.06751	15321.175
1120.71348	15835.875
1124.35696	16361.975
1127.99793	16886.375
1131.63641	16985.575
1135.2724	16474.575
1138.90589	15940.175
1142.5369	15589.875
1146.16542	15339.775
1149.79145	15172.975
1153.415	15181.875
1157.03607	15312.775
1160.65467	15601.275
1164.27079	16149.175
1167.88443	17001.275
1171.49561	18287.275
1175.10432	20115.275
1178.71056	22667.075
1182.31434	24885.275
1185.91565	25861.975
1189.51451	25513.875
1193.11091	24403.075
1196.70485	22924.675
1200.29634	21663.175
1203.88538	20627.575
1207.47197	19683.475
1211.05612	18821.575
1214.63782	18271.175
1218.21708	18040.775
1221.79391	17992.675
1225.36829	17922.075
1228.94024	17730.575
1232.50976	17478.375
1236.07685	17322.975
1239.6415	17251.575
1243.20374	17322.475
1246.76355	17473.775
1250.32093	17759.875
1253.8759	18131.575
1257.42845	18775.975
1260.97859	19355.875
1264.52631	19810.775
1268.07163	20361.775
1271.61453	20900.575
1275.15503	21450.375
1278.69312	21912.375
1282.22882	22290.975
1285.76211	22867.675
1289.29301	23614.675
1292.82151	24523.575
1296.34761	25630.075
1299.87133	27067.675
1303.39266	29060.675
1306.9116	31756.875
1310.42815	34604.075
1313.94233	36277.675
1317.45412	35896.475
1320.96354	34291.275
1324.47058	32485.275
1327.97525	30913.675
1331.47754	29884.775
1334.97747	29570.675
1338.47502	29792.375
1341.97022	30239.475
1345.46305	30634.375
1348.95352	31008.975
1352.44163	31801.075
1355.92738	33420.475
1359.41078	36448.375
1362.89183	39398.975
1366.37053	38578.775
1369.84688	33807.475
1373.32088	28826.775
1376.79254	25568.775
1380.26186	23965.275
1383.72883	23257.075
1387.19347	22917.075
1390.65578	22564.375
1394.11575	22454.075
1397.57339	22723.475
1401.0287	23297.575
1404.48168	23906.675
1407.93234	24361.475
1411.38068	24465.175
1414.82669	24083.975
1418.27039	23234.075
1421.71177	22198.275
1425.15083	21237.475
1428.58758	20685.375
1432.02203	20596.675
1435.45416	20784.075
1438.88399	21013.875
1442.31151	21213.375
1445.73673	21574.375
1449.15965	21955.975
1452.58027	22203.475
1455.9986	22312.375
1459.41463	22447.675
1462.82837	22817.175
1466.23982	23299.475
1469.64898	23763.975
1473.05586	24026.475
1476.46045	23963.375
1479.86276	24014.075
1483.26279	24095.775
1486.66054	24252.975
1490.05602	24638.175
1493.44922	25130.675
1496.84016	25765.875
1500.22882	26939.175
1503.61521	28799.475
1506.99934	31212.375
1510.38121	33467.575
1513.76081	34253.775
1517.13816	32789.075
1520.51324	29753.875
1523.88607	26792.575
1527.25665	24806.675
1530.62498	23697.175
1533.99105	23169.675
1537.35488	22849.075
1540.71647	22652.875
1544.07581	22458.475
1547.4329	22270.475
1550.78776	22083.675
1554.14038	21900.575
1557.49077	21943.775
1560.83892	22128.875
1564.18484	22434.775
1567.52853	22794.075
1570.86999	22994.875
1574.20922	23239.775
1577.54624	23232.775
1580.88103	22709.675
1584.2136	22024.475
1587.54395	21984.875
1590.87208	22779.275
1594.19801	24318.775
1597.52172	26129.675
1600.84321	27000.375
1604.16251	26212.075
1607.47959	24256.175
1610.79447	21990.275
1614.10715	19832.175
1617.41763	18168.675
1620.7259	17070.675
1624.03199	16600.975
1627.33587	16508.275
1630.63757	16966.175
1633.93707	17869.575
1637.23439	19368.775
1640.52951	21455.575
1643.82246	24132.175
1647.11321	26853.775
1650.40179	28368.375
1653.68819	27320.075
1656.97241	23883.775
1660.25446	20105.575
1663.53433	17262.475
1666.81203	15472.375
1670.08756	14380.675
1673.36092	13718.875
1676.63211	13298.675
1679.90115	12954.475
1683.16801	12708.575
1686.43272	12555.075
1689.69527	12399.775
1692.95567	12292.775
1696.2139	12244.775
1699.46999	12200.475
1702.72392	12139.375
1705.97571	12110.975
1709.22535	12047.775
1712.47284	12018.475
1715.71819	11997.375
1718.96139	11987.975
1722.20246	11924.675
1725.44139	11860.875
1728.67818	11774.575
1731.91284	11749.675
1735.14537	11675.475
1738.37576	11617.075
1741.60403	11551.875
1744.83017	11532.775
1748.05418	11505.375
1751.27607	11507.875
1754.49584	11466.375
1757.71349	11474.675
1760.92903	11443.675
1764.14244	11398.175
1767.35375	11362.475
1770.56294	11335.275
1773.77002	11304.375
1776.97499	11256.875
1780.17785	11225.075
1783.37861	11210.675
1786.57727	11184.575
1789.77382	11124.875
1792.96828	11127.075
1796.16064	11131.475
1799.3509	11092.875
1802.53907	11068.075
1805.72514	11038.875
1808.90913	10985.575
1812.09102	10964.275
1815.27083	10913.775
1818.44856	10922.275
1821.6242	10871.275
1824.79776	10899.375
1827.96924	10858.975
1831.13864	10847.175
1834.30597	10848.575
1837.47122	10821.675
1840.6344	10801.875
1843.7955	10822.675
1846.95454	10805.275
1850.11151	10814.575
1853.26642	10791.375
1856.41926	10813.175
1859.57004	10810.075
1862.71876	10773.775
1865.86542	10813.775
1869.01003	10778.275
1872.15258	10790.975
1875.29308	10775.575
1878.43152	10784.175
1881.56792	10771.175
1884.70227	10751.175
1887.83457	10762.175
1890.96482	10754.075
1894.09304	10748.675
1897.21921	10759.175
1900.34335	10744.575
1903.46544	10744.375
1906.58551	10743.175
1909.70353	10704.875
1912.81953	10727.575
1915.93349	10710.075
1919.04543	10667.875
1922.15534	10660.575
1925.26322	10636.675
1928.36908	10587.975
1931.47292	10575.675
1934.57473	10524.675
1937.67453	10519.375
1940.77232	10455.575
1943.86808	10442.575
1946.96184	10403.975
1950.05358	10365.775
1953.14331	10326.175
1956.23103	10275.775
1959.31675	10256.275
1962.40046	10214.375
1965.48217	10215.975
1968.56188	10182.975
1971.63959	10112.175
1974.7153	10085.775
1977.78901	10069.575
1980.86073	10031.175
1983.93046	10002.375
1986.99819	9962.075
1990.06394	9926.975
1993.1277	9891.575
1996.18947	9857.275
1999.24925	9842.175
2002.30706	9820.775
2005.36288	9781.075
2008.41672	9736.475
2011.46859	9702.075
2014.51848	9682.075
2017.56639	9661.175
2020.61233	9629.075
2023.6563	9601.775
2026.6983	9577.975
2029.73833	9582.575
2032.7764	9552.075
2035.8125	9527.775
2038.84664	9507.575
2041.87881	9500.375
2044.90903	9459.975
2047.93729	9466.175
2050.96359	9465.175
2053.98794	9437.375
2057.01034	9427.875
2060.03078	9404.575
2063.04927	9385.275
2066.06582	9383.375
2069.08042	9381.775
2072.09307	9362.375
2075.10378	9349.975
2078.11255	9349.075
2081.11938	9322.075
2084.12426	9324.575
2087.12722	9308.275
2090.12824	9307.075
2093.12732	9312.675
2096.12447	9300.475
2099.11969	9290.675
2102.11299	9281.875
2105.10435	9314.875
2108.09379	9288.975
2111.08131	9287.575
2114.0669	9285.775
2117.05057	9287.275
2120.03233	9315.675
2123.01216	9313.175
2125.99008	9299.375
2128.96609	9311.275
2131.94018	9320.375
2134.91236	9325.575
2137.88263	9329.875
2140.851	9314.675
2143.81746	9329.875
2146.78201	9307.075
2149.74466	9313.075
2152.7054	9314.975
2155.66425	9309.875
2158.6212	9284.975
2161.57625	9287.775
2164.52941	9266.075
2167.48067	9269.875
2170.43004	9248.475
2173.37752	9265.075
2176.32311	9243.975
2179.26681	9232.375
2182.20863	9244.475
2185.14856	9262.075
2188.08661	9233.575
2191.02278	9238.175
2193.95707	9223.575
2196.88948	9219.275
2199.82001	9227.575
2202.74867	9194.975
2205.67545	9213.975
2208.60037	9199.575
2211.52341	9210.575
2214.44458	9200.575
2217.36388	9156.475
2220.28132	9156.575
2223.1969	9154.975
2226.11061	9139.275
2229.02246	9107.275
2231.93245	9073.675
2234.84058	9082.175
2237.74686	9055.675
2240.65128	9039.375
2243.55385	9020.575
2246.45456	9029.475
2249.35343	8976.875
2252.25044	8984.475
2255.14561	8977.775
2258.03893	8964.075
2260.93041	8956.275
2263.82004	8932.475
2266.70783	8902.275
2269.59378	8891.375
2272.4779	8857.475
2275.36017	8815.375
2278.24061	8817.375
2281.11922	8785.075
2283.996	8756.275
2286.87094	8770.775
2289.74405	8728.375
2292.61534	8721.275
2295.4848	8699.075
2298.35243	8697.575
2301.21824	8710.375
2304.08223	8719.775
2306.94439	8709.275
2309.80474	8691.975
2312.66327	8703.775
2315.51999	8685.875
2318.37489	8701.475
2321.22797	8684.075
2324.07925	8682.075
2326.92871	8656.475
2329.77637	8664.475
2332.62222	8654.575
2335.46626	8648.875
2338.3085	8633.875
2341.14893	8627.375
2343.98756	8637.775
2346.8244	8658.075
2349.65943	8654.975
2352.49267	8642.075
2355.32411	8643.175
2358.15376	8648.175
2360.98161	8657.575
2363.80768	8643.075
2366.63195	8640.175
2369.45444	8634.175
2372.27514	8603.475
2375.09405	8591.075
2377.91118	8547.075
2380.72652	8526.575
2383.54009	8516.975
2386.35187	8523.075
2389.16188	8439.675
2391.97011	8423.475
2394.77657	8420.675
2397.58125	8405.275
2400.38416	8394.775
2403.18529	8354.875
2405.98466	8341.675
2408.78226	8353.475
2411.57809	8316.875
2414.37216	8305.975
2417.16446	8300.175
2419.955	8277.875
2422.74378	8258.975
2425.5308	8243.375
2428.31606	8253.775
2431.09956	8231.875
2433.88131	8231.775
2436.6613	8214.775
2439.43954	8226.975
2442.21603	8205.875
2444.99077	8197.375
2447.76377	8223.075
2450.53501	8219.175
2453.30451	8208.675
2456.07226	8203.275
2458.83827	8211.375
2461.60254	8199.575
2464.36507	8201.475
2467.12586	8195.775
2469.88492	8199.575
2472.64224	8188.775
2475.39782	8198.975
2478.15167	8221.475
2480.90379	8223.775
2483.65417	8218.275
2486.40283	8240.475
2489.14976	8210.675
2491.89497	8241.975
2494.63845	8263.875
2497.3802	8257.375
2500.12024	8250.975
2502.85855	8228.575
2505.59514	8216.975
2508.33002	8197.875
2511.06318	8177.775
2513.79462	8145.375
2516.52435	8150.075
2519.25237	8119.675
2521.97867	8104.275
2524.70327	8098.875
2527.42616	8104.875
2530.14734	8068.475
2532.86681	8074.275
2535.58458	8076.575
2538.30065	8047.575
2541.01501	8052.075
2543.72768	8023.475
2546.43864	8016.075
2549.14791	8018.475
2551.85548	8011.975
2554.56136	8019.675
2557.26554	8008.075
2559.96803	8014.175
2562.66883	8002.075
2565.36794	7981.875
2568.06536	7992.375
2570.7611	7975.275
2573.45514	7952.575
2576.14751	7970.875
2578.83819	7943.275
2581.52719	7937.875
2584.21451	7939.075
2586.90015	7934.775
2589.58411	7917.775
2592.2664	7917.675
2594.94701	7916.975
2597.62594	7915.375
2600.30321	7889.275
2602.9788	7878.375
2605.65273	7879.275
2608.32498	7900.875
2610.99557	7886.275
2613.66449	7894.875
2616.33175	7890.375
2618.99734	7898.975
2621.66128	7874.675
2624.32355	7885.675
2626.98416	7858.075
2629.64311	7854.875
2632.30041	7863.775
2634.95605	7872.475
2637.61004	7865.275
2640.26238	7858.275
2642.91306	7837.375
2645.56209	7831.975
2648.20948	7835.275
2650.85521	7812.175
2653.4993	7823.475
2656.14175	7814.375
2658.78255	7836.675
2661.42171	7822.875
2664.05923	7821.775
2666.6951	7831.675
2669.32934	7847.375
2671.96194	7852.175
2674.59291	7865.275
2677.22224	7847.975
2679.84993	7833.975
2682.476	7833.975
2685.10043	7830.275
2687.72324	7795.975
2690.34441	7821.275
2692.96396	7809.475
2695.58188	7816.975
2698.19818	7794.075
2700.81285	7821.275
2703.4259	7817.975
2706.03733	7889.175
2708.64714	7837.275
2711.25533	7825.275
2713.86191	7817.975
2716.46687	7848.075
2719.07021	7832.375
2721.67194	7839.575
2724.27206	7837.075
2726.87057	7825.775
2729.46747	7826.175
2732.06276	7842.375
2734.65644	7835.075
2737.24852	7815.875
2739.83899	7791.975
2742.42786	7816.975
2745.01513	7796.775
2747.60079	7802.375
2750.18486	7798.475
2752.76733	7783.175
2755.3482	7773.175
2757.92747	7764.875
2760.50515	7763.575
2763.08123	7787.375
2765.65573	7779.675
2768.22863	7775.275
2770.79994	7767.675
2773.36967	7773.475
2775.9378	7771.275
2778.50435	7753.475
2781.06932	7762.075
2783.6327	7759.375
2786.1945	7739.375
2788.75471	7778.675
2791.31335	7733.475
2793.87041	7716.775
2796.42589	7702.875
2798.97979	7698.675
2801.53212	7677.775
2804.08288	7671.375
2806.63206	7669.975
2809.17967	7654.175
2811.72571	7659.875
2814.27018	7642.975
2816.81308	7645.175
2819.35442	7638.075
2821.89419	7635.675
2824.43239	7649.775
2826.96904	7666.375
2829.50412	7652.275
2832.03763	7634.475
2834.56959	7633.175
2837.1	7618.875
2839.62884	7604.875
2842.15613	7627.375
2844.68186	7629.675
2847.20604	7649.675
2849.72867	7667.375
2852.24974	7657.675
2854.76927	7669.675
2857.28724	7668.375
2859.80367	7631.175
2862.31855	7628.275
2864.83189	7613.675
2867.34368	7602.675
2869.85393	7624.575
2872.36264	7584.675
2874.8698	7593.275
2877.37543	7585.375
2879.87952	7609.975
2882.38207	7601.075
2884.88308	7590.375
2887.38256	7592.975
2889.88051	7594.075
2892.37692	7584.275
2894.8718	7581.475
2897.36515	7597.675
2899.85698	7590.175
2902.34727	7622.875
2904.83604	7609.475
2907.32328	7628.575
2909.809	7632.475
2912.29319	7628.975
2914.77587	7649.275
2917.25702	7635.775
2919.73665	7613.975
2922.21476	7616.275
2924.69136	7619.575
2927.16644	7609.775
2929.64	7594.675
2932.11205	7582.675
2934.58258	7557.675
2937.05161	7580.475
2939.51912	7557.675
2941.98513	7528.275
2944.44962	7507.775
2946.91261	7490.175
2949.37409	7499.875
2951.83407	7475.575
2954.29254	7461.375
2956.74951	7448.075
2959.20498	7438.375
2961.65895	7407.475
2964.11142	7369.775
2966.56239	7344.775
2969.01186	7359.275
2971.45984	7329.775
2973.90632	7309.275
2976.35131	7267.475
2978.7948	7251.475
2981.23681	7277.475
2983.67732	7227.675
2986.11635	7217.375
2988.55388	7185.675
2990.98993	7163.075
2993.4245	7177.275
2995.85758	7149.975
2998.28917	7133.175
3000.71928	7126.275
3003.14791	7095.275
3005.57506	7108.375
3008.00073	7101.175
3010.42493	7075.275
3012.84764	7062.375
3015.26888	7063.675
3017.68865	7041.375
3020.10694	6998.875
3022.52376	6997.175
3024.9391	6983.575
3027.35298	6984.775
3029.76539	6980.075
3032.17632	6955.275
3034.5858	6920.275
3036.9938	6907.875
3039.40034	6914.275
3041.80542	6911.875
3044.20903	6896.575
3046.61118	6868.075
3049.01187	6868.475
3051.4111	6843.975
3053.80888	6823.575
3056.20519	6816.775
3058.60005	6812.175
3060.99345	6778.575
3063.3854	6766.475
3065.7759	6743.175
3068.16494	6715.975
3070.55254	6691.675
3072.93868	6702.375
3075.32338	6675.475
3077.70662	6653.075
3080.08842	6634.175
3082.46878	6625.575
3084.84769	6605.675
3087.22515	6600.175
3089.60118	6607.375
3091.97576	6584.875
3094.3489	6583.275
3096.72061	6581.375
3099.09087	6592.575
3101.4597	6574.375
3103.82709	6567.975
3106.19305	6546.975
3108.55757	6538.975
3110.92066	6509.975
3113.28232	6498.075
3115.64255	6473.075
3118.00134	6491.375
3120.35871	6459.675
3122.71466	6473.475
3125.06917	6453.475
3127.42226	6440.075
3129.77393	6432.375
3132.12417	6430.375
3134.47299	6429.975
3136.82039	6438.675
3139.16636	6439.775
3141.51092	6414.675
3143.85406	6417.175
3146.19579	6439.275
3148.53609	6422.975
3150.87499	6427.975
3153.21246	6437.475
3155.54853	6427.875
3157.88318	6404.275
3160.21642	6418.275
3162.54826	6396.675
3164.87868	6411.575
3167.2077	6397.875
3169.5353	6392.875
3171.86151	6392.375
3174.18631	6379.975
3176.5097	6368.375
3178.83169	6353.775
