Data from AgNPs_FTO_APTES_UA_0um_CRN_0.1mM_R6G_10uM_NaF_0.1M_Addition_RamanShift__35__10-52-08-935.txt Node

Date: Tue Dec 21 10:52:08 GMT 2021
User: TCL
Spectrometer: QEP01345
Trigger mode: 4
Integration Time (sec): 7.000000E0
Scans to average: 10
Electric dark correction enabled: true
Nonlinearity correction enabled: false
Boxcar width: 0
XAxis mode: Raman Shifts
Number of Pixels in Spectrum: 1044
>>>>>Begin Spectral Data<<<<<
46.04893	-0.9875
50.45542	-0.3875
54.85868	-0.1875
59.25871	0.3125
63.6555	40.3125
68.04907	45.8125
72.43941	50.2125
76.82654	49.5125
81.21044	56.1125
85.59113	54.8125
89.96862	58.2125
94.34289	55.0125
98.71396	57.1125
103.08183	62.0125
107.4465	68.6125
111.80798	69.2125
116.16626	67.4125
120.52136	70.6125
124.87327	69.5125
129.222	69.1125
133.56755	77.2125
137.90993	86.3125
142.24913	89.8125
146.58517	100.8125
150.91804	118.0125
155.24774	136.6125
159.57429	168.1125
163.89768	216.0125
168.21792	286.2125
172.53501	384.1125
176.84895	533.4125
181.15975	742.4125
185.46741	1032.9125
189.77193	1411.7125
194.07331	1888.5125
198.37157	2409.7125
202.6667	2963.7125
206.9587	3557.8125
211.24758	4104.1125
215.53334	4674.1125
219.81599	5268.2125
224.09553	5941.0125
228.37195	6681.0125
232.64527	7501.4125
236.91549	8328.9125
241.18261	9125.6125
245.44663	9851.6125
249.70755	10439.3125
253.96539	10947.6125
258.22014	11356.3125
262.4718	11688.2125
266.72039	11898.6125
270.96589	11979.9125
275.20832	11921.4125
279.44768	11763.1125
283.68397	11584.2125
287.91719	11437.1125
292.14735	11375.9125
296.37445	11328.8125
300.59849	11443.9125
304.81948	11585.0125
309.03742	11756.5125
313.25231	11862.7125
317.46415	11869.4125
321.67296	11789.6125
325.87872	11729.1125
330.08145	11696.4125
334.28114	11644.6125
338.47781	11646.7125
342.67145	11776.1125
346.86207	11973.7125
351.04966	12182.9125
355.23424	12368.2125
359.4158	12494.1125
363.59435	12573.9125
367.76989	12608.5125
371.94243	12579.9125
376.11196	12596.9125
380.27849	12679.5125
384.44203	12782.0125
388.60257	12895.6125
392.76012	12979.0125
396.91468	13053.0125
401.06626	13178.0125
405.21485	13330.9125
409.36047	13362.2125
413.50311	13295.8125
417.64277	13347.5125
421.77947	13518.3125
425.9132	13622.8125
430.04396	13720.9125
434.17176	13903.4125
438.2966	14108.7125
442.41849	14644.9125
446.53742	15514.9125
450.6534	16368.0125
454.76644	16750.2125
458.87653	16453.3125
462.98368	15782.1125
467.08789	15114.5125
471.18916	14441.9125
475.2875	13800.6125
479.38291	13297.4125
483.4754	13065.7125
487.56496	12893.2125
491.6516	12805.5125
495.73531	12748.5125
499.81612	12767.6125
503.89401	12899.8125
507.96899	12921.8125
512.04106	12807.8125
516.11023	12564.6125
520.1765	12440.5125
524.23987	12479.7125
528.30034	12571.6125
532.35792	12597.9125
536.41261	12392.4125
540.46441	12015.9125
544.51333	11830.4125
548.55936	11928.8125
552.60252	12353.6125
556.64279	12983.4125
560.6802	13547.0125
564.71473	13563.5125
568.7464	13473.6125
572.7752	13696.7125
576.80114	14175.3125
580.82422	14903.2125
584.84444	16212.1125
588.86181	18384.2125
592.87633	20976.5125
596.888	21878.5125
600.89682	19816.1125
604.9028	17433.2125
608.90594	17190.8125
612.90624	18008.9125
616.90371	17000.2125
620.89834	14175.1125
624.89015	12757.2125
628.87913	12518.7125
632.86528	12475.9125
636.84862	12324.8125
640.82913	11967.5125
644.80683	11623.6125
648.78172	11487.3125
652.75379	11548.8125
656.72306	11727.6125
660.68952	11926.2125
664.65319	11782.6125
668.61405	11514.0125
672.57211	11468.6125
676.52738	11626.8125
680.47986	11636.2125
684.42955	11489.0125
688.37646	11352.0125
692.32058	11428.6125
696.26192	11679.5125
700.20048	12005.0125
704.13626	12163.4125
708.06928	12132.7125
711.99952	12049.2125
715.927	12087.4125
719.85171	12239.4125
723.77365	12214.5125
727.69284	11944.5125
731.60928	11732.8125
735.52295	11737.2125
739.43388	11796.8125
743.34206	11910.0125
747.24749	11991.4125
751.15017	12133.7125
755.05012	12351.4125
758.94733	12731.5125
762.8418	13411.7125
766.73354	14505.6125
770.62254	15573.9125
774.50882	15719.2125
778.39237	14976.5125
782.27321	13866.9125
786.15132	12892.2125
790.02671	12312.7125
793.89938	12002.5125
797.76935	11886.3125
801.6366	11826.2125
805.50115	11797.4125
809.36299	11749.9125
813.22213	11582.4125
817.07857	11473.4125
820.93231	11348.3125
824.78336	11258.5125
828.63172	11243.6125
832.47738	11252.6125
836.32036	11320.8125
840.16066	11390.5125
843.99827	11448.9125
847.8332	11422.1125
851.66546	11349.6125
855.49504	11355.9125
859.32195	11342.6125
863.1462	11258.5125
866.96777	11200.1125
870.78668	11159.4125
874.60293	11143.2125
878.41652	11184.2125
882.22745	11230.5125
886.03573	11282.5125
889.84136	11250.1125
893.64433	11217.1125
897.44466	11133.3125
901.24235	11083.4125
905.0374	11021.2125
908.8298	10977.6125
912.61957	10987.7125
916.40671	11066.1125
920.19121	11270.6125
923.97308	11523.8125
927.75233	11690.4125
931.52895	11627.1125
935.30295	11353.3125
939.07433	11036.3125
942.84309	10822.3125
946.60924	10715.7125
950.37278	10697.8125
954.13371	10666.6125
957.89203	10637.6125
961.64774	10627.1125
965.40086	10588.8125
969.15137	10606.5125
972.89929	10517.9125
976.64461	10491.6125
980.38733	10517.6125
984.12747	10562.9125
987.86502	10633.2125
991.59999	10797.6125
995.33237	11042.1125
999.06217	11459.2125
1002.78939	11970.4125
1006.51404	12333.7125
1010.23611	12615.2125
1013.95561	12850.2125
1017.67255	12991.0125
1021.38692	12832.7125
1025.09872	12376.2125
1028.80796	12155.9125
1032.51465	12371.0125
1036.21877	12667.8125
1039.92035	12803.2125
1043.61937	12676.1125
1047.31584	12373.7125
1051.00976	12071.0125
1054.70114	11841.9125
1058.38998	11706.2125
1062.07627	11687.2125
1065.76003	11678.5125
1069.44126	11802.9125
1073.11995	12017.0125
1076.79611	12236.3125
1080.46974	12420.3125
1084.14085	12597.2125
1087.80943	12808.1125
1091.47549	12951.3125
1095.13903	12909.3125
1098.80005	12636.7125
1102.45857	12218.0125
1106.11456	12016.3125
1109.76805	11977.1125
1113.41903	12093.5125
1117.06751	12180.5125
1120.71348	12367.0125
1124.35696	12505.6125
1127.99793	12655.3125
1131.63641	12782.6125
1135.2724	12723.4125
1138.90589	12665.8125
1142.5369	12744.4125
1146.16542	12891.2125
1149.79145	13072.0125
1153.415	13201.0125
1157.03607	13345.1125
1160.65467	13842.3125
1164.27079	14798.5125
1167.88443	15972.9125
1171.49561	17300.6125
1175.10432	19029.5125
1178.71056	21291.2125
1182.31434	23288.4125
1185.91565	23723.1125
1189.51451	22569.9125
1193.11091	21001.6125
1196.70485	19841.5125
1200.29634	18848.3125
1203.88538	18098.8125
1207.47197	17643.4125
1211.05612	17315.6125
1214.63782	16915.6125
1218.21708	16675.2125
1221.79391	16735.4125
1225.36829	17007.1125
1228.94024	17003.6125
1232.50976	16423.6125
1236.07685	15579.0125
1239.6415	14951.4125
1243.20374	14777.4125
1246.76355	14840.8125
1250.32093	15129.4125
1253.8759	15541.0125
1257.42845	16126.4125
1260.97859	16724.1125
1264.52631	17303.8125
1268.07163	17912.2125
1271.61453	18490.4125
1275.15503	19135.6125
1278.69312	19945.5125
1282.22882	20894.4125
1285.76211	22253.7125
1289.29301	23731.8125
1292.82151	25369.9125
1296.34761	27307.0125
1299.87133	29623.4125
1303.39266	32119.9125
1306.9116	34520.7125
1310.42815	36621.5125
1313.94233	38004.1125
1317.45412	37658.2125
1320.96354	35571.7125
1324.47058	33045.8125
1327.97525	30942.7125
1331.47754	29526.7125
1334.97747	28601.2125
1338.47502	27723.6125
1341.97022	26611.0125
1345.46305	25583.1125
1348.95352	25466.0125
1352.44163	26705.4125
1355.92738	29483.9125
1359.41078	32958.6125
1362.89183	35491.1125
1366.37053	35881.8125
1369.84688	32849.5125
1373.32088	27556.3125
1376.79254	23678.4125
1380.26186	22397.6125
1383.72883	22392.3125
1387.19347	22215.9125
1390.65578	21639.8125
1394.11575	21546.8125
1397.57339	22101.6125
1401.0287	22809.9125
1404.48168	23345.1125
1407.93234	23358.4125
1411.38068	22916.3125
1414.82669	22282.3125
1418.27039	21482.9125
1421.71177	20471.0125
1425.15083	19528.1125
1428.58758	19098.7125
1432.02203	19440.2125
1435.45416	20309.5125
1438.88399	21172.8125
1442.31151	21646.2125
1445.73673	21757.8125
1449.15965	21700.7125
1452.58027	21337.6125
1455.9986	20679.0125
1459.41463	20247.4125
1462.82837	20417.9125
1466.23982	21147.4125
1469.64898	21978.3125
1473.05586	22562.2125
1476.46045	22948.5125
1479.86276	23126.1125
1483.26279	22993.8125
1486.66054	22836.7125
1490.05602	22877.2125
1493.44922	22911.1125
1496.84016	22730.2125
1500.22882	22395.6125
1503.61521	22252.3125
1506.99934	22356.3125
1510.38121	22624.6125
1513.76081	22790.5125
1517.13816	22519.7125
1520.51324	21940.3125
1523.88607	21616.5125
1527.25665	21737.6125
1530.62498	22071.7125
1533.99105	22187.4125
1537.35488	21935.8125
1540.71647	21341.4125
1544.07581	20540.0125
1547.4329	19720.3125
1550.78776	18913.4125
1554.14038	18231.8125
1557.49077	17711.2125
1560.83892	17334.0125
1564.18484	17187.4125
1567.52853	17253.9125
1570.86999	17559.7125
1574.20922	17959.4125
1577.54624	18323.5125
1580.88103	18493.7125
1584.2136	18785.4125
1587.54395	19755.6125
1590.87208	21598.3125
1594.19801	24154.2125
1597.52172	26817.0125
1600.84321	28358.0125
1604.16251	27394.0125
1607.47959	24259.9125
1610.79447	20505.5125
1614.10715	17419.6125
1617.41763	15456.6125
1620.7259	14386.8125
1624.03199	14025.9125
1627.33587	14120.7125
1630.63757	14774.3125
1633.93707	16036.5125
1637.23439	18290.1125
1640.52951	22017.0125
1643.82246	27010.5125
1647.11321	31427.1125
1650.40179	32139.8125
1653.68819	28466.5125
1656.97241	22898.7125
1660.25446	18148.9125
1663.53433	15044.8125
1666.81203	13281.7125
1670.08756	12284.7125
1673.36092	11663.3125
1676.63211	11297.0125
1679.90115	10994.2125
1683.16801	10785.2125
1686.43272	10667.6125
1689.69527	10538.7125
1692.95567	10443.5125
1696.2139	10416.4125
1699.46999	10385.1125
1702.72392	10331.0125
1705.97571	10303.5125
1709.22535	10294.1125
1712.47284	10244.9125
1715.71819	10204.0125
1718.96139	10206.8125
1722.20246	10152.9125
1725.44139	10108.6125
1728.67818	10053.8125
1731.91284	9978.3125
1735.14537	9942.2125
1738.37576	9863.4125
1741.60403	9829.1125
1744.83017	9804.9125
1748.05418	9776.6125
1751.27607	9745.8125
1754.49584	9770.1125
1757.71349	9755.1125
1760.92903	9769.2125
1764.14244	9732.5125
1767.35375	9712.7125
1770.56294	9717.4125
1773.77002	9675.1125
1776.97499	9619.5125
1780.17785	9575.4125
1783.37861	9599.0125
1786.57727	9557.4125
1789.77382	9531.3125
1792.96828	9495.5125
1796.16064	9496.7125
1799.3509	9435.5125
1802.53907	9437.3125
1805.72514	9405.9125
1808.90913	9386.0125
1812.09102	9367.2125
1815.27083	9354.1125
1818.44856	9306.2125
1821.6242	9320.0125
1824.79776	9302.1125
1827.96924	9323.7125
1831.13864	9299.7125
1834.30597	9275.4125
1837.47122	9301.1125
1840.6344	9290.1125
1843.7955	9285.5125
1846.95454	9280.4125
1850.11151	9278.5125
1853.26642	9285.2125
1856.41926	9260.0125
1859.57004	9302.4125
1862.71876	9283.9125
1865.86542	9262.5125
1869.01003	9265.6125
1872.15258	9254.6125
1875.29308	9246.2125
1878.43152	9248.8125
1881.56792	9224.0125
1884.70227	9227.5125
1887.83457	9250.6125
1890.96482	9258.0125
1894.09304	9233.9125
1897.21921	9232.8125
1900.34335	9231.8125
1903.46544	9198.3125
1906.58551	9201.9125
1909.70353	9177.7125
1912.81953	9198.5125
1915.93349	9156.2125
1919.04543	9137.5125
1922.15534	9091.4125
1925.26322	9086.8125
1928.36908	9081.8125
1931.47292	9056.1125
1934.57473	9017.3125
1937.67453	9009.8125
1940.77232	8993.3125
1943.86808	8965.6125
1946.96184	8934.1125
1950.05358	8929.2125
1953.14331	8911.2125
1956.23103	8882.6125
1959.31675	8869.9125
1962.40046	8817.7125
1965.48217	8806.7125
1968.56188	8755.7125
1971.63959	8751.4125
1974.7153	8726.6125
1977.78901	8702.1125
1980.86073	8672.9125
1983.93046	8633.0125
1986.99819	8637.5125
1990.06394	8607.0125
1993.1277	8585.9125
1996.18947	8563.9125
1999.24925	8518.4125
2002.30706	8494.0125
2005.36288	8493.2125
2008.41672	8460.9125
2011.46859	8443.4125
2014.51848	8426.0125
2017.56639	8426.0125
2020.61233	8401.1125
2023.6563	8375.2125
2026.6983	8385.7125
2029.73833	8371.3125
2032.7764	8334.9125
2035.8125	8315.7125
2038.84664	8317.8125
2041.87881	8312.7125
2044.90903	8290.3125
2047.93729	8277.2125
2050.96359	8306.0125
2053.98794	8277.1125
2057.01034	8276.2125
2060.03078	8277.9125
2063.04927	8243.5125
2066.06582	8245.4125
2069.08042	8250.8125
2072.09307	8227.8125
2075.10378	8215.5125
2078.11255	8218.4125
2081.11938	8242.1125
2084.12426	8243.3125
2087.12722	8220.0125
2090.12824	8210.4125
2093.12732	8243.4125
2096.12447	8243.8125
2099.11969	8232.7125
2102.11299	8223.5125
2105.10435	8255.0125
2108.09379	8248.0125
2111.08131	8246.9125
2114.0669	8237.6125
2117.05057	8250.6125
2120.03233	8250.8125
2123.01216	8259.4125
2125.99008	8250.6125
2128.96609	8261.4125
2131.94018	8267.4125
2134.91236	8267.0125
2137.88263	8286.3125
2140.851	8272.1125
2143.81746	8282.3125
2146.78201	8278.7125
2149.74466	8290.5125
2152.7054	8294.0125
2155.66425	8282.9125
2158.6212	8281.3125
2161.57625	8292.1125
2164.52941	8277.0125
2167.48067	8283.8125
2170.43004	8260.0125
2173.37752	8298.0125
2176.32311	8278.8125
2179.26681	8293.0125
2182.20863	8273.2125
2185.14856	8298.2125
2188.08661	8286.5125
2191.02278	8294.3125
2193.95707	8303.8125
2196.88948	8296.1125
2199.82001	8327.9125
2202.74867	8288.6125
2205.67545	8303.9125
2208.60037	8267.7125
2211.52341	8253.6125
2214.44458	8271.4125
2217.36388	8234.8125
2220.28132	8231.1125
2223.1969	8209.3125
2226.11061	8219.3125
2229.02246	8221.5125
2231.93245	8221.8125
2234.84058	8214.6125
2237.74686	8206.9125
2240.65128	8184.4125
2243.55385	8213.8125
2246.45456	8165.0125
2249.35343	8156.3125
2252.25044	8146.5125
2255.14561	8117.1125
2258.03893	8110.0125
2260.93041	8103.3125
2263.82004	8050.2125
2266.70783	8047.1125
2269.59378	8032.0125
2272.4779	7996.6125
2275.36017	7983.4125
2278.24061	7983.1125
2281.11922	7964.2125
2283.996	7949.0125
2286.87094	7959.4125
2289.74405	7939.5125
2292.61534	7932.3125
2295.4848	7955.4125
2298.35243	7960.8125
2301.21824	7941.8125
2304.08223	7956.1125
2306.94439	7958.8125
2309.80474	7960.6125
2312.66327	7983.8125
2315.51999	7970.8125
2318.37489	7970.5125
2321.22797	7938.0125
2324.07925	7948.0125
2326.92871	7926.6125
2329.77637	7944.9125
2332.62222	7916.6125
2335.46626	7908.2125
2338.3085	7912.7125
2341.14893	7941.0125
2343.98756	7933.2125
2346.8244	7931.2125
2349.65943	7927.0125
2352.49267	7912.8125
2355.32411	7909.2125
2358.15376	7907.6125
2360.98161	7907.7125
2363.80768	7917.2125
2366.63195	7889.3125
2369.45444	7904.3125
2372.27514	7859.8125
2375.09405	7852.8125
2377.91118	7856.0125
2380.72652	7842.5125
2383.54009	7817.5125
2386.35187	7812.4125
2389.16188	7778.3125
2391.97011	7794.8125
2394.77657	7770.1125
2397.58125	7750.4125
2400.38416	7773.0125
2403.18529	7758.9125
2405.98466	7752.3125
2408.78226	7758.0125
2411.57809	7713.7125
2414.37216	7704.3125
2417.16446	7702.3125
2419.955	7688.6125
2422.74378	7701.6125
2425.5308	7680.2125
2428.31606	7666.1125
2431.09956	7671.8125
2433.88131	7677.9125
2436.6613	7685.5125
2439.43954	7648.7125
2442.21603	7656.8125
2444.99077	7668.7125
2447.76377	7662.1125
2450.53501	7674.0125
2453.30451	7691.1125
2456.07226	7676.9125
2458.83827	7678.6125
2461.60254	7677.4125
2464.36507	7685.8125
2467.12586	7670.9125
2469.88492	7692.5125
2472.64224	7714.5125
2475.39782	7702.2125
2478.15167	7732.9125
2480.90379	7709.3125
2483.65417	7701.8125
2486.40283	7705.9125
2489.14976	7700.5125
2491.89497	7708.4125
2494.63845	7731.3125
2497.3802	7725.2125
2500.12024	7748.6125
2502.85855	7710.7125
2505.59514	7722.8125
2508.33002	7710.8125
2511.06318	7702.0125
2513.79462	7678.0125
2516.52435	7668.6125
2519.25237	7696.1125
2521.97867	7669.8125
2524.70327	7672.7125
2527.42616	7649.9125
2530.14734	7656.5125
2532.86681	7649.4125
2535.58458	7630.9125
2538.30065	7649.5125
2541.01501	7639.5125
2543.72768	7646.2125
2546.43864	7628.8125
2549.14791	7633.9125
2551.85548	7624.4125
2554.56136	7625.7125
2557.26554	7616.2125
2559.96803	7612.4125
2562.66883	7621.9125
2565.36794	7627.2125
2568.06536	7642.4125
2570.7611	7633.4125
2573.45514	7626.4125
2576.14751	7636.8125
2578.83819	7636.8125
2581.52719	7645.6125
2584.21451	7622.4125
2586.90015	7646.5125
2589.58411	7620.4125
2592.2664	7613.6125
2594.94701	7610.7125
2597.62594	7619.2125
2600.30321	7599.0125
2602.9788	7600.2125
2605.65273	7594.8125
2608.32498	7587.7125
2610.99557	7607.2125
2613.66449	7600.2125
2616.33175	7588.9125
2618.99734	7587.9125
2621.66128	7582.8125
2624.32355	7584.4125
2626.98416	7597.9125
2629.64311	7588.9125
2632.30041	7591.5125
2634.95605	7574.6125
2637.61004	7563.9125
2640.26238	7579.9125
2642.91306	7558.8125
2645.56209	7553.9125
2648.20948	7537.7125
2650.85521	7536.1125
2653.4993	7562.3125
2656.14175	7543.8125
2658.78255	7564.1125
2661.42171	7573.8125
2664.05923	7601.7125
2666.6951	7592.6125
2669.32934	7617.2125
2671.96194	7623.5125
2674.59291	7614.8125
2677.22224	7592.5125
2679.84993	7591.5125
2682.476	7589.4125
2685.10043	7568.1125
2687.72324	7559.5125
2690.34441	7573.3125
2692.96396	7586.9125
2695.58188	7606.3125
2698.19818	7563.1125
2700.81285	7588.6125
2703.4259	7616.1125
2706.03733	7664.9125
2708.64714	7634.5125
2711.25533	7642.0125
2713.86191	7639.2125
2716.46687	7645.8125
2719.07021	7659.7125
2721.67194	7667.8125
2724.27206	7639.5125
2726.87057	7672.7125
2729.46747	7684.7125
2732.06276	7675.7125
2734.65644	7666.8125
2737.24852	7679.5125
2739.83899	7670.4125
2742.42786	7693.2125
2745.01513	7671.7125
2747.60079	7645.0125
2750.18486	7650.1125
2752.76733	7650.0125
2755.3482	7665.8125
2757.92747	7677.8125
2760.50515	7671.3125
2763.08123	7658.2125
2765.65573	7648.1125
2768.22863	7695.8125
2770.79994	7670.4125
2773.36967	7694.4125
2775.9378	7660.7125
2778.50435	7669.8125
2781.06932	7667.9125
2783.6327	7666.8125
2786.1945	7670.8125
2788.75471	7673.7125
2791.31335	7651.6125
2793.87041	7639.7125
2796.42589	7629.6125
2798.97979	7626.3125
2801.53212	7618.0125
2804.08288	7633.8125
2806.63206	7628.9125
2809.17967	7608.0125
2811.72571	7576.7125
2814.27018	7590.8125
2816.81308	7595.3125
2819.35442	7584.1125
2821.89419	7580.3125
2824.43239	7579.5125
2826.96904	7591.6125
2829.50412	7586.7125
2832.03763	7551.7125
2834.56959	7584.2125
2837.1	7572.6125
2839.62884	7590.9125
2842.15613	7629.6125
2844.68186	7646.4125
2847.20604	7642.6125
2849.72867	7658.3125
2852.24974	7675.2125
2854.76927	7673.4125
2857.28724	7685.1125
2859.80367	7650.2125
2862.31855	7640.0125
2864.83189	7646.3125
2867.34368	7630.5125
2869.85393	7616.4125
2872.36264	7637.1125
2874.8698	7621.0125
2877.37543	7624.4125
2879.87952	7636.8125
2882.38207	7617.7125
2884.88308	7635.5125
2887.38256	7669.0125
2889.88051	7639.1125
2892.37692	7674.2125
2894.8718	7664.8125
2897.36515	7711.0125
2899.85698	7683.6125
2902.34727	7723.6125
2904.83604	7707.4125
2907.32328	7732.4125
2909.809	7741.9125
2912.29319	7755.1125
2914.77587	7737.1125
2917.25702	7755.9125
2919.73665	7752.7125
2922.21476	7756.1125
2924.69136	7752.1125
2927.16644	7741.6125
2929.64	7726.9125
2932.11205	7727.9125
2934.58258	7698.8125
2937.05161	7711.1125
2939.51912	7712.7125
2941.98513	7708.8125
2944.44962	7673.2125
2946.91261	7646.9125
2949.37409	7665.6125
2951.83407	7644.4125
2954.29254	7639.3125
2956.74951	7632.4125
2959.20498	7609.5125
2961.65895	7597.6125
2964.11142	7578.4125
2966.56239	7544.2125
2969.01186	7552.8125
2971.45984	7508.7125
2973.90632	7490.5125
2976.35131	7470.5125
2978.7948	7458.2125
2981.23681	7417.9125
2983.67732	7410.4125
2986.11635	7401.1125
2988.55388	7390.7125
2990.98993	7350.3125
2993.4245	7361.4125
2995.85758	7342.4125
2998.28917	7315.4125
3000.71928	7323.0125
3003.14791	7327.9125
3005.57506	7323.2125
3008.00073	7297.2125
3010.42493	7284.0125
3012.84764	7296.6125
3015.26888	7282.3125
3017.68865	7280.9125
3020.10694	7253.8125
3022.52376	7244.0125
3024.9391	7231.9125
3027.35298	7221.8125
3029.76539	7221.4125
3032.17632	7181.5125
3034.5858	7204.1125
3036.9938	7200.4125
3039.40034	7194.4125
3041.80542	7168.3125
3044.20903	7175.4125
3046.61118	7157.9125
3049.01187	7153.5125
3051.4111	7160.1125
3053.80888	7162.4125
3056.20519	7152.2125
3058.60005	7116.9125
3060.99345	7132.4125
3063.3854	7127.6125
3065.7759	7117.5125
3068.16494	7091.3125
3070.55254	7042.3125
3072.93868	7058.8125
3075.32338	7046.7125
3077.70662	7011.5125
3080.08842	7012.6125
