Data from AgNPs_FTO_APTES_UA_50um_CRN_0.1mM_R6G_10uM_NaF_0.1M_Addition_RamanShift__33__15-41-29-266.txt Node

Date: Tue Dec 21 15:41:29 GMT 2021
User: TCL
Spectrometer: QEP01345
Trigger mode: 4
Integration Time (sec): 7.000000E0
Scans to average: 10
Electric dark correction enabled: true
Nonlinearity correction enabled: false
Boxcar width: 0
XAxis mode: Raman Shifts
Number of Pixels in Spectrum: 1044
>>>>>Begin Spectral Data<<<<<
46.04893	0.1375
50.45542	-0.9625
54.85868	-0.7625
59.25871	1.2375
63.6555	36.3375
68.04907	40.0375
72.43941	37.6375
76.82654	40.4375
81.21044	48.9375
85.59113	49.4375
89.96862	50.3375
94.34289	50.2375
98.71396	49.0375
103.08183	52.6375
107.4465	55.5375
111.80798	61.6375
116.16626	56.7375
120.52136	56.5375
124.87327	60.5375
129.222	56.0375
133.56755	65.9375
137.90993	69.8375
142.24913	69.5375
146.58517	76.1375
150.91804	87.2375
155.24774	99.0375
159.57429	121.0375
163.89768	156.5375
168.21792	195.6375
172.53501	264.9375
176.84895	358.6375
181.15975	505.1375
185.46741	703.4375
189.77193	965.4375
194.07331	1297.5375
198.37157	1658.3375
202.6667	2070.1375
206.9587	2454.5375
211.24758	2857.6375
215.53334	3266.9375
219.81599	3707.8375
224.09553	4196.2375
228.37195	4743.9375
232.64527	5338.6375
236.91549	5963.4375
241.18261	6532.0375
245.44663	7036.7375
249.70755	7481.6375
253.96539	7850.8375
258.22014	8177.9375
262.4718	8474.1375
266.72039	8682.3375
270.96589	8765.3375
275.20832	8727.0375
279.44768	8580.1375
283.68397	8401.7375
287.91719	8254.0375
292.14735	8221.7375
296.37445	8324.6375
300.59849	8539.0375
304.81948	8786.9375
309.03742	8988.4375
313.25231	8908.0375
317.46415	8580.9375
321.67296	8060.4375
325.87872	7642.3375
330.08145	7436.1375
334.28114	7398.3375
338.47781	7496.5375
342.67145	7664.6375
346.86207	7894.2375
351.04966	8251.9375
355.23424	8692.1375
359.4158	9010.6375
363.59435	9213.4375
367.76989	9307.5375
371.94243	9343.7375
376.11196	9366.2375
380.27849	9351.7375
384.44203	9322.8375
388.60257	9229.2375
392.76012	9198.1375
396.91468	9240.5375
401.06626	9405.1375
405.21485	9531.0375
409.36047	9393.0375
413.50311	9001.4375
417.64277	8617.5375
421.77947	8362.8375
425.9132	8243.5375
430.04396	8220.1375
434.17176	8242.4375
438.2966	8342.7375
442.41849	8488.9375
446.53742	8710.4375
450.6534	8921.9375
454.76644	9067.3375
458.87653	9072.9375
462.98368	9008.7375
467.08789	8912.4375
471.18916	8795.3375
475.2875	8645.3375
479.38291	8547.7375
483.4754	8451.8375
487.56496	8371.8375
491.6516	8309.5375
495.73531	8249.5375
499.81612	8198.0375
503.89401	8248.7375
507.96899	8323.6375
512.04106	8385.5375
516.11023	8497.4375
520.1765	8550.9375
524.23987	8552.9375
528.30034	8451.2375
532.35792	8305.9375
536.41261	8186.2375
540.46441	8009.4375
544.51333	7921.1375
548.55936	7918.5375
552.60252	8048.6375
556.64279	8216.2375
560.6802	8341.4375
564.71473	8445.9375
568.7464	8717.4375
572.7752	8925.6375
576.80114	8739.7375
580.82422	8522.3375
584.84444	8414.2375
588.86181	8480.8375
592.87633	8611.3375
596.888	8737.2375
600.89682	8902.7375
604.9028	9607.2375
608.90594	11554.8375
612.90624	14364.5375
616.90371	14127.5375
620.89834	10498.1375
624.89015	8638.9375
628.87913	8350.8375
632.86528	8476.4375
636.84862	8660.8375
640.82913	8596.2375
644.80683	8241.1375
648.78172	7890.5375
652.75379	7778.8375
656.72306	7930.8375
660.68952	8214.7375
664.65319	8128.4375
668.61405	7793.2375
672.57211	7584.2375
676.52738	7604.8375
680.47986	7598.5375
684.42955	7550.3375
688.37646	7482.1375
692.32058	7502.3375
696.26192	7504.5375
700.20048	7582.7375
704.13626	7633.8375
708.06928	7627.5375
711.99952	7547.6375
715.927	7539.6375
719.85171	7576.0375
723.77365	7601.2375
727.69284	7559.2375
731.60928	7513.3375
735.52295	7460.4375
739.43388	7452.6375
743.34206	7486.7375
747.24749	7477.1375
751.15017	7511.8375
755.05012	7612.4375
758.94733	7850.5375
762.8418	8499.8375
766.73354	9664.8375
770.62254	11001.6375
774.50882	11777.7375
778.39237	11405.6375
782.27321	10057.5375
786.15132	8694.3375
790.02671	7919.4375
793.89938	7539.3375
797.76935	7405.3375
801.6366	7353.1375
805.50115	7345.7375
809.36299	7379.6375
813.22213	7390.4375
817.07857	7347.3375
820.93231	7286.1375
824.78336	7244.8375
828.63172	7222.3375
832.47738	7212.0375
836.32036	7168.8375
840.16066	7128.3375
843.99827	7091.0375
847.8332	7054.2375
851.66546	7040.6375
855.49504	7011.1375
859.32195	7010.3375
863.1462	6984.8375
866.96777	6989.4375
870.78668	6991.4375
874.60293	7013.9375
878.41652	7050.5375
882.22745	7091.0375
886.03573	7153.6375
889.84136	7158.3375
893.64433	7122.8375
897.44466	7061.1375
901.24235	6994.3375
905.0374	6930.3375
908.8298	6869.7375
912.61957	6803.2375
916.40671	6822.5375
920.19121	6849.2375
923.97308	6898.3375
927.75233	6942.7375
931.52895	7002.0375
935.30295	6948.8375
939.07433	6780.4375
942.84309	6632.8375
946.60924	6549.9375
950.37278	6488.9375
954.13371	6454.4375
957.89203	6443.9375
961.64774	6410.4375
965.40086	6381.3375
969.15137	6348.9375
972.89929	6333.4375
976.64461	6312.2375
980.38733	6304.1375
984.12747	6308.9375
987.86502	6332.8375
991.59999	6342.5375
995.33237	6422.0375
999.06217	6521.6375
1002.78939	6657.3375
1006.51404	6763.7375
1010.23611	6902.9375
1013.95561	6964.7375
1017.67255	6973.2375
1021.38692	6908.7375
1025.09872	6808.5375
1028.80796	6712.2375
1032.51465	6691.8375
1036.21877	6723.1375
1039.92035	6761.4375
1043.61937	6755.8375
1047.31584	6745.8375
1051.00976	6694.6375
1054.70114	6678.6375
1058.38998	6656.5375
1062.07627	6701.9375
1065.76003	6725.2375
1069.44126	6748.8375
1073.11995	6825.7375
1076.79611	6891.5375
1080.46974	6992.4375
1084.14085	7116.9375
1087.80943	7264.2375
1091.47549	7346.7375
1095.13903	7285.7375
1098.80005	7101.3375
1102.45857	6915.8375
1106.11456	6824.4375
1109.76805	6852.2375
1113.41903	7008.4375
1117.06751	7203.7375
1120.71348	7490.4375
1124.35696	7815.1375
1127.99793	8145.9375
1131.63641	8243.5375
1135.2724	7993.1375
1138.90589	7681.6375
1142.5369	7429.0375
1146.16542	7235.0375
1149.79145	7103.7375
1153.415	7034.8375
1157.03607	7022.3375
1160.65467	7113.9375
1164.27079	7298.6375
1167.88443	7639.8375
1171.49561	8165.1375
1175.10432	9020.3375
1178.71056	10196.1375
1182.31434	11244.0375
1185.91565	11603.3375
1189.51451	11261.3375
1193.11091	10542.5375
1196.70485	9801.7375
1200.29634	9326.3375
1203.88538	8964.7375
1207.47197	8577.4375
1211.05612	8153.3375
1214.63782	7873.6375
1218.21708	7730.9375
1221.79391	7648.3375
1225.36829	7641.4375
1228.94024	7570.7375
1232.50976	7476.2375
1236.07685	7402.8375
1239.6415	7390.6375
1243.20374	7426.1375
1246.76355	7465.9375
1250.32093	7562.1375
1253.8759	7688.6375
1257.42845	7844.4375
1260.97859	8058.1375
1264.52631	8258.8375
1268.07163	8494.3375
1271.61453	8702.9375
1275.15503	8830.2375
1278.69312	8914.2375
1282.22882	9002.2375
1285.76211	9185.8375
1289.29301	9515.0375
1292.82151	9885.4375
1296.34761	10355.7375
1299.87133	10960.4375
1303.39266	11840.4375
1306.9116	13067.8375
1310.42815	14393.8375
1313.94233	15101.3375
1317.45412	14767.8375
1320.96354	13818.5375
1324.47058	12825.9375
1327.97525	11909.2375
1331.47754	11311.4375
1334.97747	10998.1375
1338.47502	10934.6375
1341.97022	11020.2375
1345.46305	11267.3375
1348.95352	11766.4375
1352.44163	12606.8375
1355.92738	13871.6375
1359.41078	15787.8375
1362.89183	17816.9375
1366.37053	17798.6375
1369.84688	15355.2375
1373.32088	12581.8375
1376.79254	10866.2375
1380.26186	9975.4375
1383.72883	9598.5375
1387.19347	9310.7375
1390.65578	9020.0375
1394.11575	8790.0375
1397.57339	8764.1375
1401.0287	8798.5375
1404.48168	8891.0375
1407.93234	8894.1375
1411.38068	8804.9375
1414.82669	8636.6375
1418.27039	8416.7375
1421.71177	8184.9375
1425.15083	7967.1375
1428.58758	7822.5375
1432.02203	7820.0375
1435.45416	7944.0375
1438.88399	8057.6375
1442.31151	8092.9375
1445.73673	8176.2375
1449.15965	8289.1375
1452.58027	8284.8375
1455.9986	8274.1375
1459.41463	8250.7375
1462.82837	8315.0375
1466.23982	8452.2375
1469.64898	8607.7375
1473.05586	8711.9375
1476.46045	8776.9375
1479.86276	8859.0375
1483.26279	8948.6375
1486.66054	9084.2375
1490.05602	9276.6375
1493.44922	9630.8375
1496.84016	10147.3375
1500.22882	11041.3375
1503.61521	12387.9375
1506.99934	13997.4375
1510.38121	15425.3375
1513.76081	15933.8375
1517.13816	15042.4375
1520.51324	13217.8375
1523.88607	11451.7375
1527.25665	10257.3375
1530.62498	9607.7375
1533.99105	9306.8375
1537.35488	9077.2375
1540.71647	8932.7375
1544.07581	8824.4375
1547.4329	8719.0375
1550.78776	8643.9375
1554.14038	8615.8375
1557.49077	8647.1375
1560.83892	8732.8375
1564.18484	8962.4375
1567.52853	9239.9375
1570.86999	9561.3375
1574.20922	9758.4375
1577.54624	9792.2375
1580.88103	9431.9375
1584.2136	8870.4375
1587.54395	8562.4375
1590.87208	8650.1375
1594.19801	9057.4375
1597.52172	9625.4375
1600.84321	9918.5375
1604.16251	9625.9375
1607.47959	8991.3375
1610.79447	8295.3375
1614.10715	7661.9375
1617.41763	7141.5375
1620.7259	6828.4375
1624.03199	6676.4375
1627.33587	6646.9375
1630.63757	6797.4375
1633.93707	7091.4375
1637.23439	7624.3375
1640.52951	8433.4375
1643.82246	9607.7375
1647.11321	11025.9375
1650.40179	12046.7375
1653.68819	11875.3375
1656.97241	10394.1375
1660.25446	8678.0375
1663.53433	7405.0375
1666.81203	6657.2375
1670.08756	6196.2375
1673.36092	5913.3375
1676.63211	5742.6375
1679.90115	5614.2375
1683.16801	5523.9375
1686.43272	5436.5375
1689.69527	5385.6375
1692.95567	5340.7375
1696.2139	5329.1375
1699.46999	5287.7375
1702.72392	5243.1375
1705.97571	5177.0375
1709.22535	5141.3375
1712.47284	5105.2375
1715.71819	5085.2375
1718.96139	5050.4375
1722.20246	5014.4375
1725.44139	5004.7375
1728.67818	4958.6375
1731.91284	4917.9375
1735.14537	4868.7375
1738.37576	4850.3375
1741.60403	4844.8375
1744.83017	4826.7375
1748.05418	4806.7375
1751.27607	4797.1375
1754.49584	4797.6375
1757.71349	4786.1375
1760.92903	4792.3375
1764.14244	4759.1375
1767.35375	4753.2375
1770.56294	4722.8375
1773.77002	4701.6375
1776.97499	4680.3375
1780.17785	4650.6375
1783.37861	4645.6375
1786.57727	4634.4375
1789.77382	4600.1375
1792.96828	4587.2375
1796.16064	4578.3375
1799.3509	4560.5375
1802.53907	4563.3375
1805.72514	4524.9375
1808.90913	4526.8375
1812.09102	4497.0375
1815.27083	4491.8375
1818.44856	4471.6375
1821.6242	4445.7375
1824.79776	4441.9375
1827.96924	4433.5375
1831.13864	4425.4375
1834.30597	4412.8375
1837.47122	4410.1375
1840.6344	4397.2375
1843.7955	4390.0375
1846.95454	4383.7375
1850.11151	4375.4375
1853.26642	4361.6375
1856.41926	4364.1375
1859.57004	4369.0375
1862.71876	4352.7375
1865.86542	4365.7375
1869.01003	4341.8375
1872.15258	4335.2375
1875.29308	4325.3375
1878.43152	4323.7375
1881.56792	4327.1375
1884.70227	4323.2375
1887.83457	4294.1375
1890.96482	4300.2375
1894.09304	4303.2375
1897.21921	4294.0375
1900.34335	4287.8375
1903.46544	4283.6375
1906.58551	4263.8375
1909.70353	4269.7375
1912.81953	4237.9375
1915.93349	4253.3375
1919.04543	4254.4375
1922.15534	4219.1375
1925.26322	4217.9375
1928.36908	4209.4375
1931.47292	4204.7375
1934.57473	4180.7375
1937.67453	4156.0375
1940.77232	4151.0375
1943.86808	4134.3375
1946.96184	4114.6375
1950.05358	4109.2375
1953.14331	4090.2375
1956.23103	4074.1375
1959.31675	4057.7375
1962.40046	4054.5375
1965.48217	4041.5375
1968.56188	4017.6375
1971.63959	4016.6375
1974.7153	4008.0375
1977.78901	3995.3375
1980.86073	3975.7375
1983.93046	3959.8375
1986.99819	3937.8375
1990.06394	3928.1375
1993.1277	3906.9375
1996.18947	3891.0375
1999.24925	3899.4375
2002.30706	3879.9375
2005.36288	3858.4375
2008.41672	3852.2375
2011.46859	3834.1375
2014.51848	3808.4375
2017.56639	3800.2375
2020.61233	3778.0375
2023.6563	3763.9375
2026.6983	3747.5375
2029.73833	3747.3375
2032.7764	3732.7375
2035.8125	3729.0375
2038.84664	3710.0375
2041.87881	3719.0375
2044.90903	3707.0375
2047.93729	3709.8375
2050.96359	3692.7375
2053.98794	3686.7375
2057.01034	3677.4375
2060.03078	3677.9375
2063.04927	3663.4375
2066.06582	3646.7375
2069.08042	3643.0375
2072.09307	3647.9375
2075.10378	3638.2375
2078.11255	3625.5375
2081.11938	3639.6375
2084.12426	3631.8375
2087.12722	3628.5375
2090.12824	3625.2375
2093.12732	3628.7375
2096.12447	3621.0375
2099.11969	3623.3375
2102.11299	3609.8375
2105.10435	3621.1375
2108.09379	3629.1375
2111.08131	3615.6375
2114.0669	3629.5375
2117.05057	3619.7375
2120.03233	3613.4375
2123.01216	3622.2375
2125.99008	3603.8375
2128.96609	3618.8375
2131.94018	3608.8375
2134.91236	3612.8375
2137.88263	3615.0375
2140.851	3619.1375
2143.81746	3609.7375
2146.78201	3607.9375
2149.74466	3600.3375
2152.7054	3606.4375
2155.66425	3581.4375
2158.6212	3595.0375
2161.57625	3580.3375
2164.52941	3579.4375
2167.48067	3590.9375
2170.43004	3576.9375
2173.37752	3577.5375
2176.32311	3561.4375
2179.26681	3562.0375
2182.20863	3557.2375
2185.14856	3564.5375
2188.08661	3564.9375
2191.02278	3543.2375
2193.95707	3537.3375
2196.88948	3538.7375
2199.82001	3536.1375
2202.74867	3520.9375
2205.67545	3523.4375
2208.60037	3526.1375
2211.52341	3511.8375
2214.44458	3510.1375
2217.36388	3498.4375
2220.28132	3474.2375
2223.1969	3471.1375
2226.11061	3472.4375
2229.02246	3450.0375
2231.93245	3450.4375
2234.84058	3449.5375
2237.74686	3427.9375
2240.65128	3420.8375
2243.55385	3416.1375
2246.45456	3427.7375
2249.35343	3406.7375
2252.25044	3402.0375
2255.14561	3403.0375
2258.03893	3410.5375
2260.93041	3400.4375
2263.82004	3394.4375
2266.70783	3384.5375
2269.59378	3372.1375
2272.4779	3365.4375
2275.36017	3353.7375
2278.24061	3357.3375
2281.11922	3338.8375
2283.996	3321.8375
2286.87094	3331.4375
2289.74405	3301.4375
2292.61534	3289.1375
2295.4848	3293.7375
2298.35243	3283.9375
2301.21824	3275.3375
2304.08223	3261.0375
2306.94439	3265.8375
2309.80474	3270.4375
2312.66327	3279.3375
2315.51999	3254.6375
2318.37489	3263.9375
2321.22797	3254.3375
2324.07925	3246.7375
2326.92871	3237.4375
2329.77637	3246.5375
2332.62222	3233.1375
2335.46626	3238.0375
2338.3085	3214.4375
2341.14893	3210.3375
2343.98756	3204.8375
2346.8244	3230.3375
2349.65943	3197.5375
2352.49267	3212.1375
2355.32411	3210.7375
2358.15376	3219.9375
2360.98161	3229.3375
2363.80768	3228.3375
2366.63195	3210.8375
2369.45444	3224.5375
2372.27514	3204.3375
2375.09405	3199.2375
2377.91118	3199.5375
2380.72652	3177.3375
2383.54009	3163.7375
2386.35187	3172.4375
2389.16188	3135.6375
2391.97011	3131.2375
2394.77657	3115.9375
2397.58125	3110.1375
2400.38416	3100.3375
2403.18529	3089.1375
2405.98466	3091.6375
2408.78226	3083.9375
2411.57809	3078.0375
2414.37216	3066.2375
2417.16446	3066.4375
2419.955	3053.1375
2422.74378	3047.3375
2425.5308	3051.3375
2428.31606	3046.0375
2431.09956	3053.4375
2433.88131	3040.3375
2436.6613	3041.5375
2439.43954	3031.3375
2442.21603	3031.6375
2444.99077	3029.5375
2447.76377	3034.8375
2450.53501	3024.4375
2453.30451	3041.3375
2456.07226	3028.7375
2458.83827	3020.9375
2461.60254	3031.1375
2464.36507	3011.0375
2467.12586	3012.3375
2469.88492	3000.0375
2472.64224	3007.8375
2475.39782	3008.0375
2478.15167	3023.8375
2480.90379	3004.5375
2483.65417	3014.5375
2486.40283	3012.8375
2489.14976	3020.0375
2491.89497	3006.1375
2494.63845	3031.5375
2497.3802	3022.8375
2500.12024	3019.2375
2502.85855	3007.7375
2505.59514	2994.4375
2508.33002	2992.0375
2511.06318	2979.3375
2513.79462	2962.3375
2516.52435	2957.3375
2519.25237	2944.7375
2521.97867	2930.8375
2524.70327	2929.3375
2527.42616	2916.5375
2530.14734	2909.9375
2532.86681	2894.1375
2535.58458	2902.2375
2538.30065	2891.2375
2541.01501	2897.6375
2543.72768	2887.0375
2546.43864	2890.6375
2549.14791	2886.3375
2551.85548	2889.9375
2554.56136	2880.1375
2557.26554	2861.6375
2559.96803	2867.9375
2562.66883	2878.0375
2565.36794	2863.7375
2568.06536	2857.3375
2570.7611	2842.9375
2573.45514	2846.9375
2576.14751	2837.6375
2578.83819	2825.1375
2581.52719	2834.9375
2584.21451	2821.0375
2586.90015	2806.9375
2589.58411	2814.1375
2592.2664	2799.5375
2594.94701	2797.6375
2597.62594	2785.4375
2600.30321	2782.3375
2602.9788	2785.7375
2605.65273	2775.8375
2608.32498	2785.5375
2610.99557	2779.9375
2613.66449	2780.0375
2616.33175	2764.4375
2618.99734	2775.5375
2621.66128	2768.3375
2624.32355	2766.3375
2626.98416	2760.2375
2629.64311	2757.3375
2632.30041	2746.6375
2634.95605	2751.1375
2637.61004	2731.9375
2640.26238	2726.6375
2642.91306	2729.6375
2645.56209	2720.6375
2648.20948	2733.9375
2650.85521	2721.5375
2653.4993	2705.1375
2656.14175	2726.1375
2658.78255	2714.2375
2661.42171	2711.7375
2664.05923	2728.3375
2666.6951	2718.6375
2669.32934	2722.3375
2671.96194	2718.8375
2674.59291	2726.7375
2677.22224	2721.4375
2679.84993	2721.4375
2682.476	2713.5375
2685.10043	2713.6375
2687.72324	2723.7375
2690.34441	2710.0375
2692.96396	2716.8375
2695.58188	2710.4375
2698.19818	2718.0375
2700.81285	2704.9375
2703.4259	2739.1375
2706.03733	2780.2375
2708.64714	2747.7375
2711.25533	2724.7375
2713.86191	2712.1375
2716.46687	2713.9375
2719.07021	2715.5375
2721.67194	2705.8375
2724.27206	2700.2375
2726.87057	2697.7375
2729.46747	2709.5375
2732.06276	2709.3375
2734.65644	2700.5375
2737.24852	2690.5375
2739.83899	2691.1375
2742.42786	2688.4375
2745.01513	2676.8375
2747.60079	2674.1375
2750.18486	2678.7375
2752.76733	2666.7375
2755.3482	2660.6375
2757.92747	2651.6375
2760.50515	2662.9375
2763.08123	2667.4375
2765.65573	2641.5375
2768.22863	2646.8375
2770.79994	2632.8375
2773.36967	2660.9375
2775.9378	2643.2375
2778.50435	2634.6375
2781.06932	2633.3375
2783.6327	2642.4375
2786.1945	2637.9375
2788.75471	2634.6375
2791.31335	2631.0375
2793.87041	2621.5375
2796.42589	2605.7375
2798.97979	2619.0375
2801.53212	2608.4375
2804.08288	2605.6375
2806.63206	2599.1375
2809.17967	2591.4375
2811.72571	2593.8375
2814.27018	2600.6375
2816.81308	2605.1375
2819.35442	2593.4375
2821.89419	2590.9375
2824.43239	2586.5375
2826.96904	2596.9375
2829.50412	2595.1375
2832.03763	2586.5375
2834.56959	2593.3375
2837.1	2592.7375
2839.62884	2588.7375
2842.15613	2613.7375
2844.68186	2609.0375
2847.20604	2616.1375
2849.72867	2631.7375
2852.24974	2637.2375
2854.76927	2647.5375
2857.28724	2654.7375
2859.80367	2635.1375
2862.31855	2615.8375
2864.83189	2615.0375
2867.34368	2614.3375
2869.85393	2620.6375
2872.36264	2603.2375
2874.8698	2613.6375
2877.37543	2611.5375
2879.87952	2604.7375
2882.38207	2598.3375
2884.88308	2606.4375
2887.38256	2599.1375
2889.88051	2594.5375
2892.37692	2601.2375
2894.8718	2594.4375
2897.36515	2599.2375
2899.85698	2594.4375
2902.34727	2587.8375
2904.83604	2606.4375
2907.32328	2598.6375
2909.809	2601.4375
2912.29319	2609.6375
2914.77587	2611.8375
2917.25702	2599.4375
2919.73665	2600.7375
2922.21476	2601.9375
2924.69136	2607.4375
2927.16644	2596.7375
2929.64	2603.0375
2932.11205	2583.9375
2934.58258	2584.7375
2937.05161	2571.1375
2939.51912	2577.5375
2941.98513	2558.7375
2944.44962	2550.2375
2946.91261	2538.9375
2949.37409	2542.7375
2951.83407	2529.7375
2954.29254	2520.1375
2956.74951	2527.1375
2959.20498	2510.0375
2961.65895	2501.0375
2964.11142	2511.1375
2966.56239	2486.2375
2969.01186	2483.2375
2971.45984	2480.9375
2973.90632	2477.0375
2976.35131	2467.6375
2978.7948	2453.0375
2981.23681	2452.5375
2983.67732	2444.8375
2986.11635	2443.8375
2988.55388	2431.3375
2990.98993	2424.5375
2993.4245	2421.4375
2995.85758	2416.0375
2998.28917	2411.4375
3000.71928	2416.4375
3003.14791	2407.2375
3005.57506	2409.4375
3008.00073	2399.6375
3010.42493	2398.9375
3012.84764	2399.5375
3015.26888	2407.9375
3017.68865	2395.4375
3020.10694	2396.3375
3022.52376	2393.8375
3024.9391	2382.6375
3027.35298	2386.1375
3029.76539	2370.4375
3032.17632	2374.4375
3034.5858	2363.2375
3036.9938	2361.4375
3039.40034	2358.1375
3041.80542	2363.8375
3044.20903	2357.2375
3046.61118	2362.5375
3049.01187	2352.2375
3051.4111	2340.3375
3053.80888	2331.3375
3056.20519	2345.8375
3058.60005	2326.9375
3060.99345	2342.3375
3063.3854	2325.9375
3065.7759	2325.0375
3068.16494	2321.4375
3070.55254	2319.8375
3072.93868	2323.6375
3075.32338	2318.6375
3077.70662	2321.9375
3080.08842	2327.4375
3082.46878	2303.0375
3084.84769	2294.8375
3087.22515	2305.4375
3089.60118	2313.4375
3091.97576	2307.8375
3094.3489	2310.4375
3096.72061	2296.5375
3099.09087	2306.8375
3101.4597	2302.4375
3103.82709	2308.2375
3106.19305	2305.6375
3108.55757	2308.4375
3110.92066	2294.5375
3113.28232	2303.4375
3115.64255	2287.2375
3118.00134	2299.3375
