Data from AgNPs_FTO_APTES_UA_20um_CRN_0.1mM_R6G_10uM_NaF_0.1M_Addition_RamanShift__20__14-39-39-195.txt Node

Date: Tue Dec 21 14:39:39 GMT 2021
User: TCL
Spectrometer: QEP01345
Trigger mode: 4
Integration Time (sec): 7.000000E0
Scans to average: 10
Electric dark correction enabled: true
Nonlinearity correction enabled: false
Boxcar width: 0
XAxis mode: Raman Shifts
Number of Pixels in Spectrum: 1044
>>>>>Begin Spectral Data<<<<<
46.04893	-0.1875
50.45542	-1.0875
54.85868	-1.3875
59.25871	0.0125
63.6555	47.1125
68.04907	54.7125
72.43941	56.6125
76.82654	57.0125
81.21044	65.8125
85.59113	62.7125
89.96862	62.8125
94.34289	69.6125
98.71396	70.3125
103.08183	73.3125
107.4465	75.9125
111.80798	78.0125
116.16626	80.3125
120.52136	81.1125
124.87327	81.3125
129.222	83.6125
133.56755	89.5125
137.90993	95.5125
142.24913	106.0125
146.58517	117.5125
150.91804	136.9125
155.24774	157.8125
159.57429	194.0125
163.89768	247.4125
168.21792	324.1125
172.53501	433.1125
176.84895	601.6125
181.15975	846.9125
185.46741	1182.8125
189.77193	1627.3125
194.07331	2181.5125
198.37157	2827.7125
202.6667	3513.0125
206.9587	4185.8125
211.24758	4850.8125
215.53334	5533.1125
219.81599	6235.5125
224.09553	7014.6125
228.37195	7864.9125
232.64527	8838.8125
236.91549	9835.6125
241.18261	10826.2125
245.44663	11776.0125
249.70755	12580.8125
253.96539	13315.4125
258.22014	13892.1125
262.4718	14371.6125
266.72039	14709.1125
270.96589	14901.8125
275.20832	14956.0125
279.44768	14845.1125
283.68397	14711.8125
287.91719	14633.0125
292.14735	14550.4125
296.37445	14580.8125
300.59849	14613.7125
304.81948	14671.6125
309.03742	14629.0125
313.25231	14417.8125
317.46415	14042.4125
321.67296	13589.0125
325.87872	13221.3125
330.08145	13054.1125
334.28114	13034.8125
338.47781	13132.8125
342.67145	13298.3125
346.86207	13528.5125
351.04966	13840.9125
355.23424	14120.6125
359.4158	14416.4125
363.59435	14628.1125
367.76989	14761.5125
371.94243	14872.1125
376.11196	14923.2125
380.27849	15017.5125
384.44203	15151.3125
388.60257	15234.4125
392.76012	15377.3125
396.91468	15518.6125
401.06626	15753.2125
405.21485	15936.2125
409.36047	15888.1125
413.50311	15632.7125
417.64277	15334.5125
421.77947	15261.0125
425.9132	15272.0125
430.04396	15353.5125
434.17176	15490.0125
438.2966	15604.9125
442.41849	15894.1125
446.53742	16331.2125
450.6534	16825.6125
454.76644	17204.6125
458.87653	17351.6125
462.98368	17250.1125
467.08789	17085.9125
471.18916	16873.6125
475.2875	16777.5125
479.38291	16764.5125
483.4754	16675.8125
487.56496	16489.9125
491.6516	16197.5125
495.73531	15925.3125
499.81612	15819.7125
503.89401	15827.1125
507.96899	15816.6125
512.04106	15779.0125
516.11023	15667.6125
520.1765	15557.8125
524.23987	15510.2125
528.30034	15446.5125
532.35792	15389.3125
536.41261	15317.3125
540.46441	15150.9125
544.51333	15040.8125
548.55936	15097.5125
552.60252	15310.7125
556.64279	15647.6125
560.6802	15871.9125
564.71473	15986.7125
568.7464	16201.6125
572.7752	16528.4125
576.80114	16691.1125
580.82422	16764.6125
584.84444	16881.1125
588.86181	17094.4125
592.87633	17358.9125
596.888	17622.2125
600.89682	17661.6125
604.9028	18119.7125
608.90594	19662.7125
612.90624	21426.2125
616.90371	20315.2125
620.89834	16975.4125
624.89015	15396.2125
628.87913	15222.8125
632.86528	15391.1125
636.84862	15505.9125
640.82913	15358.4125
644.80683	14948.0125
648.78172	14587.8125
652.75379	14470.0125
656.72306	14559.5125
660.68952	14805.6125
664.65319	14816.9125
668.61405	14692.0125
672.57211	14714.6125
676.52738	14831.8125
680.47986	14859.3125
684.42955	14752.6125
688.37646	14567.4125
692.32058	14501.4125
696.26192	14509.5125
700.20048	14627.1125
704.13626	14704.8125
708.06928	14656.6125
711.99952	14568.6125
715.927	14469.8125
719.85171	14474.5125
723.77365	14469.3125
727.69284	14428.4125
731.60928	14362.0125
735.52295	14367.6125
739.43388	14376.2125
743.34206	14416.2125
747.24749	14435.7125
751.15017	14500.3125
755.05012	14620.5125
758.94733	15008.1125
762.8418	15756.2125
766.73354	16976.8125
770.62254	18294.0125
774.50882	18846.9125
778.39237	18160.8125
782.27321	16714.8125
786.15132	15376.5125
790.02671	14606.0125
793.89938	14188.5125
797.76935	14015.0125
801.6366	13968.1125
805.50115	13933.0125
809.36299	13908.4125
813.22213	13811.9125
817.07857	13767.6125
820.93231	13692.2125
824.78336	13625.0125
828.63172	13595.8125
832.47738	13546.8125
836.32036	13536.0125
840.16066	13545.3125
843.99827	13534.0125
847.8332	13503.2125
851.66546	13448.5125
855.49504	13434.1125
859.32195	13441.1125
863.1462	13496.6125
866.96777	13498.6125
870.78668	13478.0125
874.60293	13472.6125
878.41652	13471.5125
882.22745	13484.4125
886.03573	13528.3125
889.84136	13488.8125
893.64433	13437.8125
897.44466	13370.8125
901.24235	13267.1125
905.0374	13165.4125
908.8298	13082.5125
912.61957	13050.4125
916.40671	13146.9125
920.19121	13312.5125
923.97308	13431.9125
927.75233	13437.5125
931.52895	13393.9125
935.30295	13289.1125
939.07433	13061.6125
942.84309	12873.4125
946.60924	12770.1125
950.37278	12704.0125
954.13371	12666.5125
957.89203	12625.5125
961.64774	12569.6125
965.40086	12515.2125
969.15137	12469.2125
972.89929	12375.6125
976.64461	12309.2125
980.38733	12309.9125
984.12747	12301.0125
987.86502	12388.5125
991.59999	12490.0125
995.33237	12668.5125
999.06217	12952.5125
1002.78939	13310.8125
1006.51404	13579.5125
1010.23611	13788.1125
1013.95561	13920.5125
1017.67255	13946.0125
1021.38692	13815.4125
1025.09872	13562.7125
1028.80796	13486.3125
1032.51465	13624.1125
1036.21877	13818.1125
1039.92035	13903.7125
1043.61937	13839.6125
1047.31584	13730.9125
1051.00976	13531.1125
1054.70114	13444.4125
1058.38998	13449.8125
1062.07627	13491.8125
1065.76003	13578.0125
1069.44126	13665.8125
1073.11995	13789.2125
1076.79611	13848.8125
1080.46974	13920.9125
1084.14085	13961.9125
1087.80943	14114.1125
1091.47549	14238.6125
1095.13903	14253.9125
1098.80005	14091.2125
1102.45857	13855.2125
1106.11456	13677.0125
1109.76805	13601.5125
1113.41903	13660.1125
1117.06751	13822.2125
1120.71348	14004.4125
1124.35696	14242.1125
1127.99793	14519.3125
1131.63641	14680.4125
1135.2724	14633.8125
1138.90589	14471.8125
1142.5369	14327.9125
1146.16542	14208.2125
1149.79145	14141.3125
1153.415	14197.5125
1157.03607	14320.5125
1160.65467	14619.2125
1164.27079	15163.3125
1167.88443	15838.2125
1171.49561	16781.6125
1175.10432	18019.6125
1178.71056	19581.6125
1182.31434	21048.3125
1185.91565	21789.2125
1189.51451	21755.7125
1193.11091	21193.1125
1196.70485	20317.3125
1200.29634	19418.3125
1203.88538	18649.6125
1207.47197	18102.7125
1211.05612	17562.0125
1214.63782	17149.7125
1218.21708	16907.1125
1221.79391	16767.2125
1225.36829	16663.7125
1228.94024	16457.0125
1232.50976	16199.5125
1236.07685	15986.0125
1239.6415	15870.4125
1243.20374	15856.2125
1246.76355	15909.1125
1250.32093	16135.1125
1253.8759	16473.6125
1257.42845	16909.1125
1260.97859	17366.1125
1264.52631	17725.1125
1268.07163	18125.0125
1271.61453	18601.8125
1275.15503	19090.5125
1278.69312	19617.6125
1282.22882	20115.8125
1285.76211	20575.3125
1289.29301	21145.6125
1292.82151	21997.8125
1296.34761	23036.9125
1299.87133	24233.6125
1303.39266	25619.2125
1306.9116	27108.7125
1310.42815	28586.2125
1313.94233	29560.0125
1317.45412	29738.8125
1320.96354	29281.8125
1324.47058	28649.4125
1327.97525	27976.9125
1331.47754	27466.2125
1334.97747	27266.7125
1338.47502	27245.6125
1341.97022	27308.2125
1345.46305	27141.6125
1348.95352	26943.9125
1352.44163	26973.2125
1355.92738	27499.2125
1359.41078	28521.4125
1362.89183	29470.6125
1366.37053	29049.6125
1369.84688	26713.8125
1373.32088	23834.6125
1376.79254	21796.1125
1380.26186	20851.8125
1383.72883	20623.5125
1387.19347	20582.2125
1390.65578	20424.5125
1394.11575	20472.1125
1397.57339	20765.9125
1401.0287	21281.4125
1404.48168	21758.6125
1407.93234	22003.0125
1411.38068	21869.2125
1414.82669	21345.4125
1418.27039	20505.6125
1421.71177	19472.1125
1425.15083	18613.9125
1428.58758	18105.2125
1432.02203	18056.4125
1435.45416	18268.5125
1438.88399	18680.4125
1442.31151	19028.3125
1445.73673	19393.5125
1449.15965	19809.1125
1452.58027	20126.1125
1455.9986	20310.4125
1459.41463	20530.5125
1462.82837	20865.5125
1466.23982	21241.4125
1469.64898	21571.0125
1473.05586	21738.2125
1476.46045	21750.5125
1479.86276	21593.5125
1483.26279	21396.5125
1486.66054	21237.5125
1490.05602	21220.9125
1493.44922	21290.4125
1496.84016	21394.3125
1500.22882	21644.2125
1503.61521	22224.7125
1506.99934	23023.7125
1510.38121	23817.0125
1513.76081	24138.0125
1517.13816	23601.9125
1520.51324	22472.8125
1523.88607	21403.4125
1527.25665	20771.0125
1530.62498	20463.3125
1533.99105	20337.0125
1537.35488	20258.7125
1540.71647	20097.7125
1544.07581	19783.7125
1547.4329	19442.1125
1550.78776	19133.6125
1554.14038	18943.7125
1557.49077	18890.9125
1560.83892	18926.2125
1564.18484	18997.2125
1567.52853	19055.3125
1570.86999	19156.1125
1574.20922	19318.6125
1577.54624	19468.9125
1580.88103	19398.1125
1584.2136	19293.1125
1587.54395	19579.0125
1590.87208	20295.8125
1594.19801	21412.3125
1597.52172	22720.7125
1600.84321	23378.8125
1604.16251	22765.2125
1607.47959	21227.1125
1610.79447	19436.5125
1614.10715	17718.0125
1617.41763	16337.2125
1620.7259	15415.6125
1624.03199	14849.0125
1627.33587	14777.9125
1630.63757	15028.9125
1633.93707	15809.2125
1637.23439	17088.0125
1640.52951	18970.9125
1643.82246	21239.1125
1647.11321	23273.5125
1650.40179	23981.5125
1653.68819	22881.7125
1656.97241	20361.9125
1660.25446	17592.4125
1663.53433	15415.1125
1666.81203	14007.0125
1670.08756	13063.0125
1673.36092	12474.8125
1676.63211	12105.1125
1679.90115	11828.3125
1683.16801	11607.7125
1686.43272	11416.9125
1689.69527	11337.7125
1692.95567	11246.3125
1696.2139	11180.8125
1699.46999	11121.1125
1702.72392	11068.7125
1705.97571	11023.2125
1709.22535	10966.2125
1712.47284	10937.7125
1715.71819	10881.6125
1718.96139	10867.0125
1722.20246	10832.6125
1725.44139	10766.9125
1728.67818	10700.2125
1731.91284	10676.1125
1735.14537	10620.4125
1738.37576	10575.1125
1741.60403	10555.4125
1744.83017	10520.3125
1748.05418	10499.5125
1751.27607	10494.2125
1754.49584	10485.0125
1757.71349	10492.1125
1760.92903	10483.0125
1764.14244	10436.3125
1767.35375	10394.1125
1770.56294	10335.5125
1773.77002	10295.5125
1776.97499	10278.7125
1780.17785	10236.8125
1783.37861	10198.2125
1786.57727	10178.4125
1789.77382	10167.7125
1792.96828	10124.9125
1796.16064	10126.2125
1799.3509	10056.3125
1802.53907	10043.6125
1805.72514	10025.3125
1808.90913	9998.5125
1812.09102	9973.5125
1815.27083	9938.8125
1818.44856	9940.6125
1821.6242	9923.2125
1824.79776	9900.9125
1827.96924	9888.8125
1831.13864	9889.1125
1834.30597	9891.3125
1837.47122	9867.1125
1840.6344	9866.7125
1843.7955	9833.0125
1846.95454	9863.1125
1850.11151	9826.0125
1853.26642	9812.1125
1856.41926	9828.8125
1859.57004	9836.2125
1862.71876	9818.5125
1865.86542	9822.2125
1869.01003	9807.7125
1872.15258	9813.5125
1875.29308	9766.5125
1878.43152	9779.8125
1881.56792	9755.6125
1884.70227	9759.7125
1887.83457	9771.3125
1890.96482	9769.3125
1894.09304	9750.5125
1897.21921	9744.8125
1900.34335	9729.6125
1903.46544	9711.6125
1906.58551	9706.9125
1909.70353	9674.1125
1912.81953	9638.0125
1915.93349	9631.5125
1919.04543	9606.2125
1922.15534	9584.9125
1925.26322	9555.9125
1928.36908	9530.3125
1931.47292	9518.8125
1934.57473	9474.3125
1937.67453	9460.3125
1940.77232	9416.9125
1943.86808	9393.3125
1946.96184	9359.7125
1950.05358	9355.1125
1953.14331	9320.6125
1956.23103	9283.3125
1959.31675	9261.3125
1962.40046	9241.7125
1965.48217	9217.5125
1968.56188	9179.8125
1971.63959	9151.5125
1974.7153	9127.1125
1977.78901	9099.3125
1980.86073	9062.7125
1983.93046	9047.8125
1986.99819	9010.4125
1990.06394	8970.4125
1993.1277	8941.3125
1996.18947	8933.0125
1999.24925	8887.8125
2002.30706	8859.3125
2005.36288	8843.1125
2008.41672	8801.4125
2011.46859	8768.1125
2014.51848	8769.3125
2017.56639	8738.7125
2020.61233	8717.0125
2023.6563	8695.1125
2026.6983	8674.9125
2029.73833	8663.0125
2032.7764	8618.3125
2035.8125	8612.7125
2038.84664	8603.7125
2041.87881	8580.5125
2044.90903	8576.4125
2047.93729	8563.8125
2050.96359	8547.4125
2053.98794	8534.5125
2057.01034	8541.6125
2060.03078	8527.9125
2063.04927	8514.6125
2066.06582	8484.6125
2069.08042	8482.6125
2072.09307	8482.7125
2075.10378	8469.7125
2078.11255	8430.6125
2081.11938	8452.3125
2084.12426	8440.1125
2087.12722	8449.8125
2090.12824	8418.7125
2093.12732	8435.6125
2096.12447	8422.7125
2099.11969	8411.1125
2102.11299	8409.6125
2105.10435	8392.9125
2108.09379	8419.5125
2111.08131	8431.4125
2114.0669	8424.8125
2117.05057	8432.0125
2120.03233	8421.4125
2123.01216	8424.5125
2125.99008	8427.0125
2128.96609	8440.2125
2131.94018	8426.0125
2134.91236	8443.4125
2137.88263	8431.4125
2140.851	8436.9125
2143.81746	8440.1125
2146.78201	8440.9125
2149.74466	8440.7125
2152.7054	8432.1125
2155.66425	8416.8125
2158.6212	8397.4125
2161.57625	8399.8125
2164.52941	8440.0125
2167.48067	8419.9125
2170.43004	8410.0125
2173.37752	8405.0125
2176.32311	8393.2125
2179.26681	8382.0125
2182.20863	8376.4125
2185.14856	8385.2125
2188.08661	8389.3125
2191.02278	8392.8125
2193.95707	8366.8125
2196.88948	8373.0125
2199.82001	8366.9125
2202.74867	8354.9125
2205.67545	8355.6125
2208.60037	8354.1125
2211.52341	8328.6125
2214.44458	8319.8125
2217.36388	8318.0125
2220.28132	8278.4125
2223.1969	8269.8125
2226.11061	8269.9125
2229.02246	8241.7125
2231.93245	8241.9125
2234.84058	8222.5125
2237.74686	8203.0125
2240.65128	8171.8125
2243.55385	8158.7125
2246.45456	8165.6125
2249.35343	8126.6125
2252.25044	8126.3125
2255.14561	8104.9125
2258.03893	8073.7125
2260.93041	8094.4125
2263.82004	8060.6125
2266.70783	8031.0125
2269.59378	8008.0125
2272.4779	7970.6125
2275.36017	7981.6125
2278.24061	7963.5125
2281.11922	7956.5125
2283.996	7927.9125
2286.87094	7932.5125
2289.74405	7893.9125
2292.61534	7897.4125
2295.4848	7886.5125
2298.35243	7856.3125
2301.21824	7855.8125
2304.08223	7878.2125
2306.94439	7866.9125
2309.80474	7858.6125
2312.66327	7850.0125
2315.51999	7851.7125
2318.37489	7853.6125
2321.22797	7839.4125
2324.07925	7829.8125
2326.92871	7837.8125
2329.77637	7805.6125
2332.62222	7805.4125
2335.46626	7795.8125
2338.3085	7791.8125
2341.14893	7799.3125
2343.98756	7799.1125
2346.8244	7823.0125
2349.65943	7768.2125
2352.49267	7779.6125
2355.32411	7759.3125
2358.15376	7784.6125
2360.98161	7753.5125
2363.80768	7761.5125
2366.63195	7779.7125
2369.45444	7728.4125
2372.27514	7720.1125
2375.09405	7707.4125
2377.91118	7695.2125
2380.72652	7676.1125
2383.54009	7646.3125
2386.35187	7630.0125
2389.16188	7604.3125
2391.97011	7599.7125
2394.77657	7593.6125
2397.58125	7596.0125
2400.38416	7549.4125
2403.18529	7525.6125
2405.98466	7539.0125
2408.78226	7509.8125
2411.57809	7506.2125
2414.37216	7489.7125
2417.16446	7485.7125
2419.955	7469.4125
2422.74378	7461.5125
2425.5308	7474.5125
2428.31606	7464.3125
2431.09956	7441.4125
2433.88131	7443.2125
2436.6613	7452.0125
2439.43954	7434.7125
2442.21603	7414.2125
2444.99077	7401.2125
2447.76377	7405.6125
2450.53501	7419.1125
2453.30451	7411.9125
2456.07226	7413.3125
2458.83827	7407.5125
2461.60254	7404.3125
2464.36507	7389.7125
2467.12586	7383.1125
2469.88492	7385.4125
2472.64224	7366.0125
2475.39782	7383.6125
2478.15167	7398.4125
2480.90379	7370.7125
2483.65417	7378.5125
2486.40283	7376.8125
2489.14976	7381.9125
2491.89497	7378.6125
2494.63845	7383.2125
2497.3802	7390.7125
2500.12024	7376.5125
2502.85855	7391.4125
2505.59514	7357.2125
2508.33002	7351.5125
2511.06318	7346.9125
2513.79462	7341.6125
2516.52435	7340.4125
2519.25237	7296.9125
2521.97867	7312.9125
2524.70327	7293.5125
2527.42616	7294.4125
2530.14734	7277.5125
2532.86681	7282.6125
2535.58458	7253.4125
2538.30065	7233.1125
2541.01501	7252.8125
2543.72768	7249.9125
2546.43864	7238.8125
2549.14791	7231.2125
2551.85548	7204.6125
2554.56136	7210.5125
2557.26554	7188.6125
2559.96803	7187.0125
2562.66883	7175.0125
2565.36794	7176.3125
2568.06536	7182.4125
2570.7611	7158.0125
2573.45514	7149.3125
2576.14751	7150.0125
2578.83819	7136.7125
2581.52719	7148.0125
2584.21451	7135.7125
2586.90015	7120.5125
2589.58411	7118.7125
2592.2664	7121.2125
2594.94701	7098.7125
2597.62594	7103.2125
2600.30321	7097.6125
2602.9788	7068.4125
2605.65273	7066.1125
2608.32498	7090.0125
2610.99557	7073.3125
2613.66449	7083.6125
2616.33175	7059.5125
2618.99734	7076.5125
2621.66128	7079.0125
2624.32355	7069.6125
2626.98416	7069.7125
2629.64311	7071.9125
2632.30041	7050.1125
2634.95605	7069.2125
2637.61004	7054.5125
2640.26238	7033.9125
2642.91306	7044.2125
2645.56209	7027.6125
2648.20948	7008.8125
2650.85521	7012.1125
2653.4993	7015.2125
2656.14175	7021.1125
2658.78255	7032.6125
2661.42171	7022.6125
2664.05923	7016.4125
2666.6951	7038.0125
2669.32934	7016.4125
2671.96194	7038.4125
2674.59291	7027.9125
2677.22224	7029.7125
2679.84993	7025.4125
2682.476	7018.4125
2685.10043	7005.8125
2687.72324	6996.2125
2690.34441	7006.0125
2692.96396	7012.1125
2695.58188	7003.9125
2698.19818	7011.4125
2700.81285	7008.4125
2703.4259	7009.4125
2706.03733	7052.3125
2708.64714	7011.5125
2711.25533	7012.9125
2713.86191	7018.1125
2716.46687	7028.7125
2719.07021	7018.2125
2721.67194	7024.8125
2724.27206	7020.4125
2726.87057	7022.8125
2729.46747	7009.6125
2732.06276	7011.7125
2734.65644	7011.7125
2737.24852	7017.3125
2739.83899	6990.7125
2742.42786	7012.1125
2745.01513	6984.4125
2747.60079	6979.5125
2750.18486	6997.0125
2752.76733	6985.5125
2755.3482	6973.4125
2757.92747	6975.5125
2760.50515	6990.5125
2763.08123	6982.5125
2765.65573	6967.0125
2768.22863	6969.1125
2770.79994	6961.0125
2773.36967	6964.4125
2775.9378	6963.8125
2778.50435	6955.0125
2781.06932	6956.5125
2783.6327	6957.1125
2786.1945	6945.8125
2788.75471	6952.9125
2791.31335	6935.1125
2793.87041	6936.6125
2796.42589	6891.6125
2798.97979	6899.4125
2801.53212	6858.3125
2804.08288	6879.8125
2806.63206	6855.0125
2809.17967	6849.8125
2811.72571	6831.7125
2814.27018	6850.8125
2816.81308	6823.1125
2819.35442	6831.4125
2821.89419	6809.0125
2824.43239	6823.5125
2826.96904	6798.4125
2829.50412	6817.5125
2832.03763	6789.0125
2834.56959	6785.8125
2837.1	6765.6125
2839.62884	6771.2125
2842.15613	6773.3125
2844.68186	6784.2125
2847.20604	6790.5125
2849.72867	6769.1125
2852.24974	6771.5125
2854.76927	6777.0125
2857.28724	6775.5125
2859.80367	6746.4125
2862.31855	6741.9125
2864.83189	6733.0125
2867.34368	6734.8125
2869.85393	6740.5125
2872.36264	6718.2125
2874.8698	6724.6125
2877.37543	6717.4125
2879.87952	6734.6125
2882.38207	6739.3125
2884.88308	6739.9125
2887.38256	6744.5125
2889.88051	6727.5125
2892.37692	6737.6125
2894.8718	6742.8125
2897.36515	6747.8125
2899.85698	6771.5125
2902.34727	6771.8125
2904.83604	6751.8125
2907.32328	6765.0125
2909.809	6773.2125
2912.29319	6778.0125
2914.77587	6795.1125
2917.25702	6789.8125
2919.73665	6791.6125
2922.21476	6796.8125
2924.69136	6785.9125
2927.16644	6809.0125
2929.64	6775.8125
2932.11205	6775.3125
2934.58258	6762.3125
2937.05161	6767.7125
2939.51912	6768.1125
2941.98513	6759.7125
2944.44962	6742.3125
2946.91261	6726.7125
2949.37409	6749.7125
2951.83407	6735.0125
2954.29254	6711.1125
2956.74951	6705.8125
2959.20498	6690.1125
2961.65895	6678.4125
2964.11142	6639.3125
2966.56239	6615.3125
2969.01186	6633.2125
2971.45984	6597.3125
2973.90632	6605.7125
2976.35131	6572.3125
2978.7948	6554.7125
2981.23681	6529.9125
2983.67732	6493.4125
2986.11635	6515.5125
2988.55388	6486.1125
2990.98993	6454.4125
2993.4245	6454.4125
2995.85758	6426.8125
2998.28917	6417.9125
3000.71928	6412.7125
3003.14791	6397.5125
3005.57506	6396.0125
3008.00073	6377.8125
3010.42493	6358.2125
3012.84764	6359.1125
3015.26888	6365.0125
3017.68865	6352.5125
3020.10694	6322.3125
3022.52376	6333.4125
3024.9391	6298.9125
3027.35298	6293.8125
3029.76539	6284.5125
3032.17632	6282.0125
3034.5858	6251.5125
3036.9938	6244.3125
3039.40034	6247.3125
3041.80542	6216.9125
3044.20903	6211.1125
3046.61118	6227.0125
3049.01187	6194.5125
3051.4111	6205.2125
3053.80888	6190.6125
3056.20519	6170.6125
3058.60005	6156.3125
3060.99345	6160.0125
3063.3854	6130.9125
3065.7759	6135.0125
3068.16494	6102.9125
3070.55254	6061.0125
3072.93868	6072.4125
3075.32338	6061.1125
