Data from AgNPs_FTO_APTES_UA_5um_CRN_0.1mM_R6G_10uM_NaF_0.1M_Addition_RamanShift__26__13-27-19-112.txt Node

Date: Tue Dec 21 13:27:19 GMT 2021
User: TCL
Spectrometer: QEP01345
Trigger mode: 4
Integration Time (sec): 7.000000E0
Scans to average: 10
Electric dark correction enabled: true
Nonlinearity correction enabled: false
Boxcar width: 0
XAxis mode: Raman Shifts
Number of Pixels in Spectrum: 1044
>>>>>Begin Spectral Data<<<<<
46.04893	-0.7625
50.45542	-1.3625
54.85868	-0.3625
59.25871	0.1375
63.6555	49.8375
68.04907	54.4375
72.43941	59.4375
76.82654	60.1375
81.21044	62.3375
85.59113	63.0375
89.96862	66.9375
94.34289	68.6375
98.71396	70.2375
103.08183	74.6375
107.4465	78.9375
111.80798	81.3375
116.16626	80.1375
120.52136	81.5375
124.87327	86.3375
129.222	91.0375
133.56755	92.6375
137.90993	105.2375
142.24913	110.2375
146.58517	128.3375
150.91804	150.5375
155.24774	172.2375
159.57429	215.3375
163.89768	278.6375
168.21792	361.2375
172.53501	500.0375
176.84895	692.2375
181.15975	970.2375
185.46741	1351.8375
189.77193	1857.5375
194.07331	2506.6375
198.37157	3228.8375
202.6667	4021.5375
206.9587	4788.3375
211.24758	5560.4375
215.53334	6369.2375
219.81599	7248.5375
224.09553	8213.1375
228.37195	9275.1375
232.64527	10462.3375
236.91549	11666.4375
241.18261	12828.2375
245.44663	13822.5375
249.70755	14691.2375
253.96539	15427.3375
258.22014	16040.2375
262.4718	16533.5375
266.72039	16843.8375
270.96589	16963.5375
275.20832	16978.9375
279.44768	16768.8375
283.68397	16582.7375
287.91719	16404.2375
292.14735	16400.5375
296.37445	16607.1375
300.59849	17001.7375
304.81948	17501.6375
309.03742	17812.0375
313.25231	17711.8375
317.46415	16980.0375
321.67296	15917.0375
325.87872	15017.9375
330.08145	14604.7375
334.28114	14564.9375
338.47781	14781.8375
342.67145	15132.2375
346.86207	15651.7375
351.04966	16365.6375
355.23424	17254.1375
359.4158	17919.7375
363.59435	18261.7375
367.76989	18400.1375
371.94243	18387.0375
376.11196	18346.0375
380.27849	18317.3375
384.44203	18244.0375
388.60257	18147.0375
392.76012	18110.1375
396.91468	18266.3375
401.06626	18652.2375
405.21485	19032.1375
409.36047	18850.6375
413.50311	18117.0375
417.64277	17359.4375
421.77947	17008.7375
425.9132	16880.1375
430.04396	16926.8375
434.17176	17050.2375
438.2966	17262.9375
442.41849	17737.5375
446.53742	18387.0375
450.6534	19067.8375
454.76644	19528.2375
458.87653	19661.1375
462.98368	19442.9375
467.08789	19086.2375
471.18916	18782.1375
475.2875	18475.2375
479.38291	18254.1375
483.4754	18026.3375
487.56496	17720.9375
491.6516	17379.8375
495.73531	17072.1375
499.81612	16982.6375
503.89401	17072.4375
507.96899	17181.8375
512.04106	17273.1375
516.11023	17334.9375
520.1765	17377.2375
524.23987	17312.4375
528.30034	17183.7375
532.35792	16995.1375
536.41261	16709.8375
540.46441	16375.5375
544.51333	16124.6375
548.55936	16173.1375
552.60252	16450.7375
556.64279	16893.0375
560.6802	17214.7375
564.71473	17587.3375
568.7464	18284.9375
572.7752	18780.4375
576.80114	18570.0375
580.82422	18113.5375
584.84444	17977.6375
588.86181	18198.3375
592.87633	18591.5375
596.888	18917.7375
600.89682	19180.1375
604.9028	20464.4375
608.90594	24456.7375
612.90624	29667.2375
616.90371	28568.5375
620.89834	21062.1375
624.89015	17381.0375
628.87913	16758.6375
632.86528	16891.5375
636.84862	17041.2375
640.82913	16768.6375
644.80683	16038.4375
648.78172	15462.8375
652.75379	15359.0375
656.72306	15761.5375
660.68952	16373.5375
664.65319	16347.8375
668.61405	15855.8375
672.57211	15641.0375
676.52738	15696.4375
680.47986	15641.1375
684.42955	15465.1375
688.37646	15308.7375
692.32058	15248.9375
696.26192	15390.9375
700.20048	15557.2375
704.13626	15655.6375
708.06928	15657.3375
711.99952	15497.5375
715.927	15395.3375
719.85171	15412.9375
723.77365	15432.3375
727.69284	15357.8375
731.60928	15254.9375
735.52295	15246.5375
739.43388	15290.7375
743.34206	15390.3375
747.24749	15421.0375
751.15017	15491.4375
755.05012	15743.5375
758.94733	16355.8375
762.8418	17738.2375
766.73354	20236.8375
770.62254	22939.6375
774.50882	24298.0375
778.39237	23389.5375
782.27321	20599.6375
786.15132	17827.6375
790.02671	16122.0375
793.89938	15378.4375
797.76935	15036.6375
801.6366	14952.2375
805.50115	14872.5375
809.36299	14852.9375
813.22213	14811.0375
817.07857	14761.9375
820.93231	14713.8375
824.78336	14653.0375
828.63172	14678.2375
832.47738	14643.2375
836.32036	14634.7375
840.16066	14575.8375
843.99827	14534.8375
847.8332	14467.7375
851.66546	14418.2375
855.49504	14391.1375
859.32195	14427.3375
863.1462	14387.7375
866.96777	14370.1375
870.78668	14351.8375
874.60293	14344.2375
878.41652	14354.6375
882.22745	14425.1375
886.03573	14487.2375
889.84136	14477.3375
893.64433	14373.3375
897.44466	14270.2375
901.24235	14191.0375
905.0374	14064.0375
908.8298	14002.1375
912.61957	13937.9375
916.40671	14039.3375
920.19121	14201.0375
923.97308	14379.4375
927.75233	14566.2375
931.52895	14656.2375
935.30295	14497.1375
939.07433	14120.4375
942.84309	13766.1375
946.60924	13562.2375
950.37278	13440.6375
954.13371	13409.8375
957.89203	13317.3375
961.64774	13253.0375
965.40086	13194.8375
969.15137	13092.0375
972.89929	13023.9375
976.64461	12977.8375
980.38733	12982.9375
984.12747	13016.5375
987.86502	13093.2375
991.59999	13250.6375
995.33237	13479.0375
999.06217	13962.8375
1002.78939	14500.8375
1006.51404	15003.6375
1010.23611	15365.1375
1013.95561	15537.7375
1017.67255	15533.3375
1021.38692	15241.0375
1025.09872	14935.2375
1028.80796	14853.7375
1032.51465	15056.4375
1036.21877	15353.6375
1039.92035	15489.9375
1043.61937	15401.8375
1047.31584	15123.9375
1051.00976	14842.6375
1054.70114	14614.8375
1058.38998	14510.3375
1062.07627	14479.3375
1065.76003	14562.4375
1069.44126	14648.3375
1073.11995	14841.3375
1076.79611	15020.4375
1080.46974	15196.6375
1084.14085	15416.4375
1087.80943	15761.1375
1091.47549	15933.6375
1095.13903	15795.2375
1098.80005	15443.9375
1102.45857	15004.5375
1106.11456	14754.8375
1109.76805	14749.6375
1113.41903	15035.9375
1117.06751	15408.3375
1120.71348	15991.3375
1124.35696	16635.4375
1127.99793	17204.2375
1131.63641	17245.9375
1135.2724	16722.0375
1138.90589	16127.5375
1142.5369	15717.6375
1146.16542	15434.1375
1149.79145	15272.3375
1153.415	15261.7375
1157.03607	15381.7375
1160.65467	15702.3375
1164.27079	16308.7375
1167.88443	17278.6375
1171.49561	18621.7375
1175.10432	20705.5375
1178.71056	23478.7375
1182.31434	25933.6375
1185.91565	26947.1375
1189.51451	26510.1375
1193.11091	25222.4375
1196.70485	23580.5375
1200.29634	22174.6375
1203.88538	21060.9375
1207.47197	19940.2375
1211.05612	19032.9375
1214.63782	18472.2375
1218.21708	18289.5375
1221.79391	18262.7375
1225.36829	18241.0375
1228.94024	18051.4375
1232.50976	17682.9375
1236.07685	17460.5375
1239.6415	17370.0375
1243.20374	17436.1375
1246.76355	17557.5375
1250.32093	17807.4375
1253.8759	18246.5375
1257.42845	18899.7375
1260.97859	19570.0375
1264.52631	20159.9375
1268.07163	20751.1375
1271.61453	21352.9375
1275.15503	21948.5375
1278.69312	22461.1375
1282.22882	22886.7375
1285.76211	23515.3375
1289.29301	24345.3375
1292.82151	25354.0375
1296.34761	26576.1375
1299.87133	28249.0375
1303.39266	30467.5375
1306.9116	33428.7375
1310.42815	36565.8375
1313.94233	38403.9375
1317.45412	37934.8375
1320.96354	35986.4375
1324.47058	33903.6375
1327.97525	32139.6375
1331.47754	30908.4375
1334.97747	30484.1375
1338.47502	30654.8375
1341.97022	31053.1375
1345.46305	31455.8375
1348.95352	31859.0375
1352.44163	32925.9375
1355.92738	34913.1375
1359.41078	38322.5375
1362.89183	41584.0375
1366.37053	40628.7375
1369.84688	35498.3375
1373.32088	30017.3375
1376.79254	26432.3375
1380.26186	24669.4375
1383.72883	23917.7375
1387.19347	23496.4375
1390.65578	23048.1375
1394.11575	22973.6375
1397.57339	23290.6375
1401.0287	23920.1375
1404.48168	24656.9375
1407.93234	25123.2375
1411.38068	25227.0375
1414.82669	24775.2375
1418.27039	23817.9375
1421.71177	22659.0375
1425.15083	21615.2375
1428.58758	21025.5375
1432.02203	20979.7375
1435.45416	21196.2375
1438.88399	21471.9375
1442.31151	21737.4375
1445.73673	22040.4375
1449.15965	22448.2375
1452.58027	22711.6375
1455.9986	22818.8375
1459.41463	22965.2375
1462.82837	23332.9375
1466.23982	23927.9375
1469.64898	24458.3375
1473.05586	24691.3375
1476.46045	24665.4375
1479.86276	24715.9375
1483.26279	24723.6375
1486.66054	24964.8375
1490.05602	25290.1375
1493.44922	25832.7375
1496.84016	26488.5375
1500.22882	27687.9375
1503.61521	29703.0375
1506.99934	32348.2375
1510.38121	34740.2375
1513.76081	35603.7375
1517.13816	33965.2375
1520.51324	30649.9375
1523.88607	27377.4375
1527.25665	25232.8375
1530.62498	24102.0375
1533.99105	23550.1375
1537.35488	23210.2375
1540.71647	23020.5375
1544.07581	22837.3375
1547.4329	22574.4375
1550.78776	22339.0375
1554.14038	22133.3375
1557.49077	22141.1375
1560.83892	22302.7375
1564.18484	22657.2375
1567.52853	23006.4375
1570.86999	23319.3375
1574.20922	23607.1375
1577.54624	23647.7375
1580.88103	22997.6375
1584.2136	22248.0375
1587.54395	22193.1375
1590.87208	23106.4375
1594.19801	24842.2375
1597.52172	26891.4375
1600.84321	27963.9375
1604.16251	27066.7375
1607.47959	24918.7375
1610.79447	22319.8375
1614.10715	19929.5375
1617.41763	18172.6375
1620.7259	17027.2375
1624.03199	16506.2375
1627.33587	16447.7375
1630.63757	16898.2375
1633.93707	17945.6375
1637.23439	19557.6375
1640.52951	21913.1375
1643.82246	25009.1375
1647.11321	28134.9375
1650.40179	29824.3375
1653.68819	28601.5375
1656.97241	24808.1375
1660.25446	20610.9375
1663.53433	17435.3375
1666.81203	15510.5375
1670.08756	14370.7375
1673.36092	13656.9375
1676.63211	13179.1375
1679.90115	12866.7375
1683.16801	12575.9375
1686.43272	12396.7375
1689.69527	12240.0375
1692.95567	12150.3375
1696.2139	12115.0375
1699.46999	12052.8375
1702.72392	12005.6375
1705.97571	11981.0375
1709.22535	11937.8375
1712.47284	11920.1375
1715.71819	11871.7375
1718.96139	11837.7375
1722.20246	11816.7375
1725.44139	11756.9375
1728.67818	11663.5375
1731.91284	11629.7375
1735.14537	11536.5375
1738.37576	11491.8375
1741.60403	11466.1375
1744.83017	11423.2375
1748.05418	11371.7375
1751.27607	11392.5375
1754.49584	11367.2375
1757.71349	11351.3375
1760.92903	11320.8375
1764.14244	11273.6375
1767.35375	11260.2375
1770.56294	11195.9375
1773.77002	11161.5375
1776.97499	11094.5375
1780.17785	11100.5375
1783.37861	11072.1375
1786.57727	11038.5375
1789.77382	11019.1375
1792.96828	11000.4375
1796.16064	10968.0375
1799.3509	10941.3375
1802.53907	10928.5375
1805.72514	10908.1375
1808.90913	10897.5375
1812.09102	10840.5375
1815.27083	10795.1375
1818.44856	10789.8375
1821.6242	10743.2375
1824.79776	10758.7375
1827.96924	10734.8375
1831.13864	10716.9375
1834.30597	10696.7375
1837.47122	10690.1375
1840.6344	10695.1375
1843.7955	10654.3375
1846.95454	10649.1375
1850.11151	10650.6375
1853.26642	10636.4375
1856.41926	10649.0375
1859.57004	10655.6375
1862.71876	10637.7375
1865.86542	10663.6375
1869.01003	10642.3375
1872.15258	10654.6375
1875.29308	10644.9375
1878.43152	10620.0375
1881.56792	10631.6375
1884.70227	10619.9375
1887.83457	10638.4375
1890.96482	10628.5375
1894.09304	10602.1375
1897.21921	10602.1375
1900.34335	10623.7375
1903.46544	10610.9375
1906.58551	10605.6375
1909.70353	10595.9375
1912.81953	10592.9375
1915.93349	10548.0375
1919.04543	10565.7375
1922.15534	10558.4375
1925.26322	10508.8375
1928.36908	10463.3375
1931.47292	10425.8375
1934.57473	10412.3375
1937.67453	10378.4375
1940.77232	10326.9375
1943.86808	10284.8375
1946.96184	10256.0375
1950.05358	10221.6375
1953.14331	10194.9375
1956.23103	10149.6375
1959.31675	10107.7375
1962.40046	10089.9375
1965.48217	10041.7375
1968.56188	10022.4375
1971.63959	9994.6375
1974.7153	9996.3375
1977.78901	9931.1375
1980.86073	9889.0375
1983.93046	9861.7375
1986.99819	9819.0375
1990.06394	9766.2375
1993.1277	9744.6375
1996.18947	9706.8375
1999.24925	9685.8375
2002.30706	9665.9375
2005.36288	9627.3375
2008.41672	9605.9375
2011.46859	9550.3375
2014.51848	9534.8375
2017.56639	9520.9375
2020.61233	9499.7375
2023.6563	9460.9375
2026.6983	9457.3375
2029.73833	9428.0375
2032.7764	9396.5375
2035.8125	9407.6375
2038.84664	9354.4375
2041.87881	9357.1375
2044.90903	9356.4375
2047.93729	9321.4375
2050.96359	9322.7375
2053.98794	9306.6375
2057.01034	9262.4375
2060.03078	9272.3375
2063.04927	9242.7375
2066.06582	9225.6375
2069.08042	9220.3375
2072.09307	9211.0375
2075.10378	9206.9375
2078.11255	9192.3375
2081.11938	9180.5375
2084.12426	9170.6375
2087.12722	9180.8375
2090.12824	9165.6375
2093.12732	9171.4375
2096.12447	9171.7375
2099.11969	9167.9375
2102.11299	9140.1375
2105.10435	9168.6375
2108.09379	9154.4375
2111.08131	9134.5375
2114.0669	9161.0375
2117.05057	9147.9375
2120.03233	9154.0375
2123.01216	9158.8375
2125.99008	9155.2375
2128.96609	9175.0375
2131.94018	9187.9375
2134.91236	9151.6375
2137.88263	9183.4375
2140.851	9168.4375
2143.81746	9173.3375
2146.78201	9157.4375
2149.74466	9153.8375
2152.7054	9145.1375
2155.66425	9158.1375
2158.6212	9119.8375
2161.57625	9115.5375
2164.52941	9127.8375
2167.48067	9085.0375
2170.43004	9129.1375
2173.37752	9122.9375
2176.32311	9106.6375
2179.26681	9096.3375
2182.20863	9101.7375
2185.14856	9083.0375
2188.08661	9074.3375
2191.02278	9099.7375
2193.95707	9101.7375
2196.88948	9081.8375
2199.82001	9072.1375
2202.74867	9069.0375
2205.67545	9064.6375
2208.60037	9042.5375
2211.52341	9062.1375
2214.44458	9040.9375
2217.36388	9019.8375
2220.28132	8985.2375
2223.1969	8961.6375
2226.11061	8975.9375
2229.02246	8956.9375
2231.93245	8937.5375
2234.84058	8934.2375
2237.74686	8886.1375
2240.65128	8878.5375
2243.55385	8853.8375
2246.45456	8831.6375
2249.35343	8815.7375
2252.25044	8818.2375
2255.14561	8803.2375
2258.03893	8820.2375
2260.93041	8823.1375
2263.82004	8789.7375
2266.70783	8733.4375
2269.59378	8719.9375
2272.4779	8708.9375
2275.36017	8683.4375
2278.24061	8656.8375
2281.11922	8631.3375
2283.996	8598.6375
2286.87094	8608.4375
2289.74405	8584.0375
2292.61534	8578.6375
2295.4848	8553.8375
2298.35243	8556.4375
2301.21824	8531.3375
2304.08223	8549.7375
2306.94439	8544.1375
2309.80474	8555.7375
2312.66327	8534.2375
2315.51999	8539.0375
2318.37489	8544.6375
2321.22797	8525.1375
2324.07925	8532.7375
2326.92871	8509.3375
2329.77637	8514.6375
2332.62222	8508.6375
2335.46626	8485.1375
2338.3085	8496.2375
2341.14893	8508.1375
2343.98756	8499.3375
2346.8244	8481.5375
2349.65943	8490.1375
2352.49267	8507.5375
2355.32411	8505.8375
2358.15376	8496.4375
2360.98161	8515.1375
2363.80768	8483.7375
2366.63195	8487.2375
2369.45444	8460.3375
2372.27514	8464.9375
2375.09405	8421.6375
2377.91118	8416.7375
2380.72652	8375.9375
2383.54009	8367.7375
2386.35187	8359.8375
2389.16188	8291.4375
2391.97011	8277.3375
2394.77657	8275.3375
2397.58125	8277.3375
2400.38416	8260.0375
2403.18529	8214.8375
2405.98466	8200.6375
2408.78226	8157.0375
2411.57809	8188.0375
2414.37216	8136.1375
2417.16446	8143.7375
2419.955	8131.6375
2422.74378	8141.2375
2425.5308	8109.6375
2428.31606	8105.3375
2431.09956	8105.7375
2433.88131	8095.9375
2436.6613	8088.3375
2439.43954	8083.8375
2442.21603	8067.1375
2444.99077	8047.5375
2447.76377	8079.2375
2450.53501	8085.3375
2453.30451	8068.0375
2456.07226	8080.8375
2458.83827	8068.7375
2461.60254	8067.3375
2464.36507	8067.8375
2467.12586	8076.0375
2469.88492	8044.6375
2472.64224	8040.3375
2475.39782	8068.1375
2478.15167	8077.8375
2480.90379	8075.1375
2483.65417	8096.6375
2486.40283	8097.3375
2489.14976	8107.9375
2491.89497	8108.0375
2494.63845	8142.6375
2497.3802	8120.5375
2500.12024	8114.8375
2502.85855	8103.4375
2505.59514	8091.3375
2508.33002	8064.0375
2511.06318	8065.1375
2513.79462	8021.0375
2516.52435	7994.1375
2519.25237	7982.0375
2521.97867	7971.5375
2524.70327	7955.3375
2527.42616	7953.6375
2530.14734	7945.6375
2532.86681	7926.2375
2535.58458	7926.8375
2538.30065	7912.7375
2541.01501	7921.5375
2543.72768	7906.5375
2546.43864	7887.5375
2549.14791	7896.9375
2551.85548	7899.9375
2554.56136	7897.9375
2557.26554	7872.8375
2559.96803	7869.0375
2562.66883	7869.9375
2565.36794	7851.2375
2568.06536	7834.1375
2570.7611	7847.8375
2573.45514	7832.7375
2576.14751	7840.4375
2578.83819	7837.2375
2581.52719	7828.8375
2584.21451	7851.8375
2586.90015	7826.9375
2589.58411	7804.8375
2592.2664	7821.5375
2594.94701	7800.1375
2597.62594	7807.2375
2600.30321	7782.6375
2602.9788	7786.6375
2605.65273	7771.7375
2608.32498	7754.0375
2610.99557	7781.2375
2613.66449	7795.7375
2616.33175	7758.3375
2618.99734	7790.0375
2621.66128	7762.1375
2624.32355	7777.1375
2626.98416	7788.0375
2629.64311	7775.7375
2632.30041	7772.5375
2634.95605	7755.8375
2637.61004	7763.2375
2640.26238	7728.8375
2642.91306	7712.4375
2645.56209	7715.6375
2648.20948	7706.9375
2650.85521	7708.4375
2653.4993	7705.9375
2656.14175	7702.7375
2658.78255	7722.0375
2661.42171	7702.8375
2664.05923	7712.0375
2666.6951	7739.9375
2669.32934	7716.1375
2671.96194	7716.7375
2674.59291	7748.3375
2677.22224	7722.2375
2679.84993	7741.9375
2682.476	7716.6375
2685.10043	7737.9375
2687.72324	7706.9375
2690.34441	7694.6375
2692.96396	7688.7375
2695.58188	7702.4375
2698.19818	7690.1375
2700.81285	7692.2375
2703.4259	7709.5375
2706.03733	7756.1375
2708.64714	7745.7375
2711.25533	7720.1375
2713.86191	7730.2375
2716.46687	7720.9375
2719.07021	7724.3375
2721.67194	7725.3375
2724.27206	7708.3375
2726.87057	7724.7375
2729.46747	7712.0375
2732.06276	7729.5375
2734.65644	7706.6375
2737.24852	7722.5375
2739.83899	7712.4375
2742.42786	7736.5375
2745.01513	7688.0375
2747.60079	7691.5375
2750.18486	7688.0375
2752.76733	7671.3375
2755.3482	7659.5375
2757.92747	7675.0375
2760.50515	7665.4375
2763.08123	7677.4375
2765.65573	7670.8375
2768.22863	7676.3375
2770.79994	7661.3375
2773.36967	7664.9375
2775.9378	7647.2375
2778.50435	7687.5375
2781.06932	7646.5375
2783.6327	7664.9375
2786.1945	7646.9375
2788.75471	7649.8375
2791.31335	7645.1375
2793.87041	7631.6375
2796.42589	7591.3375
2798.97979	7600.4375
2801.53212	7594.2375
2804.08288	7580.6375
2806.63206	7570.3375
2809.17967	7576.9375
2811.72571	7557.7375
2814.27018	7550.7375
2816.81308	7558.6375
2819.35442	7541.2375
2821.89419	7552.3375
2824.43239	7564.2375
2826.96904	7565.3375
2829.50412	7555.1375
2832.03763	7546.3375
2834.56959	7541.9375
2837.1	7535.5375
2839.62884	7541.8375
2842.15613	7537.3375
2844.68186	7556.5375
2847.20604	7558.1375
2849.72867	7592.2375
2852.24974	7580.5375
2854.76927	7585.1375
2857.28724	7594.7375
2859.80367	7560.3375
2862.31855	7528.1375
2864.83189	7529.4375
2867.34368	7537.1375
2869.85393	7532.9375
2872.36264	7527.8375
2874.8698	7524.8375
2877.37543	7522.3375
2879.87952	7521.5375
2882.38207	7524.4375
2884.88308	7521.1375
2887.38256	7541.6375
2889.88051	7524.0375
2892.37692	7521.3375
2894.8718	7524.5375
2897.36515	7541.4375
2899.85698	7537.3375
2902.34727	7561.3375
2904.83604	7541.4375
2907.32328	7571.6375
2909.809	7559.2375
2912.29319	7568.8375
2914.77587	7555.7375
2917.25702	7556.1375
2919.73665	7566.2375
2922.21476	7541.8375
2924.69136	7548.8375
2927.16644	7546.9375
2929.64	7528.2375
2932.11205	7502.9375
2934.58258	7491.7375
2937.05161	7504.3375
2939.51912	7487.8375
2941.98513	7476.2375
2944.44962	7463.8375
2946.91261	7431.6375
2949.37409	7405.5375
2951.83407	7400.0375
2954.29254	7370.2375
2956.74951	7369.7375
2959.20498	7350.8375
2961.65895	7289.7375
2964.11142	7300.3375
2966.56239	7259.0375
2969.01186	7260.9375
2971.45984	7237.7375
2973.90632	7210.0375
2976.35131	7187.0375
2978.7948	7175.1375
2981.23681	7172.1375
2983.67732	7132.2375
2986.11635	7110.0375
2988.55388	7082.0375
2990.98993	7083.2375
2993.4245	7052.6375
2995.85758	7050.4375
2998.28917	7036.3375
3000.71928	7035.5375
3003.14791	7020.7375
3005.57506	7002.3375
3008.00073	6977.8375
3010.42493	6988.6375
3012.84764	6978.3375
3015.26888	6969.9375
3017.68865	6946.1375
3020.10694	6921.8375
3022.52376	6907.7375
3024.9391	6901.1375
3027.35298	6878.9375
3029.76539	6866.1375
3032.17632	6856.5375
3034.5858	6823.6375
3036.9938	6811.9375
3039.40034	6836.2375
3041.80542	6811.9375
3044.20903	6779.7375
3046.61118	6791.7375
3049.01187	6762.4375
3051.4111	6764.1375
3053.80888	6748.9375
3056.20519	6736.0375
3058.60005	6700.2375
3060.99345	6701.9375
3063.3854	6648.5375
3065.7759	6651.7375
3068.16494	6643.8375
3070.55254	6611.0375
