Data from AgNPs_FTO_APTES_UA_0um_CRN_0.1mM_R6G_10uM_NaF_0.1M_Addition_RamanShift__58__11-18-58-966.txt Node

Date: Tue Dec 21 11:18:58 GMT 2021
User: TCL
Spectrometer: QEP01345
Trigger mode: 4
Integration Time (sec): 7.000000E0
Scans to average: 10
Electric dark correction enabled: true
Nonlinearity correction enabled: false
Boxcar width: 0
XAxis mode: Raman Shifts
Number of Pixels in Spectrum: 1044
>>>>>Begin Spectral Data<<<<<
46.04893	-0.575
50.45542	-1.475
54.85868	0.125
59.25871	-0.475
63.6555	48.725
68.04907	56.325
72.43941	60.425
76.82654	62.025
81.21044	67.325
85.59113	64.325
89.96862	68.725
94.34289	67.625
98.71396	70.925
103.08183	81.025
107.4465	79.525
111.80798	80.525
116.16626	78.125
120.52136	83.225
124.87327	87.225
129.222	91.525
133.56755	96.825
137.90993	111.625
142.24913	116.725
146.58517	137.625
150.91804	159.825
155.24774	187.125
159.57429	229.225
163.89768	299.425
168.21792	396.625
172.53501	540.925
176.84895	754.925
181.15975	1053.225
185.46741	1465.225
189.77193	2031.025
194.07331	2700.225
198.37157	3490.225
202.6667	4322.525
206.9587	5169.025
211.24758	5983.625
215.53334	6825.025
219.81599	7721.525
224.09553	8718.725
228.37195	9833.725
232.64527	11054.025
236.91549	12284.925
241.18261	13432.125
245.44663	14502.025
249.70755	15445.825
253.96539	16228.925
258.22014	16880.125
262.4718	17447.525
266.72039	17884.325
270.96589	18121.925
275.20832	18198.625
279.44768	18157.425
283.68397	18099.025
287.91719	18097.225
292.14735	18151.925
296.37445	18249.325
300.59849	18408.125
304.81948	18666.725
309.03742	18802.925
313.25231	18651.325
317.46415	17976.525
321.67296	17047.325
325.87872	16309.525
330.08145	15968.225
334.28114	15917.025
338.47781	16080.125
342.67145	16379.025
346.86207	16828.625
351.04966	17421.825
355.23424	18100.925
359.4158	18687.825
363.59435	18974.625
367.76989	19023.825
371.94243	19047.025
376.11196	18977.225
380.27849	19015.725
384.44203	18969.725
388.60257	18946.725
392.76012	18996.525
396.91468	19263.125
401.06626	19685.625
405.21485	20068.725
409.36047	19955.925
413.50311	19416.525
417.64277	18953.725
421.77947	18843.725
425.9132	18937.825
430.04396	19120.525
434.17176	19364.925
438.2966	19663.725
442.41849	20197.525
446.53742	21063.925
450.6534	21993.625
454.76644	22564.425
458.87653	22568.325
462.98368	22193.225
467.08789	21613.425
471.18916	21116.025
475.2875	20790.425
479.38291	20611.725
483.4754	20467.625
487.56496	20212.525
491.6516	19774.025
495.73531	19460.125
499.81612	19282.025
503.89401	19377.525
507.96899	19445.525
512.04106	19333.825
516.11023	19099.925
520.1765	18845.625
524.23987	18651.425
528.30034	18445.925
532.35792	18248.425
536.41261	17944.425
540.46441	17545.925
544.51333	17414.725
548.55936	17586.725
552.60252	18075.325
556.64279	18764.625
560.6802	19308.025
564.71473	19791.125
568.7464	20613.725
572.7752	21450.325
576.80114	21568.725
580.82422	21444.625
584.84444	21518.325
588.86181	21931.125
592.87633	22732.325
596.888	23310.225
600.89682	23213.125
604.9028	23652.825
608.90594	26390.125
612.90624	30106.725
616.90371	28517.425
620.89834	22006.925
624.89015	18887.425
628.87913	18515.925
632.86528	18599.325
636.84862	18506.725
640.82913	18108.625
644.80683	17373.625
648.78172	16853.725
652.75379	16739.725
656.72306	17060.325
660.68952	17600.825
664.65319	17619.625
668.61405	17181.725
672.57211	16943.425
676.52738	16919.925
680.47986	16894.125
684.42955	16811.925
688.37646	16693.725
692.32058	16772.425
696.26192	16956.225
700.20048	17162.425
704.13626	17388.925
708.06928	17448.025
711.99952	17260.725
715.927	17115.325
719.85171	17041.225
723.77365	16973.325
727.69284	16779.425
731.60928	16627.525
735.52295	16634.325
739.43388	16712.925
743.34206	16823.225
747.24749	16942.125
751.15017	17208.525
755.05012	17612.825
758.94733	18376.525
762.8418	19884.025
766.73354	22303.125
770.62254	24672.025
774.50882	25289.925
778.39237	23817.625
782.27321	21252.125
786.15132	18930.525
790.02671	17571.825
793.89938	16925.125
797.76935	16655.625
801.6366	16551.325
805.50115	16513.225
809.36299	16410.425
813.22213	16276.425
817.07857	16232.125
820.93231	16214.225
824.78336	16177.925
828.63172	16195.925
832.47738	16199.125
836.32036	16217.025
840.16066	16208.725
843.99827	16184.025
847.8332	16129.525
851.66546	16033.425
855.49504	15978.625
859.32195	15983.225
863.1462	15863.625
866.96777	15834.325
870.78668	15745.725
874.60293	15745.625
878.41652	15729.825
882.22745	15840.325
886.03573	15914.325
889.84136	15876.525
893.64433	15769.025
897.44466	15701.025
901.24235	15652.425
905.0374	15574.625
908.8298	15495.025
912.61957	15490.125
916.40671	15651.825
920.19121	15927.025
923.97308	16203.625
927.75233	16370.325
931.52895	16307.025
935.30295	16072.625
939.07433	15618.225
942.84309	15223.825
946.60924	14992.625
950.37278	14911.225
954.13371	14837.325
957.89203	14782.225
961.64774	14737.825
965.40086	14700.225
969.15137	14615.025
972.89929	14545.125
976.64461	14444.325
980.38733	14470.925
984.12747	14505.625
987.86502	14643.425
991.59999	14870.825
995.33237	15239.225
999.06217	15853.325
1002.78939	16672.525
1006.51404	17328.825
1010.23611	17646.525
1013.95561	17792.125
1017.67255	17689.325
1021.38692	17275.325
1025.09872	16851.325
1028.80796	16750.225
1032.51465	17058.625
1036.21877	17522.025
1039.92035	17558.425
1043.61937	17452.625
1047.31584	17088.525
1051.00976	16700.925
1054.70114	16465.725
1058.38998	16412.425
1062.07627	16473.325
1065.76003	16587.425
1069.44126	16809.925
1073.11995	17072.925
1076.79611	17275.025
1080.46974	17418.125
1084.14085	17650.825
1087.80943	18039.425
1091.47549	18294.025
1095.13903	18197.925
1098.80005	17751.025
1102.45857	17167.025
1106.11456	16758.725
1109.76805	16676.425
1113.41903	16838.725
1117.06751	17108.925
1120.71348	17514.525
1124.35696	17913.625
1127.99793	18322.225
1131.63641	18368.025
1135.2724	18070.025
1138.90589	17657.425
1142.5369	17455.725
1146.16542	17415.725
1149.79145	17449.125
1153.415	17591.625
1157.03607	17824.025
1160.65467	18257.825
1164.27079	19119.825
1167.88443	20428.525
1171.49561	22308.325
1175.10432	25064.925
1178.71056	28486.725
1182.31434	31322.825
1185.91565	32507.025
1189.51451	32091.925
1193.11091	30683.425
1196.70485	28959.525
1200.29634	27215.225
1203.88538	25635.725
1207.47197	24293.825
1211.05612	23275.225
1214.63782	22707.825
1218.21708	22642.725
1221.79391	22832.525
1225.36829	22893.525
1228.94024	22528.225
1232.50976	21843.125
1236.07685	21185.425
1239.6415	20863.325
1243.20374	20737.425
1246.76355	20787.025
1250.32093	21085.225
1253.8759	21627.825
1257.42845	22420.825
1260.97859	23215.625
1264.52631	23926.625
1268.07163	24689.125
1271.61453	25483.725
1275.15503	26367.825
1278.69312	27161.125
1282.22882	27893.825
1285.76211	28760.925
1289.29301	29877.525
1292.82151	31253.325
1296.34761	32975.025
1299.87133	35231.125
1303.39266	38056.325
1306.9116	41681.825
1310.42815	45682.525
1313.94233	48569.425
1317.45412	48973.825
1320.96354	47644.425
1324.47058	45739.925
1327.97525	43868.225
1331.47754	42438.725
1334.97747	41494.525
1338.47502	41211.925
1341.97022	41007.325
1345.46305	40456.925
1348.95352	39627.325
1352.44163	39462.225
1355.92738	40652.025
1359.41078	43444.225
1362.89183	46416.925
1366.37053	46142.425
1369.84688	41946.725
1373.32088	36674.125
1376.79254	32760.425
1380.26186	30748.425
1383.72883	30112.925
1387.19347	29931.325
1390.65578	29771.325
1394.11575	30150.725
1397.57339	31185.225
1401.0287	32631.525
1404.48168	33904.925
1407.93234	34556.225
1411.38068	34471.725
1414.82669	33468.725
1418.27039	31671.525
1421.71177	29524.425
1425.15083	27770.325
1428.58758	26684.125
1432.02203	26436.825
1435.45416	26793.025
1438.88399	27310.025
1442.31151	27859.125
1445.73673	28417.425
1449.15965	29080.825
1452.58027	29479.725
1455.9986	29553.325
1459.41463	29738.025
1462.82837	30326.425
1466.23982	31239.725
1469.64898	32137.025
1473.05586	32536.125
1476.46045	32541.125
1479.86276	32452.825
1483.26279	32244.025
1486.66054	32082.025
1490.05602	32176.625
1493.44922	32426.625
1496.84016	32427.625
1500.22882	32691.725
1503.61521	33659.425
1506.99934	35187.625
1510.38121	36849.825
1513.76081	37757.225
1517.13816	37017.425
1520.51324	34757.125
1523.88607	32373.325
1527.25665	30864.125
1530.62498	30096.325
1533.99105	29832.325
1537.35488	29719.925
1540.71647	29506.325
1544.07581	29224.125
1547.4329	28611.225
1550.78776	27918.025
1554.14038	27337.525
1557.49077	26996.425
1560.83892	26975.725
1564.18484	27167.625
1567.52853	27376.225
1570.86999	27513.925
1574.20922	27689.125
1577.54624	27880.625
1580.88103	27504.325
1584.2136	27213.825
1587.54395	27748.725
1590.87208	29607.725
1594.19801	32422.725
1597.52172	35616.525
1600.84321	37418.225
1604.16251	36337.125
1607.47959	32987.525
1610.79447	28895.825
1614.10715	25210.225
1617.41763	22480.125
1620.7259	20754.525
1624.03199	19910.425
1627.33587	19843.025
1630.63757	20452.425
1633.93707	21851.225
1637.23439	24244.425
1640.52951	27728.025
1643.82246	32046.025
1647.11321	36028.425
1650.40179	37711.925
1653.68819	35804.925
1656.97241	30843.125
1660.25446	25473.625
1663.53433	21332.625
1666.81203	18677.325
1670.08756	17106.025
1673.36092	16112.525
1676.63211	15547.625
1679.90115	15113.425
1683.16801	14802.825
1686.43272	14574.525
1689.69527	14396.225
1692.95567	14297.325
1696.2139	14187.225
1699.46999	14120.425
1702.72392	14070.925
1705.97571	14011.925
1709.22535	13983.925
1712.47284	13934.425
1715.71819	13923.825
1718.96139	13899.025
1722.20246	13824.725
1725.44139	13762.725
1728.67818	13689.325
1731.91284	13583.025
1735.14537	13520.425
1738.37576	13460.925
1741.60403	13397.725
1744.83017	13381.825
1748.05418	13333.825
1751.27607	13324.225
1754.49584	13316.725
1757.71349	13305.025
1760.92903	13238.825
1764.14244	13204.025
1767.35375	13198.525
1770.56294	13173.925
1773.77002	13123.225
1776.97499	13084.625
1780.17785	13061.825
1783.37861	13045.925
1786.57727	13015.425
1789.77382	12960.825
1792.96828	12961.525
1796.16064	12902.025
1799.3509	12900.725
1802.53907	12875.325
1805.72514	12840.125
1808.90913	12817.425
1812.09102	12797.025
1815.27083	12698.225
1818.44856	12669.825
1821.6242	12676.125
1824.79776	12666.925
1827.96924	12639.425
1831.13864	12627.525
1834.30597	12628.625
1837.47122	12636.025
1840.6344	12612.325
1843.7955	12621.625
1846.95454	12616.425
1850.11151	12636.425
1853.26642	12610.225
1856.41926	12640.325
1859.57004	12650.525
1862.71876	12633.725
1865.86542	12637.825
1869.01003	12643.525
1872.15258	12647.925
1875.29308	12660.025
1878.43152	12639.425
1881.56792	12635.125
1884.70227	12648.525
1887.83457	12689.725
1890.96482	12791.225
1894.09304	12825.525
1897.21921	12740.325
1900.34335	12680.825
1903.46544	12689.025
1906.58551	12703.925
1909.70353	12704.625
1912.81953	12688.625
1915.93349	12666.025
1919.04543	12632.125
1922.15534	12609.525
1925.26322	12577.025
1928.36908	12546.425
1931.47292	12490.225
1934.57473	12437.625
1937.67453	12384.325
1940.77232	12329.525
1943.86808	12298.925
1946.96184	12256.325
1950.05358	12175.525
1953.14331	12132.225
1956.23103	12076.425
1959.31675	12027.525
1962.40046	12004.625
1965.48217	11984.825
1968.56188	11900.325
1971.63959	11887.025
1974.7153	11860.125
1977.78901	11806.325
1980.86073	11758.025
1983.93046	11715.925
1986.99819	11675.725
1990.06394	11624.725
1993.1277	11612.325
1996.18947	11566.625
1999.24925	11509.425
2002.30706	11492.825
2005.36288	11459.125
2008.41672	11425.825
2011.46859	11376.625
2014.51848	11364.525
2017.56639	11337.125
2020.61233	11305.725
2023.6563	11295.525
2026.6983	11235.825
2029.73833	11224.225
2032.7764	11214.825
2035.8125	11170.425
2038.84664	11185.125
2041.87881	11168.625
2044.90903	11155.925
2047.93729	11111.325
2050.96359	11118.425
2053.98794	11091.725
2057.01034	11068.525
2060.03078	11048.825
2063.04927	11045.325
2066.06582	11066.925
2069.08042	11035.125
2072.09307	11014.325
2075.10378	11010.625
2078.11255	11005.525
2081.11938	11001.925
2084.12426	10954.825
2087.12722	10958.225
2090.12824	10939.425
2093.12732	10968.225
2096.12447	10965.525
2099.11969	10946.825
2102.11299	10951.425
2105.10435	10942.925
2108.09379	10957.925
2111.08131	10939.925
2114.0669	10937.025
2117.05057	10932.625
2120.03233	10957.525
2123.01216	10949.325
2125.99008	10959.425
2128.96609	10968.125
2131.94018	10946.225
2134.91236	10956.525
2137.88263	10948.525
2140.851	10959.425
2143.81746	10965.825
2146.78201	10966.225
2149.74466	10972.125
2152.7054	10974.325
2155.66425	10946.025
2158.6212	10950.325
2161.57625	10946.625
2164.52941	10977.325
2167.48067	10935.725
2170.43004	10920.525
2173.37752	10933.225
2176.32311	10944.125
2179.26681	10957.125
2182.20863	10944.225
2185.14856	10929.625
2188.08661	10905.925
2191.02278	10936.725
2193.95707	10916.725
2196.88948	10898.025
2199.82001	10921.525
2202.74867	10907.025
2205.67545	10905.325
2208.60037	10879.425
2211.52341	10866.425
2214.44458	10870.125
2217.36388	10813.125
2220.28132	10837.325
2223.1969	10791.625
2226.11061	10821.425
2229.02246	10765.125
2231.93245	10749.125
2234.84058	10716.825
2237.74686	10702.725
2240.65128	10710.725
2243.55385	10663.125
2246.45456	10679.225
2249.35343	10646.125
2252.25044	10641.025
2255.14561	10578.625
2258.03893	10597.125
2260.93041	10606.925
2263.82004	10561.225
2266.70783	10513.525
2269.59378	10482.925
2272.4779	10463.225
2275.36017	10442.025
2278.24061	10400.625
2281.11922	10393.125
2283.996	10374.525
2286.87094	10376.125
2289.74405	10346.925
2292.61534	10353.425
2295.4848	10334.625
2298.35243	10319.225
2301.21824	10310.225
2304.08223	10317.725
2306.94439	10315.025
2309.80474	10306.425
2312.66327	10312.325
2315.51999	10296.025
2318.37489	10329.825
2321.22797	10298.925
2324.07925	10289.225
2326.92871	10279.725
2329.77637	10278.425
2332.62222	10272.325
2335.46626	10270.325
2338.3085	10272.425
2341.14893	10245.025
2343.98756	10264.425
2346.8244	10300.425
2349.65943	10276.825
2352.49267	10282.525
2355.32411	10296.125
2358.15376	10297.725
2360.98161	10305.625
2363.80768	10260.525
2366.63195	10256.825
2369.45444	10254.125
2372.27514	10242.625
2375.09405	10204.025
2377.91118	10194.725
2380.72652	10164.225
2383.54009	10130.125
2386.35187	10103.125
2389.16188	10051.525
2391.97011	10032.725
2394.77657	10021.825
2397.58125	10011.125
2400.38416	10014.125
2403.18529	9999.525
2405.98466	9992.825
2408.78226	9937.325
2411.57809	9932.825
2414.37216	9902.825
2417.16446	9907.125
2419.955	9901.925
2422.74378	9859.725
2425.5308	9842.025
2428.31606	9825.125
2431.09956	9842.625
2433.88131	9821.925
2436.6613	9847.725
2439.43954	9818.725
2442.21603	9818.325
2444.99077	9819.325
2447.76377	9817.025
2450.53501	9816.225
2453.30451	9823.725
2456.07226	9813.025
2458.83827	9805.925
2461.60254	9809.025
2464.36507	9825.625
2467.12586	9808.825
2469.88492	9802.625
2472.64224	9827.725
2475.39782	9830.925
2478.15167	9851.525
2480.90379	9858.125
2483.65417	9837.425
2486.40283	9861.325
2489.14976	9858.225
2491.89497	9879.525
2494.63845	9901.725
2497.3802	9911.925
2500.12024	9908.725
2502.85855	9905.725
2505.59514	9869.325
2508.33002	9863.625
2511.06318	9848.625
2513.79462	9802.625
2516.52435	9812.125
2519.25237	9802.625
2521.97867	9769.025
2524.70327	9782.125
2527.42616	9754.025
2530.14734	9745.125
2532.86681	9728.425
2535.58458	9729.425
2538.30065	9724.025
2541.01501	9722.425
2543.72768	9712.525
2546.43864	9717.125
2549.14791	9682.025
2551.85548	9706.225
2554.56136	9687.825
2557.26554	9668.025
2559.96803	9678.925
2562.66883	9674.825
2565.36794	9665.825
2568.06536	9663.925
2570.7611	9664.825
2573.45514	9627.625
2576.14751	9653.825
2578.83819	9647.025
2581.52719	9636.225
2584.21451	9645.425
2586.90015	9640.525
2589.58411	9644.825
2592.2664	9626.225
2594.94701	9620.325
2597.62594	9633.425
2600.30321	9619.925
2602.9788	9600.125
2605.65273	9612.025
2608.32498	9624.025
2610.99557	9623.225
2613.66449	9642.025
2616.33175	9617.825
2618.99734	9616.425
2621.66128	9594.825
2624.32355	9625.825
2626.98416	9647.925
2629.64311	9638.625
2632.30041	9644.025
2634.95605	9638.225
2637.61004	9631.125
2640.26238	9616.225
2642.91306	9589.425
2645.56209	9573.725
2648.20948	9584.825
2650.85521	9558.725
2653.4993	9574.225
2656.14175	9577.625
2658.78255	9588.625
2661.42171	9570.225
2664.05923	9607.425
2666.6951	9585.225
2669.32934	9630.425
2671.96194	9600.625
2674.59291	9641.925
2677.22224	9601.825
2679.84993	9604.125
2682.476	9586.025
2685.10043	9593.725
2687.72324	9578.525
2690.34441	9582.925
2692.96396	9564.125
2695.58188	9568.425
2698.19818	9570.425
2700.81285	9590.925
2703.4259	9589.025
2706.03733	9646.125
2708.64714	9609.925
2711.25533	9605.725
2713.86191	9594.625
2716.46687	9610.425
2719.07021	9618.325
2721.67194	9636.425
2724.27206	9602.925
2726.87057	9625.325
2729.46747	9623.025
2732.06276	9631.325
2734.65644	9619.025
2737.24852	9609.425
2739.83899	9582.925
2742.42786	9595.325
2745.01513	9596.725
2747.60079	9581.525
2750.18486	9594.225
2752.76733	9580.025
2755.3482	9602.025
2757.92747	9625.925
2760.50515	9602.625
2763.08123	9581.525
2765.65573	9583.125
2768.22863	9600.525
2770.79994	9608.025
2773.36967	9617.525
2775.9378	9603.825
2778.50435	9619.825
2781.06932	9595.725
2783.6327	9613.425
2786.1945	9591.525
2788.75471	9592.325
2791.31335	9573.125
2793.87041	9559.125
2796.42589	9539.025
2798.97979	9563.125
2801.53212	9533.125
2804.08288	9535.625
2806.63206	9519.125
2809.17967	9493.225
2811.72571	9451.625
2814.27018	9457.625
2816.81308	9482.525
2819.35442	9478.225
2821.89419	9439.225
2824.43239	9455.625
2826.96904	9458.625
2829.50412	9450.825
2832.03763	9412.525
2834.56959	9414.325
2837.1	9427.325
2839.62884	9421.025
2842.15613	9420.825
2844.68186	9421.525
2847.20604	9452.025
2849.72867	9454.525
2852.24974	9454.725
2854.76927	9442.825
2857.28724	9460.625
2859.80367	9430.325
2862.31855	9414.425
2864.83189	9400.225
2867.34368	9392.225
2869.85393	9386.125
2872.36264	9373.225
2874.8698	9380.225
2877.37543	9381.425
2879.87952	9390.225
2882.38207	9397.025
2884.88308	9407.925
2887.38256	9402.425
2889.88051	9415.825
2892.37692	9424.225
2894.8718	9416.025
2897.36515	9431.225
2899.85698	9422.525
2902.34727	9444.225
2904.83604	9451.025
2907.32328	9454.225
2909.809	9449.825
2912.29319	9466.125
2914.77587	9467.925
2917.25702	9469.225
2919.73665	9467.925
2922.21476	9471.125
2924.69136	9448.925
2927.16644	9449.925
2929.64	9423.925
2932.11205	9445.025
2934.58258	9387.425
2937.05161	9391.125
2939.51912	9380.025
2941.98513	9386.025
2944.44962	9351.425
2946.91261	9327.125
2949.37409	9315.825
2951.83407	9305.725
2954.29254	9278.525
2956.74951	9272.325
2959.20498	9271.225
2961.65895	9234.125
2964.11142	9199.525
2966.56239	9186.425
2969.01186	9161.925
2971.45984	9121.425
2973.90632	9118.125
2976.35131	9062.525
2978.7948	9044.025
2981.23681	9015.725
2983.67732	9000.425
2986.11635	8991.625
2988.55388	8964.725
2990.98993	8929.425
2993.4245	8906.125
2995.85758	8893.625
2998.28917	8895.625
3000.71928	8865.625
3003.14791	8869.025
3005.57506	8832.725
3008.00073	8814.225
3010.42493	8815.425
3012.84764	8785.625
3015.26888	8787.325
3017.68865	8776.225
3020.10694	8750.025
3022.52376	8706.625
3024.9391	8711.325
3027.35298	8672.825
3029.76539	8677.225
3032.17632	8638.025
3034.5858	8637.225
3036.9938	8621.425
3039.40034	8611.825
3041.80542	8601.325
3044.20903	8598.925
3046.61118	8602.625
3049.01187	8546.025
3051.4111	8576.525
3053.80888	8545.125
3056.20519	8519.225
3058.60005	8494.925
3060.99345	8464.125
3063.3854	8441.325
3065.7759	8424.925
3068.16494	8396.325
3070.55254	8347.325
3072.93868	8340.925
3075.32338	8319.325
3077.70662	8315.025
3080.08842	8268.025
3082.46878	8266.525
3084.84769	8247.525
3087.22515	8236.125
3089.60118	8246.025
3091.97576	8236.825
3094.3489	8221.625
3096.72061	8225.425
3099.09087	8222.225
3101.4597	8192.225
3103.82709	8203.825
3106.19305	8159.825
3108.55757	8168.225
3110.92066	8129.925
3113.28232	8116.925
3115.64255	8104.225
3118.00134	8076.925
3120.35871	8081.925
3122.71466	8049.825
3125.06917	8046.825
3127.42226	8026.425
3129.77393	8036.225
3132.12417	8018.625
3134.47299	8019.025
3136.82039	8013.525
3139.16636	8002.325
3141.51092	8012.425
3143.85406	7994.825
3146.19579	7985.225
3148.53609	8012.325
3150.87499	7993.625
3153.21246	7990.525
3155.54853	7995.825
3157.88318	7977.525
3160.21642	7977.925
3162.54826	7973.825
