Data from AgNPs_FTO_APTES_UA_20um_CRN_0.1mM_R6G_10uM_NaF_0.1M_Addition_RamanShift__7__14-24-29-177.txt Node

Date: Tue Dec 21 14:24:29 GMT 2021
User: TCL
Spectrometer: QEP01345
Trigger mode: 4
Integration Time (sec): 7.000000E0
Scans to average: 10
Electric dark correction enabled: true
Nonlinearity correction enabled: false
Boxcar width: 0
XAxis mode: Raman Shifts
Number of Pixels in Spectrum: 1044
>>>>>Begin Spectral Data<<<<<
46.04893	-0.225
50.45542	-0.925
54.85868	-0.825
59.25871	0.075
63.6555	41.975
68.04907	47.475
72.43941	47.875
76.82654	52.175
81.21044	56.375
85.59113	58.475
89.96862	59.375
94.34289	62.175
98.71396	61.475
103.08183	65.875
107.4465	71.875
111.80798	71.275
116.16626	71.875
120.52136	73.975
124.87327	74.775
129.222	71.975
133.56755	80.675
137.90993	89.375
142.24913	91.575
146.58517	101.075
150.91804	119.275
155.24774	135.675
159.57429	169.475
163.89768	214.075
168.21792	278.975
172.53501	376.875
176.84895	520.775
181.15975	740.975
185.46741	1015.775
189.77193	1402.075
194.07331	1886.475
198.37157	2432.675
202.6667	3013.675
206.9587	3607.775
211.24758	4186.975
215.53334	4780.175
219.81599	5374.175
224.09553	6059.575
228.37195	6804.875
232.64527	7601.575
236.91549	8470.475
241.18261	9306.475
245.44663	10085.275
249.70755	10765.075
253.96539	11354.175
258.22014	11817.375
262.4718	12195.575
266.72039	12488.675
270.96589	12601.875
275.20832	12614.575
279.44768	12518.475
283.68397	12376.175
287.91719	12295.175
292.14735	12224.175
296.37445	12233.975
300.59849	12272.975
304.81948	12364.975
309.03742	12410.875
313.25231	12331.375
317.46415	12090.375
321.67296	11764.475
325.87872	11416.675
330.08145	11257.575
334.28114	11192.975
338.47781	11265.175
342.67145	11383.575
346.86207	11575.875
351.04966	11787.375
355.23424	11981.775
359.4158	12187.975
363.59435	12288.375
367.76989	12410.375
371.94243	12421.975
376.11196	12457.375
380.27849	12489.275
384.44203	12565.175
388.60257	12695.775
392.76012	12789.275
396.91468	13011.875
401.06626	13217.475
405.21485	13338.875
409.36047	13286.275
413.50311	13083.975
417.64277	12892.175
421.77947	12788.375
425.9132	12853.675
430.04396	12893.475
434.17176	12936.675
438.2966	13000.175
442.41849	13152.275
446.53742	13428.375
450.6534	13779.175
454.76644	14011.275
458.87653	14064.275
462.98368	14076.475
467.08789	13954.075
471.18916	13837.175
475.2875	13709.275
479.38291	13630.775
483.4754	13593.675
487.56496	13478.775
491.6516	13233.775
495.73531	13020.775
499.81612	12930.075
503.89401	12937.675
507.96899	12947.675
512.04106	12925.175
516.11023	12881.975
520.1765	12757.975
524.23987	12658.875
528.30034	12576.775
532.35792	12461.775
536.41261	12321.575
540.46441	12196.075
544.51333	12183.275
548.55936	12277.775
552.60252	12535.475
556.64279	12841.675
560.6802	13064.175
564.71473	13181.875
568.7464	13373.175
572.7752	13792.075
576.80114	14162.975
580.82422	14503.075
584.84444	14889.275
588.86181	15330.375
592.87633	15744.075
596.888	15698.775
600.89682	15176.475
604.9028	15063.375
608.90594	16029.775
612.90624	17325.875
616.90371	16434.975
620.89834	13755.375
624.89015	12451.275
628.87913	12270.175
632.86528	12436.775
636.84862	12541.875
640.82913	12414.575
644.80683	12086.275
648.78172	11840.475
652.75379	11782.375
656.72306	11877.375
660.68952	12070.275
664.65319	12022.975
668.61405	11826.475
672.57211	11808.775
676.52738	11821.475
680.47986	11863.175
684.42955	11816.175
688.37646	11726.475
692.32058	11742.175
696.26192	11777.675
700.20048	11913.875
704.13626	12032.875
708.06928	12083.675
711.99952	12040.075
715.927	11996.075
719.85171	11992.775
723.77365	11926.375
727.69284	11806.675
731.60928	11657.275
735.52295	11592.275
739.43388	11595.675
743.34206	11611.175
747.24749	11676.775
751.15017	11801.175
755.05012	11959.975
758.94733	12304.975
762.8418	12922.275
766.73354	13933.475
770.62254	14909.875
774.50882	15241.375
778.39237	14604.775
782.27321	13507.875
786.15132	12608.975
790.02671	11975.775
793.89938	11683.675
797.76935	11541.275
801.6366	11467.375
805.50115	11445.775
809.36299	11353.175
813.22213	11275.075
817.07857	11246.675
820.93231	11191.075
824.78336	11116.275
828.63172	11061.375
832.47738	11015.375
836.32036	11020.075
840.16066	11000.475
843.99827	10975.575
847.8332	10921.575
851.66546	10925.475
855.49504	10896.875
859.32195	10901.575
863.1462	10866.075
866.96777	10872.475
870.78668	10854.075
874.60293	10879.175
878.41652	10866.975
882.22745	10893.275
886.03573	10926.575
889.84136	10970.475
893.64433	10931.075
897.44466	10892.175
901.24235	10831.175
905.0374	10757.775
908.8298	10722.675
912.61957	10669.775
916.40671	10811.075
920.19121	10910.375
923.97308	11010.575
927.75233	11034.975
931.52895	10965.975
935.30295	10793.775
939.07433	10577.975
942.84309	10393.975
946.60924	10310.275
950.37278	10236.175
954.13371	10265.275
957.89203	10260.275
961.64774	10243.975
965.40086	10241.475
969.15137	10191.575
972.89929	10137.075
976.64461	10071.975
980.38733	10045.375
984.12747	10039.775
987.86502	10072.975
991.59999	10099.675
995.33237	10181.775
999.06217	10330.075
1002.78939	10487.875
1006.51404	10694.275
1010.23611	10875.275
1013.95561	11036.775
1017.67255	11073.475
1021.38692	11009.575
1025.09872	10819.575
1028.80796	10671.075
1032.51465	10598.275
1036.21877	10614.875
1039.92035	10668.375
1043.61937	10757.275
1047.31584	10763.175
1051.00976	10829.375
1054.70114	10847.175
1058.38998	10884.975
1062.07627	10964.775
1065.76003	11101.275
1069.44126	11261.575
1073.11995	11455.075
1076.79611	11597.375
1080.46974	11694.375
1084.14085	11730.275
1087.80943	11813.675
1091.47549	11921.375
1095.13903	11968.175
1098.80005	11855.875
1102.45857	11546.775
1106.11456	11266.875
1109.76805	11126.575
1113.41903	11100.375
1117.06751	11162.075
1120.71348	11336.275
1124.35696	11520.075
1127.99793	11759.375
1131.63641	11868.775
1135.2724	11840.875
1138.90589	11731.975
1142.5369	11700.275
1146.16542	11745.275
1149.79145	11838.475
1153.415	11910.175
1157.03607	12040.175
1160.65467	12292.375
1164.27079	12806.975
1167.88443	13498.475
1171.49561	14299.375
1175.10432	15300.475
1178.71056	16595.075
1182.31434	17760.575
1185.91565	18321.075
1189.51451	18229.375
1193.11091	17744.475
1196.70485	17053.775
1200.29634	16299.575
1203.88538	15714.775
1207.47197	15343.075
1211.05612	15016.575
1214.63782	14708.475
1218.21708	14302.275
1221.79391	13932.275
1225.36829	13725.375
1228.94024	13595.575
1232.50976	13441.975
1236.07685	13295.175
1239.6415	13169.775
1243.20374	13140.175
1246.76355	13194.975
1250.32093	13334.475
1253.8759	13602.175
1257.42845	13973.075
1260.97859	14404.375
1264.52631	14834.275
1268.07163	15174.675
1271.61453	15604.875
1275.15503	15971.475
1278.69312	16393.675
1282.22882	16892.575
1285.76211	17483.775
1289.29301	18204.675
1292.82151	19081.875
1296.34761	20047.475
1299.87133	21105.675
1303.39266	22201.775
1306.9116	23225.375
1310.42815	24119.075
1313.94233	24590.075
1317.45412	24501.775
1320.96354	24019.475
1324.47058	23534.475
1327.97525	23185.175
1331.47754	22895.675
1334.97747	22654.875
1338.47502	22420.975
1341.97022	22260.875
1345.46305	22112.875
1348.95352	22042.175
1352.44163	22217.275
1355.92738	22770.875
1359.41078	23727.675
1362.89183	24729.575
1366.37053	24641.775
1369.84688	22801.975
1373.32088	20268.575
1376.79254	18422.375
1380.26186	17629.875
1383.72883	17435.075
1387.19347	17312.775
1390.65578	17070.275
1394.11575	16934.075
1397.57339	16989.675
1401.0287	17114.675
1404.48168	17224.275
1407.93234	17068.075
1411.38068	16696.975
1414.82669	16142.475
1418.27039	15547.175
1421.71177	14939.475
1425.15083	14424.175
1428.58758	14176.975
1432.02203	14244.475
1435.45416	14488.375
1438.88399	14878.375
1442.31151	15169.875
1445.73673	15335.875
1449.15965	15506.175
1452.58027	15648.175
1455.9986	15709.275
1459.41463	15805.075
1462.82837	16034.675
1466.23982	16278.975
1469.64898	16564.175
1473.05586	16724.675
1476.46045	16774.975
1479.86276	16720.675
1483.26279	16648.275
1486.66054	16735.075
1490.05602	16941.975
1493.44922	17257.675
1496.84016	17720.875
1500.22882	18369.275
1503.61521	19180.975
1506.99934	20078.375
1510.38121	20768.575
1513.76081	20894.875
1517.13816	20368.275
1520.51324	19443.075
1523.88607	18663.875
1527.25665	18216.475
1530.62498	18002.775
1533.99105	17788.175
1537.35488	17471.675
1540.71647	16971.075
1544.07581	16426.475
1547.4329	15882.875
1550.78776	15470.075
1554.14038	15177.075
1557.49077	15040.375
1560.83892	15060.875
1564.18484	15177.375
1567.52853	15332.375
1570.86999	15565.175
1574.20922	15877.875
1577.54624	16125.075
1580.88103	16126.075
1584.2136	16023.675
1587.54395	16129.775
1590.87208	16617.975
1594.19801	17408.375
1597.52172	18248.175
1600.84321	18529.575
1604.16251	17833.775
1607.47959	16550.775
1610.79447	15167.875
1614.10715	13931.875
1617.41763	12907.075
1620.7259	12180.375
1624.03199	11811.975
1627.33587	11774.975
1630.63757	12019.775
1633.93707	12678.675
1637.23439	13935.875
1640.52951	15769.775
1643.82246	18089.375
1647.11321	20193.475
1650.40179	20984.475
1653.68819	19894.075
1656.97241	17444.475
1660.25446	14801.675
1663.53433	12752.075
1666.81203	11399.875
1670.08756	10583.875
1673.36092	10068.575
1676.63211	9708.575
1679.90115	9467.475
1683.16801	9276.675
1686.43272	9155.375
1689.69527	9047.775
1692.95567	8951.975
1696.2139	8908.275
1699.46999	8850.075
1702.72392	8817.775
1705.97571	8774.975
1709.22535	8720.575
1712.47284	8673.675
1715.71819	8631.875
1718.96139	8622.575
1722.20246	8574.675
1725.44139	8524.975
1728.67818	8471.975
1731.91284	8416.075
1735.14537	8363.275
1738.37576	8322.075
1741.60403	8298.375
1744.83017	8273.075
1748.05418	8247.675
1751.27607	8239.875
1754.49584	8253.575
1757.71349	8262.575
1760.92903	8244.675
1764.14244	8236.475
1767.35375	8208.775
1770.56294	8160.375
1773.77002	8121.075
1776.97499	8104.875
1780.17785	8056.975
1783.37861	8036.875
1786.57727	7998.775
1789.77382	7979.275
1792.96828	7971.775
1796.16064	7935.275
1799.3509	7926.375
1802.53907	7884.675
1805.72514	7848.175
1808.90913	7819.175
1812.09102	7818.975
1815.27083	7791.875
1818.44856	7760.175
1821.6242	7775.675
1824.79776	7767.175
1827.96924	7732.875
1831.13864	7747.175
1834.30597	7741.375
1837.47122	7710.975
1840.6344	7719.075
1843.7955	7710.675
1846.95454	7709.175
1850.11151	7689.275
1853.26642	7687.675
1856.41926	7675.475
1859.57004	7676.175
1862.71876	7644.275
1865.86542	7630.675
1869.01003	7618.775
1872.15258	7614.875
1875.29308	7600.575
1878.43152	7582.275
1881.56792	7565.275
1884.70227	7548.175
1887.83457	7556.075
1890.96482	7529.775
1894.09304	7524.675
1897.21921	7513.675
1900.34335	7507.475
1903.46544	7477.075
1906.58551	7461.575
1909.70353	7447.075
1912.81953	7432.975
1915.93349	7411.075
1919.04543	7416.275
1922.15534	7395.275
1925.26322	7358.675
1928.36908	7326.375
1931.47292	7311.375
1934.57473	7307.175
1937.67453	7270.475
1940.77232	7251.875
1943.86808	7241.575
1946.96184	7214.375
1950.05358	7201.275
1953.14331	7162.575
1956.23103	7151.575
1959.31675	7122.975
1962.40046	7108.175
1965.48217	7074.475
1968.56188	7045.375
1971.63959	7029.875
1974.7153	7019.675
1977.78901	7001.075
1980.86073	6987.875
1983.93046	6925.675
1986.99819	6909.675
1990.06394	6887.675
1993.1277	6886.175
1996.18947	6858.175
1999.24925	6838.275
2002.30706	6832.375
2005.36288	6792.075
2008.41672	6737.075
2011.46859	6720.175
2014.51848	6727.175
2017.56639	6676.475
2020.61233	6671.775
2023.6563	6658.975
2026.6983	6641.775
2029.73833	6618.775
2032.7764	6604.775
2035.8125	6587.275
2038.84664	6586.475
2041.87881	6540.475
2044.90903	6548.175
2047.93729	6532.975
2050.96359	6522.275
2053.98794	6520.575
2057.01034	6501.375
2060.03078	6502.175
2063.04927	6494.875
2066.06582	6470.775
2069.08042	6477.375
2072.09307	6474.175
2075.10378	6452.075
2078.11255	6447.675
2081.11938	6468.575
2084.12426	6444.175
2087.12722	6440.275
2090.12824	6451.875
2093.12732	6444.975
2096.12447	6430.675
2099.11969	6430.575
2102.11299	6411.775
2105.10435	6421.975
2108.09379	6437.675
2111.08131	6453.575
2114.0669	6447.075
2117.05057	6461.875
2120.03233	6445.475
2123.01216	6438.775
2125.99008	6427.375
2128.96609	6437.175
2131.94018	6435.575
2134.91236	6434.075
2137.88263	6450.075
2140.851	6436.575
2143.81746	6455.875
2146.78201	6416.775
2149.74466	6414.175
2152.7054	6434.875
2155.66425	6397.175
2158.6212	6414.475
2161.57625	6407.375
2164.52941	6407.175
2167.48067	6406.275
2170.43004	6384.975
2173.37752	6388.575
2176.32311	6399.575
2179.26681	6400.575
2182.20863	6374.575
2185.14856	6392.675
2188.08661	6376.775
2191.02278	6372.975
2193.95707	6372.575
2196.88948	6358.275
2199.82001	6342.175
2202.74867	6354.875
2205.67545	6337.775
2208.60037	6325.675
2211.52341	6308.275
2214.44458	6289.975
2217.36388	6282.875
2220.28132	6268.575
2223.1969	6242.875
2226.11061	6246.775
2229.02246	6224.875
2231.93245	6222.675
2234.84058	6200.075
2237.74686	6196.775
2240.65128	6181.275
2243.55385	6186.475
2246.45456	6169.975
2249.35343	6142.175
2252.25044	6144.275
2255.14561	6118.175
2258.03893	6116.775
2260.93041	6105.175
2263.82004	6091.175
2266.70783	6075.175
2269.59378	6061.675
2272.4779	6050.675
2275.36017	6011.475
2278.24061	6021.175
2281.11922	6016.675
2283.996	5988.475
2286.87094	5977.375
2289.74405	5961.075
2292.61534	5953.375
2295.4848	5926.775
2298.35243	5937.875
2301.21824	5933.575
2304.08223	5933.875
2306.94439	5935.775
2309.80474	5927.375
2312.66327	5902.975
2315.51999	5895.975
2318.37489	5899.275
2321.22797	5893.475
2324.07925	5881.375
2326.92871	5874.175
2329.77637	5876.975
2332.62222	5866.275
2335.46626	5859.775
2338.3085	5827.575
2341.14893	5835.275
2343.98756	5832.675
2346.8244	5817.675
2349.65943	5837.075
2352.49267	5829.675
2355.32411	5819.075
2358.15376	5818.075
2360.98161	5814.975
2363.80768	5835.475
2366.63195	5821.975
2369.45444	5796.975
2372.27514	5799.475
2375.09405	5786.975
2377.91118	5789.175
2380.72652	5767.975
2383.54009	5724.175
2386.35187	5725.775
2389.16188	5702.575
2391.97011	5688.875
2394.77657	5686.275
2397.58125	5676.075
2400.38416	5672.175
2403.18529	5653.975
2405.98466	5643.175
2408.78226	5632.275
2411.57809	5628.175
2414.37216	5619.875
2417.16446	5630.375
2419.955	5599.775
2422.74378	5594.875
2425.5308	5605.475
2428.31606	5596.375
2431.09956	5588.175
2433.88131	5572.775
2436.6613	5567.075
2439.43954	5579.375
2442.21603	5565.975
2444.99077	5568.675
2447.76377	5571.475
2450.53501	5551.875
2453.30451	5562.575
2456.07226	5551.875
2458.83827	5570.675
2461.60254	5533.575
2464.36507	5543.575
2467.12586	5535.375
2469.88492	5530.775
2472.64224	5529.375
2475.39782	5557.275
2478.15167	5543.575
2480.90379	5537.475
2483.65417	5541.575
2486.40283	5524.075
2489.14976	5517.775
2491.89497	5508.475
2494.63845	5517.175
2497.3802	5506.275
2500.12024	5506.775
2502.85855	5498.775
2505.59514	5506.075
2508.33002	5501.075
2511.06318	5478.375
2513.79462	5481.375
2516.52435	5464.875
2519.25237	5473.675
2521.97867	5455.875
2524.70327	5430.975
2527.42616	5433.875
2530.14734	5423.175
2532.86681	5423.475
2535.58458	5416.675
2538.30065	5388.375
2541.01501	5417.475
2543.72768	5396.675
2546.43864	5392.275
2549.14791	5384.075
2551.85548	5390.375
2554.56136	5368.675
2557.26554	5364.275
2559.96803	5355.075
2562.66883	5341.475
2565.36794	5339.275
2568.06536	5318.475
2570.7611	5343.375
2573.45514	5331.175
2576.14751	5327.975
2578.83819	5294.675
2581.52719	5292.075
2584.21451	5292.975
2586.90015	5269.075
2589.58411	5273.775
2592.2664	5283.775
2594.94701	5247.175
2597.62594	5266.975
2600.30321	5252.875
2602.9788	5238.075
2605.65273	5234.775
2608.32498	5240.375
2610.99557	5226.275
2613.66449	5219.675
2616.33175	5209.975
2618.99734	5221.675
2621.66128	5206.175
2624.32355	5218.475
2626.98416	5190.975
2629.64311	5193.775
2632.30041	5191.775
2634.95605	5173.375
2637.61004	5161.975
2640.26238	5181.275
2642.91306	5164.675
2645.56209	5162.275
2648.20948	5168.075
2650.85521	5171.475
2653.4993	5167.475
2656.14175	5163.575
2658.78255	5161.375
2661.42171	5167.875
2664.05923	5174.075
2666.6951	5161.675
2669.32934	5179.675
2671.96194	5178.175
2674.59291	5154.875
2677.22224	5163.075
2679.84993	5169.775
2682.476	5155.075
2685.10043	5162.775
2687.72324	5158.375
2690.34441	5162.175
2692.96396	5138.575
2695.58188	5145.975
2698.19818	5177.475
2700.81285	5156.875
2703.4259	5176.975
2706.03733	5216.275
2708.64714	5172.575
2711.25533	5169.875
2713.86191	5161.575
2716.46687	5166.875
2719.07021	5171.275
2721.67194	5152.975
2724.27206	5159.575
2726.87057	5173.775
2729.46747	5161.375
2732.06276	5143.375
2734.65644	5157.975
2737.24852	5162.575
2739.83899	5124.475
2742.42786	5143.875
2745.01513	5129.475
2747.60079	5130.375
2750.18486	5112.675
2752.76733	5133.075
2755.3482	5117.975
2757.92747	5095.575
2760.50515	5104.175
2763.08123	5098.675
2765.65573	5095.175
2768.22863	5104.875
2770.79994	5095.075
2773.36967	5098.375
2775.9378	5075.575
2778.50435	5084.975
2781.06932	5064.775
2783.6327	5079.875
2786.1945	5072.775
2788.75471	5047.975
2791.31335	5053.675
2793.87041	5050.875
2796.42589	5019.875
2798.97979	5022.075
2801.53212	5020.575
2804.08288	5003.175
2806.63206	5001.675
2809.17967	4995.475
2811.72571	4989.275
2814.27018	4985.275
2816.81308	4980.975
2819.35442	4979.675
2821.89419	4970.475
2824.43239	4944.775
2826.96904	4953.175
2829.50412	4952.375
2832.03763	4936.375
2834.56959	4960.075
2837.1	4943.375
2839.62884	4963.775
2842.15613	4951.375
2844.68186	4979.875
2847.20604	4984.175
2849.72867	4977.375
2852.24974	4992.975
2854.76927	4985.575
2857.28724	4984.675
2859.80367	4944.775
2862.31855	4940.175
2864.83189	4927.375
2867.34368	4933.975
2869.85393	4942.675
2872.36264	4925.475
2874.8698	4928.575
2877.37543	4919.975
2879.87952	4930.175
2882.38207	4933.275
2884.88308	4923.275
2887.38256	4922.675
2889.88051	4932.075
2892.37692	4931.375
2894.8718	4918.875
2897.36515	4923.075
2899.85698	4929.775
2902.34727	4917.975
2904.83604	4929.175
2907.32328	4922.775
2909.809	4926.175
2912.29319	4947.875
2914.77587	4947.875
2917.25702	4944.175
2919.73665	4952.375
2922.21476	4938.775
2924.69136	4950.875
2927.16644	4955.875
2929.64	4933.575
2932.11205	4958.475
2934.58258	4906.075
2937.05161	4942.975
2939.51912	4936.875
2941.98513	4923.775
2944.44962	4928.775
2946.91261	4882.775
2949.37409	4887.875
2951.83407	4896.075
2954.29254	4881.075
2956.74951	4859.575
2959.20498	4856.275
2961.65895	4837.975
2964.11142	4834.475
2966.56239	4820.475
2969.01186	4799.475
2971.45984	4784.975
2973.90632	4786.175
2976.35131	4768.075
2978.7948	4764.475
2981.23681	4747.475
2983.67732	4731.375
2986.11635	4719.675
2988.55388	4696.475
2990.98993	4681.675
2993.4245	4683.175
2995.85758	4669.075
2998.28917	4655.475
3000.71928	4650.075
3003.14791	4647.675
3005.57506	4635.675
3008.00073	4637.175
3010.42493	4627.075
3012.84764	4615.775
3015.26888	4615.975
3017.68865	4602.575
3020.10694	4600.775
3022.52376	4570.275
3024.9391	4582.275
3027.35298	4579.075
3029.76539	4557.975
3032.17632	4537.875
3034.5858	4537.075
3036.9938	4538.875
3039.40034	4533.175
3041.80542	4523.675
3044.20903	4517.875
3046.61118	4498.475
3049.01187	4502.675
3051.4111	4492.375
3053.80888	4493.375
3056.20519	4480.275
3058.60005	4477.375
3060.99345	4479.775
3063.3854	4473.875
3065.7759	4458.375
3068.16494	4423.875
3070.55254	4418.975
3072.93868	4427.075
3075.32338	4402.275
3077.70662	4391.875
3080.08842	4388.175
3082.46878	4384.475
3084.84769	4374.275
3087.22515	4380.675
3089.60118	4391.775
3091.97576	4393.575
3094.3489	4377.875
3096.72061	4372.775
3099.09087	4382.475
3101.4597	4373.175
3103.82709	4365.575
3106.19305	4354.775
3108.55757	4354.075
3110.92066	4338.475
3113.28232	4337.575
3115.64255	4328.775
3118.00134	4320.075
3120.35871	4314.175
3122.71466	4313.975
3125.06917	4316.775
3127.42226	4287.575
3129.77393	4288.775
3132.12417	4300.575
3134.47299	4299.275
3136.82039	4282.575
3139.16636	4293.775
3141.51092	4306.375
3143.85406	4301.875
3146.19579	4310.975
3148.53609	4305.675
3150.87499	4306.175
3153.21246	4321.175
3155.54853	4321.775
3157.88318	4324.875
3160.21642	4306.175
3162.54826	4309.775
3164.87868	4313.175
3167.2077	4320.575
3169.5353	4312.075
3171.86151	4312.575
3174.18631	4311.275
3176.5097	4306.175
3178.83169	4306.175
3181.15228	4304.475
3183.47147	4302.975
3185.78926	4290.575
3188.10565	4298.675
3190.42065	4295.375
