Data from AgNPs_FTO_APTES_UA_0um_CRN_0.1mM_R6G_10uM_NaF_0.1M_Addition_RamanShift__23__10-38-08-919.txt Node

Date: Tue Dec 21 10:38:08 GMT 2021
User: TCL
Spectrometer: QEP01345
Trigger mode: 4
Integration Time (sec): 7.000000E0
Scans to average: 10
Electric dark correction enabled: true
Nonlinearity correction enabled: false
Boxcar width: 0
XAxis mode: Raman Shifts
Number of Pixels in Spectrum: 1044
>>>>>Begin Spectral Data<<<<<
46.04893	-0.875
50.45542	-0.275
54.85868	-0.275
59.25871	0.225
63.6555	17.925
68.04907	22.125
72.43941	23.525
76.82654	22.125
81.21044	28.825
85.59113	26.725
89.96862	29.425
94.34289	26.725
98.71396	29.025
103.08183	33.725
107.4465	33.225
111.80798	33.925
116.16626	31.225
120.52136	31.625
124.87327	31.225
129.222	30.525
133.56755	33.825
137.90993	35.325
142.24913	37.525
146.58517	36.125
150.91804	39.225
155.24774	44.925
159.57429	53.125
163.89768	64.325
168.21792	79.725
172.53501	101.425
176.84895	139.325
181.15975	189.725
185.46741	256.625
189.77193	353.925
194.07331	478.325
198.37157	618.725
202.6667	783.425
206.9587	949.625
211.24758	1102.525
215.53334	1268.725
219.81599	1420.925
224.09553	1586.325
228.37195	1769.325
232.64527	1940.925
236.91549	2129.725
241.18261	2295.025
245.44663	2449.025
249.70755	2602.525
253.96539	2710.725
258.22014	2800.825
262.4718	2825.925
266.72039	2799.325
270.96589	2754.825
275.20832	2671.825
279.44768	2596.625
283.68397	2527.725
287.91719	2453.525
292.14735	2404.025
296.37445	2414.325
300.59849	2448.525
304.81948	2527.725
309.03742	2588.825
313.25231	2589.725
317.46415	2502.625
321.67296	2342.025
325.87872	2217.325
330.08145	2156.925
334.28114	2136.425
338.47781	2175.925
342.67145	2229.825
346.86207	2308.125
351.04966	2419.725
355.23424	2529.925
359.4158	2658.025
363.59435	2724.025
367.76989	2740.025
371.94243	2741.425
376.11196	2739.825
380.27849	2746.925
384.44203	2701.125
388.60257	2661.925
392.76012	2649.025
396.91468	2649.625
401.06626	2678.725
405.21485	2708.125
409.36047	2686.525
413.50311	2581.725
417.64277	2479.025
421.77947	2425.325
425.9132	2395.525
430.04396	2395.625
434.17176	2445.125
438.2966	2498.425
442.41849	2585.825
446.53742	2669.125
450.6534	2769.225
454.76644	2801.925
458.87653	2803.325
462.98368	2756.225
467.08789	2706.625
471.18916	2616.025
475.2875	2545.125
479.38291	2496.025
483.4754	2432.525
487.56496	2407.425
491.6516	2370.225
495.73531	2368.925
499.81612	2369.025
503.89401	2387.025
507.96899	2399.725
512.04106	2439.525
516.11023	2479.225
520.1765	2504.625
524.23987	2506.125
528.30034	2475.325
532.35792	2437.325
536.41261	2411.525
540.46441	2373.825
544.51333	2347.725
548.55936	2339.025
552.60252	2361.525
556.64279	2389.125
560.6802	2416.025
564.71473	2453.325
568.7464	2530.125
572.7752	2610.125
576.80114	2552.625
580.82422	2459.825
584.84444	2383.425
588.86181	2365.525
592.87633	2412.425
596.888	2463.025
600.89682	2565.425
604.9028	2830.425
608.90594	3473.425
612.90624	4322.525
616.90371	4322.125
620.89834	3228.625
624.89015	2625.925
628.87913	2474.825
632.86528	2484.625
636.84862	2529.725
640.82913	2558.925
644.80683	2532.825
648.78172	2481.225
652.75379	2478.325
656.72306	2530.525
660.68952	2601.425
664.65319	2572.825
668.61405	2459.125
672.57211	2436.725
676.52738	2497.525
680.47986	2556.625
684.42955	2549.825
688.37646	2522.925
692.32058	2554.325
696.26192	2611.025
700.20048	2693.525
704.13626	2697.225
708.06928	2622.525
711.99952	2500.425
715.927	2420.425
719.85171	2384.925
723.77365	2386.025
727.69284	2377.725
731.60928	2390.625
735.52295	2399.025
739.43388	2399.525
743.34206	2391.525
747.24749	2374.725
751.15017	2395.125
755.05012	2411.625
758.94733	2487.625
762.8418	2625.025
766.73354	2884.925
770.62254	3203.525
774.50882	3428.125
778.39237	3402.625
782.27321	3055.425
786.15132	2648.425
790.02671	2422.125
793.89938	2332.425
797.76935	2281.625
801.6366	2277.025
805.50115	2265.125
809.36299	2274.525
813.22213	2233.825
817.07857	2224.025
820.93231	2217.625
824.78336	2228.125
828.63172	2235.725
832.47738	2227.625
836.32036	2218.125
840.16066	2214.525
843.99827	2214.925
847.8332	2238.825
851.66546	2273.625
855.49504	2345.625
859.32195	2409.125
863.1462	2456.125
866.96777	2431.725
870.78668	2339.325
874.60293	2290.925
878.41652	2252.725
882.22745	2228.425
886.03573	2211.225
889.84136	2209.725
893.64433	2167.025
897.44466	2188.425
901.24235	2182.125
905.0374	2177.725
908.8298	2179.225
912.61957	2188.225
916.40671	2240.425
920.19121	2324.325
923.97308	2407.925
927.75233	2511.425
931.52895	2581.125
935.30295	2556.625
939.07433	2455.725
942.84309	2320.725
946.60924	2221.625
950.37278	2142.825
954.13371	2090.525
957.89203	2059.525
961.64774	2030.125
965.40086	2030.325
969.15137	2006.825
972.89929	1995.525
976.64461	1974.825
980.38733	1984.525
984.12747	1997.325
987.86502	1988.625
991.59999	1980.125
995.33237	1978.125
999.06217	1999.125
1002.78939	2015.825
1006.51404	2039.425
1010.23611	2061.625
1013.95561	2091.525
1017.67255	2091.625
1021.38692	2078.625
1025.09872	2066.625
1028.80796	2046.025
1032.51465	2066.125
1036.21877	2087.325
1039.92035	2122.625
1043.61937	2154.425
1047.31584	2161.525
1051.00976	2156.425
1054.70114	2128.725
1058.38998	2088.025
1062.07627	2069.025
1065.76003	2044.425
1069.44126	2029.425
1073.11995	2016.625
1076.79611	2048.125
1080.46974	2085.825
1084.14085	2129.125
1087.80943	2164.525
1091.47549	2175.825
1095.13903	2142.825
1098.80005	2079.325
1102.45857	2024.525
1106.11456	2012.925
1109.76805	2036.525
1113.41903	2083.125
1117.06751	2165.125
1120.71348	2242.025
1124.35696	2350.825
1127.99793	2424.725
1131.63641	2428.525
1135.2724	2319.425
1138.90589	2214.525
1142.5369	2150.125
1146.16542	2090.525
1149.79145	2060.225
1153.415	2041.125
1157.03607	2051.625
1160.65467	2075.325
1164.27079	2121.425
1167.88443	2187.225
1171.49561	2312.225
1175.10432	2524.225
1178.71056	2838.825
1182.31434	3095.625
1185.91565	3209.625
1189.51451	3122.925
1193.11091	2967.425
1196.70485	2791.725
1200.29634	2627.725
1203.88538	2499.325
1207.47197	2340.925
1211.05612	2214.025
1214.63782	2123.625
1218.21708	2105.125
1221.79391	2092.525
1225.36829	2081.125
1228.94024	2065.125
1232.50976	2076.425
1236.07685	2078.525
1239.6415	2109.325
1243.20374	2146.825
1246.76355	2156.725
1250.32093	2189.625
1253.8759	2215.125
1257.42845	2285.525
1260.97859	2360.725
1264.52631	2436.625
1268.07163	2504.525
1271.61453	2546.025
1275.15503	2561.725
1278.69312	2547.525
1282.22882	2522.425
1285.76211	2527.825
1289.29301	2598.025
1292.82151	2678.725
1296.34761	2758.725
1299.87133	2860.925
1303.39266	3027.425
1306.9116	3296.625
1310.42815	3649.125
1313.94233	3863.025
1317.45412	3796.825
1320.96354	3505.625
1324.47058	3186.425
1327.97525	2900.225
1331.47754	2746.125
1334.97747	2712.425
1338.47502	2782.525
1341.97022	2891.025
1345.46305	3048.625
1348.95352	3264.425
1352.44163	3574.725
1355.92738	4009.725
1359.41078	4602.425
1362.89183	5165.225
1366.37053	5139.625
1369.84688	4459.225
1373.32088	3751.925
1376.79254	3250.825
1380.26186	2990.325
1383.72883	2814.625
1387.19347	2686.125
1390.65578	2548.725
1394.11575	2456.825
1397.57339	2418.925
1401.0287	2427.725
1404.48168	2457.525
1407.93234	2516.625
1411.38068	2578.825
1414.82669	2662.325
1418.27039	2736.525
1421.71177	2777.925
1425.15083	2792.625
1428.58758	2791.625
1432.02203	2787.725
1435.45416	2780.525
1438.88399	2746.825
1442.31151	2647.925
1445.73673	2611.425
1449.15965	2556.825
1452.58027	2502.125
1455.9986	2426.725
1459.41463	2378.825
1462.82837	2362.525
1466.23982	2371.725
1469.64898	2418.825
1473.05586	2459.725
1476.46045	2491.125
1479.86276	2516.625
1483.26279	2561.625
1486.66054	2579.425
1490.05602	2622.625
1493.44922	2664.225
1496.84016	2754.425
1500.22882	2944.525
1503.61521	3264.025
1506.99934	3681.425
1510.38121	4110.325
1513.76081	4299.325
1517.13816	4123.225
1520.51324	3598.925
1523.88607	3069.225
1527.25665	2718.225
1530.62498	2528.725
1533.99105	2431.525
1537.35488	2375.425
1540.71647	2361.025
1544.07581	2356.725
1547.4329	2351.625
1550.78776	2357.625
1554.14038	2352.025
1557.49077	2374.925
1560.83892	2403.925
1564.18484	2446.025
1567.52853	2528.325
1570.86999	2623.725
1574.20922	2684.325
1577.54624	2678.225
1580.88103	2555.225
1584.2136	2381.825
1587.54395	2240.425
1590.87208	2226.325
1594.19801	2307.725
1597.52172	2465.625
1600.84321	2573.925
1604.16251	2552.425
1607.47959	2415.125
1610.79447	2259.125
1614.10715	2118.625
1617.41763	2005.925
1620.7259	1960.325
1624.03199	1965.525
1627.33587	1972.725
1630.63757	2006.525
1633.93707	2067.525
1637.23439	2166.225
1640.52951	2332.825
1643.82246	2592.025
1647.11321	2905.625
1650.40179	3145.025
1653.68819	3117.825
1656.97241	2776.725
1660.25446	2356.125
1663.53433	2075.125
1666.81203	1899.525
1670.08756	1813.625
1673.36092	1726.325
1676.63211	1686.825
1679.90115	1633.225
1683.16801	1597.825
1686.43272	1546.625
1689.69527	1521.425
1692.95567	1500.125
1696.2139	1480.525
1699.46999	1475.025
1702.72392	1466.925
1705.97571	1459.325
1709.22535	1469.625
1712.47284	1491.625
1715.71819	1500.825
1718.96139	1506.225
1722.20246	1504.525
1725.44139	1495.725
1728.67818	1485.625
1731.91284	1465.425
1735.14537	1435.025
1738.37576	1420.425
1741.60403	1402.025
1744.83017	1396.825
1748.05418	1403.825
1751.27607	1378.825
1754.49584	1354.825
1757.71349	1325.825
1760.92903	1308.225
1764.14244	1273.825
1767.35375	1260.225
1770.56294	1239.825
1773.77002	1234.325
1776.97499	1225.025
1780.17785	1217.325
1783.37861	1210.325
1786.57727	1206.425
1789.77382	1192.625
1792.96828	1191.625
1796.16064	1176.825
1799.3509	1173.325
1802.53907	1171.325
1805.72514	1163.025
1808.90913	1151.125
1812.09102	1145.825
1815.27083	1143.625
1818.44856	1136.325
1821.6242	1137.025
1824.79776	1128.025
1827.96924	1128.325
1831.13864	1128.525
1834.30597	1130.725
1837.47122	1121.425
1840.6344	1115.325
1843.7955	1107.025
1846.95454	1114.525
1850.11151	1103.625
1853.26642	1105.825
1856.41926	1103.325
1859.57004	1104.125
1862.71876	1096.725
1865.86542	1092.125
1869.01003	1087.225
1872.15258	1092.125
1875.29308	1084.325
1878.43152	1082.425
1881.56792	1082.925
1884.70227	1082.825
1887.83457	1085.825
1890.96482	1082.325
1894.09304	1074.825
1897.21921	1069.925
1900.34335	1062.325
1903.46544	1070.725
1906.58551	1061.225
1909.70353	1070.425
1912.81953	1056.425
1915.93349	1059.125
1919.04543	1061.925
1922.15534	1052.825
1925.26322	1053.025
1928.36908	1046.225
1931.47292	1039.125
1934.57473	1037.325
1937.67453	1039.125
1940.77232	1027.925
1943.86808	1024.125
1946.96184	1028.625
1950.05358	1019.825
1953.14331	1020.325
1956.23103	1001.725
1959.31675	1011.525
1962.40046	1002.925
1965.48217	995.525
1968.56188	994.925
1971.63959	986.425
1974.7153	999.525
1977.78901	994.225
1980.86073	990.325
1983.93046	984.625
1986.99819	969.525
1990.06394	970.825
1993.1277	973.325
1996.18947	954.225
1999.24925	957.925
2002.30706	957.025
2005.36288	955.225
2008.41672	947.125
2011.46859	942.225
2014.51848	939.125
2017.56639	938.025
2020.61233	928.425
2023.6563	931.725
2026.6983	922.825
2029.73833	921.025
2032.7764	924.125
2035.8125	927.325
2038.84664	921.825
2041.87881	915.525
2044.90903	906.625
2047.93729	912.725
2050.96359	912.625
2053.98794	915.025
2057.01034	912.825
2060.03078	903.625
2063.04927	896.925
2066.06582	901.025
2069.08042	903.125
2072.09307	900.625
2075.10378	905.025
2078.11255	903.225
2081.11938	906.925
2084.12426	899.225
2087.12722	901.725
2090.12824	896.925
2093.12732	907.625
2096.12447	904.725
2099.11969	901.425
2102.11299	904.025
2105.10435	909.625
2108.09379	903.625
2111.08131	903.225
2114.0669	903.525
2117.05057	892.525
2120.03233	893.525
2123.01216	893.025
2125.99008	886.725
2128.96609	884.825
2131.94018	881.225
2134.91236	883.725
2137.88263	884.125
2140.851	876.625
2143.81746	872.325
2146.78201	883.325
2149.74466	873.325
2152.7054	873.425
2155.66425	871.825
2158.6212	872.225
2161.57625	870.025
2164.52941	869.125
2167.48067	867.825
2170.43004	869.425
2173.37752	867.125
2176.32311	869.425
2179.26681	853.725
2182.20863	866.725
2185.14856	862.825
2188.08661	858.125
2191.02278	849.525
2193.95707	858.025
2196.88948	855.925
2199.82001	849.625
2202.74867	854.825
2205.67545	845.925
2208.60037	849.525
2211.52341	848.025
2214.44458	841.025
2217.36388	837.125
2220.28132	834.525
2223.1969	826.825
2226.11061	829.925
2229.02246	825.225
2231.93245	828.325
2234.84058	820.325
2237.74686	818.025
2240.65128	821.325
2243.55385	818.125
2246.45456	817.825
2249.35343	807.825
2252.25044	816.625
2255.14561	812.825
2258.03893	809.325
2260.93041	812.425
2263.82004	807.625
2266.70783	808.125
2269.59378	802.825
2272.4779	806.625
2275.36017	800.525
2278.24061	797.625
2281.11922	796.325
2283.996	791.025
2286.87094	789.825
2289.74405	782.025
2292.61534	776.225
2295.4848	781.125
2298.35243	784.125
2301.21824	777.725
2304.08223	768.925
2306.94439	778.025
2309.80474	779.425
2312.66327	774.525
2315.51999	769.425
2318.37489	772.225
2321.22797	769.325
2324.07925	763.825
2326.92871	763.025
2329.77637	769.825
2332.62222	768.425
2335.46626	760.925
2338.3085	758.525
2341.14893	757.125
2343.98756	753.225
2346.8244	757.425
2349.65943	748.525
2352.49267	760.125
2355.32411	752.525
2358.15376	759.725
2360.98161	747.725
2363.80768	756.925
2366.63195	759.725
2369.45444	759.625
2372.27514	753.125
2375.09405	750.625
2377.91118	756.025
2380.72652	749.825
2383.54009	747.125
2386.35187	743.425
2389.16188	741.925
2391.97011	734.025
2394.77657	730.625
2397.58125	731.125
2400.38416	732.325
2403.18529	729.425
2405.98466	727.825
2408.78226	719.925
2411.57809	730.125
2414.37216	720.325
2417.16446	723.125
2419.955	720.425
2422.74378	720.825
2425.5308	712.525
2428.31606	711.525
2431.09956	715.925
2433.88131	712.625
2436.6613	705.225
2439.43954	709.325
2442.21603	705.025
2444.99077	708.125
2447.76377	711.225
2450.53501	711.925
2453.30451	713.925
2456.07226	706.425
2458.83827	708.725
2461.60254	699.025
2464.36507	699.825
2467.12586	706.025
2469.88492	697.925
2472.64224	702.725
2475.39782	699.325
2478.15167	705.225
2480.90379	705.925
2483.65417	706.725
2486.40283	705.225
2489.14976	702.025
2491.89497	703.125
2494.63845	707.825
2497.3802	709.125
2500.12024	706.925
2502.85855	703.725
2505.59514	695.625
2508.33002	692.725
2511.06318	685.925
2513.79462	682.925
2516.52435	681.325
2519.25237	676.525
2521.97867	676.425
2524.70327	675.925
2527.42616	668.625
2530.14734	673.625
2532.86681	670.525
2535.58458	669.625
2538.30065	673.425
2541.01501	666.425
2543.72768	668.625
2546.43864	671.425
2549.14791	662.525
2551.85548	670.025
2554.56136	665.825
2557.26554	656.425
2559.96803	664.225
2562.66883	664.225
2565.36794	665.025
2568.06536	657.325
2570.7611	659.125
2573.45514	658.025
2576.14751	661.825
2578.83819	655.025
2581.52719	652.825
2584.21451	652.225
2586.90015	655.125
2589.58411	647.225
2592.2664	649.725
2594.94701	650.325
2597.62594	648.525
2600.30321	639.125
2602.9788	638.925
2605.65273	641.725
2608.32498	637.525
2610.99557	639.525
2613.66449	637.025
2616.33175	636.325
2618.99734	642.525
2621.66128	633.025
2624.32355	634.125
2626.98416	642.025
2629.64311	640.425
2632.30041	639.325
2634.95605	638.425
2637.61004	632.125
2640.26238	631.325
2642.91306	633.425
2645.56209	624.725
2648.20948	632.425
2650.85521	632.925
2653.4993	625.125
2656.14175	637.725
2658.78255	638.825
2661.42171	637.225
2664.05923	637.425
2666.6951	638.125
2669.32934	641.525
2671.96194	643.925
2674.59291	638.325
2677.22224	648.325
2679.84993	643.125
2682.476	643.125
2685.10043	649.825
2687.72324	642.725
2690.34441	647.725
2692.96396	643.525
2695.58188	653.825
2698.19818	650.625
2700.81285	656.425
2703.4259	669.325
2706.03733	681.325
2708.64714	674.525
2711.25533	672.625
2713.86191	671.425
2716.46687	666.125
2719.07021	679.825
2721.67194	671.325
2724.27206	672.425
2726.87057	679.825
2729.46747	678.025
2732.06276	677.125
2734.65644	674.825
2737.24852	678.125
2739.83899	668.425
2742.42786	676.125
2745.01513	676.325
2747.60079	674.525
2750.18486	677.025
2752.76733	675.825
2755.3482	682.825
2757.92747	692.225
2760.50515	687.525
2763.08123	695.625
2765.65573	696.325
2768.22863	718.225
2770.79994	713.025
2773.36967	720.725
2775.9378	726.325
2778.50435	732.725
2781.06932	734.125
2783.6327	746.225
2786.1945	748.225
2788.75471	759.325
2791.31335	770.225
2793.87041	775.025
2796.42589	780.125
2798.97979	795.125
2801.53212	809.125
2804.08288	819.225
2806.63206	825.025
2809.17967	840.925
2811.72571	856.225
2814.27018	865.125
2816.81308	878.225
2819.35442	885.525
2821.89419	898.625
2824.43239	896.925
2826.96904	902.125
2829.50412	904.525
2832.03763	911.925
2834.56959	917.725
2837.1	927.225
2839.62884	938.625
2842.15613	963.925
2844.68186	979.225
2847.20604	1011.525
2849.72867	1031.225
2852.24974	1042.125
2854.76927	1045.325
2857.28724	1050.825
2859.80367	1047.225
2862.31855	1032.325
2864.83189	1044.525
2867.34368	1051.125
2869.85393	1049.025
2872.36264	1052.325
2874.8698	1058.725
2877.37543	1069.325
2879.87952	1089.725
2882.38207	1098.425
2884.88308	1103.225
2887.38256	1115.325
2889.88051	1122.725
2892.37692	1137.825
2894.8718	1137.025
2897.36515	1151.725
2899.85698	1157.625
2902.34727	1164.725
2904.83604	1171.425
2907.32328	1181.725
2909.809	1174.625
2912.29319	1185.625
2914.77587	1178.025
2917.25702	1182.225
2919.73665	1184.525
2922.21476	1174.525
2924.69136	1166.125
2927.16644	1153.625
2929.64	1148.725
2932.11205	1129.525
2934.58258	1112.625
2937.05161	1102.725
2939.51912	1079.325
2941.98513	1056.525
2944.44962	1024.425
2946.91261	994.425
2949.37409	972.225
2951.83407	942.125
2954.29254	923.725
2956.74951	902.125
2959.20498	877.825
2961.65895	857.125
2964.11142	840.725
2966.56239	822.025
2969.01186	804.725
2971.45984	794.125
2973.90632	774.025
2976.35131	761.225
2978.7948	749.625
2981.23681	747.325
2983.67732	726.125
2986.11635	729.825
2988.55388	724.825
2990.98993	716.025
2993.4245	716.125
2995.85758	704.425
2998.28917	704.825
3000.71928	702.525
3003.14791	694.725
3005.57506	700.625
3008.00073	696.425
3010.42493	689.625
3012.84764	684.225
3015.26888	681.225
3017.68865	674.025
3020.10694	669.025
3022.52376	668.025
3024.9391	665.225
3027.35298	664.925
3029.76539	655.825
3032.17632	652.625
3034.5858	647.625
3036.9938	642.725
3039.40034	640.225
3041.80542	635.725
3044.20903	634.425
3046.61118	638.825
3049.01187	628.825
3051.4111	632.325
3053.80888	630.125
3056.20519	630.625
3058.60005	628.025
3060.99345	630.125
3063.3854	626.925
3065.7759	632.025
3068.16494	630.425
3070.55254	622.625
3072.93868	631.725
3075.32338	629.425
3077.70662	627.925
3080.08842	631.225
3082.46878	633.725
3084.84769	626.925
3087.22515	634.325
3089.60118	635.425
3091.97576	636.125
3094.3489	642.125
3096.72061	645.225
3099.09087	638.725
3101.4597	642.425
3103.82709	648.525
3106.19305	650.125
3108.55757	640.725
3110.92066	645.225
3113.28232	653.125
3115.64255	657.725
3118.00134	656.125
3120.35871	659.925
3122.71466	661.225
3125.06917	669.225
3127.42226	669.625
3129.77393	675.125
3132.12417	677.725
3134.47299	681.025
3136.82039	685.625
3139.16636	687.725
3141.51092	699.825
3143.85406	700.425
3146.19579	710.225
3148.53609	711.525
3150.87499	712.125
3153.21246	714.025
3155.54853	724.925
3157.88318	729.725
3160.21642	737.225
3162.54826	732.425
3164.87868	739.825
3167.2077	741.925
3169.5353	745.225
3171.86151	752.425
3174.18631	760.725
3176.5097	761.525
3178.83169	767.625
3181.15228	770.325
3183.47147	777.125
3185.78926	782.325
3188.10565	779.125
3190.42065	778.025
3192.73424	790.225
3195.04645	788.925
3197.35725	800.825
3199.66667	804.925
3201.97469	795.525
3204.28132	814.225
3206.58656	810.825
3208.8904	816.025
3211.19287	817.325
3213.49394	819.325
3215.79363	809.925
3218.09193	822.725
3220.38884	825.425
3222.68438	828.025
3224.97853	829.925
3227.2713	836.125
3229.56269	834.425
3231.8527	840.025
3234.14133	839.725
3236.42858	830.825
3238.71446	833.325
3240.99896	834.425
3243.28209	843.225
3245.56384	843.225
3247.84423	838.225
3250.12324	840.425
3252.40088	840.725
3254.67715	839.625
3256.95205	850.225
3259.22558	840.725
3261.49775	847.525
3263.76855	840.625
3266.03799	844.325
3268.30606	845.325
3270.57277	841.325
3272.83812	844.325
3275.10211	841.325
3277.36474	843.225
3279.62601	852.925
3281.88593	843.425
3284.14448	841.025
3286.40168	844.425
3288.65753	845.125
