Data from AgNPs_FTO_APTES_UA_50um_CRN_0.1mM_R6G_10uM_NaF_0.1M_Addition_RamanShift__13__15-18-09-239.txt Node

Date: Tue Dec 21 15:18:09 GMT 2021
User: TCL
Spectrometer: QEP01345
Trigger mode: 4
Integration Time (sec): 7.000000E0
Scans to average: 10
Electric dark correction enabled: true
Nonlinearity correction enabled: false
Boxcar width: 0
XAxis mode: Raman Shifts
Number of Pixels in Spectrum: 1044
>>>>>Begin Spectral Data<<<<<
46.04893	-0.325
50.45542	-1.225
54.85868	-1.425
59.25871	1.875
63.6555	35.375
68.04907	39.575
72.43941	43.275
76.82654	45.175
81.21044	47.975
85.59113	49.475
89.96862	49.875
94.34289	51.575
98.71396	53.375
103.08183	57.275
107.4465	59.075
111.80798	59.075
116.16626	57.375
120.52136	62.875
124.87327	62.475
129.222	60.575
133.56755	62.875
137.90993	73.875
142.24913	74.575
146.58517	80.375
150.91804	93.575
155.24774	104.775
159.57429	127.575
163.89768	159.275
168.21792	203.575
172.53501	271.375
176.84895	375.775
181.15975	528.675
185.46741	730.775
189.77193	1014.575
194.07331	1355.775
198.37157	1755.175
202.6667	2180.875
206.9587	2610.675
211.24758	3032.075
215.53334	3456.875
219.81599	3884.475
224.09553	4375.675
228.37195	4905.775
232.64527	5484.575
236.91549	6102.075
241.18261	6723.075
245.44663	7315.175
249.70755	7828.275
253.96539	8283.775
258.22014	8646.975
262.4718	8910.975
266.72039	9061.775
270.96589	9136.175
275.20832	9103.875
279.44768	9037.375
283.68397	8909.875
287.91719	8799.775
292.14735	8702.175
296.37445	8685.875
300.59849	8682.775
304.81948	8711.175
309.03742	8670.075
313.25231	8621.975
317.46415	8465.375
321.67296	8263.275
325.87872	8072.675
330.08145	7968.675
334.28114	7949.175
338.47781	8018.675
342.67145	8096.175
346.86207	8206.075
351.04966	8345.075
355.23424	8477.775
359.4158	8593.075
363.59435	8696.575
367.76989	8769.175
371.94243	8818.775
376.11196	8855.675
380.27849	8895.975
384.44203	8913.375
388.60257	8984.275
392.76012	9061.675
396.91468	9164.075
401.06626	9316.175
405.21485	9405.075
409.36047	9397.775
413.50311	9255.575
417.64277	9108.675
421.77947	9023.775
425.9132	9013.075
430.04396	9064.875
434.17176	9059.675
438.2966	9119.975
442.41849	9191.375
446.53742	9301.475
450.6534	9449.975
454.76644	9528.575
458.87653	9604.475
462.98368	9635.475
467.08789	9611.275
471.18916	9575.875
475.2875	9498.575
479.38291	9483.575
483.4754	9433.375
487.56496	9386.375
491.6516	9328.275
495.73531	9302.175
499.81612	9247.675
503.89401	9292.475
507.96899	9310.875
512.04106	9329.275
516.11023	9293.775
520.1765	9258.575
524.23987	9210.575
528.30034	9144.875
532.35792	9075.775
536.41261	9013.575
540.46441	8916.075
544.51333	8922.175
548.55936	8969.275
552.60252	9096.675
556.64279	9232.075
560.6802	9316.875
564.71473	9357.575
568.7464	9464.775
572.7752	9588.275
576.80114	9711.675
580.82422	9827.875
584.84444	9927.275
588.86181	9995.675
592.87633	9980.675
596.888	9965.875
600.89682	9973.075
604.9028	10223.875
608.90594	10964.975
612.90624	11909.775
616.90371	11538.175
620.89834	9982.675
624.89015	9190.975
628.87913	9054.775
632.86528	9156.175
636.84862	9253.775
640.82913	9192.675
644.80683	9017.075
648.78172	8894.375
652.75379	8835.175
656.72306	8923.675
660.68952	9043.175
664.65319	9076.075
668.61405	9016.975
672.57211	8996.075
676.52738	9043.475
680.47986	9071.875
684.42955	9041.575
688.37646	9015.275
692.32058	8998.475
696.26192	9039.575
700.20048	9048.575
704.13626	9072.375
708.06928	9076.275
711.99952	9008.675
715.927	8952.675
719.85171	8876.875
723.77365	8877.875
727.69284	8803.575
731.60928	8740.175
735.52295	8685.075
739.43388	8671.875
743.34206	8706.075
747.24749	8742.475
751.15017	8790.275
755.05012	8873.275
758.94733	9064.575
762.8418	9382.575
766.73354	9983.275
770.62254	10626.175
774.50882	10849.875
778.39237	10542.475
782.27321	9859.975
786.15132	9297.575
790.02671	8902.875
793.89938	8708.575
797.76935	8595.475
801.6366	8570.575
805.50115	8508.575
809.36299	8484.575
813.22213	8455.375
817.07857	8438.875
820.93231	8433.975
824.78336	8408.975
828.63172	8370.275
832.47738	8339.575
836.32036	8334.075
840.16066	8295.775
843.99827	8288.075
847.8332	8279.275
851.66546	8276.375
855.49504	8259.775
859.32195	8282.475
863.1462	8254.275
866.96777	8265.775
870.78668	8237.475
874.60293	8245.875
878.41652	8258.775
882.22745	8261.175
886.03573	8274.275
889.84136	8277.675
893.64433	8273.275
897.44466	8249.775
901.24235	8252.375
905.0374	8221.275
908.8298	8217.575
912.61957	8202.275
916.40671	8246.775
920.19121	8312.675
923.97308	8307.375
927.75233	8291.175
931.52895	8259.575
935.30295	8202.775
939.07433	8092.975
942.84309	7976.975
946.60924	7915.675
950.37278	7884.075
954.13371	7846.875
957.89203	7831.275
961.64774	7823.575
965.40086	7798.575
969.15137	7779.475
972.89929	7753.975
976.64461	7735.775
980.38733	7729.075
984.12747	7699.675
987.86502	7685.875
991.59999	7723.775
995.33237	7743.675
999.06217	7775.475
1002.78939	7828.775
1006.51404	7898.175
1010.23611	7966.075
1013.95561	8037.775
1017.67255	8054.675
1021.38692	8036.875
1025.09872	7982.675
1028.80796	7908.775
1032.51465	7863.875
1036.21877	7868.575
1039.92035	7928.475
1043.61937	7953.975
1047.31584	7978.975
1051.00976	8031.775
1054.70114	8048.475
1058.38998	8075.675
1062.07627	8122.175
1065.76003	8211.475
1069.44126	8266.275
1073.11995	8333.575
1076.79611	8391.875
1080.46974	8474.275
1084.14085	8477.775
1087.80943	8498.975
1091.47549	8540.975
1095.13903	8560.775
1098.80005	8533.375
1102.45857	8398.875
1106.11456	8259.175
1109.76805	8192.975
1113.41903	8181.275
1117.06751	8214.175
1120.71348	8302.475
1124.35696	8398.175
1127.99793	8519.775
1131.63641	8599.975
1135.2724	8524.375
1138.90589	8427.175
1142.5369	8376.375
1146.16542	8333.575
1149.79145	8345.875
1153.415	8349.575
1157.03607	8395.375
1160.65467	8480.375
1164.27079	8637.075
1167.88443	8901.775
1171.49561	9237.275
1175.10432	9686.375
1178.71056	10282.775
1182.31434	10846.975
1185.91565	11157.875
1189.51451	11194.575
1193.11091	11026.775
1196.70485	10714.275
1200.29634	10396.475
1203.88538	10085.675
1207.47197	9776.475
1211.05612	9520.375
1214.63782	9313.575
1218.21708	9150.775
1221.79391	8998.775
1225.36829	8907.375
1228.94024	8850.375
1232.50976	8808.475
1236.07685	8810.875
1239.6415	8778.675
1243.20374	8782.475
1246.76355	8831.375
1250.32093	8861.275
1253.8759	8964.575
1257.42845	9137.175
1260.97859	9293.075
1264.52631	9488.475
1268.07163	9594.375
1271.61453	9761.275
1275.15503	9891.875
1278.69312	9997.375
1282.22882	10107.575
1285.76211	10297.375
1289.29301	10448.775
1292.82151	10746.675
1296.34761	11027.575
1299.87133	11389.375
1303.39266	11786.275
1306.9116	12254.775
1310.42815	12701.075
1313.94233	12982.875
1317.45412	12947.675
1320.96354	12759.475
1324.47058	12589.375
1327.97525	12400.075
1331.47754	12251.575
1334.97747	12227.275
1338.47502	12243.775
1341.97022	12381.975
1345.46305	12530.475
1348.95352	12716.275
1352.44163	12910.775
1355.92738	13145.975
1359.41078	13590.275
1362.89183	14054.075
1366.37053	13959.275
1369.84688	13022.375
1373.32088	11852.875
1376.79254	10979.875
1380.26186	10475.675
1383.72883	10258.275
1387.19347	10113.975
1390.65578	9962.575
1394.11575	9822.975
1397.57339	9717.875
1401.0287	9663.175
1404.48168	9579.375
1407.93234	9532.475
1411.38068	9444.075
1414.82669	9277.875
1418.27039	9088.175
1421.71177	8898.375
1425.15083	8701.075
1428.58758	8560.375
1432.02203	8531.175
1435.45416	8541.575
1438.88399	8606.875
1442.31151	8655.975
1445.73673	8739.775
1449.15965	8812.875
1452.58027	8886.575
1455.9986	8952.375
1459.41463	9019.075
1462.82837	9121.975
1466.23982	9253.375
1469.64898	9391.775
1473.05586	9502.075
1476.46045	9568.075
1479.86276	9641.575
1483.26279	9690.175
1486.66054	9803.175
1490.05602	9917.175
1493.44922	10167.275
1496.84016	10486.775
1500.22882	11048.475
1503.61521	11697.375
1506.99934	12423.475
1510.38121	12890.675
1513.76081	12952.375
1517.13816	12506.575
1520.51324	11830.475
1523.88607	11238.875
1527.25665	10809.575
1530.62498	10547.675
1533.99105	10365.775
1537.35488	10176.375
1540.71647	9986.475
1544.07581	9782.275
1547.4329	9611.575
1550.78776	9468.775
1554.14038	9382.875
1557.49077	9375.475
1560.83892	9462.575
1564.18484	9555.375
1567.52853	9700.975
1570.86999	9801.675
1574.20922	9908.975
1577.54624	9960.675
1580.88103	9776.475
1584.2136	9543.375
1587.54395	9408.175
1590.87208	9433.075
1594.19801	9598.775
1597.52172	9904.975
1600.84321	10044.775
1604.16251	9865.275
1607.47959	9520.275
1610.79447	9101.775
1614.10715	8690.875
1617.41763	8312.075
1620.7259	8027.675
1624.03199	7810.175
1627.33587	7735.475
1630.63757	7763.175
1633.93707	7917.675
1637.23439	8253.275
1640.52951	8773.875
1643.82246	9528.275
1647.11321	10350.575
1650.40179	10922.675
1653.68819	10877.275
1656.97241	10226.975
1660.25446	9230.775
1663.53433	8379.875
1666.81203	7746.075
1670.08756	7316.875
1673.36092	7038.475
1676.63211	6829.775
1679.90115	6728.475
1683.16801	6585.375
1686.43272	6532.875
1689.69527	6443.275
1692.95567	6411.375
1696.2139	6390.175
1699.46999	6350.375
1702.72392	6338.775
1705.97571	6293.175
1709.22535	6265.075
1712.47284	6240.575
1715.71819	6230.375
1718.96139	6218.375
1722.20246	6169.075
1725.44139	6146.175
1728.67818	6119.075
1731.91284	6082.875
1735.14537	6013.275
1738.37576	6007.275
1741.60403	5983.275
1744.83017	5959.775
1748.05418	5950.075
1751.27607	5934.275
1754.49584	5945.575
1757.71349	5960.575
1760.92903	5937.975
1764.14244	5930.875
1767.35375	5943.275
1770.56294	5886.875
1773.77002	5852.875
1776.97499	5816.075
1780.17785	5786.575
1783.37861	5745.075
1786.57727	5724.475
1789.77382	5703.075
1792.96828	5680.375
1796.16064	5670.775
1799.3509	5621.175
1802.53907	5612.375
1805.72514	5603.975
1808.90913	5582.075
1812.09102	5543.475
1815.27083	5532.075
1818.44856	5513.175
1821.6242	5514.975
1824.79776	5505.475
1827.96924	5474.775
1831.13864	5470.675
1834.30597	5479.675
1837.47122	5447.575
1840.6344	5449.975
1843.7955	5442.575
1846.95454	5420.575
1850.11151	5419.275
1853.26642	5414.175
1856.41926	5410.175
1859.57004	5403.875
1862.71876	5380.375
1865.86542	5375.975
1869.01003	5365.675
1872.15258	5348.475
1875.29308	5339.775
1878.43152	5332.075
1881.56792	5313.775
1884.70227	5322.975
1887.83457	5295.075
1890.96482	5277.575
1894.09304	5263.375
1897.21921	5257.275
1900.34335	5252.075
1903.46544	5238.175
1906.58551	5223.575
1909.70353	5227.775
1912.81953	5208.175
1915.93349	5201.875
1919.04543	5197.075
1922.15534	5175.475
1925.26322	5166.575
1928.36908	5139.375
1931.47292	5134.575
1934.57473	5128.775
1937.67453	5080.775
1940.77232	5094.675
1943.86808	5072.575
1946.96184	5067.975
1950.05358	5043.775
1953.14331	5012.875
1956.23103	4986.175
1959.31675	4994.675
1962.40046	4977.875
1965.48217	4953.075
1968.56188	4949.275
1971.63959	4913.875
1974.7153	4908.175
1977.78901	4886.275
1980.86073	4885.375
1983.93046	4852.675
1986.99819	4834.175
1990.06394	4819.275
1993.1277	4799.175
1996.18947	4774.975
1999.24925	4749.875
2002.30706	4739.775
2005.36288	4714.375
2008.41672	4701.175
2011.46859	4678.875
2014.51848	4663.375
2017.56639	4651.375
2020.61233	4641.875
2023.6563	4645.975
2026.6983	4612.775
2029.73833	4601.675
2032.7764	4585.975
2035.8125	4563.475
2038.84664	4571.275
2041.87881	4557.075
2044.90903	4517.575
2047.93729	4516.375
2050.96359	4521.875
2053.98794	4491.175
2057.01034	4505.775
2060.03078	4486.675
2063.04927	4473.175
2066.06582	4479.875
2069.08042	4462.575
2072.09307	4451.575
2075.10378	4433.275
2078.11255	4431.175
2081.11938	4443.975
2084.12426	4446.575
2087.12722	4453.475
2090.12824	4443.275
2093.12732	4426.375
2096.12447	4417.275
2099.11969	4415.975
2102.11299	4436.275
2105.10435	4421.375
2108.09379	4423.375
2111.08131	4448.575
2114.0669	4429.275
2117.05057	4438.475
2120.03233	4423.075
2123.01216	4417.775
2125.99008	4419.775
2128.96609	4411.275
2131.94018	4409.275
2134.91236	4414.175
2137.88263	4406.875
2140.851	4405.475
2143.81746	4417.275
2146.78201	4412.175
2149.74466	4411.775
2152.7054	4416.175
2155.66425	4390.375
2158.6212	4385.775
2161.57625	4388.875
2164.52941	4383.575
2167.48067	4382.575
2170.43004	4378.475
2173.37752	4369.275
2176.32311	4348.975
2179.26681	4352.775
2182.20863	4354.175
2185.14856	4352.775
2188.08661	4360.975
2191.02278	4339.875
2193.95707	4339.175
2196.88948	4320.575
2199.82001	4325.075
2202.74867	4312.875
2205.67545	4306.275
2208.60037	4297.675
2211.52341	4278.775
2214.44458	4281.775
2217.36388	4260.575
2220.28132	4260.875
2223.1969	4248.175
2226.11061	4236.475
2229.02246	4219.675
2231.93245	4203.875
2234.84058	4181.775
2237.74686	4204.775
2240.65128	4193.275
2243.55385	4173.975
2246.45456	4176.575
2249.35343	4165.575
2252.25044	4144.675
2255.14561	4136.575
2258.03893	4138.675
2260.93041	4147.575
2263.82004	4098.775
2266.70783	4105.875
2269.59378	4078.675
2272.4779	4070.075
2275.36017	4052.075
2278.24061	4053.875
2281.11922	4060.375
2283.996	4035.375
2286.87094	4029.075
2289.74405	4017.075
2292.61534	4005.075
2295.4848	4003.475
2298.35243	3997.175
2301.21824	3981.275
2304.08223	3988.875
2306.94439	3969.575
2309.80474	3965.775
2312.66327	3969.775
2315.51999	3940.975
2318.37489	3951.875
2321.22797	3937.975
2324.07925	3929.275
2326.92871	3914.575
2329.77637	3925.975
2332.62222	3914.075
2335.46626	3913.375
2338.3085	3889.675
2341.14893	3879.275
2343.98756	3873.275
2346.8244	3890.875
2349.65943	3868.775
2352.49267	3874.675
2355.32411	3862.675
2358.15376	3865.975
2360.98161	3854.675
2363.80768	3860.875
2366.63195	3851.775
2369.45444	3857.375
2372.27514	3841.875
2375.09405	3824.375
2377.91118	3841.875
2380.72652	3817.475
2383.54009	3802.675
2386.35187	3786.875
2389.16188	3778.975
2391.97011	3771.675
2394.77657	3751.875
2397.58125	3738.275
2400.38416	3750.375
2403.18529	3729.875
2405.98466	3736.875
2408.78226	3701.175
2411.57809	3700.475
2414.37216	3715.975
2417.16446	3700.675
2419.955	3688.275
2422.74378	3689.975
2425.5308	3693.575
2428.31606	3671.275
2431.09956	3672.675
2433.88131	3665.575
2436.6613	3662.475
2439.43954	3647.275
2442.21603	3640.875
2444.99077	3644.575
2447.76377	3643.375
2450.53501	3618.375
2453.30451	3636.375
2456.07226	3619.975
2458.83827	3624.075
2461.60254	3605.875
2464.36507	3615.875
2467.12586	3609.275
2469.88492	3606.275
2472.64224	3587.475
2475.39782	3590.975
2478.15167	3611.675
2480.90379	3583.775
2483.65417	3578.775
2486.40283	3585.775
2489.14976	3583.775
2491.89497	3575.675
2494.63845	3585.775
2497.3802	3569.975
2500.12024	3572.475
2502.85855	3549.975
2505.59514	3548.575
2508.33002	3545.275
2511.06318	3526.875
2513.79462	3511.775
2516.52435	3517.875
2519.25237	3511.175
2521.97867	3504.975
2524.70327	3493.375
2527.42616	3512.775
2530.14734	3514.475
2532.86681	3492.975
2535.58458	3471.775
2538.30065	3456.475
2541.01501	3462.675
2543.72768	3452.375
2546.43864	3455.075
2549.14791	3451.375
2551.85548	3419.375
2554.56136	3434.975
2557.26554	3416.275
2559.96803	3408.975
2562.66883	3407.475
2565.36794	3399.575
2568.06536	3406.675
2570.7611	3396.675
2573.45514	3380.775
2576.14751	3372.175
2578.83819	3362.975
2581.52719	3358.975
2584.21451	3357.775
2586.90015	3340.775
2589.58411	3330.675
2592.2664	3337.575
2594.94701	3315.075
2597.62594	3319.075
2600.30321	3314.275
2602.9788	3299.975
2605.65273	3283.575
2608.32498	3291.375
2610.99557	3274.675
2613.66449	3280.575
2616.33175	3274.475
2618.99734	3269.975
2621.66128	3250.675
2624.32355	3264.075
2626.98416	3248.575
2629.64311	3237.375
2632.30041	3249.075
2634.95605	3247.475
2637.61004	3222.475
2640.26238	3218.175
2642.91306	3213.475
2645.56209	3208.675
2648.20948	3204.075
2650.85521	3211.775
2653.4993	3204.075
2656.14175	3193.275
2658.78255	3195.475
2661.42171	3204.575
2664.05923	3213.375
2666.6951	3196.275
2669.32934	3192.475
2671.96194	3187.775
2674.59291	3190.975
2677.22224	3203.275
2679.84993	3187.575
2682.476	3196.475
2685.10043	3172.575
2687.72324	3178.575
2690.34441	3177.975
2692.96396	3184.875
2695.58188	3168.775
2698.19818	3179.975
2700.81285	3176.775
2703.4259	3195.475
2706.03733	3235.775
2708.64714	3183.575
2711.25533	3179.175
2713.86191	3179.275
2716.46687	3183.175
2719.07021	3166.775
2721.67194	3169.675
2724.27206	3151.075
2726.87057	3165.175
2729.46747	3153.375
2732.06276	3146.975
2734.65644	3137.875
2737.24852	3146.475
2739.83899	3137.975
2742.42786	3140.875
2745.01513	3127.875
2747.60079	3117.875
2750.18486	3130.475
2752.76733	3122.575
2755.3482	3101.975
2757.92747	3115.675
2760.50515	3105.175
2763.08123	3107.475
2765.65573	3092.975
2768.22863	3104.875
2770.79994	3078.575
2773.36967	3087.575
2775.9378	3072.675
2778.50435	3065.775
2781.06932	3064.275
2783.6327	3054.375
2786.1945	3053.075
2788.75471	3054.575
2791.31335	3051.775
2793.87041	3036.975
2796.42589	3018.375
2798.97979	3013.675
2801.53212	3011.575
2804.08288	3026.175
2806.63206	3007.575
2809.17967	2991.875
2811.72571	2983.575
2814.27018	2995.675
2816.81308	2987.575
2819.35442	2975.275
2821.89419	2968.775
2824.43239	2970.275
2826.96904	2962.875
2829.50412	2970.975
2832.03763	2963.675
2834.56959	2970.475
2837.1	2949.575
2839.62884	2960.875
2842.15613	2965.875
2844.68186	2968.375
2847.20604	2962.275
2849.72867	2979.375
2852.24974	2971.875
2854.76927	2983.775
2857.28724	2990.575
2859.80367	2970.075
2862.31855	2951.075
2864.83189	2949.975
2867.34368	2937.875
2869.85393	2939.175
2872.36264	2935.275
2874.8698	2931.275
2877.37543	2932.575
2879.87952	2944.475
2882.38207	2935.175
2884.88308	2927.675
2887.38256	2934.675
2889.88051	2924.575
2892.37692	2927.075
2894.8718	2928.275
2897.36515	2928.275
2899.85698	2922.475
2902.34727	2928.275
2904.83604	2929.875
2907.32328	2947.875
2909.809	2929.575
2912.29319	2943.475
2914.77587	2937.875
2917.25702	2943.675
2919.73665	2931.475
2922.21476	2941.575
2924.69136	2945.475
2927.16644	2933.875
2929.64	2934.075
2932.11205	2926.075
2934.58258	2925.875
2937.05161	2930.475
2939.51912	2914.175
2941.98513	2916.675
2944.44962	2918.375
2946.91261	2906.075
2949.37409	2900.075
2951.83407	2886.775
2954.29254	2892.975
2956.74951	2881.575
2959.20498	2877.675
2961.65895	2873.975
2964.11142	2864.775
2966.56239	2850.275
2969.01186	2856.775
2971.45984	2836.075
2973.90632	2832.375
2976.35131	2822.075
2978.7948	2809.275
2981.23681	2821.175
2983.67732	2810.675
2986.11635	2788.075
2988.55388	2783.675
2990.98993	2780.375
2993.4245	2774.275
2995.85758	2756.175
2998.28917	2747.875
3000.71928	2754.375
3003.14791	2754.075
3005.57506	2760.275
3008.00073	2751.775
3010.42493	2738.675
3012.84764	2738.875
3015.26888	2733.875
3017.68865	2720.275
3020.10694	2719.875
3022.52376	2724.275
3024.9391	2720.775
3027.35298	2732.375
3029.76539	2707.875
3032.17632	2701.775
3034.5858	2680.475
3036.9938	2693.675
3039.40034	2690.475
3041.80542	2686.275
3044.20903	2680.775
3046.61118	2678.175
3049.01187	2663.875
3051.4111	2660.775
3053.80888	2663.375
3056.20519	2661.575
3058.60005	2657.075
3060.99345	2652.175
3063.3854	2653.475
3065.7759	2644.375
3068.16494	2643.375
3070.55254	2632.975
3072.93868	2635.575
3075.32338	2625.675
3077.70662	2635.275
3080.08842	2627.675
3082.46878	2622.575
3084.84769	2625.175
3087.22515	2629.275
3089.60118	2627.375
3091.97576	2620.875
3094.3489	2623.675
3096.72061	2624.575
3099.09087	2629.475
3101.4597	2616.675
3103.82709	2629.675
3106.19305	2631.875
3108.55757	2618.475
3110.92066	2627.475
3113.28232	2615.475
3115.64255	2610.175
3118.00134	2606.975
3120.35871	2612.175
3122.71466	2597.275
3125.06917	2595.375
3127.42226	2590.575
3129.77393	2595.175
3132.12417	2597.875
3134.47299	2617.775
3136.82039	2611.375
3139.16636	2609.975
3141.51092	2608.675
3143.85406	2615.775
3146.19579	2616.775
3148.53609	2618.475
3150.87499	2636.075
3153.21246	2633.175
3155.54853	2641.075
3157.88318	2634.475
3160.21642	2645.375
3162.54826	2649.975
3164.87868	2656.275
3167.2077	2647.675
3169.5353	2650.275
3171.86151	2648.275
3174.18631	2641.975
3176.5097	2639.175
3178.83169	2641.575
3181.15228	2646.875
3183.47147	2629.075
3185.78926	2639.575
3188.10565	2645.575
3190.42065	2647.375
3192.73424	2667.975
3195.04645	2642.175
3197.35725	2646.375
3199.66667	2660.775
3201.97469	2655.275
3204.28132	2657.475
3206.58656	2666.875
3208.8904	2652.975
3211.19287	2668.975
3213.49394	2666.775
3215.79363	2672.575
3218.09193	2672.875
3220.38884	2681.475
3222.68438	2692.275
3224.97853	2679.475
3227.2713	2669.275
