Data from AgNPs_FTO_APTES_UA_1um_CRN_0.1mM_R6G_10uM_NaF_0.1M_Addition_RamanShift__27__12-05-39-019.txt Node

Date: Tue Dec 21 12:05:39 GMT 2021
User: TCL
Spectrometer: QEP01345
Trigger mode: 4
Integration Time (sec): 7.000000E0
Scans to average: 10
Electric dark correction enabled: true
Nonlinearity correction enabled: false
Boxcar width: 0
XAxis mode: Raman Shifts
Number of Pixels in Spectrum: 1044
>>>>>Begin Spectral Data<<<<<
46.04893	-0.325
50.45542	-1.425
54.85868	-1.525
59.25871	-0.425
63.6555	45.875
68.04907	50.275
72.43941	54.275
76.82654	52.075
81.21044	57.875
85.59113	59.975
89.96862	63.575
94.34289	63.475
98.71396	64.875
103.08183	68.975
107.4465	69.975
111.80798	75.475
116.16626	72.775
120.52136	73.175
124.87327	77.075
129.222	79.675
133.56755	86.175
137.90993	94.875
142.24913	99.775
146.58517	112.275
150.91804	129.375
155.24774	145.975
159.57429	185.775
163.89768	234.275
168.21792	306.875
172.53501	413.675
176.84895	566.575
181.15975	804.475
185.46741	1114.675
189.77193	1539.075
194.07331	2066.975
198.37157	2675.475
202.6667	3302.375
206.9587	3955.675
211.24758	4607.075
215.53334	5277.575
219.81599	6018.875
224.09553	6862.975
228.37195	7765.875
232.64527	8780.475
236.91549	9753.575
241.18261	10682.775
245.44663	11464.275
249.70755	12134.575
253.96539	12734.475
258.22014	13198.475
262.4718	13537.375
266.72039	13707.075
270.96589	13729.275
275.20832	13624.875
279.44768	13403.775
283.68397	13214.775
287.91719	13086.975
292.14735	13130.975
296.37445	13334.275
300.59849	13777.975
304.81948	14298.775
309.03742	14701.375
313.25231	14729.675
317.46415	14083.275
321.67296	13051.575
325.87872	12145.375
330.08145	11744.875
334.28114	11751.275
338.47781	11920.475
342.67145	12258.475
346.86207	12755.475
351.04966	13511.275
355.23424	14357.475
359.4158	14994.775
363.59435	15294.075
367.76989	15335.675
371.94243	15204.475
376.11196	15081.675
380.27849	14993.475
384.44203	14850.575
388.60257	14663.575
392.76012	14569.575
396.91468	14683.875
401.06626	15065.675
405.21485	15438.475
409.36047	15219.575
413.50311	14482.175
417.64277	13825.475
421.77947	13437.775
425.9132	13326.775
430.04396	13410.275
434.17176	13518.975
438.2966	13804.175
442.41849	14286.875
446.53742	14987.775
450.6534	15631.275
454.76644	15983.675
458.87653	15971.475
462.98368	15641.075
467.08789	15225.975
471.18916	14868.275
475.2875	14514.175
479.38291	14237.575
483.4754	13951.175
487.56496	13666.075
491.6516	13412.175
495.73531	13215.975
499.81612	13148.575
503.89401	13263.475
507.96899	13403.375
512.04106	13501.875
516.11023	13570.975
520.1765	13576.875
524.23987	13553.275
528.30034	13422.875
532.35792	13268.275
536.41261	12972.875
540.46441	12600.075
544.51333	12332.275
548.55936	12329.675
552.60252	12610.875
556.64279	13040.675
560.6802	13425.275
564.71473	13875.675
568.7464	14684.675
572.7752	15251.975
576.80114	14961.875
580.82422	14486.775
584.84444	14334.275
588.86181	14579.075
592.87633	15161.475
596.888	15642.575
600.89682	15896.975
604.9028	16908.775
608.90594	20590.075
612.90624	25613.475
616.90371	24490.275
620.89834	17107.375
624.89015	13481.375
628.87913	12864.575
632.86528	12962.575
636.84862	13115.675
640.82913	12820.275
644.80683	12181.675
648.78172	11684.975
652.75379	11585.975
656.72306	12050.375
660.68952	12669.675
664.65319	12598.975
668.61405	12082.075
672.57211	11858.675
676.52738	11890.775
680.47986	11853.575
684.42955	11677.675
688.37646	11492.375
692.32058	11491.875
696.26192	11602.775
700.20048	11788.175
704.13626	11929.775
708.06928	11860.275
711.99952	11720.575
715.927	11628.375
719.85171	11639.775
723.77365	11657.575
727.69284	11546.475
731.60928	11469.375
735.52295	11484.875
739.43388	11533.675
743.34206	11599.375
747.24749	11672.175
751.15017	11812.975
755.05012	12011.475
758.94733	12637.075
762.8418	14070.275
766.73354	16500.075
770.62254	19002.075
774.50882	20230.975
778.39237	19466.175
782.27321	16862.675
786.15132	14136.075
790.02671	12468.275
793.89938	11718.875
797.76935	11435.775
801.6366	11292.175
805.50115	11239.775
809.36299	11149.975
813.22213	11056.575
817.07857	11012.275
820.93231	10987.675
824.78336	10997.875
828.63172	11053.675
832.47738	11093.975
836.32036	11056.275
840.16066	11020.275
843.99827	10950.175
847.8332	10879.675
851.66546	10838.175
855.49504	10839.875
859.32195	10866.075
863.1462	10843.275
866.96777	10824.875
870.78668	10773.575
874.60293	10750.275
878.41652	10791.075
882.22745	10826.375
886.03573	10884.575
889.84136	10861.275
893.64433	10770.975
897.44466	10700.275
901.24235	10685.175
905.0374	10580.475
908.8298	10494.175
912.61957	10457.875
916.40671	10526.775
920.19121	10671.975
923.97308	10872.775
927.75233	11111.775
931.52895	11215.775
935.30295	11083.075
939.07433	10681.575
942.84309	10302.875
946.60924	10103.275
950.37278	9994.675
954.13371	9944.475
957.89203	9862.875
961.64774	9824.675
965.40086	9782.775
969.15137	9722.475
972.89929	9670.275
976.64461	9624.975
980.38733	9642.575
984.12747	9667.875
987.86502	9762.275
991.59999	9877.475
995.33237	10122.275
999.06217	10534.175
1002.78939	11080.675
1006.51404	11547.675
1010.23611	11831.775
1013.95561	11964.875
1017.67255	11863.875
1021.38692	11504.375
1025.09872	11154.075
1028.80796	11010.875
1032.51465	11161.275
1036.21877	11402.575
1039.92035	11542.875
1043.61937	11476.675
1047.31584	11318.375
1051.00976	11099.275
1054.70114	10961.475
1058.38998	10889.475
1062.07627	10870.975
1065.76003	10896.675
1069.44126	10991.775
1073.11995	11192.775
1076.79611	11423.075
1080.46974	11634.175
1084.14085	11934.475
1087.80943	12299.375
1091.47549	12502.175
1095.13903	12304.675
1098.80005	11828.375
1102.45857	11368.175
1106.11456	11177.175
1109.76805	11225.775
1113.41903	11476.775
1117.06751	11889.575
1120.71348	12498.875
1124.35696	13200.575
1127.99793	13734.075
1131.63641	13626.375
1135.2724	12969.675
1138.90589	12383.375
1142.5369	11988.275
1146.16542	11799.775
1149.79145	11672.675
1153.415	11696.475
1157.03607	11779.975
1160.65467	12098.675
1164.27079	12683.275
1167.88443	13603.475
1171.49561	15037.375
1175.10432	17217.475
1178.71056	20106.075
1182.31434	22528.875
1185.91565	23313.875
1189.51451	22718.075
1193.11091	21309.575
1196.70485	19632.675
1200.29634	18135.375
1203.88538	16885.575
1207.47197	15709.775
1211.05612	14796.375
1214.63782	14350.075
1218.21708	14309.775
1221.79391	14467.075
1225.36829	14558.075
1228.94024	14356.475
1232.50976	14002.575
1236.07685	13670.675
1239.6415	13581.075
1243.20374	13560.875
1246.76355	13574.475
1250.32093	13786.075
1253.8759	14184.575
1257.42845	14731.675
1260.97859	15358.775
1264.52631	16001.275
1268.07163	16621.475
1271.61453	17215.175
1275.15503	17700.975
1278.69312	18095.575
1282.22882	18535.875
1285.76211	19122.775
1289.29301	19956.375
1292.82151	20921.775
1296.34761	22076.075
1299.87133	23631.475
1303.39266	25892.875
1306.9116	29007.775
1310.42815	32473.175
1313.94233	34444.375
1317.45412	33893.875
1320.96354	31696.875
1324.47058	29303.075
1327.97525	27253.975
1331.47754	25804.075
1334.97747	25161.975
1338.47502	25195.475
1341.97022	25606.675
1345.46305	26006.275
1348.95352	26607.875
1352.44163	27797.175
1355.92738	30256.175
1359.41078	34016.775
1362.89183	37438.475
1366.37053	36472.775
1369.84688	31468.675
1373.32088	26218.075
1376.79254	22698.975
1380.26186	20821.575
1383.72883	19911.175
1387.19347	19290.075
1390.65578	18789.075
1394.11575	18701.275
1397.57339	19120.275
1401.0287	19834.275
1404.48168	20501.475
1407.93234	20870.375
1411.38068	20923.375
1414.82669	20500.875
1418.27039	19642.875
1421.71177	18587.675
1425.15083	17657.975
1428.58758	17163.275
1432.02203	17183.475
1435.45416	17450.775
1438.88399	17686.975
1442.31151	17833.275
1445.73673	18106.275
1449.15965	18401.875
1452.58027	18534.875
1455.9986	18440.575
1459.41463	18514.075
1462.82837	18947.275
1466.23982	19552.775
1469.64898	20176.775
1473.05586	20474.975
1476.46045	20555.875
1479.86276	20649.175
1483.26279	20728.675
1486.66054	20856.975
1490.05602	21225.775
1493.44922	21720.575
1496.84016	22321.075
1500.22882	23411.075
1503.61521	25432.875
1506.99934	28084.675
1510.38121	30548.075
1513.76081	31383.175
1517.13816	29667.675
1520.51324	26203.075
1523.88607	22896.975
1527.25665	20749.475
1530.62498	19667.775
1533.99105	19162.075
1537.35488	18865.375
1540.71647	18712.775
1544.07581	18565.875
1547.4329	18356.275
1550.78776	18066.875
1554.14038	17865.575
1557.49077	17733.575
1560.83892	17837.175
1564.18484	18131.875
1567.52853	18563.475
1570.86999	18906.275
1574.20922	19200.275
1577.54624	19154.775
1580.88103	18396.675
1584.2136	17488.175
1587.54395	17282.275
1590.87208	18169.675
1594.19801	19976.675
1597.52172	22196.675
1600.84321	23472.175
1604.16251	22914.575
1607.47959	20844.475
1610.79447	18194.675
1614.10715	15813.175
1617.41763	14100.975
1620.7259	13045.475
1624.03199	12565.475
1627.33587	12550.975
1630.63757	12980.775
1633.93707	13952.175
1637.23439	15537.775
1640.52951	17986.275
1643.82246	21306.975
1647.11321	24779.775
1650.40179	26572.875
1653.68819	25250.475
1656.97241	21338.675
1660.25446	17082.575
1663.53433	13958.975
1666.81203	12060.375
1670.08756	11002.475
1673.36092	10345.475
1676.63211	9948.175
1679.90115	9658.175
1683.16801	9446.575
1686.43272	9289.275
1689.69527	9171.975
1692.95567	9092.275
1696.2139	9037.175
1699.46999	9019.975
1702.72392	8972.475
1705.97571	8957.575
1709.22535	8893.375
1712.47284	8891.675
1715.71819	8871.575
1718.96139	8874.575
1722.20246	8831.175
1725.44139	8794.975
1728.67818	8703.575
1731.91284	8681.875
1735.14537	8605.275
1738.37576	8573.575
1741.60403	8520.875
1744.83017	8495.375
1748.05418	8500.875
1751.27607	8466.075
1754.49584	8437.975
1757.71349	8427.275
1760.92903	8401.075
1764.14244	8346.575
1767.35375	8307.475
1770.56294	8287.975
1773.77002	8239.575
1776.97499	8196.175
1780.17785	8144.875
1783.37861	8137.175
1786.57727	8098.475
1789.77382	8089.275
1792.96828	8058.675
1796.16064	8052.075
1799.3509	8029.075
1802.53907	8012.975
1805.72514	7991.475
1808.90913	7964.975
1812.09102	7931.575
1815.27083	7906.475
1818.44856	7884.675
1821.6242	7878.475
1824.79776	7875.875
1827.96924	7839.175
1831.13864	7847.275
1834.30597	7825.375
1837.47122	7819.875
1840.6344	7792.975
1843.7955	7770.975
1846.95454	7814.675
1850.11151	7790.775
1853.26642	7786.575
1856.41926	7787.775
1859.57004	7796.575
1862.71876	7780.375
1865.86542	7801.475
1869.01003	7801.575
1872.15258	7810.375
1875.29308	7830.375
1878.43152	7802.575
1881.56792	7805.575
1884.70227	7807.275
1887.83457	7811.375
1890.96482	7817.775
1894.09304	7803.675
1897.21921	7836.375
1900.34335	7791.975
1903.46544	7806.075
1906.58551	7816.675
1909.70353	7807.075
1912.81953	7797.875
1915.93349	7780.575
1919.04543	7751.475
1922.15534	7725.075
1925.26322	7711.175
1928.36908	7686.775
1931.47292	7652.875
1934.57473	7629.775
1937.67453	7613.475
1940.77232	7574.575
1943.86808	7545.575
1946.96184	7512.375
1950.05358	7466.675
1953.14331	7451.375
1956.23103	7415.175
1959.31675	7396.675
1962.40046	7358.775
1965.48217	7359.175
1968.56188	7324.875
1971.63959	7314.775
1974.7153	7266.175
1977.78901	7264.075
1980.86073	7223.375
1983.93046	7210.975
1986.99819	7179.275
1990.06394	7129.775
1993.1277	7112.675
1996.18947	7070.675
1999.24925	7085.575
2002.30706	7042.775
2005.36288	7034.375
2008.41672	7002.675
2011.46859	6975.275
2014.51848	6963.175
2017.56639	6927.375
2020.61233	6899.075
2023.6563	6884.075
2026.6983	6881.475
2029.73833	6872.275
2032.7764	6865.075
2035.8125	6839.275
2038.84664	6825.775
2041.87881	6838.175
2044.90903	6816.675
2047.93729	6806.975
2050.96359	6795.375
2053.98794	6794.275
2057.01034	6772.475
2060.03078	6753.075
2063.04927	6737.475
2066.06582	6713.275
2069.08042	6714.275
2072.09307	6716.875
2075.10378	6704.275
2078.11255	6710.875
2081.11938	6710.075
2084.12426	6697.175
2087.12722	6669.375
2090.12824	6679.675
2093.12732	6678.675
2096.12447	6671.775
2099.11969	6682.775
2102.11299	6667.175
2105.10435	6660.275
2108.09379	6647.875
2111.08131	6672.675
2114.0669	6663.975
2117.05057	6661.875
2120.03233	6665.075
2123.01216	6667.375
2125.99008	6664.675
2128.96609	6672.475
2131.94018	6680.675
2134.91236	6679.775
2137.88263	6676.475
2140.851	6668.875
2143.81746	6671.175
2146.78201	6682.975
2149.74466	6651.375
2152.7054	6666.675
2155.66425	6647.375
2158.6212	6633.975
2161.57625	6639.275
2164.52941	6634.375
2167.48067	6625.675
2170.43004	6624.875
2173.37752	6631.375
2176.32311	6614.875
2179.26681	6639.075
2182.20863	6634.475
2185.14856	6626.375
2188.08661	6610.775
2191.02278	6608.775
2193.95707	6622.375
2196.88948	6607.075
2199.82001	6601.475
2202.74867	6612.775
2205.67545	6584.075
2208.60037	6579.175
2211.52341	6572.475
2214.44458	6573.275
2217.36388	6520.675
2220.28132	6530.075
2223.1969	6523.675
2226.11061	6531.875
2229.02246	6493.975
2231.93245	6478.575
2234.84058	6468.675
2237.74686	6478.275
2240.65128	6470.375
2243.55385	6457.975
2246.45456	6448.275
2249.35343	6425.175
2252.25044	6415.675
2255.14561	6421.575
2258.03893	6407.575
2260.93041	6406.075
2263.82004	6383.875
2266.70783	6384.075
2269.59378	6341.675
2272.4779	6325.375
2275.36017	6314.175
2278.24061	6294.375
2281.11922	6278.375
2283.996	6267.975
2286.87094	6269.875
2289.74405	6230.375
2292.61534	6228.175
2295.4848	6245.375
2298.35243	6238.775
2301.21824	6225.175
2304.08223	6220.175
2306.94439	6225.975
2309.80474	6197.275
2312.66327	6222.075
2315.51999	6193.475
2318.37489	6223.275
2321.22797	6202.075
2324.07925	6187.975
2326.92871	6190.175
2329.77637	6190.575
2332.62222	6199.175
2335.46626	6185.075
2338.3085	6179.575
2341.14893	6197.575
2343.98756	6183.175
2346.8244	6198.175
2349.65943	6200.575
2352.49267	6209.075
2355.32411	6197.975
2358.15376	6191.475
2360.98161	6201.675
2363.80768	6212.975
2366.63195	6213.575
2369.45444	6194.775
2372.27514	6194.475
2375.09405	6172.775
2377.91118	6171.875
2380.72652	6128.175
2383.54009	6114.075
2386.35187	6093.275
2389.16188	6068.475
2391.97011	6059.675
2394.77657	6044.275
2397.58125	6020.875
2400.38416	6013.875
2403.18529	6007.875
2405.98466	6005.075
2408.78226	5975.775
2411.57809	5965.975
2414.37216	5947.775
2417.16446	5948.775
2419.955	5924.975
2422.74378	5932.875
2425.5308	5928.075
2428.31606	5914.475
2431.09956	5903.875
2433.88131	5927.275
2436.6613	5919.675
2439.43954	5914.875
2442.21603	5908.975
2444.99077	5910.675
2447.76377	5918.275
2450.53501	5905.975
2453.30451	5935.475
2456.07226	5915.775
2458.83827	5908.575
2461.60254	5911.475
2464.36507	5909.575
2467.12586	5919.975
2469.88492	5919.875
2472.64224	5912.475
2475.39782	5914.175
2478.15167	5949.075
2480.90379	5943.775
2483.65417	5954.375
2486.40283	5948.275
2489.14976	5981.875
2491.89497	5977.275
2494.63845	5994.775
2497.3802	5994.275
2500.12024	5988.875
2502.85855	5997.075
2505.59514	5941.275
2508.33002	5946.075
2511.06318	5935.975
2513.79462	5897.975
2516.52435	5872.175
2519.25237	5865.275
2521.97867	5858.975
2524.70327	5845.575
2527.42616	5859.675
2530.14734	5832.175
2532.86681	5802.775
2535.58458	5824.475
2538.30065	5818.175
2541.01501	5802.675
2543.72768	5829.675
2546.43864	5812.275
2549.14791	5816.975
2551.85548	5817.275
2554.56136	5794.075
2557.26554	5806.475
2559.96803	5795.375
2562.66883	5787.175
2565.36794	5787.475
2568.06536	5772.175
2570.7611	5775.375
2573.45514	5781.975
2576.14751	5769.675
2578.83819	5772.475
2581.52719	5770.075
2584.21451	5767.375
2586.90015	5758.875
2589.58411	5749.875
2592.2664	5746.575
2594.94701	5762.475
2597.62594	5744.575
2600.30321	5742.375
2602.9788	5733.875
2605.65273	5737.675
2608.32498	5735.475
2610.99557	5728.975
2613.66449	5762.875
2616.33175	5721.175
2618.99734	5754.475
2621.66128	5748.175
2624.32355	5733.275
2626.98416	5752.475
2629.64311	5734.175
2632.30041	5744.675
2634.95605	5735.975
2637.61004	5724.375
2640.26238	5715.975
2642.91306	5709.675
2645.56209	5700.075
2648.20948	5698.575
2650.85521	5687.075
2653.4993	5669.575
2656.14175	5683.675
2658.78255	5715.875
2661.42171	5709.975
2664.05923	5716.875
2666.6951	5729.975
2669.32934	5725.675
2671.96194	5743.775
2674.59291	5732.275
2677.22224	5751.175
2679.84993	5751.775
2682.476	5729.475
2685.10043	5730.975
2687.72324	5710.175
2690.34441	5703.875
2692.96396	5689.775
2695.58188	5705.975
2698.19818	5690.775
2700.81285	5709.375
2703.4259	5729.375
2706.03733	5788.275
2708.64714	5744.775
2711.25533	5741.375
2713.86191	5721.475
2716.46687	5753.375
2719.07021	5745.075
2721.67194	5745.075
2724.27206	5726.475
2726.87057	5742.775
2729.46747	5748.875
2732.06276	5753.475
2734.65644	5731.575
2737.24852	5736.975
2739.83899	5717.875
2742.42786	5720.975
2745.01513	5722.875
2747.60079	5722.975
2750.18486	5707.975
2752.76733	5710.775
2755.3482	5706.375
2757.92747	5719.675
2760.50515	5710.675
2763.08123	5708.775
2765.65573	5684.475
2768.22863	5717.475
2770.79994	5695.475
2773.36967	5704.375
2775.9378	5698.775
2778.50435	5721.775
2781.06932	5712.275
2783.6327	5723.675
2786.1945	5713.875
2788.75471	5733.775
2791.31335	5721.675
2793.87041	5720.075
2796.42589	5678.275
2798.97979	5694.075
2801.53212	5683.275
2804.08288	5673.775
2806.63206	5690.775
2809.17967	5673.775
2811.72571	5675.475
2814.27018	5689.475
2816.81308	5690.175
2819.35442	5689.475
2821.89419	5692.275
2824.43239	5700.375
2826.96904	5722.075
2829.50412	5704.475
2832.03763	5705.575
2834.56959	5709.575
2837.1	5689.375
2839.62884	5712.375
2842.15613	5724.975
2844.68186	5753.475
2847.20604	5759.075
2849.72867	5766.675
2852.24974	5789.075
2854.76927	5783.175
2857.28724	5794.275
2859.80367	5779.075
2862.31855	5775.575
2864.83189	5762.675
2867.34368	5758.075
2869.85393	5763.275
2872.36264	5745.675
2874.8698	5754.875
2877.37543	5745.875
2879.87952	5767.575
2882.38207	5772.575
2884.88308	5755.275
2887.38256	5768.875
2889.88051	5774.775
2892.37692	5785.475
2894.8718	5765.575
2897.36515	5804.075
2899.85698	5792.975
2902.34727	5824.075
2904.83604	5797.575
2907.32328	5820.475
2909.809	5807.175
2912.29319	5825.875
2914.77587	5813.275
2917.25702	5823.775
2919.73665	5808.375
2922.21476	5804.775
2924.69136	5798.975
2927.16644	5781.975
2929.64	5796.475
2932.11205	5764.775
2934.58258	5739.275
2937.05161	5753.475
2939.51912	5733.675
2941.98513	5707.475
2944.44962	5695.575
2946.91261	5661.675
2949.37409	5658.375
2951.83407	5647.275
2954.29254	5623.575
2956.74951	5598.675
2959.20498	5576.975
2961.65895	5562.475
2964.11142	5538.575
2966.56239	5522.675
2969.01186	5493.275
2971.45984	5469.575
2973.90632	5441.975
2976.35131	5425.675
2978.7948	5394.475
2981.23681	5382.575
2983.67732	5379.075
2986.11635	5361.275
2988.55388	5339.075
2990.98993	5333.275
2993.4245	5306.975
2995.85758	5297.375
2998.28917	5306.475
3000.71928	5288.175
3003.14791	5290.275
3005.57506	5290.175
3008.00073	5266.175
3010.42493	5264.575
3012.84764	5252.175
3015.26888	5254.375
3017.68865	5219.675
3020.10694	5212.975
3022.52376	5201.575
3024.9391	5187.675
3027.35298	5170.375
3029.76539	5150.775
3032.17632	5159.875
3034.5858	5127.475
3036.9938	5121.575
3039.40034	5115.775
3041.80542	5112.775
3044.20903	5094.575
3046.61118	5100.375
3049.01187	5074.375
3051.4111	5079.075
3053.80888	5060.975
3056.20519	5066.275
3058.60005	5035.075
3060.99345	5038.875
3063.3854	5002.175
3065.7759	4989.175
3068.16494	4975.275
3070.55254	4961.575
3072.93868	4947.575
3075.32338	4936.375
3077.70662	4922.375
3080.08842	4904.275
3082.46878	4903.475
3084.84769	4888.175
3087.22515	4890.975
3089.60118	4884.175
3091.97576	4893.775
3094.3489	4888.575
3096.72061	4889.375
3099.09087	4874.575
3101.4597	4871.175
3103.82709	4875.075
3106.19305	4843.875
3108.55757	4855.075
3110.92066	4826.475
3113.28232	4812.575
3115.64255	4813.375
3118.00134	4786.975
3120.35871	4791.775
3122.71466	4790.075
3125.06917	4789.175
3127.42226	4764.675
3129.77393	4780.975
3132.12417	4775.175
3134.47299	4784.775
3136.82039	4783.275
3139.16636	4768.175
3141.51092	4776.075
3143.85406	4784.275
3146.19579	4785.175
3148.53609	4751.475
3150.87499	4769.875
3153.21246	4772.175
3155.54853	4790.675
3157.88318	4768.475
3160.21642	4763.575
3162.54826	4771.875
3164.87868	4770.775
3167.2077	4773.775
3169.5353	4769.675
3171.86151	4758.975
3174.18631	4759.975
3176.5097	4754.775
3178.83169	4757.775
3181.15228	4762.375
3183.47147	4761.775
3185.78926	4738.375
3188.10565	4744.875
3190.42065	4759.275
3192.73424	4767.675
