Data from AgNPs_FTO_APTES_UA_2um_CRN_0.1mM_R6G_10uM_NaF_0.1M_Addition_RamanShift__12__12-28-59-045.txt Node

Date: Tue Dec 21 12:28:59 GMT 2021
User: TCL
Spectrometer: QEP01345
Trigger mode: 4
Integration Time (sec): 7.000000E0
Scans to average: 10
Electric dark correction enabled: true
Nonlinearity correction enabled: false
Boxcar width: 0
XAxis mode: Raman Shifts
Number of Pixels in Spectrum: 1044
>>>>>Begin Spectral Data<<<<<
46.04893	0.7
50.45542	-1.3
54.85868	-1
59.25871	0.4
63.6555	38.5
68.04907	42.5
72.43941	46.6
76.82654	45.1
81.21044	51.8
85.59113	53.1
89.96862	53.4
94.34289	53.7
98.71396	57.4
103.08183	62.8
107.4465	63.8
111.80798	64.9
116.16626	63.2
120.52136	61.7
124.87327	67.8
129.222	66.2
133.56755	72.2
137.90993	85.5
142.24913	83.3
146.58517	94.4
150.91804	110.9
155.24774	130.8
159.57429	162
163.89768	206.6
168.21792	267.7
172.53501	363
176.84895	496.4
181.15975	701.1
185.46741	974.4
189.77193	1352.9
194.07331	1822
198.37157	2350.1
202.6667	2916.1
206.9587	3486.8
211.24758	4059.1
215.53334	4632.8
219.81599	5207.5
224.09553	5875.4
228.37195	6601.4
232.64527	7374
236.91549	8221.9
241.18261	9041.5
245.44663	9804.6
249.70755	10459.4
253.96539	11007.3
258.22014	11462.7
262.4718	11810.3
266.72039	12017.4
270.96589	12105.5
275.20832	12072.5
279.44768	11965.4
283.68397	11877.4
287.91719	11771.4
292.14735	11671.4
296.37445	11680.5
300.59849	11686.4
304.81948	11738.9
309.03742	11763.2
313.25231	11730.2
317.46415	11580.4
321.67296	11296.5
325.87872	11002.3
330.08145	10822
334.28114	10752.4
338.47781	10779.6
342.67145	10905.8
346.86207	11021.6
351.04966	11216.7
355.23424	11412.9
359.4158	11558.1
363.59435	11679.7
367.76989	11708.1
371.94243	11705.9
376.11196	11704.2
380.27849	11688.3
384.44203	11686.5
388.60257	11770.6
392.76012	11910.4
396.91468	12118.3
401.06626	12348
405.21485	12507.8
409.36047	12453.7
413.50311	12241.5
417.64277	12107.2
421.77947	12092.2
425.9132	12153.6
430.04396	12280.7
434.17176	12337.4
438.2966	12422.6
442.41849	12566
446.53742	12791.4
450.6534	13025.5
454.76644	13192.4
458.87653	13194.5
462.98368	13145.4
467.08789	13043.9
471.18916	12872.7
475.2875	12697.2
479.38291	12569
483.4754	12512.9
487.56496	12405.2
491.6516	12327.9
495.73531	12209.2
499.81612	12141.7
503.89401	12165.4
507.96899	12225
512.04106	12188.2
516.11023	12094.3
520.1765	11955.3
524.23987	11820.7
528.30034	11703.7
532.35792	11582.6
536.41261	11455.5
540.46441	11310.7
544.51333	11287.2
548.55936	11406.2
552.60252	11650.3
556.64279	11896.8
560.6802	12063.8
564.71473	12182.8
568.7464	12406.2
572.7752	12846.9
576.80114	13400.3
580.82422	14035.7
584.84444	14606.2
588.86181	15187.6
592.87633	15708.7
596.888	15864.4
600.89682	15355.1
604.9028	14918
608.90594	15446
612.90624	16278.6
616.90371	15232.2
620.89834	12766
624.89015	11599.5
628.87913	11501.3
632.86528	11701.6
636.84862	11791.8
640.82913	11587.9
644.80683	11267.9
648.78172	11029.2
652.75379	10956.2
656.72306	11060.9
660.68952	11201.6
664.65319	11198.2
668.61405	11053.5
672.57211	10972.2
676.52738	11030.7
680.47986	11057.2
684.42955	10976.5
688.37646	10867.9
692.32058	10892.9
696.26192	10984.7
700.20048	11102.9
704.13626	11218.9
708.06928	11320.9
711.99952	11319.3
715.927	11288.3
719.85171	11208.3
723.77365	11096.4
727.69284	10919.3
731.60928	10756.8
735.52295	10686.3
739.43388	10670.4
743.34206	10697.1
747.24749	10799.1
751.15017	10940.1
755.05012	11171.3
758.94733	11578
762.8418	12258.3
766.73354	13345.9
770.62254	14376.8
774.50882	14419.6
778.39237	13625.3
782.27321	12537.9
786.15132	11680.2
790.02671	11104.5
793.89938	10769.8
797.76935	10600.7
801.6366	10566.2
805.50115	10511.1
809.36299	10417.6
813.22213	10316.6
817.07857	10285.3
820.93231	10228.2
824.78336	10187.6
828.63172	10109.1
832.47738	10083.7
836.32036	10071.8
840.16066	10059
843.99827	10028.3
847.8332	10014.1
851.66546	10009.8
855.49504	10030
859.32195	10034.8
863.1462	9990.5
866.96777	9944.9
870.78668	9926
874.60293	9962
878.41652	9946.2
882.22745	9977.8
886.03573	10002.9
889.84136	10034.6
893.64433	9994.6
897.44466	9995.2
901.24235	9988
905.0374	9939.7
908.8298	9919.7
912.61957	9913.4
916.40671	10004
920.19121	10161.1
923.97308	10363.1
927.75233	10414
931.52895	10306
935.30295	10078.4
939.07433	9802.7
942.84309	9621.1
946.60924	9473.6
950.37278	9398.5
954.13371	9388
957.89203	9383.1
961.64774	9369.5
965.40086	9369.1
969.15137	9340.4
972.89929	9269.1
976.64461	9215.5
980.38733	9168.8
984.12747	9162
987.86502	9190.1
991.59999	9202
995.33237	9243.8
999.06217	9366.6
1002.78939	9525.5
1006.51404	9745.6
1010.23611	9962.2
1013.95561	10114.9
1017.67255	10167.4
1021.38692	10077.1
1025.09872	9898.7
1028.80796	9724.1
1032.51465	9635.8
1036.21877	9621.6
1039.92035	9698.9
1043.61937	9804
1047.31584	9871.3
1051.00976	9898.1
1054.70114	9988.2
1058.38998	10042.3
1062.07627	10110.3
1065.76003	10256.7
1069.44126	10434.6
1073.11995	10647.6
1076.79611	10866.9
1080.46974	10951.7
1084.14085	11004.2
1087.80943	11116.7
1091.47549	11269.5
1095.13903	11351.1
1098.80005	11189.4
1102.45857	10825.3
1106.11456	10477.5
1109.76805	10243.6
1113.41903	10182.9
1117.06751	10260
1120.71348	10406.5
1124.35696	10588
1127.99793	10767
1131.63641	10906
1135.2724	10873.9
1138.90589	10791.7
1142.5369	10794.7
1146.16542	10822.8
1149.79145	10936.2
1153.415	11053.4
1157.03607	11219.8
1160.65467	11533.5
1164.27079	12059.5
1167.88443	12764
1171.49561	13591.6
1175.10432	14590.6
1178.71056	15828.8
1182.31434	16949
1185.91565	17566.5
1189.51451	17688.9
1193.11091	17351.3
1196.70485	16691.6
1200.29634	15814.3
1203.88538	15096.3
1207.47197	14619.9
1211.05612	14290.9
1214.63782	13946.3
1218.21708	13559.1
1221.79391	13209.4
1225.36829	12902.7
1228.94024	12798.4
1232.50976	12651.1
1236.07685	12517.7
1239.6415	12385
1243.20374	12339.8
1246.76355	12323.4
1250.32093	12456.1
1253.8759	12685.6
1257.42845	13064
1260.97859	13518
1264.52631	13961.4
1268.07163	14441
1271.61453	14854.2
1275.15503	15289.8
1278.69312	15765.4
1282.22882	16333.8
1285.76211	16944.4
1289.29301	17611.1
1292.82151	18325.4
1296.34761	19177.7
1299.87133	20130.1
1303.39266	21193.7
1306.9116	22210.3
1310.42815	23106.3
1313.94233	23559.2
1317.45412	23411.1
1320.96354	22953.5
1324.47058	22615.4
1327.97525	22377.9
1331.47754	22304.5
1334.97747	22312.8
1338.47502	22306.1
1341.97022	22244.9
1345.46305	22202.9
1348.95352	22142.6
1352.44163	22132.5
1355.92738	22326.4
1359.41078	23013.1
1362.89183	23760.1
1366.37053	23681.4
1369.84688	22201.7
1373.32088	19883.1
1376.79254	17972.7
1380.26186	16961
1383.72883	16637
1387.19347	16383.9
1390.65578	16118.4
1394.11575	15913.9
1397.57339	15939.3
1401.0287	16089
1404.48168	16206.4
1407.93234	16179.4
1411.38068	15888.9
1414.82669	15388
1418.27039	14781.2
1421.71177	14186.9
1425.15083	13701.4
1428.58758	13413.6
1432.02203	13389.6
1435.45416	13616.2
1438.88399	13938.7
1442.31151	14172.7
1445.73673	14410.6
1449.15965	14674
1452.58027	14819
1455.9986	14954.1
1459.41463	15092.2
1462.82837	15367.8
1466.23982	15699.9
1469.64898	16040.8
1473.05586	16276
1476.46045	16441.3
1479.86276	16549.5
1483.26279	16624.5
1486.66054	16833.1
1490.05602	17195.1
1493.44922	17715.7
1496.84016	18368.3
1500.22882	19124
1503.61521	19904.9
1506.99934	20657.1
1510.38121	21076.3
1513.76081	20934.5
1517.13816	20266.5
1520.51324	19424.7
1523.88607	18702.1
1527.25665	18253.5
1530.62498	17992.1
1533.99105	17717.3
1537.35488	17329.8
1540.71647	16775.5
1544.07581	16160.9
1547.4329	15542.1
1550.78776	15017.7
1554.14038	14714.8
1557.49077	14585.5
1560.83892	14631.8
1564.18484	14744.4
1567.52853	14986.8
1570.86999	15110.1
1574.20922	15384.3
1577.54624	15534.8
1580.88103	15348.8
1584.2136	15099.9
1587.54395	15183.8
1590.87208	15659.8
1594.19801	16503.1
1597.52172	17388
1600.84321	17754.7
1604.16251	17206.1
1607.47959	16017.4
1610.79447	14751.9
1614.10715	13547.1
1617.41763	12490.8
1620.7259	11665.7
1624.03199	11212.4
1627.33587	11084
1630.63757	11283.7
1633.93707	11905.3
1637.23439	13067
1640.52951	14897.4
1643.82246	17356.9
1647.11321	19792.8
1650.40179	21073.2
1653.68819	20489.7
1656.97241	18217.5
1660.25446	15391.2
1663.53433	12988.2
1666.81203	11314.9
1670.08756	10253.5
1673.36092	9569.1
1676.63211	9167.5
1679.90115	8897.2
1683.16801	8678.3
1686.43272	8511.8
1689.69527	8411.3
1692.95567	8327
1696.2139	8284.7
1699.46999	8250.4
1702.72392	8200.7
1705.97571	8144.2
1709.22535	8106.3
1712.47284	8056.2
1715.71819	8052.7
1718.96139	7996.6
1722.20246	7943.7
1725.44139	7883.4
1728.67818	7856.2
1731.91284	7771.6
1735.14537	7732.9
1738.37576	7655.9
1741.60403	7645.1
1744.83017	7603
1748.05418	7600.5
1751.27607	7607.1
1754.49584	7608.3
1757.71349	7630.5
1760.92903	7647.7
1764.14244	7618.2
1767.35375	7578.9
1770.56294	7562.7
1773.77002	7490.3
1776.97499	7455.7
1780.17785	7406.9
1783.37861	7372.6
1786.57727	7338.7
1789.77382	7301.1
1792.96828	7287
1796.16064	7265.9
1799.3509	7217.9
1802.53907	7206.5
1805.72514	7195.3
1808.90913	7154.6
1812.09102	7131.8
1815.27083	7116.7
1818.44856	7100.5
1821.6242	7089.7
1824.79776	7078.1
1827.96924	7078.7
1831.13864	7063.7
1834.30597	7070.2
1837.47122	7048.4
1840.6344	7057.5
1843.7955	7056.2
1846.95454	7072.8
1850.11151	7063.3
1853.26642	7037.9
1856.41926	7043.7
1859.57004	7030.3
1862.71876	7017.2
1865.86542	7014.8
1869.01003	7005.1
1872.15258	6992.1
1875.29308	6956.4
1878.43152	6940.6
1881.56792	6914.8
1884.70227	6885
1887.83457	6866.7
1890.96482	6872
1894.09304	6872
1897.21921	6860
1900.34335	6837.9
1903.46544	6826.9
1906.58551	6833.2
1909.70353	6804.5
1912.81953	6775.9
1915.93349	6772.1
1919.04543	6741.5
1922.15534	6731.3
1925.26322	6717.4
1928.36908	6698.5
1931.47292	6673.3
1934.57473	6636.7
1937.67453	6614.8
1940.77232	6591.6
1943.86808	6589.4
1946.96184	6577.2
1950.05358	6540.4
1953.14331	6506.9
1956.23103	6490.2
1959.31675	6453.8
1962.40046	6438.1
1965.48217	6420.2
1968.56188	6412.3
1971.63959	6359.4
1974.7153	6341.2
1977.78901	6330.4
1980.86073	6306.1
1983.93046	6290.3
1986.99819	6258.2
1990.06394	6225.5
1993.1277	6198.4
1996.18947	6164.5
1999.24925	6166.4
2002.30706	6141.4
2005.36288	6114
2008.41672	6092.7
2011.46859	6080.9
2014.51848	6053
2017.56639	6028.6
2020.61233	6002
2023.6563	5987.2
2026.6983	5966.1
2029.73833	5972.6
2032.7764	5966.7
2035.8125	5916.7
2038.84664	5931.9
2041.87881	5908.8
2044.90903	5875.3
2047.93729	5861.3
2050.96359	5880.7
2053.98794	5872.3
2057.01034	5849.4
2060.03078	5836.8
2063.04927	5840
2066.06582	5824.1
2069.08042	5796.1
2072.09307	5796
2075.10378	5811
2078.11255	5808.3
2081.11938	5803.2
2084.12426	5802.6
2087.12722	5784.9
2090.12824	5785.7
2093.12732	5774.4
2096.12447	5778.3
2099.11969	5769.6
2102.11299	5751.8
2105.10435	5784
2108.09379	5772.1
2111.08131	5800.1
2114.0669	5778.8
2117.05057	5778.2
2120.03233	5790.4
2123.01216	5767.4
2125.99008	5786.5
2128.96609	5792.1
2131.94018	5784.4
2134.91236	5784.2
2137.88263	5768.9
2140.851	5768.3
2143.81746	5763.9
2146.78201	5749.5
2149.74466	5765.7
2152.7054	5752
2155.66425	5735.1
2158.6212	5738.6
2161.57625	5731
2164.52941	5740.9
2167.48067	5721
2170.43004	5734.6
2173.37752	5721
2176.32311	5716.9
2179.26681	5692.4
2182.20863	5687
2185.14856	5716.1
2188.08661	5691.7
2191.02278	5692
2193.95707	5690.7
2196.88948	5664.8
2199.82001	5668.8
2202.74867	5646.4
2205.67545	5646.8
2208.60037	5640.6
2211.52341	5617
2214.44458	5606
2217.36388	5576.4
2220.28132	5579.3
2223.1969	5564.1
2226.11061	5576.9
2229.02246	5557.3
2231.93245	5527.1
2234.84058	5543.8
2237.74686	5528.5
2240.65128	5522
2243.55385	5501.9
2246.45456	5492.5
2249.35343	5474.8
2252.25044	5480.7
2255.14561	5454.4
2258.03893	5452.7
2260.93041	5454.2
2263.82004	5440.9
2266.70783	5412.8
2269.59378	5387.4
2272.4779	5375.9
2275.36017	5364.6
2278.24061	5343.3
2281.11922	5345.6
2283.996	5325.6
2286.87094	5318.4
2289.74405	5270.4
2292.61534	5285.5
2295.4848	5273.3
2298.35243	5270.4
2301.21824	5261.3
2304.08223	5250.2
2306.94439	5234.9
2309.80474	5234.8
2312.66327	5219.8
2315.51999	5220.9
2318.37489	5213.4
2321.22797	5209.3
2324.07925	5203.3
2326.92871	5188
2329.77637	5187
2332.62222	5184.9
2335.46626	5169.2
2338.3085	5164.3
2341.14893	5153.6
2343.98756	5162.6
2346.8244	5142.3
2349.65943	5139.2
2352.49267	5140.2
2355.32411	5161.7
2358.15376	5163
2360.98161	5154.9
2363.80768	5142.8
2366.63195	5148.3
2369.45444	5149.4
2372.27514	5150.9
2375.09405	5124.8
2377.91118	5116.2
2380.72652	5099.6
2383.54009	5085
2386.35187	5061.3
2389.16188	5044.8
2391.97011	5027.2
2394.77657	5004.6
2397.58125	5014.5
2400.38416	4994.5
2403.18529	4983.5
2405.98466	4982.3
2408.78226	4967.6
2411.57809	4957
2414.37216	4959.8
2417.16446	4960.6
2419.955	4943.3
2422.74378	4945.1
2425.5308	4930.4
2428.31606	4940.1
2431.09956	4937.9
2433.88131	4924
2436.6613	4921.8
2439.43954	4910
2442.21603	4897.8
2444.99077	4892
2447.76377	4899.7
2450.53501	4898.8
2453.30451	4899.4
2456.07226	4898.6
2458.83827	4893.3
2461.60254	4886.8
2464.36507	4873.7
2467.12586	4866.8
2469.88492	4867.2
2472.64224	4870.4
2475.39782	4888.3
2478.15167	4864.6
2480.90379	4869
2483.65417	4866.8
2486.40283	4845.7
2489.14976	4853.3
2491.89497	4851.6
2494.63845	4880.7
2497.3802	4874.5
2500.12024	4849.2
2502.85855	4838.4
2505.59514	4839.3
2508.33002	4834.2
2511.06318	4821
2513.79462	4811.9
2516.52435	4788.9
2519.25237	4797.1
2521.97867	4782.5
2524.70327	4794.7
2527.42616	4775.4
2530.14734	4774.6
2532.86681	4762.4
2535.58458	4754.4
2538.30065	4740.5
2541.01501	4736.4
2543.72768	4725
2546.43864	4715.6
2549.14791	4713.7
2551.85548	4724.6
2554.56136	4713.4
2557.26554	4700.5
2559.96803	4696
2562.66883	4683.5
2565.36794	4683.4
2568.06536	4673.7
2570.7611	4668
2573.45514	4663.5
2576.14751	4658.7
2578.83819	4651.7
2581.52719	4659.1
2584.21451	4639.7
2586.90015	4630.8
2589.58411	4630.7
2592.2664	4621.3
2594.94701	4611.3
2597.62594	4606.4
2600.30321	4590.2
2602.9788	4570.9
2605.65273	4576
2608.32498	4562.7
2610.99557	4577.8
2613.66449	4579.1
2616.33175	4562.5
2618.99734	4571.1
2621.66128	4553
2624.32355	4557
2626.98416	4546
2629.64311	4541.4
2632.30041	4522.3
2634.95605	4532.9
2637.61004	4529.8
2640.26238	4506.6
2642.91306	4514.7
2645.56209	4509
2648.20948	4524.2
2650.85521	4503.4
2653.4993	4511.8
2656.14175	4523.3
2658.78255	4509.6
2661.42171	4517.9
2664.05923	4512.7
2666.6951	4501.7
2669.32934	4502.9
2671.96194	4522.7
2674.59291	4511.6
2677.22224	4512.5
2679.84993	4506.4
2682.476	4516.2
2685.10043	4506.1
2687.72324	4503.8
2690.34441	4500.2
2692.96396	4517.8
2695.58188	4499.2
2698.19818	4489.3
2700.81285	4492.4
2703.4259	4521
2706.03733	4574.6
2708.64714	4527.2
2711.25533	4523.1
2713.86191	4510.3
2716.46687	4520.6
2719.07021	4512.3
2721.67194	4513.5
2724.27206	4521.2
2726.87057	4492.7
2729.46747	4497.5
2732.06276	4509.1
2734.65644	4525.1
2737.24852	4490.4
2739.83899	4486
2742.42786	4481.9
2745.01513	4483.8
2747.60079	4474
2750.18486	4481.1
2752.76733	4475
2755.3482	4457.5
2757.92747	4456.7
2760.50515	4449.5
2763.08123	4447.5
2765.65573	4427.4
2768.22863	4439.2
2770.79994	4438.1
2773.36967	4432.7
2775.9378	4418.8
2778.50435	4435.5
2781.06932	4431
2783.6327	4412.8
2786.1945	4418.5
2788.75471	4422.3
2791.31335	4402.5
2793.87041	4401.5
2796.42589	4374.1
2798.97979	4371.2
2801.53212	4376.4
2804.08288	4375
2806.63206	4364.7
2809.17967	4352.3
2811.72571	4357.9
2814.27018	4348.2
2816.81308	4347.6
2819.35442	4335.4
2821.89419	4333.6
2824.43239	4342.6
2826.96904	4336.6
2829.50412	4327.6
2832.03763	4333.8
2834.56959	4318.3
2837.1	4318.6
2839.62884	4319
2842.15613	4313.4
2844.68186	4330.3
2847.20604	4347.1
2849.72867	4355.8
2852.24974	4364.4
2854.76927	4355.1
2857.28724	4362.7
2859.80367	4351.3
2862.31855	4344.1
2864.83189	4326.9
2867.34368	4314.7
2869.85393	4318.3
2872.36264	4315.6
2874.8698	4293.2
2877.37543	4297.3
2879.87952	4291.6
2882.38207	4294.7
2884.88308	4287.2
2887.38256	4286.8
2889.88051	4280.7
2892.37692	4283
2894.8718	4282.8
2897.36515	4292.2
2899.85698	4298.7
2902.34727	4304.1
2904.83604	4307.5
2907.32328	4309.5
2909.809	4323.4
2912.29319	4307.2
2914.77587	4295.3
2917.25702	4310.1
2919.73665	4311.6
2922.21476	4296.9
2924.69136	4321.1
2927.16644	4322
2929.64	4293
2932.11205	4297.2
2934.58258	4285.5
2937.05161	4304.3
2939.51912	4299.1
2941.98513	4297.7
2944.44962	4282.1
2946.91261	4264.2
2949.37409	4275.8
2951.83407	4251
2954.29254	4251.5
2956.74951	4223.4
2959.20498	4221.6
2961.65895	4207.5
2964.11142	4199.3
2966.56239	4182.9
2969.01186	4172.5
2971.45984	4156.8
2973.90632	4141.8
2976.35131	4142.2
2978.7948	4130.7
2981.23681	4130.2
2983.67732	4094.4
2986.11635	4099.3
2988.55388	4078.7
2990.98993	4068.3
2993.4245	4074.7
2995.85758	4048.9
2998.28917	4034.2
3000.71928	4040.4
3003.14791	4035.5
3005.57506	4027.7
3008.00073	4012.9
3010.42493	4009.6
3012.84764	3995.1
3015.26888	3987.9
3017.68865	3992.1
3020.10694	3965.5
3022.52376	3954.7
3024.9391	3938.1
3027.35298	3941.8
3029.76539	3947.3
3032.17632	3923.4
3034.5858	3919.6
3036.9938	3909.2
3039.40034	3907.9
3041.80542	3912.2
3044.20903	3882.4
3046.61118	3885.1
3049.01187	3888.3
3051.4111	3857.5
3053.80888	3861
3056.20519	3856
3058.60005	3850.2
3060.99345	3853.7
3063.3854	3840.8
3065.7759	3831.2
3068.16494	3829.6
3070.55254	3809.9
3072.93868	3800.1
3075.32338	3798
3077.70662	3799.6
3080.08842	3783.9
3082.46878	3769.3
3084.84769	3767.3
3087.22515	3753.4
3089.60118	3758.2
3091.97576	3749.6
3094.3489	3765.1
3096.72061	3751.1
3099.09087	3752.3
3101.4597	3742.8
3103.82709	3742.2
3106.19305	3735.1
3108.55757	3740.1
3110.92066	3717.2
3113.28232	3716.8
3115.64255	3705.1
3118.00134	3698.1
3120.35871	3692.7
3122.71466	3692
3125.06917	3684.2
3127.42226	3684.8
3129.77393	3696.7
3132.12417	3692
3134.47299	3678.5
3136.82039	3679.3
3139.16636	3686.5
3141.51092	3683
3143.85406	3697.3
3146.19579	3688.3
3148.53609	3681.8
3150.87499	3679.9
3153.21246	3689.8
3155.54853	3701.4
3157.88318	3689.9
3160.21642	3694.3
3162.54826	3686.6
3164.87868	3701.9
3167.2077	3681.6
3169.5353	3688.6
3171.86151	3664.8
3174.18631	3689.1
3176.5097	3673.2
3178.83169	3675.6
3181.15228	3681.3
3183.47147	3657.6
3185.78926	3671.2
3188.10565	3653.8
3190.42065	3657.7
3192.73424	3652.1
3195.04645	3646.2
3197.35725	3666.2
3199.66667	3658.6
3201.97469	3656.7
3204.28132	3653.4
3206.58656	3670.5
3208.8904	3664.9
3211.19287	3648.8
3213.49394	3663.2
3215.79363	3658.3
3218.09193	3673.4
3220.38884	3664.4
3222.68438	3683.8
3224.97853	3664.5
3227.2713	3663.6
3229.56269	3650
3231.8527	3648.5
3234.14133	3645.8
3236.42858	3633.3
3238.71446	3619
3240.99896	3616.9
3243.28209	3619.1
3245.56384	3616.6
3247.84423	3623.4
3250.12324	3607.2
3252.40088	3597.2
3254.67715	3603.6
3256.95205	3599.5
3259.22558	3594.9
3261.49775	3577.4
3263.76855	3560.5
3266.03799	3565.3
3268.30606	3551.9
3270.57277	3545.5
3272.83812	3534.4
3275.10211	3532.2
3277.36474	3523.9
3279.62601	3537.3
3281.88593	3529.2
3284.14448	3524.3
3286.40168	3528.1
3288.65753	3512.2
3290.91202	3522.2
3293.16516	3518.4
3295.41695	3502.2
3297.66738	3473.1
3299.91647	3464.6
3302.16421	3452.6
3304.4106	3427.2
3306.65564	3405.9
3308.89933	3391.8
3311.14169	3378.7
3313.38269	3346.1
3315.62236	3336.7
3317.86068	3302.6
3320.09766	3256.8
3322.3333	3235.2
3324.5676	3239.3
3326.80056	3194.7
3329.03219	3180.8
3331.26248	1.4
3333.49143	-0.3
3335.71905	-0.2
