Data from AgNPs_FTO_APTES_UA_10um_CRN_0.1mM_R6G_10uM_NaF_0.1M_Addition_RamanShift__30__14-10-29-161.txt Node

Date: Tue Dec 21 14:10:29 GMT 2021
User: TCL
Spectrometer: QEP01345
Trigger mode: 4
Integration Time (sec): 7.000000E0
Scans to average: 10
Electric dark correction enabled: true
Nonlinearity correction enabled: false
Boxcar width: 0
XAxis mode: Raman Shifts
Number of Pixels in Spectrum: 1044
>>>>>Begin Spectral Data<<<<<
46.04893	-0.525
50.45542	-0.025
54.85868	0.275
59.25871	0.575
63.6555	27.775
68.04907	33.475
72.43941	35.275
76.82654	36.175
81.21044	39.775
85.59113	40.175
89.96862	39.775
94.34289	44.975
98.71396	41.075
103.08183	45.975
107.4465	47.975
111.80798	49.275
116.16626	46.375
120.52136	50.175
124.87327	50.275
129.222	51.375
133.56755	51.275
137.90993	61.775
142.24913	57.575
146.58517	63.775
150.91804	70.275
155.24774	80.275
159.57429	99.075
163.89768	128.675
168.21792	159.575
172.53501	214.175
176.84895	291.175
181.15975	408.875
185.46741	563.175
189.77193	775.175
194.07331	1039.575
198.37157	1343.475
202.6667	1651.875
206.9587	1968.475
211.24758	2268.675
215.53334	2601.675
219.81599	2939.475
224.09553	3341.075
228.37195	3775.675
232.64527	4257.675
236.91549	4752.675
241.18261	5209.875
245.44663	5627.275
249.70755	5967.075
253.96539	6245.875
258.22014	6432.675
262.4718	6611.875
266.72039	6733.275
270.96589	6780.475
275.20832	6783.275
279.44768	6710.875
283.68397	6646.275
287.91719	6610.575
292.14735	6633.475
296.37445	6713.875
300.59849	6890.175
304.81948	7131.275
309.03742	7303.275
313.25231	7287.575
317.46415	6982.575
321.67296	6495.175
325.87872	6068.575
330.08145	5860.775
334.28114	5830.475
338.47781	5948.575
342.67145	6106.975
346.86207	6330.575
351.04966	6700.275
355.23424	7094.875
359.4158	7417.675
363.59435	7563.875
367.76989	7588.775
371.94243	7556.475
376.11196	7504.675
380.27849	7451.275
384.44203	7388.775
388.60257	7300.375
392.76012	7279.775
396.91468	7379.375
401.06626	7590.275
405.21485	7782.275
409.36047	7710.975
413.50311	7371.875
417.64277	7033.175
421.77947	6815.375
425.9132	6735.575
430.04396	6727.675
434.17176	6740.475
438.2966	6824.375
442.41849	6937.175
446.53742	7131.675
450.6534	7343.975
454.76644	7496.175
458.87653	7526.775
462.98368	7456.875
467.08789	7340.675
471.18916	7189.075
475.2875	7027.575
479.38291	6875.075
483.4754	6776.475
487.56496	6686.875
491.6516	6645.475
495.73531	6611.375
499.81612	6627.175
503.89401	6665.575
507.96899	6707.175
512.04106	6760.875
516.11023	6853.875
520.1765	6882.875
524.23987	6877.775
528.30034	6769.875
532.35792	6630.475
536.41261	6468.075
540.46441	6300.375
544.51333	6232.875
548.55936	6271.275
552.60252	6385.975
556.64279	6551.175
560.6802	6651.975
564.71473	6769.075
568.7464	7038.875
572.7752	7257.875
576.80114	7168.075
580.82422	6987.375
584.84444	6945.175
588.86181	6908.775
592.87633	6918.175
596.888	6949.075
600.89682	7159.575
604.9028	7855.975
608.90594	9722.375
612.90624	12182.775
616.90371	11941.475
620.89834	8651.875
624.89015	7016.475
628.87913	6707.175
632.86528	6780.975
636.84862	6865.075
640.82913	6784.875
644.80683	6463.775
648.78172	6255.075
652.75379	6227.575
656.72306	6459.975
660.68952	6766.075
664.65319	6730.975
668.61405	6430.075
672.57211	6259.675
676.52738	6265.875
680.47986	6272.375
684.42955	6228.875
688.37646	6188.475
692.32058	6195.575
696.26192	6249.775
700.20048	6352.975
704.13626	6440.275
708.06928	6452.375
711.99952	6360.875
715.927	6303.875
719.85171	6287.375
723.77365	6259.075
727.69284	6175.875
731.60928	6089.175
735.52295	6067.075
739.43388	6072.375
743.34206	6125.175
747.24749	6157.175
751.15017	6242.675
755.05012	6383.475
758.94733	6707.375
762.8418	7359.375
766.73354	8440.775
770.62254	9622.075
774.50882	10191.775
778.39237	9889.175
782.27321	8666.575
786.15132	7387.475
790.02671	6614.575
793.89938	6281.975
797.76935	6132.975
801.6366	6111.675
805.50115	6107.875
809.36299	6127.475
813.22213	6125.175
817.07857	6114.575
820.93231	6048.575
824.78336	6003.575
828.63172	6012.075
832.47738	6007.775
836.32036	5994.175
840.16066	5959.475
843.99827	5914.375
847.8332	5888.775
851.66546	5883.775
855.49504	5859.775
859.32195	5859.175
863.1462	5822.275
866.96777	5791.075
870.78668	5811.475
874.60293	5836.975
878.41652	5844.775
882.22745	5910.175
886.03573	5955.575
889.84136	5961.075
893.64433	5890.775
897.44466	5862.575
901.24235	5832.075
905.0374	5770.775
908.8298	5755.175
912.61957	5735.575
916.40671	5750.475
920.19121	5816.975
923.97308	5869.575
927.75233	5923.375
931.52895	5942.675
935.30295	5864.275
939.07433	5697.075
942.84309	5561.675
946.60924	5452.375
950.37278	5416.675
954.13371	5381.275
957.89203	5364.275
961.64774	5341.075
965.40086	5319.675
969.15137	5307.975
972.89929	5288.275
976.64461	5260.075
980.38733	5254.175
984.12747	5260.375
987.86502	5303.275
991.59999	5306.675
995.33237	5374.375
999.06217	5474.675
1002.78939	5642.575
1006.51404	5803.475
1010.23611	5976.875
1013.95561	6080.575
1017.67255	6080.075
1021.38692	5985.375
1025.09872	5879.275
1028.80796	5816.975
1032.51465	5828.075
1036.21877	5887.475
1039.92035	5981.575
1043.61937	6033.275
1047.31584	6010.675
1051.00976	5964.875
1054.70114	5948.775
1058.38998	5950.475
1062.07627	5976.675
1065.76003	6037.575
1069.44126	6089.875
1073.11995	6186.375
1076.79611	6244.675
1080.46974	6309.075
1084.14085	6402.475
1087.80943	6543.475
1091.47549	6601.975
1095.13903	6506.875
1098.80005	6292.775
1102.45857	6073.575
1106.11456	5951.975
1109.76805	5934.775
1113.41903	6040.575
1117.06751	6226.575
1120.71348	6486.375
1124.35696	6794.575
1127.99793	7059.975
1131.63641	7065.675
1135.2724	6793.275
1138.90589	6518.475
1142.5369	6337.775
1146.16542	6189.775
1149.79145	6125.775
1153.415	6125.675
1157.03607	6159.975
1160.65467	6258.275
1164.27079	6472.175
1167.88443	6754.875
1171.49561	7264.875
1175.10432	8125.675
1178.71056	9189.475
1182.31434	10020.275
1185.91565	10200.175
1189.51451	10020.575
1193.11091	9603.275
1196.70485	9032.675
1200.29634	8601.375
1203.88538	8199.575
1207.47197	7682.475
1211.05612	7264.975
1214.63782	6974.175
1218.21708	6863.175
1221.79391	6832.275
1225.36829	6861.275
1228.94024	6873.575
1232.50976	6917.875
1236.07685	6922.075
1239.6415	6949.075
1243.20374	6984.575
1246.76355	7031.175
1250.32093	7103.975
1253.8759	7255.875
1257.42845	7454.875
1260.97859	7659.575
1264.52631	7846.775
1268.07163	8049.575
1271.61453	8230.075
1275.15503	8370.775
1278.69312	8476.475
1282.22882	8562.275
1285.76211	8758.775
1289.29301	9037.275
1292.82151	9331.075
1296.34761	9632.175
1299.87133	10082.375
1303.39266	10802.575
1306.9116	11815.275
1310.42815	12968.575
1313.94233	13649.175
1317.45412	13442.475
1320.96354	12682.975
1324.47058	11850.175
1327.97525	11231.275
1331.47754	10879.475
1334.97747	10826.575
1338.47502	10951.175
1341.97022	11214.575
1345.46305	11535.975
1348.95352	11926.575
1352.44163	12500.175
1355.92738	13402.575
1359.41078	14880.175
1362.89183	16181.075
1366.37053	15739.675
1369.84688	13799.375
1373.32088	11844.475
1376.79254	10426.675
1380.26186	9620.575
1383.72883	9168.075
1387.19347	8830.275
1390.65578	8550.275
1394.11575	8345.575
1397.57339	8275.275
1401.0287	8317.475
1404.48168	8436.275
1407.93234	8571.175
1411.38068	8659.675
1414.82669	8613.875
1418.27039	8450.675
1421.71177	8196.375
1425.15083	7986.675
1428.58758	7885.375
1432.02203	7875.875
1435.45416	7897.775
1438.88399	7892.275
1442.31151	7881.675
1445.73673	7911.175
1449.15965	7984.075
1452.58027	7972.775
1455.9986	7925.775
1459.41463	7952.675
1462.82837	8041.075
1466.23982	8168.475
1469.64898	8336.775
1473.05586	8467.175
1476.46045	8558.475
1479.86276	8673.575
1483.26279	8872.275
1486.66054	9112.875
1490.05602	9445.975
1493.44922	9858.075
1496.84016	10469.375
1500.22882	11359.275
1503.61521	12538.275
1506.99934	13734.275
1510.38121	14743.775
1513.76081	15080.075
1517.13816	14381.775
1520.51324	12846.575
1523.88607	11312.175
1527.25665	10291.475
1530.62498	9699.275
1533.99105	9365.075
1537.35488	9181.875
1540.71647	9065.875
1544.07581	8994.275
1547.4329	8919.075
1550.78776	8852.075
1554.14038	8773.375
1557.49077	8778.775
1560.83892	8881.875
1564.18484	9105.975
1567.52853	9328.375
1570.86999	9551.875
1574.20922	9663.775
1577.54624	9602.175
1580.88103	9202.875
1584.2136	8668.775
1587.54395	8408.875
1590.87208	8535.475
1594.19801	9009.275
1597.52172	9608.775
1600.84321	9902.275
1604.16251	9643.375
1607.47959	9035.875
1610.79447	8351.675
1614.10715	7676.175
1617.41763	7150.875
1620.7259	6807.675
1624.03199	6624.375
1627.33587	6589.775
1630.63757	6727.375
1633.93707	6995.375
1637.23439	7469.675
1640.52951	8136.775
1643.82246	9041.875
1647.11321	10049.375
1650.40179	10778.475
1653.68819	10582.575
1656.97241	9418.175
1660.25446	7985.575
1663.53433	6952.275
1666.81203	6276.675
1670.08756	5855.275
1673.36092	5599.775
1676.63211	5447.175
1679.90115	5320.175
1683.16801	5208.375
1686.43272	5141.675
1689.69527	5075.675
1692.95567	5032.775
1696.2139	5022.875
1699.46999	5014.775
1702.72392	4994.775
1705.97571	4962.675
1709.22535	4927.875
1712.47284	4921.375
1715.71819	4921.775
1718.96139	4899.375
1722.20246	4900.975
1725.44139	4872.675
1728.67818	4863.875
1731.91284	4800.975
1735.14537	4779.875
1738.37576	4741.075
1741.60403	4705.475
1744.83017	4694.475
1748.05418	4687.975
1751.27607	4688.875
1754.49584	4690.075
1757.71349	4663.875
1760.92903	4669.375
1764.14244	4632.975
1767.35375	4626.875
1770.56294	4615.575
1773.77002	4574.475
1776.97499	4550.975
1780.17785	4522.975
1783.37861	4489.975
1786.57727	4480.475
1789.77382	4470.975
1792.96828	4464.875
1796.16064	4449.275
1799.3509	4419.675
1802.53907	4420.875
1805.72514	4408.575
1808.90913	4400.875
1812.09102	4380.875
1815.27083	4378.975
1818.44856	4359.275
1821.6242	4343.575
1824.79776	4343.175
1827.96924	4335.475
1831.13864	4321.575
1834.30597	4326.775
1837.47122	4326.275
1840.6344	4309.975
1843.7955	4306.875
1846.95454	4299.175
1850.11151	4297.775
1853.26642	4293.075
1856.41926	4298.975
1859.57004	4295.975
1862.71876	4287.175
1865.86542	4295.275
1869.01003	4287.475
1872.15258	4290.075
1875.29308	4290.775
1878.43152	4267.175
1881.56792	4278.875
1884.70227	4271.275
1887.83457	4270.975
1890.96482	4269.675
1894.09304	4254.175
1897.21921	4260.175
1900.34335	4264.375
1903.46544	4259.575
1906.58551	4264.875
1909.70353	4254.175
1912.81953	4251.475
1915.93349	4240.475
1919.04543	4241.275
1922.15534	4241.375
1925.26322	4229.675
1928.36908	4205.375
1931.47292	4200.175
1934.57473	4184.375
1937.67453	4164.375
1940.77232	4139.675
1943.86808	4136.375
1946.96184	4108.175
1950.05358	4111.975
1953.14331	4102.975
1956.23103	4058.575
1959.31675	4056.975
1962.40046	4040.375
1965.48217	4041.275
1968.56188	4017.975
1971.63959	4003.575
1974.7153	3993.375
1977.78901	3987.575
1980.86073	3973.075
1983.93046	3965.075
1986.99819	3934.075
1990.06394	3916.775
1993.1277	3919.175
1996.18947	3888.675
1999.24925	3896.575
2002.30706	3882.675
2005.36288	3863.275
2008.41672	3837.075
2011.46859	3847.575
2014.51848	3827.575
2017.56639	3812.275
2020.61233	3807.475
2023.6563	3795.375
2026.6983	3773.975
2029.73833	3774.175
2032.7764	3747.875
2035.8125	3743.675
2038.84664	3739.575
2041.87881	3733.875
2044.90903	3714.575
2047.93729	3697.975
2050.96359	3720.975
2053.98794	3710.775
2057.01034	3695.975
2060.03078	3691.575
2063.04927	3691.875
2066.06582	3665.075
2069.08042	3671.575
2072.09307	3671.575
2075.10378	3669.175
2078.11255	3667.775
2081.11938	3671.075
2084.12426	3666.275
2087.12722	3661.775
2090.12824	3649.375
2093.12732	3651.875
2096.12447	3636.575
2099.11969	3651.875
2102.11299	3651.775
2105.10435	3645.475
2108.09379	3646.975
2111.08131	3649.075
2114.0669	3644.275
2117.05057	3646.175
2120.03233	3656.575
2123.01216	3644.075
2125.99008	3649.775
2128.96609	3658.275
2131.94018	3665.675
2134.91236	3665.475
2137.88263	3657.275
2140.851	3646.175
2143.81746	3663.575
2146.78201	3663.575
2149.74466	3654.075
2152.7054	3648.175
2155.66425	3647.475
2158.6212	3634.775
2161.57625	3634.175
2164.52941	3627.375
2167.48067	3636.575
2170.43004	3622.875
2173.37752	3623.575
2176.32311	3613.175
2179.26681	3615.475
2182.20863	3598.475
2185.14856	3615.475
2188.08661	3596.675
2191.02278	3613.775
2193.95707	3596.975
2196.88948	3591.875
2199.82001	3592.875
2202.74867	3584.675
2205.67545	3588.475
2208.60037	3572.975
2211.52341	3563.075
2214.44458	3564.475
2217.36388	3566.175
2220.28132	3552.475
2223.1969	3526.975
2226.11061	3533.375
2229.02246	3517.675
2231.93245	3516.675
2234.84058	3502.275
2237.74686	3490.375
2240.65128	3500.075
2243.55385	3501.875
2246.45456	3481.875
2249.35343	3476.075
2252.25044	3475.075
2255.14561	3474.375
2258.03893	3478.175
2260.93041	3480.875
2263.82004	3466.775
2266.70783	3453.275
2269.59378	3443.375
2272.4779	3426.375
2275.36017	3421.275
2278.24061	3426.475
2281.11922	3396.775
2283.996	3399.875
2286.87094	3379.775
2289.74405	3375.275
2292.61534	3371.175
2295.4848	3373.875
2298.35243	3357.075
2301.21824	3349.175
2304.08223	3353.075
2306.94439	3334.475
2309.80474	3351.075
2312.66327	3343.675
2315.51999	3328.775
2318.37489	3322.075
2321.22797	3326.175
2324.07925	3326.175
2326.92871	3315.475
2329.77637	3312.575
2332.62222	3322.475
2335.46626	3316.475
2338.3085	3298.375
2341.14893	3312.375
2343.98756	3315.075
2346.8244	3298.175
2349.65943	3301.075
2352.49267	3288.775
2355.32411	3307.375
2358.15376	3310.175
2360.98161	3306.475
2363.80768	3307.575
2366.63195	3310.775
2369.45444	3300.375
2372.27514	3289.375
2375.09405	3292.675
2377.91118	3283.175
2380.72652	3273.475
2383.54009	3256.175
2386.35187	3254.675
2389.16188	3227.575
2391.97011	3237.175
2394.77657	3216.775
2397.58125	3204.975
2400.38416	3213.675
2403.18529	3195.275
2405.98466	3191.875
2408.78226	3182.775
2411.57809	3169.475
2414.37216	3173.175
2417.16446	3162.775
2419.955	3158.675
2422.74378	3148.675
2425.5308	3155.875
2428.31606	3151.275
2431.09956	3138.975
2433.88131	3140.475
2436.6613	3133.575
2439.43954	3127.975
2442.21603	3121.375
2444.99077	3127.575
2447.76377	3139.975
2450.53501	3129.675
2453.30451	3136.975
2456.07226	3126.775
2458.83827	3127.675
2461.60254	3122.575
2464.36507	3114.575
2467.12586	3108.175
2469.88492	3100.275
2472.64224	3105.875
2475.39782	3119.275
2478.15167	3132.275
2480.90379	3134.075
2483.65417	3113.275
2486.40283	3133.175
2489.14976	3129.075
2491.89497	3134.275
2494.63845	3149.675
2497.3802	3146.975
2500.12024	3134.575
2502.85855	3114.775
2505.59514	3113.575
2508.33002	3105.275
2511.06318	3095.675
2513.79462	3073.975
2516.52435	3069.375
2519.25237	3069.575
2521.97867	3050.775
2524.70327	3047.475
2527.42616	3041.975
2530.14734	3024.775
2532.86681	3039.375
2535.58458	3029.275
2538.30065	3021.775
2541.01501	3021.975
2543.72768	3025.675
2546.43864	3019.075
2549.14791	3017.075
2551.85548	3000.675
2554.56136	3013.675
2557.26554	3005.375
2559.96803	2995.375
2562.66883	2998.775
2565.36794	2983.375
2568.06536	2983.175
2570.7611	2984.575
2573.45514	2977.075
2576.14751	2970.175
2578.83819	2969.775
2581.52719	2978.875
2584.21451	2965.075
2586.90015	2959.375
2589.58411	2948.875
2592.2664	2959.175
2594.94701	2931.075
2597.62594	2955.675
2600.30321	2927.875
2602.9788	2936.475
2605.65273	2942.675
2608.32498	2934.675
2610.99557	2946.275
2613.66449	2933.775
2616.33175	2919.475
2618.99734	2923.975
2621.66128	2914.775
2624.32355	2910.975
2626.98416	2912.575
2629.64311	2897.875
2632.30041	2900.375
2634.95605	2904.175
2637.61004	2908.775
2640.26238	2892.175
2642.91306	2889.875
2645.56209	2898.375
2648.20948	2889.075
2650.85521	2878.775
2653.4993	2878.975
2656.14175	2876.275
2658.78255	2884.575
2661.42171	2891.475
2664.05923	2888.175
2666.6951	2894.075
2669.32934	2897.875
2671.96194	2894.275
2674.59291	2901.875
2677.22224	2901.875
2679.84993	2906.575
2682.476	2903.975
2685.10043	2898.375
2687.72324	2896.275
2690.34441	2902.375
2692.96396	2899.675
2695.58188	2909.575
2698.19818	2908.775
2700.81285	2901.875
2703.4259	2941.475
2706.03733	2995.375
2708.64714	2956.075
2711.25533	2944.375
2713.86191	2924.075
2716.46687	2933.975
2719.07021	2937.475
2721.67194	2940.975
2724.27206	2933.775
2726.87057	2928.175
2729.46747	2931.575
2732.06276	2926.975
2734.65644	2920.275
2737.24852	2915.375
2739.83899	2907.775
2742.42786	2904.375
2745.01513	2900.775
2747.60079	2904.575
2750.18486	2890.975
2752.76733	2883.575
2755.3482	2897.975
2757.92747	2884.975
2760.50515	2884.475
2763.08123	2889.075
2765.65573	2874.975
2768.22863	2870.975
2770.79994	2877.075
2773.36967	2877.575
2775.9378	2869.175
2778.50435	2884.175
2781.06932	2876.475
2783.6327	2879.475
2786.1945	2874.875
2788.75471	2875.975
2791.31335	2868.875
2793.87041	2876.975
2796.42589	2873.675
2798.97979	2873.575
2801.53212	2883.475
2804.08288	2887.275
2806.63206	2885.975
2809.17967	2878.775
2811.72571	2890.675
2814.27018	2903.475
2816.81308	2903.375
2819.35442	2905.075
2821.89419	2903.475
2824.43239	2898.175
2826.96904	2906.275
2829.50412	2923.175
2832.03763	2907.575
2834.56959	2913.375
2837.1	2920.975
2839.62884	2944.175
2842.15613	2958.075
2844.68186	3012.675
2847.20604	3056.775
2849.72867	3088.975
2852.24974	3099.675
2854.76927	3122.275
2857.28724	3117.975
2859.80367	3086.975
2862.31855	3072.975
2864.83189	3050.375
2867.34368	3043.875
2869.85393	3039.975
2872.36264	3030.375
2874.8698	3020.375
2877.37543	3015.075
2879.87952	3032.475
2882.38207	3017.075
2884.88308	3010.675
2887.38256	3009.475
2889.88051	3016.575
2892.37692	3015.375
2894.8718	3009.975
2897.36515	3017.075
2899.85698	3018.975
2902.34727	3036.975
2904.83604	3028.575
2907.32328	3012.975
2909.809	3014.475
2912.29319	3022.375
2914.77587	3020.175
2917.25702	3019.675
2919.73665	3009.875
2922.21476	3011.075
2924.69136	2999.175
2927.16644	3014.575
2929.64	3002.075
2932.11205	2991.075
2934.58258	2976.675
2937.05161	2962.975
2939.51912	2956.375
2941.98513	2943.275
2944.44962	2909.875
2946.91261	2892.375
2949.37409	2874.575
2951.83407	2855.975
2954.29254	2829.675
2956.74951	2813.275
2959.20498	2805.475
2961.65895	2784.875
2964.11142	2775.375
2966.56239	2763.275
2969.01186	2756.375
2971.45984	2746.775
2973.90632	2738.575
2976.35131	2719.775
2978.7948	2718.875
2981.23681	2700.375
2983.67732	2693.475
2986.11635	2690.275
2988.55388	2677.675
2990.98993	2662.775
2993.4245	2649.775
2995.85758	2650.575
2998.28917	2644.775
3000.71928	2642.675
3003.14791	2639.175
3005.57506	2638.875
3008.00073	2627.275
3010.42493	2635.475
3012.84764	2619.775
3015.26888	2624.575
3017.68865	2603.975
3020.10694	2611.175
3022.52376	2592.475
3024.9391	2595.675
3027.35298	2587.775
3029.76539	2594.175
3032.17632	2595.475
3034.5858	2577.575
3036.9938	2582.475
3039.40034	2567.575
3041.80542	2572.975
3044.20903	2565.475
3046.61118	2569.675
3049.01187	2554.775
3051.4111	2557.575
3053.80888	2554.475
3056.20519	2548.375
3058.60005	2541.575
3060.99345	2547.975
3063.3854	2532.175
3065.7759	2528.675
3068.16494	2518.675
3070.55254	2506.675
3072.93868	2509.875
3075.32338	2512.375
3077.70662	2498.475
3080.08842	2493.575
3082.46878	2478.475
3084.84769	2471.775
3087.22515	2468.175
3089.60118	2469.075
3091.97576	2472.875
3094.3489	2480.075
3096.72061	2477.175
3099.09087	2464.575
3101.4597	2459.875
3103.82709	2472.075
3106.19305	2458.375
3108.55757	2458.275
3110.92066	2461.875
3113.28232	2455.975
3115.64255	2445.875
3118.00134	2439.175
3120.35871	2453.175
3122.71466	2451.075
3125.06917	2429.775
3127.42226	2443.375
3129.77393	2452.275
3132.12417	2443.075
3134.47299	2453.075
3136.82039	2460.175
3139.16636	2456.475
3141.51092	2462.275
3143.85406	2473.775
3146.19579	2461.975
3148.53609	2481.075
3150.87499	2471.975
3153.21246	2482.675
3155.54853	2485.775
3157.88318	2475.375
3160.21642	2487.775
3162.54826	2486.975
3164.87868	2486.675
3167.2077	2494.275
3169.5353	2492.575
3171.86151	2496.375
3174.18631	2499.175
3176.5097	2494.675
3178.83169	2494.875
3181.15228	2490.475
3183.47147	2490.175
3185.78926	2502.875
3188.10565	2506.375
3190.42065	2500.175
3192.73424	2498.975
3195.04645	2493.975
3197.35725	2504.075
3199.66667	2507.675
3201.97469	2520.175
3204.28132	2508.475
3206.58656	2526.675
3208.8904	2516.575
3211.19287	2525.575
3213.49394	2529.675
3215.79363	2532.875
3218.09193	2531.675
3220.38884	2550.375
3222.68438	2557.475
3224.97853	2530.475
3227.2713	2531.875
3229.56269	2537.275
3231.8527	2533.875
