Data from AgNPs_FTO_APTES_UA_0um_CRN_0.1mM_R6G_10uM_NaF_0.1M_Addition_RamanShift__57__11-17-48-964.txt Node

Date: Tue Dec 21 11:17:48 GMT 2021
User: TCL
Spectrometer: QEP01345
Trigger mode: 4
Integration Time (sec): 7.000000E0
Scans to average: 10
Electric dark correction enabled: true
Nonlinearity correction enabled: false
Boxcar width: 0
XAxis mode: Raman Shifts
Number of Pixels in Spectrum: 1044
>>>>>Begin Spectral Data<<<<<
46.04893	0.275
50.45542	-0.925
54.85868	-1.625
59.25871	0.675
63.6555	48.175
68.04907	53.675
72.43941	56.675
76.82654	59.175
81.21044	60.675
85.59113	64.875
89.96862	68.175
94.34289	67.575
98.71396	70.775
103.08183	74.875
107.4465	78.675
111.80798	76.875
116.16626	79.475
120.52136	81.275
124.87327	85.575
129.222	88.375
133.56755	98.475
137.90993	107.775
142.24913	114.775
146.58517	132.875
150.91804	154.975
155.24774	182.975
159.57429	223.175
163.89768	289.575
168.21792	383.775
172.53501	519.675
176.84895	717.275
181.15975	1014.575
185.46741	1414.075
189.77193	1946.575
194.07331	2604.075
198.37157	3348.475
202.6667	4120.675
206.9587	4919.675
211.24758	5705.775
215.53334	6469.875
219.81599	7316.575
224.09553	8234.275
228.37195	9265.175
232.64527	10360.275
236.91549	11521.275
241.18261	12614.075
245.44663	13616.475
249.70755	14528.775
253.96539	15304.575
258.22014	16004.475
262.4718	16581.375
266.72039	16954.575
270.96589	17171.475
275.20832	17224.375
279.44768	17174.575
283.68397	17162.075
287.91719	17107.575
292.14735	17140.175
296.37445	17191.375
300.59849	17180.575
304.81948	17198.075
309.03742	17110.375
313.25231	16922.275
317.46415	16481.075
321.67296	15923.075
325.87872	15479.075
330.08145	15258.475
334.28114	15206.475
338.47781	15320.875
342.67145	15478.275
346.86207	15759.775
351.04966	16086.875
355.23424	16472.575
359.4158	16762.475
363.59435	16975.275
367.76989	17058.775
371.94243	17091.875
376.11196	17169.175
380.27849	17257.975
384.44203	17350.675
388.60257	17469.975
392.76012	17647.975
396.91468	17931.875
401.06626	18239.775
405.21485	18500.675
409.36047	18483.375
413.50311	18260.675
417.64277	18079.675
421.77947	18186.375
425.9132	18406.875
430.04396	18690.375
434.17176	18933.475
438.2966	19224.475
442.41849	19785.575
446.53742	20709.175
450.6534	21768.975
454.76644	22429.875
458.87653	22455.075
462.98368	21952.175
467.08789	21311.575
471.18916	20754.075
475.2875	20459.875
479.38291	20393.975
483.4754	20390.775
487.56496	20207.675
491.6516	19782.675
495.73531	19271.775
499.81612	18905.375
503.89401	18918.375
507.96899	18903.575
512.04106	18643.175
516.11023	18215.275
520.1765	17758.175
524.23987	17486.575
528.30034	17327.175
532.35792	17268.175
536.41261	16995.775
540.46441	16638.675
544.51333	16550.875
548.55936	16735.475
552.60252	17318.975
556.64279	18020.775
560.6802	18682.675
564.71473	19151.675
568.7464	19828.075
572.7752	20663.975
576.80114	21183.475
580.82422	21557.775
584.84444	21993.175
588.86181	22887.675
592.87633	24222.275
596.888	25041.275
600.89682	24560.175
604.9028	24026.475
608.90594	24867.675
612.90624	25949.375
616.90371	23739.275
620.89834	19354.675
624.89015	17455.675
628.87913	17368.075
632.86528	17583.375
636.84862	17523.975
640.82913	17127.975
644.80683	16528.375
648.78172	16000.975
652.75379	15817.875
656.72306	15935.875
660.68952	16179.375
664.65319	16171.775
668.61405	15856.875
672.57211	15774.675
676.52738	15798.175
680.47986	15811.275
684.42955	15699.675
688.37646	15591.675
692.32058	15617.175
696.26192	15817.675
700.20048	16078.375
704.13626	16253.575
708.06928	16286.675
711.99952	16163.875
715.927	16035.875
719.85171	16019.075
723.77365	15958.275
727.69284	15770.675
731.60928	15630.175
735.52295	15619.275
739.43388	15679.775
743.34206	15745.575
747.24749	15901.375
751.15017	16131.175
755.05012	16550.475
758.94733	17220.475
762.8418	18387.775
766.73354	20161.275
770.62254	21747.475
774.50882	21778.775
778.39237	20276.175
782.27321	18380.675
786.15132	16934.375
790.02671	16024.875
793.89938	15612.075
797.76935	15443.275
801.6366	15449.975
805.50115	15472.575
809.36299	15384.475
813.22213	15232.075
817.07857	15124.875
820.93231	15040.275
824.78336	14947.875
828.63172	14835.475
832.47738	14852.175
836.32036	14874.475
840.16066	14879.675
843.99827	14872.075
847.8332	14818.575
851.66546	14719.175
855.49504	14669.875
859.32195	14667.375
863.1462	14596.875
866.96777	14561.375
870.78668	14458.275
874.60293	14448.375
878.41652	14496.275
882.22745	14534.975
886.03573	14589.375
889.84136	14583.575
893.64433	14540.775
897.44466	14457.475
901.24235	14358.475
905.0374	14229.375
908.8298	14164.075
912.61957	14172.375
916.40671	14322.575
920.19121	14629.775
923.97308	14950.875
927.75233	15034.275
931.52895	14886.875
935.30295	14558.775
939.07433	14151.675
942.84309	13854.075
946.60924	13706.975
950.37278	13626.675
954.13371	13630.775
957.89203	13607.875
961.64774	13561.575
965.40086	13524.475
969.15137	13477.275
972.89929	13350.775
976.64461	13240.275
980.38733	13194.775
984.12747	13241.575
987.86502	13354.275
991.59999	13573.775
995.33237	13905.375
999.06217	14554.975
1002.78939	15357.475
1006.51404	16018.975
1010.23611	16340.975
1013.95561	16501.875
1017.67255	16422.475
1021.38692	15999.875
1025.09872	15488.475
1028.80796	15270.675
1032.51465	15509.775
1036.21877	15839.075
1039.92035	15911.075
1043.61937	15788.675
1047.31584	15505.675
1051.00976	15171.075
1054.70114	15020.575
1058.38998	14970.175
1062.07627	15044.875
1065.76003	15205.975
1069.44126	15428.975
1073.11995	15726.275
1076.79611	15947.475
1080.46974	16054.875
1084.14085	16222.475
1087.80943	16482.675
1091.47549	16787.575
1095.13903	16849.575
1098.80005	16571.775
1102.45857	16011.975
1106.11456	15562.075
1109.76805	15389.575
1113.41903	15435.175
1117.06751	15621.575
1120.71348	15825.675
1124.35696	16047.475
1127.99793	16316.875
1131.63641	16464.775
1135.2724	16438.875
1138.90589	16362.675
1142.5369	16352.975
1146.16542	16522.575
1149.79145	16719.275
1153.415	16942.175
1157.03607	17326.975
1160.65467	17955.775
1164.27079	19022.675
1167.88443	20566.775
1171.49561	22556.775
1175.10432	25148.775
1178.71056	28289.575
1182.31434	31094.375
1185.91565	32300.175
1189.51451	31835.575
1193.11091	30567.375
1196.70485	29166.675
1200.29634	27578.175
1203.88538	26146.275
1207.47197	25149.375
1211.05612	24395.575
1214.63782	23790.375
1218.21708	23477.275
1221.79391	23491.675
1225.36829	23424.775
1228.94024	23002.875
1232.50976	22057.475
1236.07685	21196.475
1239.6415	20629.675
1243.20374	20431.975
1246.76355	20462.675
1250.32093	20772.375
1253.8759	21347.775
1257.42845	22139.775
1260.97859	22953.575
1264.52631	23728.475
1268.07163	24558.375
1271.61453	25454.575
1275.15503	26463.675
1278.69312	27542.375
1282.22882	28577.275
1285.76211	29802.675
1289.29301	31280.975
1292.82151	33159.875
1296.34761	35394.175
1299.87133	38131.475
1303.39266	41183.075
1306.9116	44490.875
1310.42815	47817.375
1313.94233	50479.875
1317.45412	51323.675
1320.96354	50667.575
1324.47058	49493.975
1327.97525	48263.375
1331.47754	47251.775
1334.97747	46495.775
1338.47502	46052.675
1341.97022	45071.075
1345.46305	43566.575
1348.95352	41697.475
1352.44163	40605.075
1355.92738	40914.775
1359.41078	42590.575
1362.89183	44476.175
1366.37053	44592.675
1369.84688	41800.775
1373.32088	37115.475
1376.79254	33191.875
1380.26186	31543.575
1383.72883	31407.975
1387.19347	31585.675
1390.65578	31710.475
1394.11575	32373.175
1397.57339	33850.675
1401.0287	35901.375
1404.48168	37731.275
1407.93234	38543.175
1411.38068	38252.875
1414.82669	36788.675
1418.27039	34358.675
1421.71177	31662.275
1425.15083	29342.275
1428.58758	27842.275
1432.02203	27562.775
1435.45416	28137.475
1438.88399	29170.275
1442.31151	30270.375
1445.73673	31307.175
1449.15965	32337.375
1452.58027	32922.675
1455.9986	33047.175
1459.41463	33121.775
1462.82837	33653.275
1466.23982	34764.375
1469.64898	35808.775
1473.05586	36376.575
1476.46045	36383.175
1479.86276	36058.475
1483.26279	35479.475
1486.66054	34890.075
1490.05602	34520.175
1493.44922	34135.875
1496.84016	33434.675
1500.22882	32596.775
1503.61521	32167.175
1506.99934	32302.875
1510.38121	32733.875
1513.76081	32874.675
1517.13816	32449.175
1520.51324	31457.175
1523.88607	30557.375
1527.25665	30135.075
1530.62498	30265.375
1533.99105	30466.475
1537.35488	30623.075
1540.71647	30526.275
1544.07581	29975.875
1547.4329	29056.275
1550.78776	28143.875
1554.14038	27333.075
1557.49077	26816.975
1560.83892	26573.575
1564.18484	26483.575
1567.52853	26462.475
1570.86999	26511.975
1574.20922	26893.175
1577.54624	27332.075
1580.88103	27577.775
1584.2136	28049.575
1587.54395	29442.375
1590.87208	31936.775
1594.19801	35331.875
1597.52172	38925.875
1600.84321	40801.875
1604.16251	39440.675
1607.47959	35379.975
1610.79447	30534.275
1614.10715	26092.175
1617.41763	22830.675
1620.7259	20754.375
1624.03199	19712.375
1627.33587	19594.275
1630.63757	20346.175
1633.93707	22094.975
1637.23439	25200.675
1640.52951	29825.375
1643.82246	35688.575
1647.11321	40676.675
1650.40179	42219.375
1653.68819	39068.175
1656.97241	32910.475
1660.25446	26631.075
1663.53433	21752.075
1666.81203	18557.575
1670.08756	16645.475
1673.36092	15451.675
1676.63211	14709.175
1679.90115	14209.275
1683.16801	13792.175
1686.43272	13521.175
1689.69527	13300.975
1692.95567	13143.075
1696.2139	13079.675
1699.46999	12973.075
1702.72392	12884.375
1705.97571	12813.075
1709.22535	12782.675
1712.47284	12685.275
1715.71819	12679.275
1718.96139	12589.875
1722.20246	12531.375
1725.44139	12468.475
1728.67818	12392.775
1731.91284	12282.575
1735.14537	12195.275
1738.37576	12142.975
1741.60403	12116.075
1744.83017	12063.875
1748.05418	12072.575
1751.27607	12023.175
1754.49584	12003.475
1757.71349	11983.175
1760.92903	11954.375
1764.14244	11935.475
1767.35375	11909.875
1770.56294	11858.075
1773.77002	11833.675
1776.97499	11788.775
1780.17785	11761.475
1783.37861	11739.575
1786.57727	11703.375
1789.77382	11667.275
1792.96828	11643.075
1796.16064	11597.675
1799.3509	11576.575
1802.53907	11540.975
1805.72514	11504.875
1808.90913	11463.275
1812.09102	11428.975
1815.27083	11389.575
1818.44856	11381.175
1821.6242	11340.975
1824.79776	11357.575
1827.96924	11339.675
1831.13864	11318.375
1834.30597	11327.975
1837.47122	11310.775
1840.6344	11315.675
1843.7955	11303.075
1846.95454	11332.075
1850.11151	11319.675
1853.26642	11308.675
1856.41926	11336.175
1859.57004	11325.575
1862.71876	11319.275
1865.86542	11332.975
1869.01003	11297.275
1872.15258	11343.075
1875.29308	11352.475
1878.43152	11324.775
1881.56792	11346.575
1884.70227	11363.975
1887.83457	11352.675
1890.96482	11368.775
1894.09304	11346.575
1897.21921	11361.775
1900.34335	11393.575
1903.46544	11394.075
1906.58551	11372.675
1909.70353	11363.275
1912.81953	11348.975
1915.93349	11328.175
1919.04543	11267.875
1922.15534	11242.075
1925.26322	11190.275
1928.36908	11172.175
1931.47292	11104.775
1934.57473	11050.975
1937.67453	11044.775
1940.77232	10990.975
1943.86808	10920.075
1946.96184	10902.375
1950.05358	10842.975
1953.14331	10808.475
1956.23103	10754.775
1959.31675	10729.875
1962.40046	10681.175
1965.48217	10650.375
1968.56188	10601.175
1971.63959	10559.775
1974.7153	10547.475
1977.78901	10504.675
1980.86073	10442.175
1983.93046	10449.275
1986.99819	10356.675
1990.06394	10337.175
1993.1277	10342.875
1996.18947	10271.875
1999.24925	10236.375
2002.30706	10210.975
2005.36288	10202.375
2008.41672	10180.675
2011.46859	10144.475
2014.51848	10124.675
2017.56639	10087.575
2020.61233	10069.575
2023.6563	10042.275
2026.6983	10029.475
2029.73833	10016.675
2032.7764	9969.175
2035.8125	9942.675
2038.84664	9968.475
2041.87881	9936.775
2044.90903	9926.675
2047.93729	9894.275
2050.96359	9917.075
2053.98794	9913.575
2057.01034	9879.175
2060.03078	9885.975
2063.04927	9836.975
2066.06582	9860.975
2069.08042	9844.875
2072.09307	9814.475
2075.10378	9794.975
2078.11255	9803.575
2081.11938	9810.775
2084.12426	9767.875
2087.12722	9763.375
2090.12824	9769.475
2093.12732	9757.575
2096.12447	9764.275
2099.11969	9746.575
2102.11299	9768.775
2105.10435	9731.375
2108.09379	9745.675
2111.08131	9732.175
2114.0669	9755.775
2117.05057	9736.175
2120.03233	9724.375
2123.01216	9733.075
2125.99008	9733.175
2128.96609	9722.375
2131.94018	9737.775
2134.91236	9724.375
2137.88263	9743.775
2140.851	9737.475
2143.81746	9737.775
2146.78201	9725.075
2149.74466	9733.175
2152.7054	9728.175
2155.66425	9711.275
2158.6212	9693.775
2161.57625	9722.775
2164.52941	9694.375
2167.48067	9697.775
2170.43004	9693.175
2173.37752	9695.575
2176.32311	9694.675
2179.26681	9715.075
2182.20863	9686.375
2185.14856	9702.675
2188.08661	9706.675
2191.02278	9692.175
2193.95707	9697.175
2196.88948	9681.175
2199.82001	9684.975
2202.74867	9681.975
2205.67545	9681.475
2208.60037	9637.075
2211.52341	9613.575
2214.44458	9616.875
2217.36388	9580.575
2220.28132	9572.075
2223.1969	9570.875
2226.11061	9572.275
2229.02246	9546.975
2231.93245	9546.075
2234.84058	9522.175
2237.74686	9492.875
2240.65128	9492.875
2243.55385	9477.975
2246.45456	9471.575
2249.35343	9446.675
2252.25044	9408.175
2255.14561	9406.475
2258.03893	9388.575
2260.93041	9356.775
2263.82004	9324.175
2266.70783	9296.675
2269.59378	9254.575
2272.4779	9226.675
2275.36017	9203.575
2278.24061	9190.375
2281.11922	9156.975
2283.996	9142.375
2286.87094	9137.575
2289.74405	9127.375
2292.61534	9130.075
2295.4848	9098.175
2298.35243	9124.175
2301.21824	9111.875
2304.08223	9128.275
2306.94439	9118.975
2309.80474	9115.675
2312.66327	9127.975
2315.51999	9118.175
2318.37489	9116.075
2321.22797	9105.775
2324.07925	9094.875
2326.92871	9078.675
2329.77637	9063.775
2332.62222	9059.375
2335.46626	9069.575
2338.3085	9052.175
2341.14893	9076.275
2343.98756	9063.375
2346.8244	9105.275
2349.65943	9092.275
2352.49267	9103.075
2355.32411	9065.575
2358.15376	9083.775
2360.98161	9064.675
2363.80768	9059.275
2366.63195	9067.675
2369.45444	9058.175
2372.27514	9035.875
2375.09405	9002.575
2377.91118	8969.975
2380.72652	8945.775
2383.54009	8930.175
2386.35187	8923.375
2389.16188	8864.375
2391.97011	8872.475
2394.77657	8866.575
2397.58125	8831.575
2400.38416	8822.475
2403.18529	8819.175
2405.98466	8834.775
2408.78226	8798.175
2411.57809	8777.175
2414.37216	8768.375
2417.16446	8725.575
2419.955	8735.175
2422.74378	8740.375
2425.5308	8719.675
2428.31606	8692.275
2431.09956	8710.575
2433.88131	8692.675
2436.6613	8693.575
2439.43954	8678.075
2442.21603	8694.575
2444.99077	8667.475
2447.76377	8690.975
2450.53501	8690.375
2453.30451	8688.575
2456.07226	8680.275
2458.83827	8676.175
2461.60254	8684.575
2464.36507	8691.775
2467.12586	8688.575
2469.88492	8697.075
2472.64224	8695.275
2475.39782	8719.275
2478.15167	8741.375
2480.90379	8740.475
2483.65417	8745.775
2486.40283	8743.175
2489.14976	8762.675
2491.89497	8757.575
2494.63845	8755.175
2497.3802	8784.775
2500.12024	8790.275
2502.85855	8776.275
2505.59514	8759.375
2508.33002	8763.975
2511.06318	8734.475
2513.79462	8731.575
2516.52435	8742.675
2519.25237	8720.875
2521.97867	8716.075
2524.70327	8706.675
2527.42616	8675.875
2530.14734	8695.775
2532.86681	8695.875
2535.58458	8670.375
2538.30065	8653.375
2541.01501	8685.175
2543.72768	8655.375
2546.43864	8639.175
2549.14791	8639.575
2551.85548	8656.475
2554.56136	8639.075
2557.26554	8632.675
2559.96803	8612.175
2562.66883	8632.475
2565.36794	8631.675
2568.06536	8629.375
2570.7611	8626.775
2573.45514	8617.875
2576.14751	8625.875
2578.83819	8623.875
2581.52719	8637.475
2584.21451	8637.675
2586.90015	8642.875
2589.58411	8633.875
2592.2664	8646.875
2594.94701	8621.675
2597.62594	8642.075
2600.30321	8623.275
2602.9788	8632.975
2605.65273	8640.675
2608.32498	8660.475
2610.99557	8656.975
2613.66449	8668.975
2616.33175	8667.975
2618.99734	8659.575
2621.66128	8643.075
2624.32355	8675.875
2626.98416	8694.375
2629.64311	8680.075
2632.30041	8701.275
2634.95605	8697.575
2637.61004	8701.675
2640.26238	8699.075
2642.91306	8697.675
2645.56209	8679.675
2648.20948	8660.675
2650.85521	8666.075
2653.4993	8662.475
2656.14175	8687.375
2658.78255	8700.275
2661.42171	8680.275
2664.05923	8699.075
2666.6951	8704.275
2669.32934	8743.375
2671.96194	8734.175
2674.59291	8756.075
2677.22224	8703.275
2679.84993	8692.875
2682.476	8693.375
2685.10043	8691.675
2687.72324	8686.075
2690.34441	8682.175
2692.96396	8656.875
2695.58188	8671.875
2698.19818	8681.575
2700.81285	8676.175
2703.4259	8715.775
2706.03733	8739.675
2708.64714	8739.375
2711.25533	8714.275
2713.86191	8705.075
2716.46687	8727.175
2719.07021	8720.975
2721.67194	8723.375
2724.27206	8717.475
2726.87057	8724.975
2729.46747	8740.975
2732.06276	8769.175
2734.65644	8763.175
2737.24852	8785.775
2739.83899	8768.375
2742.42786	8776.975
2745.01513	8761.775
2747.60079	8768.975
2750.18486	8751.275
2752.76733	8772.675
2755.3482	8767.975
2757.92747	8775.375
2760.50515	8793.975
2763.08123	8791.975
2765.65573	8756.575
2768.22863	8813.675
2770.79994	8786.475
2773.36967	8816.775
2775.9378	8811.275
2778.50435	8827.475
2781.06932	8816.075
2783.6327	8841.975
2786.1945	8826.875
2788.75471	8817.875
2791.31335	8831.075
2793.87041	8809.475
2796.42589	8786.075
2798.97979	8817.075
2801.53212	8791.475
2804.08288	8788.875
2806.63206	8782.375
2809.17967	8743.575
2811.72571	8732.375
2814.27018	8712.575
2816.81308	8710.575
2819.35442	8695.275
2821.89419	8687.475
2824.43239	8682.875
2826.96904	8699.775
2829.50412	8685.175
2832.03763	8660.375
2834.56959	8639.375
2837.1	8634.975
2839.62884	8640.175
2842.15613	8633.375
2844.68186	8648.575
2847.20604	8638.175
2849.72867	8658.875
2852.24974	8633.675
2854.76927	8622.275
2857.28724	8641.775
2859.80367	8618.775
2862.31855	8578.375
2864.83189	8592.075
2867.34368	8583.975
2869.85393	8578.075
2872.36264	8590.575
2874.8698	8584.275
2877.37543	8579.875
2879.87952	8622.475
2882.38207	8596.475
2884.88308	8585.475
2887.38256	8609.975
2889.88051	8602.075
2892.37692	8617.375
2894.8718	8618.175
2897.36515	8637.675
2899.85698	8666.175
2902.34727	8676.875
2904.83604	8687.175
2907.32328	8679.775
2909.809	8700.975
2912.29319	8713.575
2914.77587	8699.275
2917.25702	8718.675
2919.73665	8723.775
2922.21476	8714.175
2924.69136	8679.775
2927.16644	8704.875
2929.64	8678.575
2932.11205	8682.975
2934.58258	8641.375
2937.05161	8660.075
2939.51912	8667.175
2941.98513	8672.775
2944.44962	8638.675
2946.91261	8594.475
2949.37409	8636.475
2951.83407	8590.675
2954.29254	8597.375
2956.74951	8570.475
2959.20498	8578.675
2961.65895	8539.475
2964.11142	8521.175
2966.56239	8495.375
2969.01186	8482.175
2971.45984	8428.275
2973.90632	8402.575
2976.35131	8373.075
2978.7948	8375.175
2981.23681	8330.075
2983.67732	8311.075
2986.11635	8269.075
2988.55388	8273.975
2990.98993	8235.575
2993.4245	8221.975
2995.85758	8199.375
2998.28917	8174.975
3000.71928	8174.975
3003.14791	8154.275
3005.57506	8127.775
3008.00073	8127.075
3010.42493	8101.575
3012.84764	8077.175
3015.26888	8058.575
3017.68865	8059.275
3020.10694	8032.575
3022.52376	7997.775
3024.9391	7993.675
3027.35298	7964.175
3029.76539	7955.275
3032.17632	7953.975
3034.5858	7932.375
3036.9938	7949.775
3039.40034	7925.675
3041.80542	7923.075
3044.20903	7919.475
3046.61118	7931.775
3049.01187	7896.675
3051.4111	7892.675
3053.80888	7871.175
3056.20519	7860.175
3058.60005	7819.875
3060.99345	7823.775
3063.3854	7778.075
3065.7759	7745.175
3068.16494	7708.275
3070.55254	7697.875
3072.93868	7701.475
3075.32338	7645.675
3077.70662	7630.475
3080.08842	7608.075
3082.46878	7599.575
3084.84769	7595.975
3087.22515	7574.875
3089.60118	7575.675
3091.97576	7559.375
3094.3489	7565.875
3096.72061	7563.675
3099.09087	7565.875
3101.4597	7544.875
3103.82709	7540.075
3106.19305	7503.475
3108.55757	7508.775
3110.92066	7481.375
3113.28232	7442.175
3115.64255	7430.775
3118.00134	7409.975
3120.35871	7429.575
3122.71466	7396.175
3125.06917	7365.575
3127.42226	7367.675
3129.77393	7367.375
3132.12417	7353.575
3134.47299	7335.375
3136.82039	7339.275
3139.16636	7324.575
3141.51092	7344.375
3143.85406	7306.675
3146.19579	7304.375
3148.53609	7317.475
3150.87499	7313.575
3153.21246	7264.575
3155.54853	7308.875
3157.88318	7275.775
3160.21642	7289.475
3162.54826	7286.575
3164.87868	7273.675
3167.2077	7270.375
3169.5353	7275.975
3171.86151	7257.875
3174.18631	7271.575
3176.5097	7241.275
