Data from AgNPs_FTO_APTES_UA_1um_CRN_0.1mM_R6G_10uM_NaF_0.1M_Addition_RamanShift__20__11-57-29-009.txt Node

Date: Tue Dec 21 11:57:29 GMT 2021
User: TCL
Spectrometer: QEP01345
Trigger mode: 4
Integration Time (sec): 7.000000E0
Scans to average: 10
Electric dark correction enabled: true
Nonlinearity correction enabled: false
Boxcar width: 0
XAxis mode: Raman Shifts
Number of Pixels in Spectrum: 1044
>>>>>Begin Spectral Data<<<<<
46.04893	-0.075
50.45542	-0.475
54.85868	-1.475
59.25871	-1.075
63.6555	40.425
68.04907	45.225
72.43941	48.225
76.82654	50.225
81.21044	55.225
85.59113	57.025
89.96862	57.125
94.34289	55.925
98.71396	61.825
103.08183	63.525
107.4465	66.225
111.80798	67.425
116.16626	67.025
120.52136	70.625
124.87327	72.325
129.222	73.125
133.56755	78.125
137.90993	86.625
142.24913	90.325
146.58517	109.325
150.91804	115.825
155.24774	138.925
159.57429	166.225
163.89768	218.825
168.21792	286.425
172.53501	379.425
176.84895	522.325
181.15975	733.225
185.46741	1027.425
189.77193	1413.025
194.07331	1886.125
198.37157	2434.525
202.6667	3006.325
206.9587	3590.725
211.24758	4166.125
215.53334	4754.825
219.81599	5361.625
224.09553	6034.025
228.37195	6765.325
232.64527	7576.125
236.91549	8407.625
241.18261	9269.025
245.44663	10029.225
249.70755	10720.325
253.96539	11244.125
258.22014	11740.725
262.4718	12106.325
266.72039	12340.125
270.96589	12434.225
275.20832	12404.425
279.44768	12257.225
283.68397	12142.525
287.91719	12039.725
292.14735	11977.725
296.37445	11957.425
300.59849	11967.425
304.81948	12002.725
309.03742	11998.925
313.25231	11935.025
317.46415	11646.725
321.67296	11307.725
325.87872	11013.425
330.08145	10861.425
334.28114	10811.725
338.47781	10862.625
342.67145	10968.225
346.86207	11189.125
351.04966	11368.425
355.23424	11643.025
359.4158	11860.125
363.59435	11969.825
367.76989	12042.625
371.94243	12102.325
376.11196	12151.825
380.27849	12179.725
384.44203	12280.525
388.60257	12355.625
392.76012	12485.225
396.91468	12665.825
401.06626	12904.825
405.21485	13052.625
409.36047	12995.825
413.50311	12815.225
417.64277	12631.125
421.77947	12629.425
425.9132	12723.025
430.04396	12813.925
434.17176	12915.525
438.2966	13066.325
442.41849	13387.825
446.53742	13903.425
450.6534	14485.925
454.76644	14848.625
458.87653	14827.525
462.98368	14534.425
467.08789	14222.325
471.18916	13898.325
475.2875	13663.825
479.38291	13602.425
483.4754	13492.425
487.56496	13340.425
491.6516	13133.025
495.73531	12916.325
499.81612	12840.125
503.89401	12895.225
507.96899	12906.625
512.04106	12789.125
516.11023	12595.225
520.1765	12389.625
524.23987	12288.825
528.30034	12298.825
532.35792	12242.425
536.41261	12062.025
540.46441	11831.525
544.51333	11695.125
548.55936	11772.025
552.60252	12022.625
556.64279	12431.825
560.6802	12739.925
564.71473	12928.125
568.7464	13199.725
572.7752	13655.825
576.80114	14013.725
580.82422	14326.325
584.84444	14708.025
588.86181	15264.625
592.87633	15998.725
596.888	16492.325
600.89682	16244.625
604.9028	16120.425
608.90594	16911.425
612.90624	17924.625
616.90371	16473.525
620.89834	13473.025
624.89015	12072.025
628.87913	11941.525
632.86528	12119.825
636.84862	12211.525
640.82913	12039.025
644.80683	11665.925
648.78172	11342.025
652.75379	11225.525
656.72306	11321.925
660.68952	11488.925
664.65319	11465.525
668.61405	11307.825
672.57211	11312.125
676.52738	11437.325
680.47986	11446.625
684.42955	11319.725
688.37646	11149.125
692.32058	11082.625
696.26192	11115.925
700.20048	11241.425
704.13626	11353.125
708.06928	11364.125
711.99952	11281.325
715.927	11206.825
719.85171	11210.625
723.77365	11193.725
727.69284	11096.825
731.60928	11011.125
735.52295	10956.725
739.43388	10983.125
743.34206	11040.225
747.24749	11089.325
751.15017	11188.225
755.05012	11409.325
758.94733	11806.525
762.8418	12536.625
766.73354	13725.925
770.62254	14889.125
774.50882	15130.225
778.39237	14320.225
782.27321	13039.625
786.15132	11927.325
790.02671	11218.625
793.89938	10880.625
797.76935	10733.825
801.6366	10704.625
805.50115	10713.725
809.36299	10614.625
813.22213	10446.425
817.07857	10379.825
820.93231	10316.525
824.78336	10234.625
828.63172	10215.425
832.47738	10199.925
836.32036	10176.825
840.16066	10188.225
843.99827	10178.225
847.8332	10131.825
851.66546	10080.025
855.49504	10104.325
859.32195	10101.425
863.1462	10097.025
866.96777	10075.125
870.78668	10076.925
874.60293	10053.425
878.41652	10057.125
882.22745	10097.025
886.03573	10117.825
889.84136	10107.625
893.64433	10079.925
897.44466	10045.225
901.24235	9972.925
905.0374	9876.625
908.8298	9814.725
912.61957	9754.325
916.40671	9857.625
920.19121	9996.025
923.97308	10185.725
927.75233	10310.425
931.52895	10254.425
935.30295	10065.825
939.07433	9781.425
942.84309	9564.625
946.60924	9474.525
950.37278	9407.925
954.13371	9401.925
957.89203	9368.125
961.64774	9336.325
965.40086	9280.425
969.15137	9257.225
972.89929	9203.825
976.64461	9125.825
980.38733	9086.025
984.12747	9105.425
987.86502	9149.825
991.59999	9277.325
995.33237	9436.825
999.06217	9738.825
1002.78939	10191.025
1006.51404	10509.425
1010.23611	10761.325
1013.95561	10895.625
1017.67255	10942.825
1021.38692	10739.725
1025.09872	10418.325
1028.80796	10217.925
1032.51465	10233.125
1036.21877	10384.625
1039.92035	10448.725
1043.61937	10423.025
1047.31584	10342.025
1051.00976	10227.925
1054.70114	10148.225
1058.38998	10140.825
1062.07627	10147.825
1065.76003	10227.625
1069.44126	10337.325
1073.11995	10550.325
1076.79611	10732.925
1080.46974	10768.825
1084.14085	10856.525
1087.80943	11008.625
1091.47549	11148.825
1095.13903	11196.825
1098.80005	10990.825
1102.45857	10644.425
1106.11456	10387.125
1109.76805	10284.625
1113.41903	10334.825
1117.06751	10440.925
1120.71348	10623.325
1124.35696	10823.725
1127.99793	11057.025
1131.63641	11191.325
1135.2724	11150.525
1138.90589	11057.125
1142.5369	11010.225
1146.16542	11012.525
1149.79145	11050.325
1153.415	11114.125
1157.03607	11323.325
1160.65467	11706.925
1164.27079	12318.225
1167.88443	13279.125
1171.49561	14453.825
1175.10432	15994.125
1178.71056	17884.825
1182.31434	19609.125
1185.91565	20406.525
1189.51451	20146.725
1193.11091	19281.725
1196.70485	18147.525
1200.29634	17011.025
1203.88538	15972.225
1207.47197	15226.625
1211.05612	14730.625
1214.63782	14364.825
1218.21708	14254.425
1221.79391	14281.625
1225.36829	14443.925
1228.94024	14334.225
1232.50976	13938.425
1236.07685	13510.025
1239.6415	13180.025
1243.20374	13041.425
1246.76355	13013.725
1250.32093	13142.025
1253.8759	13430.925
1257.42845	13894.225
1260.97859	14431.225
1264.52631	14907.325
1268.07163	15465.625
1271.61453	16011.725
1275.15503	16609.425
1278.69312	17170.125
1282.22882	17826.725
1285.76211	18481.825
1289.29301	19305.925
1292.82151	20251.725
1296.34761	21429.825
1299.87133	22816.725
1303.39266	24456.025
1306.9116	26298.625
1310.42815	28220.025
1313.94233	29711.325
1317.45412	30150.025
1320.96354	29580.925
1324.47058	28753.325
1327.97525	27817.625
1331.47754	27002.925
1334.97747	26412.025
1338.47502	26034.625
1341.97022	25618.725
1345.46305	25007.925
1348.95352	24468.725
1352.44163	24469.125
1355.92738	25167.525
1359.41078	26546.325
1362.89183	27854.425
1366.37053	27938.725
1369.84688	26011.625
1373.32088	22897.425
1376.79254	20390.425
1380.26186	19151.925
1383.72883	18804.425
1387.19347	18569.525
1390.65578	18371.425
1394.11575	18500.125
1397.57339	19089.925
1401.0287	19964.825
1404.48168	20754.425
1407.93234	21145.325
1411.38068	21023.025
1414.82669	20361.925
1418.27039	19330.225
1421.71177	18101.125
1425.15083	17030.025
1428.58758	16451.925
1432.02203	16361.025
1435.45416	16713.625
1438.88399	17247.825
1442.31151	17731.825
1445.73673	18205.725
1449.15965	18623.625
1452.58027	18883.525
1455.9986	18867.225
1459.41463	18919.425
1462.82837	19304.525
1466.23982	19913.625
1469.64898	20509.225
1473.05586	20820.725
1476.46045	20848.025
1479.86276	20724.725
1483.26279	20532.925
1486.66054	20303.725
1490.05602	20331.625
1493.44922	20400.325
1496.84016	20303.725
1500.22882	20281.325
1503.61521	20512.825
1506.99934	21018.725
1510.38121	21544.025
1513.76081	21537.125
1517.13816	20926.025
1520.51324	19916.525
1523.88607	18904.125
1527.25665	18374.125
1530.62498	18185.825
1533.99105	18147.725
1537.35488	18130.525
1540.71647	17926.425
1544.07581	17604.025
1547.4329	17152.625
1550.78776	16681.625
1554.14038	16331.025
1557.49077	16121.125
1560.83892	16045.125
1564.18484	16039.025
1567.52853	16094.125
1570.86999	16191.825
1574.20922	16425.225
1577.54624	16574.925
1580.88103	16486.225
1584.2136	16471.025
1587.54395	16911.625
1590.87208	17979.525
1594.19801	19618.725
1597.52172	21460.025
1600.84321	22506.125
1604.16251	21940.225
1607.47959	19996.125
1610.79447	17631.725
1614.10715	15445.425
1617.41763	13725.625
1620.7259	12611.325
1624.03199	12014.425
1627.33587	11914.325
1630.63757	12292.725
1633.93707	13241.125
1637.23439	14953.125
1640.52951	17624.525
1643.82246	20974.225
1647.11321	23938.525
1650.40179	24938.325
1653.68819	23203.225
1656.97241	19661.125
1660.25446	16035.925
1663.53433	13267.225
1666.81203	11488.025
1670.08756	10420.325
1673.36092	9767.625
1676.63211	9396.025
1679.90115	9083.725
1683.16801	8877.825
1686.43272	8701.525
1689.69527	8575.925
1692.95567	8494.525
1696.2139	8425.225
1699.46999	8403.225
1702.72392	8338.325
1705.97571	8279.825
1709.22535	8233.025
1712.47284	8199.925
1715.71819	8171.825
1718.96139	8135.325
1722.20246	8122.525
1725.44139	8042.125
1728.67818	7971.625
1731.91284	7953.625
1735.14537	7910.625
1738.37576	7857.825
1741.60403	7837.625
1744.83017	7838.425
1748.05418	7845.425
1751.27607	7850.425
1754.49584	7860.225
1757.71349	7854.525
1760.92903	7820.425
1764.14244	7774.825
1767.35375	7728.725
1770.56294	7678.025
1773.77002	7628.025
1776.97499	7568.325
1780.17785	7557.425
1783.37861	7518.725
1786.57727	7476.725
1789.77382	7450.725
1792.96828	7420.125
1796.16064	7385.125
1799.3509	7371.325
1802.53907	7354.925
1805.72514	7329.925
1808.90913	7312.925
1812.09102	7282.825
1815.27083	7268.425
1818.44856	7241.825
1821.6242	7258.825
1824.79776	7223.425
1827.96924	7203.225
1831.13864	7195.825
1834.30597	7208.425
1837.47122	7233.225
1840.6344	7199.825
1843.7955	7212.025
1846.95454	7195.025
1850.11151	7198.225
1853.26642	7190.525
1856.41926	7202.125
1859.57004	7195.825
1862.71876	7179.825
1865.86542	7197.125
1869.01003	7181.025
1872.15258	7189.525
1875.29308	7184.325
1878.43152	7182.525
1881.56792	7170.725
1884.70227	7159.125
1887.83457	7156.425
1890.96482	7151.725
1894.09304	7167.225
1897.21921	7165.725
1900.34335	7149.225
1903.46544	7148.825
1906.58551	7131.725
1909.70353	7125.625
1912.81953	7108.725
1915.93349	7060.425
1919.04543	7056.925
1922.15534	7043.225
1925.26322	7005.425
1928.36908	6976.625
1931.47292	6941.825
1934.57473	6911.225
1937.67453	6915.225
1940.77232	6891.925
1943.86808	6848.125
1946.96184	6838.225
1950.05358	6804.725
1953.14331	6784.725
1956.23103	6751.925
1959.31675	6724.625
1962.40046	6713.525
1965.48217	6668.725
1968.56188	6661.525
1971.63959	6634.125
1974.7153	6619.925
1977.78901	6579.425
1980.86073	6549.525
1983.93046	6539.225
1986.99819	6510.725
1990.06394	6496.725
1993.1277	6475.425
1996.18947	6460.725
1999.24925	6449.025
2002.30706	6414.725
2005.36288	6399.425
2008.41672	6402.925
2011.46859	6344.125
2014.51848	6353.625
2017.56639	6310.325
2020.61233	6299.325
2023.6563	6288.525
2026.6983	6281.525
2029.73833	6268.325
2032.7764	6255.925
2035.8125	6232.225
2038.84664	6238.925
2041.87881	6212.925
2044.90903	6208.625
2047.93729	6198.725
2050.96359	6200.825
2053.98794	6180.925
2057.01034	6181.025
2060.03078	6157.125
2063.04927	6151.325
2066.06582	6150.825
2069.08042	6151.325
2072.09307	6135.625
2075.10378	6142.525
2078.11255	6138.125
2081.11938	6125.125
2084.12426	6117.925
2087.12722	6123.425
2090.12824	6095.425
2093.12732	6096.625
2096.12447	6095.625
2099.11969	6099.225
2102.11299	6085.125
2105.10435	6085.925
2108.09379	6080.425
2111.08131	6105.225
2114.0669	6092.625
2117.05057	6071.725
2120.03233	6093.325
2123.01216	6085.725
2125.99008	6088.725
2128.96609	6076.025
2131.94018	6084.225
2134.91236	6099.325
2137.88263	6093.025
2140.851	6075.825
2143.81746	6093.725
2146.78201	6082.525
2149.74466	6070.825
2152.7054	6065.525
2155.66425	6071.325
2158.6212	6067.525
2161.57625	6064.825
2164.52941	6054.925
2167.48067	6052.225
2170.43004	6060.225
2173.37752	6050.625
2176.32311	6040.325
2179.26681	6042.925
2182.20863	6052.025
2185.14856	6039.725
2188.08661	6054.825
2191.02278	6032.725
2193.95707	6033.725
2196.88948	6026.125
2199.82001	6034.925
2202.74867	6037.325
2205.67545	6014.625
2208.60037	5989.325
2211.52341	6007.525
2214.44458	5998.425
2217.36388	5955.725
2220.28132	5956.425
2223.1969	5943.325
2226.11061	5936.225
2229.02246	5922.525
2231.93245	5916.625
2234.84058	5906.525
2237.74686	5911.925
2240.65128	5894.925
2243.55385	5895.925
2246.45456	5894.725
2249.35343	5852.125
2252.25044	5838.325
2255.14561	5830.125
2258.03893	5825.125
2260.93041	5820.825
2263.82004	5804.125
2266.70783	5773.325
2269.59378	5757.625
2272.4779	5734.125
2275.36017	5729.725
2278.24061	5704.425
2281.11922	5699.625
2283.996	5696.625
2286.87094	5694.925
2289.74405	5667.425
2292.61534	5665.925
2295.4848	5658.425
2298.35243	5647.825
2301.21824	5643.425
2304.08223	5648.525
2306.94439	5644.725
2309.80474	5635.925
2312.66327	5642.325
2315.51999	5630.525
2318.37489	5620.825
2321.22797	5620.525
2324.07925	5602.225
2326.92871	5601.825
2329.77637	5594.325
2332.62222	5617.925
2335.46626	5612.525
2338.3085	5612.625
2341.14893	5591.125
2343.98756	5604.225
2346.8244	5603.125
2349.65943	5605.825
2352.49267	5604.025
2355.32411	5591.125
2358.15376	5592.925
2360.98161	5610.225
2363.80768	5599.325
2366.63195	5590.825
2369.45444	5582.025
2372.27514	5569.125
2375.09405	5569.425
2377.91118	5542.525
2380.72652	5523.725
2383.54009	5508.025
2386.35187	5490.225
2389.16188	5477.325
2391.97011	5474.825
2394.77657	5461.725
2397.58125	5462.825
2400.38416	5441.125
2403.18529	5445.425
2405.98466	5435.925
2408.78226	5400.225
2411.57809	5407.425
2414.37216	5413.825
2417.16446	5393.725
2419.955	5377.825
2422.74378	5372.025
2425.5308	5350.925
2428.31606	5373.525
2431.09956	5362.325
2433.88131	5367.625
2436.6613	5364.425
2439.43954	5345.125
2442.21603	5344.125
2444.99077	5334.325
2447.76377	5362.725
2450.53501	5340.325
2453.30451	5353.925
2456.07226	5358.725
2458.83827	5356.525
2461.60254	5351.325
2464.36507	5360.925
2467.12586	5355.325
2469.88492	5353.625
2472.64224	5356.325
2475.39782	5363.225
2478.15167	5365.725
2480.90379	5362.525
2483.65417	5358.725
2486.40283	5369.525
2489.14976	5355.625
2491.89497	5354.025
2494.63845	5380.825
2497.3802	5394.025
2500.12024	5386.725
2502.85855	5355.725
2505.59514	5368.625
2508.33002	5357.625
2511.06318	5335.025
2513.79462	5332.425
2516.52435	5333.325
2519.25237	5327.525
2521.97867	5327.825
2524.70327	5316.125
2527.42616	5305.725
2530.14734	5318.225
2532.86681	5293.325
2535.58458	5289.925
2538.30065	5269.625
2541.01501	5266.325
2543.72768	5277.325
2546.43864	5266.325
2549.14791	5263.425
2551.85548	5249.525
2554.56136	5259.725
2557.26554	5250.225
2559.96803	5253.825
2562.66883	5253.525
2565.36794	5232.125
2568.06536	5240.725
2570.7611	5244.125
2573.45514	5248.725
2576.14751	5240.925
2578.83819	5238.325
2581.52719	5237.925
2584.21451	5231.325
2586.90015	5226.725
2589.58411	5218.125
2592.2664	5212.425
2594.94701	5225.225
2597.62594	5227.725
2600.30321	5201.925
2602.9788	5214.025
2605.65273	5194.425
2608.32498	5209.925
2610.99557	5209.025
2613.66449	5209.925
2616.33175	5205.925
2618.99734	5220.525
2621.66128	5218.525
2624.32355	5223.925
2626.98416	5223.825
2629.64311	5195.625
2632.30041	5213.925
2634.95605	5221.225
2637.61004	5210.525
2640.26238	5200.525
2642.91306	5200.225
2645.56209	5191.025
2648.20948	5201.725
2650.85521	5189.125
2653.4993	5187.925
2656.14175	5193.325
2658.78255	5200.125
2661.42171	5192.825
2664.05923	5204.825
2666.6951	5217.125
2669.32934	5215.025
2671.96194	5227.425
2674.59291	5229.725
2677.22224	5213.125
2679.84993	5223.725
2682.476	5202.525
2685.10043	5206.125
2687.72324	5203.025
2690.34441	5210.725
2692.96396	5178.525
2695.58188	5187.225
2698.19818	5178.425
2700.81285	5179.425
2703.4259	5231.025
2706.03733	5257.225
2708.64714	5222.625
2711.25533	5223.925
2713.86191	5210.525
2716.46687	5221.525
2719.07021	5193.025
2721.67194	5218.225
2724.27206	5212.525
2726.87057	5225.025
2729.46747	5227.125
2732.06276	5238.025
2734.65644	5222.325
2737.24852	5230.725
2739.83899	5215.525
2742.42786	5219.225
2745.01513	5219.725
2747.60079	5217.125
2750.18486	5231.425
2752.76733	5217.325
2755.3482	5214.325
2757.92747	5225.025
2760.50515	5219.525
2763.08123	5225.925
2765.65573	5217.325
2768.22863	5233.925
2770.79994	5228.025
2773.36967	5235.325
2775.9378	5221.525
2778.50435	5231.625
2781.06932	5224.725
2783.6327	5226.725
2786.1945	5243.825
2788.75471	5237.225
2791.31335	5244.325
2793.87041	5222.425
2796.42589	5193.025
2798.97979	5209.625
2801.53212	5198.825
2804.08288	5211.625
2806.63206	5173.725
2809.17967	5188.725
2811.72571	5181.325
2814.27018	5168.325
2816.81308	5164.325
2819.35442	5172.925
2821.89419	5160.125
2824.43239	5163.125
2826.96904	5164.325
2829.50412	5172.225
2832.03763	5141.325
2834.56959	5157.825
2837.1	5137.725
2839.62884	5137.425
2842.15613	5114.125
2844.68186	5139.725
2847.20604	5152.925
2849.72867	5143.525
2852.24974	5149.325
2854.76927	5139.425
2857.28724	5155.625
2859.80367	5130.925
2862.31855	5132.325
2864.83189	5113.725
2867.34368	5131.425
2869.85393	5105.525
2872.36264	5117.825
2874.8698	5106.425
2877.37543	5131.325
2879.87952	5126.325
2882.38207	5131.825
2884.88308	5133.025
2887.38256	5152.025
2889.88051	5151.625
2892.37692	5146.325
2894.8718	5156.625
2897.36515	5175.325
2899.85698	5173.125
2902.34727	5201.225
2904.83604	5178.525
2907.32328	5209.525
2909.809	5221.725
2912.29319	5211.525
2914.77587	5239.625
2917.25702	5252.125
2919.73665	5237.925
2922.21476	5252.825
2924.69136	5249.625
2927.16644	5260.325
2929.64	5249.725
2932.11205	5236.025
2934.58258	5237.125
2937.05161	5245.125
2939.51912	5232.725
2941.98513	5234.225
2944.44962	5224.025
2946.91261	5220.725
2949.37409	5207.825
2951.83407	5198.125
2954.29254	5206.025
2956.74951	5183.925
2959.20498	5167.725
2961.65895	5152.325
2964.11142	5140.025
2966.56239	5120.725
2969.01186	5082.525
2971.45984	5072.525
2973.90632	5042.825
2976.35131	5021.125
2978.7948	5007.625
2981.23681	4985.725
2983.67732	4970.025
2986.11635	4958.425
2988.55388	4938.325
2990.98993	4922.425
2993.4245	4928.425
2995.85758	4907.425
2998.28917	4897.025
3000.71928	4897.125
3003.14791	4881.125
3005.57506	4880.425
3008.00073	4872.125
3010.42493	4867.625
3012.84764	4862.925
3015.26888	4844.325
3017.68865	4836.525
3020.10694	4824.725
3022.52376	4797.625
3024.9391	4789.325
3027.35298	4783.425
3029.76539	4780.125
3032.17632	4765.225
3034.5858	4761.625
3036.9938	4763.125
3039.40034	4753.325
3041.80542	4730.825
3044.20903	4730.925
3046.61118	4724.525
3049.01187	4723.625
3051.4111	4709.625
3053.80888	4705.725
3056.20519	4690.325
3058.60005	4687.425
3060.99345	4673.225
3063.3854	4664.525
3065.7759	4650.625
3068.16494	4628.525
3070.55254	4599.225
3072.93868	4605.125
3075.32338	4597.125
3077.70662	4594.225
3080.08842	4567.225
3082.46878	4571.125
3084.84769	4552.825
3087.22515	4563.325
3089.60118	4564.625
3091.97576	4548.025
3094.3489	4569.725
3096.72061	4547.525
3099.09087	4566.025
3101.4597	4549.425
3103.82709	4550.525
3106.19305	4531.325
3108.55757	4535.725
3110.92066	4508.525
3113.28232	4516.025
3115.64255	4505.525
3118.00134	4485.625
3120.35871	4476.125
3122.71466	4476.625
3125.06917	4485.825
3127.42226	4478.525
3129.77393	4475.825
3132.12417	4460.825
3134.47299	4469.725
3136.82039	4472.825
3139.16636	4474.225
3141.51092	4465.725
3143.85406	4474.525
3146.19579	4465.425
3148.53609	4467.225
3150.87499	4474.025
3153.21246	4464.725
3155.54853	4480.925
3157.88318	4472.525
3160.21642	4471.225
3162.54826	4460.725
3164.87868	4468.625
3167.2077	4481.225
3169.5353	4488.825
3171.86151	4463.725
3174.18631	4466.325
3176.5097	4460.925
3178.83169	4483.825
3181.15228	4461.925
3183.47147	4468.925
3185.78926	4461.725
3188.10565	4465.825
3190.42065	4480.725
3192.73424	4476.225
