Data from AgNPs_FTO_APTES_UA_5um_CRN_0.1mM_R6G_10uM_NaF_0.1M_Addition_RamanShift__25__13-26-09-111.txt Node

Date: Tue Dec 21 13:26:09 GMT 2021
User: TCL
Spectrometer: QEP01345
Trigger mode: 4
Integration Time (sec): 7.000000E0
Scans to average: 10
Electric dark correction enabled: true
Nonlinearity correction enabled: false
Boxcar width: 0
XAxis mode: Raman Shifts
Number of Pixels in Spectrum: 1044
>>>>>Begin Spectral Data<<<<<
46.04893	0.0125
50.45542	-1.2875
54.85868	-0.8875
59.25871	1.0125
63.6555	51.1125
68.04907	54.2125
72.43941	58.2125
76.82654	61.9125
81.21044	65.1125
85.59113	67.0125
89.96862	68.6125
94.34289	66.9125
98.71396	70.7125
103.08183	78.0125
107.4465	80.5125
111.80798	80.8125
116.16626	86.2125
120.52136	86.8125
124.87327	88.6125
129.222	90.3125
133.56755	100.3125
137.90993	111.6125
142.24913	115.1125
146.58517	128.7125
150.91804	151.5125
155.24774	176.5125
159.57429	220.7125
163.89768	287.6125
168.21792	380.6125
172.53501	511.5125
176.84895	710.6125
181.15975	995.3125
185.46741	1394.1125
189.77193	1910.3125
194.07331	2573.7125
198.37157	3318.4125
202.6667	4103.3125
206.9587	4926.9125
211.24758	5717.3125
215.53334	6552.6125
219.81599	7410.2125
224.09553	8386.7125
228.37195	9494.2125
232.64527	10677.6125
236.91549	11917.3125
241.18261	13124.9125
245.44663	14148.1125
249.70755	15064.2125
253.96539	15830.4125
258.22014	16471.8125
262.4718	16960.8125
266.72039	17336.1125
270.96589	17454.7125
275.20832	17433.8125
279.44768	17299.0125
283.68397	17100.3125
287.91719	16959.4125
292.14735	16951.5125
296.37445	17127.4125
300.59849	17433.0125
304.81948	17874.7125
309.03742	18173.2125
313.25231	17994.4125
317.46415	17276.5125
321.67296	16287.3125
325.87872	15438.0125
330.08145	15021.5125
334.28114	15010.1125
338.47781	15198.2125
342.67145	15558.7125
346.86207	16065.8125
351.04966	16782.2125
355.23424	17601.8125
359.4158	18260.3125
363.59435	18579.2125
367.76989	18693.3125
371.94243	18757.3125
376.11196	18727.5125
380.27849	18714.6125
384.44203	18676.7125
388.60257	18609.7125
392.76012	18589.5125
396.91468	18755.8125
401.06626	19144.4125
405.21485	19508.6125
409.36047	19333.7125
413.50311	18683.4125
417.64277	17982.7125
421.77947	17639.0125
425.9132	17506.3125
430.04396	17570.6125
434.17176	17700.5125
438.2966	17960.8125
442.41849	18381.7125
446.53742	19022.0125
450.6534	19678.7125
454.76644	20136.3125
458.87653	20276.4125
462.98368	20131.9125
467.08789	19813.9125
471.18916	19443.1125
475.2875	19170.3125
479.38291	18966.6125
483.4754	18757.1125
487.56496	18428.3125
491.6516	18107.8125
495.73531	17798.8125
499.81612	17704.6125
503.89401	17770.7125
507.96899	17871.8125
512.04106	17941.8125
516.11023	18003.0125
520.1765	18028.7125
524.23987	18001.7125
528.30034	17853.3125
532.35792	17645.8125
536.41261	17377.3125
540.46441	17038.3125
544.51333	16835.3125
548.55936	16833.4125
552.60252	17142.5125
556.64279	17562.9125
560.6802	17887.4125
564.71473	18251.1125
568.7464	18882.5125
572.7752	19412.4125
576.80114	19190.9125
580.82422	18845.2125
584.84444	18753.9125
588.86181	18925.1125
592.87633	19309.4125
596.888	19635.0125
600.89682	19915.1125
604.9028	21205.0125
608.90594	24997.2125
612.90624	29922.5125
616.90371	28710.9125
620.89834	21498.5125
624.89015	18001.8125
628.87913	17425.3125
632.86528	17545.0125
636.84862	17716.1125
640.82913	17425.7125
644.80683	16740.9125
648.78172	16153.5125
652.75379	16036.6125
656.72306	16421.0125
660.68952	17025.7125
664.65319	16995.2125
668.61405	16569.4125
672.57211	16393.6125
676.52738	16446.6125
680.47986	16428.0125
684.42955	16215.9125
688.37646	16047.7125
692.32058	15979.8125
696.26192	16078.0125
700.20048	16264.7125
704.13626	16403.1125
708.06928	16358.3125
711.99952	16172.4125
715.927	16080.9125
719.85171	16125.0125
723.77365	16098.2125
727.69284	16042.2125
731.60928	15951.8125
735.52295	15956.5125
739.43388	15996.1125
743.34206	16079.3125
747.24749	16119.5125
751.15017	16193.4125
755.05012	16409.1125
758.94733	17086.5125
762.8418	18427.9125
766.73354	20802.9125
770.62254	23438.3125
774.50882	24747.5125
778.39237	23811.5125
782.27321	21119.0125
786.15132	18441.1125
790.02671	16793.9125
793.89938	15997.0125
797.76935	15674.0125
801.6366	15593.1125
805.50115	15553.9125
809.36299	15509.3125
813.22213	15442.3125
817.07857	15412.9125
820.93231	15378.8125
824.78336	15314.2125
828.63172	15297.6125
832.47738	15302.3125
836.32036	15235.6125
840.16066	15218.2125
843.99827	15192.0125
847.8332	15149.0125
851.66546	15077.5125
855.49504	15042.2125
859.32195	15044.4125
863.1462	15033.0125
866.96777	15011.1125
870.78668	15021.4125
874.60293	15043.9125
878.41652	14991.0125
882.22745	15056.7125
886.03573	15132.8125
889.84136	15128.3125
893.64433	15037.7125
897.44466	14903.7125
901.24235	14826.2125
905.0374	14711.7125
908.8298	14618.7125
912.61957	14573.3125
916.40671	14684.1125
920.19121	14847.3125
923.97308	15054.5125
927.75233	15202.3125
931.52895	15271.3125
935.30295	15118.7125
939.07433	14737.1125
942.84309	14389.7125
946.60924	14227.0125
950.37278	14060.8125
954.13371	14006.9125
957.89203	13963.9125
961.64774	13890.6125
965.40086	13817.7125
969.15137	13719.2125
972.89929	13649.7125
976.64461	13591.2125
980.38733	13609.9125
984.12747	13612.1125
987.86502	13721.2125
991.59999	13854.6125
995.33237	14136.2125
999.06217	14578.3125
1002.78939	15148.4125
1006.51404	15647.3125
1010.23611	16005.5125
1013.95561	16213.8125
1017.67255	16201.2125
1021.38692	15898.9125
1025.09872	15597.3125
1028.80796	15533.1125
1032.51465	15758.8125
1036.21877	16062.3125
1039.92035	16182.8125
1043.61937	16101.5125
1047.31584	15825.5125
1051.00976	15482.2125
1054.70114	15238.6125
1058.38998	15144.7125
1062.07627	15163.7125
1065.76003	15230.0125
1069.44126	15315.6125
1073.11995	15496.8125
1076.79611	15664.8125
1080.46974	15819.5125
1084.14085	16049.0125
1087.80943	16337.9125
1091.47549	16512.1125
1095.13903	16422.9125
1098.80005	16038.8125
1102.45857	15586.8125
1106.11456	15371.2125
1109.76805	15401.2125
1113.41903	15645.4125
1117.06751	16015.8125
1120.71348	16535.1125
1124.35696	17139.8125
1127.99793	17682.4125
1131.63641	17753.9125
1135.2724	17295.0125
1138.90589	16731.6125
1142.5369	16332.4125
1146.16542	16063.7125
1149.79145	15917.1125
1153.415	15898.8125
1157.03607	16004.9125
1160.65467	16338.8125
1164.27079	16953.4125
1167.88443	17888.5125
1171.49561	19259.1125
1175.10432	21282.9125
1178.71056	23994.5125
1182.31434	26406.1125
1185.91565	27423.7125
1189.51451	27086.8125
1193.11091	25862.6125
1196.70485	24262.8125
1200.29634	22845.2125
1203.88538	21720.0125
1207.47197	20612.8125
1211.05612	19690.3125
1214.63782	19193.5125
1218.21708	18974.4125
1221.79391	18966.0125
1225.36829	18939.8125
1228.94024	18734.1125
1232.50976	18406.7125
1236.07685	18161.0125
1239.6415	18086.1125
1243.20374	18091.9125
1246.76355	18207.6125
1250.32093	18476.7125
1253.8759	18964.0125
1257.42845	19642.1125
1260.97859	20237.0125
1264.52631	20873.2125
1268.07163	21416.3125
1271.61453	22045.4125
1275.15503	22638.8125
1278.69312	23191.3125
1282.22882	23649.1125
1285.76211	24227.6125
1289.29301	25111.1125
1292.82151	26102.1125
1296.34761	27309.1125
1299.87133	28987.4125
1303.39266	31229.3125
1306.9116	34057.2125
1310.42815	37149.0125
1313.94233	38908.2125
1317.45412	38450.3125
1320.96354	36684.1125
1324.47058	34711.3125
1327.97525	33015.2125
1331.47754	31881.8125
1334.97747	31411.0125
1338.47502	31621.7125
1341.97022	32014.5125
1345.46305	32330.0125
1348.95352	32654.4125
1352.44163	33530.1125
1355.92738	35451.2125
1359.41078	38626.1125
1362.89183	41668.4125
1366.37053	40623.7125
1369.84688	35713.6125
1373.32088	30502.7125
1376.79254	27001.5125
1380.26186	25311.6125
1383.72883	24549.8125
1387.19347	24133.1125
1390.65578	23742.8125
1394.11575	23684.0125
1397.57339	24055.2125
1401.0287	24725.9125
1404.48168	25488.8125
1407.93234	25948.3125
1411.38068	26021.6125
1414.82669	25587.1125
1418.27039	24578.8125
1421.71177	23388.9125
1425.15083	22340.5125
1428.58758	21722.1125
1432.02203	21663.5125
1435.45416	21898.0125
1438.88399	22154.7125
1442.31151	22415.4125
1445.73673	22768.8125
1449.15965	23185.2125
1452.58027	23462.1125
1455.9986	23530.9125
1459.41463	23726.7125
1462.82837	24182.1125
1466.23982	24734.5125
1469.64898	25279.7125
1473.05586	25492.0125
1476.46045	25482.8125
1479.86276	25539.2125
1483.26279	25515.6125
1486.66054	25700.7125
1490.05602	26036.3125
1493.44922	26515.0125
1496.84016	27085.5125
1500.22882	28221.2125
1503.61521	30013.9125
1506.99934	32472.0125
1510.38121	34712.3125
1513.76081	35514.7125
1517.13816	33958.2125
1520.51324	30824.9125
1523.88607	27801.0125
1527.25665	25802.6125
1530.62498	24746.0125
1533.99105	24243.2125
1537.35488	23904.8125
1540.71647	23732.7125
1544.07581	23540.7125
1547.4329	23322.3125
1550.78776	23058.8125
1554.14038	22864.4125
1557.49077	22793.0125
1560.83892	22978.6125
1564.18484	23320.2125
1567.52853	23644.0125
1570.86999	23880.8125
1574.20922	24156.8125
1577.54624	24118.2125
1580.88103	23569.6125
1584.2136	22885.3125
1587.54395	22927.2125
1590.87208	23878.3125
1594.19801	25595.2125
1597.52172	27631.5125
1600.84321	28656.2125
1604.16251	27787.3125
1607.47959	25608.2125
1610.79447	23027.4125
1614.10715	20641.9125
1617.41763	18812.3125
1620.7259	17671.0125
1624.03199	17115.8125
1627.33587	17075.5125
1630.63757	17543.7125
1633.93707	18582.6125
1637.23439	20183.2125
1640.52951	22552.5125
1643.82246	25615.9125
1647.11321	28617.7125
1650.40179	30208.7125
1653.68819	28921.4125
1656.97241	25190.2125
1660.25446	21050.9125
1663.53433	17966.1125
1666.81203	16051.1125
1670.08756	14897.8125
1673.36092	14200.7125
1676.63211	13738.2125
1679.90115	13393.6125
1683.16801	13123.5125
1686.43272	12959.2125
1689.69527	12791.7125
1692.95567	12675.1125
1696.2139	12661.2125
1699.46999	12613.5125
1702.72392	12532.4125
1705.97571	12519.0125
1709.22535	12458.1125
1712.47284	12433.5125
1715.71819	12389.7125
1718.96139	12387.2125
1722.20246	12330.6125
1725.44139	12271.6125
1728.67818	12207.5125
1731.91284	12141.1125
1735.14537	12090.0125
1738.37576	12003.9125
1741.60403	11966.8125
1744.83017	11932.4125
1748.05418	11927.0125
1751.27607	11906.3125
1754.49584	11890.3125
1757.71349	11862.8125
1760.92903	11830.9125
1764.14244	11779.7125
1767.35375	11753.8125
1770.56294	11731.7125
1773.77002	11661.9125
1776.97499	11645.9125
1780.17785	11589.1125
1783.37861	11582.0125
1786.57727	11532.5125
1789.77382	11503.1125
1792.96828	11491.9125
1796.16064	11500.9125
1799.3509	11440.2125
1802.53907	11467.1125
1805.72514	11400.2125
1808.90913	11377.2125
1812.09102	11348.3125
1815.27083	11307.2125
1818.44856	11286.2125
1821.6242	11281.9125
1824.79776	11253.4125
1827.96924	11223.1125
1831.13864	11213.9125
1834.30597	11205.6125
1837.47122	11215.2125
1840.6344	11172.4125
1843.7955	11157.8125
1846.95454	11170.3125
1850.11151	11174.7125
1853.26642	11138.1125
1856.41926	11170.2125
1859.57004	11183.7125
1862.71876	11155.1125
1865.86542	11175.5125
1869.01003	11160.8125
1872.15258	11130.6125
1875.29308	11156.9125
1878.43152	11166.0125
1881.56792	11147.8125
1884.70227	11112.3125
1887.83457	11129.5125
1890.96482	11140.0125
1894.09304	11080.7125
1897.21921	11115.7125
1900.34335	11125.1125
1903.46544	11128.7125
1906.58551	11137.7125
1909.70353	11088.8125
1912.81953	11085.3125
1915.93349	11063.6125
1919.04543	11065.8125
1922.15534	11023.8125
1925.26322	11015.0125
1928.36908	10981.3125
1931.47292	10919.1125
1934.57473	10901.9125
1937.67453	10872.6125
1940.77232	10807.1125
1943.86808	10792.0125
1946.96184	10746.9125
1950.05358	10704.7125
1953.14331	10674.9125
1956.23103	10626.3125
1959.31675	10609.6125
1962.40046	10563.3125
1965.48217	10534.5125
1968.56188	10523.0125
1971.63959	10460.9125
1974.7153	10432.0125
1977.78901	10409.7125
1980.86073	10376.8125
1983.93046	10345.7125
1986.99819	10293.0125
1990.06394	10259.2125
1993.1277	10204.2125
1996.18947	10164.5125
1999.24925	10161.0125
2002.30706	10111.1125
2005.36288	10086.6125
2008.41672	10056.0125
2011.46859	10008.8125
2014.51848	10008.1125
2017.56639	9968.9125
2020.61233	9941.1125
2023.6563	9937.5125
2026.6983	9903.1125
2029.73833	9862.0125
2032.7764	9862.3125
2035.8125	9851.3125
2038.84664	9816.4125
2041.87881	9817.8125
2044.90903	9798.0125
2047.93729	9789.6125
2050.96359	9758.0125
2053.98794	9744.1125
2057.01034	9715.3125
2060.03078	9728.5125
2063.04927	9694.7125
2066.06582	9678.4125
2069.08042	9688.2125
2072.09307	9657.2125
2075.10378	9636.5125
2078.11255	9641.1125
2081.11938	9642.1125
2084.12426	9627.2125
2087.12722	9596.4125
2090.12824	9584.3125
2093.12732	9598.3125
2096.12447	9602.9125
2099.11969	9591.2125
2102.11299	9602.4125
2105.10435	9585.0125
2108.09379	9599.7125
2111.08131	9590.1125
2114.0669	9587.8125
2117.05057	9580.0125
2120.03233	9618.1125
2123.01216	9599.9125
2125.99008	9598.8125
2128.96609	9615.1125
2131.94018	9632.5125
2134.91236	9609.6125
2137.88263	9618.4125
2140.851	9599.9125
2143.81746	9607.0125
2146.78201	9605.0125
2149.74466	9628.8125
2152.7054	9609.1125
2155.66425	9572.7125
2158.6212	9583.4125
2161.57625	9581.3125
2164.52941	9560.9125
2167.48067	9550.2125
2170.43004	9565.7125
2173.37752	9547.6125
2176.32311	9544.8125
2179.26681	9532.4125
2182.20863	9544.9125
2185.14856	9545.1125
2188.08661	9543.1125
2191.02278	9534.5125
2193.95707	9524.6125
2196.88948	9511.9125
2199.82001	9515.7125
2202.74867	9501.6125
2205.67545	9509.8125
2208.60037	9478.2125
2211.52341	9481.3125
2214.44458	9484.3125
2217.36388	9451.5125
2220.28132	9436.9125
2223.1969	9415.4125
2226.11061	9399.4125
2229.02246	9403.4125
2231.93245	9368.1125
2234.84058	9332.2125
2237.74686	9316.0125
2240.65128	9311.1125
2243.55385	9299.6125
2246.45456	9272.5125
2249.35343	9248.9125
2252.25044	9236.0125
2255.14561	9249.8125
2258.03893	9215.8125
2260.93041	9232.2125
2263.82004	9209.0125
2266.70783	9171.3125
2269.59378	9150.7125
2272.4779	9113.4125
2275.36017	9066.7125
2278.24061	9066.9125
2281.11922	9031.9125
2283.996	9012.9125
2286.87094	9017.8125
2289.74405	8998.4125
2292.61534	8976.6125
2295.4848	8974.2125
2298.35243	8976.0125
2301.21824	8945.4125
2304.08223	8961.0125
2306.94439	8971.2125
2309.80474	8955.4125
2312.66327	8967.9125
2315.51999	8956.0125
2318.37489	8928.2125
2321.22797	8945.3125
2324.07925	8941.4125
2326.92871	8918.8125
2329.77637	8914.9125
2332.62222	8911.4125
2335.46626	8899.9125
2338.3085	8892.6125
2341.14893	8869.9125
2343.98756	8898.0125
2346.8244	8900.1125
2349.65943	8906.3125
2352.49267	8911.3125
2355.32411	8917.6125
2358.15376	8895.9125
2360.98161	8902.5125
2363.80768	8895.8125
2366.63195	8902.2125
2369.45444	8857.5125
2372.27514	8857.6125
2375.09405	8844.0125
2377.91118	8792.0125
2380.72652	8791.1125
2383.54009	8779.5125
2386.35187	8748.3125
2389.16188	8701.8125
2391.97011	8663.3125
2394.77657	8663.3125
2397.58125	8651.5125
2400.38416	8626.1125
2403.18529	8619.0125
2405.98466	8604.1125
2408.78226	8561.1125
2411.57809	8553.4125
2414.37216	8544.2125
2417.16446	8543.5125
2419.955	8517.7125
2422.74378	8498.3125
2425.5308	8472.7125
2428.31606	8487.1125
2431.09956	8486.2125
2433.88131	8475.5125
2436.6613	8468.4125
2439.43954	8444.9125
2442.21603	8455.6125
2444.99077	8441.2125
2447.76377	8461.1125
2450.53501	8466.3125
2453.30451	8444.0125
2456.07226	8440.7125
2458.83827	8462.4125
2461.60254	8443.9125
2464.36507	8441.0125
2467.12586	8445.5125
2469.88492	8428.2125
2472.64224	8423.0125
2475.39782	8458.9125
2478.15167	8463.4125
2480.90379	8465.1125
2483.65417	8481.1125
2486.40283	8465.9125
2489.14976	8487.8125
2491.89497	8464.2125
2494.63845	8492.4125
2497.3802	8502.8125
2500.12024	8483.9125
2502.85855	8472.6125
2505.59514	8446.8125
2508.33002	8408.3125
2511.06318	8413.1125
2513.79462	8386.2125
2516.52435	8379.2125
2519.25237	8357.4125
2521.97867	8339.4125
2524.70327	8320.5125
2527.42616	8324.7125
2530.14734	8307.6125
2532.86681	8305.9125
2535.58458	8303.3125
2538.30065	8266.4125
2541.01501	8296.6125
2543.72768	8263.9125
2546.43864	8266.5125
2549.14791	8262.2125
2551.85548	8268.2125
2554.56136	8267.5125
2557.26554	8240.2125
2559.96803	8245.2125
2562.66883	8230.1125
2565.36794	8213.5125
2568.06536	8207.4125
2570.7611	8189.6125
2573.45514	8212.7125
2576.14751	8206.5125
2578.83819	8188.8125
2581.52719	8188.5125
2584.21451	8185.7125
2586.90015	8184.6125
2589.58411	8153.0125
2592.2664	8158.0125
2594.94701	8166.2125
2597.62594	8169.9125
2600.30321	8129.0125
2602.9788	8129.0125
2605.65273	8113.5125
2608.32498	8122.6125
2610.99557	8134.4125
2613.66449	8148.3125
2616.33175	8124.2125
2618.99734	8144.2125
2621.66128	8111.9125
2624.32355	8127.2125
2626.98416	8130.1125
2629.64311	8115.9125
2632.30041	8120.9125
2634.95605	8112.8125
2637.61004	8093.8125
2640.26238	8091.6125
2642.91306	8068.0125
2645.56209	8068.0125
2648.20948	8078.0125
2650.85521	8049.9125
2653.4993	8067.9125
2656.14175	8040.7125
2658.78255	8051.2125
2661.42171	8038.8125
2664.05923	8044.2125
2666.6951	8074.1125
2669.32934	8075.2125
2671.96194	8058.0125
2674.59291	8090.8125
2677.22224	8078.4125
2679.84993	8092.3125
2682.476	8056.1125
2685.10043	8075.4125
2687.72324	8050.2125
2690.34441	8051.4125
2692.96396	8036.4125
2695.58188	8059.9125
2698.19818	8052.5125
2700.81285	8059.0125
2703.4259	8063.6125
2706.03733	8124.8125
2708.64714	8080.0125
2711.25533	8075.1125
2713.86191	8044.5125
2716.46687	8067.6125
2719.07021	8057.7125
2721.67194	8070.5125
2724.27206	8056.7125
2726.87057	8081.1125
2729.46747	8062.6125
2732.06276	8065.1125
2734.65644	8073.4125
2737.24852	8067.2125
2739.83899	8041.7125
2742.42786	8048.3125
2745.01513	8031.3125
2747.60079	8021.2125
2750.18486	8026.3125
2752.76733	8046.1125
2755.3482	8015.2125
2757.92747	8017.7125
2760.50515	8004.9125
2763.08123	8028.7125
2765.65573	8004.1125
2768.22863	8024.9125
2770.79994	8000.3125
2773.36967	8011.8125
2775.9378	8001.4125
2778.50435	7985.2125
2781.06932	7991.1125
2783.6327	7995.1125
2786.1945	7999.8125
2788.75471	7989.4125
2791.31335	7975.4125
2793.87041	7972.8125
2796.42589	7923.5125
2798.97979	7936.1125
2801.53212	7926.1125
2804.08288	7915.4125
2806.63206	7911.1125
2809.17967	7884.8125
2811.72571	7878.0125
2814.27018	7896.1125
2816.81308	7888.9125
2819.35442	7894.5125
2821.89419	7885.5125
2824.43239	7903.4125
2826.96904	7874.5125
2829.50412	7895.1125
2832.03763	7882.5125
2834.56959	7887.3125
2837.1	7867.4125
2839.62884	7858.6125
2842.15613	7842.3125
2844.68186	7890.7125
2847.20604	7898.3125
2849.72867	7910.4125
2852.24974	7906.8125
2854.76927	7894.3125
2857.28724	7900.2125
2859.80367	7873.5125
2862.31855	7854.6125
2864.83189	7877.4125
2867.34368	7835.7125
2869.85393	7851.5125
2872.36264	7844.2125
2874.8698	7837.0125
2877.37543	7840.0125
2879.87952	7836.5125
2882.38207	7850.4125
2884.88308	7838.6125
2887.38256	7845.5125
2889.88051	7847.0125
2892.37692	7851.5125
2894.8718	7831.0125
2897.36515	7846.8125
2899.85698	7857.6125
2902.34727	7867.1125
2904.83604	7860.4125
2907.32328	7882.9125
2909.809	7870.1125
2912.29319	7880.0125
2914.77587	7900.5125
2917.25702	7882.6125
2919.73665	7877.5125
2922.21476	7867.1125
2924.69136	7863.0125
2927.16644	7842.9125
2929.64	7865.4125
2932.11205	7832.0125
2934.58258	7801.8125
2937.05161	7815.4125
2939.51912	7803.4125
2941.98513	7791.8125
2944.44962	7770.5125
2946.91261	7744.1125
2949.37409	7748.2125
2951.83407	7720.7125
2954.29254	7723.9125
2956.74951	7681.6125
2959.20498	7673.5125
2961.65895	7649.7125
2964.11142	7619.1125
2966.56239	7587.6125
2969.01186	7565.8125
2971.45984	7551.1125
2973.90632	7540.5125
2976.35131	7505.0125
2978.7948	7487.1125
2981.23681	7475.2125
2983.67732	7443.2125
2986.11635	7434.9125
2988.55388	7411.5125
2990.98993	7384.5125
2993.4245	7370.2125
2995.85758	7363.7125
2998.28917	7334.9125
3000.71928	7347.4125
3003.14791	7345.9125
3005.57506	7326.3125
3008.00073	7295.8125
3010.42493	7287.7125
3012.84764	7287.8125
3015.26888	7271.2125
3017.68865	7244.3125
3020.10694	7233.4125
3022.52376	7210.8125
3024.9391	7208.2125
3027.35298	7190.9125
3029.76539	7184.6125
3032.17632	7163.5125
3034.5858	7134.8125
3036.9938	7143.6125
3039.40034	7118.5125
3041.80542	7108.0125
3044.20903	7095.5125
3046.61118	7098.0125
3049.01187	7068.7125
3051.4111	7067.1125
3053.80888	7031.0125
3056.20519	7035.1125
3058.60005	7015.8125
3060.99345	6985.7125
3063.3854	6986.4125
3065.7759	6938.3125
3068.16494	6931.9125
