Data from AgNPs_FTO_APTES_UA_0um_CRN_0.1mM_R6G_10uM_NaF_0.1M_Addition_RamanShift__34__10-50-58-933.txt Node

Date: Tue Dec 21 10:50:58 GMT 2021
User: TCL
Spectrometer: QEP01345
Trigger mode: 4
Integration Time (sec): 7.000000E0
Scans to average: 10
Electric dark correction enabled: true
Nonlinearity correction enabled: false
Boxcar width: 0
XAxis mode: Raman Shifts
Number of Pixels in Spectrum: 1044
>>>>>Begin Spectral Data<<<<<
46.04893	-0.425
50.45542	-2.125
54.85868	-0.525
59.25871	1.475
63.6555	40.675
68.04907	46.475
72.43941	47.975
76.82654	48.175
81.21044	52.175
85.59113	52.875
89.96862	57.175
94.34289	55.975
98.71396	58.475
103.08183	60.975
107.4465	62.475
111.80798	63.575
116.16626	64.575
120.52136	64.975
124.87327	68.275
129.222	72.275
133.56755	73.175
137.90993	78.875
142.24913	84.375
146.58517	96.375
150.91804	106.775
155.24774	127.675
159.57429	160.775
163.89768	202.775
168.21792	263.075
172.53501	351.475
176.84895	493.275
181.15975	691.075
185.46741	963.475
189.77193	1334.875
194.07331	1767.775
198.37157	2268.675
202.6667	2812.975
206.9587	3337.975
211.24758	3859.175
215.53334	4387.775
219.81599	4947.875
224.09553	5580.475
228.37195	6260.475
232.64527	7038.975
236.91549	7802.475
241.18261	8575.875
245.44663	9228.375
249.70755	9837.775
253.96539	10299.375
258.22014	10700.675
262.4718	11030.775
266.72039	11232.975
270.96589	11314.175
275.20832	11270.375
279.44768	11121.675
283.68397	10915.175
287.91719	10782.675
292.14735	10679.475
296.37445	10632.275
300.59849	10699.475
304.81948	10854.175
309.03742	10983.775
313.25231	11101.275
317.46415	11155.275
321.67296	11135.875
325.87872	11149.575
330.08145	11155.175
334.28114	11170.275
338.47781	11173.775
342.67145	11271.675
346.86207	11454.975
351.04966	11632.075
355.23424	11793.375
359.4158	11902.675
363.59435	11948.975
367.76989	11967.775
371.94243	11991.575
376.11196	12006.475
380.27849	12071.175
384.44203	12182.975
388.60257	12301.075
392.76012	12325.575
396.91468	12363.775
401.06626	12479.075
405.21485	12620.175
409.36047	12632.475
413.50311	12598.675
417.64277	12631.975
421.77947	12733.375
425.9132	12852.375
430.04396	12938.975
434.17176	13110.975
438.2966	13400.675
442.41849	13929.575
446.53742	14822.775
450.6534	15636.275
454.76644	15979.075
458.87653	15662.275
462.98368	15052.275
467.08789	14352.475
471.18916	13770.475
475.2875	13100.575
479.38291	12621.175
483.4754	12340.275
487.56496	12216.975
491.6516	12122.075
495.73531	12088.575
499.81612	12128.175
503.89401	12264.175
507.96899	12277.175
512.04106	12189.675
516.11023	12021.775
520.1765	11939.975
524.23987	12029.175
528.30034	12180.575
532.35792	12224.475
536.41261	12031.975
540.46441	11694.075
544.51333	11506.275
548.55936	11568.175
552.60252	11933.875
556.64279	12513.575
560.6802	13002.075
564.71473	12953.775
568.7464	12813.075
572.7752	12910.575
576.80114	13204.575
580.82422	13763.875
584.84444	14938.175
588.86181	16973.875
592.87633	19504.875
596.888	20657.275
600.89682	18864.075
604.9028	16581.375
608.90594	16251.675
612.90624	17000.475
616.90371	16184.875
620.89834	13727.975
624.89015	12450.575
628.87913	12243.775
632.86528	12196.775
636.84862	12037.475
640.82913	11688.775
644.80683	11402.775
648.78172	11257.275
652.75379	11307.175
656.72306	11495.875
660.68952	11695.675
664.65319	11606.775
668.61405	11371.375
672.57211	11357.275
676.52738	11462.875
680.47986	11468.575
684.42955	11339.875
688.37646	11222.575
692.32058	11330.175
696.26192	11525.075
700.20048	11833.075
704.13626	11961.375
708.06928	11887.675
711.99952	11825.175
715.927	11836.675
719.85171	11963.575
723.77365	11944.175
727.69284	11740.875
731.60928	11559.975
735.52295	11587.275
739.43388	11670.475
743.34206	11748.975
747.24749	11838.475
751.15017	11910.875
755.05012	12097.075
758.94733	12392.375
762.8418	12968.375
766.73354	13937.375
770.62254	14817.675
774.50882	15088.275
778.39237	14457.775
782.27321	13550.875
786.15132	12674.375
790.02671	12125.375
793.89938	11857.875
797.76935	11733.475
801.6366	11690.575
805.50115	11641.175
809.36299	11573.775
813.22213	11494.675
817.07857	11388.475
820.93231	11292.375
824.78336	11227.675
828.63172	11241.375
832.47738	11253.875
836.32036	11339.075
840.16066	11449.075
843.99827	11512.975
847.8332	11460.575
851.66546	11430.375
855.49504	11387.675
859.32195	11394.275
863.1462	11330.775
866.96777	11249.075
870.78668	11216.975
874.60293	11214.575
878.41652	11246.975
882.22745	11308.875
886.03573	11355.675
889.84136	11311.875
893.64433	11245.875
897.44466	11159.175
901.24235	11101.675
905.0374	11070.175
908.8298	11065.775
912.61957	11059.875
916.40671	11133.075
920.19121	11316.575
923.97308	11519.275
927.75233	11737.275
931.52895	11652.075
935.30295	11465.375
939.07433	11193.875
942.84309	11010.575
946.60924	10920.375
950.37278	10890.375
954.13371	10849.275
957.89203	10809.975
961.64774	10770.575
965.40086	10764.875
969.15137	10759.775
972.89929	10749.275
976.64461	10743.375
980.38733	10757.975
984.12747	10836.675
987.86502	10908.575
991.59999	11057.175
995.33237	11284.675
999.06217	11662.375
1002.78939	12170.475
1006.51404	12490.875
1010.23611	12699.375
1013.95561	12915.375
1017.67255	13036.675
1021.38692	12887.275
1025.09872	12492.675
1028.80796	12328.275
1032.51465	12610.575
1036.21877	12967.175
1039.92035	13023.475
1043.61937	12906.875
1047.31584	12615.975
1051.00976	12224.675
1054.70114	11995.875
1058.38998	11870.175
1062.07627	11814.375
1065.76003	11821.975
1069.44126	11866.175
1073.11995	12036.575
1076.79611	12227.175
1080.46974	12383.775
1084.14085	12548.575
1087.80943	12707.875
1091.47549	12850.175
1095.13903	12777.775
1098.80005	12520.275
1102.45857	12208.775
1106.11456	12059.175
1109.76805	12067.475
1113.41903	12148.075
1117.06751	12257.775
1120.71348	12401.175
1124.35696	12517.875
1127.99793	12654.775
1131.63641	12730.975
1135.2724	12639.575
1138.90589	12597.175
1142.5369	12616.075
1146.16542	12756.575
1149.79145	12891.975
1153.415	12973.175
1157.03607	13105.575
1160.65467	13493.675
1164.27079	14190.075
1167.88443	15185.075
1171.49561	16368.975
1175.10432	17906.875
1178.71056	19880.275
1182.31434	21676.875
1185.91565	22052.475
1189.51451	21042.275
1193.11091	19617.275
1196.70485	18561.475
1200.29634	17720.775
1203.88538	17035.575
1207.47197	16609.775
1211.05612	16242.175
1214.63782	15886.175
1218.21708	15839.175
1221.79391	16005.675
1225.36829	16294.775
1228.94024	16340.275
1232.50976	15811.975
1236.07685	15038.475
1239.6415	14514.775
1243.20374	14298.875
1246.76355	14391.675
1250.32093	14628.575
1253.8759	15034.275
1257.42845	15507.075
1260.97859	16036.875
1264.52631	16526.575
1268.07163	17070.275
1271.61453	17554.775
1275.15503	18103.075
1278.69312	18757.875
1282.22882	19570.675
1285.76211	20568.775
1289.29301	21825.275
1292.82151	23139.575
1296.34761	24743.975
1299.87133	26691.775
1303.39266	28803.975
1306.9116	30887.775
1310.42815	32808.775
1313.94233	34194.075
1317.45412	33991.875
1320.96354	32149.775
1324.47058	29747.375
1327.97525	27657.375
1331.47754	26203.475
1334.97747	25310.375
1338.47502	24598.175
1341.97022	23761.075
1345.46305	23008.175
1348.95352	23016.175
1352.44163	24269.175
1355.92738	26835.975
1359.41078	30077.075
1362.89183	32387.175
1366.37053	32592.875
1369.84688	29870.375
1373.32088	25216.875
1376.79254	21824.575
1380.26186	20659.775
1383.72883	20643.475
1387.19347	20465.575
1390.65578	19931.575
1394.11575	19777.975
1397.57339	20163.575
1401.0287	20700.075
1404.48168	21072.875
1407.93234	21091.975
1411.38068	20809.075
1414.82669	20330.675
1418.27039	19755.075
1421.71177	19008.775
1425.15083	18271.475
1428.58758	17943.775
1432.02203	18277.375
1435.45416	19047.275
1438.88399	19715.275
1442.31151	20030.475
1445.73673	20165.175
1449.15965	20064.075
1452.58027	19685.375
1455.9986	19043.275
1459.41463	18612.275
1462.82837	18710.075
1466.23982	19298.275
1469.64898	20039.375
1473.05586	20658.175
1476.46045	21043.175
1479.86276	21247.475
1483.26279	21165.075
1486.66054	21094.275
1490.05602	21127.875
1493.44922	21184.575
1496.84016	20955.675
1500.22882	20560.275
1503.61521	20388.575
1506.99934	20411.375
1510.38121	20599.075
1513.76081	20793.375
1517.13816	20573.975
1520.51324	20126.975
1523.88607	19787.075
1527.25665	19893.075
1530.62498	20135.175
1533.99105	20247.675
1537.35488	20047.175
1540.71647	19572.375
1544.07581	18942.775
1547.4329	18287.375
1550.78776	17682.275
1554.14038	17089.675
1557.49077	16653.675
1560.83892	16361.075
1564.18484	16231.175
1567.52853	16237.775
1570.86999	16484.175
1574.20922	16810.575
1577.54624	17107.075
1580.88103	17200.675
1584.2136	17370.275
1587.54395	18125.275
1590.87208	19664.475
1594.19801	21841.875
1597.52172	24243.375
1600.84321	25742.275
1604.16251	25090.975
1607.47959	22481.175
1610.79447	19216.975
1614.10715	16535.875
1617.41763	14815.475
1620.7259	13981.675
1624.03199	13652.975
1627.33587	13763.875
1630.63757	14277.475
1633.93707	15346.975
1637.23439	17175.475
1640.52951	20274.475
1643.82246	24454.275
1647.11321	28138.675
1650.40179	28747.875
1653.68819	25607.975
1656.97241	20853.975
1660.25446	16870.775
1663.53433	14364.175
1666.81203	12918.275
1670.08756	12110.975
1673.36092	11600.275
1676.63211	11265.675
1679.90115	11063.975
1683.16801	10861.575
1686.43272	10761.975
1689.69527	10676.775
1692.95567	10617.075
1696.2139	10578.875
1699.46999	10557.575
1702.72392	10535.775
1705.97571	10503.775
1709.22535	10459.475
1712.47284	10439.875
1715.71819	10423.875
1718.96139	10419.075
1722.20246	10394.775
1725.44139	10336.075
1728.67818	10291.475
1731.91284	10212.375
1735.14537	10185.175
1738.37576	10143.075
1741.60403	10092.075
1744.83017	10066.675
1748.05418	10034.975
1751.27607	10052.075
1754.49584	10064.375
1757.71349	10045.475
1760.92903	10029.875
1764.14244	10006.075
1767.35375	10006.775
1770.56294	10012.475
1773.77002	9957.975
1776.97499	9919.975
1780.17785	9922.175
1783.37861	9893.975
1786.57727	9861.175
1789.77382	9864.575
1792.96828	9805.575
1796.16064	9814.475
1799.3509	9785.575
1802.53907	9766.775
1805.72514	9721.675
1808.90913	9716.375
1812.09102	9700.875
1815.27083	9688.075
1818.44856	9655.975
1821.6242	9638.075
1824.79776	9659.875
1827.96924	9647.175
1831.13864	9629.675
1834.30597	9618.675
1837.47122	9621.875
1840.6344	9595.375
1843.7955	9597.375
1846.95454	9607.475
1850.11151	9587.475
1853.26642	9590.775
1856.41926	9602.775
1859.57004	9624.775
1862.71876	9583.675
1865.86542	9598.075
1869.01003	9592.075
1872.15258	9590.075
1875.29308	9591.775
1878.43152	9543.875
1881.56792	9550.375
1884.70227	9548.575
1887.83457	9562.675
1890.96482	9561.275
1894.09304	9535.175
1897.21921	9553.975
1900.34335	9550.375
1903.46544	9542.375
1906.58551	9542.275
1909.70353	9516.675
1912.81953	9519.275
1915.93349	9494.575
1919.04543	9477.975
1922.15534	9456.275
1925.26322	9457.775
1928.36908	9434.075
1931.47292	9400.575
1934.57473	9400.475
1937.67453	9363.375
1940.77232	9325.575
1943.86808	9318.475
1946.96184	9302.975
1950.05358	9281.375
1953.14331	9251.775
1956.23103	9230.075
1959.31675	9197.075
1962.40046	9199.875
1965.48217	9183.575
1968.56188	9142.775
1971.63959	9101.975
1974.7153	9089.575
1977.78901	9041.675
1980.86073	9012.275
1983.93046	8998.275
1986.99819	8976.075
1990.06394	8968.075
1993.1277	8950.875
1996.18947	8902.175
1999.24925	8912.375
2002.30706	8864.875
2005.36288	8839.875
2008.41672	8841.875
2011.46859	8801.175
2014.51848	8794.375
2017.56639	8759.975
2020.61233	8763.275
2023.6563	8737.475
2026.6983	8717.375
2029.73833	8730.975
2032.7764	8689.875
2035.8125	8682.275
2038.84664	8667.975
2041.87881	8677.375
2044.90903	8664.975
2047.93729	8617.075
2050.96359	8638.975
2053.98794	8627.775
2057.01034	8615.075
2060.03078	8622.475
2063.04927	8613.675
2066.06582	8597.375
2069.08042	8590.375
2072.09307	8573.275
2075.10378	8571.675
2078.11255	8574.475
2081.11938	8578.975
2084.12426	8579.375
2087.12722	8589.775
2090.12824	8591.775
2093.12732	8596.675
2096.12447	8600.275
2099.11969	8616.875
2102.11299	8602.975
2105.10435	8609.675
2108.09379	8623.575
2111.08131	8598.175
2114.0669	8602.175
2117.05057	8618.475
2120.03233	8635.375
2123.01216	8636.575
2125.99008	8637.675
2128.96609	8624.775
2131.94018	8646.875
2134.91236	8658.175
2137.88263	8658.675
2140.851	8662.175
2143.81746	8681.575
2146.78201	8680.975
2149.74466	8678.375
2152.7054	8686.675
2155.66425	8648.475
2158.6212	8671.075
2161.57625	8654.475
2164.52941	8680.875
2167.48067	8677.475
2170.43004	8670.875
2173.37752	8673.575
2176.32311	8675.275
2179.26681	8676.475
2182.20863	8682.575
2185.14856	8691.875
2188.08661	8699.075
2191.02278	8688.675
2193.95707	8716.175
2196.88948	8701.475
2199.82001	8709.975
2202.74867	8699.275
2205.67545	8708.575
2208.60037	8689.975
2211.52341	8649.475
2214.44458	8655.275
2217.36388	8640.775
2220.28132	8639.575
2223.1969	8615.675
2226.11061	8610.175
2229.02246	8621.175
2231.93245	8623.075
2234.84058	8606.175
2237.74686	8615.075
2240.65128	8600.275
2243.55385	8585.975
2246.45456	8590.375
2249.35343	8560.875
2252.25044	8542.875
2255.14561	8511.875
2258.03893	8518.075
2260.93041	8504.175
2263.82004	8457.475
2266.70783	8461.575
2269.59378	8434.075
2272.4779	8406.675
2275.36017	8400.975
2278.24061	8383.375
2281.11922	8365.875
2283.996	8374.575
2286.87094	8373.075
2289.74405	8357.975
2292.61534	8351.175
2295.4848	8355.175
2298.35243	8362.675
2301.21824	8345.875
2304.08223	8369.275
2306.94439	8368.675
2309.80474	8365.875
2312.66327	8374.075
2315.51999	8371.375
2318.37489	8377.275
2321.22797	8377.575
2324.07925	8351.375
2326.92871	8384.075
2329.77637	8358.375
2332.62222	8342.475
2335.46626	8331.375
2338.3085	8330.075
2341.14893	8342.375
2343.98756	8346.475
2346.8244	8320.475
2349.65943	8362.575
2352.49267	8315.575
2355.32411	8321.675
2358.15376	8306.575
2360.98161	8300.775
2363.80768	8292.575
2366.63195	8285.275
2369.45444	8267.075
2372.27514	8278.075
2375.09405	8259.075
2377.91118	8244.075
2380.72652	8223.875
2383.54009	8209.675
2386.35187	8218.075
2389.16188	8209.475
2391.97011	8169.175
2394.77657	8172.675
2397.58125	8155.275
2400.38416	8168.975
2403.18529	8162.175
2405.98466	8156.575
2408.78226	8120.375
2411.57809	8117.975
2414.37216	8118.475
2417.16446	8120.675
2419.955	8092.975
2422.74378	8091.975
2425.5308	8057.775
2428.31606	8084.875
2431.09956	8077.275
2433.88131	8069.275
2436.6613	8078.775
2439.43954	8061.075
2442.21603	8061.875
2444.99077	8071.675
2447.76377	8084.575
2450.53501	8064.875
2453.30451	8066.875
2456.07226	8045.275
2458.83827	8068.675
2461.60254	8069.275
2464.36507	8061.475
2467.12586	8057.775
2469.88492	8062.075
2472.64224	8076.775
2475.39782	8073.475
2478.15167	8082.675
2480.90379	8075.275
2483.65417	8078.475
2486.40283	8070.175
2489.14976	8087.175
2491.89497	8090.175
2494.63845	8120.675
2497.3802	8114.375
2500.12024	8113.175
2502.85855	8090.175
2505.59514	8092.575
2508.33002	8079.175
2511.06318	8071.875
2513.79462	8061.775
2516.52435	8065.375
2519.25237	8057.875
2521.97867	8047.375
2524.70327	8054.375
2527.42616	8033.675
2530.14734	8026.275
2532.86681	8031.375
2535.58458	8022.475
2538.30065	8008.375
2541.01501	8005.975
2543.72768	8021.875
2546.43864	8000.775
2549.14791	7997.775
2551.85548	7988.675
2554.56136	8003.675
2557.26554	7975.375
2559.96803	8004.475
2562.66883	8005.075
2565.36794	7989.875
2568.06536	8015.275
2570.7611	8002.475
2573.45514	7999.375
2576.14751	8004.675
2578.83819	7986.075
2581.52719	8008.075
2584.21451	7962.875
2586.90015	7988.975
2589.58411	7980.775
2592.2664	7988.175
2594.94701	7947.075
2597.62594	7960.375
2600.30321	7936.775
2602.9788	7936.875
2605.65273	7937.875
2608.32498	7945.375
2610.99557	7943.775
2613.66449	7918.575
2616.33175	7927.575
2618.99734	7937.075
2621.66128	7906.575
2624.32355	7906.675
2626.98416	7915.475
2629.64311	7908.675
2632.30041	7910.475
2634.95605	7897.175
2637.61004	7894.675
2640.26238	7876.475
2642.91306	7886.375
2645.56209	7881.975
2648.20948	7872.775
2650.85521	7869.275
2653.4993	7879.375
2656.14175	7871.875
2658.78255	7915.375
2661.42171	7887.475
2664.05923	7903.575
2666.6951	7926.175
2669.32934	7928.775
2671.96194	7919.475
2674.59291	7928.375
2677.22224	7908.775
2679.84993	7936.175
2682.476	7895.075
2685.10043	7899.575
2687.72324	7895.075
2690.34441	7900.375
2692.96396	7888.175
2695.58188	7918.775
2698.19818	7904.175
2700.81285	7910.275
2703.4259	7944.075
2706.03733	8003.375
2708.64714	7964.875
2711.25533	7962.975
2713.86191	7951.475
2716.46687	7976.875
2719.07021	8002.675
2721.67194	7959.375
2724.27206	7968.775
2726.87057	7980.675
2729.46747	7982.375
2732.06276	8001.275
2734.65644	8003.075
2737.24852	8015.275
2739.83899	7980.375
2742.42786	7979.475
2745.01513	7973.575
2747.60079	7970.575
2750.18486	7981.275
2752.76733	7957.475
2755.3482	7953.775
2757.92747	7988.575
2760.50515	7973.275
2763.08123	7970.875
2765.65573	7944.775
2768.22863	7972.075
2770.79994	7968.275
2773.36967	8001.475
2775.9378	7960.575
2778.50435	7965.175
2781.06932	7966.675
2783.6327	7963.075
2786.1945	7958.275
2788.75471	7965.575
2791.31335	7924.475
2793.87041	7916.175
2796.42589	7911.375
2798.97979	7916.475
2801.53212	7909.475
2804.08288	7898.375
2806.63206	7881.075
2809.17967	7888.475
2811.72571	7854.875
2814.27018	7873.575
2816.81308	7863.775
2819.35442	7862.775
2821.89419	7865.475
2824.43239	7850.075
2826.96904	7880.075
2829.50412	7878.375
2832.03763	7843.175
2834.56959	7850.075
2837.1	7873.375
2839.62884	7876.875
2842.15613	7876.075
2844.68186	7930.375
2847.20604	7949.075
2849.72867	7978.775
2852.24974	7969.475
2854.76927	7966.875
2857.28724	7980.975
2859.80367	7941.875
2862.31855	7935.475
2864.83189	7936.175
2867.34368	7908.175
2869.85393	7952.675
2872.36264	7906.875
2874.8698	7916.675
2877.37543	7916.175
2879.87952	7940.675
2882.38207	7928.375
2884.88308	7950.975
2887.38256	7947.675
2889.88051	7944.075
2892.37692	7969.775
2894.8718	7972.475
2897.36515	7991.375
2899.85698	7992.275
2902.34727	8015.575
2904.83604	8032.475
2907.32328	8019.675
2909.809	8039.175
2912.29319	8036.775
2914.77587	8049.375
2917.25702	8055.775
2919.73665	8053.775
2922.21476	8053.775
2924.69136	8037.975
2927.16644	8043.875
2929.64	8026.675
2932.11205	8018.275
2934.58258	7993.875
2937.05161	8009.675
2939.51912	8011.275
2941.98513	7982.475
2944.44962	7950.475
2946.91261	7936.975
2949.37409	7934.575
2951.83407	7914.875
2954.29254	7910.075
2956.74951	7896.275
2959.20498	7898.875
2961.65895	7862.075
2964.11142	7881.875
2966.56239	7840.475
2969.01186	7820.475
2971.45984	7781.175
2973.90632	7791.375
2976.35131	7745.875
2978.7948	7742.375
2981.23681	7726.675
2983.67732	7703.175
2986.11635	7679.675
2988.55388	7661.475
2990.98993	7651.375
2993.4245	7638.775
2995.85758	7612.275
2998.28917	7610.175
3000.71928	7598.675
3003.14791	7626.075
3005.57506	7599.975
3008.00073	7596.675
3010.42493	7603.875
3012.84764	7573.775
3015.26888	7562.875
3017.68865	7547.675
3020.10694	7556.975
3022.52376	7513.175
3024.9391	7510.575
3027.35298	7495.875
3029.76539	7496.375
3032.17632	7493.475
3034.5858	7463.075
3036.9938	7485.575
3039.40034	7459.475
3041.80542	7481.375
3044.20903	7469.675
3046.61118	7454.575
3049.01187	7442.375
3051.4111	7453.375
3053.80888	7422.275
3056.20519	7421.975
3058.60005	7413.875
3060.99345	7439.575
3063.3854	7422.975
3065.7759	7381.375
3068.16494	7387.075
3070.55254	7344.475
3072.93868	7352.075
3075.32338	7315.175
3077.70662	7314.675
3080.08842	7300.875
3082.46878	7304.175
3084.84769	7272.275
3087.22515	7290.575
3089.60118	7305.775
3091.97576	7284.775
3094.3489	7286.575
3096.72061	7284.875
3099.09087	7278.775
3101.4597	7265.975
3103.82709	7260.575
3106.19305	7246.675
3108.55757	7247.975
3110.92066	7232.575
3113.28232	7232.775
3115.64255	7202.475
3118.00134	7207.175
3120.35871	7184.875
3122.71466	7181.375
3125.06917	7172.075
3127.42226	7165.975
3129.77393	7195.575
3132.12417	7190.075
3134.47299	7174.875
3136.82039	7179.275
3139.16636	7183.675
3141.51092	7189.875
3143.85406	7175.475
3146.19579	7194.475
3148.53609	7195.775
3150.87499	7187.075
3153.21246	7196.175
3155.54853	7182.175
3157.88318	7210.475
3160.21642	7199.475
3162.54826	7195.875
3164.87868	7200.575
3167.2077	7219.675
3169.5353	7179.075
3171.86151	7185.275
3174.18631	7184.475
3176.5097	7185.575
3178.83169	7192.475
3181.15228	7171.475
3183.47147	7186.075
3185.78926	7154.675
3188.10565	7174.475
