Data from AgNPs_FTO_APTES_UA_50um_CRN_0.1mM_R6G_10uM_NaF_0.1M_Addition_RamanShift__29__15-36-49-260.txt Node

Date: Tue Dec 21 15:36:49 GMT 2021
User: TCL
Spectrometer: QEP01345
Trigger mode: 4
Integration Time (sec): 7.000000E0
Scans to average: 10
Electric dark correction enabled: true
Nonlinearity correction enabled: false
Boxcar width: 0
XAxis mode: Raman Shifts
Number of Pixels in Spectrum: 1044
>>>>>Begin Spectral Data<<<<<
46.04893	-0.55
50.45542	-0.15
54.85868	-0.95
59.25871	-0.05
63.6555	34.05
68.04907	39.25
72.43941	40.05
76.82654	40.95
81.21044	45.45
85.59113	45.35
89.96862	48.35
94.34289	49.55
98.71396	51.35
103.08183	54.25
107.4465	55.35
111.80798	57.55
116.16626	55.65
120.52136	58.95
124.87327	59.45
129.222	55.45
133.56755	60.25
137.90993	68.45
142.24913	68.65
146.58517	74.35
150.91804	81.15
155.24774	93.25
159.57429	108.45
163.89768	138.05
168.21792	178.15
172.53501	228.05
176.84895	318.05
181.15975	440.95
185.46741	612.85
189.77193	845.85
194.07331	1121.95
198.37157	1450.85
202.6667	1787.95
206.9587	2136.85
211.24758	2470.55
215.53334	2821.65
219.81599	3196.55
224.09553	3622.35
228.37195	4099.05
232.64527	4623.75
236.91549	5165.85
241.18261	5669.55
245.44663	6106.05
249.70755	6494.05
253.96539	6815.85
258.22014	7063.95
262.4718	7264.35
266.72039	7394.75
270.96589	7460.35
275.20832	7491.25
279.44768	7402.55
283.68397	7294.15
287.91719	7266.65
292.14735	7248.15
296.37445	7337.25
300.59849	7531.85
304.81948	7789.95
309.03742	7946.05
313.25231	7908.55
317.46415	7584.35
321.67296	7096.45
325.87872	6699.85
330.08145	6493.95
334.28114	6473.15
338.47781	6587.45
342.67145	6730.15
346.86207	6966.65
351.04966	7314.25
355.23424	7703.85
359.4158	8016.85
363.59435	8197.95
367.76989	8275.85
371.94243	8277.75
376.11196	8252.65
380.27849	8222.45
384.44203	8177.45
388.60257	8109.35
392.76012	8076.95
396.91468	8138.95
401.06626	8334.25
405.21485	8494.75
409.36047	8392.75
413.50311	8046.85
417.64277	7673.25
421.77947	7472.65
425.9132	7399.25
430.04396	7398.85
434.17176	7431.45
438.2966	7519.35
442.41849	7659.65
446.53742	7831.45
450.6534	7988.05
454.76644	8123.05
458.87653	8145.15
462.98368	8092.35
467.08789	8005.05
471.18916	7872.85
475.2875	7757.25
479.38291	7650.35
483.4754	7569.55
487.56496	7527.55
491.6516	7482.65
495.73531	7450.75
499.81612	7417.55
503.89401	7480.15
507.96899	7552.15
512.04106	7583.85
516.11023	7702.45
520.1765	7743.75
524.23987	7762.85
528.30034	7653.35
532.35792	7525.55
536.41261	7393.65
540.46441	7234.85
544.51333	7148.45
548.55936	7192.15
552.60252	7314.65
556.64279	7469.15
560.6802	7569.55
564.71473	7660.95
568.7464	7910.85
572.7752	8081.65
576.80114	7959.65
580.82422	7763.65
584.84444	7691.65
588.86181	7712.25
592.87633	7735.55
596.888	7814.45
600.89682	8015.45
604.9028	8644.85
608.90594	10501.65
612.90624	13061.75
616.90371	12889.85
620.89834	9647.45
624.89015	8008.85
628.87913	7762.85
632.86528	7888.65
636.84862	8019.55
640.82913	7917.45
644.80683	7557.45
648.78172	7258.35
652.75379	7195.55
656.72306	7337.85
660.68952	7616.45
664.65319	7571.55
668.61405	7284.05
672.57211	7114.05
676.52738	7109.05
680.47986	7119.25
684.42955	7069.15
688.37646	7035.75
692.32058	7040.75
696.26192	7073.35
700.20048	7169.95
704.13626	7231.45
708.06928	7230.05
711.99952	7162.85
715.927	7133.85
719.85171	7141.65
723.77365	7140.55
727.69284	7098.65
731.60928	7056.75
735.52295	7015.75
739.43388	7020.15
743.34206	7038.35
747.24749	7062.05
751.15017	7148.95
755.05012	7240.85
758.94733	7516.05
762.8418	8157.55
766.73354	9218.35
770.62254	10404.15
774.50882	11061.05
778.39237	10680.75
782.27321	9465.15
786.15132	8245.15
790.02671	7517.85
793.89938	7186.75
797.76935	7058.75
801.6366	7058.65
805.50115	7042.95
809.36299	7108.85
813.22213	7133.95
817.07857	7110.75
820.93231	7039.65
824.78336	6977.15
828.63172	6930.45
832.47738	6918.05
836.32036	6894.35
840.16066	6856.15
843.99827	6822.45
847.8332	6803.15
851.66546	6794.15
855.49504	6773.35
859.32195	6779.85
863.1462	6747.65
866.96777	6726.65
870.78668	6726.05
874.60293	6784.45
878.41652	6829.45
882.22745	6891.35
886.03573	6962.75
889.84136	6963.65
893.64433	6929.35
897.44466	6820.75
901.24235	6782.65
905.0374	6736.35
908.8298	6684.35
912.61957	6641.25
916.40671	6656.45
920.19121	6708.55
923.97308	6757.75
927.75233	6760.25
931.52895	6800.45
935.30295	6744.55
939.07433	6596.35
942.84309	6462.65
946.60924	6389.25
950.37278	6319.05
954.13371	6313.45
957.89203	6289.05
961.64774	6285.85
965.40086	6258.95
969.15137	6263.05
972.89929	6240.35
976.64461	6213.85
980.38733	6193.65
984.12747	6208.05
987.86502	6241.05
991.59999	6273.25
995.33237	6305.95
999.06217	6403.15
1002.78939	6536.05
1006.51404	6711.45
1010.23611	6845.95
1013.95561	6935.15
1017.67255	6966.45
1021.38692	6877.15
1025.09872	6789.15
1028.80796	6695.15
1032.51465	6675.75
1036.21877	6700.05
1039.92035	6757.65
1043.61937	6767.95
1047.31584	6740.55
1051.00976	6731.45
1054.70114	6723.35
1058.38998	6730.95
1062.07627	6793.35
1065.76003	6851.25
1069.44126	6897.15
1073.11995	6959.05
1076.79611	6993.85
1080.46974	7039.35
1084.14085	7150.05
1087.80943	7267.95
1091.47549	7297.45
1095.13903	7255.65
1098.80005	7072.15
1102.45857	6888.65
1106.11456	6807.25
1109.76805	6814.15
1113.41903	6942.25
1117.06751	7138.15
1120.71348	7368.65
1124.35696	7693.35
1127.99793	7977.75
1131.63641	8026.65
1135.2724	7791.55
1138.90589	7533.35
1142.5369	7354.95
1146.16542	7175.95
1149.79145	7053.95
1153.415	6987.35
1157.03607	6994.65
1160.65467	7055.15
1164.27079	7242.75
1167.88443	7540.65
1171.49561	7979.65
1175.10432	8751.65
1178.71056	9852.25
1182.31434	10672.25
1185.91565	10925.35
1189.51451	10700.35
1193.11091	10203.65
1196.70485	9635.45
1200.29634	9276.55
1203.88538	8958.55
1207.47197	8533.45
1211.05612	8109.95
1214.63782	7814.05
1218.21708	7655.45
1221.79391	7574.35
1225.36829	7576.05
1228.94024	7545.05
1232.50976	7514.15
1236.07685	7480.65
1239.6415	7510.85
1243.20374	7540.35
1246.76355	7588.15
1250.32093	7651.35
1253.8759	7786.75
1257.42845	7959.95
1260.97859	8133.85
1264.52631	8296.15
1268.07163	8459.95
1271.61453	8620.55
1275.15503	8753.05
1278.69312	8836.25
1282.22882	8894.75
1285.76211	9041.75
1289.29301	9305.55
1292.82151	9583.85
1296.34761	9911.35
1299.87133	10389.05
1303.39266	11128.55
1306.9116	12237.95
1310.42815	13415.45
1313.94233	14052.05
1317.45412	13815.15
1320.96354	13024.45
1324.47058	12186.45
1327.97525	11443.95
1331.47754	10994.35
1334.97747	10866.05
1338.47502	10951.25
1341.97022	11220.85
1345.46305	11573.15
1348.95352	12040.45
1352.44163	12666.15
1355.92738	13634.85
1359.41078	15181.05
1362.89183	16629.45
1366.37053	16263.25
1369.84688	14205.55
1373.32088	12105.85
1376.79254	10672.35
1380.26186	9848.55
1383.72883	9459.05
1387.19347	9218.75
1390.65578	8982.45
1394.11575	8793.05
1397.57339	8726.25
1401.0287	8777.25
1404.48168	8853.25
1407.93234	8945.65
1411.38068	8972.05
1414.82669	8902.85
1418.27039	8734.85
1421.71177	8495.85
1425.15083	8259.55
1428.58758	8099.15
1432.02203	8131.25
1435.45416	8155.65
1438.88399	8185.25
1442.31151	8174.05
1445.73673	8231.25
1449.15965	8302.35
1452.58027	8298.35
1455.9986	8280.75
1459.41463	8288.25
1462.82837	8367.15
1466.23982	8491.65
1469.64898	8654.75
1473.05586	8754.15
1476.46045	8825.25
1479.86276	8906.45
1483.26279	9070.75
1486.66054	9230.85
1490.05602	9528.75
1493.44922	9905.35
1496.84016	10508.25
1500.22882	11353.35
1503.61521	12573.65
1506.99934	13901.85
1510.38121	15039.15
1513.76081	15407.85
1517.13816	14636.85
1520.51324	13035.45
1523.88607	11533.15
1527.25665	10498.05
1530.62498	9938.75
1533.99105	9638.85
1537.35488	9442.05
1540.71647	9336.15
1544.07581	9265.15
1547.4329	9234.95
1550.78776	9179.05
1554.14038	9135.05
1557.49077	9150.75
1560.83892	9255.15
1564.18484	9453.95
1567.52853	9704.15
1570.86999	9900.15
1574.20922	10019.05
1577.54624	9962.85
1580.88103	9599.45
1584.2136	9083.25
1587.54395	8797.65
1590.87208	8882.45
1594.19801	9270.85
1597.52172	9821.35
1600.84321	10138.05
1604.16251	9959.35
1607.47959	9430.05
1610.79447	8809.35
1614.10715	8223.45
1617.41763	7746.35
1620.7259	7420.15
1624.03199	7254.95
1627.33587	7220.75
1630.63757	7317.75
1633.93707	7578.25
1637.23439	7986.15
1640.52951	8609.75
1643.82246	9505.95
1647.11321	10533.15
1650.40179	11371.55
1653.68819	11250.75
1656.97241	10099.15
1660.25446	8724.95
1663.53433	7708.75
1666.81203	7059.85
1670.08756	6674.85
1673.36092	6420.75
1676.63211	6265.15
1679.90115	6141.25
1683.16801	6038.25
1686.43272	5980.05
1689.69527	5934.35
1692.95567	5891.65
1696.2139	5885.15
1699.46999	5852.45
1702.72392	5835.35
1705.97571	5772.25
1709.22535	5732.15
1712.47284	5713.15
1715.71819	5691.95
1718.96139	5694.45
1722.20246	5671.15
1725.44139	5657.85
1728.67818	5623.25
1731.91284	5583.75
1735.14537	5535.65
1738.37576	5517.55
1741.60403	5489.65
1744.83017	5504.95
1748.05418	5458.95
1751.27607	5455.35
1754.49584	5445.85
1757.71349	5459.35
1760.92903	5442.15
1764.14244	5439.65
1767.35375	5431.55
1770.56294	5407.05
1773.77002	5377.45
1776.97499	5350.55
1780.17785	5326.25
1783.37861	5309.65
1786.57727	5309.85
1789.77382	5269.45
1792.96828	5273.75
1796.16064	5269.05
1799.3509	5255.95
1802.53907	5234.25
1805.72514	5227.65
1808.90913	5219.55
1812.09102	5204.15
1815.27083	5189.35
1818.44856	5176.25
1821.6242	5152.55
1824.79776	5155.85
1827.96924	5137.65
1831.13864	5134.55
1834.30597	5137.95
1837.47122	5127.45
1840.6344	5121.45
1843.7955	5133.15
1846.95454	5112.35
1850.11151	5079.55
1853.26642	5097.55
1856.41926	5095.75
1859.57004	5097.85
1862.71876	5087.95
1865.86542	5086.15
1869.01003	5087.85
1872.15258	5083.65
1875.29308	5072.05
1878.43152	5072.05
1881.56792	5076.05
1884.70227	5089.85
1887.83457	5067.05
1890.96482	5037.35
1894.09304	5031.05
1897.21921	5046.05
1900.34335	5036.85
1903.46544	5045.25
1906.58551	5033.05
1909.70353	5030.75
1912.81953	5011.55
1915.93349	5002.75
1919.04543	5026.75
1922.15534	5002.25
1925.26322	4982.25
1928.36908	4967.35
1931.47292	4978.05
1934.57473	4942.45
1937.67453	4936.25
1940.77232	4942.85
1943.86808	4910.65
1946.96184	4888.15
1950.05358	4866.85
1953.14331	4854.85
1956.23103	4843.35
1959.31675	4824.75
1962.40046	4809.15
1965.48217	4800.15
1968.56188	4789.05
1971.63959	4771.35
1974.7153	4772.45
1977.78901	4734.95
1980.86073	4737.55
1983.93046	4708.35
1986.99819	4696.05
1990.06394	4688.65
1993.1277	4659.75
1996.18947	4633.75
1999.24925	4641.35
2002.30706	4614.45
2005.36288	4607.55
2008.41672	4596.45
2011.46859	4580.75
2014.51848	4567.15
2017.56639	4534.25
2020.61233	4548.95
2023.6563	4529.65
2026.6983	4510.25
2029.73833	4498.25
2032.7764	4488.15
2035.8125	4474.15
2038.84664	4483.45
2041.87881	4478.35
2044.90903	4457.85
2047.93729	4454.05
2050.96359	4456.05
2053.98794	4435.05
2057.01034	4430.35
2060.03078	4416.95
2063.04927	4414.25
2066.06582	4410.45
2069.08042	4405.95
2072.09307	4404.55
2075.10378	4398.35
2078.11255	4392.45
2081.11938	4392.65
2084.12426	4394.65
2087.12722	4380.65
2090.12824	4380.25
2093.12732	4393.25
2096.12447	4396.25
2099.11969	4365.25
2102.11299	4375.35
2105.10435	4389.45
2108.09379	4371.55
2111.08131	4393.45
2114.0669	4388.95
2117.05057	4382.25
2120.03233	4395.15
2123.01216	4380.65
2125.99008	4390.45
2128.96609	4379.65
2131.94018	4389.75
2134.91236	4371.45
2137.88263	4384.95
2140.851	4387.25
2143.81746	4397.55
2146.78201	4396.35
2149.74466	4401.05
2152.7054	4399.35
2155.66425	4375.05
2158.6212	4388.35
2161.57625	4361.45
2164.52941	4388.55
2167.48067	4366.75
2170.43004	4369.35
2173.37752	4366.25
2176.32311	4360.15
2179.26681	4357.25
2182.20863	4369.45
2185.14856	4361.85
2188.08661	4365.05
2191.02278	4345.95
2193.95707	4354.65
2196.88948	4340.75
2199.82001	4344.65
2202.74867	4346.05
2205.67545	4321.25
2208.60037	4316.05
2211.52341	4312.95
2214.44458	4307.05
2217.36388	4284.95
2220.28132	4302.25
2223.1969	4275.45
2226.11061	4263.35
2229.02246	4253.15
2231.93245	4239.35
2234.84058	4227.35
2237.74686	4239.75
2240.65128	4238.05
2243.55385	4218.35
2246.45456	4216.15
2249.35343	4190.75
2252.25044	4206.25
2255.14561	4215.25
2258.03893	4207.25
2260.93041	4205.35
2263.82004	4196.35
2266.70783	4191.35
2269.59378	4159.35
2272.4779	4153.55
2275.36017	4146.55
2278.24061	4146.05
2281.11922	4141.65
2283.996	4121.65
2286.87094	4108.85
2289.74405	4102.65
2292.61534	4086.35
2295.4848	4086.95
2298.35243	4076.35
2301.21824	4064.45
2304.08223	4067.25
2306.94439	4074.95
2309.80474	4049.35
2312.66327	4053.25
2315.51999	4048.05
2318.37489	4047.05
2321.22797	4040.05
2324.07925	4049.65
2326.92871	4024.55
2329.77637	4030.35
2332.62222	4033.75
2335.46626	4021.55
2338.3085	4016.05
2341.14893	3998.55
2343.98756	3994.45
2346.8244	4007.75
2349.65943	4011.25
2352.49267	3998.25
2355.32411	4016.65
2358.15376	4010.05
2360.98161	4006.85
2363.80768	4007.75
2366.63195	4007.65
2369.45444	4021.25
2372.27514	3998.05
2375.09405	3983.95
2377.91118	3980.95
2380.72652	3967.55
2383.54009	3957.05
2386.35187	3950.85
2389.16188	3928.25
2391.97011	3935.75
2394.77657	3898.95
2397.58125	3892.85
2400.38416	3890.85
2403.18529	3874.45
2405.98466	3881.15
2408.78226	3858.95
2411.57809	3852.85
2414.37216	3846.35
2417.16446	3836.95
2419.955	3830.75
2422.74378	3830.65
2425.5308	3831.05
2428.31606	3841.95
2431.09956	3821.25
2433.88131	3813.85
2436.6613	3818.45
2439.43954	3827.95
2442.21603	3797.55
2444.99077	3802.05
2447.76377	3797.25
2450.53501	3802.05
2453.30451	3801.25
2456.07226	3805.75
2458.83827	3791.85
2461.60254	3792.25
2464.36507	3784.85
2467.12586	3782.75
2469.88492	3784.85
2472.64224	3785.65
2475.39782	3795.25
2478.15167	3792.55
2480.90379	3783.25
2483.65417	3783.95
2486.40283	3770.25
2489.14976	3794.75
2491.89497	3776.85
2494.63845	3806.95
2497.3802	3787.35
2500.12024	3761.75
2502.85855	3773.05
2505.59514	3772.65
2508.33002	3747.75
2511.06318	3731.95
2513.79462	3735.05
2516.52435	3737.75
2519.25237	3709.65
2521.97867	3684.85
2524.70327	3694.15
2527.42616	3685.85
2530.14734	3669.15
2532.86681	3680.25
2535.58458	3654.35
2538.30065	3643.85
2541.01501	3656.05
2543.72768	3661.35
2546.43864	3677.75
2549.14791	3638.05
2551.85548	3633.75
2554.56136	3627.05
2557.26554	3633.05
2559.96803	3620.95
2562.66883	3612.65
2565.36794	3618.95
2568.06536	3600.95
2570.7611	3602.85
2573.45514	3601.45
2576.14751	3596.15
2578.83819	3594.25
2581.52719	3583.05
2584.21451	3566.55
2586.90015	3562.75
2589.58411	3558.35
2592.2664	3549.95
2594.94701	3541.85
2597.62594	3554.35
2600.30321	3541.45
2602.9788	3536.15
2605.65273	3521.85
2608.32498	3535.45
2610.99557	3525.65
2613.66449	3530.95
2616.33175	3526.05
2618.99734	3521.85
2621.66128	3513.75
2624.32355	3504.85
2626.98416	3510.15
2629.64311	3490.15
2632.30041	3493.95
2634.95605	3498.15
2637.61004	3479.95
2640.26238	3474.15
2642.91306	3467.25
2645.56209	3467.15
2648.20948	3472.05
2650.85521	3452.85
2653.4993	3459.35
2656.14175	3447.15
2658.78255	3457.95
2661.42171	3454.65
2664.05923	3464.45
2666.6951	3463.05
2669.32934	3469.05
2671.96194	3460.85
2674.59291	3471.45
2677.22224	3477.75
2679.84993	3473.75
2682.476	3468.35
2685.10043	3459.95
2687.72324	3459.75
2690.34441	3455.55
2692.96396	3453.65
2695.58188	3466.45
2698.19818	3455.75
2700.81285	3474.75
2703.4259	3485.45
2706.03733	3550.75
2708.64714	3495.05
2711.25533	3473.85
2713.86191	3462.05
2716.46687	3466.55
2719.07021	3466.35
2721.67194	3473.55
2724.27206	3459.05
2726.87057	3463.75
2729.46747	3453.95
2732.06276	3453.05
2734.65644	3462.05
2737.24852	3440.25
2739.83899	3443.15
2742.42786	3449.25
2745.01513	3447.95
2747.60079	3438.75
2750.18486	3424.15
2752.76733	3433.15
2755.3482	3418.55
2757.92747	3417.85
2760.50515	3411.25
2763.08123	3391.95
2765.65573	3412.05
2768.22863	3413.15
2770.79994	3381.05
2773.36967	3403.55
2775.9378	3394.15
2778.50435	3400.45
2781.06932	3392.85
2783.6327	3370.45
2786.1945	3387.05
2788.75471	3390.45
2791.31335	3375.45
2793.87041	3366.95
2796.42589	3345.05
2798.97979	3349.45
2801.53212	3352.45
2804.08288	3361.85
2806.63206	3350.95
2809.17967	3330.05
2811.72571	3345.55
2814.27018	3334.75
2816.81308	3324.65
2819.35442	3335.35
2821.89419	3319.55
2824.43239	3335.25
2826.96904	3323.15
2829.50412	3325.65
2832.03763	3318.25
2834.56959	3321.55
2837.1	3319.05
2839.62884	3336.25
2842.15613	3334.85
2844.68186	3333.45
2847.20604	3357.95
2849.72867	3357.75
2852.24974	3367.25
2854.76927	3383.25
2857.28724	3382.05
2859.80367	3371.25
2862.31855	3353.75
2864.83189	3359.15
2867.34368	3354.75
2869.85393	3347.95
2872.36264	3334.25
2874.8698	3341.05
2877.37543	3320.55
2879.87952	3339.15
2882.38207	3336.75
2884.88308	3314.45
2887.38256	3329.35
2889.88051	3319.35
2892.37692	3329.25
2894.8718	3323.35
2897.36515	3338.55
2899.85698	3326.95
2902.34727	3334.95
2904.83604	3306.15
2907.32328	3332.45
2909.809	3339.15
2912.29319	3339.05
2914.77587	3324.95
2917.25702	3318.15
2919.73665	3328.35
2922.21476	3313.85
2924.69136	3317.45
2927.16644	3328.25
2929.64	3307.15
2932.11205	3314.55
2934.58258	3295.55
2937.05161	3301.15
2939.51912	3286.65
2941.98513	3275.25
2944.44962	3272.75
2946.91261	3261.45
2949.37409	3248.75
2951.83407	3251.05
2954.29254	3244.25
2956.74951	3236.85
2959.20498	3234.45
2961.65895	3230.55
2964.11142	3223.55
2966.56239	3225.55
2969.01186	3206.95
2971.45984	3194.55
2973.90632	3200.85
2976.35131	3181.15
2978.7948	3172.65
2981.23681	3168.55
2983.67732	3161.85
2986.11635	3155.35
2988.55388	3151.95
2990.98993	3141.75
2993.4245	3130.45
2995.85758	3126.25
2998.28917	3125.55
3000.71928	3134.25
3003.14791	3117.45
3005.57506	3112.85
3008.00073	3113.85
3010.42493	3097.55
3012.84764	3108.15
3015.26888	3102.55
3017.68865	3095.75
3020.10694	3097.45
3022.52376	3091.75
3024.9391	3081.95
3027.35298	3080.95
3029.76539	3075.35
3032.17632	3064.95
3034.5858	3057.35
3036.9938	3074.95
3039.40034	3073.85
3041.80542	3058.95
3044.20903	3054.65
3046.61118	3055.85
3049.01187	3034.25
3051.4111	3045.65
3053.80888	3027.25
3056.20519	3027.55
3058.60005	3035.75
3060.99345	3043.05
3063.3854	3009.75
3065.7759	2998.65
3068.16494	3000.45
3070.55254	3004.45
3072.93868	3000.25
3075.32338	2998.45
3077.70662	3130.75
3080.08842	3115.75
3082.46878	2984.35
3084.84769	2986.35
3087.22515	2976.85
3089.60118	2976.65
3091.97576	2994.85
3094.3489	2975.95
3096.72061	2979.15
3099.09087	2974.55
3101.4597	2980.25
3103.82709	2982.85
3106.19305	2972.15
3108.55757	2978.05
3110.92066	2975.45
3113.28232	2968.85
3115.64255	2960.15
3118.00134	2961.95
3120.35871	2951.15
3122.71466	2945.15
3125.06917	2952.25
3127.42226	2962.25
3129.77393	2961.55
3132.12417	2967.55
3134.47299	2964.35
3136.82039	2966.35
3139.16636	2975.95
3141.51092	2983.35
3143.85406	2982.45
3146.19579	2997.85
3148.53609	2983.35
3150.87499	2988.35
3153.21246	2998.45
3155.54853	3008.45
3157.88318	3009.65
3160.21642	3015.95
3162.54826	3015.55
3164.87868	3006.35
3167.2077	3024.15
3169.5353	3024.95
3171.86151	3021.85
3174.18631	3022.75
3176.5097	3014.85
3178.83169	3013.65
3181.15228	3019.45
3183.47147	3038.25
3185.78926	3023.65
3188.10565	3025.45
3190.42065	3019.55
3192.73424	3024.25
3195.04645	3024.45
3197.35725	3037.95
3199.66667	3038.05
3201.97469	3041.75
3204.28132	3040.05
3206.58656	3049.85
3208.8904	3046.25
3211.19287	3048.55
3213.49394	3058.35
3215.79363	3054.35
3218.09193	3067.25
3220.38884	3076.45
3222.68438	3097.35
3224.97853	3072.45
3227.2713	3058.55
3229.56269	3064.65
3231.8527	3061.25
3234.14133	3054.75
3236.42858	3051.55
3238.71446	3035.55
3240.99896	3038.25
3243.28209	3057.65
3245.56384	3044.45
3247.84423	3046.85
3250.12324	3041.25
3252.40088	3036.85
3254.67715	3036.45
3256.95205	3027.65
3259.22558	3036.15
3261.49775	3033.65
3263.76855	3019.95
3266.03799	3025.15
3268.30606	3008.05
3270.57277	3000.05
3272.83812	3014.55
3275.10211	3012.85
3277.36474	2991.45
3279.62601	2992.25
3281.88593	2999.75
3284.14448	3003.15
3286.40168	2996.05
3288.65753	2985.45
3290.91202	2996.75
3293.16516	2970.75
3295.41695	2968.05
3297.66738	2963.15
3299.91647	2947.15
3302.16421	2921.95
3304.4106	2915.15
3306.65564	2898.95
3308.89933	2889.35
3311.14169	2877.75
3313.38269	2862.75
3315.62236	2833.35
3317.86068	2803.95
3320.09766	2774.15
3322.3333	2755.35
3324.5676	2770.55
3326.80056	2728.25
3329.03219	2712.15
3331.26248	0.15
3333.49143	0.45
3335.71905	1.35
