Data from AgNPs_FTO_APTES_UA_1um_CRN_0.1mM_R6G_10uM_NaF_0.1M_Addition_RamanShift__16__11-52-49-004.txt Node

Date: Tue Dec 21 11:52:49 GMT 2021
User: TCL
Spectrometer: QEP01345
Trigger mode: 4
Integration Time (sec): 7.000000E0
Scans to average: 10
Electric dark correction enabled: true
Nonlinearity correction enabled: false
Boxcar width: 0
XAxis mode: Raman Shifts
Number of Pixels in Spectrum: 1044
>>>>>Begin Spectral Data<<<<<
46.04893	-0.6
50.45542	-1.2
54.85868	-0
59.25871	-1
63.6555	38.8
68.04907	45.6
72.43941	48.5
76.82654	48.2
81.21044	55.7
85.59113	55.5
89.96862	56.5
94.34289	57.8
98.71396	58.8
103.08183	63.2
107.4465	63.8
111.80798	70
116.16626	68.2
120.52136	68.8
124.87327	71.5
129.222	71.4
133.56755	77
137.90993	82.6
142.24913	84.3
146.58517	96.9
150.91804	114
155.24774	133
159.57429	160.3
163.89768	207.4
168.21792	268.8
172.53501	361.4
176.84895	508.5
181.15975	710.8
185.46741	988.7
189.77193	1362.9
194.07331	1825.5
198.37157	2357.9
202.6667	2921
206.9587	3495.7
211.24758	4071.2
215.53334	4650.4
219.81599	5239.1
224.09553	5879.7
228.37195	6646.6
232.64527	7418.9
236.91549	8256.3
241.18261	9044.2
245.44663	9789.4
249.70755	10395.9
253.96539	10919.2
258.22014	11332.4
262.4718	11658.2
266.72039	11877.1
270.96589	11948.2
275.20832	11895.1
279.44768	11712.4
283.68397	11556.6
287.91719	11464.6
292.14735	11383.7
296.37445	11400.4
300.59849	11442.2
304.81948	11584.6
309.03742	11625.3
313.25231	11599.8
317.46415	11346.6
321.67296	10939.3
325.87872	10593.8
330.08145	10359
334.28114	10310.7
338.47781	10369.6
342.67145	10497.7
346.86207	10689.4
351.04966	10925.6
355.23424	11161.6
359.4158	11381.7
363.59435	11536.7
367.76989	11569.8
371.94243	11612.4
376.11196	11558.1
380.27849	11597.9
384.44203	11669.2
388.60257	11728.8
392.76012	11828.3
396.91468	11998.1
401.06626	12216
405.21485	12411.6
409.36047	12298.4
413.50311	12037.7
417.64277	11823.6
421.77947	11778.4
425.9132	11796.7
430.04396	11856.5
434.17176	11888.5
438.2966	11962.6
442.41849	12170.9
446.53742	12599
450.6534	13004
454.76644	13287.3
458.87653	13253.7
462.98368	13101.8
467.08789	12862.6
471.18916	12636.8
475.2875	12437.6
479.38291	12302.4
483.4754	12228.7
487.56496	12112.1
491.6516	11972
495.73531	11843.2
499.81612	11788.4
503.89401	11829.9
507.96899	11853
512.04106	11788.2
516.11023	11643.2
520.1765	11513.5
524.23987	11436
528.30034	11404.2
532.35792	11316.9
536.41261	11174.8
540.46441	10934.7
544.51333	10872.2
548.55936	10936.9
552.60252	11192.5
556.64279	11493.6
560.6802	11729.2
564.71473	11829.9
568.7464	12062.4
572.7752	12470.6
576.80114	12817.3
580.82422	13157.8
584.84444	13605.1
588.86181	14025
592.87633	14480.3
596.888	14619.5
600.89682	14355.1
604.9028	14392.6
608.90594	15571.2
612.90624	17046.1
616.90371	15913.3
620.89834	12689.5
624.89015	11139.9
628.87913	10932
632.86528	11141.9
636.84862	11298.8
640.82913	11189.9
644.80683	10812.6
648.78172	10509.7
652.75379	10433.7
656.72306	10537.1
660.68952	10733.5
664.65319	10692.7
668.61405	10525
672.57211	10465.8
676.52738	10590.7
680.47986	10645.9
684.42955	10515.8
688.37646	10354.7
692.32058	10273.8
696.26192	10264.3
700.20048	10379.4
704.13626	10478.7
708.06928	10500.9
711.99952	10441.5
715.927	10384.7
719.85171	10387.9
723.77365	10375.5
727.69284	10286.4
731.60928	10137
735.52295	10113.8
739.43388	10107.5
743.34206	10137.4
747.24749	10194.4
751.15017	10306
755.05012	10493.2
758.94733	10874.8
762.8418	11641.4
766.73354	12906.2
770.62254	14146.5
774.50882	14421.1
778.39237	13644.4
782.27321	12361.7
786.15132	11234.7
790.02671	10490.6
793.89938	10118.3
797.76935	9936.4
801.6366	9898.9
805.50115	9859.3
809.36299	9769.3
813.22213	9658.4
817.07857	9557.7
820.93231	9495.8
824.78336	9430.1
828.63172	9424.4
832.47738	9377.4
836.32036	9371.8
840.16066	9344.7
843.99827	9338.3
847.8332	9296.7
851.66546	9269.1
855.49504	9286
859.32195	9295.2
863.1462	9299.7
866.96777	9261.2
870.78668	9266.5
874.60293	9264.3
878.41652	9256.8
882.22745	9286.2
886.03573	9317.7
889.84136	9357.5
893.64433	9308.8
897.44466	9289.6
901.24235	9242.2
905.0374	9148
908.8298	9055.7
912.61957	9033
916.40671	9064.6
920.19121	9200.3
923.97308	9366.8
927.75233	9481.8
931.52895	9462.9
935.30295	9299.4
939.07433	9038.7
942.84309	8845.3
946.60924	8685.7
950.37278	8637.6
954.13371	8607.3
957.89203	8574.5
961.64774	8558.8
965.40086	8547.5
969.15137	8509.3
972.89929	8462.6
976.64461	8385.7
980.38733	8385.9
984.12747	8380.6
987.86502	8395.5
991.59999	8499.7
995.33237	8608.2
999.06217	8809
1002.78939	9090.7
1006.51404	9359.9
1010.23611	9567.7
1013.95561	9748.9
1017.67255	9810.6
1021.38692	9668.2
1025.09872	9416.1
1028.80796	9206.7
1032.51465	9160.6
1036.21877	9226.5
1039.92035	9292
1043.61937	9321.3
1047.31584	9291
1051.00976	9289.8
1054.70114	9279.5
1058.38998	9277
1062.07627	9308.2
1065.76003	9357.5
1069.44126	9501.5
1073.11995	9728.4
1076.79611	9945.1
1080.46974	10027.6
1084.14085	10075.4
1087.80943	10196.2
1091.47549	10354.9
1095.13903	10361
1098.80005	10191.3
1102.45857	9840.7
1106.11456	9545.8
1109.76805	9397
1113.41903	9419.8
1117.06751	9541.8
1120.71348	9716.5
1124.35696	9951
1127.99793	10196.9
1131.63641	10326.7
1135.2724	10276.3
1138.90589	10122.2
1142.5369	10047.3
1146.16542	9995.5
1149.79145	10009.9
1153.415	10069.1
1157.03607	10219.1
1160.65467	10546.8
1164.27079	11121.8
1167.88443	11937.8
1171.49561	12986.3
1175.10432	14349.9
1178.71056	16091.3
1182.31434	17605.9
1185.91565	18306.8
1189.51451	18157.3
1193.11091	17380.2
1196.70485	16352.7
1200.29634	15178.1
1203.88538	14219.2
1207.47197	13449.9
1211.05612	12904.2
1214.63782	12571.9
1218.21708	12387.5
1221.79391	12415.1
1225.36829	12532.5
1228.94024	12535.2
1232.50976	12299.9
1236.07685	11960.2
1239.6415	11730.2
1243.20374	11624.8
1246.76355	11570.4
1250.32093	11670.3
1253.8759	11912.2
1257.42845	12291.8
1260.97859	12795.2
1264.52631	13268.4
1268.07163	13791.9
1271.61453	14264.4
1275.15503	14749.2
1278.69312	15254.9
1282.22882	15743.8
1285.76211	16325
1289.29301	17021.1
1292.82151	17780.7
1296.34761	18690.7
1299.87133	19800.8
1303.39266	21111.2
1306.9116	22628.7
1310.42815	24291.2
1313.94233	25562.7
1317.45412	25882
1320.96354	25353.6
1324.47058	24636
1327.97525	23848.5
1331.47754	23107.9
1334.97747	22523.1
1338.47502	22056.3
1341.97022	21642.7
1345.46305	21258.1
1348.95352	21052
1352.44163	21202.7
1355.92738	21947.3
1359.41078	23334.2
1362.89183	24736.9
1366.37053	24838.3
1369.84688	22959.7
1373.32088	20091.5
1376.79254	17840.8
1380.26186	16691.6
1383.72883	16188.9
1387.19347	15874.6
1390.65578	15580.1
1394.11575	15544.7
1397.57339	15834.4
1401.0287	16330.2
1404.48168	16755.7
1407.93234	16892.1
1411.38068	16716.4
1414.82669	16184
1418.27039	15497.2
1421.71177	14738.3
1425.15083	14071.1
1428.58758	13637.3
1432.02203	13629.5
1435.45416	13905.6
1438.88399	14319.6
1442.31151	14679.2
1445.73673	14984.4
1449.15965	15329.1
1452.58027	15516.4
1455.9986	15519.5
1459.41463	15642.9
1462.82837	15953.5
1466.23982	16410.6
1469.64898	16860.1
1473.05586	17033.4
1476.46045	17059
1479.86276	17058.9
1483.26279	16982.2
1486.66054	16962.8
1490.05602	17168.6
1493.44922	17451.3
1496.84016	17815
1500.22882	18361.3
1503.61521	19223.6
1506.99934	20309.1
1510.38121	21170.2
1513.76081	21316.2
1517.13816	20485.2
1520.51324	19014.6
1523.88607	17618.8
1527.25665	16740.3
1530.62498	16251.7
1533.99105	16014.6
1537.35488	15792.7
1540.71647	15508.5
1544.07581	15107
1547.4329	14689.1
1550.78776	14307.8
1554.14038	14053.4
1557.49077	13958.2
1560.83892	13969.5
1564.18484	14078.6
1567.52853	14295.7
1570.86999	14483.2
1574.20922	14707.6
1577.54624	14789.7
1580.88103	14556.9
1584.2136	14342.1
1587.54395	14445.3
1590.87208	15096.6
1594.19801	16199.6
1597.52172	17493.6
1600.84321	18219.5
1604.16251	17711.3
1607.47959	16325.8
1610.79447	14684.8
1614.10715	13041.6
1617.41763	11785.2
1620.7259	10890.6
1624.03199	10401.6
1627.33587	10336.7
1630.63757	10621.5
1633.93707	11396.9
1637.23439	12779.4
1640.52951	14999.4
1643.82246	17785.8
1647.11321	20463.5
1650.40179	21544.7
1653.68819	20376.5
1656.97241	17465.2
1660.25446	14257.1
1663.53433	11757
1666.81203	10192.5
1670.08756	9252.1
1673.36092	8692
1676.63211	8346.9
1679.90115	8071.9
1683.16801	7886.9
1686.43272	7772.8
1689.69527	7650.4
1692.95567	7582.7
1696.2139	7525.3
1699.46999	7483.6
1702.72392	7439.1
1705.97571	7387.6
1709.22535	7345.6
1712.47284	7329.8
1715.71819	7288
1718.96139	7268.5
1722.20246	7229
1725.44139	7187.2
1728.67818	7137.3
1731.91284	7089.5
1735.14537	7053.2
1738.37576	7029.5
1741.60403	7000.3
1744.83017	6969.6
1748.05418	7001.4
1751.27607	7009.4
1754.49584	7017.3
1757.71349	7039.8
1760.92903	7005.3
1764.14244	6962.5
1767.35375	6905
1770.56294	6841.9
1773.77002	6793.4
1776.97499	6752
1780.17785	6700.4
1783.37861	6685.1
1786.57727	6639.4
1789.77382	6627.7
1792.96828	6586.4
1796.16064	6570.7
1799.3509	6537.9
1802.53907	6524.4
1805.72514	6458.4
1808.90913	6465.9
1812.09102	6443.8
1815.27083	6425.9
1818.44856	6420.3
1821.6242	6391.4
1824.79776	6369
1827.96924	6383.5
1831.13864	6351.2
1834.30597	6371
1837.47122	6363.9
1840.6344	6348.9
1843.7955	6332.8
1846.95454	6362.8
1850.11151	6344.6
1853.26642	6326.4
1856.41926	6332.8
1859.57004	6337.8
1862.71876	6344.6
1865.86542	6319.6
1869.01003	6301.6
1872.15258	6313.1
1875.29308	6312.1
1878.43152	6296.8
1881.56792	6297.5
1884.70227	6277.4
1887.83457	6275.2
1890.96482	6252.9
1894.09304	6250.8
1897.21921	6261.8
1900.34335	6229.9
1903.46544	6220.3
1906.58551	6211
1909.70353	6196.4
1912.81953	6174.9
1915.93349	6172.4
1919.04543	6140.4
1922.15534	6101.4
1925.26322	6106.2
1928.36908	6067.9
1931.47292	6053.7
1934.57473	6034.8
1937.67453	6020.6
1940.77232	5980.1
1943.86808	5957.8
1946.96184	5958.5
1950.05358	5936.9
1953.14331	5906.6
1956.23103	5885.2
1959.31675	5859.3
1962.40046	5850.4
1965.48217	5820.3
1968.56188	5802.5
1971.63959	5796.9
1974.7153	5775.5
1977.78901	5755.1
1980.86073	5722.8
1983.93046	5705.9
1986.99819	5674.8
1990.06394	5660.2
1993.1277	5651
1996.18947	5624.1
1999.24925	5611.4
2002.30706	5594.1
2005.36288	5570.9
2008.41672	5558.3
2011.46859	5538
2014.51848	5507.8
2017.56639	5501.7
2020.61233	5470.3
2023.6563	5461.4
2026.6983	5452.7
2029.73833	5447.4
2032.7764	5442.6
2035.8125	5415.1
2038.84664	5396.9
2041.87881	5404.6
2044.90903	5374.8
2047.93729	5364.3
2050.96359	5376.7
2053.98794	5367.6
2057.01034	5356.4
2060.03078	5343.2
2063.04927	5341.7
2066.06582	5333.4
2069.08042	5314.8
2072.09307	5331
2075.10378	5313.7
2078.11255	5324
2081.11938	5325.5
2084.12426	5294
2087.12722	5316.8
2090.12824	5292.7
2093.12732	5280.4
2096.12447	5278.8
2099.11969	5275.3
2102.11299	5274
2105.10435	5284.4
2108.09379	5288.7
2111.08131	5279.5
2114.0669	5277
2117.05057	5274
2120.03233	5279.5
2123.01216	5269
2125.99008	5281.8
2128.96609	5290.1
2131.94018	5276.3
2134.91236	5298.1
2137.88263	5280.7
2140.851	5263.5
2143.81746	5279.6
2146.78201	5267.1
2149.74466	5274.9
2152.7054	5260.4
2155.66425	5254.2
2158.6212	5233.6
2161.57625	5255
2164.52941	5254.9
2167.48067	5244
2170.43004	5231.7
2173.37752	5236.4
2176.32311	5236.4
2179.26681	5219.5
2182.20863	5220.9
2185.14856	5235.2
2188.08661	5220.8
2191.02278	5222.3
2193.95707	5225.1
2196.88948	5211.7
2199.82001	5228.7
2202.74867	5187.7
2205.67545	5190
2208.60037	5175.1
2211.52341	5168.3
2214.44458	5162.8
2217.36388	5149
2220.28132	5127.6
2223.1969	5111.4
2226.11061	5120.2
2229.02246	5103.6
2231.93245	5090.9
2234.84058	5095.5
2237.74686	5094.3
2240.65128	5073.5
2243.55385	5070.5
2246.45456	5067.2
2249.35343	5044.8
2252.25044	5036.9
2255.14561	5024
2258.03893	5026
2260.93041	5028.7
2263.82004	5002.5
2266.70783	4982.1
2269.59378	4965.8
2272.4779	4963.4
2275.36017	4926.7
2278.24061	4918.8
2281.11922	4911
2283.996	4902.5
2286.87094	4902.1
2289.74405	4864.3
2292.61534	4874.7
2295.4848	4869.1
2298.35243	4861.9
2301.21824	4863.3
2304.08223	4847.3
2306.94439	4859.6
2309.80474	4836.9
2312.66327	4843.9
2315.51999	4826.6
2318.37489	4843.6
2321.22797	4819
2324.07925	4833.4
2326.92871	4815
2329.77637	4823.4
2332.62222	4808.1
2335.46626	4798.4
2338.3085	4810.6
2341.14893	4797.5
2343.98756	4812.2
2346.8244	4795.1
2349.65943	4783.2
2352.49267	4793.3
2355.32411	4784.7
2358.15376	4796.4
2360.98161	4787.5
2363.80768	4797.5
2366.63195	4808.1
2369.45444	4782.9
2372.27514	4778
2375.09405	4771.8
2377.91118	4745.2
2380.72652	4742.8
2383.54009	4724.8
2386.35187	4717.7
2389.16188	4697.3
2391.97011	4692.3
2394.77657	4694.3
2397.58125	4663.4
2400.38416	4650.8
2403.18529	4648.7
2405.98466	4640.1
2408.78226	4645.9
2411.57809	4616.1
2414.37216	4618.3
2417.16446	4618.1
2419.955	4595.3
2422.74378	4611.5
2425.5308	4594.2
2428.31606	4575.4
2431.09956	4586.6
2433.88131	4587.7
2436.6613	4594.9
2439.43954	4568.6
2442.21603	4574
2444.99077	4572.3
2447.76377	4583.9
2450.53501	4571.6
2453.30451	4563
2456.07226	4577.5
2458.83827	4569.5
2461.60254	4561
2464.36507	4580
2467.12586	4562.6
2469.88492	4560
2472.64224	4573.4
2475.39782	4580.7
2478.15167	4575.8
2480.90379	4586.7
2483.65417	4590
2486.40283	4575.1
2489.14976	4565.3
2491.89497	4556.7
2494.63845	4594.7
2497.3802	4565.9
2500.12024	4578.7
2502.85855	4572.2
2505.59514	4550.8
2508.33002	4566.8
2511.06318	4535.1
2513.79462	4541.7
2516.52435	4518.4
2519.25237	4537.7
2521.97867	4505.7
2524.70327	4509.7
2527.42616	4480.9
2530.14734	4496.9
2532.86681	4483.6
2535.58458	4475.5
2538.30065	4458
2541.01501	4477.1
2543.72768	4453.7
2546.43864	4454.9
2549.14791	4453.3
2551.85548	4446.2
2554.56136	4454.5
2557.26554	4438.4
2559.96803	4430.1
2562.66883	4428.5
2565.36794	4426.8
2568.06536	4429
2570.7611	4415.8
2573.45514	4412.1
2576.14751	4406.7
2578.83819	4413.4
2581.52719	4429.4
2584.21451	4405.5
2586.90015	4394.9
2589.58411	4383.2
2592.2664	4380.3
2594.94701	4390.2
2597.62594	4376.6
2600.30321	4370
2602.9788	4368
2605.65273	4365.1
2608.32498	4373
2610.99557	4358
2613.66449	4370.5
2616.33175	4344.3
2618.99734	4356.3
2621.66128	4346.9
2624.32355	4344.3
2626.98416	4361.8
2629.64311	4350.3
2632.30041	4328.9
2634.95605	4339.2
2637.61004	4336.6
2640.26238	4324.4
2642.91306	4326.7
2645.56209	4325.5
2648.20948	4341.6
2650.85521	4330.6
2653.4993	4322.8
2656.14175	4323.7
2658.78255	4331.8
2661.42171	4332.7
2664.05923	4335.6
2666.6951	4350.9
2669.32934	4337.4
2671.96194	4342.2
2674.59291	4334.7
2677.22224	4334.4
2679.84993	4334.1
2682.476	4329
2685.10043	4324.3
2687.72324	4328.4
2690.34441	4311.9
2692.96396	4317.2
2695.58188	4325.4
2698.19818	4310.1
2700.81285	4318.9
2703.4259	4342.4
2706.03733	4383
2708.64714	4348.8
2711.25533	4341.6
2713.86191	4330.3
2716.46687	4333.3
2719.07021	4336.8
2721.67194	4340
2724.27206	4328.4
2726.87057	4322.2
2729.46747	4341.5
2732.06276	4335.9
2734.65644	4335.5
2737.24852	4336.8
2739.83899	4309
2742.42786	4327.5
2745.01513	4323.4
2747.60079	4314.8
2750.18486	4317.2
2752.76733	4295.9
2755.3482	4298
2757.92747	4312.3
2760.50515	4303.3
2763.08123	4308.2
2765.65573	4301.2
2768.22863	4308.5
2770.79994	4305.6
2773.36967	4316.6
2775.9378	4307.8
2778.50435	4313.7
2781.06932	4301.2
2783.6327	4311.1
2786.1945	4291
2788.75471	4309.4
2791.31335	4296.6
2793.87041	4277.1
2796.42589	4280.6
2798.97979	4278.1
2801.53212	4273
2804.08288	4273.7
2806.63206	4264.8
2809.17967	4267.9
2811.72571	4255.2
2814.27018	4265.4
2816.81308	4252.2
2819.35442	4244.7
2821.89419	4241.3
2824.43239	4246.4
2826.96904	4244.7
2829.50412	4250.2
2832.03763	4232.6
2834.56959	4237.3
2837.1	4228.2
2839.62884	4229.2
2842.15613	4238.2
2844.68186	4250.3
2847.20604	4244.4
2849.72867	4249.2
2852.24974	4255.8
2854.76927	4244.8
2857.28724	4249
2859.80367	4247.4
2862.31855	4233.2
2864.83189	4231
2867.34368	4217.6
2869.85393	4226.1
2872.36264	4227.9
2874.8698	4228.9
2877.37543	4216.4
2879.87952	4226.2
2882.38207	4234.2
2884.88308	4232.9
2887.38256	4237.1
2889.88051	4239.6
2892.37692	4241
2894.8718	4229.1
2897.36515	4245
2899.85698	4250.1
2902.34727	4283.6
2904.83604	4278.9
2907.32328	4283.6
2909.809	4295.6
2912.29319	4308.8
2914.77587	4307.6
2917.25702	4310
2919.73665	4312.6
2922.21476	4315.3
2924.69136	4324.8
2927.16644	4318
2929.64	4310.4
2932.11205	4321
2934.58258	4306.9
2937.05161	4342.8
2939.51912	4315.1
2941.98513	4316.7
2944.44962	4307.7
2946.91261	4286.4
2949.37409	4294.7
2951.83407	4289.2
2954.29254	4281.5
2956.74951	4271.3
2959.20498	4274.4
2961.65895	4233.7
2964.11142	4231.9
2966.56239	4205
2969.01186	4187.6
2971.45984	4170.1
2973.90632	4164.5
2976.35131	4126.3
2978.7948	4121.5
2981.23681	4113.1
2983.67732	4088.7
2986.11635	4084.1
2988.55388	4085.7
2990.98993	4053.7
2993.4245	4039.1
2995.85758	4039.8
2998.28917	4016.5
3000.71928	4029.7
3003.14791	4018.7
3005.57506	4011.6
3008.00073	3996.4
3010.42493	3991.7
3012.84764	3992
3015.26888	3999.2
3017.68865	3974.5
3020.10694	3973.3
3022.52376	3933.9
3024.9391	3935.5
3027.35298	3931.5
3029.76539	3922.4
3032.17632	3929.9
3034.5858	3908.8
3036.9938	3893
3039.40034	3898.1
3041.80542	3886.4
3044.20903	3869.6
3046.61118	3886
3049.01187	3860.7
3051.4111	3869.3
3053.80888	3843.5
3056.20519	3843.1
3058.60005	3842
3060.99345	3828.2
3063.3854	3803.9
3065.7759	3817.7
3068.16494	3799.7
3070.55254	3786.1
3072.93868	3802.2
3075.32338	3770.9
3077.70662	3757.9
3080.08842	3769.4
3082.46878	3756.5
3084.84769	3748
3087.22515	3745
3089.60118	3757.7
3091.97576	3761.1
3094.3489	3762.1
3096.72061	3758.9
3099.09087	3756
3101.4597	3745.5
3103.82709	3752.3
3106.19305	3732
3108.55757	3735.6
3110.92066	3710.6
3113.28232	3713.3
3115.64255	3723.4
3118.00134	3701.8
3120.35871	3702.1
3122.71466	3703.3
3125.06917	3685.2
3127.42226	3688.3
3129.77393	3688.2
3132.12417	3686.9
3134.47299	3700.5
3136.82039	3690.7
3139.16636	3684.9
3141.51092	3690.1
3143.85406	3697.2
3146.19579	3693.5
3148.53609	3695.8
3150.87499	3690.6
3153.21246	3690.8
3155.54853	3709.8
3157.88318	3713.7
3160.21642	3718.7
3162.54826	3713.6
3164.87868	3724
3167.2077	3709.9
3169.5353	3711.4
3171.86151	3713.6
3174.18631	3703.9
3176.5097	3702.7
3178.83169	3698
3181.15228	3715.6
3183.47147	3707.6
3185.78926	3704.5
3188.10565	3702.4
3190.42065	3705
3192.73424	3720.2
3195.04645	3709.8
3197.35725	3715.4
3199.66667	3725
3201.97469	3725.1
3204.28132	3713.5
3206.58656	3724.1
3208.8904	3725.3
3211.19287	3722.6
3213.49394	3729.5
3215.79363	3710.5
3218.09193	3737.4
3220.38884	3739
3222.68438	3756.4
3224.97853	3735.6
3227.2713	3729.1
3229.56269	3730.3
3231.8527	3729.5
3234.14133	3716.8
3236.42858	3706
3238.71446	3705.7
3240.99896	3712.8
3243.28209	3710.1
3245.56384	3702.8
3247.84423	3702.1
3250.12324	3689.5
3252.40088	3693.6
3254.67715	3691.4
3256.95205	3694.9
3259.22558	3656.3
3261.49775	3669.4
3263.76855	3655.6
3266.03799	3653.3
3268.30606	3646.2
3270.57277	3630.1
3272.83812	3621.9
3275.10211	3613.8
3277.36474	3613.1
3279.62601	3624.7
3281.88593	3625.4
3284.14448	3630.9
3286.40168	3642.4
3288.65753	3618.3
3290.91202	3631.3
3293.16516	3608.9
3295.41695	3606.6
3297.66738	3595.4
3299.91647	3566.8
3302.16421	3563
3304.4106	3552.4
3306.65564	3518.8
3308.89933	3497.8
3311.14169	3484.8
3313.38269	3461.8
3315.62236	3444.3
3317.86068	3419.8
3320.09766	3369.6
3322.3333	3340.4
3324.5676	3358.1
3326.80056	3300.6
3329.03219	3269
3331.26248	0.8
3333.49143	-0.4
3335.71905	0.4
