Data from AgNPs_FTO_APTES_UA_10um_CRN_0.1mM_R6G_10uM_NaF_0.1M_Addition_RamanShift__19__13-57-39-147.txt Node

Date: Tue Dec 21 13:57:39 GMT 2021
User: TCL
Spectrometer: QEP01345
Trigger mode: 4
Integration Time (sec): 7.000000E0
Scans to average: 10
Electric dark correction enabled: true
Nonlinearity correction enabled: false
Boxcar width: 0
XAxis mode: Raman Shifts
Number of Pixels in Spectrum: 1044
>>>>>Begin Spectral Data<<<<<
46.04893	1.175
50.45542	-1.625
54.85868	-0.725
59.25871	0.075
63.6555	41.375
68.04907	48.475
72.43941	48.375
76.82654	53.875
81.21044	56.375
85.59113	55.175
89.96862	59.175
94.34289	56.975
98.71396	58.875
103.08183	65.075
107.4465	66.175
111.80798	68.075
116.16626	69.475
120.52136	70.475
124.87327	72.375
129.222	72.975
133.56755	81.675
137.90993	93.375
142.24913	95.375
146.58517	109.275
150.91804	124.075
155.24774	149.675
159.57429	180.975
163.89768	235.575
168.21792	309.775
172.53501	420.175
176.84895	583.175
181.15975	816.675
185.46741	1149.375
189.77193	1582.975
194.07331	2132.475
198.37157	2748.175
202.6667	3402.175
206.9587	4078.375
211.24758	4738.975
215.53334	5398.175
219.81599	6080.675
224.09553	6823.275
228.37195	7690.075
232.64527	8565.475
236.91549	9546.975
241.18261	10476.875
245.44663	11390.075
249.70755	12171.575
253.96539	12847.575
258.22014	13411.075
262.4718	13879.175
266.72039	14172.475
270.96589	14325.975
275.20832	14337.775
279.44768	14271.575
283.68397	14170.875
287.91719	14057.775
292.14735	14031.975
296.37445	14029.675
300.59849	14048.575
304.81948	14092.275
309.03742	14029.775
313.25231	13824.275
317.46415	13504.375
321.67296	13079.075
325.87872	12706.275
330.08145	12545.175
334.28114	12460.575
338.47781	12540.075
342.67145	12683.475
346.86207	12870.575
351.04966	13110.775
355.23424	13383.475
359.4158	13592.375
363.59435	13730.375
367.76989	13834.775
371.94243	13888.975
376.11196	13976.975
380.27849	14073.875
384.44203	14183.275
388.60257	14318.175
392.76012	14477.675
396.91468	14612.775
401.06626	14844.875
405.21485	14986.875
409.36047	14959.575
413.50311	14738.075
417.64277	14549.175
421.77947	14488.275
425.9132	14494.075
430.04396	14557.675
434.17176	14659.475
438.2966	14773.375
442.41849	15047.775
446.53742	15388.375
450.6534	15872.875
454.76644	16253.375
458.87653	16409.475
462.98368	16369.075
467.08789	16234.775
471.18916	16096.075
475.2875	16017.675
479.38291	16051.275
483.4754	16019.775
487.56496	15840.375
491.6516	15523.575
495.73531	15241.475
499.81612	15036.175
503.89401	15056.675
507.96899	15055.675
512.04106	14960.675
516.11023	14833.175
520.1765	14646.975
524.23987	14530.175
528.30034	14431.075
532.35792	14381.275
536.41261	14271.575
540.46441	14119.775
544.51333	14062.675
548.55936	14201.775
552.60252	14477.075
556.64279	14780.875
560.6802	15057.675
564.71473	15206.575
568.7464	15453.975
572.7752	15870.075
576.80114	16153.875
580.82422	16364.775
584.84444	16582.175
588.86181	16779.375
592.87633	17017.675
596.888	17125.775
600.89682	17027.275
604.9028	17369.075
608.90594	18544.375
612.90624	19719.375
616.90371	18461.075
620.89834	15580.375
624.89015	14286.875
628.87913	14174.975
632.86528	14360.975
636.84862	14464.075
640.82913	14331.075
644.80683	13964.575
648.78172	13620.075
652.75379	13478.475
656.72306	13545.475
660.68952	13743.875
664.65319	13710.775
668.61405	13585.375
672.57211	13616.075
676.52738	13748.275
680.47986	13817.975
684.42955	13765.875
688.37646	13649.175
692.32058	13590.375
696.26192	13601.275
700.20048	13677.875
704.13626	13743.775
708.06928	13729.275
711.99952	13659.375
715.927	13600.275
719.85171	13601.475
723.77365	13589.475
727.69284	13461.875
731.60928	13405.875
735.52295	13374.375
739.43388	13335.175
743.34206	13373.375
747.24749	13400.775
751.15017	13469.375
755.05012	13650.475
758.94733	14012.075
762.8418	14717.575
766.73354	15820.975
770.62254	16934.275
774.50882	17302.175
778.39237	16589.275
782.27321	15318.275
786.15132	14225.575
790.02671	13507.575
793.89938	13179.375
797.76935	13024.775
801.6366	13003.175
805.50115	12984.275
809.36299	12915.275
813.22213	12787.375
817.07857	12732.875
820.93231	12675.875
824.78336	12597.375
828.63172	12509.875
832.47738	12493.875
836.32036	12455.775
840.16066	12429.475
843.99827	12449.475
847.8332	12407.475
851.66546	12348.075
855.49504	12348.675
859.32195	12362.675
863.1462	12381.675
866.96777	12355.075
870.78668	12354.275
874.60293	12375.575
878.41652	12380.975
882.22745	12398.775
886.03573	12426.875
889.84136	12408.675
893.64433	12396.875
897.44466	12292.775
901.24235	12221.275
905.0374	12108.475
908.8298	12040.875
912.61957	12021.075
916.40671	12124.675
920.19121	12296.075
923.97308	12436.975
927.75233	12436.775
931.52895	12337.075
935.30295	12202.875
939.07433	11957.875
942.84309	11765.075
946.60924	11682.675
950.37278	11635.075
954.13371	11575.975
957.89203	11564.375
961.64774	11544.675
965.40086	11507.575
969.15137	11444.675
972.89929	11353.375
976.64461	11288.475
980.38733	11270.975
984.12747	11294.875
987.86502	11337.575
991.59999	11428.075
995.33237	11586.975
999.06217	11870.075
1002.78939	12169.875
1006.51404	12411.975
1010.23611	12605.275
1013.95561	12732.675
1017.67255	12745.975
1021.38692	12640.575
1025.09872	12413.475
1028.80796	12313.375
1032.51465	12367.675
1036.21877	12558.875
1039.92035	12641.275
1043.61937	12644.475
1047.31584	12542.275
1051.00976	12444.975
1054.70114	12398.375
1058.38998	12403.375
1062.07627	12483.575
1065.76003	12649.275
1069.44126	12716.275
1073.11995	12892.575
1076.79611	13049.175
1080.46974	13060.375
1084.14085	13134.275
1087.80943	13190.175
1091.47549	13351.375
1095.13903	13430.675
1098.80005	13337.275
1102.45857	13034.375
1106.11456	12754.875
1109.76805	12635.175
1113.41903	12633.675
1117.06751	12729.475
1120.71348	12850.075
1124.35696	13027.675
1127.99793	13274.175
1131.63641	13431.475
1135.2724	13431.675
1138.90589	13331.475
1142.5369	13286.175
1146.16542	13304.275
1149.79145	13341.375
1153.415	13456.675
1157.03607	13639.275
1160.65467	14031.375
1164.27079	14597.475
1167.88443	15400.875
1171.49561	16363.375
1175.10432	17589.575
1178.71056	19107.675
1182.31434	20502.175
1185.91565	21221.375
1189.51451	21263.275
1193.11091	20721.575
1196.70485	19936.875
1200.29634	19039.575
1203.88538	18324.475
1207.47197	17806.875
1211.05612	17387.775
1214.63782	16984.975
1218.21708	16654.675
1221.79391	16401.575
1225.36829	16214.975
1228.94024	15975.775
1232.50976	15667.275
1236.07685	15404.075
1239.6415	15239.275
1243.20374	15228.575
1246.76355	15298.275
1250.32093	15496.575
1253.8759	15848.475
1257.42845	16279.575
1260.97859	16751.975
1264.52631	17241.075
1268.07163	17704.875
1271.61453	18205.175
1275.15503	18750.475
1278.69312	19383.575
1282.22882	19943.375
1285.76211	20585.975
1289.29301	21332.775
1292.82151	22287.475
1296.34761	23389.875
1299.87133	24679.475
1303.39266	26060.475
1306.9116	27394.175
1310.42815	28676.375
1313.94233	29595.775
1317.45412	29857.575
1320.96354	29546.875
1324.47058	29130.875
1327.97525	28748.275
1331.47754	28389.775
1334.97747	28173.075
1338.47502	28015.675
1341.97022	27757.875
1345.46305	27332.475
1348.95352	26917.575
1352.44163	26608.675
1355.92738	26822.175
1359.41078	27502.275
1362.89183	28170.375
1366.37053	27841.175
1369.84688	25932.475
1373.32088	23440.175
1376.79254	21554.975
1380.26186	20759.775
1383.72883	20639.475
1387.19347	20677.075
1390.65578	20631.075
1394.11575	20678.975
1397.57339	21002.875
1401.0287	21514.575
1404.48168	21914.075
1407.93234	21971.375
1411.38068	21572.575
1414.82669	20760.575
1418.27039	19743.975
1421.71177	18722.575
1425.15083	17868.375
1428.58758	17389.275
1432.02203	17333.175
1435.45416	17673.675
1438.88399	18211.575
1442.31151	18692.775
1445.73673	19162.175
1449.15965	19612.075
1452.58027	19954.575
1455.9986	20155.675
1459.41463	20409.875
1462.82837	20693.975
1466.23982	21081.275
1469.64898	21391.275
1473.05586	21534.975
1476.46045	21488.275
1479.86276	21278.175
1483.26279	20929.775
1486.66054	20720.375
1490.05602	20661.375
1493.44922	20723.175
1496.84016	20839.375
1500.22882	21100.775
1503.61521	21590.875
1506.99934	22310.975
1510.38121	22872.375
1513.76081	23055.475
1517.13816	22631.875
1520.51324	21776.575
1523.88607	21002.675
1527.25665	20545.275
1530.62498	20388.275
1533.99105	20325.975
1537.35488	20222.475
1540.71647	19915.275
1544.07581	19493.975
1547.4329	18940.175
1550.78776	18530.675
1554.14038	18240.275
1557.49077	18145.175
1560.83892	18157.375
1564.18484	18209.475
1567.52853	18274.475
1570.86999	18456.375
1574.20922	18738.375
1577.54624	19005.275
1580.88103	19106.475
1584.2136	19195.275
1587.54395	19618.575
1590.87208	20426.375
1594.19801	21564.975
1597.52172	22708.375
1600.84321	23164.275
1604.16251	22312.575
1607.47959	20633.375
1610.79447	18765.775
1614.10715	17044.775
1617.41763	15645.375
1620.7259	14623.275
1624.03199	14104.275
1627.33587	13978.075
1630.63757	14332.675
1633.93707	15223.175
1637.23439	16701.375
1640.52951	18877.975
1643.82246	21535.375
1647.11321	23764.675
1650.40179	24504.875
1653.68819	23151.175
1656.97241	20364.375
1660.25446	17320.575
1663.53433	14921.475
1666.81203	13313.475
1670.08756	12311.275
1673.36092	11647.075
1676.63211	11214.275
1679.90115	10923.075
1683.16801	10689.275
1686.43272	10516.975
1689.69527	10374.975
1692.95567	10277.375
1696.2139	10254.675
1699.46999	10191.875
1702.72392	10145.175
1705.97571	10078.675
1709.22535	10031.975
1712.47284	9964.775
1715.71819	9931.275
1718.96139	9889.475
1722.20246	9829.775
1725.44139	9751.675
1728.67818	9737.975
1731.91284	9660.275
1735.14537	9626.975
1738.37576	9573.575
1741.60403	9520.875
1744.83017	9524.975
1748.05418	9520.975
1751.27607	9530.275
1754.49584	9552.175
1757.71349	9525.475
1760.92903	9512.875
1764.14244	9439.275
1767.35375	9425.275
1770.56294	9388.775
1773.77002	9315.975
1776.97499	9270.375
1780.17785	9233.375
1783.37861	9188.475
1786.57727	9153.175
1789.77382	9115.575
1792.96828	9078.975
1796.16064	9084.075
1799.3509	9017.175
1802.53907	9010.475
1805.72514	8970.475
1808.90913	8959.675
1812.09102	8949.575
1815.27083	8895.675
1818.44856	8881.175
1821.6242	8868.075
1824.79776	8842.175
1827.96924	8844.975
1831.13864	8832.775
1834.30597	8810.275
1837.47122	8792.675
1840.6344	8799.375
1843.7955	8788.575
1846.95454	8796.575
1850.11151	8782.875
1853.26642	8756.275
1856.41926	8773.175
1859.57004	8764.875
1862.71876	8767.575
1865.86542	8750.375
1869.01003	8759.275
1872.15258	8735.575
1875.29308	8726.575
1878.43152	8730.875
1881.56792	8704.975
1884.70227	8681.975
1887.83457	8686.775
1890.96482	8670.275
1894.09304	8654.475
1897.21921	8658.075
1900.34335	8610.075
1903.46544	8639.075
1906.58551	8620.875
1909.70353	8603.975
1912.81953	8574.975
1915.93349	8568.775
1919.04543	8533.775
1922.15534	8502.475
1925.26322	8494.075
1928.36908	8462.975
1931.47292	8428.575
1934.57473	8408.275
1937.67453	8391.775
1940.77232	8377.975
1943.86808	8345.575
1946.96184	8321.875
1950.05358	8309.775
1953.14331	8274.175
1956.23103	8210.475
1959.31675	8210.975
1962.40046	8183.775
1965.48217	8142.975
1968.56188	8127.775
1971.63959	8104.875
1974.7153	8085.075
1977.78901	8050.975
1980.86073	8001.175
1983.93046	7977.775
1986.99819	7957.075
1990.06394	7936.675
1993.1277	7902.775
1996.18947	7881.375
1999.24925	7860.875
2002.30706	7836.075
2005.36288	7810.075
2008.41672	7792.375
2011.46859	7764.375
2014.51848	7743.375
2017.56639	7729.375
2020.61233	7682.475
2023.6563	7681.975
2026.6983	7678.575
2029.73833	7649.875
2032.7764	7636.175
2035.8125	7614.875
2038.84664	7606.975
2041.87881	7589.575
2044.90903	7574.775
2047.93729	7561.075
2050.96359	7563.675
2053.98794	7546.475
2057.01034	7533.675
2060.03078	7511.575
2063.04927	7533.275
2066.06582	7491.975
2069.08042	7490.975
2072.09307	7481.275
2075.10378	7464.175
2078.11255	7470.975
2081.11938	7465.975
2084.12426	7459.175
2087.12722	7439.775
2090.12824	7448.175
2093.12732	7447.275
2096.12447	7453.575
2099.11969	7433.475
2102.11299	7416.175
2105.10435	7422.875
2108.09379	7446.375
2111.08131	7434.075
2114.0669	7437.875
2117.05057	7436.275
2120.03233	7453.275
2123.01216	7425.375
2125.99008	7437.975
2128.96609	7454.675
2131.94018	7447.875
2134.91236	7461.375
2137.88263	7468.775
2140.851	7449.875
2143.81746	7452.275
2146.78201	7449.575
2149.74466	7442.875
2152.7054	7458.475
2155.66425	7429.575
2158.6212	7417.375
2161.57625	7430.675
2164.52941	7401.475
2167.48067	7411.275
2170.43004	7405.875
2173.37752	7386.575
2176.32311	7375.475
2179.26681	7396.875
2182.20863	7394.275
2185.14856	7382.275
2188.08661	7393.775
2191.02278	7366.975
2193.95707	7367.875
2196.88948	7367.475
2199.82001	7351.875
2202.74867	7346.875
2205.67545	7343.375
2208.60037	7327.975
2211.52341	7313.775
2214.44458	7304.375
2217.36388	7280.575
2220.28132	7281.075
2223.1969	7272.775
2226.11061	7247.175
2229.02246	7244.875
2231.93245	7229.975
2234.84058	7199.375
2237.74686	7215.675
2240.65128	7190.275
2243.55385	7158.075
2246.45456	7168.575
2249.35343	7147.175
2252.25044	7123.675
2255.14561	7118.875
2258.03893	7136.275
2260.93041	7112.875
2263.82004	7070.975
2266.70783	7074.375
2269.59378	7016.775
2272.4779	6992.775
2275.36017	6984.075
2278.24061	6996.075
2281.11922	6962.275
2283.996	6944.775
2286.87094	6945.875
2289.74405	6907.075
2292.61534	6907.875
2295.4848	6908.675
2298.35243	6891.675
2301.21824	6892.775
2304.08223	6891.175
2306.94439	6898.375
2309.80474	6879.175
2312.66327	6885.575
2315.51999	6887.375
2318.37489	6851.075
2321.22797	6853.075
2324.07925	6848.075
2326.92871	6851.175
2329.77637	6833.475
2332.62222	6844.175
2335.46626	6824.975
2338.3085	6795.775
2341.14893	6806.475
2343.98756	6808.375
2346.8244	6809.175
2349.65943	6802.575
2352.49267	6808.375
2355.32411	6807.775
2358.15376	6801.975
2360.98161	6791.575
2363.80768	6788.975
2366.63195	6786.775
2369.45444	6762.475
2372.27514	6765.775
2375.09405	6745.375
2377.91118	6732.575
2380.72652	6716.675
2383.54009	6698.475
2386.35187	6682.175
2389.16188	6650.875
2391.97011	6643.275
2394.77657	6629.875
2397.58125	6636.175
2400.38416	6603.175
2403.18529	6587.675
2405.98466	6581.775
2408.78226	6572.675
2411.57809	6572.575
2414.37216	6543.075
2417.16446	6551.675
2419.955	6551.475
2422.74378	6544.475
2425.5308	6513.975
2428.31606	6509.075
2431.09956	6518.875
2433.88131	6501.175
2436.6613	6497.475
2439.43954	6495.475
2442.21603	6475.775
2444.99077	6473.575
2447.76377	6486.575
2450.53501	6471.775
2453.30451	6476.975
2456.07226	6487.375
2458.83827	6474.575
2461.60254	6453.075
2464.36507	6464.875
2467.12586	6458.375
2469.88492	6468.275
2472.64224	6461.275
2475.39782	6465.675
2478.15167	6483.175
2480.90379	6468.775
2483.65417	6468.475
2486.40283	6455.575
2489.14976	6465.675
2491.89497	6453.775
2494.63845	6479.375
2497.3802	6494.075
2500.12024	6472.675
2502.85855	6452.775
2505.59514	6446.475
2508.33002	6444.475
2511.06318	6452.375
2513.79462	6413.275
2516.52435	6408.375
2519.25237	6404.175
2521.97867	6376.875
2524.70327	6399.675
2527.42616	6394.875
2530.14734	6367.075
2532.86681	6364.875
2535.58458	6389.375
2538.30065	6340.175
2541.01501	6352.175
2543.72768	6353.375
2546.43864	6334.575
2549.14791	6331.275
2551.85548	6338.175
2554.56136	6325.175
2557.26554	6303.375
2559.96803	6319.175
2562.66883	6312.775
2565.36794	6301.675
2568.06536	6280.975
2570.7611	6267.875
2573.45514	6266.075
2576.14751	6284.375
2578.83819	6264.375
2581.52719	6269.375
2584.21451	6258.675
2586.90015	6242.075
2589.58411	6233.875
2592.2664	6233.675
2594.94701	6229.775
2597.62594	6241.875
2600.30321	6209.475
2602.9788	6198.775
2605.65273	6205.475
2608.32498	6200.875
2610.99557	6221.375
2613.66449	6201.275
2616.33175	6198.675
2618.99734	6191.375
2621.66128	6189.075
2624.32355	6188.075
2626.98416	6190.675
2629.64311	6178.675
2632.30041	6162.875
2634.95605	6192.075
2637.61004	6180.775
2640.26238	6163.675
2642.91306	6167.275
2645.56209	6143.175
2648.20948	6176.475
2650.85521	6153.175
2653.4993	6153.675
2656.14175	6151.675
2658.78255	6154.075
2661.42171	6128.675
2664.05923	6160.175
2666.6951	6160.675
2669.32934	6163.975
2671.96194	6154.175
2674.59291	6187.175
2677.22224	6158.775
2679.84993	6168.875
2682.476	6135.975
2685.10043	6143.075
2687.72324	6152.075
2690.34441	6143.475
2692.96396	6125.475
2695.58188	6136.175
2698.19818	6120.175
2700.81285	6138.975
2703.4259	6163.075
2706.03733	6216.275
2708.64714	6185.275
2711.25533	6160.575
2713.86191	6155.175
2716.46687	6168.375
2719.07021	6157.675
2721.67194	6158.175
2724.27206	6147.275
2726.87057	6145.175
2729.46747	6165.275
2732.06276	6179.775
2734.65644	6156.975
2737.24852	6140.775
2739.83899	6133.775
2742.42786	6155.875
2745.01513	6131.575
2747.60079	6147.275
2750.18486	6128.675
2752.76733	6127.975
2755.3482	6112.175
2757.92747	6131.475
2760.50515	6118.675
2763.08123	6138.075
2765.65573	6112.475
2768.22863	6117.675
2770.79994	6127.875
2773.36967	6123.075
2775.9378	6127.375
2778.50435	6117.175
2781.06932	6123.275
2783.6327	6102.775
2786.1945	6097.975
2788.75471	6121.875
2791.31335	6080.975
2793.87041	6087.375
2796.42589	6063.275
2798.97979	6059.075
2801.53212	6045.975
2804.08288	6042.775
2806.63206	6030.675
2809.17967	6019.875
2811.72571	6004.175
2814.27018	6011.475
2816.81308	6017.975
2819.35442	6001.775
2821.89419	5979.575
2824.43239	5985.275
2826.96904	5963.175
2829.50412	5980.675
2832.03763	5974.075
2834.56959	5972.875
2837.1	5939.475
2839.62884	5958.675
2842.15613	5953.075
2844.68186	5975.275
2847.20604	5966.475
2849.72867	5977.575
2852.24974	5967.175
2854.76927	5963.975
2857.28724	5965.275
2859.80367	5950.675
2862.31855	5946.575
2864.83189	5939.175
2867.34368	5937.275
2869.85393	5931.775
2872.36264	5909.275
2874.8698	5905.175
2877.37543	5902.075
2879.87952	5914.075
2882.38207	5927.275
2884.88308	5925.275
2887.38256	5916.175
2889.88051	5919.075
2892.37692	5925.775
2894.8718	5919.575
2897.36515	5943.175
2899.85698	5934.775
2902.34727	5952.675
2904.83604	5959.675
2907.32328	5977.275
2909.809	5992.975
2912.29319	5989.775
2914.77587	5998.575
2917.25702	6002.375
2919.73665	5997.575
2922.21476	6011.975
2924.69136	6007.175
2927.16644	5995.475
2929.64	5986.875
2932.11205	5994.475
2934.58258	5958.475
2937.05161	5980.275
2939.51912	5993.275
2941.98513	6004.475
2944.44962	5963.975
2946.91261	5957.975
2949.37409	5961.175
2951.83407	5932.275
2954.29254	5909.975
2956.74951	5921.875
2959.20498	5893.775
2961.65895	5895.675
2964.11142	5861.775
2966.56239	5843.175
2969.01186	5846.675
2971.45984	5823.075
2973.90632	5802.275
2976.35131	5776.975
2978.7948	5760.075
2981.23681	5754.275
2983.67732	5731.575
2986.11635	5734.775
2988.55388	5696.775
2990.98993	5679.175
2993.4245	5683.475
2995.85758	5666.575
2998.28917	5637.175
3000.71928	5648.375
3003.14791	5616.575
3005.57506	5628.775
3008.00073	5605.675
3010.42493	5593.175
3012.84764	5584.175
3015.26888	5574.875
3017.68865	5583.175
3020.10694	5551.675
3022.52376	5515.675
3024.9391	5516.575
3027.35298	5521.875
3029.76539	5515.075
3032.17632	5507.875
3034.5858	5499.375
3036.9938	5479.775
3039.40034	5479.075
3041.80542	5487.075
3044.20903	5454.775
3046.61118	5468.775
3049.01187	5445.975
3051.4111	5451.675
3053.80888	5414.675
3056.20519	5398.075
3058.60005	5405.675
3060.99345	5389.175
3063.3854	5380.775
3065.7759	5369.575
3068.16494	5355.475
3070.55254	5324.975
3072.93868	5325.975
3075.32338	5312.975
3077.70662	5305.875
3080.08842	5293.775
3082.46878	5285.075
3084.84769	5254.075
3087.22515	5269.175
3089.60118	5269.675
3091.97576	5249.475
3094.3489	5249.275
3096.72061	5273.275
3099.09087	5262.275
3101.4597	5269.975
3103.82709	5255.175
3106.19305	5237.475
3108.55757	5224.375
3110.92066	5230.575
3113.28232	5197.875
3115.64255	5210.675
3118.00134	5185.475
3120.35871	5173.375
3122.71466	5165.275
3125.06917	5152.775
3127.42226	5157.475
3129.77393	5158.775
3132.12417	5140.275
3134.47299	5155.975
3136.82039	5159.875
3139.16636	5141.875
3141.51092	5135.475
3143.85406	5148.275
3146.19579	5157.975
3148.53609	5167.575
3150.87499	5160.275
3153.21246	5148.175
3155.54853	5158.375
3157.88318	5156.375
3160.21642	5160.375
3162.54826	5152.475
3164.87868	5158.575
3167.2077	5166.175
3169.5353	5138.975
3171.86151	5150.575
3174.18631	5143.975
3176.5097	5144.575
3178.83169	5124.375
3181.15228	5140.175
3183.47147	5115.875
3185.78926	5143.475
3188.10565	5140.475
3190.42065	5125.275
