Data from AgNPs_FTO_APTES_UA_100um_CRN_0.1mM_R6G_10uM_NaF_0.1M_Addition_RamanShift__22__16-10-39-299.txt Node

Date: Tue Dec 21 16:10:39 GMT 2021
User: TCL
Spectrometer: QEP01345
Trigger mode: 4
Integration Time (sec): 7.000000E0
Scans to average: 10
Electric dark correction enabled: true
Nonlinearity correction enabled: false
Boxcar width: 0
XAxis mode: Raman Shifts
Number of Pixels in Spectrum: 1044
>>>>>Begin Spectral Data<<<<<
46.04893	0.4125
50.45542	-0.9875
54.85868	0.2125
59.25871	-0.6875
63.6555	33.2125
68.04907	41.4125
72.43941	43.1125
76.82654	43.6125
81.21044	49.8125
85.59113	49.2125
89.96862	50.7125
94.34289	53.2125
98.71396	49.0125
103.08183	54.4125
107.4465	57.8125
111.80798	55.6125
116.16626	57.0125
120.52136	57.8125
124.87327	61.7125
129.222	59.0125
133.56755	64.4125
137.90993	71.5125
142.24913	72.2125
146.58517	81.2125
150.91804	93.1125
155.24774	103.6125
159.57429	125.2125
163.89768	160.7125
168.21792	210.9125
172.53501	283.1125
176.84895	387.5125
181.15975	538.7125
185.46741	758.8125
189.77193	1040.5125
194.07331	1404.1125
198.37157	1806.2125
202.6667	2237.7125
206.9587	2676.4125
211.24758	3115.0125
215.53334	3545.6125
219.81599	3991.2125
224.09553	4465.1125
228.37195	5023.9125
232.64527	5618.7125
236.91549	6237.7125
241.18261	6883.7125
245.44663	7502.0125
249.70755	8044.2125
253.96539	8528.7125
258.22014	8924.1125
262.4718	9244.7125
266.72039	9466.9125
270.96589	9590.1125
275.20832	9584.3125
279.44768	9528.4125
283.68397	9401.4125
287.91719	9284.7125
292.14735	9211.8125
296.37445	9206.9125
300.59849	9235.7125
304.81948	9277.1125
309.03742	9233.9125
313.25231	9114.5125
317.46415	8897.1125
321.67296	8655.4125
325.87872	8468.4125
330.08145	8353.5125
334.28114	8357.3125
338.47781	8429.8125
342.67145	8525.6125
346.86207	8685.2125
351.04966	8866.6125
355.23424	9091.7125
359.4158	9251.0125
363.59435	9385.9125
367.76989	9472.8125
371.94243	9567.9125
376.11196	9632.9125
380.27849	9707.1125
384.44203	9747.0125
388.60257	9799.1125
392.76012	9849.7125
396.91468	9923.7125
401.06626	10067.4125
405.21485	10161.1125
409.36047	10129.9125
413.50311	9962.5125
417.64277	9788.1125
421.77947	9691.6125
425.9132	9621.6125
430.04396	9660.1125
434.17176	9717.1125
438.2966	9765.6125
442.41849	9870.0125
446.53742	10026.0125
450.6534	10237.3125
454.76644	10392.4125
458.87653	10456.6125
462.98368	10456.9125
467.08789	10419.7125
471.18916	10341.2125
475.2875	10302.7125
479.38291	10275.6125
483.4754	10245.4125
487.56496	10145.1125
491.6516	10086.1125
495.73531	10006.9125
499.81612	9953.6125
503.89401	9968.6125
507.96899	9971.0125
512.04106	10001.8125
516.11023	9971.1125
520.1765	9987.1125
524.23987	10007.6125
528.30034	9942.0125
532.35792	9908.0125
536.41261	9859.2125
540.46441	9790.0125
544.51333	9730.0125
548.55936	9736.5125
552.60252	9797.1125
556.64279	9899.2125
560.6802	9963.7125
564.71473	9968.2125
568.7464	10037.2125
572.7752	10171.4125
576.80114	10173.7125
580.82422	10166.1125
584.84444	10164.7125
588.86181	10227.1125
592.87633	10322.3125
596.888	10385.6125
600.89682	10454.1125
604.9028	10796.9125
608.90594	11782.7125
612.90624	13035.6125
616.90371	12735.9125
620.89834	10895.8125
624.89015	10036.1125
628.87913	9915.5125
632.86528	10074.7125
636.84862	10237.6125
640.82913	10185.7125
644.80683	9905.2125
648.78172	9622.7125
652.75379	9488.7125
656.72306	9527.7125
660.68952	9663.4125
664.65319	9656.6125
668.61405	9547.1125
672.57211	9531.8125
676.52738	9578.1125
680.47986	9612.2125
684.42955	9507.9125
688.37646	9438.0125
692.32058	9390.4125
696.26192	9414.3125
700.20048	9433.0125
704.13626	9423.8125
708.06928	9403.3125
711.99952	9355.6125
715.927	9308.3125
719.85171	9280.8125
723.77365	9324.6125
727.69284	9311.4125
731.60928	9261.3125
735.52295	9244.8125
739.43388	9202.7125
743.34206	9225.6125
747.24749	9211.9125
751.15017	9235.2125
755.05012	9250.0125
758.94733	9446.7125
762.8418	9767.8125
766.73354	10391.5125
770.62254	11156.6125
774.50882	11578.5125
778.39237	11310.0125
782.27321	10509.7125
786.15132	9741.3125
790.02671	9293.9125
793.89938	9073.0125
797.76935	8977.6125
801.6366	8944.9125
805.50115	8949.1125
809.36299	8979.8125
813.22213	8967.2125
817.07857	8940.2125
820.93231	8891.1125
824.78336	8804.2125
828.63172	8744.1125
832.47738	8696.4125
836.32036	8673.3125
840.16066	8657.4125
843.99827	8644.2125
847.8332	8607.4125
851.66546	8585.7125
855.49504	8555.0125
859.32195	8577.1125
863.1462	8566.9125
866.96777	8591.6125
870.78668	8588.6125
874.60293	8610.6125
878.41652	8621.5125
882.22745	8625.5125
886.03573	8672.9125
889.84136	8684.7125
893.64433	8632.7125
897.44466	8538.7125
901.24235	8459.4125
905.0374	8384.4125
908.8298	8346.9125
912.61957	8308.2125
916.40671	8323.9125
920.19121	8371.5125
923.97308	8393.6125
927.75233	8381.6125
931.52895	8355.3125
935.30295	8320.9125
939.07433	8215.5125
942.84309	8139.8125
946.60924	8065.2125
950.37278	8044.6125
954.13371	8000.6125
957.89203	7995.8125
961.64774	7960.7125
965.40086	7916.8125
969.15137	7857.7125
972.89929	7809.5125
976.64461	7768.5125
980.38733	7766.0125
984.12747	7757.6125
987.86502	7766.8125
991.59999	7813.5125
995.33237	7854.9125
999.06217	7914.7125
1002.78939	8039.7125
1006.51404	8132.3125
1010.23611	8239.0125
1013.95561	8315.8125
1017.67255	8335.8125
1021.38692	8295.4125
1025.09872	8208.0125
1028.80796	8128.1125
1032.51465	8112.2125
1036.21877	8139.5125
1039.92035	8145.8125
1043.61937	8138.1125
1047.31584	8145.2125
1051.00976	8108.5125
1054.70114	8097.0125
1058.38998	8065.8125
1062.07627	8140.9125
1065.76003	8172.9125
1069.44126	8222.0125
1073.11995	8252.2125
1076.79611	8297.7125
1080.46974	8301.5125
1084.14085	8300.2125
1087.80943	8332.3125
1091.47549	8376.0125
1095.13903	8367.3125
1098.80005	8312.0125
1102.45857	8159.4125
1106.11456	8093.5125
1109.76805	8094.7125
1113.41903	8138.4125
1117.06751	8244.3125
1120.71348	8386.6125
1124.35696	8525.9125
1127.99793	8724.0125
1131.63641	8863.3125
1135.2724	8868.0125
1138.90589	8746.9125
1142.5369	8622.8125
1146.16542	8476.2125
1149.79145	8355.5125
1153.415	8274.1125
1157.03607	8257.1125
1160.65467	8314.4125
1164.27079	8489.7125
1167.88443	8760.5125
1171.49561	9086.9125
1175.10432	9604.7125
1178.71056	10266.8125
1182.31434	10912.1125
1185.91565	11204.6125
1189.51451	11145.3125
1193.11091	10860.6125
1196.70485	10470.1125
1200.29634	10133.7125
1203.88538	9865.0125
1207.47197	9608.2125
1211.05612	9343.5125
1214.63782	9096.9125
1218.21708	8923.2125
1221.79391	8826.4125
1225.36829	8742.9125
1228.94024	8672.7125
1232.50976	8604.0125
1236.07685	8554.3125
1239.6415	8536.9125
1243.20374	8550.0125
1246.76355	8577.8125
1250.32093	8653.7125
1253.8759	8784.0125
1257.42845	8928.7125
1260.97859	9114.7125
1264.52631	9234.0125
1268.07163	9389.2125
1271.61453	9540.9125
1275.15503	9693.9125
1278.69312	9849.2125
1282.22882	9958.8125
1285.76211	10138.4125
1289.29301	10376.0125
1292.82151	10667.7125
1296.34761	11047.6125
1299.87133	11533.0125
1303.39266	12047.6125
1306.9116	12665.8125
1310.42815	13292.0125
1313.94233	13696.2125
1317.45412	13644.1125
1320.96354	13342.5125
1324.47058	12989.3125
1327.97525	12645.4125
1331.47754	12368.6125
1334.97747	12210.1125
1338.47502	12205.3125
1341.97022	12294.4125
1345.46305	12347.1125
1348.95352	12498.1125
1352.44163	12760.8125
1355.92738	13209.1125
1359.41078	13907.9125
1362.89183	14659.6125
1366.37053	14566.4125
1369.84688	13330.0125
1373.32088	11847.3125
1376.79254	10822.2125
1380.26186	10343.0125
1383.72883	10147.5125
1387.19347	10033.3125
1390.65578	9945.8125
1394.11575	9848.1125
1397.57339	9783.8125
1401.0287	9871.3125
1404.48168	9968.7125
1407.93234	9986.7125
1411.38068	9926.8125
1414.82669	9712.2125
1418.27039	9453.8125
1421.71177	9172.4125
1425.15083	8872.1125
1428.58758	8701.9125
1432.02203	8663.0125
1435.45416	8727.1125
1438.88399	8863.4125
1442.31151	8931.1125
1445.73673	9025.1125
1449.15965	9144.7125
1452.58027	9227.4125
1455.9986	9282.7125
1459.41463	9348.8125
1462.82837	9466.0125
1466.23982	9600.1125
1469.64898	9702.8125
1473.05586	9784.5125
1476.46045	9807.5125
1479.86276	9796.9125
1483.26279	9793.0125
1486.66054	9803.1125
1490.05602	9844.6125
1493.44922	9990.0125
1496.84016	10179.0125
1500.22882	10538.6125
1503.61521	11062.7125
1506.99934	11764.5125
1510.38121	12361.6125
1513.76081	12588.7125
1517.13816	12242.1125
1520.51324	11467.4125
1523.88607	10719.8125
1527.25665	10243.4125
1530.62498	9952.7125
1533.99105	9807.2125
1537.35488	9721.7125
1540.71647	9599.7125
1544.07581	9490.2125
1547.4329	9385.7125
1550.78776	9285.1125
1554.14038	9243.1125
1557.49077	9274.9125
1560.83892	9346.6125
1564.18484	9429.5125
1567.52853	9512.6125
1570.86999	9612.5125
1574.20922	9705.0125
1577.54624	9716.1125
1580.88103	9606.8125
1584.2136	9404.7125
1587.54395	9348.2125
1590.87208	9472.0125
1594.19801	9758.8125
1597.52172	10178.0125
1600.84321	10383.4125
1604.16251	10180.7125
1607.47959	9713.4125
1610.79447	9179.6125
1614.10715	8643.6125
1617.41763	8197.6125
1620.7259	7882.7125
1624.03199	7684.2125
1627.33587	7628.7125
1630.63757	7717.2125
1633.93707	7944.6125
1637.23439	8312.3125
1640.52951	8930.8125
1643.82246	9708.5125
1647.11321	10550.4125
1650.40179	11054.3125
1653.68819	10891.4125
1656.97241	9982.4125
1660.25446	8925.1125
1663.53433	8063.4125
1666.81203	7487.6125
1670.08756	7120.9125
1673.36092	6874.1125
1676.63211	6714.7125
1679.90115	6612.8125
1683.16801	6513.3125
1686.43272	6451.0125
1689.69527	6413.1125
1692.95567	6363.0125
1696.2139	6351.6125
1699.46999	6320.5125
1702.72392	6264.8125
1705.97571	6208.4125
1709.22535	6121.6125
1712.47284	6078.8125
1715.71819	6062.4125
1718.96139	6009.6125
1722.20246	5995.1125
1725.44139	5948.3125
1728.67818	5914.6125
1731.91284	5894.5125
1735.14537	5857.5125
1738.37576	5856.5125
1741.60403	5813.4125
1744.83017	5790.4125
1748.05418	5788.1125
1751.27607	5798.0125
1754.49584	5792.5125
1757.71349	5814.3125
1760.92903	5790.4125
1764.14244	5755.2125
1767.35375	5759.0125
1770.56294	5714.1125
1773.77002	5695.8125
1776.97499	5675.8125
1780.17785	5630.4125
1783.37861	5603.1125
1786.57727	5600.9125
1789.77382	5580.9125
1792.96828	5549.9125
1796.16064	5535.5125
1799.3509	5501.0125
1802.53907	5493.1125
1805.72514	5471.4125
1808.90913	5442.5125
1812.09102	5444.8125
1815.27083	5415.9125
1818.44856	5414.1125
1821.6242	5406.2125
1824.79776	5396.3125
1827.96924	5364.7125
1831.13864	5356.3125
1834.30597	5370.1125
1837.47122	5362.9125
1840.6344	5339.9125
1843.7955	5339.3125
1846.95454	5323.0125
1850.11151	5320.5125
1853.26642	5309.1125
1856.41926	5313.8125
1859.57004	5295.2125
1862.71876	5290.1125
1865.86542	5280.0125
1869.01003	5281.7125
1872.15258	5268.5125
1875.29308	5267.5125
1878.43152	5264.8125
1881.56792	5255.9125
1884.70227	5234.2125
1887.83457	5224.9125
1890.96482	5228.2125
1894.09304	5216.7125
1897.21921	5216.9125
1900.34335	5201.0125
1903.46544	5190.1125
1906.58551	5159.3125
1909.70353	5168.4125
1912.81953	5170.8125
1915.93349	5149.0125
1919.04543	5134.0125
1922.15534	5132.1125
1925.26322	5115.2125
1928.36908	5113.7125
1931.47292	5081.5125
1934.57473	5082.5125
1937.67453	5069.1125
1940.77232	5041.3125
1943.86808	5036.9125
1946.96184	5023.2125
1950.05358	4999.7125
1953.14331	4982.6125
1956.23103	4972.8125
1959.31675	4969.1125
1962.40046	4920.4125
1965.48217	4926.5125
1968.56188	4917.2125
1971.63959	4890.2125
1974.7153	4879.2125
1977.78901	4854.0125
1980.86073	4839.6125
1983.93046	4819.6125
1986.99819	4790.9125
1990.06394	4779.2125
1993.1277	4778.6125
1996.18947	4742.5125
1999.24925	4750.9125
2002.30706	4719.5125
2005.36288	4698.1125
2008.41672	4691.7125
2011.46859	4665.7125
2014.51848	4668.0125
2017.56639	4643.0125
2020.61233	4638.8125
2023.6563	4617.8125
2026.6983	4597.6125
2029.73833	4593.6125
2032.7764	4572.1125
2035.8125	4553.0125
2038.84664	4537.8125
2041.87881	4554.4125
2044.90903	4537.0125
2047.93729	4523.2125
2050.96359	4510.9125
2053.98794	4513.5125
2057.01034	4493.9125
2060.03078	4501.3125
2063.04927	4502.8125
2066.06582	4473.6125
2069.08042	4475.8125
2072.09307	4459.1125
2075.10378	4448.7125
2078.11255	4446.1125
2081.11938	4447.8125
2084.12426	4453.3125
2087.12722	4429.6125
2090.12824	4446.6125
2093.12732	4437.2125
2096.12447	4446.2125
2099.11969	4435.7125
2102.11299	4437.4125
2105.10435	4432.0125
2108.09379	4430.5125
2111.08131	4422.2125
2114.0669	4424.4125
2117.05057	4428.5125
2120.03233	4440.2125
2123.01216	4410.6125
2125.99008	4432.1125
2128.96609	4439.6125
2131.94018	4424.2125
2134.91236	4444.2125
2137.88263	4431.2125
2140.851	4447.1125
2143.81746	4445.9125
2146.78201	4443.7125
2149.74466	4440.9125
2152.7054	4427.5125
2155.66425	4418.8125
2158.6212	4420.4125
2161.57625	4416.4125
2164.52941	4423.3125
2167.48067	4411.1125
2170.43004	4406.4125
2173.37752	4396.3125
2176.32311	4405.5125
2179.26681	4397.8125
2182.20863	4385.4125
2185.14856	4400.4125
2188.08661	4394.6125
2191.02278	4381.9125
2193.95707	4381.7125
2196.88948	4360.6125
2199.82001	4359.4125
2202.74867	4364.2125
2205.67545	4346.7125
2208.60037	4338.7125
2211.52341	4347.9125
2214.44458	4325.1125
2217.36388	4305.0125
2220.28132	4300.5125
2223.1969	4299.6125
2226.11061	4307.8125
2229.02246	4281.4125
2231.93245	4269.3125
2234.84058	4265.9125
2237.74686	4250.4125
2240.65128	4240.1125
2243.55385	4235.1125
2246.45456	4241.9125
2249.35343	4214.5125
2252.25044	4216.0125
2255.14561	4212.5125
2258.03893	4203.8125
2260.93041	4197.4125
2263.82004	4198.5125
2266.70783	4171.7125
2269.59378	4164.0125
2272.4779	4145.9125
2275.36017	4135.2125
2278.24061	4124.4125
2281.11922	4107.3125
2283.996	4094.8125
2286.87094	4091.8125
2289.74405	4089.0125
2292.61534	4071.8125
2295.4848	4060.4125
2298.35243	4066.4125
2301.21824	4053.6125
2304.08223	4054.4125
2306.94439	4051.2125
2309.80474	4052.6125
2312.66327	4046.4125
2315.51999	4039.0125
2318.37489	4044.4125
2321.22797	4035.8125
2324.07925	4019.2125
2326.92871	4013.0125
2329.77637	4009.9125
2332.62222	4009.8125
2335.46626	3993.7125
2338.3085	3989.3125
2341.14893	3978.4125
2343.98756	3959.4125
2346.8244	3966.6125
2349.65943	3965.6125
2352.49267	3974.5125
2355.32411	3968.2125
2358.15376	3974.9125
2360.98161	3960.0125
2363.80768	3959.9125
2366.63195	3964.5125
2369.45444	3942.2125
2372.27514	3938.5125
2375.09405	3936.5125
2377.91118	3932.8125
2380.72652	3911.9125
2383.54009	3905.8125
2386.35187	3891.9125
2389.16188	3883.4125
2391.97011	3873.3125
2394.77657	3873.7125
2397.58125	3849.2125
2400.38416	3848.3125
2403.18529	3841.2125
2405.98466	3841.3125
2408.78226	3820.2125
2411.57809	3816.5125
2414.37216	3807.9125
2417.16446	3791.1125
2419.955	3804.0125
2422.74378	3799.9125
2425.5308	3785.8125
2428.31606	3789.5125
2431.09956	3771.8125
2433.88131	3773.6125
2436.6613	3770.6125
2439.43954	3768.1125
2442.21603	3762.1125
2444.99077	3753.3125
2447.76377	3756.0125
2450.53501	3746.3125
2453.30451	3732.1125
2456.07226	3735.0125
2458.83827	3729.5125
2461.60254	3729.1125
2464.36507	3736.3125
2467.12586	3719.1125
2469.88492	3721.2125
2472.64224	3711.4125
2475.39782	3720.9125
2478.15167	3725.6125
2480.90379	3709.4125
2483.65417	3712.9125
2486.40283	3703.1125
2489.14976	3715.4125
2491.89497	3709.1125
2494.63845	3718.7125
2497.3802	3709.1125
2500.12024	3703.4125
2502.85855	3694.6125
2505.59514	3674.1125
2508.33002	3681.4125
2511.06318	3672.2125
2513.79462	3659.2125
2516.52435	3667.1125
2519.25237	3644.6125
2521.97867	3653.1125
2524.70327	3651.2125
2527.42616	3641.6125
2530.14734	3621.9125
2532.86681	3610.6125
2535.58458	3609.0125
2538.30065	3601.3125
2541.01501	3600.4125
2543.72768	3595.4125
2546.43864	3593.3125
2549.14791	3588.9125
2551.85548	3600.2125
2554.56136	3571.0125
2557.26554	3560.6125
2559.96803	3564.8125
2562.66883	3544.2125
2565.36794	3537.0125
2568.06536	3551.2125
2570.7611	3533.5125
2573.45514	3518.3125
2576.14751	3524.8125
2578.83819	3524.6125
2581.52719	3522.1125
2584.21451	3511.1125
2586.90015	3513.1125
2589.58411	3495.4125
2592.2664	3491.8125
2594.94701	3485.1125
2597.62594	3489.1125
2600.30321	3470.6125
2602.9788	3467.9125
2605.65273	3463.3125
2608.32498	3456.3125
2610.99557	3452.1125
2613.66449	3449.6125
2616.33175	3446.3125
2618.99734	3451.3125
2621.66128	3456.0125
2624.32355	3440.9125
2626.98416	3421.8125
2629.64311	3420.2125
2632.30041	3427.8125
2634.95605	3421.6125
2637.61004	3412.3125
2640.26238	3410.1125
2642.91306	3397.1125
2645.56209	3399.2125
2648.20948	3416.7125
2650.85521	3400.5125
2653.4993	3394.2125
2656.14175	3377.9125
2658.78255	3402.6125
2661.42171	3397.4125
2664.05923	3389.5125
2666.6951	3395.9125
2669.32934	3389.2125
2671.96194	3391.8125
2674.59291	3392.6125
2677.22224	3392.2125
2679.84993	3382.4125
2682.476	3395.0125
2685.10043	3370.0125
2687.72324	3380.2125
2690.34441	3385.5125
2692.96396	3363.9125
2695.58188	3387.8125
2698.19818	3370.2125
2700.81285	3378.7125
2703.4259	3399.5125
2706.03733	3452.8125
2708.64714	3418.0125
2711.25533	3388.1125
2713.86191	3386.3125
2716.46687	3387.6125
2719.07021	3388.5125
2721.67194	3374.7125
2724.27206	3359.7125
2726.87057	3373.7125
2729.46747	3377.5125
2732.06276	3360.0125
2734.65644	3368.2125
2737.24852	3383.1125
2739.83899	3355.2125
2742.42786	3362.6125
2745.01513	3349.5125
2747.60079	3345.9125
2750.18486	3340.4125
2752.76733	3341.9125
2755.3482	3332.8125
2757.92747	3333.5125
2760.50515	3341.8125
2763.08123	3330.8125
2765.65573	3320.4125
2768.22863	3331.7125
2770.79994	3315.3125
2773.36967	3330.0125
2775.9378	3308.8125
2778.50435	3311.0125
2781.06932	3307.4125
2783.6327	3298.5125
2786.1945	3298.9125
2788.75471	3284.9125
2791.31335	3270.6125
2793.87041	3280.5125
2796.42589	3264.2125
2798.97979	3262.1125
2801.53212	3249.7125
2804.08288	3265.1125
2806.63206	3247.5125
2809.17967	3227.0125
2811.72571	3242.6125
2814.27018	3238.1125
2816.81308	3230.6125
2819.35442	3219.2125
2821.89419	3216.7125
2824.43239	3221.1125
2826.96904	3205.5125
2829.50412	3214.1125
2832.03763	3196.3125
2834.56959	3184.2125
2837.1	3187.9125
2839.62884	3197.3125
2842.15613	3193.9125
2844.68186	3199.5125
2847.20604	3184.3125
2849.72867	3191.0125
2852.24974	3188.5125
2854.76927	3210.7125
2857.28724	3202.3125
2859.80367	3195.4125
2862.31855	3187.8125
2864.83189	3174.8125
2867.34368	3169.9125
2869.85393	3164.5125
2872.36264	3165.8125
2874.8698	3151.6125
2877.37543	3175.5125
2879.87952	3167.4125
2882.38207	3158.7125
2884.88308	3164.0125
2887.38256	3161.6125
2889.88051	3177.8125
2892.37692	3172.4125
2894.8718	3150.4125
2897.36515	3160.9125
2899.85698	3155.1125
2902.34727	3172.5125
2904.83604	3161.0125
2907.32328	3176.1125
2909.809	3155.2125
2912.29319	3174.0125
2914.77587	3179.6125
2917.25702	3182.5125
2919.73665	3159.9125
2922.21476	3175.4125
2924.69136	3174.9125
2927.16644	3175.7125
2929.64	3162.4125
2932.11205	3170.4125
2934.58258	3158.5125
2937.05161	3157.6125
2939.51912	3164.0125
2941.98513	3164.7125
2944.44962	3159.4125
2946.91261	3136.0125
2949.37409	3147.6125
2951.83407	3147.9125
2954.29254	3154.2125
2956.74951	3143.3125
2959.20498	3131.7125
2961.65895	3130.1125
2964.11142	3110.5125
2966.56239	3107.9125
2969.01186	3100.4125
2971.45984	3096.3125
2973.90632	3082.8125
2976.35131	3089.7125
2978.7948	3075.4125
2981.23681	3075.6125
2983.67732	3066.4125
2986.11635	3058.9125
2988.55388	3050.0125
2990.98993	3041.3125
2993.4245	3042.5125
2995.85758	3029.7125
2998.28917	3018.8125
3000.71928	3035.5125
3003.14791	3024.1125
3005.57506	3017.7125
3008.00073	3003.5125
3010.42493	3009.6125
3012.84764	3011.9125
3015.26888	3008.0125
3017.68865	3000.2125
3020.10694	3001.9125
3022.52376	2978.8125
3024.9391	2981.1125
3027.35298	2978.9125
3029.76539	2976.4125
3032.17632	2976.5125
3034.5858	2969.1125
3036.9938	2961.7125
3039.40034	2956.7125
3041.80542	2957.9125
3044.20903	2954.2125
3046.61118	2972.0125
3049.01187	2949.7125
3051.4111	2952.8125
3053.80888	2943.2125
3056.20519	2927.8125
3058.60005	2939.6125
3060.99345	2929.6125
3063.3854	2938.3125
3065.7759	2923.3125
3068.16494	2909.4125
3070.55254	2904.4125
3072.93868	2900.6125
3075.32338	2908.0125
3077.70662	2901.7125
3080.08842	2890.3125
3082.46878	2896.1125
3084.84769	2891.1125
3087.22515	2903.8125
3089.60118	2896.9125
3091.97576	2895.4125
3094.3489	2896.7125
3096.72061	2889.4125
3099.09087	2905.9125
3101.4597	2915.1125
3103.82709	2897.7125
3106.19305	2897.0125
3108.55757	2892.0125
3110.92066	2885.7125
3113.28232	2882.4125
