Data from AgNPs_FTO_APTES_UA_0um_CRN_0.1mM_R6G_10uM_NaF_0.1M_Addition_RamanShift__14__10-27-38-906.txt Node

Date: Tue Dec 21 10:27:38 GMT 2021
User: TCL
Spectrometer: QEP01345
Trigger mode: 4
Integration Time (sec): 7.000000E0
Scans to average: 10
Electric dark correction enabled: true
Nonlinearity correction enabled: false
Boxcar width: 0
XAxis mode: Raman Shifts
Number of Pixels in Spectrum: 1044
>>>>>Begin Spectral Data<<<<<
46.04893	0.075
50.45542	-0.225
54.85868	-0.325
59.25871	-0.225
63.6555	15.275
68.04907	21.675
72.43941	22.175
76.82654	22.175
81.21044	27.175
85.59113	30.075
89.96862	27.475
94.34289	27.875
98.71396	31.075
103.08183	31.575
107.4465	33.875
111.80798	33.675
116.16626	33.975
120.52136	29.975
124.87327	29.275
129.222	28.175
133.56755	30.275
137.90993	34.375
142.24913	33.375
146.58517	36.075
150.91804	36.575
155.24774	42.075
159.57429	45.475
163.89768	55.875
168.21792	65.675
172.53501	84.975
176.84895	112.075
181.15975	150.575
185.46741	200.675
189.77193	276.275
194.07331	374.775
198.37157	487.375
202.6667	624.775
206.9587	768.775
211.24758	909.675
215.53334	1055.175
219.81599	1205.575
224.09553	1344.475
228.37195	1488.675
232.64527	1614.175
236.91549	1741.475
241.18261	1861.175
245.44663	1948.375
249.70755	2034.175
253.96539	2102.575
258.22014	2136.975
262.4718	2145.075
266.72039	2124.675
270.96589	2102.375
275.20832	2036.675
279.44768	1966.075
283.68397	1912.975
287.91719	1838.375
292.14735	1777.875
296.37445	1740.575
300.59849	1707.975
304.81948	1686.375
309.03742	1672.475
313.25231	1642.075
317.46415	1622.375
321.67296	1583.275
325.87872	1548.075
330.08145	1535.475
334.28114	1521.575
338.47781	1532.475
342.67145	1535.475
346.86207	1558.075
351.04966	1590.475
355.23424	1605.175
359.4158	1626.875
363.59435	1647.375
367.76989	1645.775
371.94243	1667.375
376.11196	1654.775
380.27849	1654.975
384.44203	1659.075
388.60257	1666.475
392.76012	1657.775
396.91468	1676.375
401.06626	1681.475
405.21485	1691.275
409.36047	1685.075
413.50311	1678.275
417.64277	1665.875
421.77947	1662.975
425.9132	1665.975
430.04396	1673.575
434.17176	1687.175
438.2966	1714.175
442.41849	1723.275
446.53742	1749.175
450.6534	1776.675
454.76644	1798.975
458.87653	1808.175
462.98368	1816.875
467.08789	1819.575
471.18916	1802.175
475.2875	1789.675
479.38291	1783.775
483.4754	1769.375
487.56496	1774.675
491.6516	1772.675
495.73531	1774.275
499.81612	1783.675
503.89401	1787.075
507.96899	1787.375
512.04106	1782.175
516.11023	1775.075
520.1765	1763.875
524.23987	1764.675
528.30034	1751.875
532.35792	1735.275
536.41261	1737.975
540.46441	1720.375
544.51333	1727.775
548.55936	1727.775
552.60252	1732.675
556.64279	1734.875
560.6802	1743.475
564.71473	1751.675
568.7464	1761.575
572.7752	1790.275
576.80114	1788.475
580.82422	1780.875
584.84444	1747.875
588.86181	1722.575
592.87633	1727.875
596.888	1732.475
600.89682	1745.275
604.9028	1788.775
608.90594	1890.475
612.90624	2058.375
616.90371	2075.875
620.89834	1918.775
624.89015	1827.875
628.87913	1812.875
632.86528	1839.975
636.84862	1859.175
640.82913	1900.675
644.80683	1937.975
648.78172	1974.275
652.75379	1986.375
656.72306	1969.575
660.68952	1955.475
664.65319	1951.875
668.61405	1980.075
672.57211	2077.575
676.52738	2239.975
680.47986	2394.575
684.42955	2474.475
688.37646	2407.475
692.32058	2256.975
696.26192	2128.975
700.20048	2048.075
704.13626	2007.075
708.06928	1967.975
711.99952	1930.375
715.927	1904.675
719.85171	1892.575
723.77365	1909.875
727.69284	1926.675
731.60928	1926.175
735.52295	1913.675
739.43388	1899.675
743.34206	1885.875
747.24749	1885.275
751.15017	1915.575
755.05012	1925.275
758.94733	1954.975
762.8418	1967.275
766.73354	2002.775
770.62254	2023.475
774.50882	2044.975
778.39237	2010.475
782.27321	1928.075
786.15132	1863.575
790.02671	1826.375
793.89938	1808.175
797.76935	1809.775
801.6366	1816.875
805.50115	1822.075
809.36299	1835.975
813.22213	1821.675
817.07857	1793.875
820.93231	1794.575
824.78336	1780.975
828.63172	1766.975
832.47738	1762.275
836.32036	1754.775
840.16066	1763.675
843.99827	1759.675
847.8332	1755.475
851.66546	1747.075
855.49504	1745.975
859.32195	1746.075
863.1462	1764.575
866.96777	1772.475
870.78668	1770.875
874.60293	1781.175
878.41652	1781.075
882.22745	1773.975
886.03573	1769.775
889.84136	1784.375
893.64433	1779.675
897.44466	1782.275
901.24235	1786.975
905.0374	1789.575
908.8298	1802.875
912.61957	1809.175
916.40671	1854.775
920.19121	1901.475
923.97308	1950.875
927.75233	2001.275
931.52895	2036.875
935.30295	2041.275
939.07433	2011.175
942.84309	1974.575
946.60924	1930.575
950.37278	1887.175
954.13371	1858.875
957.89203	1832.075
961.64774	1818.075
965.40086	1801.375
969.15137	1784.375
972.89929	1762.675
976.64461	1746.975
980.38733	1723.875
984.12747	1713.475
987.86502	1699.475
991.59999	1699.875
995.33237	1695.375
999.06217	1694.775
1002.78939	1705.275
1006.51404	1720.975
1010.23611	1719.775
1013.95561	1726.675
1017.67255	1725.975
1021.38692	1746.075
1025.09872	1740.175
1028.80796	1753.575
1032.51465	1748.475
1036.21877	1764.775
1039.92035	1773.875
1043.61937	1784.275
1047.31584	1788.675
1051.00976	1798.375
1054.70114	1807.675
1058.38998	1784.375
1062.07627	1757.675
1065.76003	1744.275
1069.44126	1715.375
1073.11995	1685.175
1076.79611	1664.075
1080.46974	1662.575
1084.14085	1660.075
1087.80943	1638.275
1091.47549	1637.475
1095.13903	1635.475
1098.80005	1623.375
1102.45857	1616.775
1106.11456	1606.675
1109.76805	1591.975
1113.41903	1614.075
1117.06751	1627.875
1120.71348	1639.275
1124.35696	1660.875
1127.99793	1696.875
1131.63641	1701.975
1135.2724	1708.775
1138.90589	1687.075
1142.5369	1668.675
1146.16542	1671.975
1149.79145	1669.275
1153.415	1655.275
1157.03607	1642.975
1160.65467	1654.475
1164.27079	1644.975
1167.88443	1657.375
1171.49561	1672.175
1175.10432	1712.375
1178.71056	1766.675
1182.31434	1810.575
1185.91565	1826.675
1189.51451	1812.675
1193.11091	1778.775
1196.70485	1752.775
1200.29634	1725.075
1203.88538	1701.475
1207.47197	1701.775
1211.05612	1681.675
1214.63782	1663.775
1218.21708	1659.975
1221.79391	1673.975
1225.36829	1682.275
1228.94024	1689.775
1232.50976	1707.775
1236.07685	1727.575
1239.6415	1737.275
1243.20374	1745.175
1246.76355	1763.175
1250.32093	1771.275
1253.8759	1789.975
1257.42845	1791.575
1260.97859	1820.475
1264.52631	1827.875
1268.07163	1842.775
1271.61453	1848.675
1275.15503	1855.875
1278.69312	1864.075
1282.22882	1863.575
1285.76211	1876.775
1289.29301	1895.675
1292.82151	1922.375
1296.34761	1951.175
1299.87133	1978.875
1303.39266	2034.775
1306.9116	2109.175
1310.42815	2169.275
1313.94233	2220.575
1317.45412	2205.575
1320.96354	2168.975
1324.47058	2111.675
1327.97525	2059.675
1331.47754	2044.175
1334.97747	2050.975
1338.47502	2084.975
1341.97022	2117.675
1345.46305	2195.175
1348.95352	2263.875
1352.44163	2369.375
1355.92738	2469.975
1359.41078	2610.675
1362.89183	2751.875
1366.37053	2787.875
1369.84688	2665.875
1373.32088	2484.875
1376.79254	2363.975
1380.26186	2269.775
1383.72883	2205.675
1387.19347	2161.675
1390.65578	2121.975
1394.11575	2086.875
1397.57339	2062.475
1401.0287	2041.275
1404.48168	2039.875
1407.93234	2059.675
1411.38068	2082.975
1414.82669	2109.475
1418.27039	2147.875
1421.71177	2169.475
1425.15083	2156.275
1428.58758	2107.875
1432.02203	2064.975
1435.45416	2028.175
1438.88399	2013.275
1442.31151	1981.375
1445.73673	1989.075
1449.15965	1979.975
1452.58027	1979.175
1455.9986	1964.275
1459.41463	1954.075
1462.82837	1950.775
1466.23982	1940.775
1469.64898	1943.875
1473.05586	1929.775
1476.46045	1913.975
1479.86276	1905.575
1483.26279	1893.575
1486.66054	1877.775
1490.05602	1871.475
1493.44922	1884.475
1496.84016	1898.375
1500.22882	1931.675
1503.61521	1995.275
1506.99934	2067.475
1510.38121	2161.575
1513.76081	2195.375
1517.13816	2153.575
1520.51324	2060.675
1523.88607	1961.575
1527.25665	1894.775
1530.62498	1849.375
1533.99105	1836.275
1537.35488	1829.675
1540.71647	1828.575
1544.07581	1837.975
1547.4329	1841.375
1550.78776	1847.375
1554.14038	1857.275
1557.49077	1869.775
1560.83892	1865.075
1564.18484	1865.675
1567.52853	1871.575
1570.86999	1872.875
1574.20922	1877.575
1577.54624	1862.575
1580.88103	1832.075
1584.2136	1786.875
1587.54395	1745.375
1590.87208	1724.375
1594.19801	1719.475
1597.52172	1724.675
1600.84321	1731.875
1604.16251	1715.275
1607.47959	1703.175
1610.79447	1692.575
1614.10715	1667.975
1617.41763	1656.975
1620.7259	1644.175
1624.03199	1658.175
1627.33587	1637.975
1630.63757	1651.375
1633.93707	1663.675
1637.23439	1677.575
1640.52951	1688.575
1643.82246	1724.375
1647.11321	1772.375
1650.40179	1816.075
1653.68819	1807.775
1656.97241	1741.275
1660.25446	1672.675
1663.53433	1611.175
1666.81203	1567.475
1670.08756	1546.075
1673.36092	1507.575
1676.63211	1490.675
1679.90115	1460.875
1683.16801	1429.975
1686.43272	1383.275
1689.69527	1361.075
1692.95567	1323.075
1696.2139	1286.475
1699.46999	1268.575
1702.72392	1247.375
1705.97571	1231.175
1709.22535	1228.375
1712.47284	1219.775
1715.71819	1215.275
1718.96139	1214.575
1722.20246	1208.975
1725.44139	1204.375
1728.67818	1196.275
1731.91284	1204.375
1735.14537	1217.575
1738.37576	1219.675
1741.60403	1233.575
1744.83017	1249.075
1748.05418	1282.275
1751.27607	1324.175
1754.49584	1349.275
1757.71349	1349.375
1760.92903	1323.275
1764.14244	1283.275
1767.35375	1231.875
1770.56294	1173.375
1773.77002	1126.075
1776.97499	1107.575
1780.17785	1075.375
1783.37861	1064.075
1786.57727	1065.975
1789.77382	1030.475
1792.96828	1015.975
1796.16064	1005.675
1799.3509	990.375
1802.53907	974.975
1805.72514	969.975
1808.90913	962.075
1812.09102	942.975
1815.27083	944.775
1818.44856	950.575
1821.6242	932.375
1824.79776	932.375
1827.96924	924.775
1831.13864	931.975
1834.30597	924.175
1837.47122	923.075
1840.6344	919.775
1843.7955	913.975
1846.95454	918.375
1850.11151	916.975
1853.26642	916.875
1856.41926	916.575
1859.57004	909.175
1862.71876	906.075
1865.86542	910.975
1869.01003	897.575
1872.15258	906.075
1875.29308	900.875
1878.43152	892.075
1881.56792	891.275
1884.70227	888.775
1887.83457	889.375
1890.96482	885.375
1894.09304	877.775
1897.21921	892.775
1900.34335	877.475
1903.46544	883.075
1906.58551	883.075
1909.70353	872.175
1912.81953	875.875
1915.93349	868.875
1919.04543	868.075
1922.15534	867.275
1925.26322	874.275
1928.36908	865.875
1931.47292	864.275
1934.57473	863.075
1937.67453	853.275
1940.77232	855.075
1943.86808	846.875
1946.96184	851.575
1950.05358	848.475
1953.14331	837.375
1956.23103	838.775
1959.31675	829.575
1962.40046	825.275
1965.48217	829.175
1968.56188	821.775
1971.63959	815.975
1974.7153	828.175
1977.78901	812.075
1980.86073	811.575
1983.93046	808.175
1986.99819	810.775
1990.06394	801.375
1993.1277	796.075
1996.18947	793.675
1999.24925	796.875
2002.30706	793.475
2005.36288	787.175
2008.41672	783.675
2011.46859	785.275
2014.51848	784.775
2017.56639	779.175
2020.61233	776.875
2023.6563	777.275
2026.6983	771.175
2029.73833	776.075
2032.7764	769.975
2035.8125	762.575
2038.84664	763.075
2041.87881	764.475
2044.90903	755.675
2047.93729	753.975
2050.96359	761.075
2053.98794	753.775
2057.01034	755.075
2060.03078	751.875
2063.04927	750.175
2066.06582	750.475
2069.08042	758.975
2072.09307	748.575
2075.10378	745.275
2078.11255	746.475
2081.11938	753.375
2084.12426	749.975
2087.12722	755.675
2090.12824	747.875
2093.12732	758.075
2096.12447	748.375
2099.11969	753.575
2102.11299	755.475
2105.10435	751.175
2108.09379	761.375
2111.08131	756.975
2114.0669	753.175
2117.05057	755.075
2120.03233	753.475
2123.01216	749.575
2125.99008	753.775
2128.96609	750.375
2131.94018	743.875
2134.91236	744.575
2137.88263	744.375
2140.851	742.475
2143.81746	742.575
2146.78201	744.275
2149.74466	742.175
2152.7054	744.275
2155.66425	734.875
2158.6212	737.575
2161.57625	733.375
2164.52941	735.875
2167.48067	729.075
2170.43004	729.275
2173.37752	727.875
2176.32311	726.875
2179.26681	728.375
2182.20863	728.575
2185.14856	723.975
2188.08661	725.675
2191.02278	720.275
2193.95707	718.075
2196.88948	719.375
2199.82001	718.675
2202.74867	714.475
2205.67545	716.475
2208.60037	714.575
2211.52341	715.275
2214.44458	713.775
2217.36388	700.075
2220.28132	712.375
2223.1969	699.675
2226.11061	702.675
2229.02246	699.975
2231.93245	691.075
2234.84058	693.275
2237.74686	692.375
2240.65128	691.075
2243.55385	693.875
2246.45456	695.175
2249.35343	677.675
2252.25044	676.875
2255.14561	675.975
2258.03893	685.475
2260.93041	682.275
2263.82004	676.675
2266.70783	676.375
2269.59378	674.475
2272.4779	667.975
2275.36017	673.075
2278.24061	671.675
2281.11922	669.775
2283.996	665.375
2286.87094	659.775
2289.74405	658.475
2292.61534	656.275
2295.4848	660.075
2298.35243	656.875
2301.21824	650.775
2304.08223	654.075
2306.94439	651.375
2309.80474	644.075
2312.66327	648.375
2315.51999	653.475
2318.37489	645.975
2321.22797	637.075
2324.07925	642.875
2326.92871	644.175
2329.77637	642.975
2332.62222	647.475
2335.46626	642.475
2338.3085	642.775
2341.14893	634.575
2343.98756	628.375
2346.8244	631.075
2349.65943	626.575
2352.49267	628.975
2355.32411	625.875
2358.15376	627.075
2360.98161	628.175
2363.80768	623.475
2366.63195	630.375
2369.45444	629.875
2372.27514	627.575
2375.09405	619.575
2377.91118	621.975
2380.72652	618.575
2383.54009	619.075
2386.35187	613.975
2389.16188	613.675
2391.97011	614.075
2394.77657	613.375
2397.58125	607.375
2400.38416	609.175
2403.18529	606.675
2405.98466	609.175
2408.78226	603.875
2411.57809	599.675
2414.37216	602.275
2417.16446	602.775
2419.955	602.675
2422.74378	598.175
2425.5308	601.875
2428.31606	596.675
2431.09956	597.175
2433.88131	596.075
2436.6613	600.875
2439.43954	592.875
2442.21603	591.975
2444.99077	584.875
2447.76377	596.675
2450.53501	589.075
2453.30451	587.675
2456.07226	586.075
2458.83827	585.975
2461.60254	583.575
2464.36507	583.675
2467.12586	578.075
2469.88492	577.975
2472.64224	576.575
2475.39782	581.575
2478.15167	578.875
2480.90379	580.775
2483.65417	576.075
2486.40283	574.175
2489.14976	575.475
2491.89497	578.975
2494.63845	579.075
2497.3802	575.075
2500.12024	581.075
2502.85855	574.675
2505.59514	568.375
2508.33002	567.175
2511.06318	564.575
2513.79462	567.275
2516.52435	570.575
2519.25237	566.875
2521.97867	561.975
2524.70327	562.175
2527.42616	558.675
2530.14734	556.975
2532.86681	557.275
2535.58458	557.675
2538.30065	553.075
2541.01501	554.975
2543.72768	553.775
2546.43864	549.475
2549.14791	545.975
2551.85548	552.475
2554.56136	550.375
2557.26554	539.075
2559.96803	545.375
2562.66883	539.575
2565.36794	541.475
2568.06536	542.575
2570.7611	541.175
2573.45514	539.975
2576.14751	541.875
2578.83819	533.975
2581.52719	532.175
2584.21451	539.075
2586.90015	535.075
2589.58411	533.375
2592.2664	533.775
2594.94701	527.475
2597.62594	532.175
2600.30321	527.675
2602.9788	522.575
2605.65273	520.875
2608.32498	525.975
2610.99557	521.775
2613.66449	522.575
2616.33175	514.775
2618.99734	523.975
2621.66128	522.375
2624.32355	516.275
2626.98416	518.175
2629.64311	514.375
2632.30041	514.475
2634.95605	513.575
2637.61004	513.275
2640.26238	509.675
2642.91306	510.175
2645.56209	512.775
2648.20948	507.275
2650.85521	509.775
2653.4993	509.675
2656.14175	510.275
2658.78255	515.975
2661.42171	511.475
2664.05923	505.475
2666.6951	512.375
2669.32934	515.375
2671.96194	516.175
2674.59291	515.175
2677.22224	520.975
2679.84993	517.975
2682.476	513.475
2685.10043	514.275
2687.72324	513.075
2690.34441	519.775
2692.96396	512.275
2695.58188	516.475
2698.19818	519.675
2700.81285	514.575
2703.4259	519.475
2706.03733	515.675
2708.64714	509.175
2711.25533	516.475
2713.86191	517.675
2716.46687	518.875
2719.07021	520.775
2721.67194	520.375
2724.27206	520.575
2726.87057	518.975
2729.46747	519.975
2732.06276	521.275
2734.65644	515.875
2737.24852	519.275
2739.83899	508.575
2742.42786	513.775
2745.01513	514.575
2747.60079	509.875
2750.18486	514.275
2752.76733	506.875
2755.3482	502.475
2757.92747	507.575
2760.50515	507.575
2763.08123	509.575
2765.65573	506.775
2768.22863	511.475
2770.79994	508.775
2773.36967	508.375
2775.9378	509.775
2778.50435	507.475
2781.06932	509.575
2783.6327	506.175
2786.1945	510.075
2788.75471	507.975
2791.31335	511.175
2793.87041	507.775
2796.42589	510.575
2798.97979	516.275
2801.53212	515.975
2804.08288	515.675
2806.63206	518.675
2809.17967	520.975
2811.72571	520.475
2814.27018	517.075
2816.81308	523.575
2819.35442	520.975
2821.89419	522.375
2824.43239	522.475
2826.96904	521.475
2829.50412	525.675
2832.03763	524.975
2834.56959	522.275
2837.1	523.775
2839.62884	527.075
2842.15613	531.675
2844.68186	533.775
2847.20604	535.575
2849.72867	541.275
2852.24974	537.975
2854.76927	535.575
2857.28724	540.275
2859.80367	540.075
2862.31855	541.175
2864.83189	539.975
2867.34368	546.875
2869.85393	545.575
2872.36264	552.575
2874.8698	557.675
2877.37543	556.675
2879.87952	575.175
2882.38207	577.775
2884.88308	577.975
2887.38256	588.075
2889.88051	589.175
2892.37692	609.975
2894.8718	613.975
2897.36515	624.775
2899.85698	627.375
2902.34727	645.675
2904.83604	653.575
2907.32328	663.875
2909.809	668.475
2912.29319	683.575
2914.77587	691.375
2917.25702	698.475
2919.73665	713.475
2922.21476	720.175
2924.69136	733.675
2927.16644	739.175
2929.64	744.975
2932.11205	760.975
2934.58258	761.775
2937.05161	775.875
2939.51912	779.875
2941.98513	788.775
2944.44962	784.875
2946.91261	788.875
2949.37409	781.375
2951.83407	774.075
2954.29254	764.475
2956.74951	758.275
2959.20498	745.875
2961.65895	724.075
2964.11142	712.575
2966.56239	691.775
2969.01186	680.075
2971.45984	665.375
2973.90632	651.375
2976.35131	640.175
2978.7948	629.875
2981.23681	625.575
2983.67732	614.775
2986.11635	614.775
2988.55388	604.375
2990.98993	596.775
2993.4245	598.575
2995.85758	594.275
2998.28917	589.875
3000.71928	597.375
3003.14791	598.375
3005.57506	594.275
3008.00073	596.575
3010.42493	592.675
3012.84764	584.375
3015.26888	589.875
3017.68865	584.575
3020.10694	579.575
3022.52376	575.275
3024.9391	573.875
3027.35298	563.575
3029.76539	564.575
3032.17632	562.775
3034.5858	554.475
3036.9938	553.975
3039.40034	545.675
3041.80542	543.075
3044.20903	542.775
3046.61118	539.075
3049.01187	530.375
3051.4111	539.775
3053.80888	521.175
3056.20519	532.575
3058.60005	530.275
3060.99345	534.475
3063.3854	520.775
3065.7759	532.775
3068.16494	529.975
3070.55254	526.675
3072.93868	529.975
3075.32338	535.475
3077.70662	524.475
3080.08842	530.675
3082.46878	528.875
3084.84769	532.575
3087.22515	535.375
3089.60118	547.875
3091.97576	545.475
3094.3489	545.675
3096.72061	549.275
3099.09087	553.575
3101.4597	555.775
3103.82709	560.275
3106.19305	559.075
3108.55757	569.375
3110.92066	570.775
3113.28232	574.575
3115.64255	569.875
3118.00134	576.875
3120.35871	578.975
3122.71466	580.475
3125.06917	584.875
3127.42226	589.775
3129.77393	588.775
3132.12417	594.875
3134.47299	599.275
3136.82039	607.775
3139.16636	608.875
3141.51092	610.875
3143.85406	616.475
3146.19579	622.875
3148.53609	621.575
3150.87499	627.475
3153.21246	637.075
3155.54853	643.375
3157.88318	651.575
3160.21642	647.975
3162.54826	656.575
3164.87868	651.575
3167.2077	657.975
3169.5353	663.275
3171.86151	665.475
3174.18631	677.375
3176.5097	680.475
3178.83169	682.375
3181.15228	689.875
3183.47147	687.275
3185.78926	696.275
3188.10565	697.475
3190.42065	699.875
3192.73424	704.175
3195.04645	708.475
3197.35725	714.675
3199.66667	716.275
3201.97469	715.475
3204.28132	717.775
3206.58656	726.575
3208.8904	728.875
3211.19287	726.575
3213.49394	728.475
3215.79363	732.675
3218.09193	742.575
3220.38884	737.975
3222.68438	738.275
3224.97853	743.575
3227.2713	745.875
3229.56269	745.375
3231.8527	755.375
3234.14133	748.975
3236.42858	743.475
3238.71446	751.575
3240.99896	746.675
3243.28209	755.475
3245.56384	752.575
3247.84423	757.775
3250.12324	756.275
3252.40088	763.575
3254.67715	760.175
3256.95205	758.875
3259.22558	758.975
3261.49775	753.275
3263.76855	761.375
3266.03799	759.075
3268.30606	758.675
3270.57277	760.575
3272.83812	755.675
3275.10211	752.175
3277.36474	751.175
3279.62601	761.175
3281.88593	760.975
3284.14448	762.275
3286.40168	752.475
3288.65753	759.575
3290.91202	755.475
3293.16516	750.075
3295.41695	758.075
3297.66738	756.275
3299.91647	750.175
