Data from AgNPs_FTO_APTES_UA_20um_CRN_0.1mM_R6G_10uM_NaF_0.1M_Addition_RamanShift__14__14-32-39-186.txt Node

Date: Tue Dec 21 14:32:39 GMT 2021
User: TCL
Spectrometer: QEP01345
Trigger mode: 4
Integration Time (sec): 7.000000E0
Scans to average: 10
Electric dark correction enabled: true
Nonlinearity correction enabled: false
Boxcar width: 0
XAxis mode: Raman Shifts
Number of Pixels in Spectrum: 1044
>>>>>Begin Spectral Data<<<<<
46.04893	-0.225
50.45542	-0.625
54.85868	-0.625
59.25871	0.775
63.6555	39.975
68.04907	47.575
72.43941	50.475
76.82654	51.375
81.21044	55.875
85.59113	57.875
89.96862	60.775
94.34289	59.675
98.71396	62.675
103.08183	64.975
107.4465	68.275
111.80798	70.875
116.16626	67.875
120.52136	68.875
124.87327	74.375
129.222	75.175
133.56755	77.575
137.90993	90.175
142.24913	90.575
146.58517	98.875
150.91804	119.075
155.24774	139.175
159.57429	164.975
163.89768	218.375
168.21792	280.575
172.53501	377.475
176.84895	517.275
181.15975	729.275
185.46741	1020.775
189.77193	1401.675
194.07331	1902.775
198.37157	2448.075
202.6667	3057.075
206.9587	3648.575
211.24758	4246.375
215.53334	4842.975
219.81599	5475.875
224.09553	6134.475
228.37195	6903.075
232.64527	7698.475
236.91549	8562.675
241.18261	9444.875
245.44663	10212.075
249.70755	10890.675
253.96539	11459.775
258.22014	11950.875
262.4718	12309.875
266.72039	12611.075
270.96589	12765.175
275.20832	12779.575
279.44768	12708.675
283.68397	12589.375
287.91719	12467.675
292.14735	12391.275
296.37445	12401.175
300.59849	12459.275
304.81948	12551.575
309.03742	12575.175
313.25231	12440.375
317.46415	12161.875
321.67296	11734.775
325.87872	11384.775
330.08145	11190.575
334.28114	11165.275
338.47781	11254.275
342.67145	11374.675
346.86207	11587.175
351.04966	11807.975
355.23424	12063.075
359.4158	12276.675
363.59435	12431.975
367.76989	12529.775
371.94243	12593.075
376.11196	12623.275
380.27849	12687.475
384.44203	12689.975
388.60257	12772.775
392.76012	12876.175
396.91468	13029.175
401.06626	13229.075
405.21485	13373.775
409.36047	13325.975
413.50311	13053.875
417.64277	12777.475
421.77947	12608.775
425.9132	12605.875
430.04396	12600.375
434.17176	12634.675
438.2966	12706.675
442.41849	12854.775
446.53742	13043.875
450.6534	13302.075
454.76644	13493.275
458.87653	13586.575
462.98368	13632.275
467.08789	13584.075
471.18916	13508.775
475.2875	13421.775
479.38291	13359.575
483.4754	13286.275
487.56496	13172.875
491.6516	13032.175
495.73531	12894.675
499.81612	12867.475
503.89401	12925.275
507.96899	12979.675
512.04106	12974.475
516.11023	12961.375
520.1765	12888.775
524.23987	12823.675
528.30034	12713.675
532.35792	12583.975
536.41261	12481.275
540.46441	12395.175
544.51333	12368.775
548.55936	12452.875
552.60252	12679.675
556.64279	12913.975
560.6802	13029.775
564.71473	13088.175
568.7464	13225.975
572.7752	13492.375
576.80114	13699.275
580.82422	13856.575
584.84444	13982.775
588.86181	14019.675
592.87633	13934.975
596.888	13872.975
600.89682	13868.475
604.9028	14372.775
608.90594	15838.475
612.90624	17594.875
616.90371	16876.075
620.89834	14033.175
624.89015	12608.875
628.87913	12381.175
632.86528	12512.975
636.84862	12689.475
640.82913	12651.375
644.80683	12346.375
648.78172	12078.275
652.75379	12010.575
656.72306	12134.175
660.68952	12377.975
664.65319	12414.775
668.61405	12233.175
672.57211	12205.675
676.52738	12299.175
680.47986	12351.675
684.42955	12288.475
688.37646	12182.075
692.32058	12122.975
696.26192	12115.675
700.20048	12192.475
704.13626	12252.875
708.06928	12268.175
711.99952	12178.775
715.927	12159.175
719.85171	12129.275
723.77365	12080.475
727.69284	12020.675
731.60928	11909.675
735.52295	11843.475
739.43388	11810.275
743.34206	11856.275
747.24749	11868.475
751.15017	11928.575
755.05012	12045.975
758.94733	12340.975
762.8418	12941.675
766.73354	13999.375
770.62254	15180.275
774.50882	15621.875
778.39237	15093.575
782.27321	13935.175
786.15132	12873.175
790.02671	12216.875
793.89938	11865.275
797.76935	11716.375
801.6366	11623.775
805.50115	11573.375
809.36299	11503.875
813.22213	11439.975
817.07857	11383.175
820.93231	11345.475
824.78336	11301.075
828.63172	11325.175
832.47738	11287.475
836.32036	11240.775
840.16066	11202.775
843.99827	11178.875
847.8332	11131.475
851.66546	11141.175
855.49504	11135.375
859.32195	11116.875
863.1462	11142.075
866.96777	11117.975
870.78668	11135.175
874.60293	11133.175
878.41652	11146.075
882.22745	11167.475
886.03573	11177.275
889.84136	11200.775
893.64433	11150.375
897.44466	11147.875
901.24235	11083.675
905.0374	11037.775
908.8298	10966.375
912.61957	10948.575
916.40671	11031.175
920.19121	11113.175
923.97308	11183.275
927.75233	11156.975
931.52895	11118.275
935.30295	11024.675
939.07433	10830.575
942.84309	10703.275
946.60924	10562.075
950.37278	10538.275
954.13371	10495.675
957.89203	10473.675
961.64774	10463.875
965.40086	10447.275
969.15137	10390.275
972.89929	10353.275
976.64461	10302.975
980.38733	10272.475
984.12747	10281.475
987.86502	10307.675
991.59999	10356.375
995.33237	10415.575
999.06217	10507.675
1002.78939	10623.275
1006.51404	10723.575
1010.23611	10873.575
1013.95561	11019.775
1017.67255	11030.875
1021.38692	10955.175
1025.09872	10888.375
1028.80796	10769.875
1032.51465	10708.375
1036.21877	10726.375
1039.92035	10773.175
1043.61937	10859.775
1047.31584	10902.075
1051.00976	10924.775
1054.70114	10990.075
1058.38998	11011.975
1062.07627	11085.975
1065.76003	11201.675
1069.44126	11321.875
1073.11995	11452.075
1076.79611	11594.275
1080.46974	11667.375
1084.14085	11689.975
1087.80943	11759.575
1091.47549	11834.075
1095.13903	11908.475
1098.80005	11801.375
1102.45857	11580.875
1106.11456	11384.075
1109.76805	11233.975
1113.41903	11228.275
1117.06751	11306.075
1120.71348	11460.375
1124.35696	11615.375
1127.99793	11820.175
1131.63641	11970.875
1135.2724	11879.475
1138.90589	11700.875
1142.5369	11588.675
1146.16542	11533.575
1149.79145	11519.475
1153.415	11554.075
1157.03607	11633.775
1160.65467	11835.475
1164.27079	12169.375
1167.88443	12676.675
1171.49561	13278.675
1175.10432	14155.975
1178.71056	15275.375
1182.31434	16245.675
1185.91565	16831.975
1189.51451	16904.475
1193.11091	16589.275
1196.70485	15950.675
1200.29634	15278.975
1203.88538	14704.975
1207.47197	14188.175
1211.05612	13708.575
1214.63782	13362.275
1218.21708	13075.275
1221.79391	12864.075
1225.36829	12683.875
1228.94024	12582.675
1232.50976	12522.175
1236.07685	12447.275
1239.6415	12420.275
1243.20374	12429.775
1246.76355	12512.575
1250.32093	12594.475
1253.8759	12772.375
1257.42845	13063.075
1260.97859	13361.375
1264.52631	13651.075
1268.07163	13999.675
1271.61453	14249.175
1275.15503	14561.575
1278.69312	14828.675
1282.22882	15060.275
1285.76211	15377.875
1289.29301	15747.475
1292.82151	16282.075
1296.34761	16890.275
1299.87133	17531.275
1303.39266	18324.975
1306.9116	19207.675
1310.42815	20105.075
1313.94233	20617.375
1317.45412	20610.375
1320.96354	20267.675
1324.47058	19940.775
1327.97525	19577.475
1331.47754	19314.975
1334.97747	19184.975
1338.47502	19160.175
1341.97022	19335.675
1345.46305	19529.175
1348.95352	19755.975
1352.44163	20040.275
1355.92738	20494.875
1359.41078	21208.975
1362.89183	22067.075
1366.37053	21831.975
1369.84688	20070.675
1373.32088	17958.375
1376.79254	16449.175
1380.26186	15612.575
1383.72883	15325.475
1387.19347	15096.575
1390.65578	14914.875
1394.11575	14708.775
1397.57339	14605.675
1401.0287	14553.375
1404.48168	14572.575
1407.93234	14459.575
1411.38068	14299.875
1414.82669	13998.175
1418.27039	13620.575
1421.71177	13249.575
1425.15083	12882.075
1428.58758	12683.875
1432.02203	12660.775
1435.45416	12754.375
1438.88399	12960.175
1442.31151	13128.375
1445.73673	13300.875
1449.15965	13468.675
1452.58027	13623.075
1455.9986	13733.775
1459.41463	13896.975
1462.82837	14084.375
1466.23982	14297.175
1469.64898	14501.675
1473.05586	14626.475
1476.46045	14680.075
1479.86276	14677.875
1483.26279	14698.475
1486.66054	14773.575
1490.05602	14985.475
1493.44922	15352.275
1496.84016	15888.275
1500.22882	16705.575
1503.61521	17843.075
1506.99934	19016.475
1510.38121	20007.575
1513.76081	20263.175
1517.13816	19591.275
1520.51324	18375.975
1523.88607	17139.475
1527.25665	16348.875
1530.62498	15868.575
1533.99105	15580.675
1537.35488	15303.875
1540.71647	14978.475
1544.07581	14661.675
1547.4329	14319.575
1550.78776	14090.475
1554.14038	13994.175
1557.49077	13932.075
1560.83892	14046.075
1564.18484	14210.875
1567.52853	14439.275
1570.86999	14648.475
1574.20922	14843.475
1577.54624	14927.475
1580.88103	14734.975
1584.2136	14386.275
1587.54395	14152.975
1590.87208	14237.475
1594.19801	14629.675
1597.52172	15157.575
1600.84321	15427.475
1604.16251	15072.875
1607.47959	14433.075
1610.79447	13655.075
1614.10715	12886.075
1617.41763	12137.275
1620.7259	11566.575
1624.03199	11188.875
1627.33587	11052.075
1630.63757	11165.375
1633.93707	11547.575
1637.23439	12225.875
1640.52951	13276.875
1643.82246	14746.175
1647.11321	16205.775
1650.40179	17119.075
1653.68819	16934.075
1656.97241	15521.275
1660.25446	13680.875
1663.53433	12129.075
1666.81203	11048.875
1670.08756	10286.075
1673.36092	9857.075
1676.63211	9548.475
1679.90115	9358.275
1683.16801	9193.875
1686.43272	9063.775
1689.69527	8980.375
1692.95567	8910.175
1696.2139	8868.975
1699.46999	8860.275
1702.72392	8802.675
1705.97571	8762.375
1709.22535	8703.675
1712.47284	8675.875
1715.71819	8659.575
1718.96139	8638.475
1722.20246	8610.875
1725.44139	8543.475
1728.67818	8499.075
1731.91284	8454.675
1735.14537	8405.275
1738.37576	8372.975
1741.60403	8353.975
1744.83017	8329.575
1748.05418	8316.075
1751.27607	8323.175
1754.49584	8319.075
1757.71349	8343.175
1760.92903	8334.575
1764.14244	8310.575
1767.35375	8274.575
1770.56294	8213.075
1773.77002	8181.775
1776.97499	8145.375
1780.17785	8083.775
1783.37861	8062.675
1786.57727	8032.075
1789.77382	8011.275
1792.96828	7957.375
1796.16064	7923.875
1799.3509	7907.075
1802.53907	7881.575
1805.72514	7833.075
1808.90913	7809.075
1812.09102	7800.275
1815.27083	7771.475
1818.44856	7760.775
1821.6242	7742.475
1824.79776	7731.275
1827.96924	7730.475
1831.13864	7704.275
1834.30597	7695.475
1837.47122	7680.275
1840.6344	7677.575
1843.7955	7675.675
1846.95454	7651.775
1850.11151	7646.675
1853.26642	7655.575
1856.41926	7628.775
1859.57004	7616.875
1862.71876	7609.275
1865.86542	7592.875
1869.01003	7586.775
1872.15258	7573.575
1875.29308	7545.575
1878.43152	7561.875
1881.56792	7527.775
1884.70227	7513.775
1887.83457	7528.375
1890.96482	7499.075
1894.09304	7476.475
1897.21921	7498.175
1900.34335	7458.375
1903.46544	7453.475
1906.58551	7455.575
1909.70353	7413.375
1912.81953	7394.375
1915.93349	7389.775
1919.04543	7372.175
1922.15534	7345.675
1925.26322	7343.475
1928.36908	7313.375
1931.47292	7288.975
1934.57473	7240.175
1937.67453	7215.475
1940.77232	7201.775
1943.86808	7205.975
1946.96184	7180.975
1950.05358	7145.575
1953.14331	7153.575
1956.23103	7131.275
1959.31675	7114.175
1962.40046	7082.875
1965.48217	7055.875
1968.56188	7034.875
1971.63959	7022.275
1974.7153	6979.875
1977.78901	6977.575
1980.86073	6932.075
1983.93046	6923.075
1986.99819	6895.175
1990.06394	6866.675
1993.1277	6842.775
1996.18947	6808.375
1999.24925	6790.675
2002.30706	6776.375
2005.36288	6743.675
2008.41672	6717.275
2011.46859	6691.575
2014.51848	6664.875
2017.56639	6669.075
2020.61233	6626.875
2023.6563	6614.375
2026.6983	6596.175
2029.73833	6583.675
2032.7764	6560.775
2035.8125	6534.975
2038.84664	6527.275
2041.87881	6504.975
2044.90903	6497.875
2047.93729	6474.575
2050.96359	6490.275
2053.98794	6495.675
2057.01034	6473.675
2060.03078	6443.175
2063.04927	6431.275
2066.06582	6426.375
2069.08042	6425.475
2072.09307	6435.475
2075.10378	6399.275
2078.11255	6394.975
2081.11938	6401.275
2084.12426	6397.175
2087.12722	6372.275
2090.12824	6380.175
2093.12732	6383.375
2096.12447	6371.775
2099.11969	6355.075
2102.11299	6341.875
2105.10435	6366.475
2108.09379	6372.375
2111.08131	6370.275
2114.0669	6380.375
2117.05057	6368.175
2120.03233	6380.175
2123.01216	6381.175
2125.99008	6378.375
2128.96609	6381.775
2131.94018	6390.075
2134.91236	6377.875
2137.88263	6370.275
2140.851	6384.475
2143.81746	6385.875
2146.78201	6373.875
2149.74466	6386.075
2152.7054	6357.775
2155.66425	6361.075
2158.6212	6356.575
2161.57625	6347.875
2164.52941	6361.775
2167.48067	6354.275
2170.43004	6341.975
2173.37752	6323.375
2176.32311	6337.675
2179.26681	6338.775
2182.20863	6288.775
2185.14856	6331.275
2188.08661	6321.275
2191.02278	6310.975
2193.95707	6315.975
2196.88948	6302.075
2199.82001	6293.275
2202.74867	6267.475
2205.67545	6279.775
2208.60037	6244.775
2211.52341	6256.775
2214.44458	6239.075
2217.36388	6210.575
2220.28132	6202.875
2223.1969	6184.775
2226.11061	6166.475
2229.02246	6176.675
2231.93245	6142.875
2234.84058	6119.775
2237.74686	6113.875
2240.65128	6108.975
2243.55385	6099.475
2246.45456	6086.275
2249.35343	6067.075
2252.25044	6068.275
2255.14561	6051.575
2258.03893	6059.975
2260.93041	6061.175
2263.82004	6018.575
2266.70783	6013.875
2269.59378	5985.575
2272.4779	5986.075
2275.36017	5947.575
2278.24061	5954.275
2281.11922	5931.175
2283.996	5915.475
2286.87094	5911.375
2289.74405	5881.075
2292.61534	5881.975
2295.4848	5876.275
2298.35243	5877.875
2301.21824	5863.775
2304.08223	5846.475
2306.94439	5846.375
2309.80474	5840.475
2312.66327	5827.175
2315.51999	5812.775
2318.37489	5815.175
2321.22797	5805.275
2324.07925	5788.575
2326.92871	5786.975
2329.77637	5792.575
2332.62222	5772.075
2335.46626	5759.175
2338.3085	5735.875
2341.14893	5766.475
2343.98756	5734.775
2346.8244	5715.075
2349.65943	5739.075
2352.49267	5725.375
2355.32411	5737.275
2358.15376	5707.275
2360.98161	5720.775
2363.80768	5717.375
2366.63195	5718.275
2369.45444	5703.475
2372.27514	5684.575
2375.09405	5689.075
2377.91118	5685.875
2380.72652	5658.575
2383.54009	5633.475
2386.35187	5644.575
2389.16188	5587.475
2391.97011	5585.475
2394.77657	5591.075
2397.58125	5575.975
2400.38416	5565.975
2403.18529	5546.175
2405.98466	5527.475
2408.78226	5522.175
2411.57809	5524.875
2414.37216	5519.375
2417.16446	5509.675
2419.955	5494.875
2422.74378	5475.375
2425.5308	5465.875
2428.31606	5480.475
2431.09956	5468.475
2433.88131	5470.275
2436.6613	5471.175
2439.43954	5455.275
2442.21603	5446.075
2444.99077	5440.575
2447.76377	5449.175
2450.53501	5443.475
2453.30451	5433.075
2456.07226	5416.975
2458.83827	5417.975
2461.60254	5424.575
2464.36507	5421.475
2467.12586	5401.575
2469.88492	5385.275
2472.64224	5404.475
2475.39782	5412.175
2478.15167	5390.075
2480.90379	5395.575
2483.65417	5398.675
2486.40283	5371.375
2489.14976	5379.775
2491.89497	5356.475
2494.63845	5375.475
2497.3802	5367.575
2500.12024	5371.975
2502.85855	5356.675
2505.59514	5364.675
2508.33002	5338.275
2511.06318	5328.675
2513.79462	5319.275
2516.52435	5319.275
2519.25237	5284.775
2521.97867	5301.175
2524.70327	5290.675
2527.42616	5262.075
2530.14734	5257.575
2532.86681	5251.375
2535.58458	5225.475
2538.30065	5240.775
2541.01501	5216.975
2543.72768	5222.375
2546.43864	5204.575
2549.14791	5195.675
2551.85548	5199.175
2554.56136	5184.275
2557.26554	5173.975
2559.96803	5173.175
2562.66883	5166.075
2565.36794	5155.275
2568.06536	5142.275
2570.7611	5129.675
2573.45514	5124.675
2576.14751	5138.275
2578.83819	5107.075
2581.52719	5095.875
2584.21451	5091.775
2586.90015	5090.275
2589.58411	5077.875
2592.2664	5065.175
2594.94701	5045.475
2597.62594	5057.175
2600.30321	5040.675
2602.9788	5038.875
2605.65273	4996.975
2608.32498	5015.675
2610.99557	5000.975
2613.66449	5000.075
2616.33175	4984.075
2618.99734	4996.775
2621.66128	4990.475
2624.32355	4970.075
2626.98416	4964.375
2629.64311	4968.875
2632.30041	4970.275
2634.95605	4942.975
2637.61004	4947.675
2640.26238	4941.275
2642.91306	4944.875
2645.56209	4940.775
2648.20948	4927.575
2650.85521	4908.975
2653.4993	4935.475
2656.14175	4912.875
2658.78255	4924.875
2661.42171	4908.475
2664.05923	4924.375
2666.6951	4934.575
2669.32934	4927.475
2671.96194	4928.675
2674.59291	4912.575
2677.22224	4918.575
2679.84993	4920.875
2682.476	4909.175
2685.10043	4912.775
2687.72324	4897.775
2690.34441	4905.075
2692.96396	4887.775
2695.58188	4894.875
2698.19818	4891.575
2700.81285	4901.075
2703.4259	4911.475
2706.03733	4959.875
2708.64714	4926.275
2711.25533	4903.775
2713.86191	4901.775
2716.46687	4892.175
2719.07021	4905.375
2721.67194	4894.375
2724.27206	4875.375
2726.87057	4871.875
2729.46747	4895.975
2732.06276	4888.775
2734.65644	4882.575
2737.24852	4879.075
2739.83899	4860.475
2742.42786	4847.375
2745.01513	4858.975
2747.60079	4846.975
2750.18486	4847.675
2752.76733	4843.575
2755.3482	4835.675
2757.92747	4817.775
2760.50515	4811.275
2763.08123	4806.675
2765.65573	4815.575
2768.22863	4824.775
2770.79994	4792.975
2773.36967	4796.075
2775.9378	4796.375
2778.50435	4784.575
2781.06932	4772.075
2783.6327	4786.075
2786.1945	4763.675
2788.75471	4750.275
2791.31335	4739.475
2793.87041	4740.475
2796.42589	4717.575
2798.97979	4725.175
2801.53212	4709.975
2804.08288	4702.875
2806.63206	4689.275
2809.17967	4689.875
2811.72571	4690.675
2814.27018	4689.975
2816.81308	4663.875
2819.35442	4670.275
2821.89419	4659.275
2824.43239	4636.375
2826.96904	4637.975
2829.50412	4661.075
2832.03763	4642.575
2834.56959	4639.975
2837.1	4637.775
2839.62884	4627.275
2842.15613	4640.775
2844.68186	4633.975
2847.20604	4654.675
2849.72867	4651.775
2852.24974	4634.275
2854.76927	4654.575
2857.28724	4652.375
2859.80367	4641.675
2862.31855	4621.775
2864.83189	4613.675
2867.34368	4611.075
2869.85393	4607.275
2872.36264	4608.675
2874.8698	4600.875
2877.37543	4601.975
2879.87952	4614.075
2882.38207	4610.575
2884.88308	4608.775
2887.38256	4612.275
2889.88051	4596.575
2892.37692	4596.975
2894.8718	4589.975
2897.36515	4607.575
2899.85698	4612.675
2902.34727	4610.175
2904.83604	4594.975
2907.32328	4607.375
2909.809	4608.375
2912.29319	4617.175
2914.77587	4616.575
2917.25702	4621.875
2919.73665	4617.275
2922.21476	4631.375
2924.69136	4621.575
2927.16644	4627.675
2929.64	4627.575
2932.11205	4618.875
2934.58258	4602.475
2937.05161	4617.975
2939.51912	4596.875
2941.98513	4601.975
2944.44962	4598.675
2946.91261	4580.375
2949.37409	4591.975
2951.83407	4579.575
2954.29254	4574.775
2956.74951	4557.975
2959.20498	4566.875
2961.65895	4531.075
2964.11142	4530.875
2966.56239	4499.075
2969.01186	4502.575
2971.45984	4480.475
2973.90632	4484.575
2976.35131	4465.175
2978.7948	4439.975
2981.23681	4442.175
2983.67732	4415.675
2986.11635	4415.075
2988.55388	4410.775
2990.98993	4382.075
2993.4245	4388.975
2995.85758	4380.775
2998.28917	4348.675
3000.71928	4363.275
3003.14791	4342.275
3005.57506	4357.775
3008.00073	4327.875
3010.42493	4335.575
3012.84764	4317.875
3015.26888	4316.875
3017.68865	4309.875
3020.10694	4312.975
3022.52376	4289.475
3024.9391	4298.875
3027.35298	4278.175
3029.76539	4264.975
3032.17632	4270.375
3034.5858	4250.575
3036.9938	4248.975
3039.40034	4242.375
3041.80542	4227.675
3044.20903	4203.175
3046.61118	4217.975
3049.01187	4209.975
3051.4111	4201.575
3053.80888	4182.975
3056.20519	4184.375
3058.60005	4180.575
3060.99345	4173.775
3063.3854	4169.575
3065.7759	4160.375
3068.16494	4162.075
3070.55254	4146.975
3072.93868	4110.975
3075.32338	4126.875
3077.70662	4134.275
3080.08842	4108.575
3082.46878	4117.375
3084.84769	4099.075
3087.22515	4112.775
3089.60118	4099.775
3091.97576	4090.575
3094.3489	4098.475
3096.72061	4097.775
3099.09087	4091.275
3101.4597	4072.375
3103.82709	4088.875
3106.19305	4084.275
3108.55757	4092.775
3110.92066	4076.175
3113.28232	4077.475
3115.64255	4068.275
3118.00134	4055.075
3120.35871	4043.475
3122.71466	4052.375
3125.06917	4038.675
3127.42226	4031.875
3129.77393	4025.175
3132.12417	4052.475
3134.47299	4045.175
3136.82039	4036.175
3139.16636	4033.275
3141.51092	4052.475
3143.85406	4062.775
3146.19579	4045.575
3148.53609	4046.275
3150.87499	4070.975
3153.21246	4058.575
3155.54853	4075.575
3157.88318	4060.675
3160.21642	4071.775
3162.54826	4068.275
3164.87868	4066.275
3167.2077	4083.475
3169.5353	4067.975
3171.86151	4061.675
3174.18631	4056.075
3176.5097	4074.375
3178.83169	4050.275
3181.15228	4070.375
3183.47147	4045.475
3185.78926	4050.575
3188.10565	4048.575
3190.42065	4043.775
