Data from AgNPs_FTO_APTES_UA_0um_CRN_0.1mM_R6G_10uM_NaF_0.1M_Addition_RamanShift__5__10-17-08-894.txt Node

Date: Tue Dec 21 10:17:08 GMT 2021
User: TCL
Spectrometer: QEP01345
Trigger mode: 4
Integration Time (sec): 7.000000E0
Scans to average: 10
Electric dark correction enabled: true
Nonlinearity correction enabled: false
Boxcar width: 0
XAxis mode: Raman Shifts
Number of Pixels in Spectrum: 1044
>>>>>Begin Spectral Data<<<<<
46.04893	0.25
50.45542	-1.25
54.85868	-0.55
59.25871	0.65
63.6555	18.45
68.04907	22.55
72.43941	24.75
76.82654	24.85
81.21044	31.05
85.59113	29.25
89.96862	30.15
94.34289	32.55
98.71396	29.05
103.08183	34.45
107.4465	34.35
111.80798	34.45
116.16626	32.15
120.52136	31.75
124.87327	32.75
129.222	30.85
133.56755	34.95
137.90993	33.45
142.24913	33.45
146.58517	39.45
150.91804	39.65
155.24774	40.55
159.57429	47.15
163.89768	57.15
168.21792	68.45
172.53501	83.15
176.84895	106.65
181.15975	144.65
185.46741	191.25
189.77193	270.35
194.07331	364.45
198.37157	473.85
202.6667	603.75
206.9587	748.85
211.24758	884.35
215.53334	1040.05
219.81599	1194.65
224.09553	1344.25
228.37195	1505.55
232.64527	1651.35
236.91549	1793.25
241.18261	1923.05
245.44663	2039.65
249.70755	2122.85
253.96539	2188.55
258.22014	2232.55
262.4718	2250.95
266.72039	2238.95
270.96589	2207.15
275.20832	2154.75
279.44768	2077.65
283.68397	2009.25
287.91719	1938.85
292.14735	1871.35
296.37445	1809.15
300.59849	1757.35
304.81948	1711.05
309.03742	1671.95
313.25231	1650.05
317.46415	1609.45
321.67296	1584.75
325.87872	1552.45
330.08145	1535.85
334.28114	1536.95
338.47781	1531.15
342.67145	1523.85
346.86207	1533.75
351.04966	1531.05
355.23424	1537.15
359.4158	1537.15
363.59435	1530.95
367.76989	1521.15
371.94243	1514.65
376.11196	1512.15
380.27849	1497.25
384.44203	1497.75
388.60257	1495.15
392.76012	1495.05
396.91468	1492.75
401.06626	1496.75
405.21485	1502.85
409.36047	1503.85
413.50311	1500.35
417.64277	1496.45
421.77947	1507.65
425.9132	1513.35
430.04396	1520.65
434.17176	1533.35
438.2966	1552.25
442.41849	1569.45
446.53742	1592.65
450.6534	1601.55
454.76644	1619.05
458.87653	1625.55
462.98368	1628.55
467.08789	1635.45
471.18916	1626.75
475.2875	1625.25
479.38291	1626.95
483.4754	1616.95
487.56496	1619.75
491.6516	1622.25
495.73531	1619.15
499.81612	1633.05
503.89401	1625.55
507.96899	1620.25
512.04106	1607.55
516.11023	1598.55
520.1765	1583.65
524.23987	1588.95
528.30034	1570.75
532.35792	1571.55
536.41261	1571.25
540.46441	1552.45
544.51333	1552.95
548.55936	1558.15
552.60252	1556.05
556.64279	1547.85
560.6802	1558.05
564.71473	1563.35
568.7464	1570.25
572.7752	1573.55
576.80114	1572.25
580.82422	1576.15
584.84444	1564.35
588.86181	1553.95
592.87633	1553.85
596.888	1552.75
600.89682	1559.55
604.9028	1573.95
608.90594	1626.75
612.90624	1722.95
616.90371	1734.55
620.89834	1657.65
624.89015	1613.75
628.87913	1612.65
632.86528	1639.25
636.84862	1651.25
640.82913	1680.35
644.80683	1703.85
648.78172	1732.95
652.75379	1751.95
656.72306	1723.45
660.68952	1712.25
664.65319	1703.65
668.61405	1747.45
672.57211	1806.15
676.52738	1929.15
680.47986	2045.65
684.42955	2120.05
688.37646	2094.25
692.32058	2023.75
696.26192	1924.65
700.20048	1873.35
704.13626	1823.15
708.06928	1795.65
711.99952	1782.25
715.927	1753.25
719.85171	1743.75
723.77365	1741.55
727.69284	1758.65
731.60928	1762.05
735.52295	1765.25
739.43388	1736.75
743.34206	1721.05
747.24749	1719.05
751.15017	1712.05
755.05012	1708.35
758.94733	1725.65
762.8418	1729.95
766.73354	1736.25
770.62254	1774.95
774.50882	1772.95
778.39237	1766.65
782.27321	1714.25
786.15132	1681.55
790.02671	1672.25
793.89938	1661.15
797.76935	1663.65
801.6366	1678.15
805.50115	1679.75
809.36299	1693.15
813.22213	1678.05
817.07857	1673.75
820.93231	1659.35
824.78336	1650.85
828.63172	1647.25
832.47738	1639.35
836.32036	1636.75
840.16066	1628.85
843.99827	1618.85
847.8332	1619.65
851.66546	1618.15
855.49504	1608.15
859.32195	1609.55
863.1462	1617.15
866.96777	1628.15
870.78668	1639.35
874.60293	1654.55
878.41652	1648.15
882.22745	1651.55
886.03573	1658.75
889.84136	1671.45
893.64433	1670.75
897.44466	1680.05
901.24235	1691.65
905.0374	1699.25
908.8298	1709.55
912.61957	1741.85
916.40671	1785.35
920.19121	1847.35
923.97308	1909.55
927.75233	1966.15
931.52895	1987.25
935.30295	1980.95
939.07433	1946.25
942.84309	1901.25
946.60924	1862.85
950.37278	1824.45
954.13371	1806.95
957.89203	1783.05
961.64774	1760.55
965.40086	1741.55
969.15137	1738.85
972.89929	1713.55
976.64461	1686.35
980.38733	1681.15
984.12747	1654.75
987.86502	1653.85
991.59999	1648.25
995.33237	1645.05
999.06217	1641.35
1002.78939	1644.35
1006.51404	1654.55
1010.23611	1659.65
1013.95561	1659.25
1017.67255	1683.45
1021.38692	1671.85
1025.09872	1692.15
1028.80796	1693.65
1032.51465	1702.65
1036.21877	1700.55
1039.92035	1724.35
1043.61937	1715.15
1047.31584	1733.05
1051.00976	1738.75
1054.70114	1732.25
1058.38998	1704.05
1062.07627	1691.95
1065.76003	1667.55
1069.44126	1639.85
1073.11995	1613.25
1076.79611	1595.55
1080.46974	1569.25
1084.14085	1567.45
1087.80943	1559.05
1091.47549	1535.85
1095.13903	1531.35
1098.80005	1529.45
1102.45857	1510.75
1106.11456	1503.95
1109.76805	1498.85
1113.41903	1511.95
1117.06751	1516.95
1120.71348	1521.25
1124.35696	1545.45
1127.99793	1570.35
1131.63641	1586.05
1135.2724	1590.95
1138.90589	1580.35
1142.5369	1580.95
1146.16542	1569.55
1149.79145	1573.25
1153.415	1564.35
1157.03607	1553.05
1160.65467	1550.45
1164.27079	1554.75
1167.88443	1551.25
1171.49561	1578.75
1175.10432	1598.45
1178.71056	1625.55
1182.31434	1653.45
1185.91565	1667.15
1189.51451	1663.45
1193.11091	1649.05
1196.70485	1630.85
1200.29634	1625.15
1203.88538	1611.85
1207.47197	1587.05
1211.05612	1591.45
1214.63782	1580.85
1218.21708	1590.05
1221.79391	1593.45
1225.36829	1603.65
1228.94024	1599.35
1232.50976	1634.05
1236.07685	1634.65
1239.6415	1645.75
1243.20374	1664.25
1246.76355	1671.35
1250.32093	1685.85
1253.8759	1698.15
1257.42845	1719.25
1260.97859	1731.05
1264.52631	1743.55
1268.07163	1754.25
1271.61453	1759.45
1275.15503	1770.85
1278.69312	1793.85
1282.22882	1803.55
1285.76211	1830.15
1289.29301	1855.75
1292.82151	1878.85
1296.34761	1916.55
1299.87133	1950.25
1303.39266	1979.85
1306.9116	2038.35
1310.42815	2073.45
1313.94233	2089.55
1317.45412	2088.95
1320.96354	2050.85
1324.47058	2034.05
1327.97525	2006.05
1331.47754	2000.95
1334.97747	2002.85
1338.47502	2026.55
1341.97022	2061.45
1345.46305	2104.05
1348.95352	2158.45
1352.44163	2204.45
1355.92738	2280.65
1359.41078	2382.95
1362.89183	2448.05
1366.37053	2478.85
1369.84688	2429.05
1373.32088	2334.55
1376.79254	2277.85
1380.26186	2233.05
1383.72883	2218.45
1387.19347	2199.65
1390.65578	2168.35
1394.11575	2171.85
1397.57339	2161.45
1401.0287	2149.35
1404.48168	2154.15
1407.93234	2161.95
1411.38068	2192.85
1414.82669	2212.75
1418.27039	2251.65
1421.71177	2268.25
1425.15083	2246.15
1428.58758	2200.85
1432.02203	2141.55
1435.45416	2084.05
1438.88399	2061.35
1442.31151	2047.55
1445.73673	2041.35
1449.15965	2038.65
1452.58027	2039.95
1455.9986	2016.35
1459.41463	2013.35
1462.82837	2014.75
1466.23982	2007.55
1469.64898	2000.85
1473.05586	1994.35
1476.46045	1984.25
1479.86276	1966.25
1483.26279	1950.45
1486.66054	1947.25
1490.05602	1936.85
1493.44922	1920.85
1496.84016	1926.25
1500.22882	1936.75
1503.61521	1956.75
1506.99934	1991.65
1510.38121	2039.35
1513.76081	2043.75
1517.13816	2009.25
1520.51324	1965.55
1523.88607	1910.15
1527.25665	1864.05
1530.62498	1840.65
1533.99105	1833.15
1537.35488	1824.75
1540.71647	1819.05
1544.07581	1820.25
1547.4329	1812.45
1550.78776	1816.55
1554.14038	1822.65
1557.49077	1825.95
1560.83892	1809.05
1564.18484	1804.95
1567.52853	1800.85
1570.86999	1797.75
1574.20922	1777.55
1577.54624	1765.25
1580.88103	1740.55
1584.2136	1705.75
1587.54395	1678.55
1590.87208	1665.65
1594.19801	1651.65
1597.52172	1648.15
1600.84321	1643.85
1604.16251	1627.65
1607.47959	1623.15
1610.79447	1609.45
1614.10715	1602.85
1617.41763	1596.45
1620.7259	1592.35
1624.03199	1590.35
1627.33587	1577.35
1630.63757	1585.05
1633.93707	1586.45
1637.23439	1578.15
1640.52951	1584.15
1643.82246	1583.65
1647.11321	1602.75
1650.40179	1609.35
1653.68819	1599.75
1656.97241	1556.45
1660.25446	1492.35
1663.53433	1445.85
1666.81203	1398.55
1670.08756	1364.85
1673.36092	1330.25
1676.63211	1311.95
1679.90115	1289.85
1683.16801	1267.35
1686.43272	1246.35
1689.69527	1231.95
1692.95567	1202.65
1696.2139	1183.65
1699.46999	1164.65
1702.72392	1157.35
1705.97571	1140.85
1709.22535	1128.75
1712.47284	1124.05
1715.71819	1123.35
1718.96139	1126.75
1722.20246	1111.85
1725.44139	1103.25
1728.67818	1104.15
1731.91284	1111.85
1735.14537	1106.05
1738.37576	1097.35
1741.60403	1105.15
1744.83017	1117.95
1748.05418	1140.65
1751.27607	1151.65
1754.49584	1184.95
1757.71349	1194.15
1760.92903	1199.65
1764.14244	1188.15
1767.35375	1154.75
1770.56294	1106.45
1773.77002	1080.75
1776.97499	1055.35
1780.17785	1036.95
1783.37861	1025.95
1786.57727	1015.55
1789.77382	1010.25
1792.96828	993.65
1796.16064	977.55
1799.3509	969.55
1802.53907	960.45
1805.72514	949.95
1808.90913	945.85
1812.09102	939.55
1815.27083	927.35
1818.44856	931.25
1821.6242	925.25
1824.79776	922.85
1827.96924	916.35
1831.13864	920.55
1834.30597	916.55
1837.47122	916.95
1840.6344	911.65
1843.7955	907.85
1846.95454	906.75
1850.11151	904.95
1853.26642	903.85
1856.41926	907.65
1859.57004	903.15
1862.71876	901.85
1865.86542	898.55
1869.01003	899.75
1872.15258	901.05
1875.29308	900.65
1878.43152	893.65
1881.56792	893.25
1884.70227	886.45
1887.83457	895.15
1890.96482	887.65
1894.09304	886.95
1897.21921	891.25
1900.34335	879.85
1903.46544	873.45
1906.58551	886.55
1909.70353	877.65
1912.81953	878.85
1915.93349	871.75
1919.04543	872.25
1922.15534	868.95
1925.26322	869.65
1928.36908	866.65
1931.47292	867.15
1934.57473	867.55
1937.67453	863.45
1940.77232	854.65
1943.86808	858.95
1946.96184	851.85
1950.05358	857.05
1953.14331	848.95
1956.23103	848.75
1959.31675	842.65
1962.40046	838.85
1965.48217	836.75
1968.56188	832.85
1971.63959	828.65
1974.7153	831.55
1977.78901	825.65
1980.86073	815.35
1983.93046	821.15
1986.99819	815.35
1990.06394	815.05
1993.1277	816.75
1996.18947	811.15
1999.24925	804.75
2002.30706	808.05
2005.36288	804.85
2008.41672	799.45
2011.46859	794.15
2014.51848	800.25
2017.56639	788.75
2020.61233	794.75
2023.6563	789.95
2026.6983	780.85
2029.73833	780.45
2032.7764	782.65
2035.8125	779.05
2038.84664	779.35
2041.87881	767.25
2044.90903	777.75
2047.93729	772.75
2050.96359	783.25
2053.98794	783.45
2057.01034	770.65
2060.03078	780.85
2063.04927	780.85
2066.06582	778.95
2069.08042	789.75
2072.09307	784.55
2075.10378	788.05
2078.11255	798.65
2081.11938	801.95
2084.12426	812.05
2087.12722	808.05
2090.12824	810.65
2093.12732	813.45
2096.12447	821.75
2099.11969	822.35
2102.11299	825.35
2105.10435	847.35
2108.09379	841.55
2111.08131	839.05
2114.0669	839.35
2117.05057	842.75
2120.03233	832.35
2123.01216	828.05
2125.99008	820.95
2128.96609	816.75
2131.94018	818.15
2134.91236	818.65
2137.88263	808.25
2140.851	803.65
2143.81746	802.45
2146.78201	795.15
2149.74466	789.05
2152.7054	789.95
2155.66425	783.65
2158.6212	773.55
2161.57625	767.15
2164.52941	768.75
2167.48067	755.85
2170.43004	750.65
2173.37752	753.75
2176.32311	750.05
2179.26681	745.85
2182.20863	756.95
2185.14856	751.65
2188.08661	753.35
2191.02278	747.55
2193.95707	749.25
2196.88948	741.15
2199.82001	735.75
2202.74867	739.85
2205.67545	743.85
2208.60037	734.85
2211.52341	731.85
2214.44458	733.85
2217.36388	732.95
2220.28132	733.15
2223.1969	721.25
2226.11061	720.85
2229.02246	723.65
2231.93245	720.15
2234.84058	717.35
2237.74686	719.05
2240.65128	716.65
2243.55385	710.75
2246.45456	716.05
2249.35343	708.05
2252.25044	709.35
2255.14561	705.65
2258.03893	707.35
2260.93041	707.55
2263.82004	703.35
2266.70783	696.55
2269.59378	695.95
2272.4779	698.55
2275.36017	698.65
2278.24061	699.35
2281.11922	700.15
2283.996	696.65
2286.87094	692.75
2289.74405	683.45
2292.61534	682.95
2295.4848	684.35
2298.35243	684.85
2301.21824	680.25
2304.08223	678.85
2306.94439	684.85
2309.80474	676.45
2312.66327	675.65
2315.51999	684.85
2318.37489	681.35
2321.22797	676.55
2324.07925	671.55
2326.92871	679.95
2329.77637	673.35
2332.62222	674.05
2335.46626	674.35
2338.3085	663.75
2341.14893	671.05
2343.98756	661.55
2346.8244	657.05
2349.65943	654.35
2352.49267	663.75
2355.32411	666.45
2358.15376	661.35
2360.98161	654.15
2363.80768	659.35
2366.63195	657.05
2369.45444	656.35
2372.27514	657.95
2375.09405	651.25
2377.91118	659.15
2380.72652	646.65
2383.54009	650.45
2386.35187	651.55
2389.16188	645.25
2391.97011	643.35
2394.77657	643.65
2397.58125	638.45
2400.38416	647.25
2403.18529	636.05
2405.98466	641.95
2408.78226	631.05
2411.57809	639.95
2414.37216	639.05
2417.16446	633.85
2419.955	634.65
2422.74378	636.35
2425.5308	627.35
2428.31606	634.25
2431.09956	629.25
2433.88131	632.25
2436.6613	630.05
2439.43954	625.95
2442.21603	620.15
2444.99077	620.55
2447.76377	624.55
2450.53501	626.45
2453.30451	620.45
2456.07226	629.45
2458.83827	620.85
2461.60254	616.95
2464.36507	618.95
2467.12586	610.35
2469.88492	614.25
2472.64224	607.15
2475.39782	616.35
2478.15167	619.65
2480.90379	618.05
2483.65417	618.65
2486.40283	608.15
2489.14976	607.55
2491.89497	611.65
2494.63845	609.55
2497.3802	616.75
2500.12024	604.45
2502.85855	608.15
2505.59514	606.25
2508.33002	600.25
2511.06318	599.35
2513.79462	604.25
2516.52435	602.65
2519.25237	602.95
2521.97867	603.05
2524.70327	594.25
2527.42616	600.45
2530.14734	593.65
2532.86681	595.15
2535.58458	593.55
2538.30065	594.65
2541.01501	591.15
2543.72768	590.35
2546.43864	594.05
2549.14791	585.85
2551.85548	591.15
2554.56136	587.25
2557.26554	579.25
2559.96803	592.25
2562.66883	579.65
2565.36794	583.45
2568.06536	580.15
2570.7611	581.55
2573.45514	584.75
2576.14751	581.75
2578.83819	576.65
2581.52719	580.75
2584.21451	568.75
2586.90015	569.65
2589.58411	566.95
2592.2664	566.75
2594.94701	571.65
2597.62594	570.65
2600.30321	568.05
2602.9788	566.05
2605.65273	565.55
2608.32498	568.25
2610.99557	562.65
2613.66449	556.55
2616.33175	560.05
2618.99734	555.85
2621.66128	558.85
2624.32355	564.15
2626.98416	562.75
2629.64311	556.85
2632.30041	552.45
2634.95605	559.05
2637.61004	554.55
2640.26238	556.25
2642.91306	553.55
2645.56209	546.15
2648.20948	553.65
2650.85521	552.15
2653.4993	553.45
2656.14175	554.75
2658.78255	559.75
2661.42171	561.25
2664.05923	552.15
2666.6951	558.35
2669.32934	550.75
2671.96194	555.15
2674.59291	555.95
2677.22224	557.15
2679.84993	559.55
2682.476	558.75
2685.10043	553.75
2687.72324	562.05
2690.34441	554.25
2692.96396	559.25
2695.58188	563.55
2698.19818	561.85
2700.81285	565.35
2703.4259	559.95
2706.03733	569.15
2708.64714	561.45
2711.25533	561.45
2713.86191	564.25
2716.46687	559.55
2719.07021	560.65
2721.67194	558.95
2724.27206	567.75
2726.87057	566.25
2729.46747	563.35
2732.06276	559.35
2734.65644	558.75
2737.24852	560.75
2739.83899	560.75
2742.42786	558.05
2745.01513	560.65
2747.60079	567.85
2750.18486	559.55
2752.76733	553.45
2755.3482	556.45
2757.92747	560.85
2760.50515	557.85
2763.08123	551.05
2765.65573	551.05
2768.22863	552.65
2770.79994	549.75
2773.36967	555.35
2775.9378	554.55
2778.50435	551.25
2781.06932	550.35
2783.6327	549.35
2786.1945	548.75
2788.75471	550.55
2791.31335	545.85
2793.87041	554.25
2796.42589	547.05
2798.97979	550.95
2801.53212	556.05
2804.08288	555.55
2806.63206	556.25
2809.17967	553.65
2811.72571	559.95
2814.27018	563.65
2816.81308	556.65
2819.35442	557.85
2821.89419	561.35
2824.43239	562.35
2826.96904	556.75
2829.50412	563.05
2832.03763	561.35
2834.56959	558.35
2837.1	562.75
2839.62884	559.85
2842.15613	561.35
2844.68186	563.75
2847.20604	568.25
2849.72867	572.55
2852.24974	568.75
2854.76927	568.55
2857.28724	576.45
2859.80367	574.15
2862.31855	569.45
2864.83189	573.85
2867.34368	579.65
2869.85393	574.65
2872.36264	574.75
2874.8698	581.65
2877.37543	589.85
2879.87952	597.15
2882.38207	595.45
2884.88308	606.85
2887.38256	607.85
2889.88051	620.05
2892.37692	622.75
2894.8718	625.75
2897.36515	637.95
2899.85698	646.85
2902.34727	650.25
2904.83604	664.75
2907.32328	667.55
2909.809	680.25
2912.29319	690.75
2914.77587	701.75
2917.25702	714.95
2919.73665	726.15
2922.21476	732.25
2924.69136	740.35
2927.16644	750.75
2929.64	762.85
2932.11205	770.75
2934.58258	776.25
2937.05161	789.25
2939.51912	799.65
2941.98513	798.45
2944.44962	802.65
2946.91261	795.25
2949.37409	794.75
2951.83407	783.85
2954.29254	767.65
2956.74951	767.55
2959.20498	752.25
2961.65895	733.65
2964.11142	724.95
2966.56239	697.75
2969.01186	686.35
2971.45984	677.65
2973.90632	667.55
2976.35131	655.75
2978.7948	647.85
2981.23681	642.45
2983.67732	636.45
2986.11635	637.15
2988.55388	624.95
2990.98993	618.45
2993.4245	621.25
2995.85758	621.15
2998.28917	615.45
3000.71928	613.25
3003.14791	619.45
3005.57506	622.25
3008.00073	618.25
3010.42493	607.65
3012.84764	610.55
3015.26888	613.75
3017.68865	617.65
3020.10694	600.85
3022.52376	614.95
3024.9391	596.65
3027.35298	596.05
3029.76539	595.95
3032.17632	595.25
3034.5858	585.85
3036.9938	584.65
3039.40034	580.35
3041.80542	579.35
3044.20903	577.55
3046.61118	576.85
3049.01187	569.35
3051.4111	569.45
3053.80888	566.95
3056.20519	566.05
3058.60005	569.55
3060.99345	567.75
3063.3854	564.95
3065.7759	568.55
3068.16494	564.65
3070.55254	566.95
3072.93868	570.15
3075.32338	571.55
3077.70662	572.05
3080.08842	570.85
3082.46878	571.85
3084.84769	576.95
3087.22515	580.65
3089.60118	585.35
3091.97576	589.05
3094.3489	585.95
3096.72061	594.95
3099.09087	593.75
3101.4597	597.35
3103.82709	607.75
3106.19305	602.15
3108.55757	609.45
3110.92066	611.25
3113.28232	608.65
3115.64255	615.35
3118.00134	618.55
3120.35871	617.85
3122.71466	621.15
3125.06917	625.55
3127.42226	628.95
3129.77393	637.75
3132.12417	638.85
3134.47299	643.55
3136.82039	648.95
3139.16636	646.15
3141.51092	657.35
3143.85406	659.15
3146.19579	663.65
3148.53609	669.15
3150.87499	672.55
3153.21246	676.75
3155.54853	682.15
3157.88318	687.85
3160.21642	691.65
3162.54826	693.25
3164.87868	695.55
3167.2077	706.75
3169.5353	709.95
3171.86151	707.95
3174.18631	716.35
3176.5097	718.65
3178.83169	722.35
3181.15228	734.15
3183.47147	733.95
3185.78926	733.95
3188.10565	738.05
3190.42065	739.35
3192.73424	745.55
3195.04645	748.85
3197.35725	755.65
3199.66667	756.55
3201.97469	758.95
3204.28132	755.95
3206.58656	764.65
3208.8904	768.75
3211.19287	766.65
3213.49394	778.95
3215.79363	773.45
3218.09193	778.25
3220.38884	782.05
3222.68438	784.85
3224.97853	776.95
3227.2713	789.55
3229.56269	788.25
3231.8527	793.15
3234.14133	787.65
3236.42858	786.65
3238.71446	788.55
3240.99896	794.15
3243.28209	795.65
3245.56384	800.05
3247.84423	796.85
3250.12324	789.95
3252.40088	798.25
3254.67715	805.15
3256.95205	796.35
3259.22558	794.75
3261.49775	796.95
3263.76855	790.85
3266.03799	795.25
3268.30606	798.95
3270.57277	791.35
3272.83812	789.65
3275.10211	801.15
3277.36474	801.05
3279.62601	801.95
3281.88593	798.95
3284.14448	795.25
3286.40168	800.55
3288.65753	802.95
3290.91202	799.75
3293.16516	793.65
3295.41695	789.75
3297.66738	789.15
3299.91647	785.05
3302.16421	786.85
3304.4106	782.05
3306.65564	779.55
3308.89933	777.05
3311.14169	778.15
3313.38269	772.05
3315.62236	758.25
3317.86068	761.85
3320.09766	753.65
3322.3333	759.55
3324.5676	752.35
3326.80056	741.25
3329.03219	736.05
3331.26248	0.55
3333.49143	0.25
3335.71905	-0.25
