Data from AgNPs_FTO_APTES_UA_20um_CRN_0.1mM_R6G_10uM_NaF_0.1M_Addition_RamanShift__8__14-25-39-179.txt Node

Date: Tue Dec 21 14:25:39 GMT 2021
User: TCL
Spectrometer: QEP01345
Trigger mode: 4
Integration Time (sec): 7.000000E0
Scans to average: 10
Electric dark correction enabled: true
Nonlinearity correction enabled: false
Boxcar width: 0
XAxis mode: Raman Shifts
Number of Pixels in Spectrum: 1044
>>>>>Begin Spectral Data<<<<<
46.04893	-0.5875
50.45542	-1.7875
54.85868	-1.0875
59.25871	0.1125
63.6555	42.6125
68.04907	47.7125
72.43941	49.4125
76.82654	52.1125
81.21044	59.2125
85.59113	55.8125
89.96862	57.6125
94.34289	60.9125
98.71396	58.4125
103.08183	64.4125
107.4465	68.7125
111.80798	70.2125
116.16626	71.6125
120.52136	72.6125
124.87327	72.5125
129.222	75.9125
133.56755	81.2125
137.90993	87.0125
142.24913	89.3125
146.58517	102.5125
150.91804	118.6125
155.24774	136.0125
159.57429	165.8125
163.89768	208.9125
168.21792	275.7125
172.53501	368.9125
176.84895	505.8125
181.15975	713.6125
185.46741	998.7125
189.77193	1374.9125
194.07331	1844.6125
198.37157	2381.6125
202.6667	2957.0125
206.9587	3524.5125
211.24758	4101.7125
215.53334	4667.1125
219.81599	5263.7125
224.09553	5920.1125
228.37195	6660.2125
232.64527	7457.2125
236.91549	8275.3125
241.18261	9130.9125
245.44663	9882.9125
249.70755	10554.3125
253.96539	11113.0125
258.22014	11606.5125
262.4718	11951.3125
266.72039	12233.9125
270.96589	12390.7125
275.20832	12369.7125
279.44768	12282.8125
283.68397	12141.5125
287.91719	12071.0125
292.14735	12001.4125
296.37445	12012.4125
300.59849	12070.8125
304.81948	12137.9125
309.03742	12212.3125
313.25231	12101.4125
317.46415	11866.8125
321.67296	11509.5125
325.87872	11193.2125
330.08145	11013.9125
334.28114	10936.1125
338.47781	11015.7125
342.67145	11136.0125
346.86207	11339.5125
351.04966	11502.0125
355.23424	11719.7125
359.4158	11902.3125
363.59435	12061.8125
367.76989	12147.8125
371.94243	12168.8125
376.11196	12175.6125
380.27849	12221.3125
384.44203	12295.2125
388.60257	12379.9125
392.76012	12519.8125
396.91468	12711.2125
401.06626	12916.6125
405.21485	13058.1125
409.36047	12983.7125
413.50311	12764.1125
417.64277	12555.7125
421.77947	12487.6125
425.9132	12505.3125
430.04396	12553.6125
434.17176	12570.6125
438.2966	12649.1125
442.41849	12794.2125
446.53742	13058.8125
450.6534	13355.5125
454.76644	13600.7125
458.87653	13638.3125
462.98368	13629.9125
467.08789	13564.8125
471.18916	13476.4125
475.2875	13350.5125
479.38291	13303.7125
483.4754	13231.8125
487.56496	13083.9125
491.6516	12884.7125
495.73531	12694.4125
499.81612	12595.3125
503.89401	12625.1125
507.96899	12655.2125
512.04106	12617.2125
516.11023	12584.3125
520.1765	12458.8125
524.23987	12367.1125
528.30034	12279.9125
532.35792	12159.5125
536.41261	12048.1125
540.46441	11911.4125
544.51333	11887.5125
548.55936	12004.7125
552.60252	12253.4125
556.64279	12560.7125
560.6802	12749.9125
564.71473	12830.3125
568.7464	13062.5125
572.7752	13475.8125
576.80114	13794.2125
580.82422	14128.4125
584.84444	14459.8125
588.86181	14853.5125
592.87633	15162.0125
596.888	15095.3125
600.89682	14651.9125
604.9028	14606.4125
608.90594	15619.8125
612.90624	16961.5125
616.90371	16117.2125
620.89834	13464.8125
624.89015	12170.9125
628.87913	11993.2125
632.86528	12143.3125
636.84862	12277.4125
640.82913	12151.6125
644.80683	11830.7125
648.78172	11596.5125
652.75379	11532.1125
656.72306	11617.9125
660.68952	11794.2125
664.65319	11771.2125
668.61405	11570.0125
672.57211	11493.3125
676.52738	11605.1125
680.47986	11640.6125
684.42955	11560.1125
688.37646	11486.4125
692.32058	11439.5125
696.26192	11520.8125
700.20048	11619.9125
704.13626	11726.3125
708.06928	11794.3125
711.99952	11755.0125
715.927	11708.4125
719.85171	11703.6125
723.77365	11664.3125
727.69284	11512.5125
731.60928	11372.4125
735.52295	11320.1125
739.43388	11308.5125
743.34206	11364.4125
747.24749	11374.9125
751.15017	11501.0125
755.05012	11654.0125
758.94733	12002.9125
762.8418	12610.8125
766.73354	13611.5125
770.62254	14650.8125
774.50882	14915.8125
778.39237	14293.5125
782.27321	13231.8125
786.15132	12321.6125
790.02671	11726.4125
793.89938	11406.2125
797.76935	11269.7125
801.6366	11207.3125
805.50115	11154.4125
809.36299	11102.7125
813.22213	10999.6125
817.07857	10979.6125
820.93231	10926.2125
824.78336	10864.3125
828.63172	10833.3125
832.47738	10759.2125
836.32036	10747.9125
840.16066	10725.4125
843.99827	10700.1125
847.8332	10695.3125
851.66546	10671.3125
855.49504	10649.0125
859.32195	10649.0125
863.1462	10616.8125
866.96777	10622.1125
870.78668	10633.4125
874.60293	10629.7125
878.41652	10627.2125
882.22745	10648.5125
886.03573	10675.7125
889.84136	10698.0125
893.64433	10702.3125
897.44466	10625.8125
901.24235	10573.5125
905.0374	10525.7125
908.8298	10474.5125
912.61957	10469.9125
916.40671	10558.7125
920.19121	10654.9125
923.97308	10788.0125
927.75233	10786.3125
931.52895	10720.6125
935.30295	10555.7125
939.07433	10343.2125
942.84309	10160.2125
946.60924	10073.6125
950.37278	10002.3125
954.13371	10011.5125
957.89203	9990.2125
961.64774	9986.0125
965.40086	9993.2125
969.15137	9948.1125
972.89929	9917.7125
976.64461	9840.9125
980.38733	9827.2125
984.12747	9795.1125
987.86502	9835.9125
991.59999	9860.2125
995.33237	9929.8125
999.06217	10047.6125
1002.78939	10206.2125
1006.51404	10406.3125
1010.23611	10582.8125
1013.95561	10706.0125
1017.67255	10751.0125
1021.38692	10695.7125
1025.09872	10549.2125
1028.80796	10380.9125
1032.51465	10317.8125
1036.21877	10320.6125
1039.92035	10409.0125
1043.61937	10456.2125
1047.31584	10513.2125
1051.00976	10530.3125
1054.70114	10585.0125
1058.38998	10633.4125
1062.07627	10698.6125
1065.76003	10826.5125
1069.44126	10994.3125
1073.11995	11170.0125
1076.79611	11315.3125
1080.46974	11382.3125
1084.14085	11409.8125
1087.80943	11536.9125
1091.47549	11633.2125
1095.13903	11682.7125
1098.80005	11549.4125
1102.45857	11246.5125
1106.11456	10991.7125
1109.76805	10816.3125
1113.41903	10820.5125
1117.06751	10861.9125
1120.71348	11023.4125
1124.35696	11256.7125
1127.99793	11477.2125
1131.63641	11591.4125
1135.2724	11547.4125
1138.90589	11451.4125
1142.5369	11396.8125
1146.16542	11406.5125
1149.79145	11479.9125
1153.415	11539.6125
1157.03607	11674.0125
1160.65467	11924.3125
1164.27079	12409.2125
1167.88443	13042.8125
1171.49561	13805.2125
1175.10432	14806.8125
1178.71056	16036.7125
1182.31434	17151.4125
1185.91565	17716.5125
1189.51451	17702.1125
1193.11091	17264.8125
1196.70485	16549.4125
1200.29634	15833.3125
1203.88538	15234.6125
1207.47197	14824.9125
1211.05612	14494.6125
1214.63782	14156.2125
1218.21708	13789.1125
1221.79391	13444.5125
1225.36829	13200.2125
1228.94024	13085.6125
1232.50976	12985.6125
1236.07685	12835.1125
1239.6415	12737.8125
1243.20374	12733.3125
1246.76355	12768.4125
1250.32093	12918.8125
1253.8759	13183.2125
1257.42845	13522.4125
1260.97859	13926.7125
1264.52631	14318.2125
1268.07163	14679.9125
1271.61453	15088.2125
1275.15503	15425.9125
1278.69312	15834.8125
1282.22882	16272.3125
1285.76211	16837.8125
1289.29301	17488.2125
1292.82151	18274.7125
1296.34761	19177.0125
1299.87133	20196.6125
1303.39266	21231.1125
1306.9116	22177.4125
1310.42815	23049.2125
1313.94233	23533.9125
1317.45412	23418.2125
1320.96354	22990.6125
1324.47058	22552.4125
1327.97525	22236.8125
1331.47754	21934.1125
1334.97747	21726.1125
1338.47502	21561.0125
1341.97022	21391.2125
1345.46305	21357.6125
1348.95352	21289.0125
1352.44163	21482.8125
1355.92738	21991.0125
1359.41078	22895.2125
1362.89183	23834.5125
1366.37053	23711.5125
1369.84688	21969.3125
1373.32088	19527.0125
1376.79254	17738.6125
1380.26186	16941.2125
1383.72883	16766.8125
1387.19347	16613.9125
1390.65578	16405.4125
1394.11575	16234.3125
1397.57339	16258.5125
1401.0287	16323.6125
1404.48168	16393.9125
1407.93234	16256.5125
1411.38068	15910.8125
1414.82669	15366.0125
1418.27039	14823.1125
1421.71177	14284.8125
1425.15083	13800.9125
1428.58758	13597.0125
1432.02203	13619.4125
1435.45416	13915.1125
1438.88399	14215.1125
1442.31151	14434.0125
1445.73673	14607.4125
1449.15965	14821.3125
1452.58027	14949.8125
1455.9986	15007.5125
1459.41463	15126.8125
1462.82837	15291.0125
1466.23982	15592.8125
1469.64898	15842.9125
1473.05586	15985.8125
1476.46045	16044.9125
1479.86276	16017.7125
1483.26279	16010.3125
1486.66054	16047.7125
1490.05602	16270.3125
1493.44922	16635.5125
1496.84016	17091.3125
1500.22882	17806.0125
1503.61521	18689.5125
1506.99934	19600.4125
1510.38121	20370.0125
1513.76081	20494.1125
1517.13816	19915.9125
1520.51324	18969.4125
1523.88607	18145.2125
1527.25665	17648.5125
1530.62498	17415.1125
1533.99105	17156.1125
1537.35488	16840.2125
1540.71647	16381.1125
1544.07581	15879.5125
1547.4329	15335.7125
1550.78776	14924.2125
1554.14038	14658.9125
1557.49077	14559.9125
1560.83892	14585.2125
1564.18484	14698.5125
1567.52853	14862.3125
1570.86999	15123.6125
1574.20922	15403.9125
1577.54624	15636.8125
1580.88103	15588.8125
1584.2136	15428.7125
1587.54395	15485.9125
1590.87208	15870.1125
1594.19801	16567.1125
1597.52172	17357.7125
1600.84321	17598.6125
1604.16251	16950.9125
1607.47959	15802.5125
1610.79447	14595.0125
1614.10715	13421.2125
1617.41763	12465.8125
1620.7259	11798.1125
1624.03199	11416.6125
1627.33587	11327.7125
1630.63757	11588.1125
1633.93707	12214.8125
1637.23439	13320.0125
1640.52951	15033.3125
1643.82246	17175.3125
1647.11321	19137.3125
1650.40179	19960.3125
1653.68819	19015.3125
1656.97241	16761.3125
1660.25446	14277.9125
1663.53433	12346.1125
1666.81203	11053.6125
1670.08756	10243.8125
1673.36092	9726.7125
1676.63211	9405.9125
1679.90115	9178.2125
1683.16801	9015.6125
1686.43272	8863.1125
1689.69527	8756.4125
1692.95567	8650.6125
1696.2139	8603.3125
1699.46999	8578.2125
1702.72392	8529.3125
1705.97571	8488.2125
1709.22535	8423.6125
1712.47284	8379.1125
1715.71819	8332.2125
1718.96139	8338.1125
1722.20246	8278.5125
1725.44139	8262.2125
1728.67818	8215.9125
1731.91284	8143.1125
1735.14537	8098.8125
1738.37576	8069.2125
1741.60403	8033.6125
1744.83017	8005.0125
1748.05418	7987.5125
1751.27607	7969.5125
1754.49584	7988.9125
1757.71349	8000.6125
1760.92903	7982.4125
1764.14244	7962.0125
1767.35375	7963.3125
1770.56294	7907.3125
1773.77002	7861.5125
1776.97499	7846.3125
1780.17785	7808.3125
1783.37861	7773.0125
1786.57727	7740.8125
1789.77382	7711.3125
1792.96828	7698.2125
1796.16064	7660.9125
1799.3509	7640.2125
1802.53907	7633.6125
1805.72514	7584.4125
1808.90913	7572.7125
1812.09102	7525.9125
1815.27083	7536.1125
1818.44856	7523.3125
1821.6242	7496.0125
1824.79776	7518.8125
1827.96924	7484.9125
1831.13864	7478.2125
1834.30597	7471.9125
1837.47122	7473.2125
1840.6344	7444.9125
1843.7955	7469.3125
1846.95454	7450.0125
1850.11151	7429.8125
1853.26642	7430.5125
1856.41926	7434.1125
1859.57004	7425.6125
1862.71876	7388.9125
1865.86542	7389.0125
1869.01003	7379.4125
1872.15258	7348.7125
1875.29308	7342.0125
1878.43152	7327.1125
1881.56792	7313.1125
1884.70227	7297.5125
1887.83457	7303.4125
1890.96482	7280.8125
1894.09304	7245.0125
1897.21921	7254.2125
1900.34335	7241.8125
1903.46544	7234.7125
1906.58551	7238.8125
1909.70353	7193.3125
1912.81953	7171.0125
1915.93349	7182.2125
1919.04543	7158.9125
1922.15534	7128.9125
1925.26322	7114.3125
1928.36908	7095.3125
1931.47292	7060.7125
1934.57473	7042.3125
1937.67453	7023.4125
1940.77232	7004.3125
1943.86808	6970.4125
1946.96184	6952.6125
1950.05358	6936.7125
1953.14331	6908.2125
1956.23103	6909.6125
1959.31675	6901.5125
1962.40046	6853.3125
1965.48217	6842.2125
1968.56188	6818.4125
1971.63959	6787.3125
1974.7153	6766.9125
1977.78901	6750.4125
1980.86073	6737.5125
1983.93046	6712.5125
1986.99819	6680.9125
1990.06394	6657.0125
1993.1277	6629.5125
1996.18947	6611.9125
1999.24925	6585.6125
2002.30706	6560.3125
2005.36288	6540.0125
2008.41672	6522.0125
2011.46859	6490.3125
2014.51848	6470.1125
2017.56639	6463.5125
2020.61233	6431.7125
2023.6563	6417.2125
2026.6983	6387.3125
2029.73833	6390.6125
2032.7764	6385.8125
2035.8125	6355.3125
2038.84664	6355.6125
2041.87881	6330.6125
2044.90903	6290.7125
2047.93729	6292.8125
2050.96359	6280.6125
2053.98794	6280.4125
2057.01034	6269.9125
2060.03078	6265.4125
2063.04927	6249.2125
2066.06582	6230.4125
2069.08042	6241.7125
2072.09307	6231.2125
2075.10378	6218.8125
2078.11255	6210.6125
2081.11938	6220.2125
2084.12426	6203.0125
2087.12722	6211.0125
2090.12824	6206.1125
2093.12732	6206.6125
2096.12447	6209.1125
2099.11969	6184.8125
2102.11299	6195.9125
2105.10435	6183.2125
2108.09379	6191.7125
2111.08131	6201.1125
2114.0669	6188.7125
2117.05057	6198.8125
2120.03233	6213.5125
2123.01216	6199.8125
2125.99008	6199.0125
2128.96609	6203.2125
2131.94018	6230.9125
2134.91236	6201.8125
2137.88263	6192.7125
2140.851	6201.2125
2143.81746	6229.7125
2146.78201	6207.8125
2149.74466	6183.5125
2152.7054	6199.3125
2155.66425	6174.4125
2158.6212	6174.9125
2161.57625	6147.9125
2164.52941	6172.1125
2167.48067	6175.3125
2170.43004	6153.4125
2173.37752	6158.2125
2176.32311	6136.9125
2179.26681	6144.9125
2182.20863	6148.4125
2185.14856	6143.8125
2188.08661	6133.1125
2191.02278	6139.8125
2193.95707	6124.7125
2196.88948	6116.8125
2199.82001	6126.1125
2202.74867	6106.2125
2205.67545	6094.0125
2208.60037	6083.3125
2211.52341	6070.2125
2214.44458	6088.8125
2217.36388	6048.7125
2220.28132	6030.6125
2223.1969	6033.7125
2226.11061	6015.3125
2229.02246	5994.4125
2231.93245	5983.5125
2234.84058	5978.7125
2237.74686	5971.8125
2240.65128	5947.2125
2243.55385	5938.2125
2246.45456	5924.0125
2249.35343	5914.5125
2252.25044	5907.5125
2255.14561	5875.7125
2258.03893	5892.4125
2260.93041	5882.2125
2263.82004	5844.4125
2266.70783	5846.1125
2269.59378	5833.9125
2272.4779	5831.3125
2275.36017	5825.8125
2278.24061	5778.6125
2281.11922	5776.4125
2283.996	5764.1125
2286.87094	5773.3125
2289.74405	5735.7125
2292.61534	5736.4125
2295.4848	5722.1125
2298.35243	5706.6125
2301.21824	5706.4125
2304.08223	5692.2125
2306.94439	5694.9125
2309.80474	5688.8125
2312.66327	5684.8125
2315.51999	5679.0125
2318.37489	5665.6125
2321.22797	5660.7125
2324.07925	5658.8125
2326.92871	5633.5125
2329.77637	5650.2125
2332.62222	5636.9125
2335.46626	5638.1125
2338.3085	5616.7125
2341.14893	5615.1125
2343.98756	5597.1125
2346.8244	5608.1125
2349.65943	5595.9125
2352.49267	5587.8125
2355.32411	5591.7125
2358.15376	5588.3125
2360.98161	5592.4125
2363.80768	5590.0125
2366.63195	5603.4125
2369.45444	5575.4125
2372.27514	5573.8125
2375.09405	5563.1125
2377.91118	5571.1125
2380.72652	5529.8125
2383.54009	5512.6125
2386.35187	5509.8125
2389.16188	5471.9125
2391.97011	5467.8125
2394.77657	5463.4125
2397.58125	5442.8125
2400.38416	5457.5125
2403.18529	5424.9125
2405.98466	5431.8125
2408.78226	5408.9125
2411.57809	5403.0125
2414.37216	5404.7125
2417.16446	5392.9125
2419.955	5375.6125
2422.74378	5380.3125
2425.5308	5366.5125
2428.31606	5379.2125
2431.09956	5362.8125
2433.88131	5354.0125
2436.6613	5362.3125
2439.43954	5353.6125
2442.21603	5350.3125
2444.99077	5340.1125
2447.76377	5347.9125
2450.53501	5349.2125
2453.30451	5333.2125
2456.07226	5336.8125
2458.83827	5328.8125
2461.60254	5315.9125
2464.36507	5338.2125
2467.12586	5313.9125
2469.88492	5311.4125
2472.64224	5329.3125
2475.39782	5306.9125
2478.15167	5326.6125
2480.90379	5320.5125
2483.65417	5303.4125
2486.40283	5303.5125
2489.14976	5303.3125
2491.89497	5294.7125
2494.63845	5309.2125
2497.3802	5288.8125
2500.12024	5287.8125
2502.85855	5274.3125
2505.59514	5275.7125
2508.33002	5265.9125
2511.06318	5274.0125
2513.79462	5248.4125
2516.52435	5254.6125
2519.25237	5230.7125
2521.97867	5241.2125
2524.70327	5224.7125
2527.42616	5217.8125
2530.14734	5197.0125
2532.86681	5195.9125
2535.58458	5202.4125
2538.30065	5187.7125
2541.01501	5190.8125
2543.72768	5164.1125
2546.43864	5164.9125
2549.14791	5135.7125
2551.85548	5154.8125
2554.56136	5145.8125
2557.26554	5124.1125
2559.96803	5125.0125
2562.66883	5127.9125
2565.36794	5134.2125
2568.06536	5106.7125
2570.7611	5098.1125
2573.45514	5086.0125
2576.14751	5083.3125
2578.83819	5097.2125
2581.52719	5079.2125
2584.21451	5051.7125
2586.90015	5052.9125
2589.58411	5058.7125
2592.2664	5044.3125
2594.94701	5046.0125
2597.62594	5036.8125
2600.30321	5029.4125
2602.9788	5027.8125
2605.65273	5004.4125
2608.32498	5000.9125
2610.99557	4996.2125
2613.66449	5008.7125
2616.33175	5011.5125
2618.99734	4986.5125
2621.66128	4996.3125
2624.32355	4982.9125
2626.98416	4981.3125
2629.64311	4971.6125
2632.30041	4956.3125
2634.95605	4966.9125
2637.61004	4945.3125
2640.26238	4942.2125
2642.91306	4952.6125
2645.56209	4946.5125
2648.20948	4949.9125
2650.85521	4952.0125
2653.4993	4931.5125
2656.14175	4947.3125
2658.78255	4940.1125
2661.42171	4933.5125
2664.05923	4946.2125
2666.6951	4936.0125
2669.32934	4945.2125
2671.96194	4944.7125
2674.59291	4937.5125
2677.22224	4943.0125
2679.84993	4948.3125
2682.476	4936.5125
2685.10043	4940.8125
2687.72324	4939.9125
2690.34441	4929.6125
2692.96396	4926.2125
2695.58188	4946.9125
2698.19818	4949.0125
2700.81285	4939.3125
2703.4259	4947.8125
2706.03733	4993.0125
2708.64714	4942.2125
2711.25533	4943.3125
2713.86191	4922.2125
2716.46687	4939.2125
2719.07021	4943.7125
2721.67194	4936.5125
2724.27206	4932.7125
2726.87057	4928.1125
2729.46747	4921.8125
2732.06276	4910.7125
2734.65644	4934.9125
2737.24852	4919.4125
2739.83899	4918.7125
2742.42786	4928.5125
2745.01513	4902.1125
2747.60079	4922.1125
2750.18486	4907.8125
2752.76733	4903.0125
2755.3482	4882.7125
2757.92747	4889.2125
2760.50515	4864.9125
2763.08123	4889.5125
2765.65573	4880.9125
2768.22863	4883.2125
2770.79994	4870.6125
2773.36967	4868.1125
2775.9378	4866.1125
2778.50435	4862.5125
2781.06932	4855.1125
2783.6327	4840.0125
2786.1945	4837.9125
2788.75471	4836.7125
2791.31335	4828.1125
2793.87041	4817.9125
2796.42589	4789.9125
2798.97979	4803.3125
2801.53212	4788.5125
2804.08288	4792.8125
2806.63206	4781.2125
2809.17967	4770.1125
2811.72571	4756.3125
2814.27018	4757.7125
2816.81308	4749.4125
2819.35442	4731.7125
2821.89419	4739.0125
2824.43239	4734.6125
2826.96904	4734.6125
2829.50412	4757.3125
2832.03763	4724.3125
2834.56959	4728.2125
2837.1	4719.2125
2839.62884	4733.8125
2842.15613	4729.2125
2844.68186	4752.5125
2847.20604	4750.2125
2849.72867	4756.3125
2852.24974	4756.2125
2854.76927	4747.8125
2857.28724	4766.9125
2859.80367	4737.1125
2862.31855	4744.4125
2864.83189	4716.5125
2867.34368	4707.7125
2869.85393	4727.7125
2872.36264	4716.5125
2874.8698	4689.1125
2877.37543	4703.6125
2879.87952	4702.9125
2882.38207	4705.0125
2884.88308	4714.9125
2887.38256	4703.9125
2889.88051	4695.0125
2892.37692	4703.3125
2894.8718	4701.1125
2897.36515	4717.5125
2899.85698	4702.8125
2902.34727	4722.7125
2904.83604	4694.5125
2907.32328	4719.3125
2909.809	4722.7125
2912.29319	4710.6125
2914.77587	4723.4125
2917.25702	4728.4125
2919.73665	4706.7125
2922.21476	4727.6125
2924.69136	4727.9125
2927.16644	4714.3125
2929.64	4717.4125
2932.11205	4719.8125
2934.58258	4694.0125
2937.05161	4708.3125
2939.51912	4698.5125
2941.98513	4699.9125
2944.44962	4680.4125
2946.91261	4662.9125
2949.37409	4665.9125
2951.83407	4671.4125
2954.29254	4649.1125
2956.74951	4649.2125
2959.20498	4638.4125
2961.65895	4627.5125
2964.11142	4611.1125
2966.56239	4585.4125
2969.01186	4581.2125
2971.45984	4582.4125
2973.90632	4567.4125
2976.35131	4541.3125
2978.7948	4519.6125
2981.23681	4521.6125
2983.67732	4517.6125
2986.11635	4499.7125
2988.55388	4484.6125
2990.98993	4485.3125
2993.4245	4454.4125
2995.85758	4452.8125
2998.28917	4448.3125
3000.71928	4457.2125
3003.14791	4440.3125
3005.57506	4448.8125
3008.00073	4416.0125
3010.42493	4410.7125
3012.84764	4405.1125
3015.26888	4398.7125
3017.68865	4392.2125
3020.10694	4376.1125
3022.52376	4377.0125
3024.9391	4352.1125
3027.35298	4350.8125
3029.76539	4347.5125
3032.17632	4345.1125
3034.5858	4331.8125
3036.9938	4342.5125
3039.40034	4320.8125
3041.80542	4314.4125
3044.20903	4309.3125
3046.61118	4305.2125
3049.01187	4290.4125
3051.4111	4300.4125
3053.80888	4283.9125
3056.20519	4286.3125
3058.60005	4279.1125
3060.99345	4261.6125
3063.3854	4262.5125
3065.7759	4236.1125
3068.16494	4236.7125
3070.55254	4224.6125
3072.93868	4228.5125
3075.32338	4207.6125
3077.70662	4211.5125
3080.08842	4194.9125
3082.46878	4188.8125
