Data from AgNPs_FTO_APTES_UA_20um_CRN_0.1mM_R6G_10uM_NaF_0.1M_Addition_RamanShift__29__14-50-09-207.txt Node

Date: Tue Dec 21 14:50:09 GMT 2021
User: TCL
Spectrometer: QEP01345
Trigger mode: 4
Integration Time (sec): 7.000000E0
Scans to average: 10
Electric dark correction enabled: true
Nonlinearity correction enabled: false
Boxcar width: 0
XAxis mode: Raman Shifts
Number of Pixels in Spectrum: 1044
>>>>>Begin Spectral Data<<<<<
46.04893	0.875
50.45542	-2.125
54.85868	-1.325
59.25871	0.775
63.6555	29.475
68.04907	35.375
72.43941	38.975
76.82654	40.075
81.21044	46.875
85.59113	45.675
89.96862	48.275
94.34289	47.275
98.71396	50.175
103.08183	52.375
107.4465	56.275
111.80798	57.775
116.16626	56.075
120.52136	55.875
124.87327	54.875
129.222	55.975
133.56755	54.075
137.90993	61.075
142.24913	60.175
146.58517	65.375
150.91804	75.875
155.24774	83.075
159.57429	100.375
163.89768	125.275
168.21792	157.075
172.53501	201.475
176.84895	267.175
181.15975	372.875
185.46741	519.075
189.77193	713.175
194.07331	949.475
198.37157	1226.875
202.6667	1509.675
206.9587	1794.975
211.24758	2076.475
215.53334	2366.375
219.81599	2673.375
224.09553	3024.975
228.37195	3426.975
232.64527	3852.475
236.91549	4294.475
241.18261	4722.275
245.44663	5092.975
249.70755	5407.675
253.96539	5677.675
258.22014	5882.875
262.4718	6031.375
266.72039	6149.775
270.96589	6179.575
275.20832	6169.375
279.44768	6131.275
283.68397	6098.775
287.91719	6052.275
292.14735	6062.775
296.37445	6122.575
300.59849	6278.575
304.81948	6436.875
309.03742	6585.375
313.25231	6537.475
317.46415	6272.875
321.67296	5859.575
325.87872	5517.975
330.08145	5344.975
334.28114	5344.275
338.47781	5427.075
342.67145	5553.975
346.86207	5761.475
351.04966	6031.775
355.23424	6375.875
359.4158	6600.775
363.59435	6724.475
367.76989	6766.875
371.94243	6750.675
376.11196	6717.375
380.27849	6681.375
384.44203	6664.175
388.60257	6563.075
392.76012	6571.875
396.91468	6654.375
401.06626	6846.875
405.21485	7006.575
409.36047	6951.375
413.50311	6673.175
417.64277	6387.175
421.77947	6217.175
425.9132	6147.675
430.04396	6148.875
434.17176	6152.075
438.2966	6213.775
442.41849	6321.875
446.53742	6472.275
450.6534	6659.075
454.76644	6752.575
458.87653	6798.575
462.98368	6719.875
467.08789	6645.675
471.18916	6526.775
475.2875	6414.675
479.38291	6303.375
483.4754	6220.875
487.56496	6167.575
491.6516	6114.775
495.73531	6109.575
499.81612	6104.275
503.89401	6131.775
507.96899	6176.075
512.04106	6198.775
516.11023	6257.775
520.1765	6296.975
524.23987	6280.675
528.30034	6213.975
532.35792	6083.075
536.41261	5956.975
540.46441	5826.675
544.51333	5766.275
548.55936	5783.875
552.60252	5891.075
556.64279	6048.875
560.6802	6137.175
564.71473	6240.875
568.7464	6446.475
572.7752	6615.175
576.80114	6551.675
580.82422	6441.275
584.84444	6409.575
588.86181	6385.875
592.87633	6362.975
596.888	6387.175
600.89682	6559.975
604.9028	7137.575
608.90594	8669.575
612.90624	10675.175
616.90371	10467.075
620.89834	7788.675
624.89015	6456.275
628.87913	6248.875
632.86528	6349.475
636.84862	6446.775
640.82913	6354.075
644.80683	6066.575
648.78172	5826.175
652.75379	5789.275
656.72306	5936.975
660.68952	6185.175
664.65319	6145.575
668.61405	5910.675
672.57211	5772.375
676.52738	5773.775
680.47986	5795.675
684.42955	5740.275
688.37646	5710.075
692.32058	5729.475
696.26192	5784.075
700.20048	5823.675
704.13626	5919.575
708.06928	5925.475
711.99952	5884.175
715.927	5807.175
719.85171	5784.575
723.77365	5769.375
727.69284	5715.975
731.60928	5639.875
735.52295	5621.375
739.43388	5623.675
743.34206	5639.175
747.24749	5694.975
751.15017	5770.575
755.05012	5875.675
758.94733	6149.575
762.8418	6707.575
766.73354	7630.075
770.62254	8589.275
774.50882	9094.975
778.39237	8753.675
782.27321	7734.575
786.15132	6702.675
790.02671	6085.975
793.89938	5809.375
797.76935	5701.375
801.6366	5649.975
805.50115	5664.475
809.36299	5696.775
813.22213	5713.075
817.07857	5703.975
820.93231	5614.975
824.78336	5582.275
828.63172	5555.175
832.47738	5543.875
836.32036	5538.375
840.16066	5518.975
843.99827	5462.175
847.8332	5432.375
851.66546	5426.575
855.49504	5430.875
859.32195	5414.875
863.1462	5381.075
866.96777	5353.875
870.78668	5366.675
874.60293	5412.475
878.41652	5430.975
882.22745	5503.475
886.03573	5560.875
889.84136	5568.575
893.64433	5521.275
897.44466	5441.975
901.24235	5399.575
905.0374	5349.775
908.8298	5329.275
912.61957	5304.575
916.40671	5332.875
920.19121	5385.675
923.97308	5409.375
927.75233	5455.975
931.52895	5457.075
935.30295	5399.375
939.07433	5247.675
942.84309	5136.075
946.60924	5059.775
950.37278	5021.975
954.13371	4992.175
957.89203	4963.375
961.64774	4948.375
965.40086	4939.175
969.15137	4932.075
972.89929	4893.275
976.64461	4881.975
980.38733	4891.075
984.12747	4885.375
987.86502	4904.475
991.59999	4925.975
995.33237	4982.075
999.06217	5059.675
1002.78939	5212.275
1006.51404	5357.875
1010.23611	5498.575
1013.95561	5583.175
1017.67255	5614.575
1021.38692	5497.875
1025.09872	5397.775
1028.80796	5323.075
1032.51465	5323.775
1036.21877	5371.675
1039.92035	5466.275
1043.61937	5483.975
1047.31584	5470.275
1051.00976	5465.575
1054.70114	5474.875
1058.38998	5450.975
1062.07627	5517.475
1065.76003	5573.175
1069.44126	5623.775
1073.11995	5701.175
1076.79611	5744.375
1080.46974	5782.475
1084.14085	5863.475
1087.80943	5971.375
1091.47549	6022.675
1095.13903	5938.475
1098.80005	5780.675
1102.45857	5582.775
1106.11456	5471.675
1109.76805	5467.475
1113.41903	5555.075
1117.06751	5703.775
1120.71348	5927.475
1124.35696	6203.275
1127.99793	6443.775
1131.63641	6464.075
1135.2724	6272.375
1138.90589	6059.975
1142.5369	5891.275
1146.16542	5770.275
1149.79145	5667.375
1153.415	5641.675
1157.03607	5643.375
1160.65467	5742.375
1164.27079	5911.375
1167.88443	6151.675
1171.49561	6588.675
1175.10432	7300.375
1178.71056	8211.575
1182.31434	8909.075
1185.91565	9085.275
1189.51451	8921.575
1193.11091	8579.775
1196.70485	8151.575
1200.29634	7825.275
1203.88538	7482.775
1207.47197	7067.275
1211.05612	6697.075
1214.63782	6428.175
1218.21708	6325.975
1221.79391	6283.875
1225.36829	6275.875
1228.94024	6295.175
1232.50976	6311.675
1236.07685	6302.175
1239.6415	6311.975
1243.20374	6343.075
1246.76355	6360.575
1250.32093	6438.975
1253.8759	6545.175
1257.42845	6715.575
1260.97859	6876.275
1264.52631	7026.375
1268.07163	7169.575
1271.61453	7326.575
1275.15503	7458.475
1278.69312	7538.175
1282.22882	7619.575
1285.76211	7774.675
1289.29301	8003.975
1292.82151	8242.175
1296.34761	8516.875
1299.87133	8919.975
1303.39266	9518.275
1306.9116	10398.175
1310.42815	11388.175
1313.94233	11882.575
1317.45412	11708.675
1320.96354	11145.075
1324.47058	10517.875
1327.97525	9973.475
1331.47754	9675.475
1334.97747	9600.475
1338.47502	9731.475
1341.97022	9924.775
1345.46305	10222.275
1348.95352	10547.975
1352.44163	11022.675
1355.92738	11736.475
1359.41078	12944.275
1362.89183	13958.275
1366.37053	13586.475
1369.84688	12025.375
1373.32088	10399.375
1376.79254	9251.775
1380.26186	8556.875
1383.72883	8161.775
1387.19347	7923.475
1390.65578	7677.775
1394.11575	7507.575
1397.57339	7445.975
1401.0287	7505.475
1404.48168	7594.475
1407.93234	7688.775
1411.38068	7737.175
1414.82669	7672.075
1418.27039	7506.775
1421.71177	7250.475
1425.15083	7051.775
1428.58758	6943.175
1432.02203	6949.775
1435.45416	6960.075
1438.88399	6971.375
1442.31151	6970.575
1445.73673	7000.075
1449.15965	7053.475
1452.58027	7067.875
1455.9986	7031.075
1459.41463	7070.575
1462.82837	7142.475
1466.23982	7259.075
1469.64898	7389.575
1473.05586	7507.375
1476.46045	7562.975
1479.86276	7656.175
1483.26279	7805.675
1486.66054	8014.275
1490.05602	8280.575
1493.44922	8649.075
1496.84016	9140.575
1500.22882	9950.975
1503.61521	10925.875
1506.99934	11939.775
1510.38121	12779.175
1513.76081	13026.175
1517.13816	12354.075
1520.51324	11099.975
1523.88607	9848.175
1527.25665	9049.275
1530.62498	8608.875
1533.99105	8323.175
1537.35488	8195.275
1540.71647	8099.875
1544.07581	8037.675
1547.4329	7985.175
1550.78776	7904.775
1554.14038	7846.875
1557.49077	7838.975
1560.83892	7911.875
1564.18484	8072.475
1567.52853	8304.575
1570.86999	8466.875
1574.20922	8555.275
1577.54624	8515.275
1580.88103	8116.375
1584.2136	7706.475
1587.54395	7476.475
1590.87208	7559.775
1594.19801	7956.175
1597.52172	8471.575
1600.84321	8731.875
1604.16251	8522.675
1607.47959	8039.275
1610.79447	7456.775
1614.10715	6914.075
1617.41763	6461.275
1620.7259	6173.775
1624.03199	6000.375
1627.33587	5985.075
1630.63757	6048.775
1633.93707	6286.575
1637.23439	6664.275
1640.52951	7233.375
1643.82246	8003.075
1647.11321	8878.775
1650.40179	9461.775
1653.68819	9294.475
1656.97241	8334.375
1660.25446	7157.575
1663.53433	6294.575
1666.81203	5713.275
1670.08756	5361.975
1673.36092	5137.475
1676.63211	5009.975
1679.90115	4903.375
1683.16801	4806.875
1686.43272	4731.975
1689.69527	4681.075
1692.95567	4640.275
1696.2139	4620.675
1699.46999	4605.475
1702.72392	4581.775
1705.97571	4542.375
1709.22535	4498.675
1712.47284	4485.575
1715.71819	4486.875
1718.96139	4496.075
1722.20246	4476.875
1725.44139	4470.375
1728.67818	4435.375
1731.91284	4409.575
1735.14537	4361.275
1738.37576	4352.775
1741.60403	4321.275
1744.83017	4312.475
1748.05418	4285.775
1751.27607	4282.675
1754.49584	4274.575
1757.71349	4269.675
1760.92903	4266.775
1764.14244	4240.975
1767.35375	4238.575
1770.56294	4216.375
1773.77002	4183.775
1776.97499	4169.375
1780.17785	4151.275
1783.37861	4135.975
1786.57727	4123.575
1789.77382	4122.775
1792.96828	4100.175
1796.16064	4099.675
1799.3509	4072.375
1802.53907	4074.075
1805.72514	4048.675
1808.90913	4050.375
1812.09102	4026.075
1815.27083	4007.375
1818.44856	4015.175
1821.6242	4010.075
1824.79776	4006.875
1827.96924	3986.175
1831.13864	3994.875
1834.30597	3996.775
1837.47122	3965.975
1840.6344	3957.275
1843.7955	3973.675
1846.95454	3964.875
1850.11151	3952.875
1853.26642	3956.775
1856.41926	3955.575
1859.57004	3947.875
1862.71876	3943.475
1865.86542	3937.875
1869.01003	3936.475
1872.15258	3943.775
1875.29308	3919.775
1878.43152	3929.675
1881.56792	3920.275
1884.70227	3919.475
1887.83457	3915.975
1890.96482	3927.875
1894.09304	3909.875
1897.21921	3908.275
1900.34335	3911.975
1903.46544	3921.975
1906.58551	3904.675
1909.70353	3908.675
1912.81953	3892.975
1915.93349	3894.475
1919.04543	3900.275
1922.15534	3880.775
1925.26322	3874.375
1928.36908	3867.975
1931.47292	3853.975
1934.57473	3828.175
1937.67453	3805.875
1940.77232	3806.275
1943.86808	3803.775
1946.96184	3778.375
1950.05358	3766.075
1953.14331	3756.075
1956.23103	3736.175
1959.31675	3733.375
1962.40046	3702.275
1965.48217	3704.475
1968.56188	3680.075
1971.63959	3690.275
1974.7153	3681.575
1977.78901	3675.675
1980.86073	3649.775
1983.93046	3648.475
1986.99819	3628.275
1990.06394	3600.675
1993.1277	3602.475
1996.18947	3581.075
1999.24925	3561.975
2002.30706	3550.875
2005.36288	3556.475
2008.41672	3532.875
2011.46859	3525.175
2014.51848	3510.875
2017.56639	3496.175
2020.61233	3499.375
2023.6563	3490.575
2026.6983	3477.175
2029.73833	3463.275
2032.7764	3464.675
2035.8125	3446.175
2038.84664	3440.575
2041.87881	3441.875
2044.90903	3424.075
2047.93729	3417.075
2050.96359	3425.775
2053.98794	3406.175
2057.01034	3411.175
2060.03078	3398.275
2063.04927	3386.275
2066.06582	3379.175
2069.08042	3377.475
2072.09307	3377.175
2075.10378	3368.775
2078.11255	3367.275
2081.11938	3371.875
2084.12426	3382.275
2087.12722	3358.575
2090.12824	3350.275
2093.12732	3364.975
2096.12447	3354.975
2099.11969	3348.775
2102.11299	3343.575
2105.10435	3364.275
2108.09379	3355.275
2111.08131	3362.375
2114.0669	3349.375
2117.05057	3355.375
2120.03233	3369.375
2123.01216	3354.675
2125.99008	3363.675
2128.96609	3359.875
2131.94018	3350.075
2134.91236	3362.875
2137.88263	3354.575
2140.851	3360.975
2143.81746	3365.075
2146.78201	3360.575
2149.74466	3362.275
2152.7054	3356.775
2155.66425	3350.975
2158.6212	3343.575
2161.57625	3348.475
2164.52941	3350.075
2167.48067	3324.475
2170.43004	3333.275
2173.37752	3328.575
2176.32311	3334.275
2179.26681	3333.375
2182.20863	3331.875
2185.14856	3322.875
2188.08661	3329.975
2191.02278	3319.475
2193.95707	3324.275
2196.88948	3320.175
2199.82001	3310.775
2202.74867	3296.475
2205.67545	3294.275
2208.60037	3301.775
2211.52341	3292.575
2214.44458	3283.375
2217.36388	3273.075
2220.28132	3260.775
2223.1969	3257.375
2226.11061	3250.975
2229.02246	3246.675
2231.93245	3231.375
2234.84058	3237.175
2237.74686	3222.475
2240.65128	3214.675
2243.55385	3209.375
2246.45456	3213.275
2249.35343	3201.175
2252.25044	3195.975
2255.14561	3195.975
2258.03893	3201.575
2260.93041	3202.375
2263.82004	3189.475
2266.70783	3178.475
2269.59378	3172.875
2272.4779	3165.675
2275.36017	3149.475
2278.24061	3150.175
2281.11922	3137.775
2283.996	3130.275
2286.87094	3130.175
2289.74405	3106.775
2292.61534	3101.675
2295.4848	3108.975
2298.35243	3105.475
2301.21824	3100.475
2304.08223	3083.775
2306.94439	3100.775
2309.80474	3078.275
2312.66327	3089.675
2315.51999	3079.575
2318.37489	3083.775
2321.22797	3066.675
2324.07925	3058.775
2326.92871	3066.375
2329.77637	3063.075
2332.62222	3051.475
2335.46626	3050.375
2338.3085	3043.775
2341.14893	3040.975
2343.98756	3041.475
2346.8244	3039.375
2349.65943	3044.475
2352.49267	3043.275
2355.32411	3037.575
2358.15376	3039.175
2360.98161	3048.475
2363.80768	3044.375
2366.63195	3048.575
2369.45444	3050.975
2372.27514	3043.275
2375.09405	3020.875
2377.91118	3030.575
2380.72652	3027.475
2383.54009	3009.275
2386.35187	2986.075
2389.16188	2987.275
2391.97011	2977.075
2394.77657	2957.475
2397.58125	2969.475
2400.38416	2943.675
2403.18529	2948.775
2405.98466	2946.675
2408.78226	2931.275
2411.57809	2933.575
2414.37216	2912.375
2417.16446	2911.675
2419.955	2906.275
2422.74378	2917.975
2425.5308	2906.375
2428.31606	2908.475
2431.09956	2902.375
2433.88131	2894.875
2436.6613	2897.775
2439.43954	2894.675
2442.21603	2890.075
2444.99077	2882.775
2447.76377	2888.975
2450.53501	2886.675
2453.30451	2903.875
2456.07226	2879.475
2458.83827	2883.775
2461.60254	2877.775
2464.36507	2879.775
2467.12586	2879.875
2469.88492	2871.075
2472.64224	2869.275
2475.39782	2868.975
2478.15167	2889.175
2480.90379	2872.575
2483.65417	2872.775
2486.40283	2872.475
2489.14976	2865.275
2491.89497	2880.975
2494.63845	2891.675
2497.3802	2896.075
2500.12024	2879.675
2502.85855	2874.575
2505.59514	2865.875
2508.33002	2850.975
2511.06318	2838.575
2513.79462	2848.075
2516.52435	2823.475
2519.25237	2814.675
2521.97867	2816.475
2524.70327	2810.575
2527.42616	2802.975
2530.14734	2799.375
2532.86681	2806.075
2535.58458	2791.875
2538.30065	2776.275
2541.01501	2788.275
2543.72768	2777.175
2546.43864	2784.775
2549.14791	2771.375
2551.85548	2765.975
2554.56136	2770.775
2557.26554	2767.275
2559.96803	2762.575
2562.66883	2744.875
2565.36794	2746.775
2568.06536	2744.175
2570.7611	2743.275
2573.45514	2737.375
2576.14751	2731.075
2578.83819	2730.675
2581.52719	2738.175
2584.21451	2721.075
2586.90015	2718.675
2589.58411	2717.875
2592.2664	2703.375
2594.94701	2711.275
2597.62594	2704.275
2600.30321	2683.975
2602.9788	2698.375
2605.65273	2687.675
2608.32498	2697.975
2610.99557	2683.075
2613.66449	2693.675
2616.33175	2682.875
2618.99734	2686.775
2621.66128	2676.675
2624.32355	2677.075
2626.98416	2681.275
2629.64311	2665.575
2632.30041	2669.675
2634.95605	2663.675
2637.61004	2663.975
2640.26238	2656.375
2642.91306	2655.875
2645.56209	2644.975
2648.20948	2650.075
2650.85521	2649.175
2653.4993	2650.175
2656.14175	2639.075
2658.78255	2645.575
2661.42171	2652.275
2664.05923	2646.475
2666.6951	2652.375
2669.32934	2653.975
2671.96194	2654.375
2674.59291	2652.875
2677.22224	2659.375
2679.84993	2668.675
2682.476	2652.675
2685.10043	2665.275
2687.72324	2652.475
2690.34441	2666.575
2692.96396	2654.375
2695.58188	2669.075
2698.19818	2661.975
2700.81285	2675.875
2703.4259	2696.075
2706.03733	2736.675
2708.64714	2703.275
2711.25533	2690.075
2713.86191	2679.575
2716.46687	2691.875
2719.07021	2690.375
2721.67194	2688.475
2724.27206	2679.475
2726.87057	2674.475
2729.46747	2676.375
2732.06276	2677.475
2734.65644	2672.375
2737.24852	2667.875
2739.83899	2655.775
2742.42786	2672.075
2745.01513	2642.575
2747.60079	2647.775
2750.18486	2643.975
2752.76733	2648.675
2755.3482	2630.975
2757.92747	2637.575
2760.50515	2643.975
2763.08123	2642.475
2765.65573	2629.175
2768.22863	2634.675
2770.79994	2622.875
2773.36967	2624.975
2775.9378	2622.075
2778.50435	2625.875
2781.06932	2625.775
2783.6327	2626.275
2786.1945	2626.875
2788.75471	2628.075
2791.31335	2636.075
2793.87041	2619.775
2796.42589	2620.275
2798.97979	2620.075
2801.53212	2612.675
2804.08288	2606.975
2806.63206	2625.875
2809.17967	2613.275
2811.72571	2615.875
2814.27018	2619.675
2816.81308	2613.675
2819.35442	2616.875
2821.89419	2618.375
2824.43239	2630.175
2826.96904	2624.175
2829.50412	2633.375
2832.03763	2628.775
2834.56959	2633.475
2837.1	2634.975
2839.62884	2656.875
2842.15613	2672.175
2844.68186	2707.675
2847.20604	2740.775
2849.72867	2767.275
2852.24974	2785.475
2854.76927	2786.775
2857.28724	2787.775
2859.80367	2778.275
2862.31855	2760.775
2864.83189	2741.375
2867.34368	2730.475
2869.85393	2727.075
2872.36264	2727.275
2874.8698	2722.675
2877.37543	2716.875
2879.87952	2721.175
2882.38207	2729.175
2884.88308	2728.775
2887.38256	2708.175
2889.88051	2717.275
2892.37692	2716.375
2894.8718	2721.175
2897.36515	2729.375
2899.85698	2722.775
2902.34727	2724.475
2904.83604	2720.475
2907.32328	2725.275
2909.809	2728.075
2912.29319	2731.575
2914.77587	2718.475
2917.25702	2718.875
2919.73665	2717.175
2922.21476	2711.175
2924.69136	2705.475
2927.16644	2708.075
2929.64	2700.875
2932.11205	2691.575
2934.58258	2680.175
2937.05161	2674.875
2939.51912	2667.375
2941.98513	2659.475
2944.44962	2641.675
2946.91261	2611.375
2949.37409	2601.275
2951.83407	2589.775
2954.29254	2574.475
2956.74951	2560.175
2959.20498	2551.275
2961.65895	2546.775
2964.11142	2533.875
2966.56239	2524.875
2969.01186	2516.075
2971.45984	2504.775
2973.90632	2504.375
2976.35131	2493.275
2978.7948	2479.675
2981.23681	2479.375
2983.67732	2461.375
2986.11635	2452.875
2988.55388	2455.275
2990.98993	2435.475
2993.4245	2446.375
2995.85758	2417.175
2998.28917	2417.575
3000.71928	2419.975
3003.14791	2417.775
3005.57506	2427.475
3008.00073	2418.675
3010.42493	2404.975
3012.84764	2404.275
3015.26888	2406.975
3017.68865	2406.575
3020.10694	2390.275
3022.52376	2399.675
3024.9391	2396.975
3027.35298	2386.475
3029.76539	2383.975
3032.17632	2369.875
3034.5858	2377.475
3036.9938	2382.175
3039.40034	2376.775
3041.80542	2364.375
3044.20903	2361.575
3046.61118	2364.675
3049.01187	2362.375
3051.4111	2359.575
3053.80888	2351.975
3056.20519	2346.175
3058.60005	2349.775
3060.99345	2347.875
3063.3854	2342.575
3065.7759	2342.975
3068.16494	2331.575
3070.55254	2325.175
3072.93868	2317.975
3075.32338	2329.775
3077.70662	2302.475
3080.08842	2309.875
3082.46878	2311.075
3084.84769	2301.075
3087.22515	2307.375
3089.60118	2299.875
3091.97576	2313.775
3094.3489	2303.875
3096.72061	2300.475
3099.09087	2292.775
3101.4597	2300.075
3103.82709	2314.375
3106.19305	2300.175
3108.55757	2290.775
3110.92066	2296.575
3113.28232	2296.175
3115.64255	2286.375
3118.00134	2291.975
3120.35871	2281.575
3122.71466	2281.575
3125.06917	2290.075
3127.42226	2290.975
3129.77393	2301.875
3132.12417	2298.475
3134.47299	2297.675
3136.82039	2313.775
3139.16636	2313.475
3141.51092	2323.475
3143.85406	2322.075
3146.19579	2317.375
3148.53609	2327.575
3150.87499	2330.975
3153.21246	2336.775
3155.54853	2357.775
3157.88318	2358.475
3160.21642	2348.775
3162.54826	2346.075
3164.87868	2350.475
3167.2077	2360.075
3169.5353	2358.475
3171.86151	2364.375
3174.18631	2366.275
3176.5097	2362.075
3178.83169	2363.275
3181.15228	2367.075
3183.47147	2359.375
3185.78926	2366.575
3188.10565	2366.675
3190.42065	2369.875
3192.73424	2376.975
3195.04645	2386.775
3197.35725	2377.875
3199.66667	2392.375
3201.97469	2389.875
3204.28132	2402.775
3206.58656	2396.675
3208.8904	2415.775
3211.19287	2402.575
3213.49394	2411.375
3215.79363	2409.275
3218.09193	2413.175
3220.38884	2419.175
3222.68438	2426.875
3224.97853	2417.175
3227.2713	2414.675
3229.56269	2412.575
3231.8527	2410.375
3234.14133	2398.875
