Data from AgNPs_FTO_APTES_UA_0um_CRN_0.1mM_R6G_10uM_NaF_0.1M_Addition_RamanShift__52__11-11-58-958.txt Node

Date: Tue Dec 21 11:11:58 GMT 2021
User: TCL
Spectrometer: QEP01345
Trigger mode: 4
Integration Time (sec): 7.000000E0
Scans to average: 10
Electric dark correction enabled: true
Nonlinearity correction enabled: false
Boxcar width: 0
XAxis mode: Raman Shifts
Number of Pixels in Spectrum: 1044
>>>>>Begin Spectral Data<<<<<
46.04893	-0.025
50.45542	-1.625
54.85868	-1.025
59.25871	-0.225
63.6555	43.275
68.04907	48.175
72.43941	50.275
76.82654	50.475
81.21044	54.575
85.59113	58.975
89.96862	55.075
94.34289	56.175
98.71396	62.775
103.08183	66.475
107.4465	65.275
111.80798	70.675
116.16626	69.175
120.52136	69.975
124.87327	72.975
129.222	75.175
133.56755	85.775
137.90993	91.075
142.24913	94.075
146.58517	113.475
150.91804	127.675
155.24774	157.075
159.57429	195.475
163.89768	255.675
168.21792	336.675
172.53501	455.275
176.84895	630.375
181.15975	891.375
185.46741	1241.075
189.77193	1709.275
194.07331	2280.675
198.37157	2926.275
202.6667	3622.075
206.9587	4295.075
211.24758	4980.375
215.53334	5670.375
219.81599	6403.675
224.09553	7190.975
228.37195	8083.375
232.64527	9053.775
236.91549	10066.075
241.18261	11030.475
245.44663	11915.475
249.70755	12728.875
253.96539	13352.375
258.22014	13971.275
262.4718	14432.775
266.72039	14778.375
270.96589	14920.075
275.20832	14922.475
279.44768	14878.575
283.68397	14797.375
287.91719	14798.975
292.14735	14801.775
296.37445	14838.575
300.59849	14849.875
304.81948	14868.375
309.03742	14874.475
313.25231	14726.375
317.46415	14369.375
321.67296	13896.775
325.87872	13503.275
330.08145	13232.275
334.28114	13169.975
338.47781	13198.775
342.67145	13317.275
346.86207	13513.175
351.04966	13784.275
355.23424	14029.875
359.4158	14264.575
363.59435	14377.275
367.76989	14447.675
371.94243	14467.575
376.11196	14465.375
380.27849	14535.575
384.44203	14597.175
388.60257	14754.475
392.76012	14970.975
396.91468	15171.875
401.06626	15460.475
405.21485	15692.575
409.36047	15612.575
413.50311	15429.975
417.64277	15346.875
421.77947	15472.575
425.9132	15619.375
430.04396	15783.175
434.17176	15913.575
438.2966	16033.175
442.41849	16382.775
446.53742	16987.575
450.6534	17748.475
454.76644	18267.275
458.87653	18310.875
462.98368	18031.175
467.08789	17645.575
471.18916	17215.275
475.2875	16966.375
479.38291	16944.475
483.4754	16991.675
487.56496	16880.875
491.6516	16534.575
495.73531	16120.375
499.81612	15899.275
503.89401	15901.975
507.96899	15846.975
512.04106	15695.775
516.11023	15254.175
520.1765	14859.975
524.23987	14547.075
528.30034	14396.275
532.35792	14279.175
536.41261	14052.575
540.46441	13784.275
544.51333	13717.675
548.55936	13982.075
552.60252	14488.075
556.64279	15081.575
560.6802	15588.475
564.71473	15905.675
568.7464	16382.775
572.7752	17115.875
576.80114	17888.975
580.82422	18504.875
584.84444	19177.475
588.86181	19971.875
592.87633	20772.275
596.888	21029.175
600.89682	20295.575
604.9028	19843.975
608.90594	20553.575
612.90624	21317.275
616.90371	19310.875
620.89834	15703.175
624.89015	14138.675
628.87913	14054.275
632.86528	14335.675
636.84862	14373.575
640.82913	14094.275
644.80683	13624.075
648.78172	13206.775
652.75379	13028.175
656.72306	13103.875
660.68952	13300.875
664.65319	13164.175
668.61405	12935.075
672.57211	12869.375
676.52738	12941.075
680.47986	12924.875
684.42955	12817.175
688.37646	12701.675
692.32058	12706.175
696.26192	12855.575
700.20048	13103.275
704.13626	13281.075
708.06928	13359.775
711.99952	13284.475
715.927	13255.675
719.85171	13285.475
723.77365	13240.375
727.69284	13039.475
731.60928	12847.475
735.52295	12777.275
739.43388	12774.575
743.34206	12849.475
747.24749	12968.875
751.15017	13202.775
755.05012	13535.775
758.94733	14154.175
762.8418	15199.475
766.73354	16696.775
770.62254	17976.875
774.50882	17871.775
778.39237	16535.075
782.27321	14988.475
786.15132	13963.175
790.02671	13188.875
793.89938	12784.875
797.76935	12652.075
801.6366	12640.875
805.50115	12664.375
809.36299	12559.975
813.22213	12395.575
817.07857	12256.675
820.93231	12142.175
824.78336	12015.475
828.63172	11922.775
832.47738	11860.475
836.32036	11850.475
840.16066	11880.475
843.99827	11868.775
847.8332	11847.875
851.66546	11786.475
855.49504	11766.575
859.32195	11766.175
863.1462	11698.675
866.96777	11650.475
870.78668	11602.375
874.60293	11596.075
878.41652	11604.275
882.22745	11651.875
886.03573	11699.975
889.84136	11699.575
893.64433	11665.475
897.44466	11634.075
901.24235	11576.575
905.0374	11455.075
908.8298	11377.275
912.61957	11356.575
916.40671	11497.275
920.19121	11765.375
923.97308	12000.175
927.75233	12094.775
931.52895	11903.775
935.30295	11598.275
939.07433	11245.475
942.84309	10970.875
946.60924	10798.475
950.37278	10776.775
954.13371	10781.475
957.89203	10778.975
961.64774	10772.475
965.40086	10752.375
969.15137	10701.475
972.89929	10575.875
976.64461	10481.075
980.38733	10406.275
984.12747	10412.075
987.86502	10475.075
991.59999	10599.375
995.33237	10826.175
999.06217	11245.275
1002.78939	11756.575
1006.51404	12205.175
1010.23611	12492.375
1013.95561	12707.475
1017.67255	12771.875
1021.38692	12490.275
1025.09872	12078.975
1028.80796	11864.775
1032.51465	11930.975
1036.21877	12126.075
1039.92035	12199.175
1043.61937	12126.075
1047.31584	11986.075
1051.00976	11848.175
1054.70114	11803.675
1058.38998	11819.575
1062.07627	11942.675
1065.76003	12062.175
1069.44126	12288.475
1073.11995	12623.875
1076.79611	12859.275
1080.46974	12965.275
1084.14085	13081.675
1087.80943	13312.975
1091.47549	13587.675
1095.13903	13680.775
1098.80005	13428.875
1102.45857	12928.675
1106.11456	12435.975
1109.76805	12201.575
1113.41903	12208.575
1117.06751	12293.175
1120.71348	12465.475
1124.35696	12674.075
1127.99793	12882.775
1131.63641	13058.575
1135.2724	13099.575
1138.90589	13116.475
1142.5369	13154.875
1146.16542	13343.775
1149.79145	13578.075
1153.415	13822.275
1157.03607	14225.675
1160.65467	14872.475
1164.27079	15992.875
1167.88443	17391.475
1171.49561	19041.575
1175.10432	21117.975
1178.71056	23709.875
1182.31434	25952.875
1185.91565	27026.875
1189.51451	26630.275
1193.11091	25632.175
1196.70485	24364.675
1200.29634	22939.375
1203.88538	21729.775
1207.47197	20961.475
1211.05612	20402.075
1214.63782	19882.175
1218.21708	19404.975
1221.79391	19158.675
1225.36829	19005.775
1228.94024	18659.975
1232.50976	18032.775
1236.07685	17321.475
1239.6415	16857.575
1243.20374	16647.175
1246.76355	16633.675
1250.32093	16925.775
1253.8759	17370.775
1257.42845	18084.975
1260.97859	18834.175
1264.52631	19610.075
1268.07163	20379.675
1271.61453	21215.375
1275.15503	22116.475
1278.69312	23122.975
1282.22882	24205.175
1285.76211	25444.275
1289.29301	26881.875
1292.82151	28601.775
1296.34761	30682.875
1299.87133	33064.475
1303.39266	35547.875
1306.9116	37972.575
1310.42815	40231.075
1313.94233	41864.575
1317.45412	42401.975
1320.96354	42003.975
1324.47058	41343.175
1327.97525	40767.475
1331.47754	40228.575
1334.97747	39588.175
1338.47502	38813.975
1341.97022	37577.675
1345.46305	36031.775
1348.95352	34492.275
1352.44163	33610.375
1355.92738	33898.775
1359.41078	35207.575
1362.89183	36695.275
1366.37053	36999.975
1369.84688	34845.875
1373.32088	30930.275
1376.79254	27655.475
1380.26186	26312.275
1383.72883	26238.375
1387.19347	26395.175
1390.65578	26348.675
1394.11575	26666.575
1397.57339	27658.075
1401.0287	29035.975
1404.48168	30128.575
1407.93234	30498.275
1411.38068	29855.475
1414.82669	28441.875
1418.27039	26514.875
1421.71177	24474.575
1425.15083	22829.075
1428.58758	21761.475
1432.02203	21632.775
1435.45416	22265.675
1438.88399	23325.375
1442.31151	24377.375
1445.73673	25260.075
1449.15965	25970.475
1452.58027	26461.675
1455.9986	26512.175
1459.41463	26567.575
1462.82837	27002.875
1466.23982	27760.075
1469.64898	28456.975
1473.05586	28821.275
1476.46045	28830.975
1479.86276	28542.075
1483.26279	28029.475
1486.66054	27627.575
1490.05602	27496.575
1493.44922	27432.675
1496.84016	27333.875
1500.22882	27159.075
1503.61521	27234.875
1506.99934	27589.775
1510.38121	28012.475
1513.76081	28044.475
1517.13816	27530.475
1520.51324	26711.975
1523.88607	26063.675
1527.25665	25807.375
1530.62498	25870.875
1533.99105	25986.475
1537.35488	25862.575
1540.71647	25411.875
1544.07581	24644.275
1547.4329	23636.375
1550.78776	22664.475
1554.14038	21969.675
1557.49077	21563.875
1560.83892	21389.775
1564.18484	21380.475
1567.52853	21422.275
1570.86999	21628.175
1574.20922	22081.975
1577.54624	22619.175
1580.88103	23000.475
1584.2136	23443.475
1587.54395	24583.775
1590.87208	26588.175
1594.19801	29118.875
1597.52172	31630.575
1600.84321	32675.975
1604.16251	31139.275
1607.47959	27709.575
1610.79447	23871.875
1614.10715	20594.075
1617.41763	18058.175
1620.7259	16382.275
1624.03199	15541.475
1627.33587	15470.175
1630.63757	16131.375
1633.93707	17721.075
1637.23439	20513.275
1640.52951	24838.775
1643.82246	30231.475
1647.11321	34890.475
1650.40179	36248.575
1653.68819	33291.975
1656.97241	27729.575
1660.25446	22071.375
1663.53433	17743.775
1666.81203	14911.175
1670.08756	13218.475
1673.36092	12168.975
1676.63211	11506.275
1679.90115	11068.575
1683.16801	10731.175
1686.43272	10476.375
1689.69527	10305.575
1692.95567	10148.375
1696.2139	10060.875
1699.46999	9993.675
1702.72392	9912.575
1705.97571	9834.075
1709.22535	9757.075
1712.47284	9728.775
1715.71819	9697.675
1718.96139	9639.175
1722.20246	9569.075
1725.44139	9501.175
1728.67818	9406.975
1731.91284	9318.075
1735.14537	9266.475
1738.37576	9209.575
1741.60403	9152.975
1744.83017	9124.075
1748.05418	9087.975
1751.27607	9078.875
1754.49584	9098.275
1757.71349	9099.675
1760.92903	9064.075
1764.14244	9019.475
1767.35375	9004.775
1770.56294	8940.975
1773.77002	8888.475
1776.97499	8848.675
1780.17785	8809.475
1783.37861	8784.075
1786.57727	8765.375
1789.77382	8714.775
1792.96828	8684.575
1796.16064	8636.675
1799.3509	8627.675
1802.53907	8593.175
1805.72514	8551.475
1808.90913	8526.175
1812.09102	8485.075
1815.27083	8451.075
1818.44856	8473.575
1821.6242	8426.475
1824.79776	8405.175
1827.96924	8414.875
1831.13864	8401.275
1834.30597	8420.075
1837.47122	8420.475
1840.6344	8401.375
1843.7955	8404.175
1846.95454	8428.775
1850.11151	8423.375
1853.26642	8404.375
1856.41926	8373.875
1859.57004	8420.075
1862.71876	8382.575
1865.86542	8372.975
1869.01003	8361.275
1872.15258	8389.375
1875.29308	8393.875
1878.43152	8372.175
1881.56792	8347.975
1884.70227	8344.875
1887.83457	8347.075
1890.96482	8364.875
1894.09304	8332.775
1897.21921	8337.275
1900.34335	8329.975
1903.46544	8319.575
1906.58551	8296.175
1909.70353	8292.575
1912.81953	8267.975
1915.93349	8241.075
1919.04543	8203.375
1922.15534	8169.775
1925.26322	8151.475
1928.36908	8102.475
1931.47292	8074.475
1934.57473	8053.575
1937.67453	8024.275
1940.77232	7967.875
1943.86808	7951.175
1946.96184	7932.775
1950.05358	7895.275
1953.14331	7870.675
1956.23103	7830.375
1959.31675	7826.975
1962.40046	7760.675
1965.48217	7745.475
1968.56188	7720.975
1971.63959	7706.275
1974.7153	7670.975
1977.78901	7643.075
1980.86073	7594.475
1983.93046	7588.075
1986.99819	7563.475
1990.06394	7516.575
1993.1277	7508.675
1996.18947	7483.475
1999.24925	7442.375
2002.30706	7435.575
2005.36288	7414.375
2008.41672	7391.675
2011.46859	7366.475
2014.51848	7342.075
2017.56639	7325.975
2020.61233	7305.775
2023.6563	7309.075
2026.6983	7269.675
2029.73833	7262.375
2032.7764	7223.475
2035.8125	7230.475
2038.84664	7220.175
2041.87881	7203.375
2044.90903	7206.075
2047.93729	7194.775
2050.96359	7188.975
2053.98794	7170.875
2057.01034	7175.575
2060.03078	7148.575
2063.04927	7130.075
2066.06582	7134.175
2069.08042	7126.575
2072.09307	7127.175
2075.10378	7095.575
2078.11255	7084.375
2081.11938	7102.575
2084.12426	7094.775
2087.12722	7081.975
2090.12824	7076.775
2093.12732	7091.075
2096.12447	7075.575
2099.11969	7054.375
2102.11299	7068.875
2105.10435	7059.975
2108.09379	7047.375
2111.08131	7052.575
2114.0669	7053.175
2117.05057	7048.675
2120.03233	7049.975
2123.01216	7052.975
2125.99008	7027.175
2128.96609	7050.475
2131.94018	7050.375
2134.91236	7032.475
2137.88263	7052.275
2140.851	7041.975
2143.81746	7035.675
2146.78201	7028.575
2149.74466	7032.775
2152.7054	7019.175
2155.66425	7004.375
2158.6212	7016.175
2161.57625	6998.675
2164.52941	7016.475
2167.48067	6991.475
2170.43004	6996.475
2173.37752	6991.375
2176.32311	6981.775
2179.26681	6997.375
2182.20863	6987.675
2185.14856	6993.575
2188.08661	6982.675
2191.02278	6967.675
2193.95707	6965.475
2196.88948	6960.975
2199.82001	6962.575
2202.74867	6994.175
2205.67545	6948.275
2208.60037	6934.575
2211.52341	6902.675
2214.44458	6905.575
2217.36388	6878.775
2220.28132	6879.275
2223.1969	6858.875
2226.11061	6883.175
2229.02246	6847.575
2231.93245	6828.675
2234.84058	6826.975
2237.74686	6822.975
2240.65128	6784.375
2243.55385	6791.575
2246.45456	6770.975
2249.35343	6736.475
2252.25044	6756.175
2255.14561	6738.575
2258.03893	6718.875
2260.93041	6688.375
2263.82004	6687.975
2266.70783	6634.575
2269.59378	6630.175
2272.4779	6599.575
2275.36017	6575.175
2278.24061	6563.175
2281.11922	6554.475
2283.996	6555.175
2286.87094	6536.975
2289.74405	6526.375
2292.61534	6497.575
2295.4848	6504.975
2298.35243	6506.175
2301.21824	6518.075
2304.08223	6503.775
2306.94439	6513.075
2309.80474	6493.175
2312.66327	6492.675
2315.51999	6489.075
2318.37489	6491.175
2321.22797	6485.675
2324.07925	6470.475
2326.92871	6454.075
2329.77637	6481.675
2332.62222	6455.775
2335.46626	6443.975
2338.3085	6430.275
2341.14893	6477.275
2343.98756	6466.975
2346.8244	6453.675
2349.65943	6471.475
2352.49267	6457.175
2355.32411	6459.275
2358.15376	6455.075
2360.98161	6457.375
2363.80768	6457.775
2366.63195	6450.475
2369.45444	6448.475
2372.27514	6439.175
2375.09405	6405.375
2377.91118	6397.775
2380.72652	6368.275
2383.54009	6361.375
2386.35187	6344.875
2389.16188	6329.675
2391.97011	6311.375
2394.77657	6303.975
2397.58125	6295.275
2400.38416	6300.675
2403.18529	6288.775
2405.98466	6289.475
2408.78226	6266.075
2411.57809	6256.075
2414.37216	6234.975
2417.16446	6223.975
2419.955	6218.275
2422.74378	6233.975
2425.5308	6210.675
2428.31606	6200.275
2431.09956	6176.875
2433.88131	6181.875
2436.6613	6208.375
2439.43954	6176.375
2442.21603	6172.375
2444.99077	6186.075
2447.76377	6189.375
2450.53501	6182.775
2453.30451	6195.975
2456.07226	6171.375
2458.83827	6195.675
2461.60254	6186.075
2464.36507	6202.775
2467.12586	6206.475
2469.88492	6190.475
2472.64224	6221.275
2475.39782	6206.675
2478.15167	6220.075
2480.90379	6219.975
2483.65417	6224.075
2486.40283	6221.375
2489.14976	6232.475
2491.89497	6220.775
2494.63845	6242.075
2497.3802	6247.475
2500.12024	6242.375
2502.85855	6241.175
2505.59514	6243.875
2508.33002	6226.475
2511.06318	6218.675
2513.79462	6206.175
2516.52435	6223.975
2519.25237	6205.275
2521.97867	6199.975
2524.70327	6180.675
2527.42616	6195.275
2530.14734	6182.675
2532.86681	6164.975
2535.58458	6170.575
2538.30065	6144.275
2541.01501	6149.975
2543.72768	6162.775
2546.43864	6144.975
2549.14791	6146.775
2551.85548	6147.675
2554.56136	6141.775
2557.26554	6127.575
2559.96803	6144.475
2562.66883	6136.475
2565.36794	6154.675
2568.06536	6146.375
2570.7611	6130.875
2573.45514	6126.375
2576.14751	6152.775
2578.83819	6142.375
2581.52719	6135.475
2584.21451	6135.375
2586.90015	6137.775
2589.58411	6143.975
2592.2664	6136.775
2594.94701	6136.875
2597.62594	6139.175
2600.30321	6136.875
2602.9788	6125.575
2605.65273	6135.175
2608.32498	6143.075
2610.99557	6131.875
2613.66449	6129.975
2616.33175	6129.575
2618.99734	6153.375
2621.66128	6153.375
2624.32355	6140.975
2626.98416	6162.775
2629.64311	6151.775
2632.30041	6161.475
2634.95605	6155.975
2637.61004	6149.975
2640.26238	6155.575
2642.91306	6145.175
2645.56209	6143.175
2648.20948	6151.475
2650.85521	6139.675
2653.4993	6155.475
2656.14175	6161.375
2658.78255	6167.775
2661.42171	6175.975
2664.05923	6188.375
2666.6951	6181.475
2669.32934	6200.975
2671.96194	6202.575
2674.59291	6182.175
2677.22224	6170.975
2679.84993	6176.275
2682.476	6157.975
2685.10043	6169.975
2687.72324	6149.775
2690.34441	6150.675
2692.96396	6157.675
2695.58188	6161.575
2698.19818	6158.375
2700.81285	6165.675
2703.4259	6166.175
2706.03733	6218.475
2708.64714	6194.875
2711.25533	6195.875
2713.86191	6174.375
2716.46687	6206.775
2719.07021	6207.875
2721.67194	6199.875
2724.27206	6203.675
2726.87057	6202.275
2729.46747	6222.775
2732.06276	6234.275
2734.65644	6213.775
2737.24852	6224.375
2739.83899	6220.375
2742.42786	6239.675
2745.01513	6226.375
2747.60079	6221.775
2750.18486	6217.075
2752.76733	6214.575
2755.3482	6219.575
2757.92747	6231.775
2760.50515	6236.475
2763.08123	6228.875
2765.65573	6186.075
2768.22863	6227.375
2770.79994	6234.975
2773.36967	6245.075
2775.9378	6246.275
2778.50435	6255.775
2781.06932	6260.675
2783.6327	6274.075
2786.1945	6282.475
2788.75471	6268.675
2791.31335	6273.475
2793.87041	6257.275
2796.42589	6247.775
2798.97979	6258.775
2801.53212	6249.275
2804.08288	6235.275
2806.63206	6226.875
2809.17967	6232.775
2811.72571	6197.375
2814.27018	6196.675
2816.81308	6173.275
2819.35442	6181.575
2821.89419	6172.475
2824.43239	6167.975
2826.96904	6170.475
2829.50412	6180.075
2832.03763	6141.375
2834.56959	6142.875
2837.1	6135.275
2839.62884	6134.675
2842.15613	6129.275
2844.68186	6156.475
2847.20604	6161.075
2849.72867	6172.175
2852.24974	6162.575
2854.76927	6164.075
2857.28724	6185.775
2859.80367	6153.875
2862.31855	6131.375
2864.83189	6144.675
2867.34368	6118.275
2869.85393	6111.975
2872.36264	6118.075
2874.8698	6119.175
2877.37543	6113.275
2879.87952	6115.975
2882.38207	6120.075
2884.88308	6130.775
2887.38256	6145.675
2889.88051	6144.475
2892.37692	6160.675
2894.8718	6145.175
2897.36515	6157.375
2899.85698	6177.775
2902.34727	6182.375
2904.83604	6193.275
2907.32328	6223.375
2909.809	6199.775
2912.29319	6216.675
2914.77587	6220.675
2917.25702	6225.475
2919.73665	6229.075
2922.21476	6222.575
2924.69136	6220.675
2927.16644	6219.175
2929.64	6213.375
2932.11205	6208.875
2934.58258	6196.575
2937.05161	6216.375
2939.51912	6204.475
2941.98513	6189.275
2944.44962	6169.675
2946.91261	6161.675
2949.37409	6153.675
2951.83407	6134.075
2954.29254	6153.075
2956.74951	6143.275
2959.20498	6135.875
2961.65895	6103.275
2964.11142	6086.075
2966.56239	6075.775
2969.01186	6055.775
2971.45984	6032.775
2973.90632	6018.075
2976.35131	6002.375
2978.7948	5962.375
2981.23681	5955.075
2983.67732	5924.775
2986.11635	5916.675
2988.55388	5901.775
2990.98993	5880.275
2993.4245	5867.375
2995.85758	5829.475
2998.28917	5815.675
3000.71928	5811.175
3003.14791	5809.475
3005.57506	5808.975
3008.00073	5784.775
3010.42493	5784.775
3012.84764	5780.175
3015.26888	5742.575
3017.68865	5743.975
3020.10694	5707.775
3022.52376	5703.375
3024.9391	5678.075
3027.35298	5671.675
3029.76539	5678.975
3032.17632	5679.975
3034.5858	5651.575
3036.9938	5660.575
3039.40034	5651.275
3041.80542	5650.975
3044.20903	5651.575
3046.61118	5645.675
3049.01187	5634.575
3051.4111	5638.775
3053.80888	5614.975
3056.20519	5603.075
3058.60005	5601.575
3060.99345	5577.475
3063.3854	5564.375
3065.7759	5541.975
3068.16494	5510.075
3070.55254	5491.575
3072.93868	5497.275
3075.32338	5462.375
3077.70662	5435.575
3080.08842	5441.975
3082.46878	5433.875
3084.84769	5412.375
3087.22515	5417.375
3089.60118	5427.175
3091.97576	5415.875
3094.3489	5403.175
3096.72061	5398.675
3099.09087	5391.975
3101.4597	5379.775
3103.82709	5386.275
3106.19305	5371.875
3108.55757	5370.375
3110.92066	5355.475
3113.28232	5337.475
3115.64255	5320.875
3118.00134	5325.975
3120.35871	5306.875
3122.71466	5277.475
3125.06917	5264.275
3127.42226	5279.975
3129.77393	5269.775
3132.12417	5281.475
3134.47299	5268.875
3136.82039	5258.675
3139.16636	5250.275
3141.51092	5250.075
3143.85406	5248.275
3146.19579	5242.575
3148.53609	5225.775
3150.87499	5247.075
3153.21246	5237.775
3155.54853	5244.275
3157.88318	5241.575
3160.21642	5239.075
3162.54826	5227.075
3164.87868	5236.175
3167.2077	5234.375
3169.5353	5228.875
3171.86151	5232.975
3174.18631	5228.075
3176.5097	5232.675
3178.83169	5219.575
3181.15228	5221.075
3183.47147	5217.275
3185.78926	5211.075
3188.10565	5207.575
3190.42065	5199.675
