Data from AgNPs_FTO_APTES_UA_0um_CRN_0.1mM_R6G_10uM_NaF_0.1M_Addition_RamanShift__42__11-00-18-944.txt Node

Date: Tue Dec 21 11:00:18 GMT 2021
User: TCL
Spectrometer: QEP01345
Trigger mode: 4
Integration Time (sec): 7.000000E0
Scans to average: 10
Electric dark correction enabled: true
Nonlinearity correction enabled: false
Boxcar width: 0
XAxis mode: Raman Shifts
Number of Pixels in Spectrum: 1044
>>>>>Begin Spectral Data<<<<<
46.04893	-0.7
50.45542	-0.9
54.85868	-0.8
59.25871	0.4
63.6555	39.9
68.04907	48.2
72.43941	50.1
76.82654	51.6
81.21044	57.6
85.59113	55.4
89.96862	59.5
94.34289	59.9
98.71396	57.5
103.08183	64.2
107.4465	66.1
111.80798	70.6
116.16626	70.1
120.52136	72.3
124.87327	75.8
129.222	78.5
133.56755	84.1
137.90993	91.4
142.24913	99
146.58517	112
150.91804	130.4
155.24774	153.6
159.57429	194.5
163.89768	253.4
168.21792	331.5
172.53501	450
176.84895	624
181.15975	882.5
185.46741	1216.8
189.77193	1678.7
194.07331	2240.5
198.37157	2865.9
202.6667	3551.7
206.9587	4223.4
211.24758	4867.6
215.53334	5533.8
219.81599	6247.4
224.09553	7043.2
228.37195	7913.6
232.64527	8863.3
236.91549	9801.8
241.18261	10731.3
245.44663	11616
249.70755	12337.3
253.96539	12944.4
258.22014	13444.1
262.4718	13812.2
266.72039	14041.4
270.96589	14170.9
275.20832	14075.2
279.44768	13946
283.68397	13820.4
287.91719	13717.8
292.14735	13638.1
296.37445	13661.9
300.59849	13725.3
304.81948	13866
309.03742	14003.5
313.25231	14052.2
317.46415	13950.4
321.67296	13721.4
325.87872	13551
330.08145	13410.9
334.28114	13329.9
338.47781	13297.9
342.67145	13398.7
346.86207	13656.6
351.04966	13886.9
355.23424	14118.1
359.4158	14301.5
363.59435	14383.6
367.76989	14388.1
371.94243	14311.8
376.11196	14254.3
380.27849	14244
384.44203	14319.9
388.60257	14477.1
392.76012	14656.1
396.91468	14830.3
401.06626	15054.3
405.21485	15227.7
409.36047	15183.8
413.50311	15050.5
417.64277	15157.9
421.77947	15410.7
425.9132	15631.2
430.04396	15749.9
434.17176	15861.6
438.2966	15988.4
442.41849	16384.5
446.53742	17105.4
450.6534	17835.9
454.76644	18132.4
458.87653	17955.1
462.98368	17538.3
467.08789	17024.9
471.18916	16494.8
475.2875	15950.6
479.38291	15563
483.4754	15407.6
487.56496	15254.8
491.6516	15038.9
495.73531	14756.9
499.81612	14638.1
503.89401	14755.6
507.96899	14788.7
512.04106	14652.1
516.11023	14353.2
520.1765	13992.1
524.23987	13785.7
528.30034	13750.5
532.35792	13660.3
536.41261	13396.3
540.46441	13136.2
544.51333	12983.6
548.55936	13147.2
552.60252	13640.2
556.64279	14331.3
560.6802	14903.8
564.71473	15081.1
568.7464	15329.3
572.7752	16033
576.80114	17023.5
580.82422	18236.7
584.84444	19968
588.86181	22609.9
592.87633	25393.2
596.888	25912.3
600.89682	23099.5
604.9028	20096.5
608.90594	19311.4
612.90624	19584.7
616.90371	17966.6
620.89834	14798.7
624.89015	13403.4
628.87913	13322.3
632.86528	13548.5
636.84862	13457.7
640.82913	13016.9
644.80683	12565.1
648.78172	12379.3
652.75379	12426
656.72306	12624
660.68952	12731
664.65319	12518.3
668.61405	12199.6
672.57211	12158.4
676.52738	12301.9
680.47986	12362.8
684.42955	12183
688.37646	12015.7
692.32058	12079
696.26192	12408.5
700.20048	12715.7
704.13626	12958.4
708.06928	13069.2
711.99952	13153.7
715.927	13217.5
719.85171	13275.3
723.77365	13109.9
727.69284	12714.9
731.60928	12404
735.52295	12319.9
739.43388	12371.8
743.34206	12481.5
747.24749	12676.3
751.15017	12909
755.05012	13279.6
758.94733	13874
762.8418	14772
766.73354	16083.4
770.62254	17155.1
774.50882	17032.8
778.39237	15801.1
782.27321	14440
786.15132	13417.8
790.02671	12794.2
793.89938	12453.1
797.76935	12292.3
801.6366	12245.4
805.50115	12226.6
809.36299	12121.2
813.22213	11993.4
817.07857	11874
820.93231	11690.1
824.78336	11536.6
828.63172	11404
832.47738	11352.9
836.32036	11345.7
840.16066	11340.5
843.99827	11347.3
847.8332	11363.4
851.66546	11372.4
855.49504	11391.3
859.32195	11388.7
863.1462	11298.9
866.96777	11210.8
870.78668	11183.3
874.60293	11164.7
878.41652	11178.2
882.22745	11234.9
886.03573	11286.2
889.84136	11278
893.64433	11185.9
897.44466	11181.1
901.24235	11145
905.0374	11106.5
908.8298	11035.2
912.61957	11063.6
916.40671	11221.2
920.19121	11499.1
923.97308	11809.9
927.75233	11962.6
931.52895	11737.4
935.30295	11259.4
939.07433	10818.3
942.84309	10521.9
946.60924	10386.6
950.37278	10360.4
954.13371	10395.5
957.89203	10423.4
961.64774	10417.4
965.40086	10431.4
969.15137	10395.4
972.89929	10290.3
976.64461	10122.3
980.38733	10070.5
984.12747	10049.3
987.86502	10093.2
991.59999	10186.8
995.33237	10297.8
999.06217	10549.6
1002.78939	10924.2
1006.51404	11305.2
1010.23611	11737.6
1013.95561	12053.7
1017.67255	12259.2
1021.38692	12071
1025.09872	11582.8
1028.80796	11121.5
1032.51465	10966.9
1036.21877	11020.1
1039.92035	11055.7
1043.61937	11159.5
1047.31584	11206.7
1051.00976	11230
1054.70114	11236.6
1058.38998	11291.8
1062.07627	11376.3
1065.76003	11560.6
1069.44126	11848.1
1073.11995	12216
1076.79611	12517.1
1080.46974	12617
1084.14085	12786.2
1087.80943	13015.4
1091.47549	13299.7
1095.13903	13351.2
1098.80005	13017.9
1102.45857	12385.6
1106.11456	11932.5
1109.76805	11769.7
1113.41903	11786.5
1117.06751	11903.6
1120.71348	12105.3
1124.35696	12332.2
1127.99793	12559.5
1131.63641	12685.2
1135.2724	12746.2
1138.90589	12777.7
1142.5369	12991.1
1146.16542	13271.9
1149.79145	13609.4
1153.415	13832
1157.03607	14194.6
1160.65467	14981.7
1164.27079	16312.5
1167.88443	17836.8
1171.49561	19357.1
1175.10432	21119.9
1178.71056	23374
1182.31434	25353.1
1185.91565	25727.8
1189.51451	24591.5
1193.11091	23142.7
1196.70485	21934.7
1200.29634	20877.9
1203.88538	20173.9
1207.47197	19991.6
1211.05612	19976.3
1214.63782	19572.7
1218.21708	18836.5
1221.79391	18147.5
1225.36829	17904.7
1228.94024	17814.5
1232.50976	17393.6
1236.07685	16654.3
1239.6415	16027.4
1243.20374	15739.3
1246.76355	15783.7
1250.32093	16021.2
1253.8759	16558.7
1257.42845	17219
1260.97859	17988.9
1264.52631	18752.8
1268.07163	19475.5
1271.61453	20190
1275.15503	21040.4
1278.69312	22151.6
1282.22882	23699.6
1285.76211	25652.7
1289.29301	27815.9
1292.82151	30081.9
1296.34761	32678.7
1299.87133	35623.3
1303.39266	38419.1
1306.9116	40669.5
1310.42815	42089.4
1313.94233	42733.7
1317.45412	42034
1320.96354	40185.1
1324.47058	38482.2
1327.97525	37350
1331.47754	36510.5
1334.97747	35600.6
1338.47502	34403.8
1341.97022	32916.7
1345.46305	31574
1348.95352	30805.9
1352.44163	31321.2
1355.92738	33432.4
1359.41078	36700.8
1362.89183	39344.2
1366.37053	39984.3
1369.84688	37187.8
1373.32088	31593.9
1376.79254	27161.7
1380.26186	25691
1383.72883	25906.5
1387.19347	25919.5
1390.65578	25376.4
1394.11575	25311.6
1397.57339	26037.7
1401.0287	27048.1
1404.48168	27712.4
1407.93234	27592.3
1411.38068	26667.7
1414.82669	25303.8
1418.27039	23858.5
1421.71177	22457.2
1425.15083	21204.1
1428.58758	20541.4
1432.02203	20885.4
1435.45416	21850.8
1438.88399	22897.2
1442.31151	23519.6
1445.73673	23829.2
1449.15965	23959.8
1452.58027	23807.3
1455.9986	23383.4
1459.41463	23162.4
1462.82837	23427.5
1466.23982	24185.7
1469.64898	24983.6
1473.05586	25572
1476.46045	25811.5
1479.86276	25838.4
1483.26279	25645.3
1486.66054	25573.5
1490.05602	25762.4
1493.44922	26118.9
1496.84016	26278.2
1500.22882	26246.1
1503.61521	26134.2
1506.99934	26191.8
1510.38121	26248.6
1513.76081	26192.2
1517.13816	25964.9
1520.51324	25831.2
1523.88607	26066.3
1527.25665	26675.6
1530.62498	27201
1533.99105	27172.5
1537.35488	26469.8
1540.71647	25294.5
1544.07581	23926.3
1547.4329	22431.2
1550.78776	21204.4
1554.14038	20260.9
1557.49077	19754.8
1560.83892	19459.1
1564.18484	19364.2
1567.52853	19473
1570.86999	19840.2
1574.20922	20494.8
1577.54624	21152.7
1580.88103	21558.4
1584.2136	22164.3
1587.54395	23526.8
1590.87208	25843.8
1594.19801	28675.4
1597.52172	31246.2
1600.84321	32030.1
1604.16251	30065.8
1607.47959	26157.1
1610.79447	22087
1614.10715	18757.1
1617.41763	16503.9
1620.7259	15219.1
1624.03199	14649.2
1627.33587	14753.7
1630.63757	15545.7
1633.93707	17251.6
1637.23439	20352.6
1640.52951	25382.1
1643.82246	32007.8
1647.11321	37861.6
1650.40179	39189.3
1653.68819	34948.7
1656.97241	27872.1
1660.25446	21461
1663.53433	17021.7
1666.81203	14281.7
1670.08756	12694.3
1673.36092	11751.1
1676.63211	11142.1
1679.90115	10749.8
1683.16801	10432.6
1686.43272	10231
1689.69527	10045.9
1692.95567	9913.5
1696.2139	9837.1
1699.46999	9764.6
1702.72392	9707.6
1705.97571	9644.7
1709.22535	9581.6
1712.47284	9522.9
1715.71819	9489
1718.96139	9449.9
1722.20246	9394
1725.44139	9296.1
1728.67818	9224
1731.91284	9138
1735.14537	9079.3
1738.37576	8983.5
1741.60403	8938.5
1744.83017	8895.3
1748.05418	8861.1
1751.27607	8843.2
1754.49584	8846.5
1757.71349	8849.9
1760.92903	8839
1764.14244	8819
1767.35375	8805.8
1770.56294	8766.3
1773.77002	8706
1776.97499	8665.9
1780.17785	8630.7
1783.37861	8575.1
1786.57727	8544.1
1789.77382	8507.7
1792.96828	8478.9
1796.16064	8448.8
1799.3509	8420.5
1802.53907	8402.4
1805.72514	8360.6
1808.90913	8335.4
1812.09102	8318
1815.27083	8290.8
1818.44856	8245.8
1821.6242	8255.8
1824.79776	8251.6
1827.96924	8257.5
1831.13864	8233.4
1834.30597	8225.5
1837.47122	8228.6
1840.6344	8226.1
1843.7955	8213.4
1846.95454	8223.7
1850.11151	8220.1
1853.26642	8201.8
1856.41926	8177.8
1859.57004	8206.4
1862.71876	8166.8
1865.86542	8158.2
1869.01003	8162.2
1872.15258	8151.4
1875.29308	8141.6
1878.43152	8116
1881.56792	8118.1
1884.70227	8097.5
1887.83457	8113.6
1890.96482	8113.7
1894.09304	8086.9
1897.21921	8092.9
1900.34335	8043
1903.46544	8061
1906.58551	8043.2
1909.70353	8002.4
1912.81953	7994.1
1915.93349	7972.8
1919.04543	7947.9
1922.15534	7911.7
1925.26322	7874.2
1928.36908	7841.7
1931.47292	7817.7
1934.57473	7794.3
1937.67453	7751.8
1940.77232	7734.7
1943.86808	7715.7
1946.96184	7702.5
1950.05358	7684.2
1953.14331	7679.5
1956.23103	7648.2
1959.31675	7630.8
1962.40046	7599.3
1965.48217	7568.8
1968.56188	7524.6
1971.63959	7495.3
1974.7153	7466.8
1977.78901	7451
1980.86073	7384.9
1983.93046	7378.7
1986.99819	7380.5
1990.06394	7337.7
1993.1277	7324.7
1996.18947	7278.1
1999.24925	7278.1
2002.30706	7245
2005.36288	7226.3
2008.41672	7206.9
2011.46859	7174.7
2014.51848	7159.1
2017.56639	7126.3
2020.61233	7118.4
2023.6563	7102.5
2026.6983	7108
2029.73833	7064
2032.7764	7055.6
2035.8125	7032.7
2038.84664	7025.9
2041.87881	7015.5
2044.90903	6995.6
2047.93729	6983.7
2050.96359	6977.3
2053.98794	6972.1
2057.01034	6958.5
2060.03078	6958.4
2063.04927	6948.3
2066.06582	6932
2069.08042	6934.9
2072.09307	6931.8
2075.10378	6907.5
2078.11255	6922.8
2081.11938	6913.8
2084.12426	6906.1
2087.12722	6912.8
2090.12824	6918.3
2093.12732	6915.2
2096.12447	6912.7
2099.11969	6906
2102.11299	6917
2105.10435	6900
2108.09379	6915.6
2111.08131	6907.8
2114.0669	6892.8
2117.05057	6912.9
2120.03233	6912.7
2123.01216	6898.9
2125.99008	6903.3
2128.96609	6877.8
2131.94018	6878.7
2134.91236	6885.4
2137.88263	6887.8
2140.851	6857.2
2143.81746	6845.2
2146.78201	6845.1
2149.74466	6854
2152.7054	6836.1
2155.66425	6820.9
2158.6212	6821.5
2161.57625	6821
2164.52941	6822.3
2167.48067	6837.5
2170.43004	6810.7
2173.37752	6811.7
2176.32311	6814.1
2179.26681	6811.4
2182.20863	6813.3
2185.14856	6801.4
2188.08661	6818.8
2191.02278	6804.1
2193.95707	6785
2196.88948	6787.1
2199.82001	6790.3
2202.74867	6764.7
2205.67545	6761.3
2208.60037	6727.6
2211.52341	6708.4
2214.44458	6705.1
2217.36388	6677.8
2220.28132	6671.8
2223.1969	6679.2
2226.11061	6661.1
2229.02246	6670.4
2231.93245	6662.5
2234.84058	6664.1
2237.74686	6673.2
2240.65128	6661.7
2243.55385	6663
2246.45456	6641
2249.35343	6606.3
2252.25044	6570.9
2255.14561	6550.4
2258.03893	6532.9
2260.93041	6517.4
2263.82004	6477
2266.70783	6460.3
2269.59378	6436.6
2272.4779	6408.4
2275.36017	6395.5
2278.24061	6382.2
2281.11922	6373.4
2283.996	6347.3
2286.87094	6377.2
2289.74405	6346.4
2292.61534	6334.9
2295.4848	6333.4
2298.35243	6312.6
2301.21824	6310.9
2304.08223	6308
2306.94439	6311.2
2309.80474	6284.1
2312.66327	6296.9
2315.51999	6298
2318.37489	6292.5
2321.22797	6287.7
2324.07925	6252.2
2326.92871	6241
2329.77637	6256.3
2332.62222	6249.6
2335.46626	6229
2338.3085	6227
2341.14893	6215.7
2343.98756	6247.2
2346.8244	6238
2349.65943	6248.1
2352.49267	6239.2
2355.32411	6239.8
2358.15376	6221.5
2360.98161	6234.5
2363.80768	6219.4
2366.63195	6229.5
2369.45444	6214.9
2372.27514	6208.1
2375.09405	6199.7
2377.91118	6202.6
2380.72652	6172.8
2383.54009	6150.9
2386.35187	6131.1
2389.16188	6117.2
2391.97011	6113.3
2394.77657	6083.2
2397.58125	6085.6
2400.38416	6082.1
2403.18529	6087
2405.98466	6071.8
2408.78226	6066.9
2411.57809	6049.9
2414.37216	6063.2
2417.16446	6039.2
2419.955	6017.7
2422.74378	6024.8
2425.5308	6000.4
2428.31606	6009.2
2431.09956	6006.3
2433.88131	6007.6
2436.6613	6007.1
2439.43954	6017.3
2442.21603	5993.9
2444.99077	5987.7
2447.76377	5993.9
2450.53501	6000.6
2453.30451	6019.1
2456.07226	5985.8
2458.83827	5996.5
2461.60254	5993.3
2464.36507	6000.4
2467.12586	5997.1
2469.88492	5988.9
2472.64224	5990.8
2475.39782	6010.2
2478.15167	6002.6
2480.90379	6000
2483.65417	6007.3
2486.40283	5995.8
2489.14976	6004.1
2491.89497	5990.2
2494.63845	6006.2
2497.3802	6009.2
2500.12024	6011
2502.85855	5997.8
2505.59514	5988.4
2508.33002	5985.9
2511.06318	5966.6
2513.79462	5960.1
2516.52435	5947.7
2519.25237	5959.7
2521.97867	5945.8
2524.70327	5940.3
2527.42616	5930.4
2530.14734	5927.3
2532.86681	5925.4
2535.58458	5924.9
2538.30065	5920
2541.01501	5920.2
2543.72768	5900.5
2546.43864	5892.4
2549.14791	5911.6
2551.85548	5912.4
2554.56136	5897.5
2557.26554	5880.7
2559.96803	5903.2
2562.66883	5886.8
2565.36794	5911.1
2568.06536	5892.4
2570.7611	5885.7
2573.45514	5896.7
2576.14751	5901.6
2578.83819	5908.9
2581.52719	5890.9
2584.21451	5893.1
2586.90015	5887.3
2589.58411	5874.6
2592.2664	5884.3
2594.94701	5873.3
2597.62594	5888.3
2600.30321	5854
2602.9788	5869
2605.65273	5865.8
2608.32498	5892.4
2610.99557	5862.3
2613.66449	5887.3
2616.33175	5873.5
2618.99734	5870.1
2621.66128	5868.6
2624.32355	5869.3
2626.98416	5872.3
2629.64311	5848.4
2632.30041	5868.8
2634.95605	5852.6
2637.61004	5857.1
2640.26238	5843.1
2642.91306	5830.6
2645.56209	5837.8
2648.20948	5840.2
2650.85521	5855.5
2653.4993	5855.1
2656.14175	5853.4
2658.78255	5874.1
2661.42171	5892.5
2664.05923	5881.4
2666.6951	5923.2
2669.32934	5895.7
2671.96194	5900.3
2674.59291	5917.4
2677.22224	5893.3
2679.84993	5907.1
2682.476	5879.9
2685.10043	5882.3
2687.72324	5874.4
2690.34441	5860.2
2692.96396	5864.4
2695.58188	5870.8
2698.19818	5881.4
2700.81285	5889.8
2703.4259	5901.7
2706.03733	5927.1
2708.64714	5905.6
2711.25533	5906.3
2713.86191	5900.3
2716.46687	5922.1
2719.07021	5939.6
2721.67194	5931.3
2724.27206	5931.9
2726.87057	5927.8
2729.46747	5941.6
2732.06276	5949.5
2734.65644	5956.7
2737.24852	5952.6
2739.83899	5928.3
2742.42786	5961.5
2745.01513	5928.6
2747.60079	5928.8
2750.18486	5922.2
2752.76733	5923.2
2755.3482	5926.5
2757.92747	5948.5
2760.50515	5932.9
2763.08123	5928.8
2765.65573	5919.5
2768.22863	5928.1
2770.79994	5921.8
2773.36967	5945.1
2775.9378	5949.6
2778.50435	5950.8
2781.06932	5947.4
2783.6327	5938.7
2786.1945	5938.7
2788.75471	5943.3
2791.31335	5930.8
2793.87041	5923.6
2796.42589	5918
2798.97979	5910.9
2801.53212	5894.1
2804.08288	5915.3
2806.63206	5915.1
2809.17967	5883.6
2811.72571	5882.1
2814.27018	5872.6
2816.81308	5879.6
2819.35442	5859.8
2821.89419	5854.8
2824.43239	5854.5
2826.96904	5875.1
2829.50412	5857.6
2832.03763	5831.3
2834.56959	5844.3
2837.1	5838
2839.62884	5863.2
2842.15613	5866.4
2844.68186	5889.5
2847.20604	5912.5
2849.72867	5912
2852.24974	5908.9
2854.76927	5893.7
2857.28724	5924.9
2859.80367	5878.8
2862.31855	5868.9
2864.83189	5854.1
2867.34368	5857.5
2869.85393	5858.8
2872.36264	5838
2874.8698	5831.5
2877.37543	5821.5
2879.87952	5834.1
2882.38207	5848.3
2884.88308	5825.5
2887.38256	5837.8
2889.88051	5850.7
2892.37692	5840.5
2894.8718	5859.7
2897.36515	5882.7
2899.85698	5875.6
2902.34727	5893.2
2904.83604	5878.4
2907.32328	5880.5
2909.809	5865.1
2912.29319	5898.8
2914.77587	5897.6
2917.25702	5911.5
2919.73665	5892.2
2922.21476	5890.5
2924.69136	5905.8
2927.16644	5901.2
2929.64	5902.6
2932.11205	5892.9
2934.58258	5886.1
2937.05161	5872.4
2939.51912	5880.6
2941.98513	5862.7
2944.44962	5863.6
2946.91261	5846
2949.37409	5840.8
2951.83407	5814.2
2954.29254	5813.8
2956.74951	5810.8
2959.20498	5805.5
2961.65895	5784.3
2964.11142	5760.3
2966.56239	5720.4
2969.01186	5728.1
2971.45984	5711.2
2973.90632	5675.3
2976.35131	5654.8
2978.7948	5624.9
2981.23681	5622.2
2983.67732	5582
2986.11635	5557.1
2988.55388	5563.2
2990.98993	5536
2993.4245	5533.5
2995.85758	5508.2
2998.28917	5503.2
3000.71928	5502
3003.14791	5470.6
3005.57506	5503.7
3008.00073	5468.3
3010.42493	5451.2
3012.84764	5433.7
3015.26888	5429.6
3017.68865	5400.2
3020.10694	5393
3022.52376	5372.1
3024.9391	5358
3027.35298	5339.3
3029.76539	5330.8
3032.17632	5355.3
3034.5858	5315.5
3036.9938	5333.3
3039.40034	5311.4
3041.80542	5320
3044.20903	5309.4
3046.61118	5297.5
3049.01187	5302.5
3051.4111	5294.5
3053.80888	5263.7
3056.20519	5267
3058.60005	5257.5
3060.99345	5232.4
3063.3854	5233.8
3065.7759	5206.3
3068.16494	5190
3070.55254	5178.5
3072.93868	5153.1
3075.32338	5142.7
3077.70662	5119.8
3080.08842	5116.8
3082.46878	5103.1
3084.84769	5103.6
3087.22515	5086.5
3089.60118	5080.3
3091.97576	5086.4
3094.3489	5073.8
3096.72061	5064.9
3099.09087	5069.6
3101.4597	5057.1
3103.82709	5065.6
3106.19305	5030.8
3108.55757	5016.5
3110.92066	5009.2
3113.28232	4994.7
3115.64255	4980.1
3118.00134	4973.5
3120.35871	4972.1
3122.71466	4953.3
3125.06917	4950.6
3127.42226	4956
3129.77393	4949.8
3132.12417	4932.9
3134.47299	4945.2
3136.82039	4943.9
3139.16636	4946.5
3141.51092	4935
3143.85406	4929.4
3146.19579	4938.1
3148.53609	4925.2
3150.87499	4915.1
3153.21246	4918
3155.54853	4916.3
3157.88318	4905.8
3160.21642	4922
3162.54826	4902.7
3164.87868	4892.6
3167.2077	4904
3169.5353	4899.5
3171.86151	4911.9
3174.18631	4903.7
3176.5097	4892
3178.83169	4893.3
3181.15228	4902.9
3183.47147	4883.5
3185.78926	4877.1
3188.10565	4880
3190.42065	4871.7
3192.73424	4883.8
3195.04645	4856.8
3197.35725	4847.6
3199.66667	4842.8
3201.97469	4841
3204.28132	4836.1
3206.58656	4822.1
3208.8904	4822.2
3211.19287	4823
3213.49394	4816
3215.79363	4822.2
3218.09193	4815.1
3220.38884	4812
3222.68438	4841.3
3224.97853	4828.1
3227.2713	4812.5
3229.56269	4804.9
3231.8527	4824.1
3234.14133	4821.1
3236.42858	4808.6
3238.71446	4818
3240.99896	4798.1
3243.28209	4795.8
3245.56384	4784.6
3247.84423	4802.8
3250.12324	4765.5
3252.40088	4773
3254.67715	4754.9
3256.95205	4744.7
3259.22558	4735.6
3261.49775	4708.2
3263.76855	4693.1
3266.03799	4680.2
3268.30606	4671.6
3270.57277	4674.1
3272.83812	4656.7
3275.10211	4650.5
3277.36474	4652.1
3279.62601	4671
3281.88593	4650.1
3284.14448	4668
3286.40168	4680
3288.65753	4676.9
3290.91202	4665.6
3293.16516	4672.9
3295.41695	4648.7
3297.66738	4627.5
3299.91647	4589.7
3302.16421	4553.8
3304.4106	4526.9
3306.65564	4507.4
3308.89933	4460.9
3311.14169	4437.9
3313.38269	4390.8
3315.62236	4354.1
3317.86068	4320.5
3320.09766	4282.7
3322.3333	4250.1
3324.5676	4251.7
3326.80056	4196.9
3329.03219	4155.7
3331.26248	2
3333.49143	-0.5
3335.71905	0.7
