Data from AgNPs_FTO_APTES_UA_50um_CRN_0.1mM_R6G_10uM_NaF_0.1M_Addition_RamanShift__24__15-30-59-254.txt Node

Date: Tue Dec 21 15:30:59 GMT 2021
User: TCL
Spectrometer: QEP01345
Trigger mode: 4
Integration Time (sec): 7.000000E0
Scans to average: 10
Electric dark correction enabled: true
Nonlinearity correction enabled: false
Boxcar width: 0
XAxis mode: Raman Shifts
Number of Pixels in Spectrum: 1044
>>>>>Begin Spectral Data<<<<<
46.04893	-0.7375
50.45542	-1.1375
54.85868	-1.1375
59.25871	0.0625
63.6555	44.0625
68.04907	50.4625
72.43941	53.6625
76.82654	52.8625
81.21044	59.1625
85.59113	63.5625
89.96862	61.2625
94.34289	63.3625
98.71396	64.7625
103.08183	71.4625
107.4465	69.7625
111.80798	72.3625
116.16626	73.3625
120.52136	71.6625
124.87327	76.0625
129.222	78.7625
133.56755	83.0625
137.90993	92.1625
142.24913	96.3625
146.58517	108.1625
150.91804	120.8625
155.24774	140.8625
159.57429	170.1625
163.89768	219.0625
168.21792	284.9625
172.53501	385.9625
176.84895	529.5625
181.15975	744.0625
185.46741	1033.6625
189.77193	1432.4625
194.07331	1912.5625
198.37157	2458.5625
202.6667	3063.1625
206.9587	3657.6625
211.24758	4223.2625
215.53334	4813.1625
219.81599	5434.7625
224.09553	6117.2625
228.37195	6858.8625
232.64527	7715.2625
236.91549	8584.1625
241.18261	9474.7625
245.44663	10293.4625
249.70755	11026.5625
253.96539	11630.6625
258.22014	12137.5625
262.4718	12550.3625
266.72039	12870.1625
270.96589	13025.9625
275.20832	13025.7625
279.44768	12930.7625
283.68397	12805.5625
287.91719	12681.3625
292.14735	12625.6625
296.37445	12674.0625
300.59849	12743.3625
304.81948	12868.6625
309.03742	12874.0625
313.25231	12692.0625
317.46415	12340.0625
321.67296	11888.9625
325.87872	11529.9625
330.08145	11369.3625
334.28114	11339.9625
338.47781	11488.8625
342.67145	11663.5625
346.86207	11890.7625
351.04966	12151.8625
355.23424	12513.2625
359.4158	12820.9625
363.59435	13016.2625
367.76989	13167.7625
371.94243	13293.3625
376.11196	13330.7625
380.27849	13417.5625
384.44203	13427.4625
388.60257	13486.0625
392.76012	13541.5625
396.91468	13657.9625
401.06626	13829.4625
405.21485	14006.9625
409.36047	13915.6625
413.50311	13611.1625
417.64277	13343.5625
421.77947	13146.1625
425.9132	13113.6625
430.04396	13162.7625
434.17176	13272.3625
438.2966	13387.1625
442.41849	13607.9625
446.53742	13935.6625
450.6534	14292.5625
454.76644	14560.2625
458.87653	14670.8625
462.98368	14600.8625
467.08789	14479.6625
471.18916	14328.0625
475.2875	14215.7625
479.38291	14143.5625
483.4754	14093.2625
487.56496	13927.1625
491.6516	13767.6625
495.73531	13584.4625
499.81612	13452.7625
503.89401	13547.9625
507.96899	13582.8625
512.04106	13571.9625
516.11023	13554.1625
520.1765	13542.7625
524.23987	13521.0625
528.30034	13450.4625
532.35792	13374.5625
536.41261	13286.1625
540.46441	13109.5625
544.51333	13023.8625
548.55936	13049.3625
552.60252	13210.6625
556.64279	13449.7625
560.6802	13577.5625
564.71473	13694.9625
568.7464	13843.7625
572.7752	14099.6625
576.80114	14132.2625
580.82422	14056.3625
584.84444	14100.0625
588.86181	14252.4625
592.87633	14465.6625
596.888	14646.5625
600.89682	14750.0625
604.9028	15265.8625
608.90594	16915.9625
612.90624	19033.8625
616.90371	18359.9625
620.89834	15105.6625
624.89015	13462.8625
628.87913	13244.7625
632.86528	13415.5625
636.84862	13628.2625
640.82913	13507.0625
644.80683	13100.3625
648.78172	12754.6625
652.75379	12574.8625
656.72306	12682.6625
660.68952	12931.3625
664.65319	12942.3625
668.61405	12727.0625
672.57211	12698.6625
676.52738	12778.7625
680.47986	12755.4625
684.42955	12628.2625
688.37646	12521.5625
692.32058	12439.5625
696.26192	12452.2625
700.20048	12525.8625
704.13626	12604.7625
708.06928	12595.0625
711.99952	12516.7625
715.927	12448.4625
719.85171	12429.0625
723.77365	12439.3625
727.69284	12432.5625
731.60928	12401.9625
735.52295	12384.5625
739.43388	12337.7625
743.34206	12383.6625
747.24749	12398.9625
751.15017	12436.9625
755.05012	12565.9625
758.94733	12819.4625
762.8418	13472.7625
766.73354	14635.9625
770.62254	15955.4625
774.50882	16656.6625
778.39237	16124.7625
782.27321	14679.6625
786.15132	13371.8625
790.02671	12552.1625
793.89938	12182.2625
797.76935	12012.1625
801.6366	11964.3625
805.50115	11973.9625
809.36299	11972.3625
813.22213	11924.1625
817.07857	11885.4625
820.93231	11816.7625
824.78336	11744.3625
828.63172	11690.6625
832.47738	11680.2625
836.32036	11615.1625
840.16066	11609.2625
843.99827	11577.6625
847.8332	11537.1625
851.66546	11523.6625
855.49504	11488.0625
859.32195	11492.4625
863.1462	11525.2625
866.96777	11515.9625
870.78668	11531.8625
874.60293	11530.6625
878.41652	11511.9625
882.22745	11553.9625
886.03573	11617.1625
889.84136	11612.7625
893.64433	11559.4625
897.44466	11447.3625
901.24235	11361.7625
905.0374	11264.6625
908.8298	11202.1625
912.61957	11183.1625
916.40671	11201.7625
920.19121	11304.0625
923.97308	11364.7625
927.75233	11397.8625
931.52895	11377.2625
935.30295	11251.5625
939.07433	11092.8625
942.84309	10931.3625
946.60924	10851.9625
950.37278	10793.4625
954.13371	10750.3625
957.89203	10722.5625
961.64774	10703.9625
965.40086	10631.8625
969.15137	10548.9625
972.89929	10478.7625
976.64461	10443.4625
980.38733	10440.8625
984.12747	10414.4625
987.86502	10448.8625
991.59999	10529.4625
995.33237	10635.5625
999.06217	10797.1625
1002.78939	11055.9625
1006.51404	11267.3625
1010.23611	11448.7625
1013.95561	11569.7625
1017.67255	11580.2625
1021.38692	11516.2625
1025.09872	11312.2625
1028.80796	11191.6625
1032.51465	11236.7625
1036.21877	11313.1625
1039.92035	11320.2625
1043.61937	11349.9625
1047.31584	11298.5625
1051.00976	11232.7625
1054.70114	11143.6625
1058.38998	11135.0625
1062.07627	11191.3625
1065.76003	11256.3625
1069.44126	11332.7625
1073.11995	11411.5625
1076.79611	11462.1625
1080.46974	11537.7625
1084.14085	11589.5625
1087.80943	11678.9625
1091.47549	11768.0625
1095.13903	11762.2625
1098.80005	11601.3625
1102.45857	11380.0625
1106.11456	11261.9625
1109.76805	11239.2625
1113.41903	11363.1625
1117.06751	11525.1625
1120.71348	11727.0625
1124.35696	12006.2625
1127.99793	12264.4625
1131.63641	12452.0625
1135.2724	12347.7625
1138.90589	12173.7625
1142.5369	11985.6625
1146.16542	11806.4625
1149.79145	11684.5625
1153.415	11646.7625
1157.03607	11688.6625
1160.65467	11862.5625
1164.27079	12205.3625
1167.88443	12744.9625
1171.49561	13410.8625
1175.10432	14406.2625
1178.71056	15717.8625
1182.31434	16930.6625
1185.91565	17475.5625
1189.51451	17368.1625
1193.11091	16782.9625
1196.70485	16064.6625
1200.29634	15387.8625
1203.88538	14845.1625
1207.47197	14352.8625
1211.05612	13875.5625
1214.63782	13534.6625
1218.21708	13270.4625
1221.79391	13144.3625
1225.36829	13074.7625
1228.94024	12947.6625
1232.50976	12779.4625
1236.07685	12623.5625
1239.6415	12558.7625
1243.20374	12575.8625
1246.76355	12665.0625
1250.32093	12796.9625
1253.8759	13019.5625
1257.42845	13333.0625
1260.97859	13625.8625
1264.52631	13901.8625
1268.07163	14179.9625
1271.61453	14510.3625
1275.15503	14821.4625
1278.69312	15086.3625
1282.22882	15356.7625
1285.76211	15711.2625
1289.29301	16150.8625
1292.82151	16769.1625
1296.34761	17519.0625
1299.87133	18399.6625
1303.39266	19504.9625
1306.9116	20796.5625
1310.42815	22108.3625
1313.94233	22905.8625
1317.45412	22889.5625
1320.96354	22314.4625
1324.47058	21564.2625
1327.97525	20867.9625
1331.47754	20332.8625
1334.97747	20078.4625
1338.47502	20137.5625
1341.97022	20211.2625
1345.46305	20319.7625
1348.95352	20450.7625
1352.44163	20801.5625
1355.92738	21590.6625
1359.41078	22863.6625
1362.89183	24134.8625
1366.37053	23922.2625
1369.84688	21588.2625
1373.32088	18873.3625
1376.79254	17066.5625
1380.26186	16173.2625
1383.72883	15890.6625
1387.19347	15765.5625
1390.65578	15622.2625
1394.11575	15548.6625
1397.57339	15710.8625
1401.0287	15993.3625
1404.48168	16309.7625
1407.93234	16463.9625
1411.38068	16367.9625
1414.82669	16021.2625
1418.27039	15462.2625
1421.71177	14803.5625
1425.15083	14217.5625
1428.58758	13834.8625
1432.02203	13743.3625
1435.45416	13912.8625
1438.88399	14150.1625
1442.31151	14396.9625
1445.73673	14600.6625
1449.15965	14834.2625
1452.58027	15039.2625
1455.9986	15143.9625
1459.41463	15290.8625
1462.82837	15506.4625
1466.23982	15795.6625
1469.64898	16018.1625
1473.05586	16141.0625
1476.46045	16169.6625
1479.86276	16054.7625
1483.26279	16030.1625
1486.66054	15963.6625
1490.05602	16033.4625
1493.44922	16191.1625
1496.84016	16449.9625
1500.22882	16949.5625
1503.61521	17833.9625
1506.99934	18947.6625
1510.38121	19966.7625
1513.76081	20367.1625
1517.13816	19696.9625
1520.51324	18413.9625
1523.88607	17144.3625
1527.25665	16306.7625
1530.62498	15854.7625
1533.99105	15659.8625
1537.35488	15518.5625
1540.71647	15327.3625
1544.07581	15178.6625
1547.4329	14986.8625
1550.78776	14747.8625
1554.14038	14671.2625
1557.49077	14645.5625
1560.83892	14774.9625
1564.18484	14882.3625
1567.52853	15018.4625
1570.86999	15140.2625
1574.20922	15305.5625
1577.54624	15388.4625
1580.88103	15172.4625
1584.2136	14904.3625
1587.54395	14887.4625
1590.87208	15290.1625
1594.19801	16041.2625
1597.52172	16949.2625
1600.84321	17393.0625
1604.16251	17026.7625
1607.47959	15968.5625
1610.79447	14778.4625
1614.10715	13605.9625
1617.41763	12636.7625
1620.7259	11992.2625
1624.03199	11607.0625
1627.33587	11536.0625
1630.63757	11752.6625
1633.93707	12264.4625
1637.23439	13118.0625
1640.52951	14372.1625
1643.82246	16011.3625
1647.11321	17648.2625
1650.40179	18496.3625
1653.68819	17895.1625
1656.97241	15994.5625
1660.25446	13859.3625
1663.53433	12197.9625
1666.81203	11124.5625
1670.08756	10452.6625
1673.36092	10017.1625
1676.63211	9740.4625
1679.90115	9525.9625
1683.16801	9367.5625
1686.43272	9238.1625
1689.69527	9131.3625
1692.95567	9054.6625
1696.2139	9024.7625
1699.46999	8976.2625
1702.72392	8920.1625
1705.97571	8856.8625
1709.22535	8786.1625
1712.47284	8737.3625
1715.71819	8737.8625
1718.96139	8670.1625
1722.20246	8645.6625
1725.44139	8600.1625
1728.67818	8563.6625
1731.91284	8523.9625
1735.14537	8470.3625
1738.37576	8425.3625
1741.60403	8425.2625
1744.83017	8364.2625
1748.05418	8373.9625
1751.27607	8381.3625
1754.49584	8341.3625
1757.71349	8373.0625
1760.92903	8332.9625
1764.14244	8294.8625
1767.35375	8273.0625
1770.56294	8262.3625
1773.77002	8242.1625
1776.97499	8178.7625
1780.17785	8159.1625
1783.37861	8117.5625
1786.57727	8097.4625
1789.77382	8081.6625
1792.96828	8061.2625
1796.16064	8040.6625
1799.3509	8007.6625
1802.53907	8000.8625
1805.72514	7973.2625
1808.90913	7955.4625
1812.09102	7917.0625
1815.27083	7906.1625
1818.44856	7887.0625
1821.6242	7859.0625
1824.79776	7846.0625
1827.96924	7829.2625
1831.13864	7817.8625
1834.30597	7823.5625
1837.47122	7814.4625
1840.6344	7791.0625
1843.7955	7781.0625
1846.95454	7785.1625
1850.11151	7770.4625
1853.26642	7760.8625
1856.41926	7770.0625
1859.57004	7746.0625
1862.71876	7733.4625
1865.86542	7734.0625
1869.01003	7728.9625
1872.15258	7727.6625
1875.29308	7718.2625
1878.43152	7700.5625
1881.56792	7689.7625
1884.70227	7700.7625
1887.83457	7691.8625
1890.96482	7680.7625
1894.09304	7655.7625
1897.21921	7648.1625
1900.34335	7642.7625
1903.46544	7643.9625
1906.58551	7640.0625
1909.70353	7617.4625
1912.81953	7600.3625
1915.93349	7595.6625
1919.04543	7576.3625
1922.15534	7578.9625
1925.26322	7546.2625
1928.36908	7513.5625
1931.47292	7507.5625
1934.57473	7492.5625
1937.67453	7466.1625
1940.77232	7430.6625
1943.86808	7403.7625
1946.96184	7385.4625
1950.05358	7345.1625
1953.14331	7344.0625
1956.23103	7292.3625
1959.31675	7291.3625
1962.40046	7282.0625
1965.48217	7244.4625
1968.56188	7222.6625
1971.63959	7223.3625
1974.7153	7172.9625
1977.78901	7159.8625
1980.86073	7130.0625
1983.93046	7107.9625
1986.99819	7082.3625
1990.06394	7068.1625
1993.1277	7025.7625
1996.18947	6995.1625
1999.24925	6981.8625
2002.30706	6960.8625
2005.36288	6943.5625
2008.41672	6926.1625
2011.46859	6903.0625
2014.51848	6892.6625
2017.56639	6858.7625
2020.61233	6836.7625
2023.6563	6836.1625
2026.6983	6779.4625
2029.73833	6767.4625
2032.7764	6752.1625
2035.8125	6736.2625
2038.84664	6751.2625
2041.87881	6737.9625
2044.90903	6705.4625
2047.93729	6704.3625
2050.96359	6694.7625
2053.98794	6677.5625
2057.01034	6674.4625
2060.03078	6665.4625
2063.04927	6621.1625
2066.06582	6632.4625
2069.08042	6626.5625
2072.09307	6642.0625
2075.10378	6614.6625
2078.11255	6613.9625
2081.11938	6616.9625
2084.12426	6610.8625
2087.12722	6593.2625
2090.12824	6591.3625
2093.12732	6596.1625
2096.12447	6592.8625
2099.11969	6568.3625
2102.11299	6584.3625
2105.10435	6571.3625
2108.09379	6571.9625
2111.08131	6579.6625
2114.0669	6586.7625
2117.05057	6563.1625
2120.03233	6572.8625
2123.01216	6589.9625
2125.99008	6584.6625
2128.96609	6604.8625
2131.94018	6590.1625
2134.91236	6574.7625
2137.88263	6576.7625
2140.851	6607.2625
2143.81746	6591.0625
2146.78201	6586.6625
2149.74466	6584.0625
2152.7054	6575.9625
2155.66425	6563.7625
2158.6212	6552.8625
2161.57625	6556.7625
2164.52941	6571.6625
2167.48067	6569.9625
2170.43004	6536.8625
2173.37752	6537.8625
2176.32311	6540.5625
2179.26681	6531.1625
2182.20863	6533.9625
2185.14856	6530.6625
2188.08661	6527.7625
2191.02278	6522.0625
2193.95707	6514.1625
2196.88948	6511.1625
2199.82001	6493.7625
2202.74867	6486.7625
2205.67545	6497.3625
2208.60037	6493.7625
2211.52341	6467.5625
2214.44458	6472.6625
2217.36388	6445.8625
2220.28132	6434.4625
2223.1969	6414.5625
2226.11061	6404.1625
2229.02246	6383.2625
2231.93245	6364.2625
2234.84058	6342.0625
2237.74686	6352.7625
2240.65128	6334.3625
2243.55385	6320.2625
2246.45456	6327.9625
2249.35343	6292.5625
2252.25044	6293.7625
2255.14561	6290.7625
2258.03893	6285.4625
2260.93041	6281.0625
2263.82004	6251.0625
2266.70783	6233.1625
2269.59378	6223.7625
2272.4779	6212.2625
2275.36017	6175.8625
2278.24061	6182.3625
2281.11922	6154.5625
2283.996	6141.2625
2286.87094	6146.6625
2289.74405	6114.6625
2292.61534	6099.9625
2295.4848	6091.1625
2298.35243	6093.3625
2301.21824	6090.3625
2304.08223	6088.9625
2306.94439	6075.4625
2309.80474	6067.8625
2312.66327	6073.8625
2315.51999	6048.1625
2318.37489	6052.7625
2321.22797	6039.2625
2324.07925	6029.5625
2326.92871	6034.9625
2329.77637	6035.5625
2332.62222	6041.3625
2335.46626	6029.2625
2338.3085	6022.7625
2341.14893	6007.2625
2343.98756	6018.0625
2346.8244	5984.8625
2349.65943	6030.7625
2352.49267	6000.2625
2355.32411	5993.1625
2358.15376	6001.6625
2360.98161	5991.1625
2363.80768	5998.0625
2366.63195	5981.6625
2369.45444	5966.8625
2372.27514	5952.2625
2375.09405	5943.8625
2377.91118	5918.1625
2380.72652	5894.0625
2383.54009	5897.2625
2386.35187	5888.3625
2389.16188	5860.1625
2391.97011	5845.0625
2394.77657	5842.0625
2397.58125	5833.5625
2400.38416	5815.2625
2403.18529	5802.3625
2405.98466	5808.9625
2408.78226	5772.2625
2411.57809	5780.3625
2414.37216	5760.1625
2417.16446	5766.6625
2419.955	5754.3625
2422.74378	5750.9625
2425.5308	5741.7625
2428.31606	5735.5625
2431.09956	5732.5625
2433.88131	5727.3625
2436.6613	5717.0625
2439.43954	5692.8625
2442.21603	5697.0625
2444.99077	5687.5625
2447.76377	5674.9625
2450.53501	5691.5625
2453.30451	5698.0625
2456.07226	5700.5625
2458.83827	5682.2625
2461.60254	5702.1625
2464.36507	5669.5625
2467.12586	5660.9625
2469.88492	5644.7625
2472.64224	5652.0625
2475.39782	5663.6625
2478.15167	5682.4625
2480.90379	5657.2625
2483.65417	5665.2625
2486.40283	5674.5625
2489.14976	5658.1625
2491.89497	5661.8625
2494.63845	5679.7625
2497.3802	5674.6625
2500.12024	5670.7625
2502.85855	5653.4625
2505.59514	5645.7625
2508.33002	5629.9625
2511.06318	5623.3625
2513.79462	5624.3625
2516.52435	5597.7625
2519.25237	5598.3625
2521.97867	5568.0625
2524.70327	5560.3625
2527.42616	5568.1625
2530.14734	5558.5625
2532.86681	5559.4625
2535.58458	5550.8625
2538.30065	5520.8625
2541.01501	5551.4625
2543.72768	5518.3625
2546.43864	5523.9625
2549.14791	5521.7625
2551.85548	5513.6625
2554.56136	5497.4625
2557.26554	5485.6625
2559.96803	5476.3625
2562.66883	5472.6625
2565.36794	5464.2625
2568.06536	5467.1625
2570.7611	5461.3625
2573.45514	5453.3625
2576.14751	5455.1625
2578.83819	5435.6625
2581.52719	5434.1625
2584.21451	5419.5625
2586.90015	5422.7625
2589.58411	5416.3625
2592.2664	5411.2625
2594.94701	5405.3625
2597.62594	5393.3625
2600.30321	5379.6625
2602.9788	5372.4625
2605.65273	5362.6625
2608.32498	5382.0625
2610.99557	5378.6625
2613.66449	5370.4625
2616.33175	5364.3625
2618.99734	5380.2625
2621.66128	5342.5625
2624.32355	5369.1625
2626.98416	5340.6625
2629.64311	5343.7625
2632.30041	5324.9625
2634.95605	5330.2625
2637.61004	5328.0625
2640.26238	5319.2625
2642.91306	5312.0625
2645.56209	5329.7625
2648.20948	5302.8625
2650.85521	5306.2625
2653.4993	5304.6625
2656.14175	5304.6625
2658.78255	5301.1625
2661.42171	5311.0625
2664.05923	5290.4625
2666.6951	5296.0625
2669.32934	5302.2625
2671.96194	5312.5625
2674.59291	5292.7625
2677.22224	5293.5625
2679.84993	5321.8625
2682.476	5301.1625
2685.10043	5308.9625
2687.72324	5271.7625
2690.34441	5306.5625
2692.96396	5268.2625
2695.58188	5297.2625
2698.19818	5302.5625
2700.81285	5284.8625
2703.4259	5309.7625
2706.03733	5360.7625
2708.64714	5326.8625
2711.25533	5293.7625
2713.86191	5286.3625
2716.46687	5305.8625
2719.07021	5299.6625
2721.67194	5285.1625
2724.27206	5295.7625
2726.87057	5301.4625
2729.46747	5290.4625
2732.06276	5287.4625
2734.65644	5294.7625
2737.24852	5295.6625
2739.83899	5274.6625
2742.42786	5283.1625
2745.01513	5279.5625
2747.60079	5257.5625
2750.18486	5261.1625
2752.76733	5260.1625
2755.3482	5250.0625
2757.92747	5251.8625
2760.50515	5265.1625
2763.08123	5246.5625
2765.65573	5255.0625
2768.22863	5229.3625
2770.79994	5231.0625
2773.36967	5236.1625
2775.9378	5229.6625
2778.50435	5225.1625
2781.06932	5211.8625
2783.6327	5236.8625
2786.1945	5215.7625
2788.75471	5197.0625
2791.31335	5199.0625
2793.87041	5195.2625
2796.42589	5153.4625
2798.97979	5183.3625
2801.53212	5153.0625
2804.08288	5165.8625
2806.63206	5154.6625
2809.17967	5149.6625
2811.72571	5130.0625
2814.27018	5120.6625
2816.81308	5128.9625
2819.35442	5100.1625
2821.89419	5104.2625
2824.43239	5102.9625
2826.96904	5106.8625
2829.50412	5102.2625
2832.03763	5086.6625
2834.56959	5097.9625
2837.1	5072.3625
2839.62884	5087.6625
2842.15613	5089.1625
2844.68186	5081.4625
2847.20604	5092.4625
2849.72867	5076.2625
2852.24974	5083.2625
2854.76927	5089.1625
2857.28724	5111.0625
2859.80367	5084.6625
2862.31855	5052.7625
2864.83189	5045.8625
2867.34368	5060.7625
2869.85393	5056.9625
2872.36264	5047.2625
2874.8698	5049.8625
2877.37543	5051.1625
2879.87952	5039.7625
2882.38207	5059.1625
2884.88308	5047.1625
2887.38256	5039.2625
2889.88051	5044.8625
2892.37692	5056.0625
2894.8718	5032.5625
2897.36515	5045.8625
2899.85698	5061.8625
2902.34727	5067.9625
2904.83604	5047.5625
2907.32328	5061.9625
2909.809	5061.4625
2912.29319	5073.1625
2914.77587	5083.2625
2917.25702	5067.3625
2919.73665	5062.3625
2922.21476	5069.2625
2924.69136	5077.3625
2927.16644	5067.2625
2929.64	5059.6625
2932.11205	5067.2625
2934.58258	5054.1625
2937.05161	5046.5625
2939.51912	5055.4625
2941.98513	5056.8625
2944.44962	5033.3625
2946.91261	5020.2625
2949.37409	5008.0625
2951.83407	5020.9625
2954.29254	5009.6625
2956.74951	4998.6625
2959.20498	5001.3625
2961.65895	4978.0625
2964.11142	4977.7625
2966.56239	4958.0625
2969.01186	4944.5625
2971.45984	4931.1625
2973.90632	4926.5625
2976.35131	4901.9625
2978.7948	4896.1625
2981.23681	4885.3625
2983.67732	4872.5625
2986.11635	4865.1625
2988.55388	4849.3625
2990.98993	4835.4625
2993.4245	4821.3625
2995.85758	4807.3625
2998.28917	4813.0625
3000.71928	4801.4625
3003.14791	4816.3625
3005.57506	4801.2625
3008.00073	4783.6625
3010.42493	4776.9625
3012.84764	4766.0625
3015.26888	4767.2625
3017.68865	4770.6625
3020.10694	4762.8625
3022.52376	4735.4625
3024.9391	4732.7625
3027.35298	4733.3625
3029.76539	4708.4625
3032.17632	4712.2625
3034.5858	4697.7625
3036.9938	4699.9625
3039.40034	4701.4625
3041.80542	4684.4625
3044.20903	4688.6625
3046.61118	4669.6625
3049.01187	4679.4625
3051.4111	4663.1625
3053.80888	4642.1625
3056.20519	4657.6625
3058.60005	4644.6625
3060.99345	4623.0625
3063.3854	4623.3625
3065.7759	4607.9625
3068.16494	4595.5625
3070.55254	4588.1625
3072.93868	4576.1625
3075.32338	4579.5625
3077.70662	4564.3625
3080.08842	4560.4625
