Data from AgNPs_FTO_APTES_UA_5um_CRN_0.1mM_R6G_10uM_NaF_0.1M_Addition_RamanShift__21__13-21-29-105.txt Node

Date: Tue Dec 21 13:21:29 GMT 2021
User: TCL
Spectrometer: QEP01345
Trigger mode: 4
Integration Time (sec): 7.000000E0
Scans to average: 10
Electric dark correction enabled: true
Nonlinearity correction enabled: false
Boxcar width: 0
XAxis mode: Raman Shifts
Number of Pixels in Spectrum: 1044
>>>>>Begin Spectral Data<<<<<
46.04893	0.1125
50.45542	-2.0875
54.85868	-1.3875
59.25871	0.9125
63.6555	48.5125
68.04907	52.8125
72.43941	57.7125
76.82654	55.4125
81.21044	65.2125
85.59113	63.8125
89.96862	63.7125
94.34289	66.9125
98.71396	69.5125
103.08183	68.5125
107.4465	73.4125
111.80798	75.9125
116.16626	76.0125
120.52136	78.3125
124.87327	82.7125
129.222	85.9125
133.56755	92.4125
137.90993	104.2125
142.24913	108.3125
146.58517	122.7125
150.91804	142.0125
155.24774	167.2125
159.57429	206.6125
163.89768	270.1125
168.21792	353.3125
172.53501	472.8125
176.84895	662.5125
181.15975	931.5125
185.46741	1290.0125
189.77193	1780.3125
194.07331	2392.9125
198.37157	3085.5125
202.6667	3818.6125
206.9587	4571.2125
211.24758	5311.0125
215.53334	6023.8125
219.81599	6821.7125
224.09553	7671.6125
228.37195	8637.8125
232.64527	9646.8125
236.91549	10739.0125
241.18261	11868.5125
245.44663	12881.1125
249.70755	13768.9125
253.96539	14571.9125
258.22014	15194.6125
262.4718	15710.1125
266.72039	16067.8125
270.96589	16193.3125
275.20832	16220.7125
279.44768	16140.2125
283.68397	16023.0125
287.91719	15897.1125
292.14735	15881.7125
296.37445	15871.0125
300.59849	15911.2125
304.81948	15918.3125
309.03742	15823.9125
313.25231	15606.2125
317.46415	15187.9125
321.67296	14754.7125
325.87872	14404.5125
330.08145	14185.1125
334.28114	14165.9125
338.47781	14263.5125
342.67145	14450.5125
346.86207	14691.9125
351.04966	14993.6125
355.23424	15305.4125
359.4158	15572.2125
363.59435	15778.0125
367.76989	15916.6125
371.94243	16019.5125
376.11196	16098.7125
380.27849	16233.2125
384.44203	16337.6125
388.60257	16477.5125
392.76012	16627.1125
396.91468	16865.8125
401.06626	17110.5125
405.21485	17329.0125
409.36047	17319.4125
413.50311	17083.4125
417.64277	16870.5125
421.77947	16837.0125
425.9132	16851.1125
430.04396	16968.7125
434.17176	17119.5125
438.2966	17316.0125
442.41849	17676.4125
446.53742	18260.1125
450.6534	18886.5125
454.76644	19355.7125
458.87653	19554.8125
462.98368	19409.2125
467.08789	19137.5125
471.18916	18851.7125
475.2875	18712.2125
479.38291	18717.6125
483.4754	18683.8125
487.56496	18429.5125
491.6516	18090.7125
495.73531	17731.5125
499.81612	17542.9125
503.89401	17540.6125
507.96899	17507.0125
512.04106	17401.9125
516.11023	17207.6125
520.1765	17003.8125
524.23987	16950.2125
528.30034	16900.3125
532.35792	16856.2125
536.41261	16758.1125
540.46441	16535.8125
544.51333	16430.7125
548.55936	16473.8125
552.60252	16737.9125
556.64279	17123.0125
560.6802	17450.4125
564.71473	17684.0125
568.7464	18023.0125
572.7752	18433.3125
576.80114	18758.6125
580.82422	18865.4125
584.84444	19052.1125
588.86181	19479.1125
592.87633	19997.5125
596.888	20351.2125
600.89682	20323.6125
604.9028	20632.7125
608.90594	22003.9125
612.90624	23434.6125
616.90371	21910.9125
620.89834	18365.9125
624.89015	16779.2125
628.87913	16678.2125
632.86528	16870.0125
636.84862	16980.7125
640.82913	16776.5125
644.80683	16298.7125
648.78172	15887.2125
652.75379	15715.4125
656.72306	15812.8125
660.68952	16032.4125
664.65319	16069.9125
668.61405	15916.2125
672.57211	15997.7125
676.52738	16134.3125
680.47986	16160.4125
684.42955	16011.2125
688.37646	15819.2125
692.32058	15767.9125
696.26192	15800.0125
700.20048	15902.7125
704.13626	16020.2125
708.06928	16005.8125
711.99952	15865.8125
715.927	15791.4125
719.85171	15743.8125
723.77365	15724.9125
727.69284	15679.9125
731.60928	15641.2125
735.52295	15649.6125
739.43388	15641.9125
743.34206	15697.2125
747.24749	15769.6125
751.15017	15818.9125
755.05012	15958.0125
758.94733	16401.8125
762.8418	17221.9125
766.73354	18569.4125
770.62254	19954.9125
774.50882	20425.5125
778.39237	19596.3125
782.27321	18051.1125
786.15132	16691.3125
790.02671	15821.3125
793.89938	15357.1125
797.76935	15181.9125
801.6366	15162.1125
805.50115	15186.2125
809.36299	15085.2125
813.22213	14976.5125
817.07857	14942.5125
820.93231	14872.5125
824.78336	14755.9125
828.63172	14724.6125
832.47738	14667.9125
836.32036	14692.9125
840.16066	14665.5125
843.99827	14644.8125
847.8332	14595.1125
851.66546	14546.6125
855.49504	14531.5125
859.32195	14580.0125
863.1462	14634.2125
866.96777	14612.8125
870.78668	14624.0125
874.60293	14551.4125
878.41652	14566.8125
882.22745	14557.2125
886.03573	14614.3125
889.84136	14615.4125
893.64433	14572.0125
897.44466	14481.2125
901.24235	14343.5125
905.0374	14220.1125
908.8298	14140.5125
912.61957	14140.4125
916.40671	14241.4125
920.19121	14418.5125
923.97308	14594.3125
927.75233	14699.8125
931.52895	14606.5125
935.30295	14396.2125
939.07433	14196.9125
942.84309	13982.8125
946.60924	13834.8125
950.37278	13798.4125
954.13371	13738.0125
957.89203	13639.9125
961.64774	13624.2125
965.40086	13575.2125
969.15137	13472.3125
972.89929	13353.8125
976.64461	13303.5125
980.38733	13256.6125
984.12747	13299.2125
987.86502	13392.1125
991.59999	13530.4125
995.33237	13773.0125
999.06217	14175.7125
1002.78939	14653.0125
1006.51404	15045.0125
1010.23611	15316.2125
1013.95561	15474.0125
1017.67255	15494.6125
1021.38692	15275.3125
1025.09872	14979.4125
1028.80796	14862.0125
1032.51465	15006.1125
1036.21877	15277.8125
1039.92035	15401.4125
1043.61937	15343.1125
1047.31584	15147.4125
1051.00976	14907.0125
1054.70114	14726.3125
1058.38998	14696.3125
1062.07627	14734.5125
1065.76003	14831.3125
1069.44126	14968.6125
1073.11995	15118.1125
1076.79611	15275.3125
1080.46974	15293.2125
1084.14085	15350.6125
1087.80943	15488.3125
1091.47549	15651.1125
1095.13903	15692.2125
1098.80005	15563.3125
1102.45857	15233.4125
1106.11456	14959.1125
1109.76805	14861.0125
1113.41903	14900.7125
1117.06751	15032.9125
1120.71348	15245.8125
1124.35696	15519.7125
1127.99793	15765.7125
1131.63641	15970.5125
1135.2724	15964.1125
1138.90589	15824.4125
1142.5369	15730.1125
1146.16542	15649.3125
1149.79145	15627.4125
1153.415	15710.5125
1157.03607	15905.5125
1160.65467	16282.3125
1164.27079	16934.1125
1167.88443	17869.4125
1171.49561	19081.9125
1175.10432	20596.5125
1178.71056	22465.9125
1182.31434	24237.5125
1185.91565	25193.0125
1189.51451	25158.6125
1193.11091	24454.3125
1196.70485	23486.8125
1200.29634	22381.3125
1203.88538	21461.4125
1207.47197	20754.8125
1211.05612	20215.7125
1214.63782	19766.0125
1218.21708	19491.4125
1221.79391	19368.8125
1225.36829	19264.7125
1228.94024	19003.5125
1232.50976	18547.3125
1236.07685	18189.3125
1239.6415	17959.3125
1243.20374	17938.5125
1246.76355	17996.3125
1250.32093	18259.9125
1253.8759	18679.2125
1257.42845	19248.1125
1260.97859	19827.3125
1264.52631	20367.8125
1268.07163	20909.9125
1271.61453	21536.8125
1275.15503	22201.1125
1278.69312	22902.7125
1282.22882	23562.8125
1285.76211	24294.4125
1289.29301	25166.0125
1292.82151	26246.4125
1296.34761	27622.9125
1299.87133	29256.3125
1303.39266	31022.4125
1306.9116	32905.1125
1310.42815	34727.5125
1313.94233	35998.8125
1317.45412	36233.5125
1320.96354	35763.9125
1324.47058	35020.2125
1327.97525	34294.6125
1331.47754	33686.1125
1334.97747	33397.0125
1338.47502	33304.3125
1341.97022	33152.8125
1345.46305	32608.0125
1348.95352	32000.5125
1352.44163	31730.3125
1355.92738	32200.6125
1359.41078	33237.4125
1362.89183	34139.4125
1366.37053	33685.3125
1369.84688	31313.0125
1373.32088	28096.7125
1376.79254	25704.4125
1380.26186	24577.2125
1383.72883	24330.7125
1387.19347	24297.3125
1390.65578	24250.9125
1394.11575	24465.5125
1397.57339	25092.3125
1401.0287	26004.4125
1404.48168	26873.4125
1407.93234	27312.4125
1411.38068	27089.7125
1414.82669	26311.7125
1418.27039	24963.2125
1421.71177	23535.2125
1425.15083	22315.9125
1428.58758	21625.3125
1432.02203	21489.7125
1435.45416	21797.3125
1438.88399	22334.9125
1442.31151	22915.4125
1445.73673	23448.2125
1449.15965	24017.2125
1452.58027	24439.6125
1455.9986	24617.0125
1459.41463	24911.7125
1462.82837	25407.0125
1466.23982	26011.1125
1469.64898	26508.0125
1473.05586	26752.3125
1476.46045	26649.6125
1479.86276	26416.2125
1483.26279	26073.3125
1486.66054	25801.9125
1490.05602	25706.0125
1493.44922	25643.2125
1496.84016	25499.0125
1500.22882	25420.2125
1503.61521	25628.8125
1506.99934	26161.7125
1510.38121	26681.4125
1513.76081	26838.2125
1517.13816	26247.2125
1520.51324	25277.2125
1523.88607	24426.6125
1527.25665	23925.5125
1530.62498	23709.4125
1533.99105	23732.7125
1537.35488	23671.8125
1540.71647	23540.7125
1544.07581	23182.2125
1547.4329	22672.6125
1550.78776	22211.5125
1554.14038	21919.2125
1557.49077	21776.0125
1560.83892	21767.0125
1564.18484	21804.2125
1567.52853	21811.2125
1570.86999	21854.6125
1574.20922	22054.1125
1577.54624	22315.6125
1580.88103	22346.0125
1584.2136	22499.3125
1587.54395	23129.3125
1590.87208	24314.4125
1594.19801	26066.9125
1597.52172	27888.8125
1600.84321	28731.9125
1604.16251	27824.1125
1607.47959	25602.0125
1610.79447	22982.5125
1614.10715	20586.1125
1617.41763	18777.1125
1620.7259	17512.3125
1624.03199	16887.4125
1627.33587	16774.5125
1630.63757	17234.5125
1633.93707	18288.8125
1637.23439	20048.5125
1640.52951	22659.4125
1643.82246	25835.5125
1647.11321	28529.8125
1650.40179	29306.4125
1653.68819	27655.0125
1656.97241	24201.3125
1660.25446	20534.0125
1663.53433	17680.1125
1666.81203	15812.5125
1670.08756	14594.8125
1673.36092	13845.7125
1676.63211	13404.4125
1679.90115	12998.8125
1683.16801	12758.3125
1686.43272	12566.0125
1689.69527	12419.0125
1692.95567	12311.0125
1696.2139	12264.7125
1699.46999	12193.5125
1702.72392	12140.6125
1705.97571	12100.9125
1709.22535	12028.1125
1712.47284	11999.9125
1715.71819	11933.3125
1718.96139	11889.2125
1722.20246	11859.3125
1725.44139	11796.7125
1728.67818	11752.7125
1731.91284	11679.3125
1735.14537	11648.4125
1738.37576	11570.5125
1741.60403	11536.0125
1744.83017	11494.9125
1748.05418	11517.1125
1751.27607	11476.3125
1754.49584	11497.3125
1757.71349	11488.3125
1760.92903	11441.4125
1764.14244	11383.1125
1767.35375	11359.8125
1770.56294	11343.2125
1773.77002	11288.3125
1776.97499	11228.4125
1780.17785	11196.0125
1783.37861	11155.0125
1786.57727	11149.9125
1789.77382	11077.6125
1792.96828	11082.0125
1796.16064	11071.4125
1799.3509	11001.0125
1802.53907	11009.6125
1805.72514	10983.7125
1808.90913	10951.8125
1812.09102	10914.1125
1815.27083	10888.4125
1818.44856	10881.1125
1821.6242	10830.0125
1824.79776	10818.5125
1827.96924	10825.5125
1831.13864	10801.3125
1834.30597	10803.4125
1837.47122	10766.8125
1840.6344	10780.5125
1843.7955	10778.5125
1846.95454	10774.0125
1850.11151	10771.8125
1853.26642	10750.1125
1856.41926	10778.8125
1859.57004	10767.5125
1862.71876	10755.3125
1865.86542	10749.8125
1869.01003	10752.5125
1872.15258	10753.2125
1875.29308	10742.8125
1878.43152	10726.4125
1881.56792	10725.2125
1884.70227	10699.3125
1887.83457	10714.6125
1890.96482	10731.3125
1894.09304	10715.9125
1897.21921	10724.5125
1900.34335	10697.4125
1903.46544	10696.2125
1906.58551	10675.7125
1909.70353	10661.2125
1912.81953	10632.4125
1915.93349	10622.6125
1919.04543	10584.1125
1922.15534	10566.7125
1925.26322	10533.6125
1928.36908	10478.8125
1931.47292	10467.3125
1934.57473	10440.3125
1937.67453	10398.0125
1940.77232	10360.6125
1943.86808	10333.2125
1946.96184	10307.6125
1950.05358	10279.2125
1953.14331	10244.3125
1956.23103	10170.5125
1959.31675	10158.4125
1962.40046	10128.6125
1965.48217	10101.3125
1968.56188	10073.0125
1971.63959	10041.9125
1974.7153	10016.0125
1977.78901	9969.0125
1980.86073	9918.9125
1983.93046	9887.1125
1986.99819	9850.2125
1990.06394	9827.7125
1993.1277	9800.4125
1996.18947	9748.3125
1999.24925	9736.9125
2002.30706	9719.8125
2005.36288	9698.8125
2008.41672	9658.0125
2011.46859	9623.1125
2014.51848	9615.6125
2017.56639	9578.1125
2020.61233	9558.2125
2023.6563	9528.3125
2026.6983	9506.4125
2029.73833	9488.6125
2032.7764	9457.7125
2035.8125	9460.0125
2038.84664	9446.4125
2041.87881	9448.1125
2044.90903	9417.9125
2047.93729	9394.7125
2050.96359	9412.5125
2053.98794	9381.6125
2057.01034	9345.5125
2060.03078	9345.6125
2063.04927	9339.8125
2066.06582	9300.7125
2069.08042	9300.3125
2072.09307	9292.4125
2075.10378	9294.9125
2078.11255	9295.1125
2081.11938	9287.6125
2084.12426	9287.5125
2087.12722	9262.6125
2090.12824	9241.0125
2093.12732	9250.2125
2096.12447	9258.9125
2099.11969	9250.4125
2102.11299	9244.1125
2105.10435	9240.3125
2108.09379	9224.8125
2111.08131	9237.7125
2114.0669	9228.1125
2117.05057	9223.3125
2120.03233	9240.4125
2123.01216	9242.2125
2125.99008	9235.4125
2128.96609	9282.5125
2131.94018	9259.0125
2134.91236	9281.4125
2137.88263	9259.7125
2140.851	9251.9125
2143.81746	9250.5125
2146.78201	9255.8125
2149.74466	9249.8125
2152.7054	9246.9125
2155.66425	9244.9125
2158.6212	9240.4125
2161.57625	9219.5125
2164.52941	9220.8125
2167.48067	9218.1125
2170.43004	9192.5125
2173.37752	9191.9125
2176.32311	9193.3125
2179.26681	9198.7125
2182.20863	9196.8125
2185.14856	9182.0125
2188.08661	9198.4125
2191.02278	9202.3125
2193.95707	9184.3125
2196.88948	9179.6125
2199.82001	9166.1125
2202.74867	9169.0125
2205.67545	9161.1125
2208.60037	9137.1125
2211.52341	9132.9125
2214.44458	9142.8125
2217.36388	9097.6125
2220.28132	9076.9125
2223.1969	9054.6125
2226.11061	9035.4125
2229.02246	9062.8125
2231.93245	9031.8125
2234.84058	8999.9125
2237.74686	8985.7125
2240.65128	8994.4125
2243.55385	8959.5125
2246.45456	8956.3125
2249.35343	8917.6125
2252.25044	8924.2125
2255.14561	8883.6125
2258.03893	8891.2125
2260.93041	8873.6125
2263.82004	8831.6125
2266.70783	8814.0125
2269.59378	8784.9125
2272.4779	8746.5125
2275.36017	8722.4125
2278.24061	8699.9125
2281.11922	8685.8125
2283.996	8699.5125
2286.87094	8671.1125
2289.74405	8641.8125
2292.61534	8639.9125
2295.4848	8637.2125
2298.35243	8628.1125
2301.21824	8644.2125
2304.08223	8631.7125
2306.94439	8620.8125
2309.80474	8625.8125
2312.66327	8611.0125
2315.51999	8586.0125
2318.37489	8601.3125
2321.22797	8595.3125
2324.07925	8591.7125
2326.92871	8570.0125
2329.77637	8566.7125
2332.62222	8585.5125
2335.46626	8574.8125
2338.3085	8551.4125
2341.14893	8557.0125
2343.98756	8557.7125
2346.8244	8552.4125
2349.65943	8524.2125
2352.49267	8547.6125
2355.32411	8535.9125
2358.15376	8533.5125
2360.98161	8525.5125
2363.80768	8519.3125
2366.63195	8518.0125
2369.45444	8489.5125
2372.27514	8456.3125
2375.09405	8437.5125
2377.91118	8429.9125
2380.72652	8427.0125
2383.54009	8397.4125
2386.35187	8362.6125
2389.16188	8351.5125
2391.97011	8350.2125
2394.77657	8339.2125
2397.58125	8335.9125
2400.38416	8312.8125
2403.18529	8285.9125
2405.98466	8277.6125
2408.78226	8255.5125
2411.57809	8236.8125
2414.37216	8216.0125
2417.16446	8224.0125
2419.955	8228.0125
2422.74378	8189.2125
2425.5308	8181.7125
2428.31606	8188.5125
2431.09956	8171.8125
2433.88131	8174.1125
2436.6613	8191.4125
2439.43954	8165.4125
2442.21603	8126.7125
2444.99077	8120.4125
2447.76377	8148.9125
2450.53501	8144.4125
2453.30451	8133.8125
2456.07226	8143.3125
2458.83827	8127.7125
2461.60254	8138.0125
2464.36507	8129.2125
2467.12586	8120.2125
2469.88492	8113.4125
2472.64224	8105.8125
2475.39782	8121.3125
2478.15167	8157.7125
2480.90379	8130.6125
2483.65417	8135.9125
2486.40283	8111.1125
2489.14976	8118.2125
2491.89497	8129.3125
2494.63845	8149.2125
2497.3802	8155.6125
2500.12024	8130.3125
2502.85855	8123.5125
2505.59514	8101.8125
2508.33002	8117.2125
2511.06318	8104.7125
2513.79462	8096.5125
2516.52435	8076.3125
2519.25237	8073.9125
2521.97867	8051.9125
2524.70327	8045.5125
2527.42616	8044.5125
2530.14734	8050.2125
2532.86681	8025.8125
2535.58458	8030.7125
2538.30065	7995.6125
2541.01501	8001.4125
2543.72768	8001.6125
2546.43864	7990.0125
2549.14791	7967.8125
2551.85548	7988.4125
2554.56136	7989.7125
2557.26554	7937.2125
2559.96803	7956.1125
2562.66883	7944.3125
2565.36794	7940.8125
2568.06536	7923.6125
2570.7611	7923.6125
2573.45514	7924.7125
2576.14751	7916.6125
2578.83819	7920.6125
2581.52719	7936.9125
2584.21451	7935.1125
2586.90015	7892.3125
2589.58411	7893.5125
2592.2664	7909.2125
2594.94701	7866.6125
2597.62594	7871.3125
2600.30321	7877.7125
2602.9788	7874.8125
2605.65273	7855.3125
2608.32498	7864.6125
2610.99557	7862.9125
2613.66449	7887.2125
2616.33175	7861.6125
2618.99734	7856.0125
2621.66128	7851.1125
2624.32355	7871.5125
2626.98416	7847.4125
2629.64311	7852.6125
2632.30041	7869.0125
2634.95605	7844.6125
2637.61004	7845.6125
2640.26238	7852.2125
2642.91306	7835.9125
2645.56209	7823.0125
2648.20948	7838.4125
2650.85521	7831.0125
2653.4993	7787.3125
2656.14175	7813.5125
2658.78255	7802.2125
2661.42171	7830.3125
2664.05923	7843.7125
2666.6951	7809.7125
2669.32934	7818.4125
2671.96194	7822.3125
2674.59291	7834.8125
2677.22224	7834.7125
2679.84993	7832.6125
2682.476	7793.7125
2685.10043	7822.3125
2687.72324	7805.1125
2690.34441	7798.6125
2692.96396	7804.8125
2695.58188	7813.7125
2698.19818	7787.4125
2700.81285	7783.9125
2703.4259	7804.1125
2706.03733	7867.5125
2708.64714	7830.1125
2711.25533	7837.4125
2713.86191	7815.7125
2716.46687	7824.5125
2719.07021	7808.3125
2721.67194	7806.0125
2724.27206	7818.8125
2726.87057	7828.5125
2729.46747	7825.3125
2732.06276	7845.9125
2734.65644	7817.9125
2737.24852	7824.1125
2739.83899	7822.6125
2742.42786	7821.0125
2745.01513	7805.6125
2747.60079	7797.0125
2750.18486	7807.1125
2752.76733	7815.6125
2755.3482	7785.5125
2757.92747	7798.0125
2760.50515	7783.9125
2763.08123	7806.8125
2765.65573	7785.6125
2768.22863	7832.3125
2770.79994	7797.5125
2773.36967	7813.9125
2775.9378	7781.3125
2778.50435	7794.4125
2781.06932	7805.7125
2783.6327	7810.6125
2786.1945	7779.3125
2788.75471	7793.4125
2791.31335	7759.2125
2793.87041	7767.6125
2796.42589	7738.8125
2798.97979	7740.9125
2801.53212	7728.0125
2804.08288	7722.3125
2806.63206	7703.6125
2809.17967	7694.8125
2811.72571	7674.2125
2814.27018	7689.2125
2816.81308	7666.4125
2819.35442	7673.3125
2821.89419	7656.2125
2824.43239	7654.6125
2826.96904	7665.7125
2829.50412	7645.5125
2832.03763	7627.7125
2834.56959	7632.2125
2837.1	7606.3125
2839.62884	7617.2125
2842.15613	7607.4125
2844.68186	7616.9125
2847.20604	7621.9125
2849.72867	7609.9125
2852.24974	7604.9125
2854.76927	7602.0125
2857.28724	7599.5125
2859.80367	7601.8125
2862.31855	7562.4125
2864.83189	7559.3125
2867.34368	7565.2125
2869.85393	7553.9125
2872.36264	7548.0125
2874.8698	7547.3125
2877.37543	7553.6125
2879.87952	7552.9125
2882.38207	7550.9125
2884.88308	7591.0125
2887.38256	7587.3125
2889.88051	7577.8125
2892.37692	7590.5125
2894.8718	7587.0125
2897.36515	7584.6125
2899.85698	7577.8125
2902.34727	7620.0125
2904.83604	7612.4125
2907.32328	7628.4125
2909.809	7643.2125
2912.29319	7658.6125
2914.77587	7657.6125
2917.25702	7685.9125
2919.73665	7652.8125
2922.21476	7648.8125
2924.69136	7648.4125
2927.16644	7662.3125
2929.64	7653.1125
2932.11205	7633.9125
2934.58258	7612.4125
2937.05161	7640.8125
2939.51912	7623.3125
2941.98513	7621.1125
2944.44962	7610.7125
2946.91261	7579.0125
2949.37409	7585.8125
2951.83407	7573.3125
2954.29254	7534.8125
2956.74951	7561.4125
2959.20498	7504.7125
2961.65895	7503.0125
2964.11142	7483.6125
2966.56239	7427.5125
2969.01186	7441.4125
2971.45984	7407.6125
2973.90632	7385.9125
2976.35131	7360.0125
2978.7948	7343.0125
2981.23681	7327.6125
2983.67732	7295.4125
2986.11635	7285.0125
2988.55388	7265.5125
2990.98993	7239.9125
2993.4245	7243.1125
2995.85758	7209.5125
2998.28917	7194.8125
3000.71928	7188.8125
3003.14791	7164.7125
3005.57506	7173.6125
3008.00073	7147.7125
3010.42493	7133.9125
3012.84764	7126.6125
3015.26888	7094.0125
3017.68865	7085.2125
3020.10694	7061.5125
3022.52376	7054.1125
3024.9391	7054.5125
3027.35298	7042.5125
3029.76539	7019.9125
3032.17632	7000.6125
3034.5858	6971.0125
3036.9938	6991.2125
3039.40034	6973.5125
3041.80542	6980.7125
3044.20903	6959.6125
3046.61118	6961.6125
3049.01187	6935.3125
3051.4111	6950.8125
3053.80888	6913.7125
3056.20519	6893.3125
3058.60005	6878.0125
3060.99345	6869.3125
3063.3854	6849.7125
3065.7759	6811.5125
3068.16494	6818.9125
3070.55254	6772.7125
