Data from AgNPs_FTO_APTES_UA_100um_CRN_0.1mM_R6G_10uM_NaF_0.1M_Addition_RamanShift__18__16-05-59-294.txt Node

Date: Tue Dec 21 16:05:59 GMT 2021
User: TCL
Spectrometer: QEP01345
Trigger mode: 4
Integration Time (sec): 7.000000E0
Scans to average: 10
Electric dark correction enabled: true
Nonlinearity correction enabled: false
Boxcar width: 0
XAxis mode: Raman Shifts
Number of Pixels in Spectrum: 1044
>>>>>Begin Spectral Data<<<<<
46.04893	-0.375
50.45542	-1.375
54.85868	-0.675
59.25871	0.425
63.6555	32.425
68.04907	36.025
72.43941	41.325
76.82654	39.625
81.21044	46.025
85.59113	46.025
89.96862	46.325
94.34289	46.125
98.71396	46.325
103.08183	53.725
107.4465	53.025
111.80798	52.425
116.16626	53.525
120.52136	60.225
124.87327	57.825
129.222	54.325
133.56755	61.725
137.90993	67.525
142.24913	66.025
146.58517	76.725
150.91804	86.525
155.24774	96.125
159.57429	115.125
163.89768	148.825
168.21792	186.325
172.53501	255.825
176.84895	351.825
181.15975	494.625
185.46741	684.125
189.77193	958.125
194.07331	1273.325
198.37157	1652.125
202.6667	2045.125
206.9587	2445.825
211.24758	2835.425
215.53334	3238.025
219.81599	3658.125
224.09553	4091.625
228.37195	4603.525
232.64527	5153.025
236.91549	5722.925
241.18261	6320.325
245.44663	6861.825
249.70755	7334.725
253.96539	7744.725
258.22014	8065.425
262.4718	8345.225
266.72039	8546.925
270.96589	8640.725
275.20832	8655.525
279.44768	8582.625
283.68397	8477.825
287.91719	8376.325
292.14735	8301.825
296.37445	8269.625
300.59849	8321.025
304.81948	8358.725
309.03742	8358.225
313.25231	8240.425
317.46415	8024.125
321.67296	7797.625
325.87872	7604.225
330.08145	7516.725
334.28114	7510.825
338.47781	7573.925
342.67145	7654.725
346.86207	7791.525
351.04966	7931.525
355.23424	8113.825
359.4158	8288.125
363.59435	8400.725
367.76989	8497.025
371.94243	8568.425
376.11196	8638.625
380.27849	8706.525
384.44203	8743.925
388.60257	8769.825
392.76012	8824.025
396.91468	8908.225
401.06626	9000.225
405.21485	9100.825
409.36047	9056.125
413.50311	8859.825
417.64277	8673.925
421.77947	8573.725
425.9132	8528.125
430.04396	8546.225
434.17176	8565.225
438.2966	8621.725
442.41849	8709.225
446.53742	8841.525
450.6534	9026.725
454.76644	9158.525
458.87653	9230.225
462.98368	9239.725
467.08789	9180.025
471.18916	9136.525
475.2875	9106.025
479.38291	9053.525
483.4754	9035.025
487.56496	8980.025
491.6516	8883.825
495.73531	8827.425
499.81612	8794.525
503.89401	8786.925
507.96899	8826.425
512.04106	8834.125
516.11023	8842.325
520.1765	8841.125
524.23987	8819.125
528.30034	8754.925
532.35792	8715.625
536.41261	8681.425
540.46441	8602.825
544.51333	8568.025
548.55936	8577.725
552.60252	8636.925
556.64279	8771.925
560.6802	8818.725
564.71473	8835.625
568.7464	8907.825
572.7752	9001.525
576.80114	9031.025
580.82422	9040.425
584.84444	9064.225
588.86181	9136.625
592.87633	9161.725
596.888	9196.225
600.89682	9236.925
604.9028	9553.425
608.90594	10492.225
612.90624	11696.825
616.90371	11395.125
620.89834	9635.225
624.89015	8781.925
628.87913	8648.225
632.86528	8784.625
636.84862	8936.825
640.82913	8899.425
644.80683	8683.325
648.78172	8444.425
652.75379	8342.125
656.72306	8373.125
660.68952	8519.225
664.65319	8513.325
668.61405	8383.925
672.57211	8356.825
676.52738	8396.825
680.47986	8432.925
684.42955	8396.425
688.37646	8317.625
692.32058	8277.025
696.26192	8254.325
700.20048	8298.925
704.13626	8290.225
708.06928	8267.025
711.99952	8237.025
715.927	8187.925
719.85171	8183.425
723.77365	8193.725
727.69284	8181.725
731.60928	8134.225
735.52295	8089.925
739.43388	8073.925
743.34206	8104.125
747.24749	8093.325
751.15017	8075.325
755.05012	8112.025
758.94733	8270.025
762.8418	8596.225
766.73354	9228.125
770.62254	9937.625
774.50882	10377.725
778.39237	10089.325
782.27321	9302.525
786.15132	8607.025
790.02671	8167.825
793.89938	7941.325
797.76935	7867.325
801.6366	7836.125
805.50115	7821.825
809.36299	7823.625
813.22213	7787.725
817.07857	7771.325
820.93231	7738.425
824.78336	7679.925
828.63172	7622.425
832.47738	7590.525
836.32036	7562.825
840.16066	7544.225
843.99827	7513.425
847.8332	7499.825
851.66546	7468.425
855.49504	7457.725
859.32195	7481.925
863.1462	7474.425
866.96777	7478.125
870.78668	7478.725
874.60293	7486.425
878.41652	7493.425
882.22745	7523.925
886.03573	7541.725
889.84136	7543.425
893.64433	7522.625
897.44466	7451.425
901.24235	7387.625
905.0374	7336.525
908.8298	7266.025
912.61957	7263.625
916.40671	7266.925
920.19121	7299.025
923.97308	7336.425
927.75233	7322.125
931.52895	7301.325
935.30295	7247.725
939.07433	7167.025
942.84309	7076.425
946.60924	7034.925
950.37278	6977.125
954.13371	6939.425
957.89203	6925.625
961.64774	6887.425
965.40086	6870.425
969.15137	6828.925
972.89929	6817.325
976.64461	6768.325
980.38733	6733.325
984.12747	6743.825
987.86502	6759.825
991.59999	6769.625
995.33237	6808.825
999.06217	6861.425
1002.78939	6939.325
1006.51404	7014.625
1010.23611	7108.625
1013.95561	7163.625
1017.67255	7187.225
1021.38692	7150.725
1025.09872	7071.125
1028.80796	6984.925
1032.51465	6955.625
1036.21877	6997.025
1039.92035	7006.125
1043.61937	7022.625
1047.31584	7006.425
1051.00976	7027.125
1054.70114	7024.525
1058.38998	7023.425
1062.07627	7083.725
1065.76003	7112.625
1069.44126	7159.925
1073.11995	7214.325
1076.79611	7258.925
1080.46974	7275.825
1084.14085	7289.725
1087.80943	7301.125
1091.47549	7363.025
1095.13903	7384.925
1098.80005	7322.825
1102.45857	7189.725
1106.11456	7119.425
1109.76805	7062.625
1113.41903	7125.625
1117.06751	7207.025
1120.71348	7343.125
1124.35696	7459.025
1127.99793	7648.125
1131.63641	7769.125
1135.2724	7755.725
1138.90589	7629.525
1142.5369	7509.625
1146.16542	7423.425
1149.79145	7325.325
1153.415	7276.725
1157.03607	7285.825
1160.65467	7355.625
1164.27079	7495.325
1167.88443	7749.625
1171.49561	8086.025
1175.10432	8583.025
1178.71056	9209.425
1182.31434	9794.525
1185.91565	10054.525
1189.51451	9994.425
1193.11091	9706.125
1196.70485	9331.925
1200.29634	8993.825
1203.88538	8744.425
1207.47197	8478.325
1211.05612	8212.925
1214.63782	7995.425
1218.21708	7840.425
1221.79391	7736.025
1225.36829	7668.925
1228.94024	7617.025
1232.50976	7552.325
1236.07685	7517.625
1239.6415	7484.225
1243.20374	7510.025
1246.76355	7537.725
1250.32093	7595.025
1253.8759	7704.125
1257.42845	7855.325
1260.97859	8003.725
1264.52631	8120.925
1268.07163	8295.325
1271.61453	8427.325
1275.15503	8576.825
1278.69312	8737.525
1282.22882	8846.425
1285.76211	9031.025
1289.29301	9225.425
1292.82151	9518.425
1296.34761	9858.225
1299.87133	10261.125
1303.39266	10736.525
1306.9116	11280.925
1310.42815	11842.625
1313.94233	12198.325
1317.45412	12173.525
1320.96354	11869.125
1324.47058	11577.425
1327.97525	11219.125
1331.47754	10977.125
1334.97747	10792.925
1338.47502	10773.025
1341.97022	10814.625
1345.46305	10888.325
1348.95352	11056.125
1352.44163	11352.425
1355.92738	11827.825
1359.41078	12537.325
1362.89183	13274.025
1366.37053	13239.725
1369.84688	12095.125
1373.32088	10653.325
1376.79254	9664.025
1380.26186	9202.225
1383.72883	9000.925
1387.19347	8907.225
1390.65578	8775.425
1394.11575	8668.125
1397.57339	8626.125
1401.0287	8632.225
1404.48168	8641.925
1407.93234	8607.625
1411.38068	8477.425
1414.82669	8294.925
1418.27039	8075.525
1421.71177	7852.225
1425.15083	7637.225
1428.58758	7492.325
1432.02203	7441.825
1435.45416	7507.225
1438.88399	7627.725
1442.31151	7721.225
1445.73673	7795.025
1449.15965	7913.425
1452.58027	7987.725
1455.9986	8038.125
1459.41463	8114.525
1462.82837	8193.325
1466.23982	8303.325
1469.64898	8405.025
1473.05586	8474.925
1476.46045	8509.325
1479.86276	8507.825
1483.26279	8508.425
1486.66054	8521.925
1490.05602	8588.525
1493.44922	8739.225
1496.84016	8978.725
1500.22882	9383.725
1503.61521	9967.025
1506.99934	10679.825
1510.38121	11300.925
1513.76081	11529.025
1517.13816	11176.825
1520.51324	10453.525
1523.88607	9684.725
1527.25665	9204.525
1530.62498	8906.925
1533.99105	8747.225
1537.35488	8596.325
1540.71647	8472.325
1544.07581	8340.825
1547.4329	8183.025
1550.78776	8126.525
1554.14038	8060.225
1557.49077	8076.125
1560.83892	8170.525
1564.18484	8253.025
1567.52853	8366.625
1570.86999	8496.825
1574.20922	8608.225
1577.54624	8635.025
1580.88103	8517.125
1584.2136	8310.825
1587.54395	8202.325
1590.87208	8264.925
1594.19801	8456.525
1597.52172	8800.725
1600.84321	8937.025
1604.16251	8718.625
1607.47959	8354.625
1610.79447	7900.125
1614.10715	7479.925
1617.41763	7104.525
1620.7259	6802.225
1624.03199	6651.925
1627.33587	6572.025
1630.63757	6660.225
1633.93707	6840.525
1637.23439	7219.225
1640.52951	7749.425
1643.82246	8524.425
1647.11321	9331.525
1650.40179	9850.525
1653.68819	9762.625
1656.97241	8958.525
1660.25446	7962.025
1663.53433	7130.125
1666.81203	6594.925
1670.08756	6247.325
1673.36092	6013.225
1676.63211	5869.025
1679.90115	5745.525
1683.16801	5663.725
1686.43272	5589.925
1689.69527	5558.825
1692.95567	5501.425
1696.2139	5486.125
1699.46999	5457.025
1702.72392	5397.525
1705.97571	5363.925
1709.22535	5276.925
1712.47284	5235.325
1715.71819	5213.625
1718.96139	5185.425
1722.20246	5141.125
1725.44139	5104.225
1728.67818	5085.325
1731.91284	5059.125
1735.14537	5024.425
1738.37576	4995.325
1741.60403	4986.325
1744.83017	4970.925
1748.05418	4975.025
1751.27607	4960.225
1754.49584	4974.725
1757.71349	4974.125
1760.92903	4962.825
1764.14244	4950.825
1767.35375	4931.625
1770.56294	4899.125
1773.77002	4866.025
1776.97499	4845.525
1780.17785	4807.425
1783.37861	4787.125
1786.57727	4760.425
1789.77382	4760.625
1792.96828	4708.225
1796.16064	4704.625
1799.3509	4663.925
1802.53907	4669.625
1805.72514	4642.025
1808.90913	4612.725
1812.09102	4586.725
1815.27083	4586.425
1818.44856	4571.425
1821.6242	4563.125
1824.79776	4552.225
1827.96924	4531.125
1831.13864	4541.225
1834.30597	4525.925
1837.47122	4522.325
1840.6344	4497.625
1843.7955	4497.825
1846.95454	4481.525
1850.11151	4479.425
1853.26642	4476.325
1856.41926	4466.025
1859.57004	4474.525
1862.71876	4468.225
1865.86542	4451.825
1869.01003	4438.025
1872.15258	4442.925
1875.29308	4428.125
1878.43152	4431.225
1881.56792	4419.425
1884.70227	4402.325
1887.83457	4393.425
1890.96482	4372.825
1894.09304	4371.125
1897.21921	4378.825
1900.34335	4355.725
1903.46544	4350.925
1906.58551	4346.125
1909.70353	4334.825
1912.81953	4334.225
1915.93349	4318.625
1919.04543	4326.325
1922.15534	4301.825
1925.26322	4283.525
1928.36908	4274.725
1931.47292	4253.825
1934.57473	4243.825
1937.67453	4231.325
1940.77232	4220.625
1943.86808	4191.325
1946.96184	4202.925
1950.05358	4164.025
1953.14331	4159.825
1956.23103	4153.425
1959.31675	4142.425
1962.40046	4123.325
1965.48217	4107.925
1968.56188	4087.325
1971.63959	4068.525
1974.7153	4068.225
1977.78901	4049.725
1980.86073	4036.725
1983.93046	4031.325
1986.99819	4008.225
1990.06394	4003.825
1993.1277	3988.325
1996.18947	3958.125
1999.24925	3956.025
2002.30706	3936.025
2005.36288	3913.125
2008.41672	3903.425
2011.46859	3896.425
2014.51848	3878.625
2017.56639	3860.725
2020.61233	3858.025
2023.6563	3837.525
2026.6983	3837.825
2029.73833	3813.125
2032.7764	3797.725
2035.8125	3793.125
2038.84664	3788.325
2041.87881	3790.525
2044.90903	3782.325
2047.93729	3759.325
2050.96359	3750.625
2053.98794	3755.925
2057.01034	3744.125
2060.03078	3741.625
2063.04927	3728.325
2066.06582	3710.625
2069.08042	3707.925
2072.09307	3720.125
2075.10378	3696.225
2078.11255	3708.925
2081.11938	3689.825
2084.12426	3682.425
2087.12722	3684.925
2090.12824	3683.125
2093.12732	3690.625
2096.12447	3671.425
2099.11969	3683.125
2102.11299	3671.725
2105.10435	3669.225
2108.09379	3665.225
2111.08131	3675.125
2114.0669	3677.225
2117.05057	3668.325
2120.03233	3672.925
2123.01216	3678.925
2125.99008	3661.025
2128.96609	3678.325
2131.94018	3668.825
2134.91236	3673.725
2137.88263	3682.425
2140.851	3663.825
2143.81746	3667.525
2146.78201	3665.025
2149.74466	3660.725
2152.7054	3668.325
2155.66425	3656.825
2158.6212	3636.825
2161.57625	3643.925
2164.52941	3649.225
2167.48067	3643.025
2170.43004	3634.725
2173.37752	3650.125
2176.32311	3633.725
2179.26681	3630.425
2182.20863	3618.525
2185.14856	3617.825
2188.08661	3628.925
2191.02278	3601.325
2193.95707	3606.425
2196.88948	3602.825
2199.82001	3602.725
2202.74867	3582.325
2205.67545	3576.425
2208.60037	3586.225
2211.52341	3575.125
2214.44458	3566.025
2217.36388	3558.125
2220.28132	3555.825
2223.1969	3526.625
2226.11061	3522.625
2229.02246	3520.825
2231.93245	3517.825
2234.84058	3489.125
2237.74686	3496.125
2240.65128	3491.425
2243.55385	3487.425
2246.45456	3465.025
2249.35343	3460.925
2252.25044	3469.825
2255.14561	3450.125
2258.03893	3455.925
2260.93041	3459.225
2263.82004	3440.125
2266.70783	3420.125
2269.59378	3418.925
2272.4779	3409.925
2275.36017	3381.925
2278.24061	3391.525
2281.11922	3365.525
2283.996	3364.425
2286.87094	3366.025
2289.74405	3348.425
2292.61534	3326.325
2295.4848	3324.325
2298.35243	3316.925
2301.21824	3319.125
2304.08223	3325.725
2306.94439	3316.625
2309.80474	3299.525
2312.66327	3292.925
2315.51999	3297.725
2318.37489	3299.225
2321.22797	3290.825
2324.07925	3281.925
2326.92871	3282.825
2329.77637	3284.925
2332.62222	3265.425
2335.46626	3265.025
2338.3085	3236.825
2341.14893	3247.425
2343.98756	3240.225
2346.8244	3249.525
2349.65943	3235.325
2352.49267	3244.725
2355.32411	3242.525
2358.15376	3229.625
2360.98161	3234.625
2363.80768	3227.825
2366.63195	3238.725
2369.45444	3209.625
2372.27514	3221.525
2375.09405	3219.125
2377.91118	3197.325
2380.72652	3194.925
2383.54009	3183.725
2386.35187	3183.825
2389.16188	3164.425
2391.97011	3145.225
2394.77657	3148.525
2397.58125	3134.625
2400.38416	3134.825
2403.18529	3134.625
2405.98466	3126.525
2408.78226	3118.125
2411.57809	3100.725
2414.37216	3109.625
2417.16446	3084.125
2419.955	3082.225
2422.74378	3083.025
2425.5308	3085.725
2428.31606	3076.725
2431.09956	3064.525
2433.88131	3071.225
2436.6613	3067.425
2439.43954	3064.825
2442.21603	3059.025
2444.99077	3056.325
2447.76377	3047.125
2450.53501	3043.725
2453.30451	3054.125
2456.07226	3043.525
2458.83827	3055.725
2461.60254	3034.325
2464.36507	3021.825
2467.12586	3012.925
2469.88492	3026.325
2472.64224	3009.325
2475.39782	3023.025
2478.15167	3028.725
2480.90379	3017.725
2483.65417	3014.825
2486.40283	2995.725
2489.14976	3001.525
2491.89497	3013.025
2494.63845	3018.725
2497.3802	3019.025
2500.12024	2998.325
2502.85855	2991.625
2505.59514	3001.925
2508.33002	2964.925
2511.06318	2969.325
2513.79462	2969.425
2516.52435	2956.625
2519.25237	2967.325
2521.97867	2951.525
2524.70327	2946.825
2527.42616	2944.625
2530.14734	2938.225
2532.86681	2934.725
2535.58458	2939.725
2538.30065	2916.425
2541.01501	2915.625
2543.72768	2916.625
2546.43864	2911.025
2549.14791	2906.825
2551.85548	2904.925
2554.56136	2885.625
2557.26554	2883.225
2559.96803	2888.425
2562.66883	2881.225
2565.36794	2865.125
2568.06536	2865.725
2570.7611	2842.225
2573.45514	2861.625
2576.14751	2849.725
2578.83819	2851.125
2581.52719	2843.825
2584.21451	2831.525
2586.90015	2826.225
2589.58411	2822.625
2592.2664	2813.725
2594.94701	2815.025
2597.62594	2805.425
2600.30321	2799.425
2602.9788	2791.625
2605.65273	2783.925
2608.32498	2791.425
2610.99557	2787.225
2613.66449	2778.625
2616.33175	2774.325
2618.99734	2779.125
2621.66128	2765.525
2624.32355	2762.025
2626.98416	2755.225
2629.64311	2740.525
2632.30041	2740.725
2634.95605	2750.825
2637.61004	2751.225
2640.26238	2737.725
2642.91306	2739.425
2645.56209	2731.825
2648.20948	2731.325
2650.85521	2725.625
2653.4993	2723.925
2656.14175	2732.525
2658.78255	2715.025
2661.42171	2726.925
2664.05923	2719.025
2666.6951	2728.025
2669.32934	2714.125
2671.96194	2711.025
2674.59291	2716.825
2677.22224	2720.225
2679.84993	2724.625
2682.476	2705.725
2685.10043	2700.325
2687.72324	2704.725
2690.34441	2707.425
2692.96396	2701.925
2695.58188	2706.125
2698.19818	2703.425
2700.81285	2710.025
2703.4259	2740.825
2706.03733	2775.125
2708.64714	2744.925
2711.25533	2720.325
2713.86191	2699.025
2716.46687	2715.225
2719.07021	2704.625
2721.67194	2695.125
2724.27206	2695.125
2726.87057	2700.725
2729.46747	2689.825
2732.06276	2689.925
2734.65644	2691.125
2737.24852	2685.425
2739.83899	2680.425
2742.42786	2680.925
2745.01513	2679.825
2747.60079	2668.225
2750.18486	2660.025
2752.76733	2659.025
2755.3482	2654.525
2757.92747	2665.525
2760.50515	2644.025
2763.08123	2643.625
2765.65573	2651.925
2768.22863	2642.025
2770.79994	2638.525
2773.36967	2646.325
2775.9378	2641.625
2778.50435	2625.925
2781.06932	2624.925
2783.6327	2621.725
2786.1945	2618.825
2788.75471	2611.425
2791.31335	2607.025
2793.87041	2609.825
2796.42589	2590.425
2798.97979	2596.925
2801.53212	2591.025
2804.08288	2590.925
2806.63206	2588.425
2809.17967	2575.425
2811.72571	2575.825
2814.27018	2567.625
2816.81308	2563.525
2819.35442	2570.025
2821.89419	2566.925
2824.43239	2550.825
2826.96904	2546.925
2829.50412	2553.825
2832.03763	2534.825
2834.56959	2549.325
2837.1	2540.425
2839.62884	2534.925
2842.15613	2540.525
2844.68186	2542.625
2847.20604	2539.225
2849.72867	2539.825
2852.24974	2541.425
2854.76927	2547.925
2857.28724	2553.825
2859.80367	2541.725
2862.31855	2532.425
2864.83189	2540.425
2867.34368	2520.925
2869.85393	2518.725
2872.36264	2507.925
2874.8698	2523.825
2877.37543	2520.325
2879.87952	2519.625
2882.38207	2531.125
2884.88308	2515.225
2887.38256	2514.125
2889.88051	2509.625
2892.37692	2512.225
2894.8718	2523.425
2897.36515	2513.625
2899.85698	2510.425
2902.34727	2519.125
2904.83604	2521.925
2907.32328	2514.225
2909.809	2527.125
2912.29319	2533.425
2914.77587	2521.025
2917.25702	2525.325
2919.73665	2526.125
2922.21476	2522.725
2924.69136	2525.725
2927.16644	2526.125
2929.64	2526.425
2932.11205	2521.025
2934.58258	2509.125
2937.05161	2524.425
2939.51912	2517.325
2941.98513	2516.625
2944.44962	2518.325
2946.91261	2507.425
2949.37409	2504.525
2951.83407	2498.925
2954.29254	2502.225
2956.74951	2495.525
2959.20498	2492.325
2961.65895	2484.825
2964.11142	2479.325
2966.56239	2460.125
2969.01186	2465.925
2971.45984	2453.925
2973.90632	2457.425
2976.35131	2439.825
2978.7948	2440.225
2981.23681	2437.925
2983.67732	2423.825
2986.11635	2429.725
2988.55388	2415.825
2990.98993	2403.125
2993.4245	2405.325
2995.85758	2404.225
2998.28917	2398.425
3000.71928	2399.625
3003.14791	2391.325
3005.57506	2388.625
3008.00073	2387.925
3010.42493	2371.825
3012.84764	2385.625
3015.26888	2378.225
3017.68865	2372.925
3020.10694	2366.225
3022.52376	2364.325
3024.9391	2361.625
3027.35298	2361.925
3029.76539	2352.225
3032.17632	2349.225
3034.5858	2349.525
3036.9938	2352.325
3039.40034	2350.025
3041.80542	2345.125
3044.20903	2338.625
3046.61118	2337.425
3049.01187	2340.525
3051.4111	2322.225
3053.80888	2328.625
3056.20519	2323.225
3058.60005	2317.925
3060.99345	2312.525
3063.3854	2320.225
3065.7759	2315.925
3068.16494	2312.625
3070.55254	2297.125
3072.93868	2305.525
3075.32338	2298.925
3077.70662	2297.925
3080.08842	2298.725
3082.46878	2297.025
3084.84769	2288.625
3087.22515	2289.625
3089.60118	2302.025
3091.97576	2302.825
3094.3489	2299.125
3096.72061	2302.825
3099.09087	2307.725
3101.4597	2309.225
3103.82709	2303.825
3106.19305	2299.125
3108.55757	2299.925
3110.92066	2298.525
3113.28232	2302.725
3115.64255	2307.625
3118.00134	2294.725
3120.35871	2296.125
3122.71466	2301.425
3125.06917	2300.125
3127.42226	2293.325
3129.77393	2293.125
3132.12417	2292.525
3134.47299	2300.725
3136.82039	2306.525
3139.16636	2295.825
3141.51092	2307.025
3143.85406	2303.925
3146.19579	2336.925
3148.53609	2321.625
3150.87499	2322.225
3153.21246	2331.125
3155.54853	2333.625
3157.88318	2343.425
3160.21642	2344.725
3162.54826	2336.025
3164.87868	2340.125
3167.2077	2344.125
3169.5353	2355.225
3171.86151	2354.625
3174.18631	2342.025
3176.5097	2356.325
3178.83169	2344.325
3181.15228	2347.625
3183.47147	2350.325
3185.78926	2349.925
3188.10565	2348.525
3190.42065	2347.825
3192.73424	2365.225
3195.04645	2361.425
3197.35725	2365.825
3199.66667	2374.225
3201.97469	2371.125
3204.28132	2371.925
3206.58656	2373.725
3208.8904	2384.725
3211.19287	2382.925
3213.49394	2389.825
3215.79363	2390.725
3218.09193	2401.825
3220.38884	2407.525
3222.68438	2407.725
3224.97853	2401.325
3227.2713	2403.325
3229.56269	2397.425
3231.8527	2400.725
