Data from AgNPs_FTO_APTES_UA_20um_CRN_0.1mM_R6G_10uM_NaF_0.1M_Addition_RamanShift__19__14-38-29-193.txt Node

Date: Tue Dec 21 14:38:29 GMT 2021
User: TCL
Spectrometer: QEP01345
Trigger mode: 4
Integration Time (sec): 7.000000E0
Scans to average: 10
Electric dark correction enabled: true
Nonlinearity correction enabled: false
Boxcar width: 0
XAxis mode: Raman Shifts
Number of Pixels in Spectrum: 1044
>>>>>Begin Spectral Data<<<<<
46.04893	-0.7125
50.45542	-1.0125
54.85868	-1.4125
59.25871	0.8875
63.6555	46.4875
68.04907	50.7875
72.43941	52.7875
76.82654	53.7875
81.21044	59.0875
85.59113	60.5875
89.96862	63.0875
94.34289	62.0875
98.71396	67.2875
103.08183	71.0875
107.4465	72.0875
111.80798	74.3875
116.16626	72.8875
120.52136	76.5875
124.87327	83.4875
129.222	81.6875
133.56755	85.7875
137.90993	95.9875
142.24913	99.3875
146.58517	111.9875
150.91804	129.3875
155.24774	153.0875
159.57429	187.8875
163.89768	237.3875
168.21792	311.1875
172.53501	416.3875
176.84895	580.2875
181.15975	814.0875
185.46741	1138.4875
189.77193	1577.4875
194.07331	2115.7875
198.37157	2730.2875
202.6667	3389.2875
206.9587	4051.0875
211.24758	4696.8875
215.53334	5344.4875
219.81599	6011.6875
224.09553	6766.8875
228.37195	7604.4875
232.64527	8511.4875
236.91549	9462.6875
241.18261	10441.3875
245.44663	11323.8875
249.70755	12117.9875
253.96539	12812.7875
258.22014	13383.2875
262.4718	13853.7875
266.72039	14193.0875
270.96589	14390.8875
275.20832	14366.9875
279.44768	14294.6875
283.68397	14188.3875
287.91719	14054.8875
292.14735	14023.2875
296.37445	14034.9875
300.59849	14086.3875
304.81948	14123.5875
309.03742	14077.1875
313.25231	13891.1875
317.46415	13507.5875
321.67296	13114.1875
325.87872	12773.8875
330.08145	12572.7875
334.28114	12561.3875
338.47781	12648.0875
342.67145	12811.6875
346.86207	13044.8875
351.04966	13313.0875
355.23424	13594.2875
359.4158	13832.7875
363.59435	14022.1875
367.76989	14164.5875
371.94243	14266.6875
376.11196	14307.0875
380.27849	14429.1875
384.44203	14476.1875
388.60257	14593.5875
392.76012	14738.8875
396.91468	14895.8875
401.06626	15107.5875
405.21485	15272.4875
409.36047	15203.1875
413.50311	14957.7875
417.64277	14760.6875
421.77947	14639.6875
425.9132	14634.7875
430.04396	14722.8875
434.17176	14839.0875
438.2966	14973.2875
442.41849	15195.8875
446.53742	15562.2875
450.6534	16030.7875
454.76644	16393.2875
458.87653	16508.9875
462.98368	16482.3875
467.08789	16321.2875
471.18916	16164.4875
475.2875	16059.6875
479.38291	16051.0875
483.4754	15957.2875
487.56496	15784.2875
491.6516	15525.5875
495.73531	15274.9875
499.81612	15133.7875
503.89401	15177.6875
507.96899	15172.2875
512.04106	15151.2875
516.11023	15017.9875
520.1765	14916.3875
524.23987	14872.9875
528.30034	14780.3875
532.35792	14722.1875
536.41261	14628.1875
540.46441	14505.7875
544.51333	14420.2875
548.55936	14494.9875
552.60252	14707.5875
556.64279	15044.7875
560.6802	15209.7875
564.71473	15338.0875
568.7464	15532.1875
572.7752	15824.7875
576.80114	16018.5875
580.82422	16125.2875
584.84444	16228.3875
588.86181	16422.7875
592.87633	16700.9875
596.888	16824.0875
600.89682	16843.7875
604.9028	17280.2875
608.90594	18774.3875
612.90624	20383.0875
616.90371	19351.7875
620.89834	16207.0875
624.89015	14744.3875
628.87913	14535.4875
632.86528	14727.0875
636.84862	14860.4875
640.82913	14707.5875
644.80683	14336.3875
648.78172	13982.1875
652.75379	13870.8875
656.72306	13982.5875
660.68952	14216.9875
664.65319	14242.3875
668.61405	14063.9875
672.57211	14095.4875
676.52738	14227.3875
680.47986	14244.2875
684.42955	14131.1875
688.37646	13999.7875
692.32058	13952.8875
696.26192	13933.1875
700.20048	14028.9875
704.13626	14106.1875
708.06928	14071.9875
711.99952	13983.8875
715.927	13926.5875
719.85171	13914.7875
723.77365	13895.9875
727.69284	13858.2875
731.60928	13793.9875
735.52295	13765.0875
739.43388	13753.6875
743.34206	13798.6875
747.24749	13830.5875
751.15017	13895.6875
755.05012	14063.6875
758.94733	14393.2875
762.8418	15081.9875
766.73354	16263.9875
770.62254	17508.6875
774.50882	18024.8875
778.39237	17301.4875
782.27321	15963.3875
786.15132	14756.2875
790.02671	13977.6875
793.89938	13618.4875
797.76935	13466.1875
801.6366	13413.4875
805.50115	13399.9875
809.36299	13332.7875
813.22213	13228.4875
817.07857	13197.4875
820.93231	13140.2875
824.78336	13056.3875
828.63172	13015.7875
832.47738	12985.7875
836.32036	12986.0875
840.16066	12972.4875
843.99827	12953.6875
847.8332	12929.7875
851.66546	12870.3875
855.49504	12854.9875
859.32195	12891.7875
863.1462	12916.8875
866.96777	12920.6875
870.78668	12912.2875
874.60293	12920.5875
878.41652	12879.2875
882.22745	12899.1875
886.03573	12934.2875
889.84136	12920.4875
893.64433	12907.9875
897.44466	12811.0875
901.24235	12737.9875
905.0374	12641.0875
908.8298	12549.4875
912.61957	12521.4875
916.40671	12604.0875
920.19121	12782.4875
923.97308	12869.6875
927.75233	12868.5875
931.52895	12826.5875
935.30295	12704.2875
939.07433	12485.8875
942.84309	12325.3875
946.60924	12229.7875
950.37278	12179.3875
954.13371	12159.7875
957.89203	12091.5875
961.64774	12072.9875
965.40086	12004.7875
969.15137	11952.2875
972.89929	11848.7875
976.64461	11828.8875
980.38733	11778.5875
984.12747	11816.2875
987.86502	11863.6875
991.59999	11968.8875
995.33237	12109.1875
999.06217	12396.1875
1002.78939	12700.7875
1006.51404	12933.1875
1010.23611	13083.8875
1013.95561	13254.8875
1017.67255	13261.6875
1021.38692	13151.9875
1025.09872	12965.8875
1028.80796	12864.1875
1032.51465	12949.7875
1036.21877	13153.2875
1039.92035	13213.6875
1043.61937	13180.9875
1047.31584	13073.5875
1051.00976	12933.8875
1054.70114	12860.4875
1058.38998	12855.8875
1062.07627	12956.2875
1065.76003	13026.4875
1069.44126	13082.6875
1073.11995	13220.0875
1076.79611	13321.8875
1080.46974	13362.2875
1084.14085	13414.3875
1087.80943	13517.7875
1091.47549	13624.3875
1095.13903	13676.0875
1098.80005	13566.3875
1102.45857	13314.0875
1106.11456	13115.8875
1109.76805	13056.5875
1113.41903	13104.3875
1117.06751	13203.1875
1120.71348	13409.7875
1124.35696	13590.1875
1127.99793	13854.8875
1131.63641	14032.9875
1135.2724	13952.6875
1138.90589	13833.9875
1142.5369	13691.3875
1146.16542	13579.3875
1149.79145	13543.0875
1153.415	13616.5875
1157.03607	13737.4875
1160.65467	14013.8875
1164.27079	14527.9875
1167.88443	15209.4875
1171.49561	16121.6875
1175.10432	17289.3875
1178.71056	18739.8875
1182.31434	20131.5875
1185.91565	20839.4875
1189.51451	20791.3875
1193.11091	20289.3875
1196.70485	19447.9875
1200.29634	18583.9875
1203.88538	17884.5875
1207.47197	17287.4875
1211.05612	16837.1875
1214.63782	16446.3875
1218.21708	16170.2875
1221.79391	16030.0875
1225.36829	15901.6875
1228.94024	15751.9875
1232.50976	15465.0875
1236.07685	15273.3875
1239.6415	15151.9875
1243.20374	15145.0875
1246.76355	15218.0875
1250.32093	15415.6875
1253.8759	15730.3875
1257.42845	16126.5875
1260.97859	16542.3875
1264.52631	16906.0875
1268.07163	17302.8875
1271.61453	17752.6875
1275.15503	18245.9875
1278.69312	18751.8875
1282.22882	19224.9875
1285.76211	19684.1875
1289.29301	20248.3875
1292.82151	21032.4875
1296.34761	22003.0875
1299.87133	23139.7875
1303.39266	24444.2875
1306.9116	25798.1875
1310.42815	27205.3875
1313.94233	28050.1875
1317.45412	28260.4875
1320.96354	27819.5875
1324.47058	27206.9875
1327.97525	26663.4875
1331.47754	26224.6875
1334.97747	25988.3875
1338.47502	25952.8875
1341.97022	25924.7875
1345.46305	25781.2875
1348.95352	25603.8875
1352.44163	25641.4875
1355.92738	26127.5875
1359.41078	27044.8875
1362.89183	27959.6875
1366.37053	27573.4875
1369.84688	25409.5875
1373.32088	22718.8875
1376.79254	20781.5875
1380.26186	19920.7875
1383.72883	19681.6875
1387.19347	19623.5875
1390.65578	19479.7875
1394.11575	19492.6875
1397.57339	19701.6875
1401.0287	20165.4875
1404.48168	20551.7875
1407.93234	20694.5875
1411.38068	20529.2875
1414.82669	19997.4875
1418.27039	19194.0875
1421.71177	18317.9875
1425.15083	17539.0875
1428.58758	17068.6875
1432.02203	17000.0875
1435.45416	17240.2875
1438.88399	17609.6875
1442.31151	17994.4875
1445.73673	18324.6875
1449.15965	18689.7875
1452.58027	18992.5875
1455.9986	19195.3875
1459.41463	19342.1875
1462.82837	19640.5875
1466.23982	20001.0875
1469.64898	20302.5875
1473.05586	20457.5875
1476.46045	20426.1875
1479.86276	20334.2875
1483.26279	20088.3875
1486.66054	20009.4875
1490.05602	20032.4875
1493.44922	20085.3875
1496.84016	20240.8875
1500.22882	20568.3875
1503.61521	21207.3875
1506.99934	22038.2875
1510.38121	22812.9875
1513.76081	23084.6875
1517.13816	22587.1875
1520.51324	21533.1875
1523.88607	20534.2875
1527.25665	19942.0875
1530.62498	19615.0875
1533.99105	19495.5875
1537.35488	19359.5875
1540.71647	19134.6875
1544.07581	18863.1875
1547.4329	18486.1875
1550.78776	18214.2875
1554.14038	17998.8875
1557.49077	17926.0875
1560.83892	17976.7875
1564.18484	18066.6875
1567.52853	18140.6875
1570.86999	18235.6875
1574.20922	18405.8875
1577.54624	18584.3875
1580.88103	18528.3875
1584.2136	18448.6875
1587.54395	18634.8875
1590.87208	19296.7875
1594.19801	20310.3875
1597.52172	21487.8875
1600.84321	22050.8875
1604.16251	21444.3875
1607.47959	20027.2875
1610.79447	18376.6875
1614.10715	16823.4875
1617.41763	15545.7875
1620.7259	14646.4875
1624.03199	14137.9875
1627.33587	14064.9875
1630.63757	14325.3875
1633.93707	15029.6875
1637.23439	16280.1875
1640.52951	18021.2875
1643.82246	20198.6875
1647.11321	22083.7875
1650.40179	22881.0875
1653.68819	21812.4875
1656.97241	19435.6875
1660.25446	16804.7875
1663.53433	14754.9875
1666.81203	13376.6875
1670.08756	12489.5875
1673.36092	11933.9875
1676.63211	11572.2875
1679.90115	11290.0875
1683.16801	11111.6875
1686.43272	10963.4875
1689.69527	10843.5875
1692.95567	10753.8875
1696.2139	10692.9875
1699.46999	10637.3875
1702.72392	10584.7875
1705.97571	10527.9875
1709.22535	10463.3875
1712.47284	10444.5875
1715.71819	10400.5875
1718.96139	10374.4875
1722.20246	10327.0875
1725.44139	10276.4875
1728.67818	10239.0875
1731.91284	10175.9875
1735.14537	10132.7875
1738.37576	10091.0875
1741.60403	10053.1875
1744.83017	10037.6875
1748.05418	10058.1875
1751.27607	10044.0875
1754.49584	10021.9875
1757.71349	10032.9875
1760.92903	10016.1875
1764.14244	9951.0875
1767.35375	9921.3875
1770.56294	9876.9875
1773.77002	9846.1875
1776.97499	9801.4875
1780.17785	9767.3875
1783.37861	9746.6875
1786.57727	9708.0875
1789.77382	9690.0875
1792.96828	9679.6875
1796.16064	9622.8875
1799.3509	9616.2875
1802.53907	9608.4875
1805.72514	9575.7875
1808.90913	9525.0875
1812.09102	9528.8875
1815.27083	9470.3875
1818.44856	9466.1875
1821.6242	9427.7875
1824.79776	9430.6875
1827.96924	9431.0875
1831.13864	9411.0875
1834.30597	9414.5875
1837.47122	9383.6875
1840.6344	9390.7875
1843.7955	9371.9875
1846.95454	9386.5875
1850.11151	9362.4875
1853.26642	9340.8875
1856.41926	9366.0875
1859.57004	9356.8875
1862.71876	9329.8875
1865.86542	9341.5875
1869.01003	9305.3875
1872.15258	9308.0875
1875.29308	9323.0875
1878.43152	9285.5875
1881.56792	9292.4875
1884.70227	9276.8875
1887.83457	9265.3875
1890.96482	9267.9875
1894.09304	9255.0875
1897.21921	9250.2875
1900.34335	9246.8875
1903.46544	9237.0875
1906.58551	9218.0875
1909.70353	9209.7875
1912.81953	9188.0875
1915.93349	9155.6875
1919.04543	9153.3875
1922.15534	9111.6875
1925.26322	9097.0875
1928.36908	9040.8875
1931.47292	9022.1875
1934.57473	9015.2875
1937.67453	8987.5875
1940.77232	8970.3875
1943.86808	8932.5875
1946.96184	8895.6875
1950.05358	8898.9875
1953.14331	8872.1875
1956.23103	8818.7875
1959.31675	8806.8875
1962.40046	8774.7875
1965.48217	8737.0875
1968.56188	8724.3875
1971.63959	8695.2875
1974.7153	8652.8875
1977.78901	8647.6875
1980.86073	8624.8875
1983.93046	8594.7875
1986.99819	8570.7875
1990.06394	8541.6875
1993.1277	8496.5875
1996.18947	8467.6875
1999.24925	8427.8875
2002.30706	8435.5875
2005.36288	8401.9875
2008.41672	8362.8875
2011.46859	8331.7875
2014.51848	8311.4875
2017.56639	8297.1875
2020.61233	8261.8875
2023.6563	8248.6875
2026.6983	8261.4875
2029.73833	8202.9875
2032.7764	8188.3875
2035.8125	8186.0875
2038.84664	8160.8875
2041.87881	8148.4875
2044.90903	8124.1875
2047.93729	8111.7875
2050.96359	8121.8875
2053.98794	8095.0875
2057.01034	8104.4875
2060.03078	8099.6875
2063.04927	8062.8875
2066.06582	8055.3875
2069.08042	8048.1875
2072.09307	8049.3875
2075.10378	8033.7875
2078.11255	8022.8875
2081.11938	8032.2875
2084.12426	8032.1875
2087.12722	8006.6875
2090.12824	8011.3875
2093.12732	7998.3875
2096.12447	8006.5875
2099.11969	8018.0875
2102.11299	7981.4875
2105.10435	7973.0875
2108.09379	8011.4875
2111.08131	7997.1875
2114.0669	8003.7875
2117.05057	7992.3875
2120.03233	8016.0875
2123.01216	8016.6875
2125.99008	8013.7875
2128.96609	8015.0875
2131.94018	7999.5875
2134.91236	8006.1875
2137.88263	8020.9875
2140.851	8018.4875
2143.81746	8022.2875
2146.78201	8022.7875
2149.74466	8011.1875
2152.7054	8000.8875
2155.66425	8004.3875
2158.6212	7997.1875
2161.57625	7986.2875
2164.52941	7996.2875
2167.48067	8001.2875
2170.43004	7993.7875
2173.37752	7984.9875
2176.32311	7980.5875
2179.26681	7974.8875
2182.20863	7954.0875
2185.14856	7983.6875
2188.08661	7948.1875
2191.02278	7971.4875
2193.95707	7978.2875
2196.88948	7967.0875
2199.82001	7945.5875
2202.74867	7968.2875
2205.67545	7939.6875
2208.60037	7921.3875
2211.52341	7884.0875
2214.44458	7906.6875
2217.36388	7872.1875
2220.28132	7869.2875
2223.1969	7844.3875
2226.11061	7834.0875
2229.02246	7815.7875
2231.93245	7811.5875
2234.84058	7797.1875
2237.74686	7772.6875
2240.65128	7770.2875
2243.55385	7725.9875
2246.45456	7724.8875
2249.35343	7719.2875
2252.25044	7706.3875
2255.14561	7709.9875
2258.03893	7692.6875
2260.93041	7690.8875
2263.82004	7658.7875
2266.70783	7621.2875
2269.59378	7624.7875
2272.4779	7602.1875
2275.36017	7554.9875
2278.24061	7547.8875
2281.11922	7539.4875
2283.996	7525.4875
2286.87094	7547.3875
2289.74405	7506.7875
2292.61534	7489.6875
2295.4848	7485.3875
2298.35243	7481.0875
2301.21824	7481.9875
2304.08223	7467.0875
2306.94439	7462.9875
2309.80474	7477.6875
2312.66327	7467.0875
2315.51999	7492.1875
2318.37489	7461.1875
2321.22797	7457.6875
2324.07925	7440.5875
2326.92871	7431.7875
2329.77637	7432.7875
2332.62222	7412.7875
2335.46626	7398.9875
2338.3085	7382.8875
2341.14893	7375.0875
2343.98756	7392.6875
2346.8244	7380.8875
2349.65943	7387.4875
2352.49267	7392.2875
2355.32411	7376.6875
2358.15376	7385.2875
2360.98161	7372.9875
2363.80768	7372.9875
2366.63195	7362.4875
2369.45444	7339.9875
2372.27514	7349.4875
2375.09405	7324.3875
2377.91118	7282.8875
2380.72652	7285.0875
2383.54009	7253.4875
2386.35187	7240.7875
2389.16188	7227.4875
2391.97011	7197.7875
2394.77657	7195.5875
2397.58125	7175.8875
2400.38416	7170.4875
2403.18529	7159.1875
2405.98466	7144.9875
2408.78226	7151.3875
2411.57809	7122.8875
2414.37216	7119.0875
2417.16446	7109.2875
2419.955	7080.0875
2422.74378	7091.0875
2425.5308	7084.3875
2428.31606	7084.5875
2431.09956	7074.4875
2433.88131	7063.7875
2436.6613	7056.5875
2439.43954	7042.4875
2442.21603	7052.4875
2444.99077	7025.1875
2447.76377	7026.8875
2450.53501	7027.7875
2453.30451	7037.4875
2456.07226	7026.1875
2458.83827	7017.4875
2461.60254	7011.6875
2464.36507	7020.3875
2467.12586	7010.5875
2469.88492	7010.5875
2472.64224	7018.2875
2475.39782	7004.2875
2478.15167	7022.5875
2480.90379	7006.0875
2483.65417	7009.2875
2486.40283	6988.4875
2489.14976	7004.6875
2491.89497	7000.9875
2494.63845	7025.3875
2497.3802	7010.4875
2500.12024	6991.8875
2502.85855	6999.4875
2505.59514	6984.9875
2508.33002	6981.2875
2511.06318	6964.0875
2513.79462	6947.3875
2516.52435	6952.0875
2519.25237	6943.0875
2521.97867	6935.5875
2524.70327	6942.3875
2527.42616	6919.3875
2530.14734	6907.6875
2532.86681	6898.2875
2535.58458	6895.9875
2538.30065	6870.5875
2541.01501	6868.7875
2543.72768	6885.9875
2546.43864	6857.5875
2549.14791	6860.6875
2551.85548	6844.6875
2554.56136	6859.2875
2557.26554	6828.7875
2559.96803	6829.1875
2562.66883	6820.6875
2565.36794	6798.8875
2568.06536	6797.5875
2570.7611	6801.6875
2573.45514	6768.8875
2576.14751	6773.5875
2578.83819	6780.4875
2581.52719	6755.5875
2584.21451	6744.5875
2586.90015	6761.2875
2589.58411	6759.3875
2592.2664	6739.7875
2594.94701	6744.9875
2597.62594	6717.6875
2600.30321	6726.0875
2602.9788	6701.4875
2605.65273	6707.9875
2608.32498	6712.5875
2610.99557	6698.5875
2613.66449	6719.2875
2616.33175	6689.3875
2618.99734	6696.9875
2621.66128	6691.3875
2624.32355	6684.8875
2626.98416	6689.5875
2629.64311	6684.0875
2632.30041	6675.8875
2634.95605	6677.7875
2637.61004	6670.4875
2640.26238	6664.1875
2642.91306	6664.8875
2645.56209	6665.6875
2648.20948	6662.0875
2650.85521	6645.6875
2653.4993	6659.9875
2656.14175	6638.6875
2658.78255	6646.7875
2661.42171	6646.0875
2664.05923	6654.6875
2666.6951	6663.8875
2669.32934	6659.5875
2671.96194	6651.0875
2674.59291	6660.3875
2677.22224	6660.8875
2679.84993	6649.1875
2682.476	6639.4875
2685.10043	6651.3875
2687.72324	6627.1875
2690.34441	6625.4875
2692.96396	6630.3875
2695.58188	6651.6875
2698.19818	6622.2875
2700.81285	6636.2875
2703.4259	6652.9875
2706.03733	6669.6875
2708.64714	6661.8875
2711.25533	6654.4875
2713.86191	6624.5875
2716.46687	6647.5875
2719.07021	6637.4875
2721.67194	6651.8875
2724.27206	6626.7875
2726.87057	6643.3875
2729.46747	6641.4875
2732.06276	6629.2875
2734.65644	6638.6875
2737.24852	6630.4875
2739.83899	6613.0875
2742.42786	6624.8875
2745.01513	6617.4875
2747.60079	6613.8875
2750.18486	6603.4875
2752.76733	6608.4875
2755.3482	6606.9875
2757.92747	6608.9875
2760.50515	6611.1875
2763.08123	6601.4875
2765.65573	6583.1875
2768.22863	6616.7875
2770.79994	6587.9875
2773.36967	6585.6875
2775.9378	6582.6875
2778.50435	6582.5875
2781.06932	6583.7875
2783.6327	6577.1875
2786.1945	6584.5875
2788.75471	6555.2875
2791.31335	6537.5875
2793.87041	6542.0875
2796.42589	6524.7875
2798.97979	6507.0875
2801.53212	6512.8875
2804.08288	6513.3875
2806.63206	6501.2875
2809.17967	6476.7875
2811.72571	6456.9875
2814.27018	6459.5875
2816.81308	6457.8875
2819.35442	6456.6875
2821.89419	6437.8875
2824.43239	6424.6875
2826.96904	6430.8875
2829.50412	6433.8875
2832.03763	6414.7875
2834.56959	6409.1875
2837.1	6395.2875
2839.62884	6410.5875
2842.15613	6396.2875
2844.68186	6412.7875
2847.20604	6424.1875
2849.72867	6408.5875
2852.24974	6418.1875
2854.76927	6394.8875
2857.28724	6391.4875
2859.80367	6378.9875
2862.31855	6365.2875
2864.83189	6356.5875
2867.34368	6371.8875
2869.85393	6349.0875
2872.36264	6357.0875
2874.8698	6367.6875
2877.37543	6368.2875
2879.87952	6358.7875
2882.38207	6396.0875
2884.88308	6373.3875
2887.38256	6381.3875
2889.88051	6371.2875
2892.37692	6375.3875
2894.8718	6377.7875
2897.36515	6386.2875
2899.85698	6377.5875
2902.34727	6401.8875
2904.83604	6403.6875
2907.32328	6410.7875
2909.809	6392.5875
2912.29319	6414.5875
2914.77587	6421.0875
2917.25702	6429.8875
2919.73665	6434.7875
2922.21476	6428.5875
2924.69136	6421.0875
2927.16644	6441.7875
2929.64	6422.7875
2932.11205	6407.2875
2934.58258	6394.2875
2937.05161	6393.7875
2939.51912	6384.5875
2941.98513	6392.8875
2944.44962	6384.2875
2946.91261	6363.9875
2949.37409	6367.5875
2951.83407	6363.7875
2954.29254	6357.0875
2956.74951	6350.9875
2959.20498	6328.1875
2961.65895	6311.0875
2964.11142	6306.4875
2966.56239	6262.5875
2969.01186	6274.3875
2971.45984	6257.6875
2973.90632	6260.7875
2976.35131	6212.2875
2978.7948	6200.2875
2981.23681	6199.1875
2983.67732	6155.1875
2986.11635	6162.7875
2988.55388	6132.1875
2990.98993	6127.4875
2993.4245	6111.9875
2995.85758	6086.2875
2998.28917	6069.7875
3000.71928	6073.6875
3003.14791	6063.0875
3005.57506	6053.6875
3008.00073	6035.3875
3010.42493	6041.6875
3012.84764	6042.6875
3015.26888	6038.5875
3017.68865	5995.8875
3020.10694	5995.7875
3022.52376	5980.0875
3024.9391	5970.5875
3027.35298	5968.3875
3029.76539	5951.0875
3032.17632	5953.3875
3034.5858	5936.9875
3036.9938	5925.8875
3039.40034	5911.5875
3041.80542	5893.7875
3044.20903	5885.3875
3046.61118	5912.9875
3049.01187	5896.4875
3051.4111	5863.2875
3053.80888	5847.6875
3056.20519	5853.4875
3058.60005	5850.5875
3060.99345	5836.1875
3063.3854	5810.3875
3065.7759	5791.9875
3068.16494	5777.8875
3070.55254	5778.1875
3072.93868	5757.3875
3075.32338	5770.0875
3077.70662	5734.9875
