Data from AgNPs_FTO_APTES_UA_100um_CRN_0.1mM_R6G_10uM_NaF_0.1M_Addition_RamanShift__34__16-24-39-315.txt Node

Date: Tue Dec 21 16:24:39 GMT 2021
User: TCL
Spectrometer: QEP01345
Trigger mode: 4
Integration Time (sec): 7.000000E0
Scans to average: 10
Electric dark correction enabled: true
Nonlinearity correction enabled: false
Boxcar width: 0
XAxis mode: Raman Shifts
Number of Pixels in Spectrum: 1044
>>>>>Begin Spectral Data<<<<<
46.04893	-0.55
50.45542	-0.95
54.85868	-0.85
59.25871	0.75
63.6555	27.75
68.04907	35.15
72.43941	35.35
76.82654	34.85
81.21044	42.75
85.59113	41.05
89.96862	41.95
94.34289	44.05
98.71396	42.15
103.08183	46.75
107.4465	48.35
111.80798	49.55
116.16626	50.35
120.52136	50.65
124.87327	51.75
129.222	46.05
133.56755	52.95
137.90993	59.45
142.24913	60.55
146.58517	67.05
150.91804	74.05
155.24774	82.55
159.57429	100.45
163.89768	127.25
168.21792	164.65
172.53501	220.35
176.84895	302.05
181.15975	423.65
185.46741	587.85
189.77193	813.65
194.07331	1091.65
198.37157	1402.25
202.6667	1729.35
206.9587	2078.15
211.24758	2410.35
215.53334	2735.65
219.81599	3104.85
224.09553	3469.05
228.37195	3911.45
232.64527	4358.85
236.91549	4875.85
241.18261	5357.95
245.44663	5826.35
249.70755	6273.75
253.96539	6620.75
258.22014	6902.95
262.4718	7168.95
266.72039	7350.55
270.96589	7464.65
275.20832	7455.45
279.44768	7391.95
283.68397	7281.75
287.91719	7152.75
292.14735	7067.15
296.37445	7058.55
300.59849	7070.55
304.81948	7112.05
309.03742	7104.75
313.25231	7042.65
317.46415	6905.75
321.67296	6731.15
325.87872	6603.95
330.08145	6551.25
334.28114	6559.55
338.47781	6621.75
342.67145	6694.05
346.86207	6812.45
351.04966	6942.85
355.23424	7098.35
359.4158	7262.35
363.59435	7356.35
367.76989	7455.45
371.94243	7489.85
376.11196	7580.45
380.27849	7639.95
384.44203	7669.95
388.60257	7723.95
392.76012	7752.85
396.91468	7800.15
401.06626	7889.35
405.21485	7963.45
409.36047	7934.35
413.50311	7800.25
417.64277	7669.95
421.77947	7631.85
425.9132	7584.35
430.04396	7590.65
434.17176	7640.85
438.2966	7689.05
442.41849	7773.05
446.53742	7889.65
450.6534	8006.75
454.76644	8093.45
458.87653	8145.15
462.98368	8147.55
467.08789	8126.05
471.18916	8083.85
475.2875	8039.65
479.38291	8022.05
483.4754	7992.55
487.56496	7977.35
491.6516	7919.65
495.73531	7892.15
499.81612	7874.55
503.89401	7872.45
507.96899	7868.15
512.04106	7865.75
516.11023	7881.35
520.1765	7911.45
524.23987	7886.05
528.30034	7846.85
532.35792	7814.35
536.41261	7782.75
540.46441	7710.75
544.51333	7643.25
548.55936	7668.55
552.60252	7709.75
556.64279	7790.15
560.6802	7846.85
564.71473	7877.35
568.7464	7949.45
572.7752	8002.25
576.80114	8038.95
580.82422	7980.65
584.84444	7997.25
588.86181	8040.45
592.87633	8155.05
596.888	8210.35
600.89682	8242.15
604.9028	8487.05
608.90594	9180.05
612.90624	10151.45
616.90371	10025.25
620.89834	8736.05
624.89015	8077.15
628.87913	8012.05
632.86528	8134.65
636.84862	8257.75
640.82913	8238.15
644.80683	8026.25
648.78172	7869.15
652.75379	7744.95
656.72306	7751.15
660.68952	7814.35
664.65319	7773.75
668.61405	7626.65
672.57211	7577.95
676.52738	7618.85
680.47986	7622.55
684.42955	7583.15
688.37646	7564.15
692.32058	7561.45
696.26192	7569.25
700.20048	7595.85
704.13626	7615.75
708.06928	7584.55
711.99952	7545.65
715.927	7542.25
719.85171	7542.85
723.77365	7555.45
727.69284	7551.85
731.60928	7512.25
735.52295	7489.75
739.43388	7454.95
743.34206	7451.75
747.24749	7479.25
751.15017	7462.55
755.05012	7495.95
758.94733	7606.05
762.8418	7816.65
766.73354	8244.85
770.62254	8738.25
774.50882	9049.95
778.39237	8880.85
782.27321	8330.95
786.15132	7861.65
790.02671	7540.45
793.89938	7415.55
797.76935	7337.45
801.6366	7333.75
805.50115	7340.95
809.36299	7363.55
813.22213	7373.75
817.07857	7389.25
820.93231	7336.05
824.78336	7287.95
828.63172	7220.35
832.47738	7216.05
836.32036	7198.95
840.16066	7198.75
843.99827	7184.25
847.8332	7152.85
851.66546	7132.95
855.49504	7106.55
859.32195	7123.85
863.1462	7090.45
866.96777	7102.95
870.78668	7102.35
874.60293	7114.05
878.41652	7141.25
882.22745	7151.85
886.03573	7193.05
889.84136	7227.55
893.64433	7162.85
897.44466	7111.85
901.24235	7048.55
905.0374	7019.45
908.8298	6968.75
912.61957	6939.15
916.40671	6925.25
920.19121	6941.75
923.97308	6968.55
927.75233	6981.85
931.52895	6989.55
935.30295	6963.75
939.07433	6883.65
942.84309	6802.25
946.60924	6758.25
950.37278	6729.15
954.13371	6692.85
957.89203	6669.85
961.64774	6653.05
965.40086	6648.55
969.15137	6616.15
972.89929	6592.95
976.64461	6571.65
980.38733	6566.95
984.12747	6563.45
987.86502	6596.75
991.59999	6641.25
995.33237	6657.45
999.06217	6730.65
1002.78939	6810.75
1006.51404	6890.25
1010.23611	6927.55
1013.95561	6959.65
1017.67255	6970.55
1021.38692	6929.25
1025.09872	6894.05
1028.80796	6862.05
1032.51465	6901.05
1036.21877	6964.55
1039.92035	6981.45
1043.61937	6967.05
1047.31584	6907.15
1051.00976	6848.95
1054.70114	6802.05
1058.38998	6783.35
1062.07627	6780.75
1065.76003	6795.65
1069.44126	6842.05
1073.11995	6863.15
1076.79611	6926.05
1080.46974	6951.45
1084.14085	6990.35
1087.80943	6976.85
1091.47549	7025.55
1095.13903	7015.55
1098.80005	6951.25
1102.45857	6858.95
1106.11456	6815.25
1109.76805	6797.15
1113.41903	6853.35
1117.06751	6923.65
1120.71348	7029.35
1124.35696	7173.85
1127.99793	7320.35
1131.63641	7468.15
1135.2724	7449.85
1138.90589	7335.85
1142.5369	7233.75
1146.16542	7107.55
1149.79145	6994.15
1153.415	6928.15
1157.03607	6906.65
1160.65467	6918.55
1164.27079	6993.65
1167.88443	7178.05
1171.49561	7402.75
1175.10432	7775.35
1178.71056	8238.15
1182.31434	8693.45
1185.91565	8888.65
1189.51451	8814.35
1193.11091	8563.25
1196.70485	8268.05
1200.29634	8082.65
1203.88538	7940.25
1207.47197	7809.55
1211.05612	7674.15
1214.63782	7525.95
1218.21708	7396.35
1221.79391	7300.65
1225.36829	7227.45
1228.94024	7196.25
1232.50976	7100.85
1236.07685	7070.55
1239.6415	7047.85
1243.20374	7071.95
1246.76355	7089.35
1250.32093	7164.45
1253.8759	7233.35
1257.42845	7337.75
1260.97859	7449.55
1264.52631	7533.15
1268.07163	7647.15
1271.61453	7758.35
1275.15503	7854.75
1278.69312	7949.95
1282.22882	8026.35
1285.76211	8109.85
1289.29301	8251.45
1292.82151	8453.55
1296.34761	8690.15
1299.87133	9016.85
1303.39266	9413.15
1306.9116	9881.45
1310.42815	10360.95
1313.94233	10613.55
1317.45412	10507.05
1320.96354	10212.45
1324.47058	9859.35
1327.97525	9560.55
1331.47754	9302.65
1334.97747	9162.25
1338.47502	9079.45
1341.97022	9063.95
1345.46305	9116.05
1348.95352	9238.85
1352.44163	9502.05
1355.92738	9935.25
1359.41078	10538.75
1362.89183	11233.45
1366.37053	11308.45
1369.84688	10416.75
1373.32088	9301.55
1376.79254	8554.25
1380.26186	8188.55
1383.72883	8041.25
1387.19347	7951.95
1390.65578	7819.35
1394.11575	7716.75
1397.57339	7655.15
1401.0287	7663.25
1404.48168	7686.85
1407.93234	7633.25
1411.38068	7524.65
1414.82669	7414.05
1418.27039	7262.95
1421.71177	7087.15
1425.15083	6957.25
1428.58758	6882.95
1432.02203	6848.75
1435.45416	6917.85
1438.88399	6993.35
1442.31151	6998.85
1445.73673	7076.95
1449.15965	7123.05
1452.58027	7137.05
1455.9986	7136.55
1459.41463	7146.95
1462.82837	7183.05
1466.23982	7244.55
1469.64898	7345.85
1473.05586	7388.45
1476.46045	7440.35
1479.86276	7464.05
1483.26279	7458.25
1486.66054	7492.55
1490.05602	7566.85
1493.44922	7661.45
1496.84016	7850.95
1500.22882	8121.85
1503.61521	8556.55
1506.99934	9067.95
1510.38121	9542.45
1513.76081	9681.85
1517.13816	9430.75
1520.51324	8867.35
1523.88607	8293.55
1527.25665	7935.65
1530.62498	7724.35
1533.99105	7648.35
1537.35488	7559.05
1540.71647	7483.25
1544.07581	7390.25
1547.4329	7315.05
1550.78776	7260.95
1554.14038	7236.65
1557.49077	7228.05
1560.83892	7257.35
1564.18484	7309.75
1567.52853	7395.65
1570.86999	7475.25
1574.20922	7585.55
1577.54624	7622.25
1580.88103	7561.35
1584.2136	7409.15
1587.54395	7355.45
1590.87208	7428.45
1594.19801	7626.85
1597.52172	7888.85
1600.84321	8013.85
1604.16251	7820.05
1607.47959	7469.75
1610.79447	7114.95
1614.10715	6784.45
1617.41763	6514.05
1620.7259	6351.55
1624.03199	6237.05
1627.33587	6232.75
1630.63757	6299.55
1633.93707	6467.75
1637.23439	6732.05
1640.52951	7141.85
1643.82246	7700.85
1647.11321	8260.65
1650.40179	8622.15
1653.68819	8488.75
1656.97241	7862.65
1660.25446	7096.95
1663.53433	6528.05
1666.81203	6164.05
1670.08756	5938.85
1673.36092	5771.75
1676.63211	5676.95
1679.90115	5614.15
1683.16801	5542.55
1686.43272	5502.65
1689.69527	5492.75
1692.95567	5467.25
1696.2139	5472.55
1699.46999	5483.55
1702.72392	5455.85
1705.97571	5366.45
1709.22535	5288.95
1712.47284	5240.55
1715.71819	5198.35
1718.96139	5164.65
1722.20246	5136.25
1725.44139	5091.95
1728.67818	5073.85
1731.91284	5033.35
1735.14537	5008.85
1738.37576	4993.25
1741.60403	4980.65
1744.83017	4975.75
1748.05418	4960.25
1751.27607	4957.35
1754.49584	4952.25
1757.71349	4955.95
1760.92903	4956.55
1764.14244	4928.35
1767.35375	4928.15
1770.56294	4930.65
1773.77002	4885.55
1776.97499	4857.75
1780.17785	4828.75
1783.37861	4808.35
1786.57727	4819.35
1789.77382	4798.35
1792.96828	4797.55
1796.16064	4781.15
1799.3509	4764.35
1802.53907	4749.15
1805.72514	4738.55
1808.90913	4723.95
1812.09102	4692.65
1815.27083	4699.35
1818.44856	4690.95
1821.6242	4680.45
1824.79776	4667.95
1827.96924	4657.05
1831.13864	4631.35
1834.30597	4644.45
1837.47122	4633.45
1840.6344	4616.35
1843.7955	4595.85
1846.95454	4622.95
1850.11151	4599.25
1853.26642	4588.55
1856.41926	4581.45
1859.57004	4586.85
1862.71876	4579.75
1865.86542	4548.95
1869.01003	4566.55
1872.15258	4546.95
1875.29308	4552.35
1878.43152	4549.45
1881.56792	4530.95
1884.70227	4523.85
1887.83457	4502.55
1890.96482	4488.65
1894.09304	4499.35
1897.21921	4492.65
1900.34335	4482.75
1903.46544	4477.15
1906.58551	4478.55
1909.70353	4467.25
1912.81953	4452.85
1915.93349	4436.25
1919.04543	4439.15
1922.15534	4429.95
1925.26322	4419.95
1928.36908	4399.25
1931.47292	4406.75
1934.57473	4399.65
1937.67453	4382.95
1940.77232	4355.95
1943.86808	4347.75
1946.96184	4323.15
1950.05358	4326.65
1953.14331	4327.15
1956.23103	4280.95
1959.31675	4286.45
1962.40046	4259.15
1965.48217	4247.05
1968.56188	4226.45
1971.63959	4224.45
1974.7153	4221.85
1977.78901	4193.95
1980.86073	4176.35
1983.93046	4168.45
1986.99819	4156.15
1990.06394	4128.35
1993.1277	4122.35
1996.18947	4104.75
1999.24925	4096.65
2002.30706	4080.95
2005.36288	4057.65
2008.41672	4046.05
2011.46859	4037.35
2014.51848	4016.25
2017.56639	4021.65
2020.61233	4001.85
2023.6563	3988.45
2026.6983	3972.65
2029.73833	3958.75
2032.7764	3935.15
2035.8125	3937.55
2038.84664	3930.45
2041.87881	3924.65
2044.90903	3910.65
2047.93729	3897.65
2050.96359	3911.75
2053.98794	3895.55
2057.01034	3898.55
2060.03078	3897.55
2063.04927	3863.95
2066.06582	3863.35
2069.08042	3865.95
2072.09307	3842.15
2075.10378	3839.65
2078.11255	3835.75
2081.11938	3848.05
2084.12426	3825.15
2087.12722	3837.45
2090.12824	3837.25
2093.12732	3829.85
2096.12447	3819.45
2099.11969	3831.45
2102.11299	3818.65
2105.10435	3818.45
2108.09379	3819.95
2111.08131	3819.45
2114.0669	3827.45
2117.05057	3824.35
2120.03233	3835.75
2123.01216	3832.05
2125.99008	3830.95
2128.96609	3826.75
2131.94018	3818.65
2134.91236	3833.05
2137.88263	3827.45
2140.851	3825.55
2143.81746	3827.95
2146.78201	3832.45
2149.74466	3827.55
2152.7054	3813.15
2155.66425	3828.55
2158.6212	3813.05
2161.57625	3819.85
2164.52941	3796.15
2167.48067	3813.45
2170.43004	3804.55
2173.37752	3806.95
2176.32311	3795.35
2179.26681	3789.85
2182.20863	3794.55
2185.14856	3791.45
2188.08661	3785.95
2191.02278	3768.75
2193.95707	3791.75
2196.88948	3772.15
2199.82001	3758.55
2202.74867	3762.15
2205.67545	3759.85
2208.60037	3751.95
2211.52341	3748.65
2214.44458	3737.05
2217.36388	3723.75
2220.28132	3720.05
2223.1969	3710.95
2226.11061	3697.55
2229.02246	3697.25
2231.93245	3686.75
2234.84058	3660.25
2237.74686	3672.75
2240.65128	3655.25
2243.55385	3660.15
2246.45456	3663.35
2249.35343	3632.15
2252.25044	3637.85
2255.14561	3625.55
2258.03893	3624.45
2260.93041	3629.95
2263.82004	3610.55
2266.70783	3592.25
2269.59378	3588.45
2272.4779	3575.55
2275.36017	3556.35
2278.24061	3565.85
2281.11922	3544.85
2283.996	3538.55
2286.87094	3526.35
2289.74405	3518.35
2292.61534	3499.65
2295.4848	3515.25
2298.35243	3506.55
2301.21824	3496.45
2304.08223	3490.55
2306.94439	3497.95
2309.80474	3487.15
2312.66327	3493.25
2315.51999	3501.85
2318.37489	3473.25
2321.22797	3472.15
2324.07925	3472.75
2326.92871	3453.35
2329.77637	3460.15
2332.62222	3449.95
2335.46626	3440.45
2338.3085	3426.65
2341.14893	3436.65
2343.98756	3413.05
2346.8244	3427.85
2349.65943	3411.75
2352.49267	3407.65
2355.32411	3419.05
2358.15376	3413.05
2360.98161	3396.25
2363.80768	3385.25
2366.63195	3387.45
2369.45444	3384.65
2372.27514	3391.05
2375.09405	3373.55
2377.91118	3372.35
2380.72652	3363.45
2383.54009	3361.45
2386.35187	3343.05
2389.16188	3336.85
2391.97011	3332.95
2394.77657	3316.55
2397.58125	3313.45
2400.38416	3310.15
2403.18529	3292.85
2405.98466	3296.85
2408.78226	3281.55
2411.57809	3273.65
2414.37216	3270.35
2417.16446	3262.75
2419.955	3252.45
2422.74378	3255.35
2425.5308	3234.55
2428.31606	3247.35
2431.09956	3235.35
2433.88131	3242.65
2436.6613	3244.75
2439.43954	3234.35
2442.21603	3230.15
2444.99077	3215.65
2447.76377	3213.25
2450.53501	3198.65
2453.30451	3210.75
2456.07226	3212.75
2458.83827	3196.35
2461.60254	3185.25
2464.36507	3185.85
2467.12586	3171.75
2469.88492	3183.65
2472.64224	3174.25
2475.39782	3179.15
2478.15167	3187.45
2480.90379	3173.35
2483.65417	3169.85
2486.40283	3159.85
2489.14976	3168.35
2491.89497	3156.55
2494.63845	3163.35
2497.3802	3171.85
2500.12024	3150.95
2502.85855	3160.05
2505.59514	3142.05
2508.33002	3133.45
2511.06318	3129.65
2513.79462	3130.55
2516.52435	3119.35
2519.25237	3113.15
2521.97867	3096.85
2524.70327	3094.95
2527.42616	3102.95
2530.14734	3098.95
2532.86681	3082.25
2535.58458	3096.25
2538.30065	3068.95
2541.01501	3072.15
2543.72768	3067.75
2546.43864	3061.95
2549.14791	3044.75
2551.85548	3038.45
2554.56136	3033.15
2557.26554	3030.75
2559.96803	3042.75
2562.66883	3024.75
2565.36794	3012.85
2568.06536	3013.65
2570.7611	3011.15
2573.45514	2996.25
2576.14751	2994.95
2578.83819	2993.35
2581.52719	2991.55
2584.21451	2977.25
2586.90015	2976.45
2589.58411	2974.55
2592.2664	2968.75
2594.94701	2951.65
2597.62594	2956.35
2600.30321	2943.65
2602.9788	2929.35
2605.65273	2936.35
2608.32498	2931.75
2610.99557	2927.55
2613.66449	2908.25
2616.33175	2904.55
2618.99734	2906.95
2621.66128	2901.55
2624.32355	2899.65
2626.98416	2895.35
2629.64311	2887.15
2632.30041	2881.85
2634.95605	2886.95
2637.61004	2861.95
2640.26238	2871.25
2642.91306	2870.75
2645.56209	2864.05
2648.20948	2857.35
2650.85521	2852.85
2653.4993	2846.85
2656.14175	2854.25
2658.78255	2846.65
2661.42171	2844.05
2664.05923	2847.55
2666.6951	2847.95
2669.32934	2845.45
2671.96194	2844.15
2674.59291	2837.75
2677.22224	2837.95
2679.84993	2841.05
2682.476	2831.95
2685.10043	2849.15
2687.72324	2831.45
2690.34441	2846.15
2692.96396	2832.25
2695.58188	2837.05
2698.19818	2821.35
2700.81285	2831.25
2703.4259	2853.45
2706.03733	2905.85
2708.64714	2870.75
2711.25533	2836.55
2713.86191	2838.75
2716.46687	2834.75
2719.07021	2843.65
2721.67194	2822.85
2724.27206	2816.65
2726.87057	2810.55
2729.46747	2819.85
2732.06276	2812.45
2734.65644	2808.75
2737.24852	2815.75
2739.83899	2804.75
2742.42786	2800.85
2745.01513	2808.15
2747.60079	2775.05
2750.18486	2780.75
2752.76733	2780.55
2755.3482	2787.55
2757.92747	2771.35
2760.50515	2772.45
2763.08123	2776.05
2765.65573	2753.15
2768.22863	2763.95
2770.79994	2770.45
2773.36967	2763.95
2775.9378	2756.95
2778.50435	2743.35
2781.06932	2744.85
2783.6327	2740.55
2786.1945	2731.25
2788.75471	2732.05
2791.31335	2719.85
2793.87041	2711.35
2796.42589	2701.35
2798.97979	2703.15
2801.53212	2700.35
2804.08288	2707.15
2806.63206	2692.45
2809.17967	2684.65
2811.72571	2669.35
2814.27018	2679.55
2816.81308	2680.75
2819.35442	2670.05
2821.89419	2663.85
2824.43239	2637.65
2826.96904	2662.45
2829.50412	2657.15
2832.03763	2649.95
2834.56959	2644.35
2837.1	2636.35
2839.62884	2638.75
2842.15613	2628.45
2844.68186	2637.55
2847.20604	2636.75
2849.72867	2633.95
2852.24974	2639.65
2854.76927	2636.35
2857.28724	2660.05
2859.80367	2637.15
2862.31855	2624.95
2864.83189	2636.75
2867.34368	2616.15
2869.85393	2607.35
2872.36264	2598.45
2874.8698	2610.85
2877.37543	2615.45
2879.87952	2626.55
2882.38207	2617.95
2884.88308	2613.65
2887.38256	2601.85
2889.88051	2607.85
2892.37692	2613.05
2894.8718	2602.75
2897.36515	2621.95
2899.85698	2612.35
2902.34727	2618.55
2904.83604	2617.55
2907.32328	2612.75
2909.809	2623.65
2912.29319	2627.55
2914.77587	2619.05
2917.25702	2607.75
2919.73665	2604.95
2922.21476	2603.85
2924.69136	2614.25
2927.16644	2609.15
2929.64	2608.55
2932.11205	2605.55
2934.58258	2591.85
2937.05161	2598.25
2939.51912	2592.15
2941.98513	2596.45
2944.44962	2587.55
2946.91261	2568.45
2949.37409	2581.75
2951.83407	2590.55
2954.29254	2578.85
2956.74951	2572.85
2959.20498	2577.65
2961.65895	2558.95
2964.11142	2552.85
2966.56239	2546.85
2969.01186	2547.35
2971.45984	2545.75
2973.90632	2536.35
2976.35131	2532.15
2978.7948	2532.95
2981.23681	2519.85
2983.67732	2508.45
2986.11635	2521.65
2988.55388	2514.15
2990.98993	2507.55
2993.4245	2503.95
2995.85758	2495.85
2998.28917	2491.05
3000.71928	2492.35
3003.14791	2486.25
3005.57506	2475.85
3008.00073	2472.25
3010.42493	2478.45
3012.84764	2475.05
3015.26888	2467.15
3017.68865	2475.05
3020.10694	2473.55
3022.52376	2459.75
3024.9391	2450.75
3027.35298	2454.45
3029.76539	2450.25
3032.17632	2442.75
3034.5858	2452.15
3036.9938	2433.35
3039.40034	2442.05
3041.80542	2439.35
3044.20903	2443.15
3046.61118	2441.65
3049.01187	2424.65
3051.4111	2422.45
3053.80888	2420.85
3056.20519	2419.15
3058.60005	2406.45
3060.99345	2421.25
3063.3854	2423.15
3065.7759	2414.35
3068.16494	2411.45
3070.55254	2409.85
3072.93868	2394.85
3075.32338	2395.85
3077.70662	2393.15
3080.08842	2388.95
3082.46878	2388.15
3084.84769	2397.15
3087.22515	2394.55
3089.60118	2399.65
3091.97576	2392.05
3094.3489	2396.85
3096.72061	2397.25
3099.09087	2400.15
3101.4597	2392.75
3103.82709	2395.85
3106.19305	2387.75
3108.55757	2407.35
3110.92066	2392.05
3113.28232	2395.15
3115.64255	2382.75
3118.00134	2404.65
3120.35871	2392.95
3122.71466	2392.15
3125.06917	2390.45
3127.42226	2385.85
3129.77393	2384.45
3132.12417	2392.55
3134.47299	2402.25
3136.82039	2397.25
3139.16636	2407.95
3141.51092	2390.95
3143.85406	2416.85
3146.19579	2414.35
3148.53609	2418.65
3150.87499	2422.95
3153.21246	2423.75
3155.54853	2428.45
3157.88318	2429.85
3160.21642	2427.65
3162.54826	2431.55
3164.87868	2429.65
3167.2077	2439.75
3169.5353	2435.65
3171.86151	2433.95
3174.18631	2434.05
3176.5097	2451.25
3178.83169	2438.75
3181.15228	2442.85
3183.47147	2447.95
3185.78926	2422.25
3188.10565	2440.15
3190.42065	2445.75
3192.73424	2450.75
3195.04645	2451.05
3197.35725	2447.65
3199.66667	2453.75
3201.97469	2449.85
3204.28132	2448.15
3206.58656	2462.45
3208.8904	2467.65
3211.19287	2462.75
3213.49394	2472.05
3215.79363	2479.85
3218.09193	2485.35
3220.38884	2483.55
3222.68438	2499.25
3224.97853	2468.15
3227.2713	2480.15
3229.56269	2475.15
3231.8527	2462.25
3234.14133	2452.25
3236.42858	2455.55
3238.71446	2459.65
3240.99896	2451.85
3243.28209	2457.95
3245.56384	2460.45
3247.84423	2452.65
3250.12324	2451.65
3252.40088	2451.05
3254.67715	2449.05
3256.95205	2449.65
3259.22558	2456.45
3261.49775	2435.55
3263.76855	2428.25
3266.03799	2431.85
3268.30606	2441.65
3270.57277	2428.25
3272.83812	2408.35
3275.10211	2423.25
3277.36474	2421.05
3279.62601	2412.15
3281.88593	2419.55
3284.14448	2414.55
3286.40168	2405.25
3288.65753	2404.55
3290.91202	2399.65
3293.16516	2406.05
3295.41695	2393.85
3297.66738	2375.95
3299.91647	2377.45
3302.16421	2349.35
3304.4106	2347.85
3306.65564	2339.85
3308.89933	2323.45
3311.14169	2315.65
3313.38269	2300.25
3315.62236	2288.75
3317.86068	2256.15
3320.09766	2239.45
3322.3333	2234.65
3324.5676	2234.75
3326.80056	2212.85
3329.03219	2194.65
3331.26248	1.65
3333.49143	-0.75
3335.71905	-0.15
