Data from AgNPs_FTO_APTES_UA_1um_CRN_0.1mM_R6G_10uM_NaF_0.1M_Addition_RamanShift__32__12-11-29-026.txt Node

Date: Tue Dec 21 12:11:29 GMT 2021
User: TCL
Spectrometer: QEP01345
Trigger mode: 4
Integration Time (sec): 7.000000E0
Scans to average: 10
Electric dark correction enabled: true
Nonlinearity correction enabled: false
Boxcar width: 0
XAxis mode: Raman Shifts
Number of Pixels in Spectrum: 1044
>>>>>Begin Spectral Data<<<<<
46.04893	-0.0125
50.45542	-0.5125
54.85868	-1.0125
59.25871	0.0875
63.6555	30.4875
68.04907	35.6875
72.43941	37.4875
76.82654	36.4875
81.21044	44.4875
85.59113	42.7875
89.96862	44.5875
94.34289	48.8875
98.71396	48.4875
103.08183	49.7875
107.4465	53.7875
111.80798	54.3875
116.16626	52.9875
120.52136	51.1875
124.87327	53.9875
129.222	54.9875
133.56755	55.8875
137.90993	63.2875
142.24913	66.7875
146.58517	70.9875
150.91804	76.2875
155.24774	89.7875
159.57429	106.2875
163.89768	133.4875
168.21792	169.9875
172.53501	222.7875
176.84895	298.0875
181.15975	419.0875
185.46741	583.0875
189.77193	795.1875
194.07331	1067.8875
198.37157	1381.9875
202.6667	1695.5875
206.9587	2020.0875
211.24758	2337.4875
215.53334	2706.6875
219.81599	3084.0875
224.09553	3534.6875
228.37195	4016.5875
232.64527	4565.4875
236.91549	5078.2875
241.18261	5558.0875
245.44663	5949.0875
249.70755	6237.5875
253.96539	6446.1875
258.22014	6592.8875
262.4718	6643.2875
266.72039	6703.1875
270.96589	6684.0875
275.20832	6614.9875
279.44768	6478.4875
283.68397	6379.5875
287.91719	6317.1875
292.14735	6373.6875
296.37445	6585.0875
300.59849	6926.6875
304.81948	7414.3875
309.03742	7799.6875
313.25231	7858.7875
317.46415	7426.1875
321.67296	6642.5875
325.87872	5960.2875
330.08145	5626.7875
334.28114	5593.2875
338.47781	5727.8875
342.67145	5951.8875
346.86207	6320.3875
351.04966	6897.2875
355.23424	7521.7875
359.4158	8028.8875
363.59435	8172.3875
367.76989	8155.9875
371.94243	8010.9875
376.11196	7851.2875
380.27849	7679.4875
384.44203	7520.7875
388.60257	7320.1875
392.76012	7200.9875
396.91468	7287.5875
401.06626	7583.3875
405.21485	7831.9875
409.36047	7620.1875
413.50311	7052.5875
417.64277	6498.8875
421.77947	6149.3875
425.9132	6032.3875
430.04396	5974.4875
434.17176	5983.5875
438.2966	6091.1875
442.41849	6314.2875
446.53742	6596.2875
450.6534	6855.4875
454.76644	6968.8875
458.87653	6922.0875
462.98368	6763.9875
467.08789	6613.0875
471.18916	6383.8875
475.2875	6167.3875
479.38291	5953.9875
483.4754	5791.2875
487.56496	5704.7875
491.6516	5627.8875
495.73531	5601.9875
499.81612	5645.0875
503.89401	5732.7875
507.96899	5857.3875
512.04106	5983.0875
516.11023	6118.7875
520.1765	6220.0875
524.23987	6209.3875
528.30034	6068.6875
532.35792	5868.2875
536.41261	5613.7875
540.46441	5384.7875
544.51333	5215.4875
548.55936	5234.8875
552.60252	5361.2875
556.64279	5585.3875
560.6802	5776.3875
564.71473	5995.7875
568.7464	6492.3875
572.7752	6831.7875
576.80114	6557.1875
580.82422	6181.7875
584.84444	6043.3875
588.86181	5981.9875
592.87633	6001.7875
596.888	6109.1875
600.89682	6399.0875
604.9028	7398.7875
608.90594	10213.8875
612.90624	14179.5875
616.90371	13944.0875
620.89834	8749.4875
624.89015	6083.9875
628.87913	5548.2875
632.86528	5607.9875
636.84862	5767.1875
640.82913	5641.4875
644.80683	5255.1875
648.78172	4970.9875
652.75379	5002.3875
656.72306	5382.2875
660.68952	5853.4875
664.65319	5781.2875
668.61405	5292.5875
672.57211	5036.8875
676.52738	5024.9875
680.47986	5034.4875
684.42955	4934.3875
688.37646	4861.1875
692.32058	4888.5875
696.26192	4971.1875
700.20048	5099.8875
704.13626	5206.9875
708.06928	5217.7875
711.99952	5094.7875
715.927	5028.5875
719.85171	5034.5875
723.77365	5008.0875
727.69284	4909.3875
731.60928	4840.6875
735.52295	4837.4875
739.43388	4853.7875
743.34206	4894.8875
747.24749	4940.3875
751.15017	5035.8875
755.05012	5195.1875
758.94733	5624.5875
762.8418	6613.9875
766.73354	8247.6875
770.62254	9963.8875
774.50882	10919.3875
778.39237	10636.0875
782.27321	8930.1875
786.15132	6924.3875
790.02671	5762.3875
793.89938	5237.7875
797.76935	5021.0875
801.6366	4937.9875
805.50115	4871.3875
809.36299	4853.9875
813.22213	4804.8875
817.07857	4776.5875
820.93231	4756.7875
824.78336	4786.8875
828.63172	4817.9875
832.47738	4849.4875
836.32036	4809.1875
840.16066	4748.5875
843.99827	4683.0875
847.8332	4660.6875
851.66546	4656.8875
855.49504	4665.0875
859.32195	4657.9875
863.1462	4614.4875
866.96777	4562.8875
870.78668	4552.3875
874.60293	4559.1875
878.41652	4574.4875
882.22745	4627.0875
886.03573	4643.6875
889.84136	4654.5875
893.64433	4602.2875
897.44466	4584.9875
901.24235	4582.9875
905.0374	4559.8875
908.8298	4499.6875
912.61957	4462.5875
916.40671	4481.5875
920.19121	4565.0875
923.97308	4648.9875
927.75233	4784.0875
931.52895	4889.1875
935.30295	4812.9875
939.07433	4530.8875
942.84309	4297.2875
946.60924	4149.9875
950.37278	4070.6875
954.13371	4052.4875
957.89203	4007.7875
961.64774	3995.2875
965.40086	3988.3875
969.15137	3951.1875
972.89929	3928.4875
976.64461	3917.7875
980.38733	3917.2875
984.12747	3942.1875
987.86502	3961.5875
991.59999	3967.6875
995.33237	4036.6875
999.06217	4143.0875
1002.78939	4307.9875
1006.51404	4479.1875
1010.23611	4642.6875
1013.95561	4714.7875
1017.67255	4708.0875
1021.38692	4557.3875
1025.09872	4418.7875
1028.80796	4316.9875
1032.51465	4352.5875
1036.21877	4453.1875
1039.92035	4595.4875
1043.61937	4697.1875
1047.31584	4701.3875
1051.00976	4669.9875
1054.70114	4624.4875
1058.38998	4564.6875
1062.07627	4526.8875
1065.76003	4560.4875
1069.44126	4628.1875
1073.11995	4746.9875
1076.79611	4907.9875
1080.46974	5062.1875
1084.14085	5280.1875
1087.80943	5514.1875
1091.47549	5568.5875
1095.13903	5400.4875
1098.80005	5045.8875
1102.45857	4760.6875
1106.11456	4646.9875
1109.76805	4692.7875
1113.41903	4875.8875
1117.06751	5164.1875
1120.71348	5619.0875
1124.35696	6134.2875
1127.99793	6522.9875
1131.63641	6386.9875
1135.2724	5854.1875
1138.90589	5366.2875
1142.5369	5089.6875
1146.16542	4899.5875
1149.79145	4800.0875
1153.415	4780.9875
1157.03607	4859.3875
1160.65467	5012.1875
1164.27079	5291.6875
1167.88443	5724.6875
1171.49561	6503.8875
1175.10432	7816.2875
1178.71056	9477.9875
1182.31434	10600.0875
1185.91565	10709.3875
1189.51451	10249.1875
1193.11091	9484.8875
1196.70485	8581.0875
1200.29634	7860.6875
1203.88538	7245.8875
1207.47197	6479.6875
1211.05612	5869.1875
1214.63782	5576.8875
1218.21708	5465.3875
1221.79391	5465.6875
1225.36829	5511.7875
1228.94024	5553.8875
1232.50976	5529.9875
1236.07685	5518.0875
1239.6415	5529.6875
1243.20374	5544.7875
1246.76355	5570.0875
1250.32093	5645.7875
1253.8759	5801.9875
1257.42845	6085.4875
1260.97859	6386.5875
1264.52631	6742.9875
1268.07163	7079.1875
1271.61453	7355.1875
1275.15503	7525.9875
1278.69312	7579.6875
1282.22882	7640.2875
1285.76211	7890.5875
1289.29301	8275.4875
1292.82151	8675.9875
1296.34761	9122.5875
1299.87133	9752.7875
1303.39266	10824.8875
1306.9116	12507.5875
1310.42815	14437.0875
1313.94233	15525.4875
1317.45412	15042.2875
1320.96354	13585.4875
1324.47058	12002.9875
1327.97525	10712.9875
1331.47754	9920.9875
1334.97747	9609.6875
1338.47502	9631.4875
1341.97022	9926.7875
1345.46305	10483.9875
1348.95352	11367.3875
1352.44163	12620.3875
1355.92738	14459.1875
1359.41078	17089.6875
1362.89183	19361.8875
1366.37053	18623.4875
1369.84688	15605.6875
1373.32088	12607.5875
1376.79254	10473.5875
1380.26186	9214.5875
1383.72883	8465.1875
1387.19347	7926.7875
1390.65578	7436.6875
1394.11575	7141.7875
1397.57339	7073.5875
1401.0287	7149.6875
1404.48168	7211.8875
1407.93234	7279.8875
1411.38068	7278.1875
1414.82669	7188.3875
1418.27039	7019.9875
1421.71177	6811.2875
1425.15083	6632.5875
1428.58758	6534.1875
1432.02203	6616.7875
1435.45416	6702.1875
1438.88399	6726.3875
1442.31151	6662.6875
1445.73673	6688.9875
1449.15965	6728.3875
1452.58027	6679.2875
1455.9986	6580.2875
1459.41463	6590.4875
1462.82837	6721.9875
1466.23982	6924.8875
1469.64898	7144.6875
1473.05586	7269.4875
1476.46045	7384.3875
1479.86276	7542.9875
1483.26279	7751.6875
1486.66054	8014.8875
1490.05602	8375.7875
1493.44922	8903.3875
1496.84016	9726.6875
1500.22882	11122.5875
1503.61521	13024.4875
1506.99934	15057.0875
1510.38121	16918.8875
1513.76081	17742.2875
1517.13816	16639.9875
1520.51324	14020.5875
1523.88607	11417.4875
1527.25665	9694.5875
1530.62498	8800.4875
1533.99105	8301.3875
1537.35488	7966.0875
1540.71647	7811.6875
1544.07581	7704.2875
1547.4329	7639.1875
1550.78776	7560.2875
1554.14038	7521.1875
1557.49077	7495.6875
1560.83892	7642.2875
1564.18484	7970.7875
1567.52853	8384.3875
1570.86999	8798.9875
1574.20922	9033.0875
1577.54624	8965.4875
1580.88103	8351.7875
1584.2136	7444.7875
1587.54395	6928.7875
1590.87208	6994.8875
1594.19801	7578.2875
1597.52172	8399.7875
1600.84321	8840.5875
1604.16251	8512.8875
1607.47959	7764.2875
1610.79447	6888.0875
1614.10715	6054.1875
1617.41763	5466.3875
1620.7259	5093.5875
1624.03199	4946.7875
1627.33587	4951.0875
1630.63757	5076.6875
1633.93707	5430.4875
1637.23439	5982.7875
1640.52951	6898.8875
1643.82246	8285.3875
1647.11321	9990.3875
1650.40179	11271.2875
1653.68819	11118.7875
1656.97241	9398.6875
1660.25446	7367.8875
1663.53433	5864.1875
1666.81203	4980.0875
1670.08756	4494.0875
1673.36092	4195.2875
1676.63211	4017.7875
1679.90115	3882.8875
1683.16801	3785.6875
1686.43272	3717.5875
1689.69527	3653.7875
1692.95567	3616.0875
1696.2139	3616.5875
1699.46999	3599.7875
1702.72392	3578.1875
1705.97571	3550.6875
1709.22535	3522.5875
1712.47284	3542.7875
1715.71819	3546.2875
1718.96139	3567.1875
1722.20246	3562.6875
1725.44139	3556.6875
1728.67818	3491.6875
1731.91284	3454.5875
1735.14537	3401.2875
1738.37576	3363.4875
1741.60403	3307.6875
1744.83017	3288.3875
1748.05418	3273.8875
1751.27607	3272.2875
1754.49584	3253.1875
1757.71349	3237.2875
1760.92903	3227.8875
1764.14244	3201.4875
1767.35375	3178.7875
1770.56294	3130.8875
1773.77002	3132.7875
1776.97499	3086.9875
1780.17785	3051.5875
1783.37861	3034.5875
1786.57727	3013.4875
1789.77382	3011.6875
1792.96828	2981.2875
1796.16064	2993.6875
1799.3509	2973.9875
1802.53907	2949.5875
1805.72514	2951.1875
1808.90913	2931.4875
1812.09102	2913.7875
1815.27083	2903.5875
1818.44856	2899.8875
1821.6242	2889.0875
1824.79776	2879.1875
1827.96924	2876.3875
1831.13864	2861.9875
1834.30597	2866.3875
1837.47122	2841.3875
1840.6344	2842.7875
1843.7955	2828.4875
1846.95454	2837.3875
1850.11151	2830.0875
1853.26642	2819.6875
1856.41926	2833.1875
1859.57004	2828.0875
1862.71876	2814.0875
1865.86542	2804.9875
1869.01003	2824.9875
1872.15258	2823.1875
1875.29308	2823.4875
1878.43152	2817.3875
1881.56792	2823.9875
1884.70227	2798.6875
1887.83457	2820.5875
1890.96482	2807.7875
1894.09304	2800.7875
1897.21921	2822.7875
1900.34335	2796.4875
1903.46544	2813.5875
1906.58551	2812.4875
1909.70353	2823.2875
1912.81953	2802.4875
1915.93349	2807.4875
1919.04543	2793.7875
1922.15534	2784.4875
1925.26322	2777.0875
1928.36908	2764.1875
1931.47292	2757.9875
1934.57473	2748.4875
1937.67453	2735.4875
1940.77232	2715.4875
1943.86808	2676.4875
1946.96184	2676.8875
1950.05358	2669.7875
1953.14331	2647.0875
1956.23103	2639.9875
1959.31675	2637.2875
1962.40046	2622.9875
1965.48217	2618.7875
1968.56188	2615.1875
1971.63959	2597.0875
1974.7153	2601.8875
1977.78901	2578.9875
1980.86073	2573.3875
1983.93046	2571.4875
1986.99819	2545.6875
1990.06394	2536.9875
1993.1277	2521.3875
1996.18947	2515.3875
1999.24925	2517.1875
2002.30706	2497.1875
2005.36288	2473.2875
2008.41672	2481.4875
2011.46859	2455.1875
2014.51848	2464.7875
2017.56639	2450.5875
2020.61233	2442.3875
2023.6563	2424.6875
2026.6983	2426.7875
2029.73833	2429.1875
2032.7764	2417.8875
2035.8125	2399.2875
2038.84664	2393.4875
2041.87881	2386.7875
2044.90903	2390.0875
2047.93729	2378.0875
2050.96359	2383.1875
2053.98794	2381.2875
2057.01034	2380.0875
2060.03078	2356.9875
2063.04927	2355.2875
2066.06582	2354.4875
2069.08042	2347.6875
2072.09307	2347.8875
2075.10378	2346.3875
2078.11255	2337.1875
2081.11938	2336.1875
2084.12426	2337.6875
2087.12722	2331.0875
2090.12824	2330.2875
2093.12732	2340.0875
2096.12447	2334.2875
2099.11969	2327.4875
2102.11299	2324.8875
2105.10435	2320.8875
2108.09379	2333.5875
2111.08131	2319.2875
2114.0669	2323.2875
2117.05057	2325.3875
2120.03233	2336.0875
2123.01216	2328.0875
2125.99008	2328.1875
2128.96609	2337.2875
2131.94018	2327.7875
2134.91236	2329.3875
2137.88263	2325.1875
2140.851	2331.6875
2143.81746	2321.2875
2146.78201	2315.1875
2149.74466	2319.1875
2152.7054	2312.3875
2155.66425	2297.8875
2158.6212	2293.4875
2161.57625	2300.0875
2164.52941	2300.8875
2167.48067	2299.3875
2170.43004	2299.2875
2173.37752	2288.9875
2176.32311	2293.0875
2179.26681	2282.4875
2182.20863	2287.6875
2185.14856	2282.4875
2188.08661	2275.1875
2191.02278	2270.3875
2193.95707	2278.5875
2196.88948	2266.4875
2199.82001	2258.0875
2202.74867	2261.7875
2205.67545	2277.0875
2208.60037	2255.8875
2211.52341	2254.3875
2214.44458	2244.0875
2217.36388	2232.8875
2220.28132	2226.7875
2223.1969	2213.3875
2226.11061	2221.8875
2229.02246	2209.5875
2231.93245	2207.0875
2234.84058	2200.6875
2237.74686	2196.6875
2240.65128	2190.7875
2243.55385	2190.2875
2246.45456	2200.0875
2249.35343	2174.8875
2252.25044	2183.3875
2255.14561	2190.5875
2258.03893	2199.8875
2260.93041	2205.2875
2263.82004	2188.5875
2266.70783	2184.1875
2269.59378	2154.0875
2272.4779	2159.6875
2275.36017	2158.6875
2278.24061	2144.1875
2281.11922	2149.4875
2283.996	2134.1875
2286.87094	2136.4875
2289.74405	2119.9875
2292.61534	2109.0875
2295.4848	2117.4875
2298.35243	2107.6875
2301.21824	2098.9875
2304.08223	2105.3875
2306.94439	2096.1875
2309.80474	2093.4875
2312.66327	2079.3875
2315.51999	2097.3875
2318.37489	2090.7875
2321.22797	2081.9875
2324.07925	2083.0875
2326.92871	2077.7875
2329.77637	2086.8875
2332.62222	2074.0875
2335.46626	2077.4875
2338.3085	2071.6875
2341.14893	2069.3875
2343.98756	2070.6875
2346.8244	2073.2875
2349.65943	2082.6875
2352.49267	2085.2875
2355.32411	2081.4875
2358.15376	2084.1875
2360.98161	2107.3875
2363.80768	2104.6875
2366.63195	2119.9875
2369.45444	2120.0875
2372.27514	2108.2875
2375.09405	2105.8875
2377.91118	2105.2875
2380.72652	2082.8875
2383.54009	2079.9875
2386.35187	2058.9875
2389.16188	2059.3875
2391.97011	2037.4875
2394.77657	2037.1875
2397.58125	2019.3875
2400.38416	2016.9875
2403.18529	2008.3875
2405.98466	2009.5875
2408.78226	1996.6875
2411.57809	1985.5875
2414.37216	1986.6875
2417.16446	1974.4875
2419.955	1973.0875
2422.74378	1984.2875
2425.5308	1980.5875
2428.31606	1978.8875
2431.09956	1974.8875
2433.88131	1974.1875
2436.6613	1986.5875
2439.43954	1981.8875
2442.21603	1972.4875
2444.99077	1975.8875
2447.76377	1985.3875
2450.53501	1983.0875
2453.30451	1985.1875
2456.07226	1999.0875
2458.83827	1986.8875
2461.60254	1983.9875
2464.36507	1985.0875
2467.12586	1989.6875
2469.88492	1975.8875
2472.64224	1982.0875
2475.39782	1993.9875
2478.15167	1995.2875
2480.90379	1995.4875
2483.65417	2014.5875
2486.40283	2016.2875
2489.14976	2020.9875
2491.89497	2021.2875
2494.63845	2044.5875
2497.3802	2046.5875
2500.12024	2025.9875
2502.85855	2022.0875
2505.59514	1999.6875
2508.33002	1985.5875
2511.06318	1975.8875
2513.79462	1965.8875
2516.52435	1959.3875
2519.25237	1943.5875
2521.97867	1928.0875
2524.70327	1929.3875
2527.42616	1926.0875
2530.14734	1919.3875
2532.86681	1906.1875
2535.58458	1919.5875
2538.30065	1913.0875
2541.01501	1914.3875
2543.72768	1906.6875
2546.43864	1911.2875
2549.14791	1906.6875
2551.85548	1917.3875
2554.56136	1921.3875
2557.26554	1910.3875
2559.96803	1919.3875
2562.66883	1910.4875
2565.36794	1909.8875
2568.06536	1918.6875
2570.7611	1900.0875
2573.45514	1904.3875
2576.14751	1907.4875
2578.83819	1893.6875
2581.52719	1894.9875
2584.21451	1887.7875
2586.90015	1886.1875
2589.58411	1883.7875
2592.2664	1881.7875
2594.94701	1874.5875
2597.62594	1875.1875
2600.30321	1870.7875
2602.9788	1868.1875
2605.65273	1870.5875
2608.32498	1867.6875
2610.99557	1878.9875
2613.66449	1874.5875
2616.33175	1864.6875
2618.99734	1869.7875
2621.66128	1865.8875
2624.32355	1858.6875
2626.98416	1868.6875
2629.64311	1852.8875
2632.30041	1857.5875
2634.95605	1855.4875
2637.61004	1849.8875
2640.26238	1845.0875
2642.91306	1840.1875
2645.56209	1835.9875
2648.20948	1835.7875
2650.85521	1835.9875
2653.4993	1835.6875
2656.14175	1833.2875
2658.78255	1839.4875
2661.42171	1844.2875
2664.05923	1854.6875
2666.6951	1849.4875
2669.32934	1846.2875
2671.96194	1863.7875
2674.59291	1862.6875
2677.22224	1863.9875
2679.84993	1875.9875
2682.476	1861.9875
2685.10043	1863.9875
2687.72324	1877.6875
2690.34441	1873.3875
2692.96396	1877.3875
2695.58188	1880.8875
2698.19818	1881.2875
2700.81285	1892.0875
2703.4259	1910.6875
2706.03733	1961.2875
2708.64714	1936.9875
2711.25533	1923.1875
2713.86191	1923.7875
2716.46687	1928.1875
2719.07021	1929.3875
2721.67194	1932.2875
2724.27206	1921.1875
2726.87057	1932.9875
2729.46747	1925.1875
2732.06276	1920.4875
2734.65644	1914.6875
2737.24852	1905.4875
2739.83899	1891.9875
2742.42786	1889.7875
2745.01513	1884.3875
2747.60079	1884.7875
2750.18486	1888.1875
2752.76733	1875.2875
2755.3482	1881.8875
2757.92747	1877.1875
2760.50515	1880.4875
2763.08123	1888.3875
2765.65573	1869.8875
2768.22863	1882.9875
2770.79994	1883.4875
2773.36967	1893.8875
2775.9378	1886.4875
2778.50435	1902.5875
2781.06932	1905.8875
2783.6327	1912.6875
2786.1945	1915.8875
2788.75471	1923.9875
2791.31335	1937.6875
2793.87041	1945.7875
2796.42589	1947.0875
2798.97979	1955.2875
2801.53212	1972.6875
2804.08288	2002.3875
2806.63206	1994.7875
2809.17967	2008.9875
2811.72571	2030.7875
2814.27018	2045.6875
2816.81308	2047.3875
2819.35442	2065.6875
2821.89419	2067.8875
2824.43239	2073.5875
2826.96904	2080.6875
2829.50412	2080.5875
2832.03763	2070.8875
2834.56959	2102.6875
2837.1	2092.1875
2839.62884	2127.5875
2842.15613	2156.3875
2844.68186	2229.5875
2847.20604	2301.5875
2849.72867	2340.4875
2852.24974	2361.2875
2854.76927	2378.8875
2857.28724	2379.2875
2859.80367	2350.0875
2862.31855	2345.6875
2864.83189	2320.7875
2867.34368	2313.1875
2869.85393	2294.1875
2872.36264	2288.7875
2874.8698	2267.2875
2877.37543	2272.3875
2879.87952	2278.4875
2882.38207	2269.6875
2884.88308	2262.8875
2887.38256	2261.9875
2889.88051	2262.7875
2892.37692	2254.5875
2894.8718	2262.2875
2897.36515	2278.3875
2899.85698	2287.5875
2902.34727	2278.5875
2904.83604	2279.0875
2907.32328	2289.2875
2909.809	2272.6875
2912.29319	2275.4875
2914.77587	2277.6875
2917.25702	2264.3875
2919.73665	2258.3875
2922.21476	2256.1875
2924.69136	2243.5875
2927.16644	2236.0875
2929.64	2237.3875
2932.11205	2208.8875
2934.58258	2185.8875
2937.05161	2179.4875
2939.51912	2148.0875
2941.98513	2110.2875
2944.44962	2077.4875
2946.91261	2023.7875
2949.37409	1998.8875
2951.83407	1975.4875
2954.29254	1965.2875
2956.74951	1936.9875
2959.20498	1912.9875
2961.65895	1900.7875
2964.11142	1895.2875
2966.56239	1870.7875
2969.01186	1861.2875
2971.45984	1854.5875
2973.90632	1828.7875
2976.35131	1817.9875
2978.7948	1799.6875
2981.23681	1807.8875
2983.67732	1786.6875
2986.11635	1782.4875
2988.55388	1766.4875
2990.98993	1767.0875
2993.4245	1764.6875
2995.85758	1749.2875
2998.28917	1738.8875
3000.71928	1744.3875
3003.14791	1734.7875
3005.57506	1734.0875
3008.00073	1726.0875
3010.42493	1715.1875
3012.84764	1722.1875
3015.26888	1721.0875
3017.68865	1712.6875
3020.10694	1699.6875
3022.52376	1702.2875
3024.9391	1694.4875
3027.35298	1700.0875
3029.76539	1701.6875
3032.17632	1694.6875
3034.5858	1688.2875
3036.9938	1686.9875
3039.40034	1675.3875
3041.80542	1670.4875
3044.20903	1673.3875
3046.61118	1666.5875
3049.01187	1663.7875
3051.4111	1665.4875
3053.80888	1658.1875
3056.20519	1657.4875
3058.60005	1651.4875
3060.99345	1651.2875
3063.3854	1643.3875
3065.7759	1653.2875
3068.16494	1646.1875
3070.55254	1640.6875
3072.93868	1645.4875
3075.32338	1647.3875
3077.70662	1618.9875
3080.08842	1615.2875
3082.46878	1606.6875
3084.84769	1605.7875
3087.22515	1609.3875
3089.60118	1614.1875
3091.97576	1602.1875
3094.3489	1606.8875
3096.72061	1595.1875
3099.09087	1599.5875
3101.4597	1604.6875
3103.82709	1596.0875
3106.19305	1587.8875
3108.55757	1584.7875
3110.92066	1583.9875
3113.28232	1586.4875
3115.64255	1575.8875
3118.00134	1583.3875
3120.35871	1583.6875
