Data from AgNPs_FTO_APTES_UA_100um_CRN_0.1mM_R6G_10uM_NaF_0.1M_Addition_RamanShift__30__16-19-59-310.txt Node

Date: Tue Dec 21 16:19:59 GMT 2021
User: TCL
Spectrometer: QEP01345
Trigger mode: 4
Integration Time (sec): 7.000000E0
Scans to average: 10
Electric dark correction enabled: true
Nonlinearity correction enabled: false
Boxcar width: 0
XAxis mode: Raman Shifts
Number of Pixels in Spectrum: 1044
>>>>>Begin Spectral Data<<<<<
46.04893	1.575
50.45542	-1.625
54.85868	-1.125
59.25871	0.175
63.6555	26.075
68.04907	31.075
72.43941	32.275
76.82654	35.975
81.21044	40.175
85.59113	39.575
89.96862	39.675
94.34289	40.675
98.71396	37.675
103.08183	44.475
107.4465	45.575
111.80798	45.775
116.16626	44.475
120.52136	45.175
124.87327	43.475
129.222	43.775
133.56755	45.675
137.90993	54.175
142.24913	53.175
146.58517	57.675
150.91804	61.275
155.24774	68.875
159.57429	82.775
163.89768	98.575
168.21792	131.375
172.53501	165.975
176.84895	223.375
181.15975	315.475
185.46741	435.875
189.77193	595.975
194.07331	799.275
198.37157	1027.275
202.6667	1271.275
206.9587	1518.575
211.24758	1749.175
215.53334	2005.375
219.81599	2269.275
224.09553	2573.975
228.37195	2916.175
232.64527	3298.875
236.91549	3685.075
241.18261	4051.575
245.44663	4365.375
249.70755	4629.875
253.96539	4839.775
258.22014	4988.975
262.4718	5112.675
266.72039	5180.775
270.96589	5216.175
275.20832	5181.975
279.44768	5110.175
283.68397	5013.475
287.91719	4937.575
292.14735	4950.775
296.37445	5031.375
300.59849	5226.375
304.81948	5432.375
309.03742	5601.575
313.25231	5583.475
317.46415	5310.375
321.67296	4918.175
325.87872	4554.575
330.08145	4381.275
334.28114	4368.275
338.47781	4439.775
342.67145	4552.275
346.86207	4739.875
351.04966	5033.975
355.23424	5365.575
359.4158	5637.475
363.59435	5775.975
367.76989	5848.275
371.94243	5853.175
376.11196	5829.375
380.27849	5796.275
384.44203	5732.075
388.60257	5649.475
392.76012	5603.075
396.91468	5617.675
401.06626	5755.575
405.21485	5869.775
409.36047	5769.975
413.50311	5461.975
417.64277	5137.475
421.77947	4940.375
425.9132	4841.075
430.04396	4798.875
434.17176	4825.075
438.2966	4877.275
442.41849	4940.375
446.53742	5052.075
450.6534	5163.475
454.76644	5220.575
458.87653	5243.975
462.98368	5211.575
467.08789	5145.275
471.18916	5060.475
475.2875	4961.675
479.38291	4903.575
483.4754	4845.175
487.56496	4820.475
491.6516	4830.575
495.73531	4821.775
499.81612	4810.375
503.89401	4846.875
507.96899	4880.875
512.04106	4961.675
516.11023	5072.475
520.1765	5162.075
524.23987	5148.075
528.30034	5090.575
532.35792	4993.475
536.41261	4872.175
540.46441	4724.875
544.51333	4644.175
548.55936	4627.475
552.60252	4696.675
556.64279	4783.575
560.6802	4880.775
564.71473	4935.875
568.7464	5119.575
572.7752	5225.975
576.80114	5098.975
580.82422	4896.475
584.84444	4822.475
588.86181	4812.075
592.87633	4803.575
596.888	4870.375
600.89682	5004.575
604.9028	5567.075
608.90594	7109.975
612.90624	9311.775
616.90371	9260.575
620.89834	6646.075
624.89015	5345.175
628.87913	5186.075
632.86528	5325.075
636.84862	5477.875
640.82913	5390.575
644.80683	5116.675
648.78172	4807.975
652.75379	4695.875
656.72306	4782.075
660.68952	4972.175
664.65319	4928.675
668.61405	4652.875
672.57211	4529.475
676.52738	4507.875
680.47986	4504.375
684.42955	4477.475
688.37646	4463.575
692.32058	4468.875
696.26192	4472.975
700.20048	4523.975
704.13626	4540.775
708.06928	4556.175
711.99952	4513.775
715.927	4502.275
719.85171	4512.375
723.77365	4541.875
727.69284	4503.375
731.60928	4456.175
735.52295	4448.075
739.43388	4413.075
743.34206	4431.675
747.24749	4446.175
751.15017	4470.675
755.05012	4535.475
758.94733	4734.475
762.8418	5217.475
766.73354	6043.075
770.62254	6978.975
774.50882	7564.075
778.39237	7345.575
782.27321	6378.175
786.15132	5398.075
790.02671	4806.975
793.89938	4567.375
797.76935	4486.675
801.6366	4459.775
805.50115	4515.175
809.36299	4593.275
813.22213	4615.175
817.07857	4588.775
820.93231	4530.375
824.78336	4426.675
828.63172	4375.475
832.47738	4335.875
836.32036	4293.775
840.16066	4265.875
843.99827	4230.375
847.8332	4210.075
851.66546	4203.575
855.49504	4197.275
859.32195	4194.875
863.1462	4183.275
866.96777	4181.075
870.78668	4204.875
874.60293	4247.075
878.41652	4297.475
882.22745	4374.575
886.03573	4447.175
889.84136	4459.675
893.64433	4399.575
897.44466	4334.875
901.24235	4255.275
905.0374	4183.175
908.8298	4131.075
912.61957	4085.875
916.40671	4088.775
920.19121	4092.575
923.97308	4126.075
927.75233	4154.975
931.52895	4189.275
935.30295	4163.475
939.07433	4055.975
942.84309	3961.875
946.60924	3877.575
950.37278	3875.375
954.13371	3841.975
957.89203	3825.075
961.64774	3825.275
965.40086	3805.375
969.15137	3789.875
972.89929	3785.375
976.64461	3771.375
980.38733	3766.375
984.12747	3769.175
987.86502	3769.075
991.59999	3800.375
995.33237	3836.875
999.06217	3877.875
1002.78939	3954.075
1006.51404	4053.475
1010.23611	4169.275
1013.95561	4245.475
1017.67255	4269.475
1021.38692	4224.575
1025.09872	4137.675
1028.80796	4070.975
1032.51465	4023.275
1036.21877	4014.175
1039.92035	4034.875
1043.61937	4048.375
1047.31584	4051.175
1051.00976	4067.975
1054.70114	4065.075
1058.38998	4062.175
1062.07627	4079.575
1065.76003	4129.675
1069.44126	4142.975
1073.11995	4190.775
1076.79611	4220.675
1080.46974	4284.275
1084.14085	4335.975
1087.80943	4448.175
1091.47549	4478.975
1095.13903	4421.475
1098.80005	4277.775
1102.45857	4156.275
1106.11456	4111.175
1109.76805	4138.975
1113.41903	4254.675
1117.06751	4428.475
1120.71348	4660.675
1124.35696	4933.775
1127.99793	5170.575
1131.63641	5253.775
1135.2724	5080.075
1138.90589	4868.875
1142.5369	4685.575
1146.16542	4524.275
1149.79145	4363.875
1153.415	4287.675
1157.03607	4228.375
1160.65467	4252.475
1164.27079	4355.175
1167.88443	4532.475
1171.49561	4835.975
1175.10432	5374.775
1178.71056	6152.575
1182.31434	6770.775
1185.91565	6926.375
1189.51451	6718.075
1193.11091	6342.175
1196.70485	5945.675
1200.29634	5702.275
1203.88538	5550.475
1207.47197	5286.575
1211.05612	4980.475
1214.63782	4720.475
1218.21708	4560.675
1221.79391	4464.275
1225.36829	4404.475
1228.94024	4394.375
1232.50976	4373.875
1236.07685	4353.875
1239.6415	4384.175
1243.20374	4397.975
1246.76355	4416.275
1250.32093	4494.775
1253.8759	4534.475
1257.42845	4644.075
1260.97859	4747.575
1264.52631	4858.975
1268.07163	4996.475
1271.61453	5088.075
1275.15503	5142.475
1278.69312	5162.875
1282.22882	5173.675
1285.76211	5266.975
1289.29301	5396.175
1292.82151	5570.075
1296.34761	5764.075
1299.87133	6083.975
1303.39266	6620.775
1306.9116	7420.475
1310.42815	8334.475
1313.94233	8755.675
1317.45412	8448.075
1320.96354	7751.075
1324.47058	7053.175
1327.97525	6513.075
1331.47754	6170.975
1334.97747	6031.875
1338.47502	6090.375
1341.97022	6292.975
1345.46305	6613.975
1348.95352	7116.075
1352.44163	7730.675
1355.92738	8589.575
1359.41078	9881.175
1362.89183	11158.175
1366.37053	10900.775
1369.84688	9225.475
1373.32088	7591.875
1376.79254	6488.275
1380.26186	5893.175
1383.72883	5579.475
1387.19347	5350.675
1390.65578	5160.775
1394.11575	4993.375
1397.57339	4881.575
1401.0287	4844.875
1404.48168	4837.675
1407.93234	4877.975
1411.38068	4862.675
1414.82669	4838.575
1418.27039	4773.675
1421.71177	4692.075
1425.15083	4583.375
1428.58758	4500.475
1432.02203	4522.475
1435.45416	4534.775
1438.88399	4550.075
1442.31151	4516.475
1445.73673	4537.575
1449.15965	4599.175
1452.58027	4586.875
1455.9986	4537.075
1459.41463	4532.875
1462.82837	4571.075
1466.23982	4667.875
1469.64898	4749.275
1473.05586	4820.375
1476.46045	4841.275
1479.86276	4925.375
1483.26279	5051.175
1486.66054	5227.875
1490.05602	5411.975
1493.44922	5726.575
1496.84016	6206.975
1500.22882	6933.675
1503.61521	7938.175
1506.99934	9114.175
1510.38121	10107.175
1513.76081	10407.375
1517.13816	9718.675
1520.51324	8382.875
1523.88607	7117.675
1527.25665	6274.875
1530.62498	5775.975
1533.99105	5514.575
1537.35488	5364.475
1540.71647	5277.275
1544.07581	5259.075
1547.4329	5285.375
1550.78776	5292.075
1554.14038	5307.875
1557.49077	5361.075
1560.83892	5450.875
1564.18484	5599.475
1567.52853	5808.575
1570.86999	5992.375
1574.20922	6090.375
1577.54624	6049.175
1580.88103	5750.075
1584.2136	5318.575
1587.54395	5041.175
1590.87208	4981.875
1594.19801	5173.675
1597.52172	5495.775
1600.84321	5665.375
1604.16251	5490.975
1607.47959	5241.975
1610.79447	4953.375
1614.10715	4666.675
1617.41763	4427.375
1620.7259	4251.375
1624.03199	4183.275
1627.33587	4165.375
1630.63757	4231.375
1633.93707	4357.775
1637.23439	4594.375
1640.52951	4966.075
1643.82246	5553.475
1647.11321	6352.875
1650.40179	7041.875
1653.68819	7081.075
1656.97241	6332.175
1660.25446	5342.975
1663.53433	4646.675
1666.81203	4203.275
1670.08756	3931.575
1673.36092	3752.275
1676.63211	3640.675
1679.90115	3560.575
1683.16801	3491.175
1686.43272	3433.775
1689.69527	3403.675
1692.95567	3386.475
1696.2139	3397.575
1699.46999	3392.775
1702.72392	3357.775
1705.97571	3304.475
1709.22535	3260.775
1712.47284	3235.175
1715.71819	3222.375
1718.96139	3202.175
1722.20246	3186.475
1725.44139	3161.275
1728.67818	3130.175
1731.91284	3109.775
1735.14537	3088.375
1738.37576	3078.875
1741.60403	3059.575
1744.83017	3046.675
1748.05418	3048.575
1751.27607	3037.575
1754.49584	3032.675
1757.71349	3049.775
1760.92903	3042.375
1764.14244	3022.475
1767.35375	3022.775
1770.56294	3000.375
1773.77002	2987.575
1776.97499	2959.675
1780.17785	2942.675
1783.37861	2915.175
1786.57727	2909.375
1789.77382	2892.875
1792.96828	2878.875
1796.16064	2874.275
1799.3509	2868.175
1802.53907	2862.375
1805.72514	2841.675
1808.90913	2836.975
1812.09102	2829.075
1815.27083	2812.475
1818.44856	2802.675
1821.6242	2801.975
1824.79776	2803.075
1827.96924	2782.875
1831.13864	2783.975
1834.30597	2780.675
1837.47122	2771.475
1840.6344	2772.175
1843.7955	2758.675
1846.95454	2761.775
1850.11151	2753.375
1853.26642	2750.475
1856.41926	2758.775
1859.57004	2746.875
1862.71876	2740.075
1865.86542	2746.275
1869.01003	2731.475
1872.15258	2731.375
1875.29308	2723.975
1878.43152	2733.675
1881.56792	2727.675
1884.70227	2712.575
1887.83457	2720.175
1890.96482	2708.875
1894.09304	2699.175
1897.21921	2713.175
1900.34335	2699.075
1903.46544	2713.275
1906.58551	2682.375
1909.70353	2687.075
1912.81953	2677.875
1915.93349	2678.675
1919.04543	2669.975
1922.15534	2664.575
1925.26322	2671.175
1928.36908	2657.575
1931.47292	2654.075
1934.57473	2632.475
1937.67453	2639.175
1940.77232	2604.675
1943.86808	2608.275
1946.96184	2600.475
1950.05358	2588.575
1953.14331	2599.875
1956.23103	2571.575
1959.31675	2574.575
1962.40046	2560.875
1965.48217	2549.075
1968.56188	2547.175
1971.63959	2537.475
1974.7153	2543.075
1977.78901	2520.075
1980.86073	2521.075
1983.93046	2508.375
1986.99819	2493.475
1990.06394	2488.075
1993.1277	2477.575
1996.18947	2467.375
1999.24925	2451.675
2002.30706	2456.075
2005.36288	2438.175
2008.41672	2436.075
2011.46859	2423.375
2014.51848	2417.975
2017.56639	2409.375
2020.61233	2406.575
2023.6563	2408.475
2026.6983	2399.975
2029.73833	2382.675
2032.7764	2374.575
2035.8125	2363.475
2038.84664	2368.975
2041.87881	2366.275
2044.90903	2360.575
2047.93729	2342.375
2050.96359	2347.575
2053.98794	2349.075
2057.01034	2341.875
2060.03078	2337.675
2063.04927	2318.675
2066.06582	2313.675
2069.08042	2316.375
2072.09307	2309.075
2075.10378	2310.075
2078.11255	2308.775
2081.11938	2306.375
2084.12426	2308.975
2087.12722	2303.975
2090.12824	2313.675
2093.12732	2309.475
2096.12447	2294.575
2099.11969	2292.375
2102.11299	2293.375
2105.10435	2303.975
2108.09379	2299.175
2111.08131	2313.575
2114.0669	2296.575
2117.05057	2298.175
2120.03233	2300.375
2123.01216	2299.075
2125.99008	2300.575
2128.96609	2306.175
2131.94018	2312.075
2134.91236	2296.575
2137.88263	2303.275
2140.851	2302.775
2143.81746	2302.675
2146.78201	2308.075
2149.74466	2307.075
2152.7054	2303.575
2155.66425	2293.875
2158.6212	2290.075
2161.57625	2288.075
2164.52941	2276.275
2167.48067	2283.075
2170.43004	2282.375
2173.37752	2279.675
2176.32311	2280.975
2179.26681	2267.975
2182.20863	2281.575
2185.14856	2282.875
2188.08661	2274.375
2191.02278	2274.575
2193.95707	2268.475
2196.88948	2255.775
2199.82001	2263.475
2202.74867	2253.175
2205.67545	2241.375
2208.60037	2246.875
2211.52341	2241.475
2214.44458	2240.775
2217.36388	2229.775
2220.28132	2225.575
2223.1969	2220.075
2226.11061	2217.175
2229.02246	2215.275
2231.93245	2198.575
2234.84058	2195.175
2237.74686	2194.175
2240.65128	2179.475
2243.55385	2196.875
2246.45456	2191.175
2249.35343	2179.175
2252.25044	2181.575
2255.14561	2180.575
2258.03893	2189.575
2260.93041	2190.575
2263.82004	2188.675
2266.70783	2170.175
2269.59378	2168.775
2272.4779	2150.475
2275.36017	2150.475
2278.24061	2150.975
2281.11922	2139.675
2283.996	2137.775
2286.87094	2136.375
2289.74405	2103.975
2292.61534	2117.075
2295.4848	2112.575
2298.35243	2097.175
2301.21824	2089.975
2304.08223	2098.875
2306.94439	2095.475
2309.80474	2083.975
2312.66327	2092.175
2315.51999	2086.975
2318.37489	2089.275
2321.22797	2082.275
2324.07925	2075.675
2326.92871	2082.875
2329.77637	2075.675
2332.62222	2073.875
2335.46626	2061.575
2338.3085	2060.275
2341.14893	2063.075
2343.98756	2048.175
2346.8244	2047.875
2349.65943	2057.375
2352.49267	2059.775
2355.32411	2045.575
2358.15376	2060.075
2360.98161	2055.675
2363.80768	2055.975
2366.63195	2066.975
2369.45444	2064.075
2372.27514	2065.175
2375.09405	2052.475
2377.91118	2053.975
2380.72652	2038.175
2383.54009	2037.275
2386.35187	2019.175
2389.16188	2018.275
2391.97011	2016.675
2394.77657	2006.975
2397.58125	1990.075
2400.38416	1991.175
2403.18529	1994.375
2405.98466	1975.875
2408.78226	1972.875
2411.57809	1972.275
2414.37216	1960.775
2417.16446	1969.675
2419.955	1955.375
2422.74378	1956.975
2425.5308	1945.375
2428.31606	1948.575
2431.09956	1944.875
2433.88131	1944.375
2436.6613	1945.675
2439.43954	1938.775
2442.21603	1939.775
2444.99077	1943.075
2447.76377	1943.575
2450.53501	1940.875
2453.30451	1941.175
2456.07226	1943.375
2458.83827	1931.775
2461.60254	1934.975
2464.36507	1937.875
2467.12586	1920.875
2469.88492	1922.975
2472.64224	1929.175
2475.39782	1935.475
2478.15167	1948.475
2480.90379	1924.275
2483.65417	1935.875
2486.40283	1927.775
2489.14976	1927.575
2491.89497	1936.375
2494.63845	1951.575
2497.3802	1952.075
2500.12024	1928.675
2502.85855	1920.475
2505.59514	1916.775
2508.33002	1915.675
2511.06318	1901.475
2513.79462	1894.475
2516.52435	1885.475
2519.25237	1879.975
2521.97867	1868.675
2524.70327	1870.375
2527.42616	1864.675
2530.14734	1860.175
2532.86681	1857.475
2535.58458	1854.475
2538.30065	1850.275
2541.01501	1841.875
2543.72768	1841.475
2546.43864	1854.375
2549.14791	1829.775
2551.85548	1835.475
2554.56136	1830.275
2557.26554	1829.675
2559.96803	1836.675
2562.66883	1831.175
2565.36794	1828.975
2568.06536	1821.875
2570.7611	1824.375
2573.45514	1811.175
2576.14751	1803.375
2578.83819	1795.475
2581.52719	1804.575
2584.21451	1794.575
2586.90015	1784.475
2589.58411	1790.475
2592.2664	1794.075
2594.94701	1783.675
2597.62594	1781.975
2600.30321	1778.175
2602.9788	1779.675
2605.65273	1777.075
2608.32498	1773.375
2610.99557	1765.575
2613.66449	1764.575
2616.33175	1751.275
2618.99734	1762.275
2621.66128	1758.775
2624.32355	1756.275
2626.98416	1753.975
2629.64311	1750.575
2632.30041	1742.075
2634.95605	1735.375
2637.61004	1729.675
2640.26238	1732.175
2642.91306	1735.375
2645.56209	1729.475
2648.20948	1729.975
2650.85521	1712.275
2653.4993	1732.975
2656.14175	1721.575
2658.78255	1729.075
2661.42171	1720.475
2664.05923	1720.475
2666.6951	1724.275
2669.32934	1728.075
2671.96194	1726.275
2674.59291	1730.675
2677.22224	1723.775
2679.84993	1729.575
2682.476	1722.375
2685.10043	1738.975
2687.72324	1729.475
2690.34441	1732.575
2692.96396	1726.775
2695.58188	1724.275
2698.19818	1722.475
2700.81285	1722.775
2703.4259	1748.975
2706.03733	1804.075
2708.64714	1761.375
2711.25533	1743.275
2713.86191	1734.575
2716.46687	1738.475
2719.07021	1741.475
2721.67194	1737.075
2724.27206	1721.675
2726.87057	1718.875
2729.46747	1722.975
2732.06276	1721.975
2734.65644	1719.475
2737.24852	1721.175
2739.83899	1705.075
2742.42786	1707.575
2745.01513	1701.775
2747.60079	1698.475
2750.18486	1701.275
2752.76733	1695.075
2755.3482	1699.875
2757.92747	1702.875
2760.50515	1693.175
2763.08123	1687.975
2765.65573	1693.875
2768.22863	1691.875
2770.79994	1678.375
2773.36967	1683.275
2775.9378	1682.575
2778.50435	1677.575
2781.06932	1672.375
2783.6327	1664.275
2786.1945	1667.075
2788.75471	1665.875
2791.31335	1657.375
2793.87041	1657.375
2796.42589	1650.275
2798.97979	1661.975
2801.53212	1655.075
2804.08288	1647.175
2806.63206	1659.475
2809.17967	1655.975
2811.72571	1655.275
2814.27018	1653.775
2816.81308	1646.975
2819.35442	1648.175
2821.89419	1658.475
2824.43239	1651.075
2826.96904	1643.975
2829.50412	1656.775
2832.03763	1646.075
2834.56959	1644.375
2837.1	1654.975
2839.62884	1646.375
2842.15613	1658.675
2844.68186	1657.575
2847.20604	1657.675
2849.72867	1670.175
2852.24974	1662.475
2854.76927	1668.475
2857.28724	1697.475
2859.80367	1681.975
2862.31855	1669.475
2864.83189	1668.675
2867.34368	1658.575
2869.85393	1665.875
2872.36264	1661.175
2874.8698	1661.575
2877.37543	1657.675
2879.87952	1662.475
2882.38207	1662.575
2884.88308	1652.975
2887.38256	1659.075
2889.88051	1647.575
2892.37692	1653.675
2894.8718	1644.875
2897.36515	1644.575
2899.85698	1645.975
2902.34727	1656.075
2904.83604	1646.675
2907.32328	1662.675
2909.809	1657.575
2912.29319	1653.975
2914.77587	1654.775
2917.25702	1651.675
2919.73665	1647.875
2922.21476	1644.175
2924.69136	1655.575
2927.16644	1638.175
2929.64	1639.575
2932.11205	1641.575
2934.58258	1630.275
2937.05161	1634.775
2939.51912	1637.975
2941.98513	1630.175
2944.44962	1623.775
2946.91261	1623.375
2949.37409	1610.875
2951.83407	1619.775
2954.29254	1616.375
2956.74951	1616.975
2959.20498	1606.575
2961.65895	1608.775
2964.11142	1602.975
2966.56239	1600.675
2969.01186	1593.975
2971.45984	1586.575
2973.90632	1587.475
2976.35131	1584.075
2978.7948	1572.775
2981.23681	1579.175
2983.67732	1566.275
2986.11635	1569.875
2988.55388	1561.975
2990.98993	1555.075
2993.4245	1562.775
2995.85758	1554.475
2998.28917	1557.375
3000.71928	1562.375
3003.14791	1556.475
3005.57506	1561.075
3008.00073	1550.375
3010.42493	1552.675
3012.84764	1554.575
3015.26888	1556.075
3017.68865	1556.975
3020.10694	1551.775
3022.52376	1556.075
3024.9391	1547.275
3027.35298	1545.775
3029.76539	1542.475
3032.17632	1544.375
3034.5858	1545.875
3036.9938	1539.475
3039.40034	1539.775
3041.80542	1536.475
3044.20903	1539.175
3046.61118	1540.175
3049.01187	1540.075
3051.4111	1535.175
3053.80888	1526.975
3056.20519	1529.775
3058.60005	1534.475
3060.99345	1528.575
3063.3854	1531.275
3065.7759	1541.075
3068.16494	1531.275
3070.55254	1524.775
3072.93868	1527.575
3075.32338	1526.375
3077.70662	1522.275
3080.08842	1514.375
3082.46878	1518.275
3084.84769	1519.975
3087.22515	1526.975
3089.60118	1538.475
3091.97576	1547.475
3094.3489	1527.975
3096.72061	1534.475
3099.09087	1536.575
3101.4597	1533.375
3103.82709	1537.375
3106.19305	1546.475
3108.55757	1530.175
3110.92066	1542.075
3113.28232	1543.075
3115.64255	1540.575
3118.00134	1530.975
3120.35871	1543.675
3122.71466	1545.275
3125.06917	1542.075
3127.42226	1558.875
3129.77393	1549.975
3132.12417	1562.675
3134.47299	1557.875
3136.82039	1561.175
3139.16636	1563.375
3141.51092	1564.375
3143.85406	1579.075
3146.19579	1584.775
3148.53609	1591.375
3150.87499	1591.975
3153.21246	1594.875
3155.54853	1610.275
3157.88318	1605.475
3160.21642	1614.475
3162.54826	1619.775
3164.87868	1622.075
3167.2077	1619.275
3169.5353	1629.175
3171.86151	1629.375
3174.18631	1631.175
3176.5097	1640.775
3178.83169	1638.375
3181.15228	1641.475
3183.47147	1629.275
3185.78926	1645.675
3188.10565	1639.275
3190.42065	1649.575
3192.73424	1654.975
3195.04645	1653.175
3197.35725	1656.275
3199.66667	1672.075
3201.97469	1656.275
3204.28132	1671.575
3206.58656	1681.875
3208.8904	1687.275
3211.19287	1683.675
3213.49394	1702.975
3215.79363	1701.075
3218.09193	1700.175
3220.38884	1709.475
3222.68438	1719.675
3224.97853	1715.775
3227.2713	1701.175
3229.56269	1704.475
3231.8527	1716.475
3234.14133	1698.075
3236.42858	1705.075
