Data from AgNPs_FTO_APTES_UA_50um_CRN_0.1mM_R6G_10uM_NaF_0.1M_Addition_RamanShift__26__15-33-19-256.txt Node

Date: Tue Dec 21 15:33:19 GMT 2021
User: TCL
Spectrometer: QEP01345
Trigger mode: 4
Integration Time (sec): 7.000000E0
Scans to average: 10
Electric dark correction enabled: true
Nonlinearity correction enabled: false
Boxcar width: 0
XAxis mode: Raman Shifts
Number of Pixels in Spectrum: 1044
>>>>>Begin Spectral Data<<<<<
46.04893	-0.475
50.45542	-0.775
54.85868	-1.075
59.25871	0.725
63.6555	43.225
68.04907	48.525
72.43941	50.425
76.82654	56.125
81.21044	59.425
85.59113	59.525
89.96862	62.425
94.34289	63.225
98.71396	67.125
103.08183	68.725
107.4465	75.925
111.80798	73.325
116.16626	72.725
120.52136	72.225
124.87327	73.925
129.222	76.425
133.56755	84.325
137.90993	88.425
142.24913	97.025
146.58517	104.825
150.91804	121.225
155.24774	143.525
159.57429	172.225
163.89768	219.225
168.21792	286.225
172.53501	383.625
176.84895	529.825
181.15975	737.025
185.46741	1025.725
189.77193	1425.425
194.07331	1907.425
198.37157	2465.125
202.6667	3064.025
206.9587	3646.925
211.24758	4225.125
215.53334	4818.525
219.81599	5441.225
224.09553	6154.125
228.37195	6911.425
232.64527	7743.425
236.91549	8637.725
241.18261	9518.525
245.44663	10306.125
249.70755	10995.625
253.96539	11611.725
258.22014	12119.025
262.4718	12567.525
266.72039	12857.525
270.96589	12991.725
275.20832	12992.425
279.44768	12875.425
283.68397	12717.225
287.91719	12601.925
292.14735	12514.325
296.37445	12585.325
300.59849	12760.225
304.81948	12963.225
309.03742	13028.525
313.25231	12907.425
317.46415	12477.525
321.67296	11908.725
325.87872	11447.425
330.08145	11229.525
334.28114	11207.725
338.47781	11371.025
342.67145	11549.425
346.86207	11835.425
351.04966	12210.325
355.23424	12680.425
359.4158	13044.425
363.59435	13285.925
367.76989	13418.225
371.94243	13510.925
376.11196	13547.125
380.27849	13613.225
384.44203	13616.025
388.60257	13608.125
392.76012	13592.325
396.91468	13689.525
401.06626	13915.925
405.21485	14104.825
409.36047	14034.725
413.50311	13606.325
417.64277	13208.225
421.77947	12950.525
425.9132	12879.025
430.04396	12913.825
434.17176	13001.625
438.2966	13124.825
442.41849	13369.525
446.53742	13692.025
450.6534	14040.325
454.76644	14307.425
458.87653	14380.925
462.98368	14308.325
467.08789	14144.925
471.18916	13974.825
475.2875	13874.725
479.38291	13777.825
483.4754	13687.025
487.56496	13517.425
491.6516	13341.825
495.73531	13197.725
499.81612	13129.225
503.89401	13185.125
507.96899	13236.525
512.04106	13241.525
516.11023	13302.025
520.1765	13324.225
524.23987	13270.525
528.30034	13185.625
532.35792	13064.625
536.41261	12920.725
540.46441	12743.125
544.51333	12607.925
548.55936	12658.825
552.60252	12836.025
556.64279	13090.925
560.6802	13289.225
564.71473	13368.225
568.7464	13674.325
572.7752	13900.225
576.80114	13825.425
580.82422	13639.025
584.84444	13624.825
588.86181	13692.825
592.87633	13914.325
596.888	14075.525
600.89682	14234.725
604.9028	14938.125
608.90594	17058.825
612.90624	19888.825
616.90371	19367.025
620.89834	15354.125
624.89015	13378.625
628.87913	13072.325
632.86528	13231.125
636.84862	13390.025
640.82913	13261.825
644.80683	12821.325
648.78172	12402.825
652.75379	12248.525
656.72306	12409.725
660.68952	12732.425
664.65319	12701.225
668.61405	12429.725
672.57211	12280.625
676.52738	12318.825
680.47986	12314.625
684.42955	12205.325
688.37646	12101.425
692.32058	12092.625
696.26192	12107.925
700.20048	12223.925
704.13626	12298.725
708.06928	12261.225
711.99952	12155.525
715.927	12117.825
719.85171	12151.425
723.77365	12120.925
727.69284	12079.925
731.60928	12022.325
735.52295	11975.625
739.43388	11979.125
743.34206	12029.825
747.24749	12036.225
751.15017	12075.525
755.05012	12221.325
758.94733	12528.125
762.8418	13307.925
766.73354	14670.025
770.62254	16207.725
774.50882	17018.225
778.39237	16449.525
782.27321	14794.625
786.15132	13285.325
790.02671	12373.825
793.89938	11965.325
797.76935	11767.325
801.6366	11701.625
805.50115	11729.725
809.36299	11722.525
813.22213	11743.625
817.07857	11709.325
820.93231	11650.225
824.78336	11566.025
828.63172	11487.525
832.47738	11479.025
836.32036	11423.925
840.16066	11403.025
843.99827	11382.425
847.8332	11324.025
851.66546	11289.925
855.49504	11251.225
859.32195	11249.725
863.1462	11238.225
866.96777	11230.725
870.78668	11211.625
874.60293	11239.525
878.41652	11254.825
882.22745	11330.625
886.03573	11372.625
889.84136	11358.325
893.64433	11283.725
897.44466	11186.225
901.24235	11118.925
905.0374	11047.525
908.8298	10959.425
912.61957	10943.125
916.40671	10961.425
920.19121	11047.925
923.97308	11112.025
927.75233	11124.325
931.52895	11125.725
935.30295	11059.325
939.07433	10860.925
942.84309	10685.925
946.60924	10580.425
950.37278	10510.925
954.13371	10482.125
957.89203	10435.325
961.64774	10394.625
965.40086	10370.025
969.15137	10303.325
972.89929	10259.825
976.64461	10228.425
980.38733	10206.425
984.12747	10196.625
987.86502	10240.825
991.59999	10301.125
995.33237	10400.425
999.06217	10566.025
1002.78939	10818.625
1006.51404	11013.725
1010.23611	11246.725
1013.95561	11381.625
1017.67255	11399.525
1021.38692	11309.925
1025.09872	11125.525
1028.80796	11042.025
1032.51465	11030.025
1036.21877	11119.925
1039.92035	11169.725
1043.61937	11137.125
1047.31584	11073.825
1051.00976	10961.825
1054.70114	10940.825
1058.38998	10905.625
1062.07627	10943.725
1065.76003	11008.125
1069.44126	11061.225
1073.11995	11170.025
1076.79611	11224.825
1080.46974	11287.225
1084.14085	11398.625
1087.80943	11528.325
1091.47549	11613.425
1095.13903	11576.825
1098.80005	11388.225
1102.45857	11164.725
1106.11456	11017.125
1109.76805	11024.225
1113.41903	11148.625
1117.06751	11388.125
1120.71348	11650.725
1124.35696	12023.225
1127.99793	12321.025
1131.63641	12446.925
1135.2724	12270.325
1138.90589	11956.525
1142.5369	11724.125
1146.16542	11541.225
1149.79145	11407.625
1153.415	11345.425
1157.03607	11361.325
1160.65467	11528.025
1164.27079	11842.325
1167.88443	12337.425
1171.49561	13048.325
1175.10432	14147.825
1178.71056	15632.225
1182.31434	17002.225
1185.91565	17549.725
1189.51451	17354.525
1193.11091	16632.125
1196.70485	15786.225
1200.29634	15103.925
1203.88538	14543.725
1207.47197	13977.425
1211.05612	13481.025
1214.63782	13078.625
1218.21708	12846.825
1221.79391	12748.625
1225.36829	12674.325
1228.94024	12532.125
1232.50976	12389.325
1236.07685	12246.825
1239.6415	12217.225
1243.20374	12259.925
1246.76355	12341.525
1250.32093	12459.625
1253.8759	12678.725
1257.42845	12969.025
1260.97859	13288.425
1264.52631	13558.625
1268.07163	13845.925
1271.61453	14129.725
1275.15503	14410.925
1278.69312	14652.725
1282.22882	14874.825
1285.76211	15167.525
1289.29301	15607.425
1292.82151	16192.525
1296.34761	16919.825
1299.87133	17810.725
1303.39266	18996.425
1306.9116	20526.325
1310.42815	22111.525
1313.94233	23073.325
1317.45412	22916.825
1320.96354	22031.525
1324.47058	21038.625
1327.97525	20115.125
1331.47754	19467.925
1334.97747	19207.025
1338.47502	19235.525
1341.97022	19439.325
1345.46305	19682.325
1348.95352	19935.125
1352.44163	20484.525
1355.92738	21528.325
1359.41078	23324.525
1362.89183	25147.425
1366.37053	24920.625
1369.84688	22109.025
1373.32088	18982.825
1376.79254	16941.825
1380.26186	15946.525
1383.72883	15546.825
1387.19347	15362.225
1390.65578	15156.525
1394.11575	15048.125
1397.57339	15159.725
1401.0287	15410.525
1404.48168	15704.625
1407.93234	15872.425
1411.38068	15822.125
1414.82669	15515.225
1418.27039	15047.025
1421.71177	14417.125
1425.15083	13835.725
1428.58758	13485.025
1432.02203	13441.525
1435.45416	13550.625
1438.88399	13739.625
1442.31151	13897.325
1445.73673	14075.125
1449.15965	14293.325
1452.58027	14489.225
1455.9986	14533.525
1459.41463	14612.825
1462.82837	14833.425
1466.23982	15099.625
1469.64898	15289.425
1473.05586	15478.725
1476.46045	15424.725
1479.86276	15449.225
1483.26279	15478.325
1486.66054	15550.925
1490.05602	15709.825
1493.44922	15985.325
1496.84016	16404.625
1500.22882	17208.225
1503.61521	18461.525
1506.99934	20011.725
1510.38121	21417.025
1513.76081	21918.625
1517.13816	21023.125
1520.51324	19190.025
1523.88607	17429.425
1527.25665	16253.225
1530.62498	15622.625
1533.99105	15346.925
1537.35488	15148.625
1540.71647	15000.225
1544.07581	14875.925
1547.4329	14735.025
1550.78776	14596.625
1554.14038	14488.025
1557.49077	14505.825
1560.83892	14600.825
1564.18484	14805.825
1567.52853	15026.825
1570.86999	15232.725
1574.20922	15426.725
1577.54624	15468.125
1580.88103	15150.925
1584.2136	14698.325
1587.54395	14560.825
1590.87208	14875.725
1594.19801	15642.125
1597.52172	16576.925
1600.84321	17094.425
1604.16251	16697.425
1607.47959	15681.425
1610.79447	14492.125
1614.10715	13333.425
1617.41763	12381.225
1620.7259	11766.425
1624.03199	11416.925
1627.33587	11335.425
1630.63757	11544.125
1633.93707	12023.225
1637.23439	12823.825
1640.52951	14084.825
1643.82246	15653.825
1647.11321	17408.425
1650.40179	18446.425
1653.68819	17934.925
1656.97241	15997.025
1660.25446	13733.525
1663.53433	12026.425
1666.81203	10951.625
1670.08756	10279.325
1673.36092	9844.625
1676.63211	9574.425
1679.90115	9391.225
1683.16801	9235.325
1686.43272	9098.225
1689.69527	9016.325
1692.95567	8941.725
1696.2139	8894.825
1699.46999	8845.425
1702.72392	8794.925
1705.97571	8739.425
1709.22535	8685.625
1712.47284	8631.725
1715.71819	8599.425
1718.96139	8569.925
1722.20246	8530.225
1725.44139	8502.825
1728.67818	8434.325
1731.91284	8399.625
1735.14537	8339.025
1738.37576	8300.225
1741.60403	8283.625
1744.83017	8258.025
1748.05418	8248.825
1751.27607	8234.525
1754.49584	8226.325
1757.71349	8221.225
1760.92903	8208.525
1764.14244	8188.825
1767.35375	8166.725
1770.56294	8114.125
1773.77002	8077.125
1776.97499	8066.425
1780.17785	8030.925
1783.37861	8018.925
1786.57727	8007.025
1789.77382	7975.725
1792.96828	7933.125
1796.16064	7942.625
1799.3509	7910.425
1802.53907	7888.525
1805.72514	7878.625
1808.90913	7832.225
1812.09102	7832.425
1815.27083	7787.125
1818.44856	7777.725
1821.6242	7748.125
1824.79776	7748.425
1827.96924	7726.325
1831.13864	7713.925
1834.30597	7715.425
1837.47122	7702.325
1840.6344	7694.125
1843.7955	7672.625
1846.95454	7674.025
1850.11151	7668.825
1853.26642	7663.225
1856.41926	7654.225
1859.57004	7665.025
1862.71876	7622.925
1865.86542	7633.825
1869.01003	7627.725
1872.15258	7642.225
1875.29308	7613.425
1878.43152	7609.325
1881.56792	7604.425
1884.70227	7579.325
1887.83457	7596.325
1890.96482	7581.725
1894.09304	7568.625
1897.21921	7577.725
1900.34335	7563.725
1903.46544	7558.825
1906.58551	7542.025
1909.70353	7532.825
1912.81953	7514.025
1915.93349	7503.625
1919.04543	7502.925
1922.15534	7483.525
1925.26322	7463.425
1928.36908	7440.725
1931.47292	7417.725
1934.57473	7376.625
1937.67453	7364.425
1940.77232	7351.425
1943.86808	7329.025
1946.96184	7320.425
1950.05358	7266.525
1953.14331	7261.225
1956.23103	7234.625
1959.31675	7217.425
1962.40046	7177.925
1965.48217	7176.025
1968.56188	7153.125
1971.63959	7144.725
1974.7153	7121.625
1977.78901	7085.025
1980.86073	7060.825
1983.93046	7028.325
1986.99819	7014.225
1990.06394	6984.425
1993.1277	6961.725
1996.18947	6935.625
1999.24925	6898.225
2002.30706	6889.225
2005.36288	6881.925
2008.41672	6872.125
2011.46859	6818.925
2014.51848	6802.325
2017.56639	6779.425
2020.61233	6763.425
2023.6563	6727.925
2026.6983	6722.525
2029.73833	6708.125
2032.7764	6688.525
2035.8125	6660.025
2038.84664	6659.925
2041.87881	6639.425
2044.90903	6634.625
2047.93729	6635.525
2050.96359	6616.625
2053.98794	6634.525
2057.01034	6608.925
2060.03078	6585.225
2063.04927	6589.625
2066.06582	6590.025
2069.08042	6580.725
2072.09307	6562.925
2075.10378	6546.325
2078.11255	6528.625
2081.11938	6541.225
2084.12426	6539.425
2087.12722	6518.025
2090.12824	6508.125
2093.12732	6540.325
2096.12447	6529.925
2099.11969	6522.825
2102.11299	6512.125
2105.10435	6529.125
2108.09379	6510.425
2111.08131	6526.525
2114.0669	6510.925
2117.05057	6521.025
2120.03233	6538.125
2123.01216	6511.325
2125.99008	6529.925
2128.96609	6524.925
2131.94018	6525.925
2134.91236	6521.625
2137.88263	6514.125
2140.851	6548.625
2143.81746	6535.425
2146.78201	6520.725
2149.74466	6520.725
2152.7054	6517.125
2155.66425	6518.725
2158.6212	6520.125
2161.57625	6501.125
2164.52941	6501.525
2167.48067	6517.825
2170.43004	6498.725
2173.37752	6497.225
2176.32311	6470.425
2179.26681	6473.225
2182.20863	6474.525
2185.14856	6470.125
2188.08661	6481.125
2191.02278	6480.725
2193.95707	6469.425
2196.88948	6445.425
2199.82001	6455.025
2202.74867	6437.025
2205.67545	6437.625
2208.60037	6433.925
2211.52341	6417.225
2214.44458	6401.825
2217.36388	6387.125
2220.28132	6373.525
2223.1969	6358.525
2226.11061	6343.325
2229.02246	6331.325
2231.93245	6316.125
2234.84058	6308.925
2237.74686	6301.025
2240.65128	6284.025
2243.55385	6282.125
2246.45456	6271.025
2249.35343	6255.125
2252.25044	6257.825
2255.14561	6251.625
2258.03893	6230.325
2260.93041	6242.525
2263.82004	6206.225
2266.70783	6194.425
2269.59378	6190.225
2272.4779	6168.225
2275.36017	6163.125
2278.24061	6140.625
2281.11922	6124.025
2283.996	6104.825
2286.87094	6085.025
2289.74405	6076.225
2292.61534	6077.625
2295.4848	6067.725
2298.35243	6064.525
2301.21824	6059.725
2304.08223	6043.625
2306.94439	6056.325
2309.80474	6033.825
2312.66327	6045.025
2315.51999	6048.825
2318.37489	6027.425
2321.22797	6020.325
2324.07925	6006.825
2326.92871	6000.925
2329.77637	6013.025
2332.62222	5992.425
2335.46626	5989.225
2338.3085	5962.825
2341.14893	5969.825
2343.98756	5966.425
2346.8244	5972.225
2349.65943	5966.125
2352.49267	5961.525
2355.32411	5971.125
2358.15376	5956.925
2360.98161	5948.125
2363.80768	5970.225
2366.63195	5950.125
2369.45444	5954.425
2372.27514	5940.525
2375.09405	5923.425
2377.91118	5904.425
2380.72652	5895.925
2383.54009	5877.625
2386.35187	5869.725
2389.16188	5850.725
2391.97011	5832.425
2394.77657	5809.325
2397.58125	5807.525
2400.38416	5800.325
2403.18529	5794.025
2405.98466	5767.425
2408.78226	5760.125
2411.57809	5740.025
2414.37216	5749.725
2417.16446	5750.325
2419.955	5707.225
2422.74378	5718.125
2425.5308	5712.425
2428.31606	5699.125
2431.09956	5689.025
2433.88131	5685.225
2436.6613	5696.025
2439.43954	5689.725
2442.21603	5675.725
2444.99077	5660.525
2447.76377	5678.525
2450.53501	5665.725
2453.30451	5674.425
2456.07226	5671.325
2458.83827	5667.125
2461.60254	5653.325
2464.36507	5650.425
2467.12586	5638.425
2469.88492	5638.725
2472.64224	5646.025
2475.39782	5643.825
2478.15167	5670.925
2480.90379	5636.425
2483.65417	5666.425
2486.40283	5647.225
2489.14976	5652.825
2491.89497	5643.625
2494.63845	5662.625
2497.3802	5669.925
2500.12024	5639.425
2502.85855	5642.825
2505.59514	5644.125
2508.33002	5616.025
2511.06318	5608.225
2513.79462	5585.025
2516.52435	5598.425
2519.25237	5579.625
2521.97867	5567.525
2524.70327	5550.225
2527.42616	5539.325
2530.14734	5526.525
2532.86681	5523.925
2535.58458	5522.625
2538.30065	5497.725
2541.01501	5494.025
2543.72768	5512.225
2546.43864	5487.525
2549.14791	5483.125
2551.85548	5481.025
2554.56136	5479.025
2557.26554	5467.025
2559.96803	5460.625
2562.66883	5453.525
2565.36794	5435.925
2568.06536	5438.725
2570.7611	5438.425
2573.45514	5429.825
2576.14751	5427.625
2578.83819	5407.625
2581.52719	5414.525
2584.21451	5384.625
2586.90015	5387.025
2589.58411	5382.925
2592.2664	5392.025
2594.94701	5376.525
2597.62594	5391.225
2600.30321	5355.125
2602.9788	5357.125
2605.65273	5351.725
2608.32498	5346.825
2610.99557	5333.425
2613.66449	5323.425
2616.33175	5347.225
2618.99734	5344.325
2621.66128	5329.325
2624.32355	5319.625
2626.98416	5332.125
2629.64311	5329.525
2632.30041	5306.925
2634.95605	5317.325
2637.61004	5287.825
2640.26238	5285.225
2642.91306	5272.125
2645.56209	5278.325
2648.20948	5275.725
2650.85521	5267.825
2653.4993	5276.325
2656.14175	5270.325
2658.78255	5297.425
2661.42171	5287.325
2664.05923	5290.725
2666.6951	5271.425
2669.32934	5282.225
2671.96194	5291.025
2674.59291	5296.025
2677.22224	5285.325
2679.84993	5268.425
2682.476	5279.125
2685.10043	5281.025
2687.72324	5264.925
2690.34441	5266.525
2692.96396	5256.125
2695.58188	5287.025
2698.19818	5262.225
2700.81285	5275.625
2703.4259	5310.925
2706.03733	5352.825
2708.64714	5302.925
2711.25533	5294.525
2713.86191	5274.425
2716.46687	5295.225
2719.07021	5282.225
2721.67194	5269.825
2724.27206	5260.225
2726.87057	5257.525
2729.46747	5269.425
2732.06276	5275.425
2734.65644	5265.725
2737.24852	5261.825
2739.83899	5248.925
2742.42786	5257.625
2745.01513	5250.025
2747.60079	5238.925
2750.18486	5242.025
2752.76733	5235.325
2755.3482	5221.125
2757.92747	5246.925
2760.50515	5212.725
2763.08123	5206.825
2765.65573	5222.025
2768.22863	5214.825
2770.79994	5207.625
2773.36967	5208.625
2775.9378	5218.825
2778.50435	5196.225
2781.06932	5187.825
2783.6327	5178.425
2786.1945	5182.625
2788.75471	5175.625
2791.31335	5169.325
2793.87041	5149.325
2796.42589	5143.625
2798.97979	5141.325
2801.53212	5119.125
2804.08288	5146.325
2806.63206	5131.925
2809.17967	5118.325
2811.72571	5100.125
2814.27018	5102.525
2816.81308	5107.925
2819.35442	5093.925
2821.89419	5093.625
2824.43239	5092.225
2826.96904	5072.125
2829.50412	5087.725
2832.03763	5068.525
2834.56959	5075.525
2837.1	5071.025
2839.62884	5083.325
2842.15613	5065.525
2844.68186	5080.525
2847.20604	5072.425
2849.72867	5086.925
2852.24974	5069.425
2854.76927	5082.725
2857.28724	5084.025
2859.80367	5065.325
2862.31855	5051.125
2864.83189	5041.525
2867.34368	5055.925
2869.85393	5062.825
2872.36264	5036.825
2874.8698	5035.425
2877.37543	5049.425
2879.87952	5024.425
2882.38207	5034.325
2884.88308	5037.025
2887.38256	5031.425
2889.88051	5026.125
2892.37692	5034.425
2894.8718	5028.825
2897.36515	5016.325
2899.85698	5029.525
2902.34727	5022.925
2904.83604	5037.125
2907.32328	5035.625
2909.809	5044.325
2912.29319	5037.525
2914.77587	5037.525
2917.25702	5043.025
2919.73665	5027.525
2922.21476	5035.525
2924.69136	5033.825
2927.16644	5037.925
2929.64	5016.525
2932.11205	5014.025
2934.58258	5015.625
2937.05161	5016.125
2939.51912	5011.325
2941.98513	4994.825
2944.44962	4983.425
2946.91261	4977.025
2949.37409	4984.225
2951.83407	4976.925
2954.29254	4966.825
2956.74951	4972.625
2959.20498	4953.125
2961.65895	4942.125
2964.11142	4938.425
2966.56239	4915.225
2969.01186	4926.825
2971.45984	4896.425
2973.90632	4902.225
2976.35131	4877.925
2978.7948	4858.225
2981.23681	4860.025
2983.67732	4842.625
2986.11635	4839.525
2988.55388	4826.625
2990.98993	4804.225
2993.4245	4793.825
2995.85758	4792.025
2998.28917	4780.325
3000.71928	4791.325
3003.14791	4773.325
3005.57506	4784.525
3008.00073	4769.725
3010.42493	4761.425
3012.84764	4752.425
3015.26888	4744.525
3017.68865	4746.625
3020.10694	4717.325
3022.52376	4708.625
3024.9391	4727.325
3027.35298	4720.725
3029.76539	4687.325
3032.17632	4689.625
3034.5858	4666.025
3036.9938	4673.425
3039.40034	4678.225
3041.80542	4663.025
3044.20903	4659.825
3046.61118	4663.225
3049.01187	4641.825
3051.4111	4643.525
3053.80888	4634.225
3056.20519	4613.825
3058.60005	4609.325
3060.99345	4603.825
3063.3854	4605.725
3065.7759	4573.625
3068.16494	4579.025
3070.55254	4556.425
3072.93868	4557.725
3075.32338	4561.025
3077.70662	4542.125
3080.08842	4514.725
3082.46878	4513.725
3084.84769	4506.625
3087.22515	4516.225
3089.60118	4511.525
3091.97576	4523.625
3094.3489	4514.025
3096.72061	4515.025
3099.09087	4513.925
3101.4597	4510.425
3103.82709	4521.125
3106.19305	4519.825
3108.55757	4504.125
3110.92066	4492.925
3113.28232	4487.625
3115.64255	4475.525
3118.00134	4469.025
3120.35871	4467.225
3122.71466	4447.025
3125.06917	4450.425
3127.42226	4441.325
3129.77393	4453.725
3132.12417	4455.925
3134.47299	4447.425
3136.82039	4443.625
3139.16636	4444.225
3141.51092	4460.525
3143.85406	4468.325
3146.19579	4468.525
3148.53609	4455.625
3150.87499	4461.225
3153.21246	4460.125
3155.54853	4479.525
3157.88318	4476.225
3160.21642	4475.725
3162.54826	4472.325
3164.87868	4487.825
3167.2077	4487.225
3169.5353	4479.025
3171.86151	4463.325
3174.18631	4488.925
3176.5097	4469.925
3178.83169	4474.025
3181.15228	4482.625
3183.47147	4454.725
3185.78926	4477.125
3188.10565	4467.825
3190.42065	4459.825
