Data from AgNPs_FTO_APTES_UA_20um_CRN_0.1mM_R6G_10uM_NaF_0.1M_Addition_RamanShift__21__14-40-49-196.txt Node

Date: Tue Dec 21 14:40:49 GMT 2021
User: TCL
Spectrometer: QEP01345
Trigger mode: 4
Integration Time (sec): 7.000000E0
Scans to average: 10
Electric dark correction enabled: true
Nonlinearity correction enabled: false
Boxcar width: 0
XAxis mode: Raman Shifts
Number of Pixels in Spectrum: 1044
>>>>>Begin Spectral Data<<<<<
46.04893	-1.3375
50.45542	-1.2375
54.85868	-1.2375
59.25871	0.5625
63.6555	49.1625
68.04907	54.8625
72.43941	55.0625
76.82654	58.6625
81.21044	63.0625
85.59113	63.9625
89.96862	69.0625
94.34289	67.9625
98.71396	69.4625
103.08183	73.9625
107.4465	77.0625
111.80798	75.3625
116.16626	80.5625
120.52136	75.9625
124.87327	83.7625
129.222	81.6625
133.56755	90.7625
137.90993	102.1625
142.24913	102.6625
146.58517	119.2625
150.91804	140.1625
155.24774	157.9625
159.57429	194.9625
163.89768	252.0625
168.21792	328.9625
172.53501	442.7625
176.84895	601.2625
181.15975	851.5625
185.46741	1190.0625
189.77193	1639.9625
194.07331	2210.3625
198.37157	2851.6625
202.6667	3513.9625
206.9587	4215.8625
211.24758	4869.9625
215.53334	5548.2625
219.81599	6278.4625
224.09553	7071.6625
228.37195	7939.4625
232.64527	8902.5625
236.91549	9911.7625
241.18261	10916.4625
245.44663	11876.6625
249.70755	12688.6625
253.96539	13425.7625
258.22014	14022.2625
262.4718	14504.6625
266.72039	14830.9625
270.96589	15021.0625
275.20832	15025.2625
279.44768	14957.1625
283.68397	14796.4625
287.91719	14713.4625
292.14735	14624.4625
296.37445	14656.5625
300.59849	14728.2625
304.81948	14761.6625
309.03742	14708.8625
313.25231	14497.9625
317.46415	14116.3625
321.67296	13683.0625
325.87872	13306.2625
330.08145	13122.2625
334.28114	13131.5625
338.47781	13236.3625
342.67145	13426.9625
346.86207	13656.8625
351.04966	13935.3625
355.23424	14233.3625
359.4158	14548.1625
363.59435	14738.1625
367.76989	14893.6625
371.94243	15010.9625
376.11196	15062.6625
380.27849	15147.4625
384.44203	15267.2625
388.60257	15357.5625
392.76012	15483.5625
396.91468	15681.9625
401.06626	15882.5625
405.21485	16063.1625
409.36047	16007.8625
413.50311	15739.5625
417.64277	15467.7625
421.77947	15363.2625
425.9132	15388.4625
430.04396	15465.6625
434.17176	15601.9625
438.2966	15755.9625
442.41849	16038.3625
446.53742	16458.9625
450.6534	16982.7625
454.76644	17391.1625
458.87653	17520.5625
462.98368	17471.8625
467.08789	17279.1625
471.18916	17037.8625
475.2875	16920.7625
479.38291	16893.7625
483.4754	16809.5625
487.56496	16633.0625
491.6516	16326.0625
495.73531	16069.5625
499.81612	15900.6625
503.89401	15925.6625
507.96899	15923.5625
512.04106	15850.7625
516.11023	15792.8625
520.1765	15667.8625
524.23987	15604.5625
528.30034	15566.1625
532.35792	15478.4625
536.41261	15402.0625
540.46441	15248.9625
544.51333	15132.5625
548.55936	15195.9625
552.60252	15438.3625
556.64279	15761.3625
560.6802	15992.6625
564.71473	16082.8625
568.7464	16325.3625
572.7752	16657.5625
576.80114	16804.6625
580.82422	16854.0625
584.84444	16982.8625
588.86181	17178.3625
592.87633	17540.2625
596.888	17806.2625
600.89682	17821.2625
604.9028	18268.5625
608.90594	19837.2625
612.90624	21629.3625
616.90371	20512.2625
620.89834	17110.7625
624.89015	15522.1625
628.87913	15343.7625
632.86528	15462.2625
636.84862	15608.4625
640.82913	15464.6625
644.80683	15051.0625
648.78172	14663.4625
652.75379	14506.8625
656.72306	14616.8625
660.68952	14884.1625
664.65319	14909.6625
668.61405	14750.9625
672.57211	14765.2625
676.52738	14858.1625
680.47986	14906.8625
684.42955	14789.6625
688.37646	14626.7625
692.32058	14555.7625
696.26192	14585.6625
700.20048	14668.0625
704.13626	14773.7625
708.06928	14716.8625
711.99952	14619.2625
715.927	14508.0625
719.85171	14517.6625
723.77365	14509.6625
727.69284	14451.1625
731.60928	14423.3625
735.52295	14414.0625
739.43388	14444.2625
743.34206	14493.9625
747.24749	14515.5625
751.15017	14561.1625
755.05012	14701.2625
758.94733	15065.1625
762.8418	15822.5625
766.73354	17057.3625
770.62254	18388.5625
774.50882	18970.8625
778.39237	18305.0625
782.27321	16793.9625
786.15132	15446.3625
790.02671	14636.3625
793.89938	14224.0625
797.76935	14056.3625
801.6366	14033.2625
805.50115	13999.2625
809.36299	13943.0625
813.22213	13829.8625
817.07857	13815.2625
820.93231	13752.7625
824.78336	13677.0625
828.63172	13627.9625
832.47738	13599.8625
836.32036	13587.1625
840.16066	13554.3625
843.99827	13564.5625
847.8332	13539.4625
851.66546	13504.8625
855.49504	13468.2625
859.32195	13515.0625
863.1462	13510.2625
866.96777	13533.3625
870.78668	13518.1625
874.60293	13534.2625
878.41652	13502.6625
882.22745	13495.1625
886.03573	13572.1625
889.84136	13554.2625
893.64433	13487.1625
897.44466	13412.1625
901.24235	13283.1625
905.0374	13187.7625
908.8298	13120.8625
912.61957	13090.3625
916.40671	13171.4625
920.19121	13321.9625
923.97308	13457.9625
927.75233	13504.6625
931.52895	13468.7625
935.30295	13310.9625
939.07433	13081.8625
942.84309	12907.7625
946.60924	12817.8625
950.37278	12739.3625
954.13371	12708.1625
957.89203	12684.8625
961.64774	12630.4625
965.40086	12561.6625
969.15137	12457.5625
972.89929	12374.8625
976.64461	12320.5625
980.38733	12291.9625
984.12747	12336.3625
987.86502	12426.4625
991.59999	12518.5625
995.33237	12682.5625
999.06217	12980.1625
1002.78939	13359.9625
1006.51404	13612.5625
1010.23611	13839.9625
1013.95561	13988.7625
1017.67255	14028.5625
1021.38692	13872.3625
1025.09872	13635.3625
1028.80796	13554.8625
1032.51465	13661.0625
1036.21877	13870.6625
1039.92035	13929.5625
1043.61937	13917.7625
1047.31584	13764.0625
1051.00976	13587.0625
1054.70114	13495.3625
1058.38998	13460.7625
1062.07627	13516.5625
1065.76003	13575.2625
1069.44126	13684.5625
1073.11995	13775.4625
1076.79611	13856.1625
1080.46974	13934.1625
1084.14085	14009.6625
1087.80943	14143.1625
1091.47549	14222.4625
1095.13903	14281.3625
1098.80005	14136.9625
1102.45857	13877.6625
1106.11456	13657.7625
1109.76805	13648.1625
1113.41903	13711.0625
1117.06751	13846.9625
1120.71348	14043.7625
1124.35696	14268.8625
1127.99793	14556.1625
1131.63641	14767.5625
1135.2724	14696.0625
1138.90589	14523.1625
1142.5369	14380.4625
1146.16542	14259.5625
1149.79145	14230.6625
1153.415	14260.8625
1157.03607	14378.0625
1160.65467	14651.1625
1164.27079	15198.1625
1167.88443	15924.6625
1171.49561	16883.0625
1175.10432	18137.9625
1178.71056	19686.9625
1182.31434	21203.1625
1185.91565	21991.3625
1189.51451	21933.7625
1193.11091	21312.7625
1196.70485	20453.2625
1200.29634	19513.1625
1203.88538	18790.1625
1207.47197	18168.9625
1211.05612	17662.1625
1214.63782	17279.3625
1218.21708	17021.7625
1221.79391	16900.7625
1225.36829	16786.3625
1228.94024	16596.9625
1232.50976	16277.3625
1236.07685	16070.2625
1239.6415	15910.7625
1243.20374	15948.7625
1246.76355	16015.2625
1250.32093	16214.6625
1253.8759	16538.9625
1257.42845	16978.6625
1260.97859	17422.1625
1264.52631	17827.1625
1268.07163	18226.1625
1271.61453	18670.5625
1275.15503	19213.0625
1278.69312	19733.2625
1282.22882	20232.7625
1285.76211	20724.2625
1289.29301	21360.7625
1292.82151	22187.5625
1296.34761	23249.0625
1299.87133	24487.9625
1303.39266	25927.8625
1306.9116	27445.6625
1310.42815	28995.0625
1313.94233	30030.3625
1317.45412	30203.8625
1320.96354	29749.0625
1324.47058	29084.6625
1327.97525	28366.7625
1331.47754	27832.1625
1334.97747	27586.5625
1338.47502	27613.3625
1341.97022	27630.8625
1345.46305	27476.4625
1348.95352	27213.9625
1352.44163	27277.9625
1355.92738	27809.1625
1359.41078	28884.2625
1362.89183	29887.1625
1366.37053	29478.8625
1369.84688	27075.7625
1373.32088	24078.8625
1376.79254	22003.6625
1380.26186	21035.2625
1383.72883	20806.0625
1387.19347	20764.1625
1390.65578	20623.3625
1394.11575	20669.0625
1397.57339	21060.6625
1401.0287	21599.7625
1404.48168	22073.0625
1407.93234	22348.0625
1411.38068	22234.2625
1414.82669	21684.7625
1418.27039	20773.3625
1421.71177	19763.9625
1425.15083	18844.6625
1428.58758	18332.5625
1432.02203	18229.1625
1435.45416	18469.4625
1438.88399	18840.4625
1442.31151	19262.4625
1445.73673	19646.5625
1449.15965	20058.4625
1452.58027	20402.6625
1455.9986	20574.5625
1459.41463	20789.2625
1462.82837	21078.4625
1466.23982	21514.5625
1469.64898	21864.5625
1473.05586	22042.4625
1476.46045	22027.9625
1479.86276	21873.9625
1483.26279	21602.3625
1486.66054	21458.9625
1490.05602	21491.6625
1493.44922	21545.1625
1496.84016	21582.5625
1500.22882	21830.6625
1503.61521	22390.8625
1506.99934	23210.5625
1510.38121	24052.5625
1513.76081	24350.4625
1517.13816	23752.4625
1520.51324	22639.0625
1523.88607	21545.4625
1527.25665	20900.9625
1530.62498	20578.4625
1533.99105	20461.8625
1537.35488	20388.5625
1540.71647	20217.3625
1544.07581	19940.0625
1547.4329	19598.5625
1550.78776	19316.5625
1554.14038	19092.1625
1557.49077	19030.9625
1560.83892	19052.4625
1564.18484	19160.5625
1567.52853	19207.1625
1570.86999	19303.0625
1574.20922	19462.3625
1577.54624	19611.2625
1580.88103	19559.6625
1584.2136	19489.5625
1587.54395	19744.7625
1590.87208	20504.0625
1594.19801	21699.7625
1597.52172	23050.7625
1600.84321	23735.0625
1604.16251	23120.4625
1607.47959	21560.8625
1610.79447	19645.5625
1614.10715	17863.0625
1617.41763	16470.4625
1620.7259	15472.8625
1624.03199	14942.6625
1627.33587	14840.2625
1630.63757	15156.3625
1633.93707	15949.0625
1637.23439	17277.8625
1640.52951	19227.8625
1643.82246	21540.8625
1647.11321	23562.8625
1650.40179	24335.4625
1653.68819	23202.6625
1656.97241	20581.8625
1660.25446	17731.9625
1663.53433	15526.1625
1666.81203	14023.5625
1670.08756	13117.4625
1673.36092	12509.7625
1676.63211	12118.8625
1679.90115	11875.3625
1683.16801	11642.4625
1686.43272	11477.7625
1689.69527	11350.1625
1692.95567	11250.4625
1696.2139	11204.1625
1699.46999	11146.7625
1702.72392	11067.6625
1705.97571	11039.9625
1709.22535	10952.2625
1712.47284	10936.3625
1715.71819	10896.1625
1718.96139	10855.1625
1722.20246	10818.4625
1725.44139	10788.5625
1728.67818	10724.1625
1731.91284	10668.9625
1735.14537	10613.9625
1738.37576	10566.8625
1741.60403	10529.4625
1744.83017	10503.0625
1748.05418	10489.8625
1751.27607	10481.3625
1754.49584	10492.6625
1757.71349	10444.8625
1760.92903	10425.3625
1764.14244	10413.9625
1767.35375	10391.5625
1770.56294	10340.9625
1773.77002	10289.6625
1776.97499	10270.2625
1780.17785	10243.4625
1783.37861	10207.1625
1786.57727	10194.3625
1789.77382	10139.8625
1792.96828	10138.9625
1796.16064	10094.4625
1799.3509	10080.9625
1802.53907	10040.6625
1805.72514	10010.8625
1808.90913	9980.7625
1812.09102	9959.1625
1815.27083	9968.4625
1818.44856	9932.3625
1821.6242	9915.9625
1824.79776	9878.9625
1827.96924	9877.7625
1831.13864	9861.7625
1834.30597	9884.0625
1837.47122	9869.2625
1840.6344	9833.2625
1843.7955	9857.5625
1846.95454	9849.0625
1850.11151	9828.5625
1853.26642	9815.2625
1856.41926	9808.8625
1859.57004	9817.5625
1862.71876	9793.2625
1865.86542	9803.3625
1869.01003	9798.9625
1872.15258	9807.3625
1875.29308	9806.5625
1878.43152	9773.3625
1881.56792	9777.4625
1884.70227	9759.5625
1887.83457	9761.9625
1890.96482	9758.2625
1894.09304	9731.3625
1897.21921	9720.9625
1900.34335	9724.9625
1903.46544	9710.8625
1906.58551	9682.1625
1909.70353	9660.5625
1912.81953	9657.5625
1915.93349	9657.4625
1919.04543	9623.9625
1922.15534	9610.9625
1925.26322	9589.5625
1928.36908	9546.3625
1931.47292	9509.8625
1934.57473	9504.5625
1937.67453	9453.4625
1940.77232	9420.8625
1943.86808	9398.9625
1946.96184	9376.3625
1950.05358	9361.1625
1953.14331	9312.1625
1956.23103	9300.0625
1959.31675	9259.3625
1962.40046	9244.2625
1965.48217	9212.1625
1968.56188	9171.1625
1971.63959	9148.3625
1974.7153	9120.5625
1977.78901	9100.3625
1980.86073	9064.9625
1983.93046	9042.8625
1986.99819	8999.7625
1990.06394	8977.1625
1993.1277	8958.8625
1996.18947	8887.7625
1999.24925	8901.6625
2002.30706	8844.0625
2005.36288	8851.4625
2008.41672	8818.1625
2011.46859	8770.9625
2014.51848	8772.7625
2017.56639	8714.6625
2020.61233	8709.5625
2023.6563	8692.2625
2026.6983	8655.2625
2029.73833	8648.1625
2032.7764	8635.6625
2035.8125	8620.9625
2038.84664	8623.3625
2041.87881	8587.4625
2044.90903	8576.3625
2047.93729	8563.1625
2050.96359	8556.3625
2053.98794	8527.2625
2057.01034	8527.7625
2060.03078	8521.2625
2063.04927	8501.6625
2066.06582	8481.8625
2069.08042	8471.4625
2072.09307	8469.7625
2075.10378	8453.2625
2078.11255	8433.4625
2081.11938	8458.6625
2084.12426	8439.5625
2087.12722	8437.4625
2090.12824	8412.1625
2093.12732	8434.2625
2096.12447	8406.1625
2099.11969	8401.7625
2102.11299	8402.0625
2105.10435	8389.7625
2108.09379	8424.1625
2111.08131	8420.2625
2114.0669	8414.9625
2117.05057	8413.0625
2120.03233	8425.0625
2123.01216	8415.0625
2125.99008	8439.2625
2128.96609	8409.4625
2131.94018	8418.5625
2134.91236	8436.3625
2137.88263	8431.7625
2140.851	8413.3625
2143.81746	8436.5625
2146.78201	8425.7625
2149.74466	8423.7625
2152.7054	8424.0625
2155.66425	8401.5625
2158.6212	8410.6625
2161.57625	8401.4625
2164.52941	8422.0625
2167.48067	8373.9625
2170.43004	8383.3625
2173.37752	8403.2625
2176.32311	8383.3625
2179.26681	8368.7625
2182.20863	8366.2625
2185.14856	8351.0625
2188.08661	8360.1625
2191.02278	8373.3625
2193.95707	8361.2625
2196.88948	8350.4625
2199.82001	8365.1625
2202.74867	8318.6625
2205.67545	8346.9625
2208.60037	8317.4625
2211.52341	8314.1625
2214.44458	8278.9625
2217.36388	8272.7625
2220.28132	8274.7625
2223.1969	8255.3625
2226.11061	8241.5625
2229.02246	8228.9625
2231.93245	8209.3625
2234.84058	8190.3625
2237.74686	8195.6625
2240.65128	8170.0625
2243.55385	8144.8625
2246.45456	8123.9625
2249.35343	8118.5625
2252.25044	8113.5625
2255.14561	8073.4625
2258.03893	8087.5625
2260.93041	8075.5625
2263.82004	8050.5625
2266.70783	8041.2625
2269.59378	8006.8625
2272.4779	7977.1625
2275.36017	7965.9625
2278.24061	7913.2625
2281.11922	7924.2625
2283.996	7918.7625
2286.87094	7903.1625
2289.74405	7893.0625
2292.61534	7865.1625
2295.4848	7864.6625
2298.35243	7868.0625
2301.21824	7876.9625
2304.08223	7855.2625
2306.94439	7846.7625
2309.80474	7848.9625
2312.66327	7836.8625
2315.51999	7825.9625
2318.37489	7846.5625
2321.22797	7827.0625
2324.07925	7824.1625
2326.92871	7804.9625
2329.77637	7831.1625
2332.62222	7791.3625
2335.46626	7775.5625
2338.3085	7763.3625
2341.14893	7772.3625
2343.98756	7776.6625
2346.8244	7785.5625
2349.65943	7771.0625
2352.49267	7774.3625
2355.32411	7748.4625
2358.15376	7752.6625
2360.98161	7756.3625
2363.80768	7758.3625
2366.63195	7735.4625
2369.45444	7731.2625
2372.27514	7691.9625
2375.09405	7684.2625
2377.91118	7675.0625
2380.72652	7642.5625
2383.54009	7602.9625
2386.35187	7620.7625
2389.16188	7609.4625
2391.97011	7592.0625
2394.77657	7566.2625
2397.58125	7575.1625
2400.38416	7536.7625
2403.18529	7518.8625
2405.98466	7525.8625
2408.78226	7517.5625
2411.57809	7478.8625
2414.37216	7486.6625
2417.16446	7452.0625
2419.955	7444.2625
2422.74378	7458.2625
2425.5308	7450.7625
2428.31606	7447.1625
2431.09956	7426.0625
2433.88131	7418.4625
2436.6613	7412.5625
2439.43954	7410.8625
2442.21603	7401.8625
2444.99077	7413.0625
2447.76377	7387.4625
2450.53501	7385.9625
2453.30451	7385.6625
2456.07226	7379.5625
2458.83827	7379.2625
2461.60254	7397.1625
2464.36507	7379.2625
2467.12586	7360.1625
2469.88492	7372.0625
2472.64224	7368.0625
2475.39782	7370.6625
2478.15167	7357.0625
2480.90379	7373.4625
2483.65417	7360.7625
2486.40283	7363.9625
2489.14976	7353.9625
2491.89497	7343.4625
2494.63845	7383.4625
2497.3802	7376.7625
2500.12024	7366.2625
2502.85855	7358.6625
2505.59514	7339.8625
2508.33002	7337.7625
2511.06318	7342.5625
2513.79462	7332.4625
2516.52435	7319.0625
2519.25237	7313.7625
2521.97867	7307.3625
2524.70327	7305.1625
2527.42616	7284.4625
2530.14734	7254.1625
2532.86681	7240.7625
2535.58458	7251.9625
2538.30065	7233.0625
2541.01501	7227.6625
2543.72768	7235.2625
2546.43864	7236.7625
2549.14791	7214.9625
2551.85548	7226.1625
2554.56136	7206.7625
2557.26554	7177.0625
2559.96803	7193.4625
2562.66883	7146.2625
2565.36794	7175.3625
2568.06536	7165.2625
2570.7611	7149.6625
2573.45514	7135.7625
2576.14751	7127.5625
2578.83819	7119.8625
2581.52719	7117.9625
2584.21451	7116.5625
2586.90015	7111.5625
2589.58411	7110.4625
2592.2664	7105.6625
2594.94701	7116.9625
2597.62594	7096.7625
2600.30321	7066.8625
2602.9788	7069.0625
2605.65273	7053.2625
2608.32498	7075.0625
2610.99557	7073.5625
2613.66449	7067.5625
2616.33175	7052.8625
2618.99734	7073.3625
2621.66128	7050.2625
2624.32355	7060.8625
2626.98416	7044.0625
2629.64311	7042.9625
2632.30041	7074.0625
2634.95605	7048.6625
2637.61004	7041.2625
2640.26238	7023.7625
2642.91306	7040.2625
2645.56209	7038.9625
2648.20948	7009.8625
2650.85521	7026.5625
2653.4993	7008.7625
2656.14175	7011.7625
2658.78255	7013.2625
2661.42171	7005.9625
2664.05923	7019.1625
2666.6951	7037.5625
2669.32934	7015.0625
2671.96194	7023.1625
2674.59291	7047.3625
2677.22224	7001.4625
2679.84993	7007.8625
2682.476	7012.3625
2685.10043	7000.0625
2687.72324	7001.3625
2690.34441	7000.9625
2692.96396	6998.9625
2695.58188	7013.3625
2698.19818	7008.7625
2700.81285	7015.5625
2703.4259	7027.6625
2706.03733	7076.1625
2708.64714	7006.7625
2711.25533	7012.1625
2713.86191	6985.7625
2716.46687	7010.1625
2719.07021	7012.1625
2721.67194	7017.0625
2724.27206	7021.0625
2726.87057	7009.7625
2729.46747	7007.6625
2732.06276	7011.8625
2734.65644	7016.3625
2737.24852	7009.0625
2739.83899	6981.1625
2742.42786	7013.7625
2745.01513	6979.7625
2747.60079	7001.1625
2750.18486	6993.8625
2752.76733	6975.5625
2755.3482	6968.5625
2757.92747	6986.8625
2760.50515	6954.1625
2763.08123	6965.6625
2765.65573	6966.8625
2768.22863	6968.2625
2770.79994	6967.9625
2773.36967	6962.2625
2775.9378	6969.1625
2778.50435	6951.3625
2781.06932	6934.9625
2783.6327	6968.7625
2786.1945	6962.2625
2788.75471	6966.7625
2791.31335	6939.4625
2793.87041	6920.6625
2796.42589	6896.4625
2798.97979	6890.3625
2801.53212	6873.4625
2804.08288	6875.5625
2806.63206	6856.6625
2809.17967	6848.7625
2811.72571	6856.9625
2814.27018	6836.1625
2816.81308	6838.8625
2819.35442	6815.7625
2821.89419	6809.5625
2824.43239	6796.5625
2826.96904	6809.9625
2829.50412	6804.0625
2832.03763	6766.7625
2834.56959	6782.1625
2837.1	6769.1625
2839.62884	6770.9625
2842.15613	6778.4625
2844.68186	6794.8625
2847.20604	6789.3625
2849.72867	6791.0625
2852.24974	6779.3625
2854.76927	6759.5625
2857.28724	6769.5625
2859.80367	6757.5625
2862.31855	6729.4625
2864.83189	6713.7625
2867.34368	6721.3625
2869.85393	6739.6625
2872.36264	6728.6625
2874.8698	6732.0625
2877.37543	6733.5625
2879.87952	6738.7625
2882.38207	6724.9625
2884.88308	6727.7625
2887.38256	6734.3625
2889.88051	6746.2625
2892.37692	6745.6625
2894.8718	6753.3625
2897.36515	6741.1625
2899.85698	6746.3625
2902.34727	6762.7625
2904.83604	6769.7625
2907.32328	6781.4625
2909.809	6782.4625
2912.29319	6792.2625
2914.77587	6818.2625
2917.25702	6795.0625
2919.73665	6787.6625
2922.21476	6799.9625
2924.69136	6800.1625
2927.16644	6778.1625
2929.64	6788.1625
2932.11205	6779.8625
2934.58258	6768.6625
2937.05161	6783.1625
2939.51912	6763.0625
2941.98513	6755.8625
2944.44962	6754.6625
2946.91261	6738.5625
2949.37409	6721.5625
2951.83407	6727.7625
2954.29254	6702.5625
2956.74951	6716.6625
2959.20498	6681.0625
2961.65895	6675.2625
2964.11142	6665.5625
2966.56239	6616.6625
2969.01186	6605.7625
2971.45984	6610.2625
2973.90632	6590.3625
2976.35131	6560.3625
2978.7948	6541.2625
2981.23681	6530.4625
2983.67732	6511.2625
2986.11635	6501.6625
2988.55388	6489.2625
2990.98993	6458.2625
2993.4245	6428.7625
2995.85758	6426.3625
2998.28917	6403.2625
3000.71928	6417.6625
3003.14791	6376.1625
3005.57506	6410.3625
3008.00073	6380.8625
3010.42493	6379.7625
3012.84764	6356.8625
3015.26888	6356.0625
3017.68865	6348.9625
3020.10694	6311.8625
3022.52376	6314.7625
3024.9391	6304.7625
3027.35298	6284.9625
3029.76539	6275.4625
3032.17632	6258.0625
3034.5858	6255.6625
3036.9938	6250.6625
3039.40034	6246.9625
3041.80542	6229.3625
3044.20903	6206.2625
3046.61118	6208.8625
3049.01187	6197.7625
3051.4111	6193.5625
3053.80888	6180.2625
3056.20519	6169.4625
3058.60005	6152.4625
3060.99345	6156.8625
3063.3854	6112.7625
3065.7759	6114.1625
3068.16494	6092.5625
3070.55254	6064.2625
3072.93868	6066.2625
3075.32338	6062.0625
