Data from AgNPs_FTO_APTES_UA_100um_CRN_0.1mM_R6G_10uM_NaF_0.1M_Addition_RamanShift__20__16-08-19-296.txt Node

Date: Tue Dec 21 16:08:19 GMT 2021
User: TCL
Spectrometer: QEP01345
Trigger mode: 4
Integration Time (sec): 7.000000E0
Scans to average: 10
Electric dark correction enabled: true
Nonlinearity correction enabled: false
Boxcar width: 0
XAxis mode: Raman Shifts
Number of Pixels in Spectrum: 1044
>>>>>Begin Spectral Data<<<<<
46.04893	0.775
50.45542	0.775
54.85868	-1.425
59.25871	-0.125
63.6555	33.975
68.04907	39.375
72.43941	44.275
76.82654	40.475
81.21044	49.475
85.59113	47.475
89.96862	51.275
94.34289	53.575
98.71396	50.775
103.08183	55.475
107.4465	58.675
111.80798	58.675
116.16626	58.275
120.52136	61.275
124.87327	60.175
129.222	61.675
133.56755	63.775
137.90993	72.675
142.24913	75.975
146.58517	82.975
150.91804	95.575
155.24774	110.775
159.57429	129.075
163.89768	169.375
168.21792	212.875
172.53501	288.975
176.84895	394.075
181.15975	557.775
185.46741	779.975
189.77193	1078.975
194.07331	1447.275
198.37157	1869.975
202.6667	2316.575
206.9587	2762.975
211.24758	3216.275
215.53334	3660.975
219.81599	4111.575
224.09553	4613.375
228.37195	5179.175
232.64527	5791.375
236.91549	6449.675
241.18261	7144.175
245.44663	7761.775
249.70755	8306.675
253.96539	8803.575
258.22014	9198.775
262.4718	9511.175
266.72039	9761.875
270.96589	9886.275
275.20832	9879.775
279.44768	9803.375
283.68397	9706.075
287.91719	9568.175
292.14735	9512.875
296.37445	9479.375
300.59849	9522.675
304.81948	9573.075
309.03742	9542.675
313.25231	9409.475
317.46415	9190.375
321.67296	8928.075
325.87872	8728.575
330.08145	8631.375
334.28114	8629.375
338.47781	8702.475
342.67145	8790.975
346.86207	8964.775
351.04966	9138.075
355.23424	9339.375
359.4158	9529.975
363.59435	9683.175
367.76989	9804.075
371.94243	9864.775
376.11196	9935.375
380.27849	10005.475
384.44203	10073.175
388.60257	10128.675
392.76012	10166.375
396.91468	10234.575
401.06626	10379.475
405.21485	10491.975
409.36047	10451.775
413.50311	10294.075
417.64277	10084.875
421.77947	9970.575
425.9132	9938.375
430.04396	9924.675
434.17176	9996.175
438.2966	10027.375
442.41849	10173.575
446.53742	10338.775
450.6534	10497.175
454.76644	10662.975
458.87653	10740.975
462.98368	10751.975
467.08789	10696.375
471.18916	10649.275
475.2875	10581.175
479.38291	10542.475
483.4754	10517.575
487.56496	10410.475
491.6516	10357.275
495.73531	10291.075
499.81612	10233.475
503.89401	10249.375
507.96899	10273.575
512.04106	10278.975
516.11023	10284.375
520.1765	10304.575
524.23987	10297.475
528.30034	10245.775
532.35792	10214.175
536.41261	10144.575
540.46441	10049.975
544.51333	10034.875
548.55936	10016.375
552.60252	10088.975
556.64279	10209.375
560.6802	10269.175
564.71473	10299.375
568.7464	10350.275
572.7752	10437.975
576.80114	10451.275
580.82422	10445.975
584.84444	10455.675
588.86181	10514.975
592.87633	10586.475
596.888	10673.075
600.89682	10751.075
604.9028	11103.675
608.90594	12125.175
612.90624	13457.575
616.90371	13163.175
620.89834	11234.275
624.89015	10293.475
628.87913	10190.775
632.86528	10359.375
636.84862	10518.075
640.82913	10447.675
644.80683	10174.775
648.78172	9914.575
652.75379	9782.675
656.72306	9819.675
660.68952	9979.375
664.65319	9965.675
668.61405	9874.175
672.57211	9843.375
676.52738	9886.175
680.47986	9905.775
684.42955	9839.575
688.37646	9720.075
692.32058	9683.075
696.26192	9664.675
700.20048	9723.675
704.13626	9740.875
708.06928	9709.575
711.99952	9657.275
715.927	9614.575
719.85171	9585.175
723.77365	9607.175
727.69284	9596.475
731.60928	9559.275
735.52295	9548.575
739.43388	9499.075
743.34206	9528.375
747.24749	9537.875
751.15017	9502.975
755.05012	9557.875
758.94733	9714.575
762.8418	10079.175
766.73354	10743.575
770.62254	11543.675
774.50882	12018.775
778.39237	11695.075
782.27321	10874.675
786.15132	10081.475
790.02671	9596.975
793.89938	9394.275
797.76935	9265.475
801.6366	9256.875
805.50115	9253.275
809.36299	9253.675
813.22213	9240.775
817.07857	9196.275
820.93231	9127.275
824.78336	9059.475
828.63172	9037.775
832.47738	8994.075
836.32036	8957.775
840.16066	8933.775
843.99827	8922.075
847.8332	8870.175
851.66546	8889.075
855.49504	8844.375
859.32195	8855.775
863.1462	8854.775
866.96777	8880.975
870.78668	8871.775
874.60293	8889.775
878.41652	8891.975
882.22745	8914.375
886.03573	8927.675
889.84136	8938.175
893.64433	8895.275
897.44466	8831.775
901.24235	8740.375
905.0374	8666.675
908.8298	8616.475
912.61957	8577.175
916.40671	8589.875
920.19121	8639.875
923.97308	8661.375
927.75233	8678.275
931.52895	8635.775
935.30295	8597.775
939.07433	8492.675
942.84309	8380.575
946.60924	8348.575
950.37278	8326.675
954.13371	8272.475
957.89203	8242.075
961.64774	8203.875
965.40086	8174.775
969.15137	8137.475
972.89929	8070.375
976.64461	8042.075
980.38733	8014.075
984.12747	8030.575
987.86502	8014.275
991.59999	8106.475
995.33237	8116.175
999.06217	8198.075
1002.78939	8313.975
1006.51404	8385.675
1010.23611	8474.975
1013.95561	8560.775
1017.67255	8597.575
1021.38692	8536.775
1025.09872	8478.575
1028.80796	8384.875
1032.51465	8387.575
1036.21877	8404.475
1039.92035	8448.575
1043.61937	8437.975
1047.31584	8409.175
1051.00976	8391.975
1054.70114	8368.675
1058.38998	8371.875
1062.07627	8407.975
1065.76003	8485.475
1069.44126	8493.975
1073.11995	8567.875
1076.79611	8600.675
1080.46974	8589.675
1084.14085	8589.475
1087.80943	8631.275
1091.47549	8684.375
1095.13903	8693.475
1098.80005	8615.275
1102.45857	8485.175
1106.11456	8394.275
1109.76805	8367.375
1113.41903	8440.075
1117.06751	8531.775
1120.71348	8673.575
1124.35696	8831.475
1127.99793	9013.175
1131.63641	9176.975
1135.2724	9134.075
1138.90589	9025.575
1142.5369	8883.175
1146.16542	8748.675
1149.79145	8619.375
1153.415	8564.275
1157.03607	8536.975
1160.65467	8595.375
1164.27079	8774.875
1167.88443	9043.075
1171.49561	9404.975
1175.10432	9900.275
1178.71056	10602.375
1182.31434	11231.775
1185.91565	11555.975
1189.51451	11495.375
1193.11091	11220.375
1196.70485	10826.375
1200.29634	10474.875
1203.88538	10177.975
1207.47197	9856.475
1211.05612	9589.175
1214.63782	9332.375
1218.21708	9171.075
1221.79391	9094.975
1225.36829	9015.875
1228.94024	8956.775
1232.50976	8893.575
1236.07685	8819.475
1239.6415	8817.075
1243.20374	8817.675
1246.76355	8867.575
1250.32093	8946.975
1253.8759	9088.075
1257.42845	9223.875
1260.97859	9409.275
1264.52631	9514.575
1268.07163	9676.275
1271.61453	9852.075
1275.15503	10001.875
1278.69312	10165.675
1282.22882	10285.375
1285.76211	10465.975
1289.29301	10703.575
1292.82151	10995.075
1296.34761	11357.675
1299.87133	11803.975
1303.39266	12348.275
1306.9116	12965.375
1310.42815	13568.275
1313.94233	14001.275
1317.45412	13948.775
1320.96354	13617.075
1324.47058	13273.475
1327.97525	12895.275
1331.47754	12606.475
1334.97747	12453.675
1338.47502	12431.475
1341.97022	12536.175
1345.46305	12661.575
1348.95352	12822.275
1352.44163	13137.075
1355.92738	13605.975
1359.41078	14335.075
1362.89183	15121.775
1366.37053	15063.175
1369.84688	13775.275
1373.32088	12204.275
1376.79254	11144.975
1380.26186	10617.975
1383.72883	10437.875
1387.19347	10297.275
1390.65578	10173.275
1394.11575	10055.475
1397.57339	10027.275
1401.0287	10072.175
1404.48168	10122.675
1407.93234	10130.375
1411.38068	10069.375
1414.82669	9888.075
1418.27039	9637.775
1421.71177	9364.275
1425.15083	9108.875
1428.58758	8924.975
1432.02203	8889.475
1435.45416	8953.375
1438.88399	9058.075
1442.31151	9133.475
1445.73673	9239.775
1449.15965	9349.475
1452.58027	9442.175
1455.9986	9487.175
1459.41463	9561.375
1462.82837	9677.075
1466.23982	9795.475
1469.64898	9934.775
1473.05586	10023.775
1476.46045	10034.875
1479.86276	10065.875
1483.26279	10032.075
1486.66054	10064.275
1490.05602	10127.075
1493.44922	10269.275
1496.84016	10502.875
1500.22882	10906.775
1503.61521	11473.675
1506.99934	12169.075
1510.38121	12844.375
1513.76081	13083.875
1517.13816	12734.175
1520.51324	11924.775
1523.88607	11121.475
1527.25665	10611.975
1530.62498	10291.275
1533.99105	10112.675
1537.35488	10005.075
1540.71647	9882.475
1544.07581	9777.575
1547.4329	9631.675
1550.78776	9567.875
1554.14038	9518.675
1557.49077	9547.275
1560.83892	9629.275
1564.18484	9719.875
1567.52853	9817.275
1570.86999	9926.975
1574.20922	9986.375
1577.54624	10043.975
1580.88103	9912.675
1584.2136	9695.475
1587.54395	9589.675
1590.87208	9693.575
1594.19801	9986.175
1597.52172	10375.575
1600.84321	10590.875
1604.16251	10366.275
1607.47959	9920.075
1610.79447	9399.375
1614.10715	8879.675
1617.41763	8435.975
1620.7259	8110.375
1624.03199	7927.075
1627.33587	7867.175
1630.63757	7949.675
1633.93707	8164.475
1637.23439	8545.175
1640.52951	9135.975
1643.82246	9919.175
1647.11321	10752.675
1650.40179	11291.075
1653.68819	11146.075
1656.97241	10267.775
1660.25446	9169.775
1663.53433	8323.275
1666.81203	7755.075
1670.08756	7365.475
1673.36092	7121.975
1676.63211	6957.775
1679.90115	6851.275
1683.16801	6752.875
1686.43272	6674.575
1689.69527	6633.675
1692.95567	6587.475
1696.2139	6558.175
1699.46999	6531.575
1702.72392	6475.675
1705.97571	6415.775
1709.22535	6353.175
1712.47284	6307.675
1715.71819	6281.575
1718.96139	6254.175
1722.20246	6199.275
1725.44139	6181.875
1728.67818	6160.275
1731.91284	6137.275
1735.14537	6084.575
1738.37576	6067.875
1741.60403	6053.175
1744.83017	6045.775
1748.05418	6037.775
1751.27607	6009.175
1754.49584	6017.375
1757.71349	6017.375
1760.92903	6010.175
1764.14244	5997.975
1767.35375	5977.975
1770.56294	5952.875
1773.77002	5911.175
1776.97499	5877.675
1780.17785	5855.275
1783.37861	5837.975
1786.57727	5819.175
1789.77382	5778.075
1792.96828	5768.475
1796.16064	5731.475
1799.3509	5721.475
1802.53907	5721.475
1805.72514	5684.175
1808.90913	5656.775
1812.09102	5642.275
1815.27083	5634.175
1818.44856	5618.475
1821.6242	5605.675
1824.79776	5593.575
1827.96924	5578.375
1831.13864	5565.075
1834.30597	5564.375
1837.47122	5546.375
1840.6344	5542.775
1843.7955	5549.475
1846.95454	5543.575
1850.11151	5532.175
1853.26642	5528.275
1856.41926	5506.975
1859.57004	5492.275
1862.71876	5498.075
1865.86542	5487.075
1869.01003	5471.475
1872.15258	5486.175
1875.29308	5476.275
1878.43152	5466.975
1881.56792	5445.775
1884.70227	5446.675
1887.83457	5423.475
1890.96482	5417.875
1894.09304	5412.675
1897.21921	5409.375
1900.34335	5393.075
1903.46544	5383.275
1906.58551	5378.175
1909.70353	5378.675
1912.81953	5351.075
1915.93349	5340.075
1919.04543	5338.975
1922.15534	5313.275
1925.26322	5311.675
1928.36908	5298.375
1931.47292	5293.675
1934.57473	5262.975
1937.67453	5262.275
1940.77232	5224.575
1943.86808	5225.675
1946.96184	5213.675
1950.05358	5199.775
1953.14331	5165.275
1956.23103	5158.375
1959.31675	5142.675
1962.40046	5125.875
1965.48217	5114.475
1968.56188	5086.475
1971.63959	5058.475
1974.7153	5070.175
1977.78901	5036.475
1980.86073	5032.175
1983.93046	5011.775
1986.99819	4988.175
1990.06394	4965.675
1993.1277	4962.375
1996.18947	4920.175
1999.24925	4922.875
2002.30706	4905.575
2005.36288	4889.575
2008.41672	4874.275
2011.46859	4856.875
2014.51848	4835.375
2017.56639	4816.275
2020.61233	4804.875
2023.6563	4787.675
2026.6983	4774.075
2029.73833	4745.875
2032.7764	4738.375
2035.8125	4727.775
2038.84664	4714.875
2041.87881	4719.075
2044.90903	4695.775
2047.93729	4687.875
2050.96359	4693.475
2053.98794	4676.175
2057.01034	4680.375
2060.03078	4654.675
2063.04927	4659.475
2066.06582	4625.575
2069.08042	4634.375
2072.09307	4635.475
2075.10378	4624.275
2078.11255	4630.575
2081.11938	4614.275
2084.12426	4628.475
2087.12722	4615.675
2090.12824	4601.875
2093.12732	4605.675
2096.12447	4601.875
2099.11969	4608.575
2102.11299	4601.275
2105.10435	4604.675
2108.09379	4600.975
2111.08131	4594.175
2114.0669	4596.575
2117.05057	4597.975
2120.03233	4589.575
2123.01216	4594.375
2125.99008	4595.975
2128.96609	4607.375
2131.94018	4600.075
2134.91236	4599.575
2137.88263	4589.575
2140.851	4595.275
2143.81746	4591.175
2146.78201	4604.575
2149.74466	4610.975
2152.7054	4589.475
2155.66425	4574.675
2158.6212	4590.775
2161.57625	4578.575
2164.52941	4561.275
2167.48067	4574.775
2170.43004	4569.675
2173.37752	4571.375
2176.32311	4554.375
2179.26681	4554.275
2182.20863	4549.175
2185.14856	4564.575
2188.08661	4559.675
2191.02278	4525.875
2193.95707	4541.075
2196.88948	4527.975
2199.82001	4540.975
2202.74867	4528.375
2205.67545	4518.975
2208.60037	4510.375
2211.52341	4503.875
2214.44458	4502.975
2217.36388	4482.675
2220.28132	4467.575
2223.1969	4458.975
2226.11061	4448.575
2229.02246	4425.075
2231.93245	4424.875
2234.84058	4431.275
2237.74686	4414.675
2240.65128	4388.575
2243.55385	4381.275
2246.45456	4399.975
2249.35343	4369.675
2252.25044	4370.675
2255.14561	4359.875
2258.03893	4376.875
2260.93041	4363.475
2263.82004	4360.075
2266.70783	4328.875
2269.59378	4316.375
2272.4779	4318.975
2275.36017	4290.175
2278.24061	4267.975
2281.11922	4271.375
2283.996	4258.675
2286.87094	4260.575
2289.74405	4233.675
2292.61534	4218.275
2295.4848	4217.375
2298.35243	4202.475
2301.21824	4208.475
2304.08223	4215.875
2306.94439	4213.275
2309.80474	4190.875
2312.66327	4182.375
2315.51999	4196.175
2318.37489	4187.075
2321.22797	4191.875
2324.07925	4169.275
2326.92871	4172.675
2329.77637	4175.575
2332.62222	4152.675
2335.46626	4149.775
2338.3085	4137.975
2341.14893	4120.375
2343.98756	4116.375
2346.8244	4122.475
2349.65943	4130.675
2352.49267	4120.275
2355.32411	4115.675
2358.15376	4128.775
2360.98161	4112.075
2363.80768	4114.875
2366.63195	4105.675
2369.45444	4088.875
2372.27514	4090.475
2375.09405	4083.075
2377.91118	4089.275
2380.72652	4072.475
2383.54009	4052.475
2386.35187	4030.375
2389.16188	4042.375
2391.97011	4007.775
2394.77657	4006.975
2397.58125	4008.875
2400.38416	3991.575
2403.18529	3991.675
2405.98466	3977.175
2408.78226	3980.175
2411.57809	3956.975
2414.37216	3953.375
2417.16446	3951.375
2419.955	3941.375
2422.74378	3939.175
2425.5308	3934.675
2428.31606	3927.975
2431.09956	3916.775
2433.88131	3910.675
2436.6613	3914.075
2439.43954	3915.275
2442.21603	3895.975
2444.99077	3893.375
2447.76377	3888.875
2450.53501	3884.275
2453.30451	3882.575
2456.07226	3879.675
2458.83827	3879.475
2461.60254	3878.075
2464.36507	3869.075
2467.12586	3862.075
2469.88492	3852.875
2472.64224	3862.675
2475.39782	3852.775
2478.15167	3850.975
2480.90379	3848.875
2483.65417	3856.475
2486.40283	3844.675
2489.14976	3855.275
2491.89497	3855.875
2494.63845	3850.175
2497.3802	3854.275
2500.12024	3840.675
2502.85855	3830.375
2505.59514	3832.475
2508.33002	3814.975
2511.06318	3800.575
2513.79462	3807.275
2516.52435	3797.075
2519.25237	3767.175
2521.97867	3786.175
2524.70327	3775.875
2527.42616	3775.075
2530.14734	3770.275
2532.86681	3759.275
2535.58458	3762.775
2538.30065	3740.675
2541.01501	3747.975
2543.72768	3732.575
2546.43864	3715.175
2549.14791	3718.375
2551.85548	3718.075
2554.56136	3720.375
2557.26554	3689.375
2559.96803	3698.175
2562.66883	3687.975
2565.36794	3672.475
2568.06536	3682.175
2570.7611	3679.575
2573.45514	3662.875
2576.14751	3645.175
2578.83819	3645.975
2581.52719	3635.575
2584.21451	3647.875
2586.90015	3641.075
2589.58411	3631.175
2592.2664	3616.175
2594.94701	3608.675
2597.62594	3616.975
2600.30321	3588.175
2602.9788	3601.975
2605.65273	3596.875
2608.32498	3594.475
2610.99557	3578.675
2613.66449	3575.875
2616.33175	3568.675
2618.99734	3583.075
2621.66128	3566.475
2624.32355	3580.975
2626.98416	3554.575
2629.64311	3562.775
2632.30041	3551.675
2634.95605	3538.875
2637.61004	3532.975
2640.26238	3534.675
2642.91306	3537.975
2645.56209	3530.975
2648.20948	3534.275
2650.85521	3530.875
2653.4993	3533.075
2656.14175	3521.875
2658.78255	3504.875
2661.42171	3524.575
2664.05923	3528.875
2666.6951	3498.275
2669.32934	3503.075
2671.96194	3510.975
2674.59291	3526.975
2677.22224	3520.275
2679.84993	3519.275
2682.476	3501.675
2685.10043	3511.975
2687.72324	3507.175
2690.34441	3505.475
2692.96396	3505.475
2695.58188	3508.475
2698.19818	3501.175
2700.81285	3506.075
2703.4259	3520.675
2706.03733	3569.875
2708.64714	3542.875
2711.25533	3506.275
2713.86191	3516.975
2716.46687	3504.675
2719.07021	3502.675
2721.67194	3493.475
2724.27206	3488.575
2726.87057	3500.375
2729.46747	3479.275
2732.06276	3493.175
2734.65644	3486.375
2737.24852	3500.075
2739.83899	3481.475
2742.42786	3487.775
2745.01513	3470.475
2747.60079	3469.975
2750.18486	3460.775
2752.76733	3471.875
2755.3482	3452.175
2757.92747	3451.075
2760.50515	3442.975
2763.08123	3451.875
2765.65573	3447.975
2768.22863	3446.075
2770.79994	3429.775
2773.36967	3436.875
2775.9378	3432.875
2778.50435	3426.375
2781.06932	3413.175
2783.6327	3419.075
2786.1945	3400.975
2788.75471	3398.075
2791.31335	3395.275
2793.87041	3386.875
2796.42589	3369.575
2798.97979	3389.575
2801.53212	3359.675
2804.08288	3383.775
2806.63206	3348.175
2809.17967	3339.275
2811.72571	3352.175
2814.27018	3340.075
2816.81308	3335.775
2819.35442	3339.975
2821.89419	3321.475
2824.43239	3326.575
2826.96904	3313.275
2829.50412	3327.075
2832.03763	3302.275
2834.56959	3315.875
2837.1	3300.175
2839.62884	3305.575
2842.15613	3305.875
2844.68186	3301.775
2847.20604	3300.875
2849.72867	3311.675
2852.24974	3305.275
2854.76927	3309.275
2857.28724	3329.375
2859.80367	3304.975
2862.31855	3288.975
2864.83189	3287.975
2867.34368	3276.175
2869.85393	3274.975
2872.36264	3262.875
2874.8698	3269.775
2877.37543	3270.775
2879.87952	3285.675
2882.38207	3267.875
2884.88308	3275.675
2887.38256	3268.675
2889.88051	3258.875
2892.37692	3274.175
2894.8718	3261.175
2897.36515	3271.275
2899.85698	3269.975
2902.34727	3283.875
2904.83604	3272.275
2907.32328	3271.475
2909.809	3276.175
2912.29319	3278.075
2914.77587	3275.775
2917.25702	3278.975
2919.73665	3272.575
2922.21476	3273.975
2924.69136	3280.575
2927.16644	3283.975
2929.64	3276.075
2932.11205	3273.875
2934.58258	3265.775
2937.05161	3275.875
2939.51912	3270.575
2941.98513	3281.075
2944.44962	3257.475
2946.91261	3262.275
2949.37409	3263.975
2951.83407	3249.475
2954.29254	3252.075
2956.74951	3254.175
2959.20498	3242.975
2961.65895	3224.575
2964.11142	3229.975
2966.56239	3222.775
2969.01186	3214.775
2971.45984	3195.575
2973.90632	3193.875
2976.35131	3196.675
2978.7948	3182.375
2981.23681	3181.475
2983.67732	3168.675
2986.11635	3162.675
2988.55388	3159.275
2990.98993	3159.775
2993.4245	3144.775
2995.85758	3141.775
2998.28917	3152.075
3000.71928	3136.175
3003.14791	3130.975
3005.57506	3127.375
3008.00073	3106.375
3010.42493	3109.875
3012.84764	3111.275
3015.26888	3123.375
3017.68865	3099.275
3020.10694	3106.875
3022.52376	3088.875
3024.9391	3081.775
3027.35298	3086.275
3029.76539	3074.775
3032.17632	3066.375
3034.5858	3067.375
3036.9938	3069.975
3039.40034	3076.675
3041.80542	3062.875
3044.20903	3053.075
3046.61118	3065.575
3049.01187	3038.375
3051.4111	3042.775
3053.80888	3040.575
3056.20519	3029.075
3058.60005	3025.475
3060.99345	3026.175
3063.3854	3028.475
3065.7759	3021.375
3068.16494	3003.775
3070.55254	3005.575
3072.93868	2994.175
3075.32338	3000.875
3077.70662	2995.375
3080.08842	2996.675
3082.46878	2986.075
3084.84769	2983.875
3087.22515	2982.975
3089.60118	2987.775
3091.97576	2992.775
3094.3489	2990.475
3096.72061	2997.775
3099.09087	3001.575
3101.4597	3003.175
3103.82709	2994.275
3106.19305	3005.275
3108.55757	3001.275
3110.92066	2985.375
3113.28232	2984.675
3115.64255	2971.975
3118.00134	2981.975
3120.35871	2972.875
3122.71466	2978.375
3125.06917	2963.375
3127.42226	2960.875
3129.77393	2970.875
3132.12417	2974.675
3134.47299	2988.975
3136.82039	2976.475
3139.16636	2972.075
3141.51092	2978.975
3143.85406	2983.575
3146.19579	2984.975
3148.53609	3002.075
3150.87499	3001.875
3153.21246	2998.375
3155.54853	3012.675
3157.88318	3006.275
3160.21642	3012.975
3162.54826	3007.475
3164.87868	3005.675
3167.2077	3009.275
3169.5353	3010.675
3171.86151	3022.375
3174.18631	3021.875
3176.5097	3027.775
3178.83169	3024.475
3181.15228	3021.875
3183.47147	3008.375
3185.78926	3021.375
3188.10565	3012.475
3190.42065	3012.375
3192.73424	3017.075
3195.04645	3016.275
3197.35725	3029.275
3199.66667	3032.275
3201.97469	3036.975
3204.28132	3043.875
3206.58656	3044.475
3208.8904	3045.175
3211.19287	3039.875
3213.49394	3052.075
3215.79363	3058.375
3218.09193	3061.975
