Data from AgNPs_FTO_APTES_UA_20um_CRN_0.1mM_R6G_10uM_NaF_0.1M_Addition_RamanShift__37__14-59-29-218.txt Node

Date: Tue Dec 21 14:59:29 GMT 2021
User: TCL
Spectrometer: QEP01345
Trigger mode: 4
Integration Time (sec): 7.000000E0
Scans to average: 10
Electric dark correction enabled: true
Nonlinearity correction enabled: false
Boxcar width: 0
XAxis mode: Raman Shifts
Number of Pixels in Spectrum: 1044
>>>>>Begin Spectral Data<<<<<
46.04893	1.3875
50.45542	-1.0125
54.85868	-2.1125
59.25871	0.0875
63.6555	41.0875
68.04907	48.6875
72.43941	50.7875
76.82654	50.9875
81.21044	56.8875
85.59113	55.6875
89.96862	58.4875
94.34289	61.1875
98.71396	60.8875
103.08183	64.9875
107.4465	67.4875
111.80798	69.0875
116.16626	70.7875
120.52136	70.2875
124.87327	71.7875
129.222	73.1875
133.56755	77.5875
137.90993	88.8875
142.24913	85.4875
146.58517	97.2875
150.91804	111.8875
155.24774	126.6875
159.57429	154.5875
163.89768	197.9875
168.21792	253.8875
172.53501	342.4875
176.84895	479.4875
181.15975	668.4875
185.46741	923.1875
189.77193	1277.8875
194.07331	1706.6875
198.37157	2210.5875
202.6667	2738.5875
206.9587	3249.2875
211.24758	3784.4875
215.53334	4307.7875
219.81599	4863.3875
224.09553	5488.9875
228.37195	6169.7875
232.64527	6920.0875
236.91549	7689.2875
241.18261	8455.8875
245.44663	9127.1875
249.70755	9704.2875
253.96539	10199.0875
258.22014	10624.8875
262.4718	10965.3875
266.72039	11207.1875
270.96589	11327.0875
275.20832	11337.1875
279.44768	11206.7875
283.68397	11090.2875
287.91719	10984.2875
292.14735	10932.0875
296.37445	10912.3875
300.59849	11024.0875
304.81948	11113.0875
309.03742	11185.2875
313.25231	11126.3875
317.46415	10902.1875
321.67296	10570.7875
325.87872	10292.1875
330.08145	10135.4875
334.28114	10116.4875
338.47781	10160.8875
342.67145	10303.3875
346.86207	10457.6875
351.04966	10693.5875
355.23424	10912.8875
359.4158	11102.9875
363.59435	11263.1875
367.76989	11356.5875
371.94243	11389.2875
376.11196	11406.0875
380.27849	11457.9875
384.44203	11504.3875
388.60257	11600.5875
392.76012	11669.5875
396.91468	11836.0875
401.06626	11997.5875
405.21485	12117.6875
409.36047	12060.1875
413.50311	11826.3875
417.64277	11607.1875
421.77947	11532.4875
425.9132	11540.4875
430.04396	11573.3875
434.17176	11628.5875
438.2966	11742.9875
442.41849	11904.3875
446.53742	12197.4875
450.6534	12562.7875
454.76644	12790.9875
458.87653	12807.8875
462.98368	12693.3875
467.08789	12602.0875
471.18916	12450.4875
475.2875	12288.0875
479.38291	12221.4875
483.4754	12137.9875
487.56496	11995.5875
491.6516	11851.2875
495.73531	11687.9875
499.81612	11566.5875
503.89401	11578.4875
507.96899	11639.5875
512.04106	11606.8875
516.11023	11527.0875
520.1765	11455.3875
524.23987	11387.1875
528.30034	11285.0875
532.35792	11207.5875
536.41261	11089.8875
540.46441	10946.5875
544.51333	10922.7875
548.55936	10953.5875
552.60252	11180.7875
556.64279	11460.4875
560.6802	11666.6875
564.71473	11793.8875
568.7464	11976.8875
572.7752	12268.9875
576.80114	12564.8875
580.82422	12810.4875
584.84444	13160.8875
588.86181	13625.6875
592.87633	14136.8875
596.888	14188.2875
600.89682	13726.0875
604.9028	13629.5875
608.90594	14635.4875
612.90624	16067.4875
616.90371	15332.9875
620.89834	12635.6875
624.89015	11285.9875
628.87913	11131.9875
632.86528	11264.5875
636.84862	11352.1875
640.82913	11222.7875
644.80683	10925.4875
648.78172	10644.4875
652.75379	10574.6875
656.72306	10677.8875
660.68952	10861.8875
664.65319	10824.1875
668.61405	10585.9875
672.57211	10503.3875
676.52738	10582.5875
680.47986	10601.0875
684.42955	10530.1875
688.37646	10444.7875
692.32058	10443.8875
696.26192	10543.6875
700.20048	10636.0875
704.13626	10741.2875
708.06928	10728.0875
711.99952	10698.3875
715.927	10664.3875
719.85171	10685.5875
723.77365	10636.6875
727.69284	10532.7875
731.60928	10403.0875
735.52295	10374.5875
739.43388	10373.5875
743.34206	10409.9875
747.24749	10441.0875
751.15017	10528.2875
755.05012	10710.8875
758.94733	11004.7875
762.8418	11585.5875
766.73354	12573.8875
770.62254	13591.9875
774.50882	13988.4875
778.39237	13386.9875
782.27321	12325.7875
786.15132	11314.3875
790.02671	10752.1875
793.89938	10424.5875
797.76935	10301.9875
801.6366	10257.5875
805.50115	10213.9875
809.36299	10155.0875
813.22213	10104.8875
817.07857	10051.7875
820.93231	10017.7875
824.78336	9959.9875
828.63172	9863.2875
832.47738	9848.6875
836.32036	9852.6875
840.16066	9848.8875
843.99827	9815.0875
847.8332	9810.8875
851.66546	9779.6875
855.49504	9755.7875
859.32195	9725.6875
863.1462	9693.1875
866.96777	9682.3875
870.78668	9686.1875
874.60293	9710.7875
878.41652	9712.5875
882.22745	9742.0875
886.03573	9779.8875
889.84136	9799.6875
893.64433	9765.8875
897.44466	9698.7875
901.24235	9643.6875
905.0374	9584.3875
908.8298	9532.2875
912.61957	9531.3875
916.40671	9570.9875
920.19121	9720.9875
923.97308	9815.3875
927.75233	9833.4875
931.52895	9771.0875
935.30295	9628.8875
939.07433	9408.4875
942.84309	9309.3875
946.60924	9196.5875
950.37278	9118.2875
954.13371	9115.2875
957.89203	9112.3875
961.64774	9133.4875
965.40086	9068.1875
969.15137	9055.9875
972.89929	9011.7875
976.64461	8979.9875
980.38733	8944.6875
984.12747	8944.5875
987.86502	8984.3875
991.59999	9044.8875
995.33237	9120.7875
999.06217	9254.9875
1002.78939	9465.4875
1006.51404	9610.1875
1010.23611	9806.1875
1013.95561	9916.4875
1017.67255	9973.4875
1021.38692	9885.0875
1025.09872	9705.5875
1028.80796	9570.4875
1032.51465	9559.7875
1036.21877	9634.7875
1039.92035	9653.6875
1043.61937	9718.0875
1047.31584	9709.1875
1051.00976	9683.9875
1054.70114	9668.9875
1058.38998	9678.4875
1062.07627	9734.2875
1065.76003	9857.9875
1069.44126	9972.1875
1073.11995	10113.6875
1076.79611	10251.0875
1080.46974	10330.2875
1084.14085	10401.8875
1087.80943	10501.5875
1091.47549	10601.9875
1095.13903	10613.6875
1098.80005	10498.3875
1102.45857	10222.1875
1106.11456	10015.3875
1109.76805	9926.1875
1113.41903	9957.4875
1117.06751	10034.7875
1120.71348	10226.2875
1124.35696	10430.6875
1127.99793	10663.1875
1131.63641	10791.8875
1135.2724	10740.1875
1138.90589	10586.8875
1142.5369	10516.2875
1146.16542	10524.7875
1149.79145	10551.8875
1153.415	10591.6875
1157.03607	10712.1875
1160.65467	10961.4875
1164.27079	11380.7875
1167.88443	11962.4875
1171.49561	12735.7875
1175.10432	13697.6875
1178.71056	14963.6875
1182.31434	16073.1875
1185.91565	16516.9875
1189.51451	16286.2875
1193.11091	15678.5875
1196.70485	14986.1875
1200.29634	14395.7875
1203.88538	13938.1875
1207.47197	13625.6875
1211.05612	13328.3875
1214.63782	13007.6875
1218.21708	12700.1875
1221.79391	12406.0875
1225.36829	12247.1875
1228.94024	12139.5875
1232.50976	12000.3875
1236.07685	11812.1875
1239.6415	11710.5875
1243.20374	11691.7875
1246.76355	11736.7875
1250.32093	11883.8875
1253.8759	12098.7875
1257.42845	12416.2875
1260.97859	12776.8875
1264.52631	13115.6875
1268.07163	13478.8875
1271.61453	13792.8875
1275.15503	14162.4875
1278.69312	14516.3875
1282.22882	14933.1875
1285.76211	15490.2875
1289.29301	16149.7875
1292.82151	16964.0875
1296.34761	17902.4875
1299.87133	19025.8875
1303.39266	20162.0875
1306.9116	21247.6875
1310.42815	22266.0875
1313.94233	22840.8875
1317.45412	22643.5875
1320.96354	21973.7875
1324.47058	21287.4875
1327.97525	20751.0875
1331.47754	20342.4875
1334.97747	20052.5875
1338.47502	19762.8875
1341.97022	19494.3875
1345.46305	19331.8875
1348.95352	19312.1875
1352.44163	19640.0875
1355.92738	20415.5875
1359.41078	21717.6875
1362.89183	22982.6875
1366.37053	22971.9875
1369.84688	21051.1875
1373.32088	18409.5875
1376.79254	16590.2875
1380.26186	15851.1875
1383.72883	15655.8875
1387.19347	15598.7875
1390.65578	15384.3875
1394.11575	15298.6875
1397.57339	15338.3875
1401.0287	15550.1875
1404.48168	15604.6875
1407.93234	15446.3875
1411.38068	15078.6875
1414.82669	14585.9875
1418.27039	14020.8875
1421.71177	13488.1875
1425.15083	12994.2875
1428.58758	12753.2875
1432.02203	12834.1875
1435.45416	13098.5875
1438.88399	13441.1875
1442.31151	13652.3875
1445.73673	13832.4875
1449.15965	13982.4875
1452.58027	14037.4875
1455.9986	14081.1875
1459.41463	14138.0875
1462.82837	14295.2875
1466.23982	14546.6875
1469.64898	14810.3875
1473.05586	14964.2875
1476.46045	15016.3875
1479.86276	14986.9875
1483.26279	14932.5875
1486.66054	14996.6875
1490.05602	15124.4875
1493.44922	15392.2875
1496.84016	15793.2875
1500.22882	16346.5875
1503.61521	17189.3875
1506.99934	18134.6875
1510.38121	18878.4875
1513.76081	19080.2875
1517.13816	18535.4875
1520.51324	17505.8875
1523.88607	16606.1875
1527.25665	16073.1875
1530.62498	15904.7875
1533.99105	15752.3875
1537.35488	15461.5875
1540.71647	15045.0875
1544.07581	14605.4875
1547.4329	14120.9875
1550.78776	13767.4875
1554.14038	13530.6875
1557.49077	13413.3875
1560.83892	13429.6875
1564.18484	13544.3875
1567.52853	13708.3875
1570.86999	13972.9875
1574.20922	14270.9875
1577.54624	14490.7875
1580.88103	14464.5875
1584.2136	14338.7875
1587.54395	14426.2875
1590.87208	14947.8875
1594.19801	15705.4875
1597.52172	16538.4875
1600.84321	16834.4875
1604.16251	16169.1875
1607.47959	14949.9875
1610.79447	13587.2875
1614.10715	12382.4875
1617.41763	11454.0875
1620.7259	10861.6875
1624.03199	10547.9875
1627.33587	10535.7875
1630.63757	10808.0875
1633.93707	11451.1875
1637.23439	12566.3875
1640.52951	14234.1875
1643.82246	16391.7875
1647.11321	18415.1875
1650.40179	19130.3875
1653.68819	18070.0875
1656.97241	15754.9875
1660.25446	13245.7875
1663.53433	11378.2875
1666.81203	10185.0875
1670.08756	9450.1875
1673.36092	8987.7875
1676.63211	8679.0875
1679.90115	8483.0875
1683.16801	8312.1875
1686.43272	8188.6875
1689.69527	8108.9875
1692.95567	8018.1875
1696.2139	7970.6875
1699.46999	7915.0875
1702.72392	7855.1875
1705.97571	7832.1875
1709.22535	7746.2875
1712.47284	7724.6875
1715.71819	7691.7875
1718.96139	7647.4875
1722.20246	7623.5875
1725.44139	7582.7875
1728.67818	7530.1875
1731.91284	7493.9875
1735.14537	7432.8875
1738.37576	7405.6875
1741.60403	7343.3875
1744.83017	7351.8875
1748.05418	7317.1875
1751.27607	7315.2875
1754.49584	7319.3875
1757.71349	7331.5875
1760.92903	7310.3875
1764.14244	7281.5875
1767.35375	7263.5875
1770.56294	7222.4875
1773.77002	7210.9875
1776.97499	7172.5875
1780.17785	7133.3875
1783.37861	7125.2875
1786.57727	7101.9875
1789.77382	7078.5875
1792.96828	7041.3875
1796.16064	7048.8875
1799.3509	7010.3875
1802.53907	6981.8875
1805.72514	6967.2875
1808.90913	6950.6875
1812.09102	6934.6875
1815.27083	6903.1875
1818.44856	6909.6875
1821.6242	6891.2875
1824.79776	6874.1875
1827.96924	6851.5875
1831.13864	6838.2875
1834.30597	6868.0875
1837.47122	6835.4875
1840.6344	6826.0875
1843.7955	6823.3875
1846.95454	6823.7875
1850.11151	6778.2875
1853.26642	6790.4875
1856.41926	6794.7875
1859.57004	6772.5875
1862.71876	6765.0875
1865.86542	6746.6875
1869.01003	6743.3875
1872.15258	6730.3875
1875.29308	6730.5875
1878.43152	6724.1875
1881.56792	6704.6875
1884.70227	6706.7875
1887.83457	6695.0875
1890.96482	6674.4875
1894.09304	6682.2875
1897.21921	6662.5875
1900.34335	6658.1875
1903.46544	6653.0875
1906.58551	6644.3875
1909.70353	6615.3875
1912.81953	6619.8875
1915.93349	6596.9875
1919.04543	6600.5875
1922.15534	6561.5875
1925.26322	6556.0875
1928.36908	6521.2875
1931.47292	6507.5875
1934.57473	6486.2875
1937.67453	6454.6875
1940.77232	6439.8875
1943.86808	6423.8875
1946.96184	6394.7875
1950.05358	6375.7875
1953.14331	6376.8875
1956.23103	6366.5875
1959.31675	6342.2875
1962.40046	6323.9875
1965.48217	6286.0875
1968.56188	6262.3875
1971.63959	6248.5875
1974.7153	6237.2875
1977.78901	6205.6875
1980.86073	6201.6875
1983.93046	6173.6875
1986.99819	6156.7875
1990.06394	6148.3875
1993.1277	6106.8875
1996.18947	6079.6875
1999.24925	6065.0875
2002.30706	6063.0875
2005.36288	6031.1875
2008.41672	6003.9875
2011.46859	5980.2875
2014.51848	5979.5875
2017.56639	5948.7875
2020.61233	5933.7875
2023.6563	5920.0875
2026.6983	5906.5875
2029.73833	5882.9875
2032.7764	5873.8875
2035.8125	5872.8875
2038.84664	5854.2875
2041.87881	5832.8875
2044.90903	5812.9875
2047.93729	5817.3875
2050.96359	5805.4875
2053.98794	5794.9875
2057.01034	5816.5875
2060.03078	5797.7875
2063.04927	5784.4875
2066.06582	5756.7875
2069.08042	5751.8875
2072.09307	5778.4875
2075.10378	5755.0875
2078.11255	5721.2875
2081.11938	5753.0875
2084.12426	5741.5875
2087.12722	5730.3875
2090.12824	5714.1875
2093.12732	5723.7875
2096.12447	5720.2875
2099.11969	5717.3875
2102.11299	5710.4875
2105.10435	5713.5875
2108.09379	5725.5875
2111.08131	5722.9875
2114.0669	5730.5875
2117.05057	5718.7875
2120.03233	5726.6875
2123.01216	5723.0875
2125.99008	5723.9875
2128.96609	5733.9875
2131.94018	5724.6875
2134.91236	5732.3875
2137.88263	5705.2875
2140.851	5714.4875
2143.81746	5718.3875
2146.78201	5716.9875
2149.74466	5728.5875
2152.7054	5691.7875
2155.66425	5719.6875
2158.6212	5707.3875
2161.57625	5706.4875
2164.52941	5696.0875
2167.48067	5704.9875
2170.43004	5685.4875
2173.37752	5690.2875
2176.32311	5676.9875
2179.26681	5669.7875
2182.20863	5679.4875
2185.14856	5683.3875
2188.08661	5665.8875
2191.02278	5691.2875
2193.95707	5658.7875
2196.88948	5671.9875
2199.82001	5654.0875
2202.74867	5648.3875
2205.67545	5640.6875
2208.60037	5635.2875
2211.52341	5622.2875
2214.44458	5608.2875
2217.36388	5604.3875
2220.28132	5579.8875
2223.1969	5571.5875
2226.11061	5554.7875
2229.02246	5526.2875
2231.93245	5546.1875
2234.84058	5524.6875
2237.74686	5517.2875
2240.65128	5523.9875
2243.55385	5501.7875
2246.45456	5505.1875
2249.35343	5476.0875
2252.25044	5481.3875
2255.14561	5466.5875
2258.03893	5443.9875
2260.93041	5456.1875
2263.82004	5421.8875
2266.70783	5411.1875
2269.59378	5390.1875
2272.4779	5391.9875
2275.36017	5380.6875
2278.24061	5351.8875
2281.11922	5339.0875
2283.996	5323.1875
2286.87094	5333.7875
2289.74405	5305.4875
2292.61534	5299.2875
2295.4848	5292.5875
2298.35243	5292.1875
2301.21824	5288.6875
2304.08223	5300.2875
2306.94439	5290.2875
2309.80474	5287.9875
2312.66327	5274.9875
2315.51999	5276.6875
2318.37489	5249.2875
2321.22797	5241.9875
2324.07925	5239.7875
2326.92871	5241.1875
2329.77637	5249.5875
2332.62222	5223.9875
2335.46626	5207.3875
2338.3085	5208.5875
2341.14893	5218.1875
2343.98756	5191.7875
2346.8244	5206.8875
2349.65943	5199.0875
2352.49267	5196.3875
2355.32411	5195.2875
2358.15376	5200.0875
2360.98161	5190.9875
2363.80768	5183.8875
2366.63195	5206.2875
2369.45444	5187.5875
2372.27514	5187.9875
2375.09405	5165.6875
2377.91118	5158.1875
2380.72652	5135.0875
2383.54009	5127.6875
2386.35187	5114.0875
2389.16188	5093.0875
2391.97011	5093.8875
2394.77657	5079.9875
2397.58125	5066.4875
2400.38416	5049.1875
2403.18529	5048.3875
2405.98466	5027.4875
2408.78226	5036.6875
2411.57809	5020.6875
2414.37216	5023.8875
2417.16446	5013.4875
2419.955	5008.3875
2422.74378	5005.3875
2425.5308	4991.6875
2428.31606	4998.7875
2431.09956	4977.6875
2433.88131	4975.1875
2436.6613	4969.8875
2439.43954	4983.5875
2442.21603	4961.2875
2444.99077	4960.5875
2447.76377	4983.2875
2450.53501	4959.8875
2453.30451	4964.1875
2456.07226	4967.1875
2458.83827	4971.4875
2461.60254	4948.2875
2464.36507	4957.6875
2467.12586	4952.7875
2469.88492	4952.2875
2472.64224	4958.2875
2475.39782	4946.7875
2478.15167	4965.1875
2480.90379	4947.1875
2483.65417	4960.8875
2486.40283	4954.2875
2489.14976	4945.1875
2491.89497	4936.4875
2494.63845	4949.8875
2497.3802	4944.5875
2500.12024	4935.7875
2502.85855	4945.0875
2505.59514	4920.6875
2508.33002	4930.3875
2511.06318	4917.3875
2513.79462	4910.4875
2516.52435	4899.7875
2519.25237	4877.4875
2521.97867	4886.4875
2524.70327	4874.4875
2527.42616	4861.0875
2530.14734	4859.5875
2532.86681	4841.2875
2535.58458	4852.0875
2538.30065	4856.2875
2541.01501	4845.5875
2543.72768	4837.5875
2546.43864	4833.6875
2549.14791	4816.2875
2551.85548	4822.9875
2554.56136	4826.1875
2557.26554	4808.9875
2559.96803	4798.5875
2562.66883	4790.4875
2565.36794	4789.3875
2568.06536	4776.9875
2570.7611	4774.4875
2573.45514	4797.5875
2576.14751	4774.5875
2578.83819	4754.8875
2581.52719	4748.1875
2584.21451	4752.4875
2586.90015	4756.4875
2589.58411	4742.0875
2592.2664	4733.0875
2594.94701	4736.4875
2597.62594	4718.4875
2600.30321	4709.9875
2602.9788	4708.4875
2605.65273	4706.6875
2608.32498	4702.0875
2610.99557	4698.6875
2613.66449	4687.3875
2616.33175	4688.5875
2618.99734	4694.5875
2621.66128	4678.0875
2624.32355	4670.4875
2626.98416	4674.3875
2629.64311	4675.4875
2632.30041	4672.6875
2634.95605	4655.4875
2637.61004	4662.5875
2640.26238	4656.0875
2642.91306	4657.8875
2645.56209	4641.2875
2648.20948	4647.2875
2650.85521	4650.4875
2653.4993	4637.0875
2656.14175	4637.5875
2658.78255	4647.0875
2661.42171	4657.4875
2664.05923	4667.3875
2666.6951	4663.1875
2669.32934	4652.2875
2671.96194	4665.6875
2674.59291	4666.9875
2677.22224	4643.7875
2679.84993	4660.3875
2682.476	4648.7875
2685.10043	4639.5875
2687.72324	4632.3875
2690.34441	4645.2875
2692.96396	4631.7875
2695.58188	4650.1875
2698.19818	4642.0875
2700.81285	4650.4875
2703.4259	4674.7875
2706.03733	4700.4875
2708.64714	4662.7875
2711.25533	4659.5875
2713.86191	4645.4875
2716.46687	4654.8875
2719.07021	4656.5875
2721.67194	4646.3875
2724.27206	4659.9875
2726.87057	4662.0875
2729.46747	4653.4875
2732.06276	4658.6875
2734.65644	4655.4875
2737.24852	4648.1875
2739.83899	4620.0875
2742.42786	4638.5875
2745.01513	4618.0875
2747.60079	4632.8875
2750.18486	4624.8875
2752.76733	4627.0875
2755.3482	4606.9875
2757.92747	4610.3875
2760.50515	4608.3875
2763.08123	4618.2875
2765.65573	4619.1875
2768.22863	4611.9875
2770.79994	4610.5875
2773.36967	4599.0875
2775.9378	4588.0875
2778.50435	4600.6875
2781.06932	4582.6875
2783.6327	4579.8875
2786.1945	4583.1875
2788.75471	4554.9875
2791.31335	4560.9875
2793.87041	4544.9875
2796.42589	4545.6875
2798.97979	4548.7875
2801.53212	4528.3875
2804.08288	4529.8875
2806.63206	4512.8875
2809.17967	4503.5875
2811.72571	4500.5875
2814.27018	4515.9875
2816.81308	4484.5875
2819.35442	4487.8875
2821.89419	4489.2875
2824.43239	4484.7875
2826.96904	4481.8875
2829.50412	4493.1875
2832.03763	4467.4875
2834.56959	4480.4875
2837.1	4481.8875
2839.62884	4496.8875
2842.15613	4477.3875
2844.68186	4502.3875
2847.20604	4524.1875
2849.72867	4511.5875
2852.24974	4522.0875
2854.76927	4509.1875
2857.28724	4520.1875
2859.80367	4507.6875
2862.31855	4476.4875
2864.83189	4489.1875
2867.34368	4479.5875
2869.85393	4471.8875
2872.36264	4487.4875
2874.8698	4470.7875
2877.37543	4480.8875
2879.87952	4478.4875
2882.38207	4469.2875
2884.88308	4479.5875
2887.38256	4474.2875
2889.88051	4455.8875
2892.37692	4460.8875
2894.8718	4470.6875
2897.36515	4467.5875
2899.85698	4469.8875
2902.34727	4484.3875
2904.83604	4482.0875
2907.32328	4480.3875
2909.809	4481.0875
2912.29319	4490.2875
2914.77587	4500.5875
2917.25702	4503.4875
2919.73665	4498.1875
2922.21476	4505.1875
2924.69136	4501.5875
2927.16644	4490.8875
2929.64	4483.8875
2932.11205	4487.0875
2934.58258	4470.4875
2937.05161	4480.1875
2939.51912	4485.2875
2941.98513	4471.3875
2944.44962	4442.4875
2946.91261	4435.0875
2949.37409	4448.8875
2951.83407	4424.0875
2954.29254	4409.2875
2956.74951	4440.3875
2959.20498	4408.0875
2961.65895	4399.8875
2964.11142	4389.0875
2966.56239	4372.4875
2969.01186	4354.4875
2971.45984	4345.3875
2973.90632	4354.1875
2976.35131	4327.9875
2978.7948	4303.9875
2981.23681	4287.1875
2983.67732	4284.1875
2986.11635	4281.3875
2988.55388	4268.2875
2990.98993	4259.0875
2993.4245	4234.8875
2995.85758	4229.6875
2998.28917	4234.0875
3000.71928	4223.9875
3003.14791	4204.3875
3005.57506	4226.1875
3008.00073	4207.8875
3010.42493	4191.8875
3012.84764	4189.3875
3015.26888	4180.2875
3017.68865	4170.2875
3020.10694	4171.6875
3022.52376	4149.0875
3024.9391	4162.0875
3027.35298	4152.3875
3029.76539	4136.4875
3032.17632	4146.5875
3034.5858	4128.2875
3036.9938	4132.3875
3039.40034	4120.2875
3041.80542	4112.3875
3044.20903	4103.1875
3046.61118	4115.1875
3049.01187	4092.6875
3051.4111	4104.3875
3053.80888	4095.5875
3056.20519	4074.0875
3058.60005	4067.2875
3060.99345	4070.7875
3063.3854	4069.6875
3065.7759	4053.4875
3068.16494	4063.5875
3070.55254	4027.4875
3072.93868	4019.8875
3075.32338	4018.4875
3077.70662	4002.6875
3080.08842	4007.2875
3082.46878	3995.3875
3084.84769	3992.3875
3087.22515	3996.3875
3089.60118	3983.1875
