Data from AgNPs_FTO_APTES_UA_1um_CRN_0.1mM_R6G_10uM_NaF_0.1M_Addition_RamanShift__21__11-58-39-011.txt Node

Date: Tue Dec 21 11:58:39 GMT 2021
User: TCL
Spectrometer: QEP01345
Trigger mode: 4
Integration Time (sec): 7.000000E0
Scans to average: 10
Electric dark correction enabled: true
Nonlinearity correction enabled: false
Boxcar width: 0
XAxis mode: Raman Shifts
Number of Pixels in Spectrum: 1044
>>>>>Begin Spectral Data<<<<<
46.04893	-0.3125
50.45542	-0.9125
54.85868	-1.0125
59.25871	1.4875
63.6555	44.5875
68.04907	49.1875
72.43941	54.1875
76.82654	52.9875
81.21044	60.2875
85.59113	59.9875
89.96862	63.1875
94.34289	64.9875
98.71396	64.7875
103.08183	64.8875
107.4465	71.7875
111.80798	69.5875
116.16626	74.6875
120.52136	75.8875
124.87327	77.4875
129.222	78.3875
133.56755	83.9875
137.90993	95.1875
142.24913	95.1875
146.58517	111.7875
150.91804	121.8875
155.24774	146.4875
159.57429	181.2875
163.89768	230.6875
168.21792	302.4875
172.53501	403.0875
176.84895	555.7875
181.15975	779.3875
185.46741	1093.1875
189.77193	1500.0875
194.07331	2011.5875
198.37157	2587.6875
202.6667	3195.4875
206.9587	3831.2875
211.24758	4425.8875
215.53334	5060.7875
219.81599	5695.1875
224.09553	6424.7875
228.37195	7223.1875
232.64527	8072.8875
236.91549	8990.4875
241.18261	9885.3875
245.44663	10688.4875
249.70755	11416.0875
253.96539	12025.6875
258.22014	12520.6875
262.4718	12938.1875
266.72039	13199.8875
270.96589	13282.6875
275.20832	13266.7875
279.44768	13120.4875
283.68397	13005.4875
287.91719	12878.6875
292.14735	12844.4875
296.37445	12797.0875
300.59849	12831.8875
304.81948	12845.5875
309.03742	12812.3875
313.25231	12683.7875
317.46415	12402.1875
321.67296	12055.8875
325.87872	11747.1875
330.08145	11607.2875
334.28114	11591.7875
338.47781	11653.7875
342.67145	11756.2875
346.86207	12003.7875
351.04966	12228.0875
355.23424	12478.9875
359.4158	12735.1875
363.59435	12878.7875
367.76989	12974.3875
371.94243	13014.4875
376.11196	13043.4875
380.27849	13119.4875
384.44203	13212.4875
388.60257	13286.6875
392.76012	13403.0875
396.91468	13591.4875
401.06626	13861.5875
405.21485	14027.7875
409.36047	14020.4875
413.50311	13813.1875
417.64277	13634.8875
421.77947	13625.2875
425.9132	13716.2875
430.04396	13850.9875
434.17176	13953.4875
438.2966	14205.9875
442.41849	14567.7875
446.53742	15187.1875
450.6534	15825.5875
454.76644	16248.6875
458.87653	16245.6875
462.98368	15905.1875
467.08789	15481.0875
471.18916	15130.0875
475.2875	14902.8875
479.38291	14754.1875
483.4754	14645.3875
487.56496	14497.1875
491.6516	14242.8875
495.73531	14018.7875
499.81612	13908.8875
503.89401	13981.0875
507.96899	13951.2875
512.04106	13847.5875
516.11023	13644.1875
520.1765	13412.7875
524.23987	13334.6875
528.30034	13310.1875
532.35792	13271.9875
536.41261	13109.5875
540.46441	12839.5875
544.51333	12706.1875
548.55936	12735.9875
552.60252	13020.5875
556.64279	13422.3875
560.6802	13816.3875
564.71473	14027.2875
568.7464	14372.9875
572.7752	14806.8875
576.80114	15178.8875
580.82422	15463.2875
584.84444	15799.8875
588.86181	16427.9875
592.87633	17341.9875
596.888	17968.3875
600.89682	17759.3875
604.9028	17586.6875
608.90594	18364.5875
612.90624	19351.9875
616.90371	17845.5875
620.89834	14598.2875
624.89015	13098.8875
628.87913	13004.7875
632.86528	13194.4875
636.84862	13262.0875
640.82913	13049.9875
644.80683	12637.3875
648.78172	12332.6875
652.75379	12173.3875
656.72306	12268.5875
660.68952	12456.3875
664.65319	12456.3875
668.61405	12270.0875
672.57211	12279.4875
676.52738	12382.3875
680.47986	12371.7875
684.42955	12251.8875
688.37646	12091.6875
692.32058	12028.1875
696.26192	12057.4875
700.20048	12228.1875
704.13626	12326.4875
708.06928	12347.6875
711.99952	12234.9875
715.927	12115.0875
719.85171	12123.5875
723.77365	12103.8875
727.69284	12001.2875
731.60928	11931.9875
735.52295	11912.8875
739.43388	11957.0875
743.34206	12004.7875
747.24749	12083.1875
751.15017	12163.6875
755.05012	12398.2875
758.94733	12819.4875
762.8418	13586.5875
766.73354	14824.0875
770.62254	16064.1875
774.50882	16371.2875
778.39237	15485.1875
782.27321	14126.4875
786.15132	12937.2875
790.02671	12145.9875
793.89938	11769.7875
797.76935	11598.5875
801.6366	11613.4875
805.50115	11597.2875
809.36299	11558.9875
813.22213	11385.8875
817.07857	11301.7875
820.93231	11230.3875
824.78336	11155.0875
828.63172	11140.0875
832.47738	11145.3875
836.32036	11114.3875
840.16066	11137.6875
843.99827	11101.2875
847.8332	11061.9875
851.66546	11025.4875
855.49504	10995.6875
859.32195	11040.3875
863.1462	11067.2875
866.96777	11024.8875
870.78668	11029.9875
874.60293	10998.6875
878.41652	10967.3875
882.22745	11013.0875
886.03573	11044.0875
889.84136	11055.6875
893.64433	10982.6875
897.44466	10938.1875
901.24235	10879.9875
905.0374	10739.6875
908.8298	10680.7875
912.61957	10640.1875
916.40671	10742.8875
920.19121	10904.6875
923.97308	11119.9875
927.75233	11221.4875
931.52895	11188.8875
935.30295	10991.0875
939.07433	10714.0875
942.84309	10493.4875
946.60924	10361.0875
950.37278	10301.9875
954.13371	10266.5875
957.89203	10251.4875
961.64774	10178.0875
965.40086	10164.0875
969.15137	10118.5875
972.89929	10041.4875
976.64461	9981.3875
980.38733	9939.0875
984.12747	9950.4875
987.86502	10032.6875
991.59999	10173.9875
995.33237	10378.3875
999.06217	10750.8875
1002.78939	11234.7875
1006.51404	11650.2875
1010.23611	11917.0875
1013.95561	12040.9875
1017.67255	12069.9875
1021.38692	11809.3875
1025.09872	11415.6875
1028.80796	11217.9875
1032.51465	11278.2875
1036.21877	11419.7875
1039.92035	11498.4875
1043.61937	11483.6875
1047.31584	11362.0875
1051.00976	11193.0875
1054.70114	11126.3875
1058.38998	11077.3875
1062.07627	11096.3875
1065.76003	11159.8875
1069.44126	11291.3875
1073.11995	11487.5875
1076.79611	11633.6875
1080.46974	11714.3875
1084.14085	11781.7875
1087.80943	11944.9875
1091.47549	12140.4875
1095.13903	12171.6875
1098.80005	11962.0875
1102.45857	11596.8875
1106.11456	11345.3875
1109.76805	11225.4875
1113.41903	11291.6875
1117.06751	11432.8875
1120.71348	11609.7875
1124.35696	11851.0875
1127.99793	12072.5875
1131.63641	12192.1875
1135.2724	12172.3875
1138.90589	12072.4875
1142.5369	12009.0875
1146.16542	11982.0875
1149.79145	12039.5875
1153.415	12123.6875
1157.03607	12321.3875
1160.65467	12706.3875
1164.27079	13361.5875
1167.88443	14358.0875
1171.49561	15624.0875
1175.10432	17285.7875
1178.71056	19364.3875
1182.31434	21246.7875
1185.91565	22116.3875
1189.51451	21819.7875
1193.11091	20861.5875
1196.70485	19710.1875
1200.29634	18479.8875
1203.88538	17369.2875
1207.47197	16570.8875
1211.05612	16016.2875
1214.63782	15665.8875
1218.21708	15593.1875
1221.79391	15701.7875
1225.36829	15845.9875
1228.94024	15674.1875
1232.50976	15202.1875
1236.07685	14706.3875
1239.6415	14369.4875
1243.20374	14203.8875
1246.76355	14199.7875
1250.32093	14343.1875
1253.8759	14707.6875
1257.42845	15195.5875
1260.97859	15760.9875
1264.52631	16264.3875
1268.07163	16816.0875
1271.61453	17423.2875
1275.15503	18060.6875
1278.69312	18706.1875
1282.22882	19354.3875
1285.76211	20076.9875
1289.29301	20907.7875
1292.82151	21954.1875
1296.34761	23210.2875
1299.87133	24754.4875
1303.39266	26552.3875
1306.9116	28629.3875
1310.42815	30789.3875
1313.94233	32523.1875
1317.45412	32963.4875
1320.96354	32353.7875
1324.47058	31294.3875
1327.97525	30244.0875
1331.47754	29334.9875
1334.97747	28726.5875
1338.47502	28421.3875
1341.97022	28071.1875
1345.46305	27401.9875
1348.95352	26818.6875
1352.44163	26711.9875
1355.92738	27534.3875
1359.41078	28964.3875
1362.89183	30294.4875
1366.37053	30314.4875
1369.84688	28237.3875
1373.32088	24877.6875
1376.79254	22184.5875
1380.26186	20878.4875
1383.72883	20520.5875
1387.19347	20340.9875
1390.65578	20134.4875
1394.11575	20332.9875
1397.57339	21063.2875
1401.0287	22132.6875
1404.48168	23101.8875
1407.93234	23632.9875
1411.38068	23518.6875
1414.82669	22768.9875
1418.27039	21576.8875
1421.71177	20203.2875
1425.15083	18987.4875
1428.58758	18278.2875
1432.02203	18189.7875
1435.45416	18544.7875
1438.88399	19105.5875
1442.31151	19632.0875
1445.73673	20167.4875
1449.15965	20589.8875
1452.58027	20930.4875
1455.9986	20880.3875
1459.41463	20968.0875
1462.82837	21410.1875
1466.23982	22115.2875
1469.64898	22826.0875
1473.05586	23111.8875
1476.46045	23142.9875
1479.86276	23068.6875
1483.26279	22786.0875
1486.66054	22539.5875
1490.05602	22482.9875
1493.44922	22445.6875
1496.84016	22154.3875
1500.22882	21912.6875
1503.61521	22020.2875
1506.99934	22448.6875
1510.38121	22891.1875
1513.76081	22898.2875
1517.13816	22287.7875
1520.51324	21228.1875
1523.88607	20247.4875
1527.25665	19743.5875
1530.62498	19599.9875
1533.99105	19647.8875
1537.35488	19674.5875
1540.71647	19555.4875
1544.07581	19241.1875
1547.4329	18823.0875
1550.78776	18362.4875
1554.14038	17959.2875
1557.49077	17700.2875
1560.83892	17588.5875
1564.18484	17570.2875
1567.52853	17552.7875
1570.86999	17621.9875
1574.20922	17851.9875
1577.54624	17972.4875
1580.88103	17927.2875
1584.2136	17911.7875
1587.54395	18459.8875
1590.87208	19733.0875
1594.19801	21601.0875
1597.52172	23774.0875
1600.84321	24983.6875
1604.16251	24404.0875
1607.47959	22320.4875
1610.79447	19566.9875
1614.10715	17035.0875
1617.41763	15120.8875
1620.7259	13861.2875
1624.03199	13227.7875
1627.33587	13079.5875
1630.63757	13514.2875
1633.93707	14561.7875
1637.23439	16391.3875
1640.52951	19229.6875
1643.82246	22887.2875
1647.11321	26040.4875
1650.40179	27042.1875
1653.68819	25125.9875
1656.97241	21305.1875
1660.25446	17401.8875
1663.53433	14436.2875
1666.81203	12552.4875
1670.08756	11405.2875
1673.36092	10729.7875
1676.63211	10277.5875
1679.90115	9975.4875
1683.16801	9713.2875
1686.43272	9537.4875
1689.69527	9407.9875
1692.95567	9331.1875
1696.2139	9247.1875
1699.46999	9214.6875
1702.72392	9168.3875
1705.97571	9091.4875
1709.22535	9044.1875
1712.47284	9026.2875
1715.71819	9002.3875
1718.96139	8942.2875
1722.20246	8923.7875
1725.44139	8872.8875
1728.67818	8824.8875
1731.91284	8746.2875
1735.14537	8713.4875
1738.37576	8656.1875
1741.60403	8645.7875
1744.83017	8632.7875
1748.05418	8630.6875
1751.27607	8639.7875
1754.49584	8639.7875
1757.71349	8622.0875
1760.92903	8586.5875
1764.14244	8520.1875
1767.35375	8484.1875
1770.56294	8441.0875
1773.77002	8406.7875
1776.97499	8365.0875
1780.17785	8345.1875
1783.37861	8307.9875
1786.57727	8267.8875
1789.77382	8232.2875
1792.96828	8217.5875
1796.16064	8181.1875
1799.3509	8148.8875
1802.53907	8133.5875
1805.72514	8100.6875
1808.90913	8090.9875
1812.09102	8081.6875
1815.27083	8048.6875
1818.44856	8020.8875
1821.6242	8003.3875
1824.79776	7992.4875
1827.96924	7982.8875
1831.13864	7977.4875
1834.30597	7969.0875
1837.47122	7966.3875
1840.6344	7958.4875
1843.7955	7960.6875
1846.95454	7966.8875
1850.11151	7983.3875
1853.26642	7955.2875
1856.41926	7956.6875
1859.57004	7966.3875
1862.71876	7945.2875
1865.86542	7949.9875
1869.01003	7967.8875
1872.15258	7970.2875
1875.29308	7970.2875
1878.43152	7958.8875
1881.56792	7968.4875
1884.70227	7938.7875
1887.83457	7951.1875
1890.96482	7955.6875
1894.09304	7927.1875
1897.21921	7938.8875
1900.34335	7925.4875
1903.46544	7945.4875
1906.58551	7909.1875
1909.70353	7918.0875
1912.81953	7912.7875
1915.93349	7871.7875
1919.04543	7868.8875
1922.15534	7833.9875
1925.26322	7803.2875
1928.36908	7765.3875
1931.47292	7725.4875
1934.57473	7682.6875
1937.67453	7693.1875
1940.77232	7647.6875
1943.86808	7623.8875
1946.96184	7578.1875
1950.05358	7546.4875
1953.14331	7508.4875
1956.23103	7497.9875
1959.31675	7476.4875
1962.40046	7467.0875
1965.48217	7429.6875
1968.56188	7416.1875
1971.63959	7369.9875
1974.7153	7355.6875
1977.78901	7306.6875
1980.86073	7290.6875
1983.93046	7282.5875
1986.99819	7242.1875
1990.06394	7218.4875
1993.1277	7203.5875
1996.18947	7166.7875
1999.24925	7162.9875
2002.30706	7133.8875
2005.36288	7104.0875
2008.41672	7080.1875
2011.46859	7065.9875
2014.51848	7049.9875
2017.56639	7032.5875
2020.61233	7012.1875
2023.6563	6992.2875
2026.6983	6982.8875
2029.73833	6956.1875
2032.7764	6936.7875
2035.8125	6931.2875
2038.84664	6933.3875
2041.87881	6921.9875
2044.90903	6904.2875
2047.93729	6897.3875
2050.96359	6891.0875
2053.98794	6876.6875
2057.01034	6864.1875
2060.03078	6844.0875
2063.04927	6855.2875
2066.06582	6839.1875
2069.08042	6825.4875
2072.09307	6824.9875
2075.10378	6825.7875
2078.11255	6816.9875
2081.11938	6797.7875
2084.12426	6811.4875
2087.12722	6798.7875
2090.12824	6773.3875
2093.12732	6784.4875
2096.12447	6794.6875
2099.11969	6784.4875
2102.11299	6786.4875
2105.10435	6786.4875
2108.09379	6768.4875
2111.08131	6782.4875
2114.0669	6761.5875
2117.05057	6767.4875
2120.03233	6764.8875
2123.01216	6765.7875
2125.99008	6762.6875
2128.96609	6771.9875
2131.94018	6770.1875
2134.91236	6776.8875
2137.88263	6761.0875
2140.851	6754.5875
2143.81746	6765.4875
2146.78201	6739.9875
2149.74466	6765.4875
2152.7054	6759.0875
2155.66425	6747.1875
2158.6212	6754.6875
2161.57625	6759.6875
2164.52941	6740.3875
2167.48067	6744.4875
2170.43004	6733.0875
2173.37752	6743.8875
2176.32311	6729.8875
2179.26681	6738.7875
2182.20863	6718.6875
2185.14856	6720.6875
2188.08661	6717.7875
2191.02278	6715.7875
2193.95707	6698.0875
2196.88948	6708.6875
2199.82001	6724.9875
2202.74867	6684.8875
2205.67545	6683.6875
2208.60037	6688.3875
2211.52341	6681.7875
2214.44458	6672.7875
2217.36388	6632.1875
2220.28132	6627.4875
2223.1969	6633.9875
2226.11061	6593.9875
2229.02246	6597.4875
2231.93245	6591.1875
2234.84058	6591.5875
2237.74686	6579.4875
2240.65128	6561.4875
2243.55385	6548.8875
2246.45456	6553.2875
2249.35343	6508.6875
2252.25044	6511.0875
2255.14561	6502.5875
2258.03893	6490.9875
2260.93041	6490.1875
2263.82004	6459.0875
2266.70783	6442.7875
2269.59378	6418.3875
2272.4779	6395.1875
2275.36017	6357.0875
2278.24061	6362.7875
2281.11922	6330.4875
2283.996	6342.6875
2286.87094	6327.1875
2289.74405	6317.3875
2292.61534	6306.3875
2295.4848	6301.6875
2298.35243	6297.0875
2301.21824	6284.2875
2304.08223	6296.2875
2306.94439	6293.6875
2309.80474	6273.8875
2312.66327	6266.8875
2315.51999	6277.1875
2318.37489	6280.5875
2321.22797	6263.4875
2324.07925	6244.8875
2326.92871	6252.6875
2329.77637	6234.0875
2332.62222	6249.9875
2335.46626	6244.6875
2338.3085	6257.4875
2341.14893	6246.6875
2343.98756	6249.3875
2346.8244	6251.1875
2349.65943	6258.1875
2352.49267	6247.4875
2355.32411	6245.9875
2358.15376	6245.7875
2360.98161	6234.9875
2363.80768	6218.1875
2366.63195	6221.4875
2369.45444	6216.1875
2372.27514	6193.3875
2375.09405	6181.1875
2377.91118	6176.1875
2380.72652	6146.2875
2383.54009	6137.9875
2386.35187	6120.6875
2389.16188	6105.2875
2391.97011	6120.8875
2394.77657	6085.2875
2397.58125	6089.9875
2400.38416	6068.1875
2403.18529	6063.8875
2405.98466	6044.0875
2408.78226	6022.9875
2411.57809	6020.5875
2414.37216	6014.6875
2417.16446	6003.0875
2419.955	5988.0875
2422.74378	6000.6875
2425.5308	5974.4875
2428.31606	5997.6875
2431.09956	5977.0875
2433.88131	5977.2875
2436.6613	5955.3875
2439.43954	5956.1875
2442.21603	5954.7875
2444.99077	5940.1875
2447.76377	5954.1875
2450.53501	5945.4875
2453.30451	5949.7875
2456.07226	5949.5875
2458.83827	5965.6875
2461.60254	5958.2875
2464.36507	5940.0875
2467.12586	5963.7875
2469.88492	5962.3875
2472.64224	5952.1875
2475.39782	5967.1875
2478.15167	5992.2875
2480.90379	5972.9875
2483.65417	5993.7875
2486.40283	5974.2875
2489.14976	5966.5875
2491.89497	5969.1875
2494.63845	5982.9875
2497.3802	5991.0875
2500.12024	5983.7875
2502.85855	5968.8875
2505.59514	5970.0875
2508.33002	5951.1875
2511.06318	5949.6875
2513.79462	5944.2875
2516.52435	5931.4875
2519.25237	5922.0875
2521.97867	5915.1875
2524.70327	5910.5875
2527.42616	5902.5875
2530.14734	5916.5875
2532.86681	5901.1875
2535.58458	5886.8875
2538.30065	5875.8875
2541.01501	5874.4875
2543.72768	5868.6875
2546.43864	5885.9875
2549.14791	5866.4875
2551.85548	5867.8875
2554.56136	5860.3875
2557.26554	5839.6875
2559.96803	5850.2875
2562.66883	5836.2875
2565.36794	5838.7875
2568.06536	5848.0875
2570.7611	5851.3875
2573.45514	5832.2875
2576.14751	5827.6875
2578.83819	5836.4875
2581.52719	5835.2875
2584.21451	5840.6875
2586.90015	5824.1875
2589.58411	5826.2875
2592.2664	5825.9875
2594.94701	5828.8875
2597.62594	5827.1875
2600.30321	5804.7875
2602.9788	5800.0875
2605.65273	5790.5875
2608.32498	5800.2875
2610.99557	5798.2875
2613.66449	5808.3875
2616.33175	5803.1875
2618.99734	5814.5875
2621.66128	5801.7875
2624.32355	5806.0875
2626.98416	5824.8875
2629.64311	5816.5875
2632.30041	5821.8875
2634.95605	5805.8875
2637.61004	5817.2875
2640.26238	5795.2875
2642.91306	5811.6875
2645.56209	5796.6875
2648.20948	5794.2875
2650.85521	5796.4875
2653.4993	5796.9875
2656.14175	5795.2875
2658.78255	5808.3875
2661.42171	5817.0875
2664.05923	5824.5875
2666.6951	5825.0875
2669.32934	5833.9875
2671.96194	5826.6875
2674.59291	5834.0875
2677.22224	5829.4875
2679.84993	5798.7875
2682.476	5797.7875
2685.10043	5796.9875
2687.72324	5792.1875
2690.34441	5800.4875
2692.96396	5780.9875
2695.58188	5798.5875
2698.19818	5783.8875
2700.81285	5796.1875
2703.4259	5817.7875
2706.03733	5871.3875
2708.64714	5830.6875
2711.25533	5824.0875
2713.86191	5817.8875
2716.46687	5827.5875
2719.07021	5817.7875
2721.67194	5828.2875
2724.27206	5802.2875
2726.87057	5828.6875
2729.46747	5833.2875
2732.06276	5846.6875
2734.65644	5831.5875
2737.24852	5842.1875
2739.83899	5814.7875
2742.42786	5833.8875
2745.01513	5828.3875
2747.60079	5821.9875
2750.18486	5828.5875
2752.76733	5832.1875
2755.3482	5817.4875
2757.92747	5852.8875
2760.50515	5821.8875
2763.08123	5833.4875
2765.65573	5822.4875
2768.22863	5840.8875
2770.79994	5843.5875
2773.36967	5841.4875
2775.9378	5847.8875
2778.50435	5846.7875
2781.06932	5829.9875
2783.6327	5862.2875
2786.1945	5845.9875
2788.75471	5852.4875
2791.31335	5841.1875
2793.87041	5838.2875
2796.42589	5805.7875
2798.97979	5832.9875
2801.53212	5825.0875
2804.08288	5786.0875
2806.63206	5792.7875
2809.17967	5790.8875
2811.72571	5797.0875
2814.27018	5780.6875
2816.81308	5774.6875
2819.35442	5762.1875
2821.89419	5763.2875
2824.43239	5766.1875
2826.96904	5780.2875
2829.50412	5762.5875
2832.03763	5741.3875
2834.56959	5758.0875
2837.1	5738.9875
2839.62884	5744.1875
2842.15613	5738.6875
2844.68186	5749.0875
2847.20604	5745.0875
2849.72867	5745.9875
2852.24974	5740.6875
2854.76927	5739.2875
2857.28724	5743.8875
2859.80367	5728.3875
2862.31855	5708.3875
2864.83189	5712.1875
2867.34368	5704.2875
2869.85393	5718.7875
2872.36264	5698.4875
2874.8698	5706.1875
2877.37543	5711.8875
2879.87952	5726.0875
2882.38207	5731.0875
2884.88308	5739.4875
2887.38256	5737.9875
2889.88051	5741.8875
2892.37692	5774.1875
2894.8718	5748.1875
2897.36515	5768.9875
2899.85698	5775.7875
2902.34727	5799.2875
2904.83604	5805.9875
2907.32328	5812.6875
2909.809	5827.4875
2912.29319	5838.6875
2914.77587	5833.5875
2917.25702	5825.0875
2919.73665	5837.6875
2922.21476	5836.6875
2924.69136	5839.5875
2927.16644	5856.6875
2929.64	5845.9875
2932.11205	5840.6875
2934.58258	5807.6875
2937.05161	5826.0875
2939.51912	5831.4875
2941.98513	5826.2875
2944.44962	5810.8875
2946.91261	5778.5875
2949.37409	5792.6875
2951.83407	5773.7875
2954.29254	5780.1875
2956.74951	5762.2875
2959.20498	5749.5875
2961.65895	5738.9875
2964.11142	5706.7875
2966.56239	5671.4875
2969.01186	5678.5875
2971.45984	5654.2875
2973.90632	5618.8875
2976.35131	5588.9875
2978.7948	5589.0875
2981.23681	5561.8875
2983.67732	5528.0875
2986.11635	5509.4875
2988.55388	5493.4875
2990.98993	5474.9875
2993.4245	5482.1875
2995.85758	5447.4875
2998.28917	5438.7875
3000.71928	5445.8875
3003.14791	5429.1875
3005.57506	5423.9875
3008.00073	5426.8875
3010.42493	5403.8875
3012.84764	5386.8875
3015.26888	5399.6875
3017.68865	5372.3875
3020.10694	5358.9875
3022.52376	5336.5875
3024.9391	5312.2875
3027.35298	5315.5875
3029.76539	5307.8875
3032.17632	5300.8875
3034.5858	5289.4875
3036.9938	5286.9875
3039.40034	5260.6875
3041.80542	5262.1875
3044.20903	5261.7875
3046.61118	5265.1875
3049.01187	5232.5875
3051.4111	5233.3875
3053.80888	5218.1875
3056.20519	5209.3875
3058.60005	5214.5875
3060.99345	5186.9875
3063.3854	5183.5875
3065.7759	5153.6875
3068.16494	5134.7875
3070.55254	5121.9875
3072.93868	5110.3875
3075.32338	5095.4875
3077.70662	5089.2875
3080.08842	5074.0875
