Data from AgNPs_FTO_APTES_UA_0um_CRN_0.1mM_R6G_10uM_NaF_0.1M_Addition_RamanShift__43__11-01-28-945.txt Node

Date: Tue Dec 21 11:01:28 GMT 2021
User: TCL
Spectrometer: QEP01345
Trigger mode: 4
Integration Time (sec): 7.000000E0
Scans to average: 10
Electric dark correction enabled: true
Nonlinearity correction enabled: false
Boxcar width: 0
XAxis mode: Raman Shifts
Number of Pixels in Spectrum: 1044
>>>>>Begin Spectral Data<<<<<
46.04893	0.3875
50.45542	-0.7125
54.85868	-0.6125
59.25871	0.1875
63.6555	42.3875
68.04907	48.1875
72.43941	50.1875
76.82654	48.9875
81.21044	55.2875
85.59113	53.8875
89.96862	57.1875
94.34289	57.5875
98.71396	58.1875
103.08183	61.0875
107.4465	65.4875
111.80798	69.8875
116.16626	69.5875
120.52136	69.7875
124.87327	71.4875
129.222	74.9875
133.56755	83.6875
137.90993	86.7875
142.24913	99.0875
146.58517	111.1875
150.91804	127.7875
155.24774	153.9875
159.57429	190.8875
163.89768	244.8875
168.21792	324.5875
172.53501	441.5875
176.84895	613.3875
181.15975	858.5875
185.46741	1199.8875
189.77193	1650.4875
194.07331	2195.0875
198.37157	2818.0875
202.6667	3482.0875
206.9587	4132.3875
211.24758	4783.5875
215.53334	5452.5875
219.81599	6134.1875
224.09553	6905.1875
228.37195	7761.8875
232.64527	8698.2875
236.91549	9648.9875
241.18261	10589.9875
245.44663	11423.5875
249.70755	12121.0875
253.96539	12726.9875
258.22014	13203.8875
262.4718	13597.1875
266.72039	13820.4875
270.96589	13909.7875
275.20832	13850.6875
279.44768	13706.9875
283.68397	13586.6875
287.91719	13491.2875
292.14735	13437.9875
296.37445	13431.1875
300.59849	13484.7875
304.81948	13649.3875
309.03742	13765.6875
313.25231	13848.0875
317.46415	13726.5875
321.67296	13493.1875
325.87872	13299.3875
330.08145	13142.0875
334.28114	13020.8875
338.47781	13022.7875
342.67145	13097.2875
346.86207	13352.8875
351.04966	13603.0875
355.23424	13812.3875
359.4158	13985.0875
363.59435	14073.0875
367.76989	14061.7875
371.94243	14014.8875
376.11196	13916.1875
380.27849	13926.8875
384.44203	13943.4875
388.60257	14112.9875
392.76012	14294.1875
396.91468	14501.7875
401.06626	14760.3875
405.21485	14913.7875
409.36047	14861.4875
413.50311	14701.4875
417.64277	14814.3875
421.77947	15065.6875
425.9132	15223.6875
430.04396	15336.2875
434.17176	15464.3875
438.2966	15570.5875
442.41849	15915.6875
446.53742	16619.2875
450.6534	17258.0875
454.76644	17556.6875
458.87653	17458.7875
462.98368	17024.2875
467.08789	16589.8875
471.18916	16080.1875
475.2875	15605.3875
479.38291	15220.7875
483.4754	15090.2875
487.56496	14938.3875
491.6516	14726.0875
495.73531	14450.0875
499.81612	14330.0875
503.89401	14430.0875
507.96899	14519.3875
512.04106	14363.3875
516.11023	14038.2875
520.1765	13677.7875
524.23987	13521.8875
528.30034	13408.7875
532.35792	13334.7875
536.41261	13096.4875
540.46441	12811.9875
544.51333	12704.7875
548.55936	12857.1875
552.60252	13324.2875
556.64279	13984.5875
560.6802	14549.6875
564.71473	14735.2875
568.7464	14954.4875
572.7752	15695.8875
576.80114	16720.1875
580.82422	17899.4875
584.84444	19547.9875
588.86181	22057.3875
592.87633	24682.3875
596.888	25130.3875
600.89682	22460.7875
604.9028	19604.8875
608.90594	18862.5875
612.90624	19157.0875
616.90371	17572.0875
620.89834	14498.7875
624.89015	13060.7875
628.87913	13008.5875
632.86528	13260.0875
636.84862	13155.3875
640.82913	12773.7875
644.80683	12287.5875
648.78172	12133.7875
652.75379	12146.9875
656.72306	12291.0875
660.68952	12427.4875
664.65319	12262.2875
668.61405	11952.3875
672.57211	11917.3875
676.52738	12032.3875
680.47986	12092.8875
684.42955	11906.8875
688.37646	11741.7875
692.32058	11830.0875
696.26192	12099.8875
700.20048	12411.7875
704.13626	12643.6875
708.06928	12801.9875
711.99952	12881.6875
715.927	12938.9875
719.85171	12980.3875
723.77365	12783.6875
727.69284	12404.3875
731.60928	12094.5875
735.52295	11995.2875
739.43388	12081.5875
743.34206	12190.1875
747.24749	12319.1875
751.15017	12601.7875
755.05012	12974.8875
758.94733	13528.3875
762.8418	14431.5875
766.73354	15728.4875
770.62254	16839.8875
774.50882	16689.8875
778.39237	15418.4875
782.27321	14114.4875
786.15132	13109.8875
790.02671	12467.4875
793.89938	12132.0875
797.76935	11968.5875
801.6366	11909.9875
805.50115	11877.8875
809.36299	11809.6875
813.22213	11695.9875
817.07857	11566.0875
820.93231	11388.5875
824.78336	11266.4875
828.63172	11117.4875
832.47738	11038.8875
836.32036	11030.6875
840.16066	11065.6875
843.99827	11079.8875
847.8332	11047.9875
851.66546	11070.4875
855.49504	11125.7875
859.32195	11071.3875
863.1462	11025.9875
866.96777	10924.1875
870.78668	10875.0875
874.60293	10888.5875
878.41652	10885.3875
882.22745	10944.1875
886.03573	10982.0875
889.84136	10980.5875
893.64433	10907.2875
897.44466	10901.0875
901.24235	10878.9875
905.0374	10817.7875
908.8298	10746.0875
912.61957	10763.3875
916.40671	10927.7875
920.19121	11221.0875
923.97308	11564.8875
927.75233	11673.7875
931.52895	11432.2875
935.30295	10976.6875
939.07433	10533.3875
942.84309	10243.2875
946.60924	10101.4875
950.37278	10067.7875
954.13371	10095.6875
957.89203	10145.7875
961.64774	10116.3875
965.40086	10140.8875
969.15137	10122.7875
972.89929	10000.8875
976.64461	9861.0875
980.38733	9798.4875
984.12747	9769.4875
987.86502	9796.3875
991.59999	9862.6875
995.33237	10003.0875
999.06217	10216.7875
1002.78939	10541.9875
1006.51404	10934.4875
1010.23611	11366.8875
1013.95561	11635.6875
1017.67255	11834.5875
1021.38692	11662.1875
1025.09872	11220.0875
1028.80796	10783.9875
1032.51465	10622.5875
1036.21877	10647.6875
1039.92035	10713.8875
1043.61937	10776.5875
1047.31584	10849.8875
1051.00976	10861.1875
1054.70114	10934.2875
1058.38998	10976.7875
1062.07627	11098.7875
1065.76003	11232.6875
1069.44126	11512.3875
1073.11995	11924.7875
1076.79611	12220.6875
1080.46974	12356.7875
1084.14085	12474.0875
1087.80943	12683.9875
1091.47549	12956.7875
1095.13903	13030.2875
1098.80005	12702.6875
1102.45857	12083.7875
1106.11456	11627.8875
1109.76805	11416.8875
1113.41903	11453.9875
1117.06751	11585.3875
1120.71348	11777.5875
1124.35696	11978.8875
1127.99793	12173.8875
1131.63641	12344.1875
1135.2724	12417.4875
1138.90589	12458.7875
1142.5369	12643.7875
1146.16542	12920.9875
1149.79145	13211.7875
1153.415	13448.4875
1157.03607	13819.5875
1160.65467	14571.3875
1164.27079	15850.3875
1167.88443	17313.2875
1171.49561	18798.0875
1175.10432	20523.6875
1178.71056	22647.2875
1182.31434	24497.9875
1185.91565	24914.8875
1189.51451	23923.6875
1193.11091	22606.7875
1196.70485	21428.9875
1200.29634	20372.4875
1203.88538	19697.4875
1207.47197	19519.2875
1211.05612	19476.1875
1214.63782	19078.2875
1218.21708	18327.2875
1221.79391	17638.4875
1225.36829	17364.2875
1228.94024	17230.6875
1232.50976	16839.5875
1236.07685	16166.7875
1239.6415	15573.2875
1243.20374	15340.0875
1246.76355	15356.2875
1250.32093	15615.5875
1253.8759	16059.4875
1257.42845	16734.3875
1260.97859	17473.1875
1264.52631	18219.8875
1268.07163	18957.7875
1271.61453	19659.3875
1275.15503	20490.6875
1278.69312	21590.9875
1282.22882	23050.5875
1285.76211	24949.9875
1289.29301	27013.5875
1292.82151	29201.3875
1296.34761	31698.1875
1299.87133	34516.6875
1303.39266	37241.0875
1306.9116	39356.1875
1310.42815	40678.5875
1313.94233	41215.8875
1317.45412	40445.5875
1320.96354	38736.0875
1324.47058	37262.8875
1327.97525	36263.3875
1331.47754	35545.8875
1334.97747	34692.0875
1338.47502	33597.3875
1341.97022	32201.5875
1345.46305	30901.5875
1348.95352	30201.0875
1352.44163	30590.1875
1355.92738	32444.9875
1359.41078	35422.7875
1362.89183	37958.8875
1366.37053	38572.4875
1369.84688	35891.5875
1373.32088	30643.3875
1376.79254	26449.3875
1380.26186	24985.9875
1383.72883	25140.5875
1387.19347	25146.6875
1390.65578	24629.6875
1394.11575	24593.4875
1397.57339	25250.1875
1401.0287	26198.4875
1404.48168	26823.8875
1407.93234	26686.0875
1411.38068	25732.0875
1414.82669	24435.8875
1418.27039	23010.9875
1421.71177	21618.4875
1425.15083	20411.4875
1428.58758	19828.4875
1432.02203	20115.7875
1435.45416	21058.5875
1438.88399	22010.4875
1442.31151	22582.5875
1445.73673	22942.2875
1449.15965	23112.3875
1452.58027	22969.6875
1455.9986	22595.1875
1459.41463	22480.0875
1462.82837	22748.1875
1466.23982	23434.4875
1469.64898	24204.6875
1473.05586	24745.2875
1476.46045	24943.3875
1479.86276	24945.4875
1483.26279	24773.8875
1486.66054	24749.8875
1490.05602	24968.6875
1493.44922	25365.1875
1496.84016	25596.8875
1500.22882	25616.6875
1503.61521	25625.1875
1506.99934	25730.5875
1510.38121	25841.5875
1513.76081	25751.8875
1517.13816	25517.3875
1520.51324	25340.2875
1523.88607	25557.3875
1527.25665	26116.3875
1530.62498	26618.0875
1533.99105	26554.2875
1537.35488	25838.5875
1540.71647	24676.1875
1544.07581	23289.6875
1547.4329	21852.8875
1550.78776	20650.4875
1554.14038	19785.7875
1557.49077	19258.8875
1560.83892	18968.5875
1564.18484	18957.9875
1567.52853	19052.9875
1570.86999	19395.0875
1574.20922	20041.4875
1577.54624	20711.1875
1580.88103	21040.7875
1584.2136	21590.1875
1587.54395	22871.5875
1590.87208	25080.9875
1594.19801	27671.9875
1597.52172	30124.6875
1600.84321	30839.5875
1604.16251	28908.4875
1607.47959	25232.0875
1610.79447	21345.7875
1614.10715	18224.5875
1617.41763	16055.7875
1620.7259	14770.8875
1624.03199	14212.4875
1627.33587	14299.4875
1630.63757	15082.4875
1633.93707	16697.5875
1637.23439	19669.7875
1640.52951	24502.1875
1643.82246	30885.0875
1647.11321	36498.5875
1650.40179	37888.8875
1653.68819	33923.4875
1656.97241	27209.7875
1660.25446	21050.9875
1663.53433	16640.8875
1666.81203	13949.5875
1670.08756	12346.6875
1673.36092	11432.5875
1676.63211	10816.9875
1679.90115	10415.1875
1683.16801	10119.0875
1686.43272	9909.4875
1689.69527	9721.8875
1692.95567	9595.9875
1696.2139	9524.2875
1699.46999	9434.7875
1702.72392	9371.8875
1705.97571	9308.5875
1709.22535	9240.0875
1712.47284	9208.1875
1715.71819	9186.6875
1718.96139	9139.6875
1722.20246	9059.6875
1725.44139	8998.9875
1728.67818	8904.2875
1731.91284	8829.1875
1735.14537	8737.5875
1738.37576	8664.5875
1741.60403	8612.2875
1744.83017	8594.9875
1748.05418	8560.3875
1751.27607	8552.2875
1754.49584	8523.0875
1757.71349	8546.4875
1760.92903	8536.7875
1764.14244	8510.9875
1767.35375	8475.7875
1770.56294	8429.2875
1773.77002	8391.1875
1776.97499	8349.8875
1780.17785	8290.4875
1783.37861	8285.2875
1786.57727	8268.1875
1789.77382	8209.6875
1792.96828	8174.8875
1796.16064	8122.0875
1799.3509	8112.2875
1802.53907	8094.8875
1805.72514	8033.2875
1808.90913	8019.0875
1812.09102	7986.4875
1815.27083	7961.5875
1818.44856	7959.8875
1821.6242	7926.6875
1824.79776	7942.3875
1827.96924	7927.1875
1831.13864	7891.3875
1834.30597	7925.8875
1837.47122	7920.1875
1840.6344	7913.5875
1843.7955	7909.2875
1846.95454	7907.5875
1850.11151	7888.8875
1853.26642	7882.4875
1856.41926	7876.1875
1859.57004	7913.0875
1862.71876	7871.8875
1865.86542	7863.1875
1869.01003	7830.4875
1872.15258	7849.5875
1875.29308	7825.2875
1878.43152	7818.9875
1881.56792	7801.3875
1884.70227	7784.5875
1887.83457	7804.3875
1890.96482	7795.6875
1894.09304	7765.0875
1897.21921	7774.8875
1900.34335	7748.9875
1903.46544	7746.5875
1906.58551	7704.7875
1909.70353	7698.5875
1912.81953	7690.0875
1915.93349	7641.4875
1919.04543	7613.9875
1922.15534	7604.6875
1925.26322	7589.0875
1928.36908	7548.6875
1931.47292	7491.5875
1934.57473	7503.3875
1937.67453	7436.0875
1940.77232	7414.3875
1943.86808	7411.9875
1946.96184	7395.3875
1950.05358	7373.4875
1953.14331	7355.0875
1956.23103	7328.5875
1959.31675	7314.7875
1962.40046	7282.2875
1965.48217	7252.1875
1968.56188	7201.8875
1971.63959	7181.8875
1974.7153	7166.7875
1977.78901	7131.6875
1980.86073	7107.7875
1983.93046	7086.0875
1986.99819	7045.3875
1990.06394	7042.6875
1993.1277	7010.3875
1996.18947	6989.2875
1999.24925	6978.0875
2002.30706	6960.3875
2005.36288	6938.6875
2008.41672	6909.2875
2011.46859	6873.4875
2014.51848	6843.0875
2017.56639	6827.0875
2020.61233	6825.2875
2023.6563	6816.5875
2026.6983	6787.3875
2029.73833	6777.4875
2032.7764	6748.2875
2035.8125	6731.1875
2038.84664	6724.7875
2041.87881	6702.0875
2044.90903	6687.6875
2047.93729	6675.7875
2050.96359	6679.3875
2053.98794	6682.9875
2057.01034	6666.5875
2060.03078	6673.6875
2063.04927	6660.1875
2066.06582	6642.5875
2069.08042	6637.2875
2072.09307	6634.1875
2075.10378	6598.8875
2078.11255	6642.4875
2081.11938	6619.1875
2084.12426	6609.5875
2087.12722	6620.9875
2090.12824	6603.5875
2093.12732	6612.1875
2096.12447	6609.6875
2099.11969	6610.4875
2102.11299	6604.4875
2105.10435	6597.7875
2108.09379	6615.6875
2111.08131	6594.3875
2114.0669	6594.5875
2117.05057	6587.6875
2120.03233	6596.9875
2123.01216	6614.5875
2125.99008	6593.5875
2128.96609	6596.9875
2131.94018	6587.4875
2134.91236	6580.8875
2137.88263	6566.5875
2140.851	6543.4875
2143.81746	6556.2875
2146.78201	6557.6875
2149.74466	6535.0875
2152.7054	6516.7875
2155.66425	6525.3875
2158.6212	6514.9875
2161.57625	6508.7875
2164.52941	6510.8875
2167.48067	6501.1875
2170.43004	6504.8875
2173.37752	6485.3875
2176.32311	6510.0875
2179.26681	6509.1875
2182.20863	6499.3875
2185.14856	6511.4875
2188.08661	6497.5875
2191.02278	6493.3875
2193.95707	6497.0875
2196.88948	6474.5875
2199.82001	6476.3875
2202.74867	6442.3875
2205.67545	6447.3875
2208.60037	6413.5875
2211.52341	6402.9875
2214.44458	6386.1875
2217.36388	6377.5875
2220.28132	6358.5875
2223.1969	6364.7875
2226.11061	6336.9875
2229.02246	6342.5875
2231.93245	6351.0875
2234.84058	6350.9875
2237.74686	6374.9875
2240.65128	6334.9875
2243.55385	6333.8875
2246.45456	6321.9875
2249.35343	6285.1875
2252.25044	6262.7875
2255.14561	6239.5875
2258.03893	6218.1875
2260.93041	6207.7875
2263.82004	6180.9875
2266.70783	6150.4875
2269.59378	6132.3875
2272.4779	6123.6875
2275.36017	6104.8875
2278.24061	6103.8875
2281.11922	6072.7875
2283.996	6046.4875
2286.87094	6039.7875
2289.74405	6023.2875
2292.61534	6024.5875
2295.4848	6017.0875
2298.35243	6023.4875
2301.21824	6019.9875
2304.08223	6002.0875
2306.94439	6028.6875
2309.80474	6000.1875
2312.66327	5987.7875
2315.51999	5987.2875
2318.37489	5960.9875
2321.22797	5957.6875
2324.07925	5947.4875
2326.92871	5938.4875
2329.77637	5959.1875
2332.62222	5947.4875
2335.46626	5936.4875
2338.3085	5912.2875
2341.14893	5918.3875
2343.98756	5903.6875
2346.8244	5923.6875
2349.65943	5926.4875
2352.49267	5924.1875
2355.32411	5918.9875
2358.15376	5925.9875
2360.98161	5922.0875
2363.80768	5917.8875
2366.63195	5925.3875
2369.45444	5925.9875
2372.27514	5898.4875
2375.09405	5892.2875
2377.91118	5892.1875
2380.72652	5864.8875
2383.54009	5848.0875
2386.35187	5833.1875
2389.16188	5815.0875
2391.97011	5799.4875
2394.77657	5782.9875
2397.58125	5794.5875
2400.38416	5786.0875
2403.18529	5765.5875
2405.98466	5760.2875
2408.78226	5781.9875
2411.57809	5748.7875
2414.37216	5759.3875
2417.16446	5724.8875
2419.955	5724.7875
2422.74378	5721.3875
2425.5308	5694.1875
2428.31606	5698.3875
2431.09956	5711.5875
2433.88131	5700.1875
2436.6613	5709.8875
2439.43954	5696.0875
2442.21603	5688.1875
2444.99077	5684.1875
2447.76377	5705.7875
2450.53501	5686.2875
2453.30451	5695.7875
2456.07226	5690.5875
2458.83827	5685.4875
2461.60254	5682.7875
2464.36507	5704.9875
2467.12586	5669.1875
2469.88492	5699.4875
2472.64224	5675.0875
2475.39782	5682.1875
2478.15167	5689.6875
2480.90379	5686.5875
2483.65417	5703.9875
2486.40283	5692.7875
2489.14976	5706.1875
2491.89497	5703.6875
2494.63845	5705.6875
2497.3802	5716.9875
2500.12024	5701.6875
2502.85855	5679.5875
2505.59514	5692.9875
2508.33002	5666.0875
2511.06318	5649.0875
2513.79462	5666.7875
2516.52435	5653.5875
2519.25237	5649.8875
2521.97867	5625.5875
2524.70327	5636.2875
2527.42616	5634.9875
2530.14734	5631.7875
2532.86681	5619.8875
2535.58458	5616.0875
2538.30065	5597.2875
2541.01501	5605.2875
2543.72768	5604.4875
2546.43864	5589.4875
2549.14791	5588.9875
2551.85548	5583.5875
2554.56136	5582.5875
2557.26554	5560.2875
2559.96803	5568.1875
2562.66883	5585.2875
2565.36794	5598.4875
2568.06536	5594.5875
2570.7611	5598.1875
2573.45514	5579.2875
2576.14751	5575.1875
2578.83819	5593.3875
2581.52719	5587.2875
2584.21451	5574.8875
2586.90015	5575.0875
2589.58411	5566.4875
2592.2664	5556.3875
2594.94701	5563.1875
2597.62594	5553.9875
2600.30321	5558.5875
2602.9788	5557.9875
2605.65273	5565.9875
2608.32498	5552.4875
2610.99557	5566.9875
2613.66449	5563.6875
2616.33175	5543.6875
2618.99734	5557.0875
2621.66128	5564.8875
2624.32355	5542.4875
2626.98416	5549.7875
2629.64311	5527.5875
2632.30041	5535.1875
2634.95605	5538.4875
2637.61004	5530.7875
2640.26238	5533.5875
2642.91306	5507.9875
2645.56209	5516.8875
2648.20948	5533.9875
2650.85521	5520.9875
2653.4993	5546.6875
2656.14175	5541.5875
2658.78255	5538.5875
2661.42171	5559.7875
2664.05923	5578.0875
2666.6951	5591.3875
2669.32934	5579.6875
2671.96194	5584.1875
2674.59291	5571.2875
2677.22224	5565.0875
2679.84993	5573.0875
2682.476	5565.6875
2685.10043	5554.6875
2687.72324	5547.7875
2690.34441	5543.5875
2692.96396	5551.7875
2695.58188	5555.4875
2698.19818	5541.0875
2700.81285	5564.2875
2703.4259	5571.6875
2706.03733	5616.8875
2708.64714	5588.3875
2711.25533	5602.0875
2713.86191	5587.9875
2716.46687	5590.5875
2719.07021	5598.9875
2721.67194	5600.9875
2724.27206	5595.2875
2726.87057	5604.4875
2729.46747	5608.7875
2732.06276	5605.7875
2734.65644	5620.3875
2737.24852	5603.0875
2739.83899	5614.2875
2742.42786	5606.7875
2745.01513	5599.1875
2747.60079	5609.0875
2750.18486	5605.5875
2752.76733	5583.7875
2755.3482	5599.3875
2757.92747	5597.9875
2760.50515	5593.3875
2763.08123	5595.0875
2765.65573	5595.6875
2768.22863	5623.3875
2770.79994	5617.0875
2773.36967	5599.1875
2775.9378	5606.4875
2778.50435	5597.8875
2781.06932	5588.7875
2783.6327	5609.2875
2786.1945	5613.8875
2788.75471	5608.9875
2791.31335	5601.8875
2793.87041	5585.9875
2796.42589	5593.5875
2798.97979	5585.0875
2801.53212	5586.5875
2804.08288	5577.6875
2806.63206	5582.9875
2809.17967	5542.9875
2811.72571	5555.2875
2814.27018	5550.4875
2816.81308	5535.5875
2819.35442	5542.8875
2821.89419	5538.4875
2824.43239	5531.2875
2826.96904	5543.9875
2829.50412	5538.4875
2832.03763	5506.8875
2834.56959	5505.9875
2837.1	5534.6875
2839.62884	5541.3875
2842.15613	5516.6875
2844.68186	5557.8875
2847.20604	5551.5875
2849.72867	5586.8875
2852.24974	5562.5875
2854.76927	5587.5875
2857.28724	5563.1875
2859.80367	5558.8875
2862.31855	5533.8875
2864.83189	5538.5875
2867.34368	5542.3875
2869.85393	5503.2875
2872.36264	5495.0875
2874.8698	5504.5875
2877.37543	5503.0875
2879.87952	5509.8875
2882.38207	5509.0875
2884.88308	5505.9875
2887.38256	5508.4875
2889.88051	5506.8875
2892.37692	5516.9875
2894.8718	5522.1875
2897.36515	5537.5875
2899.85698	5546.5875
2902.34727	5544.6875
2904.83604	5554.3875
2907.32328	5557.6875
2909.809	5554.3875
2912.29319	5564.9875
2914.77587	5564.0875
2917.25702	5563.8875
2919.73665	5575.0875
2922.21476	5574.7875
2924.69136	5560.6875
2927.16644	5578.3875
2929.64	5561.7875
2932.11205	5572.4875
2934.58258	5549.7875
2937.05161	5550.1875
2939.51912	5561.9875
2941.98513	5541.4875
2944.44962	5530.8875
2946.91261	5511.4875
2949.37409	5517.1875
2951.83407	5494.8875
2954.29254	5508.9875
2956.74951	5497.1875
2959.20498	5471.6875
2961.65895	5450.3875
2964.11142	5438.7875
2966.56239	5408.4875
2969.01186	5397.9875
2971.45984	5384.0875
2973.90632	5354.9875
2976.35131	5323.9875
2978.7948	5300.0875
2981.23681	5293.9875
2983.67732	5266.9875
2986.11635	5249.6875
2988.55388	5243.5875
2990.98993	5203.7875
2993.4245	5199.4875
2995.85758	5192.8875
2998.28917	5166.8875
3000.71928	5161.1875
3003.14791	5164.7875
3005.57506	5148.1875
3008.00073	5136.8875
3010.42493	5137.1875
3012.84764	5111.6875
3015.26888	5109.4875
3017.68865	5090.3875
3020.10694	5072.4875
3022.52376	5067.7875
3024.9391	5056.9875
3027.35298	5033.7875
3029.76539	5033.0875
3032.17632	5021.6875
3034.5858	5018.4875
3036.9938	5000.6875
3039.40034	4999.0875
3041.80542	5007.3875
3044.20903	4986.5875
3046.61118	5008.5875
3049.01187	4970.8875
3051.4111	4984.6875
3053.80888	4959.6875
3056.20519	4944.2875
3058.60005	4941.9875
3060.99345	4944.0875
3063.3854	4908.0875
3065.7759	4906.5875
3068.16494	4878.3875
3070.55254	4860.4875
3072.93868	4851.1875
3075.32338	4837.5875
3077.70662	4830.3875
3080.08842	4801.9875
