Data from AgNPs_FTO_APTES_UA_5um_CRN_0.1mM_R6G_10uM_NaF_0.1M_Addition_RamanShift__23__13-23-49-108.txt Node

Date: Tue Dec 21 13:23:49 GMT 2021
User: TCL
Spectrometer: QEP01345
Trigger mode: 4
Integration Time (sec): 7.000000E0
Scans to average: 10
Electric dark correction enabled: true
Nonlinearity correction enabled: false
Boxcar width: 0
XAxis mode: Raman Shifts
Number of Pixels in Spectrum: 1044
>>>>>Begin Spectral Data<<<<<
46.04893	0.175
50.45542	-0.825
54.85868	-1.525
59.25871	-0.125
63.6555	50.775
68.04907	58.075
72.43941	58.375
76.82654	59.475
81.21044	66.575
85.59113	62.875
89.96862	67.375
94.34289	71.675
98.71396	71.375
103.08183	77.275
107.4465	79.075
111.80798	80.975
116.16626	80.175
120.52136	84.975
124.87327	85.475
129.222	88.475
133.56755	97.375
137.90993	104.175
142.24913	115.775
146.58517	125.475
150.91804	148.875
155.24774	170.475
159.57429	212.275
163.89768	274.975
168.21792	365.075
172.53501	491.375
176.84895	682.775
181.15975	954.675
185.46741	1332.375
189.77193	1843.175
194.07331	2475.675
198.37157	3184.675
202.6667	3963.975
206.9587	4723.975
211.24758	5486.475
215.53334	6252.875
219.81599	7053.975
224.09553	7972.075
228.37195	8937.875
232.64527	10032.375
236.91549	11186.175
241.18261	12338.575
245.44663	13418.275
249.70755	14318.975
253.96539	15115.075
258.22014	15775.575
262.4718	16254.475
266.72039	16648.975
270.96589	16842.575
275.20832	16861.975
279.44768	16748.575
283.68397	16648.775
287.91719	16504.775
292.14735	16501.375
296.37445	16537.275
300.59849	16613.475
304.81948	16715.875
309.03742	16680.175
313.25231	16448.475
317.46415	15971.075
321.67296	15410.575
325.87872	14941.375
330.08145	14726.575
334.28114	14695.975
338.47781	14858.275
342.67145	15039.275
346.86207	15347.575
351.04966	15748.175
355.23424	16205.275
359.4158	16499.375
363.59435	16807.975
367.76989	16910.575
371.94243	17016.675
376.11196	17140.775
380.27849	17166.875
384.44203	17264.175
388.60257	17389.175
392.76012	17508.075
396.91468	17728.775
401.06626	18021.375
405.21485	18280.675
409.36047	18249.975
413.50311	17934.675
417.64277	17577.875
421.77947	17485.375
425.9132	17473.975
430.04396	17615.675
434.17176	17717.975
438.2966	17957.175
442.41849	18337.275
446.53742	18960.275
450.6534	19586.675
454.76644	20081.375
458.87653	20213.175
462.98368	20091.675
467.08789	19793.075
471.18916	19518.575
475.2875	19301.375
479.38291	19314.675
483.4754	19162.675
487.56496	18948.475
491.6516	18586.575
495.73531	18227.875
499.81612	18069.675
503.89401	18119.575
507.96899	18107.075
512.04106	18039.275
516.11023	17885.075
520.1765	17779.875
524.23987	17658.575
528.30034	17603.075
532.35792	17545.975
536.41261	17400.375
540.46441	17182.175
544.51333	17034.775
548.55936	17076.475
552.60252	17347.475
556.64279	17690.375
560.6802	18063.875
564.71473	18260.975
568.7464	18708.075
572.7752	19123.075
576.80114	19288.275
580.82422	19313.575
584.84444	19480.475
588.86181	19763.875
592.87633	20283.575
596.888	20622.675
600.89682	20729.275
604.9028	21251.475
608.90594	23168.875
612.90624	25414.775
616.90371	23914.575
620.89834	19619.275
624.89015	17609.075
628.87913	17402.975
632.86528	17560.675
636.84862	17671.375
640.82913	17470.975
644.80683	16901.675
648.78172	16446.275
652.75379	16292.675
656.72306	16468.075
660.68952	16765.975
664.65319	16791.975
668.61405	16595.375
672.57211	16632.675
676.52738	16725.975
680.47986	16731.275
684.42955	16594.475
688.37646	16408.475
692.32058	16342.275
696.26192	16384.375
700.20048	16523.075
704.13626	16636.975
708.06928	16620.475
711.99952	16476.175
715.927	16340.875
719.85171	16348.575
723.77365	16360.475
727.69284	16280.475
731.60928	16230.275
735.52295	16227.575
739.43388	16240.875
743.34206	16302.675
747.24749	16385.675
751.15017	16401.675
755.05012	16603.175
758.94733	17071.975
762.8418	18009.375
766.73354	19581.975
770.62254	21231.275
774.50882	21940.875
778.39237	21078.475
782.27321	19240.575
786.15132	17564.575
790.02671	16562.675
793.89938	16017.675
797.76935	15802.175
801.6366	15733.675
805.50115	15739.375
809.36299	15685.175
813.22213	15548.875
817.07857	15519.675
820.93231	15496.775
824.78336	15389.675
828.63172	15336.275
832.47738	15356.275
836.32036	15308.575
840.16066	15301.575
843.99827	15279.775
847.8332	15239.975
851.66546	15202.175
855.49504	15188.775
859.32195	15202.075
863.1462	15226.775
866.96777	15221.875
870.78668	15186.075
874.60293	15186.075
878.41652	15175.875
882.22745	15169.975
886.03573	15229.475
889.84136	15224.575
893.64433	15141.775
897.44466	15032.375
901.24235	14923.075
905.0374	14816.175
908.8298	14744.175
912.61957	14701.075
916.40671	14838.475
920.19121	15004.075
923.97308	15204.375
927.75233	15277.575
931.52895	15246.275
935.30295	15082.575
939.07433	14802.775
942.84309	14546.375
946.60924	14400.175
950.37278	14348.775
954.13371	14287.475
957.89203	14231.175
961.64774	14165.875
965.40086	14113.775
969.15137	14011.475
972.89929	13879.475
976.64461	13820.475
980.38733	13835.375
984.12747	13839.875
987.86502	13927.475
991.59999	14072.175
995.33237	14312.075
999.06217	14746.875
1002.78939	15274.175
1006.51404	15684.675
1010.23611	15993.475
1013.95561	16140.275
1017.67255	16179.175
1021.38692	15944.975
1025.09872	15650.275
1028.80796	15523.375
1032.51465	15731.775
1036.21877	16038.875
1039.92035	16113.475
1043.61937	16085.775
1047.31584	15822.175
1051.00976	15528.975
1054.70114	15360.075
1058.38998	15317.975
1062.07627	15320.475
1065.76003	15425.275
1069.44126	15507.275
1073.11995	15683.575
1076.79611	15809.075
1080.46974	15890.675
1084.14085	15951.675
1087.80943	16102.175
1091.47549	16278.875
1095.13903	16312.975
1098.80005	16076.575
1102.45857	15763.975
1106.11456	15494.275
1109.76805	15398.775
1113.41903	15472.575
1117.06751	15675.775
1120.71348	15975.775
1124.35696	16289.775
1127.99793	16611.375
1131.63641	16840.875
1135.2724	16719.175
1138.90589	16502.575
1142.5369	16311.475
1146.16542	16178.875
1149.79145	16118.875
1153.415	16161.175
1157.03607	16339.275
1160.65467	16685.775
1164.27079	17332.275
1167.88443	18267.575
1171.49561	19453.875
1175.10432	21113.175
1178.71056	23152.675
1182.31434	25074.675
1185.91565	26041.475
1189.51451	25948.475
1193.11091	25198.675
1196.70485	24057.175
1200.29634	22894.775
1203.88538	21893.075
1207.47197	21117.075
1211.05612	20519.375
1214.63782	20030.875
1218.21708	19827.575
1221.79391	19710.675
1225.36829	19633.175
1228.94024	19387.575
1232.50976	18987.075
1236.07685	18609.175
1239.6415	18436.875
1243.20374	18418.075
1246.76355	18528.875
1250.32093	18740.375
1253.8759	19210.175
1257.42845	19810.275
1260.97859	20414.675
1264.52631	20896.475
1268.07163	21445.475
1271.61453	22064.175
1275.15503	22706.775
1278.69312	23380.475
1282.22882	23986.275
1285.76211	24681.675
1289.29301	25516.175
1292.82151	26527.075
1296.34761	27860.675
1299.87133	29492.575
1303.39266	31398.275
1306.9116	33508.075
1310.42815	35590.975
1313.94233	37065.575
1317.45412	37161.875
1320.96354	36396.275
1324.47058	35388.075
1327.97525	34407.975
1331.47754	33659.575
1334.97747	33373.375
1338.47502	33336.575
1341.97022	33323.375
1345.46305	33028.875
1348.95352	32610.175
1352.44163	32615.275
1355.92738	33363.075
1359.41078	34826.875
1362.89183	36173.975
1366.37053	35637.875
1369.84688	32644.975
1373.32088	28982.475
1376.79254	26366.175
1380.26186	25158.875
1383.72883	24746.575
1387.19347	24641.075
1390.65578	24516.375
1394.11575	24737.875
1397.57339	25322.775
1401.0287	26185.375
1404.48168	27049.875
1407.93234	27494.275
1411.38068	27416.275
1414.82669	26684.375
1418.27039	25445.775
1421.71177	24085.575
1425.15083	22865.075
1428.58758	22154.575
1432.02203	22020.575
1435.45416	22253.975
1438.88399	22731.675
1442.31151	23211.775
1445.73673	23709.175
1449.15965	24199.375
1452.58027	24623.275
1455.9986	24845.075
1459.41463	25046.875
1462.82837	25528.675
1466.23982	26120.075
1469.64898	26669.975
1473.05586	26875.275
1476.46045	26813.075
1479.86276	26657.875
1483.26279	26390.075
1486.66054	26181.775
1490.05602	26251.875
1493.44922	26285.275
1496.84016	26250.275
1500.22882	26403.375
1503.61521	26965.075
1506.99934	27884.475
1510.38121	28813.775
1513.76081	29077.275
1517.13816	28321.675
1520.51324	26933.675
1523.88607	25619.375
1527.25665	24750.575
1530.62498	24387.775
1533.99105	24246.275
1537.35488	24218.275
1540.71647	24020.175
1544.07581	23749.275
1547.4329	23351.175
1550.78776	22927.275
1554.14038	22658.275
1557.49077	22528.875
1560.83892	22565.875
1564.18484	22684.075
1567.52853	22710.575
1570.86999	22791.875
1574.20922	22982.975
1577.54624	23134.775
1580.88103	23015.275
1584.2136	22985.575
1587.54395	23471.275
1590.87208	24646.775
1594.19801	26411.875
1597.52172	28286.075
1600.84321	29232.975
1604.16251	28328.875
1607.47959	26102.475
1610.79447	23470.575
1614.10715	21096.175
1617.41763	19227.675
1620.7259	17997.775
1624.03199	17413.275
1627.33587	17310.875
1630.63757	17776.675
1633.93707	18790.675
1637.23439	20523.575
1640.52951	22980.975
1643.82246	25993.375
1647.11321	28630.775
1650.40179	29609.675
1653.68819	28028.175
1656.97241	24620.775
1660.25446	20953.075
1663.53433	18110.375
1666.81203	16256.875
1670.08756	15077.775
1673.36092	14358.875
1676.63211	13860.075
1679.90115	13529.475
1683.16801	13281.875
1686.43272	13079.975
1689.69527	12906.475
1692.95567	12816.675
1696.2139	12754.075
1699.46999	12701.675
1702.72392	12646.875
1705.97571	12606.475
1709.22535	12548.875
1712.47284	12503.375
1715.71819	12469.975
1718.96139	12442.875
1722.20246	12399.275
1725.44139	12317.575
1728.67818	12259.875
1731.91284	12209.775
1735.14537	12144.175
1738.37576	12117.375
1741.60403	12055.375
1744.83017	12032.175
1748.05418	12030.975
1751.27607	12028.375
1754.49584	11985.675
1757.71349	12007.175
1760.92903	11928.275
1764.14244	11903.975
1767.35375	11862.375
1770.56294	11814.675
1773.77002	11801.975
1776.97499	11748.475
1780.17785	11742.775
1783.37861	11700.775
1786.57727	11667.275
1789.77382	11631.075
1792.96828	11594.075
1796.16064	11575.675
1799.3509	11567.875
1802.53907	11537.575
1805.72514	11516.975
1808.90913	11476.775
1812.09102	11446.775
1815.27083	11419.375
1818.44856	11393.075
1821.6242	11354.875
1824.79776	11374.675
1827.96924	11334.075
1831.13864	11306.575
1834.30597	11307.875
1837.47122	11311.475
1840.6344	11327.875
1843.7955	11336.175
1846.95454	11285.275
1850.11151	11282.575
1853.26642	11272.775
1856.41926	11271.075
1859.57004	11289.775
1862.71876	11279.075
1865.86542	11258.975
1869.01003	11271.675
1872.15258	11277.675
1875.29308	11282.575
1878.43152	11237.575
1881.56792	11247.175
1884.70227	11250.975
1887.83457	11223.275
1890.96482	11242.075
1894.09304	11216.075
1897.21921	11252.675
1900.34335	11234.775
1903.46544	11251.375
1906.58551	11196.175
1909.70353	11194.675
1912.81953	11174.475
1915.93349	11160.175
1919.04543	11143.875
1922.15534	11112.175
1925.26322	11080.775
1928.36908	11043.675
1931.47292	11015.775
1934.57473	10994.975
1937.67453	10947.675
1940.77232	10907.975
1943.86808	10861.275
1946.96184	10820.475
1950.05358	10784.875
1953.14331	10781.275
1956.23103	10718.175
1959.31675	10663.275
1962.40046	10644.575
1965.48217	10635.575
1968.56188	10593.675
1971.63959	10532.175
1974.7153	10505.375
1977.78901	10471.875
1980.86073	10420.175
1983.93046	10394.675
1986.99819	10371.875
1990.06394	10342.375
1993.1277	10291.575
1996.18947	10270.475
1999.24925	10254.575
2002.30706	10206.575
2005.36288	10192.875
2008.41672	10154.275
2011.46859	10137.175
2014.51848	10073.475
2017.56639	10057.575
2020.61233	10034.975
2023.6563	10018.875
2026.6983	10012.575
2029.73833	9974.875
2032.7764	9963.675
2035.8125	9936.175
2038.84664	9922.375
2041.87881	9902.875
2044.90903	9883.075
2047.93729	9864.775
2050.96359	9862.475
2053.98794	9842.275
2057.01034	9832.075
2060.03078	9820.275
2063.04927	9787.375
2066.06582	9794.275
2069.08042	9768.375
2072.09307	9752.175
2075.10378	9728.575
2078.11255	9757.475
2081.11938	9745.975
2084.12426	9731.675
2087.12722	9688.375
2090.12824	9710.175
2093.12732	9699.275
2096.12447	9701.175
2099.11969	9680.975
2102.11299	9689.375
2105.10435	9699.075
2108.09379	9721.475
2111.08131	9707.975
2114.0669	9695.075
2117.05057	9685.475
2120.03233	9713.375
2123.01216	9688.875
2125.99008	9687.675
2128.96609	9727.275
2131.94018	9726.775
2134.91236	9708.675
2137.88263	9707.475
2140.851	9708.175
2143.81746	9710.375
2146.78201	9703.475
2149.74466	9707.675
2152.7054	9704.775
2155.66425	9689.075
2158.6212	9678.875
2161.57625	9690.075
2164.52941	9662.075
2167.48067	9664.075
2170.43004	9664.575
2173.37752	9661.375
2176.32311	9661.175
2179.26681	9636.875
2182.20863	9658.075
2185.14856	9640.575
2188.08661	9653.975
2191.02278	9642.475
2193.95707	9635.075
2196.88948	9635.775
2199.82001	9619.375
2202.74867	9605.775
2205.67545	9615.375
2208.60037	9601.975
2211.52341	9577.775
2214.44458	9584.975
2217.36388	9563.975
2220.28132	9521.075
2223.1969	9520.175
2226.11061	9512.975
2229.02246	9500.875
2231.93245	9467.675
2234.84058	9461.475
2237.74686	9427.575
2240.65128	9433.475
2243.55385	9407.375
2246.45456	9384.575
2249.35343	9369.675
2252.25044	9342.475
2255.14561	9338.575
2258.03893	9343.675
2260.93041	9326.375
2263.82004	9302.775
2266.70783	9239.275
2269.59378	9231.975
2272.4779	9209.275
2275.36017	9190.375
2278.24061	9168.275
2281.11922	9150.075
2283.996	9111.675
2286.87094	9109.575
2289.74405	9082.875
2292.61534	9081.075
2295.4848	9082.175
2298.35243	9076.675
2301.21824	9062.775
2304.08223	9056.375
2306.94439	9072.075
2309.80474	9035.675
2312.66327	9034.975
2315.51999	9030.575
2318.37489	9044.475
2321.22797	9031.075
2324.07925	9029.575
2326.92871	9028.175
2329.77637	9018.775
2332.62222	8997.575
2335.46626	8997.575
2338.3085	9013.575
2341.14893	8992.175
2343.98756	8986.775
2346.8244	8984.275
2349.65943	8970.775
2352.49267	8957.275
2355.32411	8964.275
2358.15376	8963.775
2360.98161	8969.175
2363.80768	8955.575
2366.63195	8948.475
2369.45444	8929.575
2372.27514	8929.375
2375.09405	8902.175
2377.91118	8875.675
2380.72652	8854.275
2383.54009	8833.075
2386.35187	8803.075
2389.16188	8775.975
2391.97011	8766.475
2394.77657	8755.875
2397.58125	8736.275
2400.38416	8714.975
2403.18529	8710.875
2405.98466	8693.675
2408.78226	8689.275
2411.57809	8667.575
2414.37216	8639.675
2417.16446	8621.675
2419.955	8615.575
2422.74378	8620.875
2425.5308	8596.075
2428.31606	8596.375
2431.09956	8598.875
2433.88131	8565.775
2436.6613	8578.275
2439.43954	8558.075
2442.21603	8550.075
2444.99077	8528.675
2447.76377	8554.075
2450.53501	8539.975
2453.30451	8538.675
2456.07226	8507.975
2458.83827	8529.275
2461.60254	8524.575
2464.36507	8540.575
2467.12586	8521.275
2469.88492	8511.175
2472.64224	8512.075
2475.39782	8524.975
2478.15167	8513.775
2480.90379	8545.175
2483.65417	8535.675
2486.40283	8526.775
2489.14976	8517.275
2491.89497	8537.675
2494.63845	8554.975
2497.3802	8560.775
2500.12024	8556.075
2502.85855	8529.775
2505.59514	8516.275
2508.33002	8487.675
2511.06318	8493.075
2513.79462	8489.575
2516.52435	8482.575
2519.25237	8464.275
2521.97867	8445.875
2524.70327	8455.075
2527.42616	8465.875
2530.14734	8438.575
2532.86681	8420.775
2535.58458	8429.475
2538.30065	8410.775
2541.01501	8393.175
2543.72768	8365.475
2546.43864	8391.075
2549.14791	8366.775
2551.85548	8368.175
2554.56136	8347.075
2557.26554	8339.875
2559.96803	8332.075
2562.66883	8329.975
2565.36794	8319.275
2568.06536	8313.075
2570.7611	8290.475
2573.45514	8308.375
2576.14751	8313.875
2578.83819	8307.075
2581.52719	8294.375
2584.21451	8299.275
2586.90015	8290.875
2589.58411	8280.775
2592.2664	8279.975
2594.94701	8259.075
2597.62594	8277.175
2600.30321	8246.075
2602.9788	8241.775
2605.65273	8244.075
2608.32498	8238.075
2610.99557	8239.275
2613.66449	8237.175
2616.33175	8229.475
2618.99734	8238.775
2621.66128	8232.275
2624.32355	8217.975
2626.98416	8231.875
2629.64311	8254.175
2632.30041	8236.375
2634.95605	8246.175
2637.61004	8213.875
2640.26238	8193.275
2642.91306	8210.475
2645.56209	8185.575
2648.20948	8193.675
2650.85521	8179.775
2653.4993	8180.675
2656.14175	8180.775
2658.78255	8184.475
2661.42171	8182.675
2664.05923	8194.975
2666.6951	8190.175
2669.32934	8182.375
2671.96194	8201.875
2674.59291	8224.875
2677.22224	8196.275
2679.84993	8187.675
2682.476	8165.175
2685.10043	8183.075
2687.72324	8161.775
2690.34441	8169.475
2692.96396	8151.275
2695.58188	8156.975
2698.19818	8175.675
2700.81285	8156.275
2703.4259	8176.075
2706.03733	8229.275
2708.64714	8214.975
2711.25533	8198.675
2713.86191	8183.475
2716.46687	8184.875
2719.07021	8173.275
2721.67194	8170.575
2724.27206	8185.675
2726.87057	8199.575
2729.46747	8193.475
2732.06276	8174.875
2734.65644	8180.475
2737.24852	8187.875
2739.83899	8162.075
2742.42786	8189.075
2745.01513	8170.775
2747.60079	8162.375
2750.18486	8159.175
2752.76733	8153.175
2755.3482	8149.175
2757.92747	8164.875
2760.50515	8160.275
2763.08123	8170.075
2765.65573	8153.775
2768.22863	8156.975
2770.79994	8158.575
2773.36967	8151.975
2775.9378	8148.475
2778.50435	8140.375
2781.06932	8150.475
2783.6327	8162.175
2786.1945	8158.775
2788.75471	8113.475
2791.31335	8117.175
2793.87041	8110.175
2796.42589	8083.475
2798.97979	8081.675
2801.53212	8058.075
2804.08288	8065.675
2806.63206	8053.675
2809.17967	8040.275
2811.72571	8011.875
2814.27018	8031.675
2816.81308	8004.375
2819.35442	8016.775
2821.89419	7991.775
2824.43239	7995.575
2826.96904	7993.775
2829.50412	7990.275
2832.03763	7980.775
2834.56959	7988.375
2837.1	7928.175
2839.62884	7959.475
2842.15613	7949.175
2844.68186	7973.375
2847.20604	7966.575
2849.72867	7984.275
2852.24974	7959.075
2854.76927	7939.475
2857.28724	7970.075
2859.80367	7933.075
2862.31855	7915.775
2864.83189	7907.575
2867.34368	7912.575
2869.85393	7907.175
2872.36264	7899.775
2874.8698	7898.575
2877.37543	7903.975
2879.87952	7923.875
2882.38207	7903.775
2884.88308	7907.575
2887.38256	7931.275
2889.88051	7922.275
2892.37692	7919.875
2894.8718	7920.475
2897.36515	7939.575
2899.85698	7956.575
2902.34727	7965.275
2904.83604	7935.775
2907.32328	7991.075
2909.809	7979.375
2912.29319	7986.375
2914.77587	7989.775
2917.25702	8016.975
2919.73665	8013.275
2922.21476	8006.875
2924.69136	7991.875
2927.16644	7989.375
2929.64	7985.775
2932.11205	7962.175
2934.58258	7944.275
2937.05161	7963.875
2939.51912	7975.875
2941.98513	7926.175
2944.44962	7938.775
2946.91261	7894.075
2949.37409	7901.775
2951.83407	7877.175
2954.29254	7879.175
2956.74951	7836.875
2959.20498	7829.675
2961.65895	7810.375
2964.11142	7776.575
2966.56239	7751.175
2969.01186	7753.275
2971.45984	7705.175
2973.90632	7695.675
2976.35131	7654.575
2978.7948	7647.075
2981.23681	7644.475
2983.67732	7608.875
2986.11635	7596.275
2988.55388	7574.175
2990.98993	7547.575
2993.4245	7539.675
2995.85758	7519.075
2998.28917	7489.975
3000.71928	7487.475
3003.14791	7478.575
3005.57506	7489.875
3008.00073	7464.275
3010.42493	7462.375
3012.84764	7419.475
3015.26888	7426.275
3017.68865	7408.975
3020.10694	7367.475
3022.52376	7359.075
3024.9391	7341.375
3027.35298	7346.975
3029.76539	7338.675
3032.17632	7321.775
3034.5858	7293.375
3036.9938	7272.375
3039.40034	7281.675
3041.80542	7266.675
3044.20903	7249.375
3046.61118	7247.075
3049.01187	7209.075
3051.4111	7225.575
3053.80888	7187.275
3056.20519	7204.775
3058.60005	7184.675
3060.99345	7156.775
3063.3854	7131.675
3065.7759	7115.975
3068.16494	7077.875
3070.55254	7058.075
3072.93868	7037.675
3075.32338	7015.875
3077.70662	7000.175
3080.08842	6997.275
3082.46878	6994.175
3084.84769	6946.675
3087.22515	6962.675
3089.60118	6946.775
3091.97576	6951.075
3094.3489	6967.475
3096.72061	6962.275
3099.09087	6971.475
3101.4597	6943.975
3103.82709	6930.575
3106.19305	6914.675
3108.55757	6929.575
3110.92066	6895.975
3113.28232	6888.475
3115.64255	6838.475
3118.00134	6839.675
3120.35871	6815.075
3122.71466	6817.675
3125.06917	6808.875
3127.42226	6784.575
3129.77393	6794.675
3132.12417	6787.375
3134.47299	6801.875
3136.82039	6797.775
3139.16636	6777.175
3141.51092	6765.575
3143.85406	6779.275
3146.19579	6781.875
3148.53609	6774.575
3150.87499	6769.275
3153.21246	6767.075
3155.54853	6788.775
3157.88318	6781.175
3160.21642	6775.275
3162.54826	6758.575
3164.87868	6736.775
3167.2077	6744.475
3169.5353	6756.875
3171.86151	6734.875
3174.18631	6741.575
3176.5097	6742.675
