Data from AgNPs_FTO_APTES_UA_20um_CRN_0.1mM_R6G_10uM_NaF_0.1M_Addition_RamanShift__5__14-22-09-175.txt Node

Date: Tue Dec 21 14:22:09 GMT 2021
User: TCL
Spectrometer: QEP01345
Trigger mode: 4
Integration Time (sec): 7.000000E0
Scans to average: 10
Electric dark correction enabled: true
Nonlinearity correction enabled: false
Boxcar width: 0
XAxis mode: Raman Shifts
Number of Pixels in Spectrum: 1044
>>>>>Begin Spectral Data<<<<<
46.04893	0.9125
50.45542	-1.2875
54.85868	-0.3875
59.25871	-0.2875
63.6555	45.6125
68.04907	51.4125
72.43941	49.7125
76.82654	52.2125
81.21044	59.6125
85.59113	62.2125
89.96862	60.9125
94.34289	62.8125
98.71396	66.0125
103.08183	71.9125
107.4465	72.9125
111.80798	73.6125
116.16626	75.1125
120.52136	74.1125
124.87327	79.2125
129.222	78.5125
133.56755	83.2125
137.90993	93.4125
142.24913	96.1125
146.58517	111.7125
150.91804	123.2125
155.24774	148.8125
159.57429	180.1125
163.89768	232.9125
168.21792	301.4125
172.53501	402.7125
176.84895	558.4125
181.15975	783.6125
185.46741	1097.0125
189.77193	1518.9125
194.07331	2033.5125
198.37157	2601.0125
202.6667	3231.6125
206.9587	3859.9125
211.24758	4483.0125
215.53334	5104.0125
219.81599	5768.8125
224.09553	6478.0125
228.37195	7315.6125
232.64527	8156.3125
236.91549	9063.5125
241.18261	9961.5125
245.44663	10808.5125
249.70755	11524.1125
253.96539	12147.5125
258.22014	12680.2125
262.4718	13093.3125
266.72039	13382.6125
270.96589	13550.3125
275.20832	13532.1125
279.44768	13428.9125
283.68397	13251.6125
287.91719	13146.4125
292.14735	13050.1125
296.37445	13038.4125
300.59849	13131.0125
304.81948	13180.0125
309.03742	13236.2125
313.25231	13174.3125
317.46415	12907.6125
321.67296	12582.5125
325.87872	12270.6125
330.08145	12080.1125
334.28114	12039.9125
338.47781	12093.8125
342.67145	12228.3125
346.86207	12434.7125
351.04966	12645.7125
355.23424	12895.4125
359.4158	13097.5125
363.59435	13254.2125
367.76989	13336.3125
371.94243	13378.8125
376.11196	13428.0125
380.27849	13468.7125
384.44203	13567.2125
388.60257	13700.5125
392.76012	13841.3125
396.91468	14059.6125
401.06626	14253.8125
405.21485	14382.0125
409.36047	14320.7125
413.50311	14103.7125
417.64277	13902.1125
421.77947	13887.6125
425.9132	13884.4125
430.04396	13968.9125
434.17176	14030.2125
438.2966	14071.8125
442.41849	14260.2125
446.53742	14675.3125
450.6534	15066.3125
454.76644	15327.6125
458.87653	15374.4125
462.98368	15324.8125
467.08789	15172.2125
471.18916	14999.6125
475.2875	14806.3125
479.38291	14741.9125
483.4754	14692.8125
487.56496	14494.0125
491.6516	14316.3125
495.73531	14050.0125
499.81612	13909.7125
503.89401	13951.4125
507.96899	13986.4125
512.04106	13939.8125
516.11023	13821.4125
520.1765	13694.0125
524.23987	13600.9125
528.30034	13526.4125
532.35792	13417.3125
536.41261	13266.9125
540.46441	13098.7125
544.51333	13071.4125
548.55936	13159.2125
552.60252	13457.0125
556.64279	13790.2125
560.6802	14099.8125
564.71473	14178.2125
568.7464	14418.2125
572.7752	14833.6125
576.80114	15269.1125
580.82422	15629.6125
584.84444	16112.4125
588.86181	16781.2125
592.87633	17415.9125
596.888	17358.9125
600.89682	16645.6125
604.9028	16365.5125
608.90594	17354.0125
612.90624	18736.6125
616.90371	17731.8125
620.89834	14818.7125
624.89015	13422.8125
628.87913	13203.2125
632.86528	13339.9125
636.84862	13450.6125
640.82913	13291.0125
644.80683	12921.8125
648.78172	12725.3125
652.75379	12616.7125
656.72306	12737.4125
660.68952	12924.6125
664.65319	12909.5125
668.61405	12627.5125
672.57211	12580.9125
676.52738	12676.2125
680.47986	12703.3125
684.42955	12635.0125
688.37646	12553.9125
692.32058	12532.0125
696.26192	12649.0125
700.20048	12819.7125
704.13626	12926.4125
708.06928	12927.9125
711.99952	12864.8125
715.927	12835.1125
719.85171	12864.3125
723.77365	12837.3125
727.69284	12692.3125
731.60928	12503.2125
735.52295	12455.6125
739.43388	12473.9125
743.34206	12499.8125
747.24749	12559.5125
751.15017	12663.6125
755.05012	12866.9125
758.94733	13242.6125
762.8418	13890.8125
766.73354	14956.3125
770.62254	16033.5125
774.50882	16318.7125
778.39237	15663.5125
782.27321	14499.7125
786.15132	13480.4125
790.02671	12861.7125
793.89938	12524.1125
797.76935	12374.9125
801.6366	12313.9125
805.50115	12257.1125
809.36299	12212.8125
813.22213	12110.0125
817.07857	12067.5125
820.93231	12028.7125
824.78336	11926.6125
828.63172	11873.8125
832.47738	11787.8125
836.32036	11819.2125
840.16066	11797.9125
843.99827	11790.9125
847.8332	11754.6125
851.66546	11692.9125
855.49504	11717.8125
859.32195	11687.5125
863.1462	11669.1125
866.96777	11658.7125
870.78668	11639.0125
874.60293	11650.1125
878.41652	11673.1125
882.22745	11684.8125
886.03573	11725.9125
889.84136	11738.1125
893.64433	11695.1125
897.44466	11655.1125
901.24235	11600.9125
905.0374	11503.2125
908.8298	11444.9125
912.61957	11453.6125
916.40671	11548.5125
920.19121	11694.7125
923.97308	11824.8125
927.75233	11853.0125
931.52895	11756.5125
935.30295	11564.8125
939.07433	11338.0125
942.84309	11174.9125
946.60924	11053.4125
950.37278	10995.9125
954.13371	11005.7125
957.89203	11002.9125
961.64774	10987.6125
965.40086	10957.2125
969.15137	10954.0125
972.89929	10895.5125
976.64461	10847.9125
980.38733	10814.3125
984.12747	10821.7125
987.86502	10859.5125
991.59999	10918.9125
995.33237	11005.3125
999.06217	11178.7125
1002.78939	11408.0125
1006.51404	11635.8125
1010.23611	11853.3125
1013.95561	11981.9125
1017.67255	12073.4125
1021.38692	11951.3125
1025.09872	11746.4125
1028.80796	11558.2125
1032.51465	11503.2125
1036.21877	11566.7125
1039.92035	11619.7125
1043.61937	11633.9125
1047.31584	11676.9125
1051.00976	11658.0125
1054.70114	11684.7125
1058.38998	11702.9125
1062.07627	11784.0125
1065.76003	11924.8125
1069.44126	12090.7125
1073.11995	12304.6125
1076.79611	12457.7125
1080.46974	12547.7125
1084.14085	12602.7125
1087.80943	12709.6125
1091.47549	12858.8125
1095.13903	12900.4125
1098.80005	12717.7125
1102.45857	12408.3125
1106.11456	12144.0125
1109.76805	11988.6125
1113.41903	12017.2125
1117.06751	12064.7125
1120.71348	12246.6125
1124.35696	12439.2125
1127.99793	12667.0125
1131.63641	12826.3125
1135.2724	12792.0125
1138.90589	12676.6125
1142.5369	12629.7125
1146.16542	12687.0125
1149.79145	12788.7125
1153.415	12883.0125
1157.03607	13052.5125
1160.65467	13344.9125
1164.27079	13950.3125
1167.88443	14691.9125
1171.49561	15619.5125
1175.10432	16766.9125
1178.71056	18211.7125
1182.31434	19517.9125
1185.91565	20097.0125
1189.51451	19890.5125
1193.11091	19241.7125
1196.70485	18517.1125
1200.29634	17689.4125
1203.88538	17078.5125
1207.47197	16713.5125
1211.05612	16409.0125
1214.63782	16080.0125
1218.21708	15655.3125
1221.79391	15270.1125
1225.36829	15072.9125
1228.94024	14941.7125
1232.50976	14727.4125
1236.07685	14498.7125
1239.6415	14321.3125
1243.20374	14286.9125
1246.76355	14353.6125
1250.32093	14489.5125
1253.8759	14802.8125
1257.42845	15209.7125
1260.97859	15677.2125
1264.52631	16149.2125
1268.07163	16595.9125
1271.61453	17011.8125
1275.15503	17461.2125
1278.69312	17950.6125
1282.22882	18540.6125
1285.76211	19264.3125
1289.29301	20119.8125
1292.82151	21117.7125
1296.34761	22273.6125
1299.87133	23607.0125
1303.39266	24896.3125
1306.9116	26131.3125
1310.42815	27146.4125
1313.94233	27765.2125
1317.45412	27665.4125
1320.96354	27126.0125
1324.47058	26470.3125
1327.97525	25948.5125
1331.47754	25541.6125
1334.97747	25245.3125
1338.47502	24918.4125
1341.97022	24514.8125
1345.46305	24229.1125
1348.95352	24049.9125
1352.44163	24271.7125
1355.92738	24988.5125
1359.41078	26257.7125
1362.89183	27456.9125
1366.37053	27342.0125
1369.84688	25328.0125
1373.32088	22396.3125
1376.79254	20318.8125
1380.26186	19432.5125
1383.72883	19248.6125
1387.19347	19194.0125
1390.65578	18939.2125
1394.11575	18800.1125
1397.57339	18937.9125
1401.0287	19245.7125
1404.48168	19408.5125
1407.93234	19344.6125
1411.38068	18848.5125
1414.82669	18256.7125
1418.27039	17491.7125
1421.71177	16780.8125
1425.15083	16127.7125
1428.58758	15810.4125
1432.02203	15918.2125
1435.45416	16296.6125
1438.88399	16718.4125
1442.31151	17055.4125
1445.73673	17273.5125
1449.15965	17483.6125
1452.58027	17617.2125
1455.9986	17607.8125
1459.41463	17661.8125
1462.82837	17891.4125
1466.23982	18228.1125
1469.64898	18566.4125
1473.05586	18785.5125
1476.46045	18812.3125
1479.86276	18762.1125
1483.26279	18705.7125
1486.66054	18697.6125
1490.05602	18894.1125
1493.44922	19185.7125
1496.84016	19577.7125
1500.22882	20111.6125
1503.61521	20812.7125
1506.99934	21636.1125
1510.38121	22335.3125
1513.76081	22457.9125
1517.13816	21885.7125
1520.51324	20951.1125
1523.88607	20196.9125
1527.25665	19780.5125
1530.62498	19580.2125
1533.99105	19392.7125
1537.35488	19088.5125
1540.71647	18597.0125
1544.07581	17980.8125
1547.4329	17380.2125
1550.78776	16911.1125
1554.14038	16626.6125
1557.49077	16452.9125
1560.83892	16438.0125
1564.18484	16504.7125
1567.52853	16663.8125
1570.86999	16911.6125
1574.20922	17263.2125
1577.54624	17568.5125
1580.88103	17639.8125
1584.2136	17576.0125
1587.54395	17917.2125
1590.87208	18589.4125
1594.19801	19595.4125
1597.52172	20673.0125
1600.84321	21019.6125
1604.16251	20186.3125
1607.47959	18617.3125
1610.79447	16910.4125
1614.10715	15337.9125
1617.41763	14137.5125
1620.7259	13337.6125
1624.03199	12943.4125
1627.33587	12892.5125
1630.63757	13252.2125
1633.93707	14065.7125
1637.23439	15527.8125
1640.52951	17757.1125
1643.82246	20595.5125
1647.11321	23065.4125
1650.40179	23861.0125
1653.68819	22350.9125
1656.97241	19325.1125
1660.25446	16270.8125
1663.53433	13973.4125
1666.81203	12459.1125
1670.08756	11554.8125
1673.36092	10955.7125
1676.63211	10604.6125
1679.90115	10331.9125
1683.16801	10129.8125
1686.43272	9989.3125
1689.69527	9844.5125
1692.95567	9775.0125
1696.2139	9707.7125
1699.46999	9663.3125
1702.72392	9593.9125
1705.97571	9540.4125
1709.22535	9485.0125
1712.47284	9467.6125
1715.71819	9433.2125
1718.96139	9379.3125
1722.20246	9379.6125
1725.44139	9311.3125
1728.67818	9264.1125
1731.91284	9183.2125
1735.14537	9127.6125
1738.37576	9067.2125
1741.60403	9065.2125
1744.83017	9009.3125
1748.05418	9001.8125
1751.27607	9000.8125
1754.49584	8991.7125
1757.71349	8999.4125
1760.92903	9012.5125
1764.14244	8968.9125
1767.35375	8939.8125
1770.56294	8907.2125
1773.77002	8872.9125
1776.97499	8838.7125
1780.17785	8813.5125
1783.37861	8779.0125
1786.57727	8751.4125
1789.77382	8729.6125
1792.96828	8699.9125
1796.16064	8673.6125
1799.3509	8643.6125
1802.53907	8637.6125
1805.72514	8605.7125
1808.90913	8566.2125
1812.09102	8534.9125
1815.27083	8529.4125
1818.44856	8506.4125
1821.6242	8483.2125
1824.79776	8489.7125
1827.96924	8478.4125
1831.13864	8466.8125
1834.30597	8461.7125
1837.47122	8461.1125
1840.6344	8463.6125
1843.7955	8472.0125
1846.95454	8428.1125
1850.11151	8423.7125
1853.26642	8404.0125
1856.41926	8405.8125
1859.57004	8401.1125
1862.71876	8396.9125
1865.86542	8372.7125
1869.01003	8357.9125
1872.15258	8341.6125
1875.29308	8356.8125
1878.43152	8312.7125
1881.56792	8312.0125
1884.70227	8316.4125
1887.83457	8300.1125
1890.96482	8249.7125
1894.09304	8273.0125
1897.21921	8260.3125
1900.34335	8236.9125
1903.46544	8229.3125
1906.58551	8223.6125
1909.70353	8184.8125
1912.81953	8170.5125
1915.93349	8177.3125
1919.04543	8136.6125
1922.15534	8116.2125
1925.26322	8096.1125
1928.36908	8068.2125
1931.47292	8055.4125
1934.57473	8033.9125
1937.67453	7996.8125
1940.77232	7957.0125
1943.86808	7951.1125
1946.96184	7937.1125
1950.05358	7924.0125
1953.14331	7882.1125
1956.23103	7849.3125
1959.31675	7860.5125
1962.40046	7824.5125
1965.48217	7801.5125
1968.56188	7797.8125
1971.63959	7741.7125
1974.7153	7719.4125
1977.78901	7706.1125
1980.86073	7661.2125
1983.93046	7630.8125
1986.99819	7603.2125
1990.06394	7595.1125
1993.1277	7584.4125
1996.18947	7552.2125
1999.24925	7517.4125
2002.30706	7493.8125
2005.36288	7476.6125
2008.41672	7434.0125
2011.46859	7434.2125
2014.51848	7388.2125
2017.56639	7355.8125
2020.61233	7364.1125
2023.6563	7344.3125
2026.6983	7341.9125
2029.73833	7290.4125
2032.7764	7274.8125
2035.8125	7266.2125
2038.84664	7269.8125
2041.87881	7256.4125
2044.90903	7219.7125
2047.93729	7206.9125
2050.96359	7214.2125
2053.98794	7202.9125
2057.01034	7194.2125
2060.03078	7188.5125
2063.04927	7178.9125
2066.06582	7164.2125
2069.08042	7137.2125
2072.09307	7178.4125
2075.10378	7141.3125
2078.11255	7143.1125
2081.11938	7125.0125
2084.12426	7122.9125
2087.12722	7135.2125
2090.12824	7111.1125
2093.12732	7109.6125
2096.12447	7124.5125
2099.11969	7110.3125
2102.11299	7098.3125
2105.10435	7104.7125
2108.09379	7091.9125
2111.08131	7138.9125
2114.0669	7111.4125
2117.05057	7120.9125
2120.03233	7115.9125
2123.01216	7112.0125
2125.99008	7112.7125
2128.96609	7128.2125
2131.94018	7119.8125
2134.91236	7126.3125
2137.88263	7123.4125
2140.851	7128.1125
2143.81746	7114.1125
2146.78201	7099.9125
2149.74466	7122.4125
2152.7054	7091.2125
2155.66425	7105.0125
2158.6212	7089.4125
2161.57625	7098.1125
2164.52941	7099.2125
2167.48067	7092.7125
2170.43004	7093.7125
2173.37752	7075.3125
2176.32311	7085.4125
2179.26681	7083.2125
2182.20863	7085.3125
2185.14856	7060.7125
2188.08661	7062.9125
2191.02278	7074.7125
2193.95707	7050.1125
2196.88948	7058.4125
2199.82001	7044.6125
2202.74867	7032.0125
2205.67545	7026.7125
2208.60037	6999.1125
2211.52341	6992.9125
2214.44458	6995.4125
2217.36388	6974.6125
2220.28132	6955.9125
2223.1969	6935.4125
2226.11061	6941.5125
2229.02246	6920.1125
2231.93245	6903.9125
2234.84058	6900.1125
2237.74686	6904.5125
2240.65128	6904.1125
2243.55385	6878.3125
2246.45456	6853.8125
2249.35343	6824.0125
2252.25044	6822.4125
2255.14561	6822.0125
2258.03893	6801.5125
2260.93041	6805.6125
2263.82004	6772.2125
2266.70783	6761.3125
2269.59378	6734.7125
2272.4779	6725.7125
2275.36017	6712.1125
2278.24061	6682.8125
2281.11922	6666.4125
2283.996	6669.5125
2286.87094	6675.3125
2289.74405	6625.3125
2292.61534	6613.0125
2295.4848	6598.6125
2298.35243	6614.0125
2301.21824	6604.2125
2304.08223	6593.1125
2306.94439	6597.8125
2309.80474	6577.8125
2312.66327	6588.0125
2315.51999	6572.1125
2318.37489	6575.1125
2321.22797	6549.8125
2324.07925	6567.3125
2326.92871	6548.5125
2329.77637	6541.4125
2332.62222	6531.5125
2335.46626	6523.3125
2338.3085	6493.7125
2341.14893	6503.9125
2343.98756	6511.6125
2346.8244	6510.8125
2349.65943	6504.1125
2352.49267	6493.6125
2355.32411	6506.1125
2358.15376	6500.0125
2360.98161	6499.3125
2363.80768	6493.7125
2366.63195	6494.2125
2369.45444	6466.5125
2372.27514	6479.3125
2375.09405	6442.7125
2377.91118	6449.7125
2380.72652	6419.0125
2383.54009	6401.0125
2386.35187	6393.4125
2389.16188	6369.6125
2391.97011	6349.1125
2394.77657	6354.5125
2397.58125	6332.4125
2400.38416	6314.6125
2403.18529	6314.1125
2405.98466	6308.2125
2408.78226	6301.0125
2411.57809	6270.2125
2414.37216	6288.8125
2417.16446	6279.5125
2419.955	6264.9125
2422.74378	6266.4125
2425.5308	6239.2125
2428.31606	6243.2125
2431.09956	6254.0125
2433.88131	6234.5125
2436.6613	6243.9125
2439.43954	6229.0125
2442.21603	6220.1125
2444.99077	6209.7125
2447.76377	6232.9125
2450.53501	6225.2125
2453.30451	6214.9125
2456.07226	6226.7125
2458.83827	6219.9125
2461.60254	6233.3125
2464.36507	6204.2125
2467.12586	6196.7125
2469.88492	6202.2125
2472.64224	6209.2125
2475.39782	6191.9125
2478.15167	6188.4125
2480.90379	6190.2125
2483.65417	6192.8125
2486.40283	6170.0125
2489.14976	6194.7125
2491.89497	6172.0125
2494.63845	6174.0125
2497.3802	6186.1125
2500.12024	6187.3125
2502.85855	6174.8125
2505.59514	6181.6125
2508.33002	6149.1125
2511.06318	6155.1125
2513.79462	6143.4125
2516.52435	6136.0125
2519.25237	6133.6125
2521.97867	6101.7125
2524.70327	6127.2125
2527.42616	6104.0125
2530.14734	6093.4125
2532.86681	6084.3125
2535.58458	6092.8125
2538.30065	6077.0125
2541.01501	6073.5125
2543.72768	6055.9125
2546.43864	6069.1125
2549.14791	6051.1125
2551.85548	6053.3125
2554.56136	6038.7125
2557.26554	6021.7125
2559.96803	6030.8125
2562.66883	6018.0125
2565.36794	6004.5125
2568.06536	6004.9125
2570.7611	5997.7125
2573.45514	5996.2125
2576.14751	5982.9125
2578.83819	5967.6125
2581.52719	5975.0125
2584.21451	5950.6125
2586.90015	5966.0125
2589.58411	5939.1125
2592.2664	5931.2125
2594.94701	5935.6125
2597.62594	5928.7125
2600.30321	5920.1125
2602.9788	5917.5125
2605.65273	5908.0125
2608.32498	5896.4125
2610.99557	5907.1125
2613.66449	5896.5125
2616.33175	5895.9125
2618.99734	5901.4125
2621.66128	5882.2125
2624.32355	5869.6125
2626.98416	5886.1125
2629.64311	5863.9125
2632.30041	5864.2125
2634.95605	5841.8125
2637.61004	5830.9125
2640.26238	5843.2125
2642.91306	5846.7125
2645.56209	5839.3125
2648.20948	5839.7125
2650.85521	5850.8125
2653.4993	5842.2125
2656.14175	5841.2125
2658.78255	5841.6125
2661.42171	5837.8125
2664.05923	5849.5125
2666.6951	5853.2125
2669.32934	5863.3125
2671.96194	5857.7125
2674.59291	5853.5125
2677.22224	5865.1125
2679.84993	5844.9125
2682.476	5861.2125
2685.10043	5841.0125
2687.72324	5836.5125
2690.34441	5837.2125
2692.96396	5829.6125
2695.58188	5844.2125
2698.19818	5834.4125
2700.81285	5834.8125
2703.4259	5861.3125
2706.03733	5894.9125
2708.64714	5863.2125
2711.25533	5864.7125
2713.86191	5856.5125
2716.46687	5859.3125
2719.07021	5878.0125
2721.67194	5852.7125
2724.27206	5851.0125
2726.87057	5865.7125
2729.46747	5858.8125
2732.06276	5855.4125
2734.65644	5850.1125
2737.24852	5841.5125
2739.83899	5823.5125
2742.42786	5839.2125
2745.01513	5830.1125
2747.60079	5814.4125
2750.18486	5824.7125
2752.76733	5825.0125
2755.3482	5807.0125
2757.92747	5813.8125
2760.50515	5799.2125
2763.08123	5819.9125
2765.65573	5787.5125
2768.22863	5803.1125
2770.79994	5787.0125
2773.36967	5786.1125
2775.9378	5782.7125
2778.50435	5760.7125
2781.06932	5765.5125
2783.6327	5761.1125
2786.1945	5773.1125
2788.75471	5754.4125
2791.31335	5741.9125
2793.87041	5723.8125
2796.42589	5717.5125
2798.97979	5713.0125
2801.53212	5691.8125
2804.08288	5704.3125
2806.63206	5700.0125
2809.17967	5676.3125
2811.72571	5685.9125
2814.27018	5662.7125
2816.81308	5653.5125
2819.35442	5653.2125
2821.89419	5661.3125
2824.43239	5646.1125
2826.96904	5637.3125
2829.50412	5635.9125
2832.03763	5638.1125
2834.56959	5631.8125
2837.1	5645.1125
2839.62884	5647.8125
2842.15613	5662.1125
2844.68186	5656.7125
2847.20604	5656.4125
2849.72867	5657.3125
2852.24974	5651.8125
2854.76927	5644.5125
2857.28724	5666.2125
2859.80367	5661.0125
2862.31855	5624.1125
2864.83189	5625.6125
2867.34368	5602.2125
2869.85393	5601.7125
2872.36264	5587.6125
2874.8698	5601.7125
2877.37543	5596.4125
2879.87952	5607.6125
2882.38207	5600.9125
2884.88308	5618.2125
2887.38256	5599.4125
2889.88051	5602.8125
2892.37692	5597.8125
2894.8718	5593.0125
2897.36515	5619.7125
2899.85698	5600.0125
2902.34727	5614.9125
2904.83604	5618.2125
2907.32328	5616.2125
2909.809	5620.1125
2912.29319	5628.4125
2914.77587	5632.6125
2917.25702	5628.5125
2919.73665	5628.5125
2922.21476	5629.2125
2924.69136	5641.1125
2927.16644	5629.7125
2929.64	5628.8125
2932.11205	5620.8125
2934.58258	5617.4125
2937.05161	5606.4125
2939.51912	5621.6125
2941.98513	5610.4125
2944.44962	5585.8125
2946.91261	5567.0125
2949.37409	5578.8125
2951.83407	5564.4125
2954.29254	5553.7125
2956.74951	5548.6125
2959.20498	5541.4125
2961.65895	5532.1125
2964.11142	5519.0125
2966.56239	5489.6125
2969.01186	5499.3125
2971.45984	5460.9125
2973.90632	5461.2125
2976.35131	5436.5125
2978.7948	5426.9125
2981.23681	5410.6125
2983.67732	5383.3125
2986.11635	5387.0125
2988.55388	5355.5125
2990.98993	5354.9125
2993.4245	5343.0125
2995.85758	5321.8125
2998.28917	5318.7125
3000.71928	5312.6125
3003.14791	5292.1125
3005.57506	5297.0125
3008.00073	5282.2125
3010.42493	5270.5125
3012.84764	5267.2125
3015.26888	5265.4125
3017.68865	5272.2125
3020.10694	5247.5125
3022.52376	5217.4125
3024.9391	5214.7125
3027.35298	5201.3125
3029.76539	5222.7125
3032.17632	5186.3125
3034.5858	5182.0125
3036.9938	5177.5125
3039.40034	5182.2125
3041.80542	5173.4125
3044.20903	5153.5125
3046.61118	5145.6125
3049.01187	5134.2125
3051.4111	5129.9125
3053.80888	5138.0125
3056.20519	5123.4125
3058.60005	5126.4125
3060.99345	5111.2125
3063.3854	5091.7125
3065.7759	5074.8125
3068.16494	5076.4125
3070.55254	5042.9125
3072.93868	5049.0125
3075.32338	5026.5125
3077.70662	5027.7125
3080.08842	5005.3125
