Data from AgNPs_FTO_APTES_UA_2um_CRN_0.1mM_R6G_10uM_NaF_0.1M_Addition_RamanShift__28__12-47-39-067.txt Node

Date: Tue Dec 21 12:47:39 GMT 2021
User: TCL
Spectrometer: QEP01345
Trigger mode: 4
Integration Time (sec): 7.000000E0
Scans to average: 10
Electric dark correction enabled: true
Nonlinearity correction enabled: false
Boxcar width: 0
XAxis mode: Raman Shifts
Number of Pixels in Spectrum: 1044
>>>>>Begin Spectral Data<<<<<
46.04893	-0.175
50.45542	-1.875
54.85868	-1.075
59.25871	-0.075
63.6555	43.825
68.04907	51.425
72.43941	55.625
76.82654	53.825
81.21044	57.425
85.59113	59.825
89.96862	59.925
94.34289	63.925
98.71396	64.325
103.08183	69.425
107.4465	68.925
111.80798	71.525
116.16626	70.225
120.52136	73.125
124.87327	73.625
129.222	77.025
133.56755	84.825
137.90993	93.825
142.24913	95.725
146.58517	107.625
150.91804	124.725
155.24774	146.125
159.57429	180.425
163.89768	230.825
168.21792	301.625
172.53501	403.825
176.84895	559.125
181.15975	779.925
185.46741	1096.925
189.77193	1510.525
194.07331	2026.125
198.37157	2623.325
202.6667	3247.925
206.9587	3871.125
211.24758	4501.525
215.53334	5154.425
219.81599	5878.225
224.09553	6685.325
228.37195	7571.225
232.64527	8545.425
236.91549	9521.625
241.18261	10437.625
245.44663	11221.225
249.70755	11914.925
253.96539	12484.725
258.22014	12939.725
262.4718	13290.325
266.72039	13516.825
270.96589	13615.125
275.20832	13595.025
279.44768	13489.525
283.68397	13361.225
287.91719	13294.825
292.14735	13324.525
296.37445	13539.425
300.59849	13861.625
304.81948	14371.625
309.03742	14752.025
313.25231	14720.725
317.46415	14138.425
321.67296	13129.225
325.87872	12310.125
330.08145	11916.425
334.28114	11882.025
338.47781	12076.625
342.67145	12404.725
346.86207	12877.625
351.04966	13559.525
355.23424	14355.325
359.4158	14956.925
363.59435	15244.125
367.76989	15242.725
371.94243	15144.825
376.11196	15013.425
380.27849	14916.025
384.44203	14783.025
388.60257	14631.925
392.76012	14570.625
396.91468	14757.825
401.06626	15169.525
405.21485	15504.125
409.36047	15313.425
413.50311	14682.025
417.64277	14087.725
421.77947	13764.225
425.9132	13693.925
430.04396	13758.125
434.17176	13889.525
438.2966	14124.725
442.41849	14518.625
446.53742	15147.725
450.6534	15692.425
454.76644	16077.625
458.87653	16070.825
462.98368	15795.225
467.08789	15442.925
471.18916	15067.225
475.2875	14727.725
479.38291	14491.925
483.4754	14287.625
487.56496	14059.225
491.6516	13800.025
495.73531	13627.625
499.81612	13603.325
503.89401	13718.525
507.96899	13831.625
512.04106	13891.525
516.11023	13927.425
520.1765	13908.425
524.23987	13843.125
528.30034	13648.325
532.35792	13439.225
536.41261	13153.925
540.46441	12833.625
544.51333	12648.325
548.55936	12768.825
552.60252	13046.925
556.64279	13480.825
560.6802	13836.825
564.71473	14234.925
568.7464	14926.025
572.7752	15522.325
576.80114	15301.325
580.82422	14955.525
584.84444	14816.325
588.86181	14946.225
592.87633	15286.725
596.888	15602.825
600.89682	15795.325
604.9028	16847.525
608.90594	20406.825
612.90624	25121.125
616.90371	24106.825
620.89834	17317.625
624.89015	13953.025
628.87913	13386.925
632.86528	13458.125
636.84862	13582.725
640.82913	13308.425
644.80683	12691.425
648.78172	12210.425
652.75379	12229.725
656.72306	12619.725
660.68952	13209.425
664.65319	13163.425
668.61405	12631.625
672.57211	12377.025
676.52738	12378.725
680.47986	12348.525
684.42955	12215.125
688.37646	12126.325
692.32058	12160.025
696.26192	12311.525
700.20048	12477.225
704.13626	12657.825
708.06928	12649.325
711.99952	12498.125
715.927	12409.725
719.85171	12389.225
723.77365	12379.025
727.69284	12234.425
731.60928	12101.325
735.52295	12103.225
739.43388	12125.325
743.34206	12226.625
747.24749	12292.125
751.15017	12472.725
755.05012	12764.825
758.94733	13408.325
762.8418	14823.725
766.73354	17172.925
770.62254	19484.225
774.50882	20451.025
778.39237	19555.125
782.27321	17143.725
786.15132	14625.125
790.02671	13134.625
793.89938	12433.625
797.76935	12171.525
801.6366	12036.725
805.50115	12002.625
809.36299	11934.725
813.22213	11832.925
817.07857	11836.625
820.93231	11820.825
824.78336	11816.525
828.63172	11886.125
832.47738	11875.725
836.32036	11845.925
840.16066	11796.225
843.99827	11734.925
847.8332	11696.125
851.66546	11627.725
855.49504	11621.525
859.32195	11633.925
863.1462	11567.125
866.96777	11489.625
870.78668	11466.725
874.60293	11478.325
878.41652	11514.425
882.22745	11607.525
886.03573	11664.025
889.84136	11666.625
893.64433	11583.425
897.44466	11518.225
901.24235	11513.825
905.0374	11429.625
908.8298	11354.025
912.61957	11346.125
916.40671	11410.825
920.19121	11608.125
923.97308	11785.225
927.75233	11902.625
931.52895	11957.125
935.30295	11769.525
939.07433	11387.925
942.84309	11083.725
946.60924	10895.925
950.37278	10819.025
954.13371	10753.625
957.89203	10697.525
961.64774	10666.825
965.40086	10642.725
969.15137	10581.025
972.89929	10535.525
976.64461	10473.925
980.38733	10489.925
984.12747	10522.925
987.86502	10579.425
991.59999	10692.725
995.33237	10890.625
999.06217	11280.725
1002.78939	11777.525
1006.51404	12203.625
1010.23611	12513.125
1013.95561	12669.925
1017.67255	12589.725
1021.38692	12314.825
1025.09872	11982.825
1028.80796	11868.425
1032.51465	11968.625
1036.21877	12187.825
1039.92035	12321.625
1043.61937	12301.725
1047.31584	12159.625
1051.00976	11964.925
1054.70114	11880.525
1058.38998	11826.025
1062.07627	11872.325
1065.76003	12001.625
1069.44126	12102.125
1073.11995	12273.325
1076.79611	12435.225
1080.46974	12650.625
1084.14085	12892.825
1087.80943	13229.825
1091.47549	13395.625
1095.13903	13207.225
1098.80005	12764.125
1102.45857	12321.325
1106.11456	12063.425
1109.76805	12053.125
1113.41903	12279.125
1117.06751	12663.925
1120.71348	13173.025
1124.35696	13793.025
1127.99793	14301.625
1131.63641	14189.025
1135.2724	13625.625
1138.90589	13059.825
1142.5369	12741.825
1146.16542	12569.725
1149.79145	12503.225
1153.415	12552.125
1157.03607	12660.225
1160.65467	12971.625
1164.27079	13512.025
1167.88443	14379.325
1171.49561	15689.525
1175.10432	17746.125
1178.71056	20394.225
1182.31434	22465.125
1185.91565	23131.225
1189.51451	22615.325
1193.11091	21439.225
1196.70485	20039.625
1200.29634	18832.325
1203.88538	17758.225
1207.47197	16655.125
1211.05612	15772.725
1214.63782	15271.525
1218.21708	15206.325
1221.79391	15292.925
1225.36829	15328.025
1228.94024	15208.525
1232.50976	14926.325
1236.07685	14724.925
1239.6415	14607.925
1243.20374	14589.325
1246.76355	14643.825
1250.32093	14847.925
1253.8759	15197.725
1257.42845	15787.525
1260.97859	16317.825
1264.52631	16882.125
1268.07163	17386.725
1271.61453	17919.425
1275.15503	18400.525
1278.69312	18774.025
1282.22882	19122.225
1285.76211	19710.025
1289.29301	20515.825
1292.82151	21371.025
1296.34761	22448.125
1299.87133	23828.125
1303.39266	25884.725
1306.9116	28700.825
1310.42815	31800.825
1313.94233	33693.225
1317.45412	33343.425
1320.96354	31590.525
1324.47058	29653.425
1327.97525	27929.925
1331.47754	26807.325
1334.97747	26312.525
1338.47502	26394.025
1341.97022	26788.325
1345.46305	27081.525
1348.95352	27515.125
1352.44163	28309.125
1355.92738	30182.625
1359.41078	33352.125
1362.89183	36240.525
1366.37053	35262.025
1369.84688	30866.325
1373.32088	26289.925
1376.79254	23092.925
1380.26186	21485.425
1383.72883	20707.125
1387.19347	20230.625
1390.65578	19820.225
1394.11575	19732.325
1397.57339	19999.025
1401.0287	20629.925
1404.48168	21243.325
1407.93234	21645.025
1411.38068	21703.425
1414.82669	21245.925
1418.27039	20397.125
1421.71177	19314.525
1425.15083	18417.125
1428.58758	17964.625
1432.02203	17920.925
1435.45416	18154.825
1438.88399	18330.625
1442.31151	18478.425
1445.73673	18728.625
1449.15965	19016.525
1452.58027	19140.825
1455.9986	19107.925
1459.41463	19174.825
1462.82837	19506.525
1466.23982	20048.025
1469.64898	20538.925
1473.05586	20839.525
1476.46045	20878.125
1479.86276	20962.425
1483.26279	21073.025
1486.66054	21264.525
1490.05602	21661.025
1493.44922	22232.325
1496.84016	22915.825
1500.22882	24148.425
1503.61521	26098.025
1506.99934	28455.925
1510.38121	30663.125
1513.76081	31473.525
1517.13816	30076.925
1520.51324	27039.325
1523.88607	24007.125
1527.25665	22083.625
1530.62498	21094.325
1533.99105	20574.225
1537.35488	20321.925
1540.71647	20129.525
1544.07581	19901.825
1547.4329	19656.525
1550.78776	19314.925
1554.14038	19057.025
1557.49077	18925.725
1560.83892	19034.525
1564.18484	19386.325
1567.52853	19799.825
1570.86999	20081.525
1574.20922	20334.225
1577.54624	20284.725
1580.88103	19575.325
1584.2136	18724.125
1587.54395	18581.025
1590.87208	19430.925
1594.19801	21070.725
1597.52172	22997.525
1600.84321	24126.225
1604.16251	23485.125
1607.47959	21522.725
1610.79447	19185.725
1614.10715	17042.025
1617.41763	15407.325
1620.7259	14385.525
1624.03199	13899.225
1627.33587	13867.925
1630.63757	14230.225
1633.93707	15165.325
1637.23439	16599.925
1640.52951	18796.125
1643.82246	21646.225
1647.11321	24525.825
1650.40179	26117.325
1653.68819	25004.125
1656.97241	21544.925
1660.25446	17754.825
1663.53433	14873.125
1666.81203	13118.425
1670.08756	12077.025
1673.36092	11458.025
1676.63211	11047.825
1679.90115	10782.425
1683.16801	10557.225
1686.43272	10373.525
1689.69527	10298.025
1692.95567	10217.525
1696.2139	10190.325
1699.46999	10167.325
1702.72392	10094.625
1705.97571	10066.025
1709.22535	10046.325
1712.47284	10015.425
1715.71819	10007.625
1718.96139	9992.425
1722.20246	9948.025
1725.44139	9897.025
1728.67818	9857.025
1731.91284	9774.925
1735.14537	9713.625
1738.37576	9652.725
1741.60403	9618.525
1744.83017	9585.225
1748.05418	9562.825
1751.27607	9532.925
1754.49584	9571.425
1757.71349	9536.325
1760.92903	9539.125
1764.14244	9507.425
1767.35375	9467.825
1770.56294	9433.125
1773.77002	9383.925
1776.97499	9352.925
1780.17785	9286.725
1783.37861	9280.425
1786.57727	9240.225
1789.77382	9217.925
1792.96828	9212.925
1796.16064	9176.025
1799.3509	9174.025
1802.53907	9136.325
1805.72514	9117.925
1808.90913	9103.525
1812.09102	9068.925
1815.27083	9008.925
1818.44856	9035.725
1821.6242	9010.325
1824.79776	8998.125
1827.96924	8968.125
1831.13864	8958.925
1834.30597	8971.625
1837.47122	8944.725
1840.6344	8937.225
1843.7955	8940.525
1846.95454	8950.225
1850.11151	8945.525
1853.26642	8944.325
1856.41926	8930.625
1859.57004	8941.425
1862.71876	8945.025
1865.86542	8943.125
1869.01003	8953.225
1872.15258	8946.925
1875.29308	8934.825
1878.43152	8940.325
1881.56792	8941.825
1884.70227	8943.325
1887.83457	8942.725
1890.96482	8946.225
1894.09304	8957.425
1897.21921	8950.125
1900.34335	8957.325
1903.46544	8966.625
1906.58551	8969.425
1909.70353	8972.625
1912.81953	8961.925
1915.93349	8945.225
1919.04543	8943.525
1922.15534	8918.725
1925.26322	8893.025
1928.36908	8885.025
1931.47292	8837.825
1934.57473	8788.325
1937.67453	8763.425
1940.77232	8729.625
1943.86808	8661.725
1946.96184	8658.925
1950.05358	8598.025
1953.14331	8567.725
1956.23103	8516.925
1959.31675	8511.725
1962.40046	8478.425
1965.48217	8466.125
1968.56188	8427.725
1971.63959	8386.925
1974.7153	8374.825
1977.78901	8337.725
1980.86073	8294.025
1983.93046	8270.425
1986.99819	8263.025
1990.06394	8215.825
1993.1277	8208.225
1996.18947	8158.625
1999.24925	8153.825
2002.30706	8114.525
2005.36288	8079.525
2008.41672	8066.625
2011.46859	8036.925
2014.51848	7995.525
2017.56639	7971.725
2020.61233	7961.825
2023.6563	7948.225
2026.6983	7951.925
2029.73833	7924.125
2032.7764	7910.225
2035.8125	7887.025
2038.84664	7854.925
2041.87881	7856.125
2044.90903	7837.725
2047.93729	7829.125
2050.96359	7827.825
2053.98794	7819.725
2057.01034	7806.925
2060.03078	7788.025
2063.04927	7760.525
2066.06582	7753.625
2069.08042	7739.925
2072.09307	7728.425
2075.10378	7707.225
2078.11255	7720.225
2081.11938	7715.325
2084.12426	7700.925
2087.12722	7694.425
2090.12824	7695.025
2093.12732	7693.925
2096.12447	7709.025
2099.11969	7693.625
2102.11299	7697.425
2105.10435	7677.425
2108.09379	7670.725
2111.08131	7681.425
2114.0669	7691.525
2117.05057	7699.925
2120.03233	7710.525
2123.01216	7709.225
2125.99008	7700.225
2128.96609	7701.525
2131.94018	7712.825
2134.91236	7714.725
2137.88263	7708.025
2140.851	7703.825
2143.81746	7701.625
2146.78201	7702.325
2149.74466	7691.525
2152.7054	7686.725
2155.66425	7683.725
2158.6212	7678.525
2161.57625	7684.325
2164.52941	7659.025
2167.48067	7679.925
2170.43004	7666.125
2173.37752	7650.825
2176.32311	7654.225
2179.26681	7643.225
2182.20863	7655.425
2185.14856	7658.425
2188.08661	7636.925
2191.02278	7650.125
2193.95707	7634.525
2196.88948	7625.225
2199.82001	7626.425
2202.74867	7616.825
2205.67545	7604.525
2208.60037	7580.325
2211.52341	7607.625
2214.44458	7598.325
2217.36388	7571.025
2220.28132	7548.925
2223.1969	7529.925
2226.11061	7518.525
2229.02246	7498.525
2231.93245	7486.325
2234.84058	7469.825
2237.74686	7458.825
2240.65128	7461.925
2243.55385	7447.125
2246.45456	7431.725
2249.35343	7411.225
2252.25044	7411.325
2255.14561	7394.925
2258.03893	7406.825
2260.93041	7401.025
2263.82004	7384.425
2266.70783	7360.725
2269.59378	7335.825
2272.4779	7327.825
2275.36017	7289.425
2278.24061	7283.825
2281.11922	7255.125
2283.996	7234.625
2286.87094	7225.225
2289.74405	7204.425
2292.61534	7196.225
2295.4848	7186.425
2298.35243	7180.925
2301.21824	7172.425
2304.08223	7180.325
2306.94439	7163.525
2309.80474	7173.125
2312.66327	7182.925
2315.51999	7171.125
2318.37489	7160.025
2321.22797	7152.125
2324.07925	7138.125
2326.92871	7138.825
2329.77637	7130.825
2332.62222	7113.725
2335.46626	7119.625
2338.3085	7094.025
2341.14893	7111.525
2343.98756	7115.125
2346.8244	7135.525
2349.65943	7124.325
2352.49267	7134.425
2355.32411	7132.125
2358.15376	7138.825
2360.98161	7135.125
2363.80768	7120.125
2366.63195	7123.325
2369.45444	7141.225
2372.27514	7118.925
2375.09405	7102.425
2377.91118	7084.625
2380.72652	7065.325
2383.54009	7049.725
2386.35187	7022.725
2389.16188	6991.325
2391.97011	6960.825
2394.77657	6943.125
2397.58125	6929.925
2400.38416	6923.825
2403.18529	6897.825
2405.98466	6891.325
2408.78226	6861.525
2411.57809	6850.325
2414.37216	6831.625
2417.16446	6831.125
2419.955	6828.725
2422.74378	6823.325
2425.5308	6809.725
2428.31606	6802.825
2431.09956	6791.725
2433.88131	6798.425
2436.6613	6793.125
2439.43954	6763.225
2442.21603	6780.725
2444.99077	6767.725
2447.76377	6778.525
2450.53501	6782.025
2453.30451	6781.825
2456.07226	6804.325
2458.83827	6787.025
2461.60254	6768.025
2464.36507	6770.725
2467.12586	6772.225
2469.88492	6769.225
2472.64224	6778.525
2475.39782	6796.725
2478.15167	6790.625
2480.90379	6804.425
2483.65417	6819.925
2486.40283	6810.925
2489.14976	6811.925
2491.89497	6826.325
2494.63845	6839.925
2497.3802	6841.925
2500.12024	6815.125
2502.85855	6815.625
2505.59514	6792.125
2508.33002	6777.325
2511.06318	6762.925
2513.79462	6737.125
2516.52435	6732.425
2519.25237	6709.625
2521.97867	6698.025
2524.70327	6684.925
2527.42616	6681.325
2530.14734	6662.325
2532.86681	6662.925
2535.58458	6652.825
2538.30065	6640.725
2541.01501	6652.025
2543.72768	6646.325
2546.43864	6632.125
2549.14791	6624.625
2551.85548	6618.325
2554.56136	6623.625
2557.26554	6621.125
2559.96803	6605.925
2562.66883	6614.125
2565.36794	6602.625
2568.06536	6594.625
2570.7611	6572.625
2573.45514	6566.625
2576.14751	6580.425
2578.83819	6578.125
2581.52719	6584.025
2584.21451	6572.225
2586.90015	6562.725
2589.58411	6534.825
2592.2664	6554.325
2594.94701	6525.225
2597.62594	6529.725
2600.30321	6527.725
2602.9788	6526.225
2605.65273	6506.425
2608.32498	6529.125
2610.99557	6519.225
2613.66449	6510.525
2616.33175	6498.225
2618.99734	6511.625
2621.66128	6494.125
2624.32355	6518.725
2626.98416	6509.025
2629.64311	6504.025
2632.30041	6503.125
2634.95605	6514.425
2637.61004	6478.625
2640.26238	6488.725
2642.91306	6475.725
2645.56209	6462.425
2648.20948	6457.525
2650.85521	6449.325
2653.4993	6446.125
2656.14175	6446.425
2658.78255	6459.325
2661.42171	6462.025
2664.05923	6495.225
2666.6951	6468.625
2669.32934	6480.725
2671.96194	6482.325
2674.59291	6489.225
2677.22224	6481.525
2679.84993	6472.325
2682.476	6467.825
2685.10043	6472.725
2687.72324	6476.725
2690.34441	6460.525
2692.96396	6435.625
2695.58188	6460.625
2698.19818	6462.525
2700.81285	6473.525
2703.4259	6486.325
2706.03733	6550.925
2708.64714	6511.225
2711.25533	6488.525
2713.86191	6502.625
2716.46687	6490.325
2719.07021	6500.625
2721.67194	6489.725
2724.27206	6506.325
2726.87057	6500.625
2729.46747	6503.025
2732.06276	6498.725
2734.65644	6484.425
2737.24852	6497.225
2739.83899	6470.825
2742.42786	6493.025
2745.01513	6449.225
2747.60079	6465.125
2750.18486	6445.125
2752.76733	6445.925
2755.3482	6446.825
2757.92747	6445.825
2760.50515	6420.825
2763.08123	6445.125
2765.65573	6433.025
2768.22863	6453.425
2770.79994	6429.525
2773.36967	6446.025
2775.9378	6436.325
2778.50435	6438.925
2781.06932	6430.425
2783.6327	6429.025
2786.1945	6433.325
2788.75471	6431.725
2791.31335	6418.325
2793.87041	6398.225
2796.42589	6398.925
2798.97979	6407.425
2801.53212	6400.425
2804.08288	6395.325
2806.63206	6385.125
2809.17967	6386.925
2811.72571	6373.425
2814.27018	6383.725
2816.81308	6385.225
2819.35442	6404.925
2821.89419	6362.325
2824.43239	6376.625
2826.96904	6373.925
2829.50412	6399.125
2832.03763	6400.525
2834.56959	6364.825
2837.1	6370.025
2839.62884	6389.925
2842.15613	6407.425
2844.68186	6443.925
2847.20604	6482.825
2849.72867	6504.225
2852.24974	6502.925
2854.76927	6526.925
2857.28724	6507.225
2859.80367	6487.425
2862.31855	6469.925
2864.83189	6451.725
2867.34368	6449.625
2869.85393	6448.425
2872.36264	6435.525
2874.8698	6439.025
2877.37543	6430.625
2879.87952	6426.325
2882.38207	6413.225
2884.88308	6415.625
2887.38256	6411.725
2889.88051	6408.925
2892.37692	6414.425
2894.8718	6399.725
2897.36515	6433.225
2899.85698	6424.825
2902.34727	6438.225
2904.83604	6438.125
2907.32328	6439.325
2909.809	6449.725
2912.29319	6439.925
2914.77587	6438.225
2917.25702	6431.625
2919.73665	6420.525
2922.21476	6417.325
2924.69136	6410.025
2927.16644	6419.325
2929.64	6387.625
2932.11205	6366.325
2934.58258	6340.125
2937.05161	6371.325
2939.51912	6347.525
2941.98513	6335.225
2944.44962	6297.725
2946.91261	6251.425
2949.37409	6248.025
2951.83407	6232.425
2954.29254	6206.525
2956.74951	6186.825
2959.20498	6191.225
2961.65895	6128.325
2964.11142	6132.325
2966.56239	6094.825
2969.01186	6083.525
2971.45984	6052.325
2973.90632	6050.925
2976.35131	6035.725
2978.7948	6012.625
2981.23681	5995.425
2983.67732	5966.525
2986.11635	5965.825
2988.55388	5919.125
2990.98993	5915.825
2993.4245	5914.625
2995.85758	5897.725
2998.28917	5896.625
3000.71928	5869.125
3003.14791	5880.925
3005.57506	5855.925
3008.00073	5856.825
3010.42493	5831.725
3012.84764	5831.325
3015.26888	5827.325
3017.68865	5809.225
3020.10694	5787.225
3022.52376	5767.025
3024.9391	5774.025
3027.35298	5765.525
3029.76539	5738.925
3032.17632	5753.425
3034.5858	5716.225
3036.9938	5714.325
3039.40034	5701.425
3041.80542	5685.725
3044.20903	5688.425
3046.61118	5666.425
3049.01187	5659.225
3051.4111	5655.125
3053.80888	5644.325
3056.20519	5635.725
3058.60005	5614.725
3060.99345	5596.625
3063.3854	5568.525
3065.7759	5584.425
3068.16494	5543.225
3070.55254	5534.625
3072.93868	5514.225
3075.32338	5497.225
3077.70662	5489.025
3080.08842	5449.225
3082.46878	5432.225
3084.84769	5427.725
3087.22515	5405.325
3089.60118	5425.625
3091.97576	5434.425
3094.3489	5418.725
3096.72061	5425.025
3099.09087	5413.525
3101.4597	5403.325
3103.82709	5398.825
3106.19305	5367.725
3108.55757	5365.725
3110.92066	5347.325
3113.28232	5347.825
3115.64255	5329.325
3118.00134	5327.625
3120.35871	5306.925
3122.71466	5304.125
3125.06917	5302.625
3127.42226	5284.625
3129.77393	5310.825
3132.12417	5286.925
3134.47299	5301.125
3136.82039	5266.925
3139.16636	5289.025
3141.51092	5275.725
3143.85406	5281.725
3146.19579	5284.925
3148.53609	5293.225
3150.87499	5287.425
3153.21246	5284.125
3155.54853	5277.125
3157.88318	5289.825
3160.21642	5286.225
3162.54826	5268.125
3164.87868	5271.625
3167.2077	5253.325
3169.5353	5278.625
3171.86151	5259.825
3174.18631	5259.425
3176.5097	5268.625
3178.83169	5245.925
3181.15228	5247.325
3183.47147	5241.525
3185.78926	5239.125
3188.10565	5250.425
