Data from AgNPs_FTO_APTES_UA_100um_CRN_0.1mM_R6G_10uM_NaF_0.1M_Addition_RamanShift__21__16-09-29-298.txt Node

Date: Tue Dec 21 16:09:29 GMT 2021
User: TCL
Spectrometer: QEP01345
Trigger mode: 4
Integration Time (sec): 7.000000E0
Scans to average: 10
Electric dark correction enabled: true
Nonlinearity correction enabled: false
Boxcar width: 0
XAxis mode: Raman Shifts
Number of Pixels in Spectrum: 1044
>>>>>Begin Spectral Data<<<<<
46.04893	0.325
50.45542	0.425
54.85868	-2.075
59.25871	-0.475
63.6555	37.225
68.04907	40.125
72.43941	43.825
76.82654	42.525
81.21044	49.425
85.59113	50.525
89.96862	47.925
94.34289	50.025
98.71396	53.325
103.08183	55.825
107.4465	57.725
111.80798	59.425
116.16626	60.425
120.52136	60.025
124.87327	61.625
129.222	64.125
133.56755	65.725
137.90993	71.525
142.24913	72.525
146.58517	85.425
150.91804	93.625
155.24774	107.525
159.57429	127.925
163.89768	167.125
168.21792	214.225
172.53501	285.725
176.84895	394.525
181.15975	552.925
185.46741	774.925
189.77193	1060.925
194.07331	1430.925
198.37157	1850.225
202.6667	2295.525
206.9587	2736.625
211.24758	3174.125
215.53334	3622.625
219.81599	4068.525
224.09553	4574.825
228.37195	5117.025
232.64527	5735.725
236.91549	6367.225
241.18261	7039.925
245.44663	7656.025
249.70755	8240.125
253.96539	8697.225
258.22014	9082.325
262.4718	9419.625
266.72039	9639.125
270.96589	9759.325
275.20832	9772.425
279.44768	9699.725
283.68397	9586.625
287.91719	9474.925
292.14735	9413.325
296.37445	9387.925
300.59849	9430.925
304.81948	9473.125
309.03742	9412.425
313.25231	9322.525
317.46415	9082.125
321.67296	8823.725
325.87872	8606.025
330.08145	8535.425
334.28114	8532.725
338.47781	8598.625
342.67145	8707.125
346.86207	8841.325
351.04966	9049.125
355.23424	9243.925
359.4158	9428.025
363.59435	9581.725
367.76989	9689.725
371.94243	9767.125
376.11196	9815.425
380.27849	9891.025
384.44203	9962.625
388.60257	9984.225
392.76012	10060.125
396.91468	10125.725
401.06626	10254.425
405.21485	10349.125
409.36047	10346.525
413.50311	10183.925
417.64277	9969.425
421.77947	9859.825
425.9132	9840.025
430.04396	9837.425
434.17176	9880.325
438.2966	9945.525
442.41849	10065.625
446.53742	10216.925
450.6534	10415.525
454.76644	10564.625
458.87653	10667.125
462.98368	10655.325
467.08789	10606.925
471.18916	10535.625
475.2875	10479.425
479.38291	10453.625
483.4754	10440.025
487.56496	10355.025
491.6516	10269.925
495.73531	10194.725
499.81612	10138.625
503.89401	10142.625
507.96899	10162.125
512.04106	10166.325
516.11023	10183.725
520.1765	10189.325
524.23987	10166.325
528.30034	10134.625
532.35792	10123.125
536.41261	10053.825
540.46441	9972.125
544.51333	9918.325
548.55936	9902.225
552.60252	9990.225
556.64279	10087.525
560.6802	10168.725
564.71473	10179.525
568.7464	10231.925
572.7752	10335.025
576.80114	10368.925
580.82422	10361.425
584.84444	10379.025
588.86181	10417.625
592.87633	10499.525
596.888	10573.125
600.89682	10646.425
604.9028	10995.225
608.90594	11995.425
612.90624	13295.525
616.90371	12976.125
620.89834	11127.425
624.89015	10181.525
628.87913	10120.525
632.86528	10261.725
636.84862	10420.625
640.82913	10380.825
644.80683	10082.825
648.78172	9807.125
652.75379	9678.225
656.72306	9719.725
660.68952	9850.225
664.65319	9843.825
668.61405	9759.025
672.57211	9737.125
676.52738	9779.625
680.47986	9783.425
684.42955	9703.025
688.37646	9660.225
692.32058	9583.525
696.26192	9567.225
700.20048	9606.125
704.13626	9620.525
708.06928	9602.425
711.99952	9543.025
715.927	9484.425
719.85171	9501.325
723.77365	9507.825
727.69284	9476.225
731.60928	9430.925
735.52295	9422.425
739.43388	9419.225
743.34206	9425.525
747.24749	9431.825
751.15017	9413.725
755.05012	9444.825
758.94733	9619.125
762.8418	9977.025
766.73354	10614.125
770.62254	11399.925
774.50882	11870.625
778.39237	11557.425
782.27321	10737.625
786.15132	9948.825
790.02671	9496.225
793.89938	9245.225
797.76935	9165.625
801.6366	9137.625
805.50115	9113.025
809.36299	9137.925
813.22213	9145.425
817.07857	9113.125
820.93231	9050.125
824.78336	8998.625
828.63172	8927.925
832.47738	8893.625
836.32036	8868.525
840.16066	8822.625
843.99827	8818.525
847.8332	8801.425
851.66546	8740.125
855.49504	8766.325
859.32195	8758.225
863.1462	8757.325
866.96777	8775.625
870.78668	8762.225
874.60293	8773.725
878.41652	8780.625
882.22745	8807.525
886.03573	8846.525
889.84136	8847.525
893.64433	8802.825
897.44466	8711.125
901.24235	8637.325
905.0374	8578.125
908.8298	8503.425
912.61957	8481.225
916.40671	8499.125
920.19121	8531.625
923.97308	8558.325
927.75233	8557.625
931.52895	8545.925
935.30295	8488.425
939.07433	8390.025
942.84309	8289.525
946.60924	8246.025
950.37278	8193.325
954.13371	8186.725
957.89203	8144.225
961.64774	8116.425
965.40086	8083.225
969.15137	8025.725
972.89929	7980.025
976.64461	7950.225
980.38733	7923.525
984.12747	7908.825
987.86502	7945.425
991.59999	7974.525
995.33237	8009.025
999.06217	8100.925
1002.78939	8211.325
1006.51404	8315.025
1010.23611	8404.025
1013.95561	8476.025
1017.67255	8527.625
1021.38692	8471.625
1025.09872	8392.625
1028.80796	8292.025
1032.51465	8289.625
1036.21877	8311.525
1039.92035	8322.825
1043.61937	8335.525
1047.31584	8324.125
1051.00976	8281.625
1054.70114	8273.025
1058.38998	8274.325
1062.07627	8292.125
1065.76003	8354.525
1069.44126	8398.525
1073.11995	8441.825
1076.79611	8467.425
1080.46974	8485.125
1084.14085	8471.425
1087.80943	8527.125
1091.47549	8562.525
1095.13903	8565.925
1098.80005	8486.425
1102.45857	8358.125
1106.11456	8306.525
1109.76805	8276.925
1113.41903	8312.825
1117.06751	8430.925
1120.71348	8552.925
1124.35696	8717.425
1127.99793	8905.625
1131.63641	9068.725
1135.2724	9050.425
1138.90589	8928.125
1142.5369	8785.025
1146.16542	8660.425
1149.79145	8547.125
1153.415	8450.325
1157.03607	8440.825
1160.65467	8495.725
1164.27079	8675.825
1167.88443	8940.825
1171.49561	9269.525
1175.10432	9808.825
1178.71056	10495.525
1182.31434	11140.325
1185.91565	11412.525
1189.51451	11393.225
1193.11091	11104.425
1196.70485	10692.425
1200.29634	10364.125
1203.88538	10048.325
1207.47197	9792.725
1211.05612	9511.225
1214.63782	9283.125
1218.21708	9097.225
1221.79391	8992.825
1225.36829	8921.025
1228.94024	8855.925
1232.50976	8798.425
1236.07685	8729.125
1239.6415	8736.425
1243.20374	8727.225
1246.76355	8783.825
1250.32093	8843.725
1253.8759	8981.325
1257.42845	9151.425
1260.97859	9326.025
1264.52631	9461.625
1268.07163	9609.425
1271.61453	9761.225
1275.15503	9906.425
1278.69312	10051.025
1282.22882	10165.725
1285.76211	10373.225
1289.29301	10599.925
1292.82151	10889.225
1296.34761	11259.525
1299.87133	11734.525
1303.39266	12283.525
1306.9116	12905.125
1310.42815	13539.825
1313.94233	13957.625
1317.45412	13893.725
1320.96354	13580.725
1324.47058	13196.125
1327.97525	12852.425
1331.47754	12566.125
1334.97747	12403.825
1338.47502	12421.125
1341.97022	12506.025
1345.46305	12602.525
1348.95352	12743.925
1352.44163	13013.025
1355.92738	13513.525
1359.41078	14206.625
1362.89183	14993.025
1366.37053	14892.525
1369.84688	13626.425
1373.32088	12111.625
1376.79254	11044.525
1380.26186	10538.825
1383.72883	10354.325
1387.19347	10234.825
1390.65578	10096.125
1394.11575	10016.725
1397.57339	9986.325
1401.0287	10047.225
1404.48168	10118.825
1407.93234	10156.825
1411.38068	10059.725
1414.82669	9890.825
1418.27039	9629.425
1421.71177	9349.825
1425.15083	9052.525
1428.58758	8882.325
1432.02203	8841.525
1435.45416	8878.825
1438.88399	9014.325
1442.31151	9088.525
1445.73673	9199.425
1449.15965	9338.525
1452.58027	9412.325
1455.9986	9469.225
1459.41463	9541.025
1462.82837	9655.725
1466.23982	9807.425
1469.64898	9893.725
1473.05586	9987.025
1476.46045	9986.025
1479.86276	10000.625
1483.26279	9984.725
1486.66054	10007.525
1490.05602	10059.725
1493.44922	10197.125
1496.84016	10404.025
1500.22882	10795.825
1503.61521	11350.425
1506.99934	12072.825
1510.38121	12675.125
1513.76081	12893.425
1517.13816	12547.125
1520.51324	11779.625
1523.88607	10989.725
1527.25665	10478.025
1530.62498	10175.225
1533.99105	10008.625
1537.35488	9909.925
1540.71647	9797.925
1544.07581	9667.225
1547.4329	9579.825
1550.78776	9501.025
1554.14038	9441.425
1557.49077	9478.425
1560.83892	9533.825
1564.18484	9634.525
1567.52853	9723.125
1570.86999	9817.625
1574.20922	9914.825
1577.54624	9946.325
1580.88103	9853.125
1584.2136	9607.125
1587.54395	9528.625
1590.87208	9645.825
1594.19801	9961.325
1597.52172	10350.025
1600.84321	10573.825
1604.16251	10384.025
1607.47959	9881.925
1610.79447	9339.325
1614.10715	8843.925
1617.41763	8367.625
1620.7259	8067.925
1624.03199	7850.025
1627.33587	7780.825
1630.63757	7894.625
1633.93707	8121.625
1637.23439	8499.025
1640.52951	9114.225
1643.82246	9924.025
1647.11321	10726.925
1650.40179	11289.525
1653.68819	11099.025
1656.97241	10170.725
1660.25446	9119.725
1663.53433	8240.525
1666.81203	7656.825
1670.08756	7301.225
1673.36092	7041.225
1676.63211	6880.925
1679.90115	6774.825
1683.16801	6685.825
1686.43272	6595.825
1689.69527	6551.225
1692.95567	6489.225
1696.2139	6485.225
1699.46999	6481.925
1702.72392	6403.325
1705.97571	6344.725
1709.22535	6283.425
1712.47284	6230.225
1715.71819	6191.025
1718.96139	6160.925
1722.20246	6134.625
1725.44139	6121.825
1728.67818	6078.025
1731.91284	6037.425
1735.14537	5991.125
1738.37576	5983.825
1741.60403	5968.025
1744.83017	5961.425
1748.05418	5948.225
1751.27607	5933.325
1754.49584	5922.325
1757.71349	5930.425
1760.92903	5923.625
1764.14244	5921.625
1767.35375	5908.025
1770.56294	5897.125
1773.77002	5835.925
1776.97499	5807.725
1780.17785	5788.625
1783.37861	5762.425
1786.57727	5743.425
1789.77382	5711.125
1792.96828	5680.825
1796.16064	5673.025
1799.3509	5658.625
1802.53907	5649.725
1805.72514	5636.925
1808.90913	5602.325
1812.09102	5571.625
1815.27083	5570.625
1818.44856	5549.125
1821.6242	5517.125
1824.79776	5525.425
1827.96924	5515.525
1831.13864	5507.725
1834.30597	5506.925
1837.47122	5467.225
1840.6344	5486.325
1843.7955	5472.725
1846.95454	5457.125
1850.11151	5456.225
1853.26642	5464.225
1856.41926	5448.225
1859.57004	5432.825
1862.71876	5433.925
1865.86542	5420.825
1869.01003	5407.825
1872.15258	5423.225
1875.29308	5407.725
1878.43152	5395.425
1881.56792	5383.825
1884.70227	5357.125
1887.83457	5352.625
1890.96482	5344.825
1894.09304	5337.525
1897.21921	5331.425
1900.34335	5334.125
1903.46544	5314.925
1906.58551	5295.125
1909.70353	5309.025
1912.81953	5303.125
1915.93349	5282.025
1919.04543	5254.725
1922.15534	5248.725
1925.26322	5241.625
1928.36908	5218.925
1931.47292	5205.625
1934.57473	5210.725
1937.67453	5195.125
1940.77232	5177.325
1943.86808	5157.125
1946.96184	5138.725
1950.05358	5104.125
1953.14331	5108.625
1956.23103	5089.225
1959.31675	5070.925
1962.40046	5068.025
1965.48217	5037.625
1968.56188	5034.425
1971.63959	4992.425
1974.7153	5000.525
1977.78901	4966.525
1980.86073	4957.225
1983.93046	4935.125
1986.99819	4929.125
1990.06394	4897.725
1993.1277	4900.825
1996.18947	4857.025
1999.24925	4857.925
2002.30706	4829.325
2005.36288	4824.925
2008.41672	4812.025
2011.46859	4799.525
2014.51848	4770.725
2017.56639	4751.225
2020.61233	4744.025
2023.6563	4725.925
2026.6983	4719.125
2029.73833	4712.925
2032.7764	4683.825
2035.8125	4657.425
2038.84664	4662.125
2041.87881	4665.425
2044.90903	4642.425
2047.93729	4637.725
2050.96359	4623.225
2053.98794	4628.025
2057.01034	4611.925
2060.03078	4611.325
2063.04927	4586.325
2066.06582	4584.625
2069.08042	4580.825
2072.09307	4567.125
2075.10378	4572.325
2078.11255	4566.825
2081.11938	4559.725
2084.12426	4559.225
2087.12722	4548.425
2090.12824	4553.925
2093.12732	4549.025
2096.12447	4540.625
2099.11969	4534.425
2102.11299	4541.425
2105.10435	4543.425
2108.09379	4540.625
2111.08131	4536.425
2114.0669	4535.825
2117.05057	4523.325
2120.03233	4532.125
2123.01216	4544.125
2125.99008	4548.725
2128.96609	4545.325
2131.94018	4535.325
2134.91236	4529.225
2137.88263	4543.325
2140.851	4526.825
2143.81746	4542.825
2146.78201	4528.925
2149.74466	4545.325
2152.7054	4529.825
2155.66425	4544.525
2158.6212	4513.225
2161.57625	4516.325
2164.52941	4519.225
2167.48067	4522.625
2170.43004	4503.925
2173.37752	4506.425
2176.32311	4510.725
2179.26681	4503.525
2182.20863	4500.125
2185.14856	4501.525
2188.08661	4498.225
2191.02278	4476.025
2193.95707	4478.225
2196.88948	4472.025
2199.82001	4475.525
2202.74867	4466.725
2205.67545	4453.525
2208.60037	4443.025
2211.52341	4444.825
2214.44458	4435.525
2217.36388	4430.625
2220.28132	4420.625
2223.1969	4411.725
2226.11061	4398.025
2229.02246	4369.925
2231.93245	4373.625
2234.84058	4359.125
2237.74686	4364.025
2240.65128	4454.025
2243.55385	4389.625
2246.45456	4353.125
2249.35343	4313.725
2252.25044	4309.825
2255.14561	4297.725
2258.03893	4293.725
2260.93041	4318.125
2263.82004	4282.725
2266.70783	4281.125
2269.59378	4249.325
2272.4779	4241.725
2275.36017	4223.225
2278.24061	4235.525
2281.11922	4215.825
2283.996	4210.125
2286.87094	4197.425
2289.74405	4188.025
2292.61534	4182.125
2295.4848	4163.525
2298.35243	4170.425
2301.21824	4161.125
2304.08223	4151.925
2306.94439	4141.725
2309.80474	4134.925
2312.66327	4141.925
2315.51999	4133.525
2318.37489	4134.925
2321.22797	4130.125
2324.07925	4116.325
2326.92871	4114.125
2329.77637	4123.925
2332.62222	4085.425
2335.46626	4097.725
2338.3085	4083.125
2341.14893	4079.525
2343.98756	4071.225
2346.8244	4065.525
2349.65943	4072.925
2352.49267	4053.725
2355.32411	4064.625
2358.15376	4065.725
2360.98161	4064.725
2363.80768	4051.925
2366.63195	4054.625
2369.45444	4034.125
2372.27514	4043.725
2375.09405	4035.425
2377.91118	4009.025
2380.72652	4006.125
2383.54009	3997.225
2386.35187	3987.925
2389.16188	3963.925
2391.97011	3953.325
2394.77657	3957.225
2397.58125	3950.525
2400.38416	3948.825
2403.18529	3931.425
2405.98466	3934.125
2408.78226	3920.725
2411.57809	3899.725
2414.37216	3887.525
2417.16446	3894.925
2419.955	3890.725
2422.74378	3883.825
2425.5308	3882.625
2428.31606	3876.825
2431.09956	3869.625
2433.88131	3854.425
2436.6613	3864.925
2439.43954	3863.525
2442.21603	3839.925
2444.99077	3841.425
2447.76377	3845.525
2450.53501	3831.825
2453.30451	3828.725
2456.07226	3825.125
2458.83827	3829.825
2461.60254	3812.025
2464.36507	3811.225
2467.12586	3803.625
2469.88492	3807.825
2472.64224	3801.425
2475.39782	3815.125
2478.15167	3826.125
2480.90379	3804.825
2483.65417	3775.125
2486.40283	3794.025
2489.14976	3796.525
2491.89497	3806.425
2494.63845	3805.625
2497.3802	3797.525
2500.12024	3788.325
2502.85855	3782.225
2505.59514	3778.925
2508.33002	3773.825
2511.06318	3753.625
2513.79462	3742.225
2516.52435	3747.625
2519.25237	3739.525
2521.97867	3726.525
2524.70327	3729.225
2527.42616	3729.425
2530.14734	3704.325
2532.86681	3700.925
2535.58458	3707.425
2538.30065	3697.025
2541.01501	3697.825
2543.72768	3695.125
2546.43864	3667.625
2549.14791	3679.825
2551.85548	3665.625
2554.56136	3656.925
2557.26554	3653.425
2559.96803	3649.625
2562.66883	3649.525
2565.36794	3626.525
2568.06536	3629.225
2570.7611	3614.225
2573.45514	3623.225
2576.14751	3618.925
2578.83819	3602.125
2581.52719	3599.725
2584.21451	3598.725
2586.90015	3582.625
2589.58411	3593.825
2592.2664	3591.625
2594.94701	3570.125
2597.62594	3560.825
2600.30321	3562.425
2602.9788	3556.325
2605.65273	3541.525
2608.32498	3547.725
2610.99557	3550.825
2613.66449	3547.225
2616.33175	3516.625
2618.99734	3537.125
2621.66128	3539.425
2624.32355	3513.525
2626.98416	3525.225
2629.64311	3500.625
2632.30041	3510.925
2634.95605	3507.925
2637.61004	3503.025
2640.26238	3485.025
2642.91306	3487.725
2645.56209	3485.125
2648.20948	3486.525
2650.85521	3483.925
2653.4993	3475.425
2656.14175	3480.025
2658.78255	3472.425
2661.42171	3463.025
2664.05923	3470.925
2666.6951	3472.725
2669.32934	3465.525
2671.96194	3461.725
2674.59291	3477.125
2677.22224	3465.925
2679.84993	3481.525
2682.476	3475.825
2685.10043	3470.725
2687.72324	3451.625
2690.34441	3472.525
2692.96396	3459.925
2695.58188	3461.325
2698.19818	3457.025
2700.81285	3456.925
2703.4259	3475.525
2706.03733	3530.325
2708.64714	3490.825
2711.25533	3476.225
2713.86191	3459.625
2716.46687	3469.825
2719.07021	3463.525
2721.67194	3455.725
2724.27206	3454.325
2726.87057	3445.125
2729.46747	3447.525
2732.06276	3447.825
2734.65644	3456.225
2737.24852	3465.425
2739.83899	3433.625
2742.42786	3442.725
2745.01513	3425.525
2747.60079	3427.325
2750.18486	3424.225
2752.76733	3418.425
2755.3482	3432.225
2757.92747	3413.825
2760.50515	3405.825
2763.08123	3408.725
2765.65573	3395.125
2768.22863	3416.925
2770.79994	3397.725
2773.36967	3400.825
2775.9378	3388.625
2778.50435	3381.225
2781.06932	3380.325
2783.6327	3377.725
2786.1945	3370.325
2788.75471	3359.825
2791.31335	3359.325
2793.87041	3351.725
2796.42589	3343.525
2798.97979	3341.325
2801.53212	3341.025
2804.08288	3334.625
2806.63206	3333.825
2809.17967	3323.325
2811.72571	3304.325
2814.27018	3311.925
2816.81308	3289.625
2819.35442	3287.625
2821.89419	3287.225
2824.43239	3295.025
2826.96904	3282.925
2829.50412	3300.825
2832.03763	3269.225
2834.56959	3263.025
2837.1	3265.125
2839.62884	3281.425
2842.15613	3265.425
2844.68186	3275.225
2847.20604	3279.125
2849.72867	3280.025
2852.24974	3272.025
2854.76927	3272.025
2857.28724	3276.225
2859.80367	3265.325
2862.31855	3254.425
2864.83189	3260.825
2867.34368	3229.525
2869.85393	3237.325
2872.36264	3226.025
2874.8698	3227.925
2877.37543	3233.925
2879.87952	3247.125
2882.38207	3245.625
2884.88308	3238.025
2887.38256	3248.925
2889.88051	3241.425
2892.37692	3235.425
2894.8718	3242.725
2897.36515	3246.625
2899.85698	3233.725
2902.34727	3248.225
2904.83604	3249.025
2907.32328	3246.225
2909.809	3241.525
2912.29319	3244.225
2914.77587	3247.625
2917.25702	3250.625
2919.73665	3242.325
2922.21476	3249.525
2924.69136	3253.225
2927.16644	3245.725
2929.64	3230.225
2932.11205	3233.225
2934.58258	3238.325
2937.05161	3238.125
2939.51912	3241.925
2941.98513	3240.625
2944.44962	3219.225
2946.91261	3229.325
2949.37409	3226.125
2951.83407	3223.825
2954.29254	3220.425
2956.74951	3218.925
2959.20498	3211.025
2961.65895	3180.625
2964.11142	3202.825
2966.56239	3178.425
2969.01186	3185.525
2971.45984	3161.825
2973.90632	3168.425
2976.35131	3172.625
2978.7948	3156.525
2981.23681	3138.625
2983.67732	3135.825
2986.11635	3136.825
2988.55388	3126.025
2990.98993	3121.125
2993.4245	3112.125
2995.85758	3099.925
2998.28917	3089.025
3000.71928	3097.125
3003.14791	3088.925
3005.57506	3101.325
3008.00073	3088.025
3010.42493	3081.225
3012.84764	3077.325
3015.26888	3077.725
3017.68865	3062.325
3020.10694	3076.525
3022.52376	3057.825
3024.9391	3063.625
3027.35298	3051.425
3029.76539	3051.725
3032.17632	3049.325
3034.5858	3039.025
3036.9938	3042.025
3039.40034	3029.425
3041.80542	3026.625
3044.20903	3029.025
3046.61118	3029.225
3049.01187	3023.025
3051.4111	3017.825
3053.80888	3016.025
3056.20519	3001.325
3058.60005	3003.825
3060.99345	2996.225
3063.3854	2988.325
3065.7759	2982.225
3068.16494	2980.925
3070.55254	2976.225
3072.93868	2978.925
3075.32338	2984.125
3077.70662	2965.125
3080.08842	2963.725
3082.46878	2961.925
3084.84769	2962.925
3087.22515	2962.925
3089.60118	2969.525
3091.97576	2963.125
3094.3489	2963.625
3096.72061	2962.425
3099.09087	2970.725
3101.4597	2961.725
3103.82709	2977.025
3106.19305	2968.625
3108.55757	2983.925
3110.92066	2953.225
3113.28232	2955.725
3115.64255	2948.425
3118.00134	2952.425
3120.35871	2941.825
3122.71466	2938.725
3125.06917	2940.225
3127.42226	2933.125
3129.77393	2954.525
3132.12417	2945.225
3134.47299	2951.125
3136.82039	2957.925
3139.16636	2944.725
3141.51092	2960.725
3143.85406	2962.525
3146.19579	2967.225
3148.53609	2968.125
3150.87499	2964.525
3153.21246	2973.725
3155.54853	2987.725
3157.88318	2976.025
3160.21642	2982.225
3162.54826	2982.625
3164.87868	2984.525
3167.2077	2990.625
3169.5353	2979.925
3171.86151	2985.125
3174.18631	2988.825
3176.5097	2991.025
3178.83169	3000.725
3181.15228	2987.325
3183.47147	2972.325
3185.78926	2996.525
3188.10565	2996.925
3190.42065	2991.525
3192.73424	3004.525
3195.04645	2990.225
3197.35725	2996.425
3199.66667	3018.425
3201.97469	3009.825
3204.28132	3016.625
3206.58656	3016.725
3208.8904	3015.225
3211.19287	3029.525
3213.49394	3022.425
3215.79363	3034.425
3218.09193	3039.825
3220.38884	3037.925
