Data from AgNPs_FTO_APTES_UA_5um_CRN_0.1mM_R6G_10uM_NaF_0.1M_Addition_RamanShift__12__13-10-59-093.txt Node

Date: Tue Dec 21 13:10:59 GMT 2021
User: TCL
Spectrometer: QEP01345
Trigger mode: 4
Integration Time (sec): 7.000000E0
Scans to average: 10
Electric dark correction enabled: true
Nonlinearity correction enabled: false
Boxcar width: 0
XAxis mode: Raman Shifts
Number of Pixels in Spectrum: 1044
>>>>>Begin Spectral Data<<<<<
46.04893	1.0125
50.45542	-0.7875
54.85868	-1.7875
59.25871	-0.1875
63.6555	34.0125
68.04907	41.7125
72.43941	43.5125
76.82654	44.8125
81.21044	47.4125
85.59113	49.3125
89.96862	50.9125
94.34289	51.5125
98.71396	53.4125
103.08183	57.8125
107.4465	60.0125
111.80798	60.6125
116.16626	57.1125
120.52136	60.9125
124.87327	62.4125
129.222	62.5125
133.56755	66.3125
137.90993	75.5125
142.24913	78.1125
146.58517	88.2125
150.91804	98.4125
155.24774	120.1125
159.57429	146.5125
163.89768	187.9125
168.21792	237.7125
172.53501	323.0125
176.84895	449.8125
181.15975	627.3125
185.46741	882.8125
189.77193	1225.7125
194.07331	1644.6125
198.37157	2130.7125
202.6667	2634.0125
206.9587	3161.1125
211.24758	3672.5125
215.53334	4188.5125
219.81599	4723.2125
224.09553	5323.1125
228.37195	5953.3125
232.64527	6680.1125
236.91549	7408.9125
241.18261	8181.4125
245.44663	8865.0125
249.70755	9486.3125
253.96539	10006.1125
258.22014	10418.6125
262.4718	10753.6125
266.72039	10971.4125
270.96589	11027.3125
275.20832	11004.9125
279.44768	10945.8125
283.68397	10811.5125
287.91719	10712.2125
292.14735	10633.3125
296.37445	10573.4125
300.59849	10568.4125
304.81948	10602.5125
309.03742	10615.5125
313.25231	10543.6125
317.46415	10361.6125
321.67296	10110.9125
325.87872	9872.3125
330.08145	9708.9125
334.28114	9653.7125
338.47781	9695.0125
342.67145	9784.5125
346.86207	9902.6125
351.04966	10070.6125
355.23424	10229.2125
359.4158	10350.3125
363.59435	10410.4125
367.76989	10491.2125
371.94243	10517.6125
376.11196	10544.9125
380.27849	10533.6125
384.44203	10566.2125
388.60257	10654.1125
392.76012	10760.4125
396.91468	10936.3125
401.06626	11166.0125
405.21485	11267.1125
409.36047	11296.3125
413.50311	11123.2125
417.64277	10991.5125
421.77947	10953.5125
425.9132	10956.4125
430.04396	11014.8125
434.17176	11053.4125
438.2966	11113.0125
442.41849	11223.3125
446.53742	11366.8125
450.6534	11561.5125
454.76644	11718.2125
458.87653	11802.5125
462.98368	11804.7125
467.08789	11765.5125
471.18916	11661.1125
475.2875	11594.2125
479.38291	11515.1125
483.4754	11461.7125
487.56496	11417.0125
491.6516	11331.9125
495.73531	11231.0125
499.81612	11193.3125
503.89401	11190.4125
507.96899	11219.8125
512.04106	11179.2125
516.11023	11109.7125
520.1765	11017.8125
524.23987	10929.2125
528.30034	10845.6125
532.35792	10751.5125
536.41261	10652.4125
540.46441	10562.7125
544.51333	10544.6125
548.55936	10669.0125
552.60252	10851.1125
556.64279	11025.2125
560.6802	11141.4125
564.71473	11215.8125
568.7464	11413.3125
572.7752	11736.8125
576.80114	12124.0125
580.82422	12523.2125
584.84444	12890.1125
588.86181	13146.8125
592.87633	13294.2125
596.888	13239.1125
600.89682	13005.4125
604.9028	12979.8125
608.90594	13623.9125
612.90624	14421.8125
616.90371	13634.4125
620.89834	11691.7125
624.89015	10774.9125
628.87913	10710.6125
632.86528	10859.3125
636.84862	10971.4125
640.82913	10845.2125
644.80683	10616.4125
648.78172	10382.5125
652.75379	10312.6125
656.72306	10447.7125
660.68952	10558.4125
664.65319	10565.7125
668.61405	10483.1125
672.57211	10468.9125
676.52738	10512.3125
680.47986	10556.5125
684.42955	10522.9125
688.37646	10465.6125
692.32058	10433.1125
696.26192	10477.1125
700.20048	10542.3125
704.13626	10630.1125
708.06928	10670.8125
711.99952	10674.1125
715.927	10622.3125
719.85171	10577.2125
723.77365	10498.5125
727.69284	10375.7125
731.60928	10249.4125
735.52295	10195.9125
739.43388	10181.9125
743.34206	10174.4125
747.24749	10211.2125
751.15017	10333.7125
755.05012	10463.6125
758.94733	10763.2125
762.8418	11259.1125
766.73354	12082.6125
770.62254	12875.7125
774.50882	13043.1125
778.39237	12479.0125
782.27321	11650.0125
786.15132	10944.2125
790.02671	10474.7125
793.89938	10202.0125
797.76935	10060.9125
801.6366	10022.6125
805.50115	9956.9125
809.36299	9920.6125
813.22213	9827.6125
817.07857	9813.5125
820.93231	9800.9125
824.78336	9738.3125
828.63172	9742.6125
832.47738	9714.2125
836.32036	9675.9125
840.16066	9656.3125
843.99827	9620.0125
847.8332	9629.3125
851.66546	9609.8125
855.49504	9627.7125
859.32195	9618.1125
863.1462	9591.1125
866.96777	9586.2125
870.78668	9577.0125
874.60293	9580.3125
878.41652	9566.0125
882.22745	9605.5125
886.03573	9640.0125
889.84136	9666.2125
893.64433	9642.7125
897.44466	9618.9125
901.24235	9584.5125
905.0374	9578.2125
908.8298	9544.0125
912.61957	9528.0125
916.40671	9620.8125
920.19121	9712.2125
923.97308	9837.2125
927.75233	9871.8125
931.52895	9806.0125
935.30295	9661.8125
939.07433	9467.6125
942.84309	9293.5125
946.60924	9196.9125
950.37278	9138.4125
954.13371	9105.9125
957.89203	9080.7125
961.64774	9094.1125
965.40086	9089.3125
969.15137	9075.4125
972.89929	8995.0125
976.64461	8975.4125
980.38733	8925.8125
984.12747	8919.7125
987.86502	8929.2125
991.59999	8967.7125
995.33237	8991.9125
999.06217	9069.9125
1002.78939	9196.0125
1006.51404	9327.4125
1010.23611	9481.0125
1013.95561	9594.8125
1017.67255	9599.9125
1021.38692	9559.3125
1025.09872	9470.6125
1028.80796	9344.6125
1032.51465	9306.8125
1036.21877	9295.1125
1039.92035	9358.2125
1043.61937	9444.7125
1047.31584	9504.9125
1051.00976	9548.2125
1054.70114	9619.3125
1058.38998	9644.9125
1062.07627	9741.8125
1065.76003	9856.4125
1069.44126	9980.5125
1073.11995	10199.6125
1076.79611	10350.0125
1080.46974	10396.6125
1084.14085	10416.8125
1087.80943	10442.4125
1091.47549	10549.7125
1095.13903	10633.0125
1098.80005	10547.5125
1102.45857	10291.6125
1106.11456	9997.7125
1109.76805	9810.6125
1113.41903	9764.9125
1117.06751	9757.8125
1120.71348	9851.3125
1124.35696	10001.9125
1127.99793	10124.3125
1131.63641	10255.0125
1135.2724	10242.3125
1138.90589	10160.8125
1142.5369	10165.9125
1146.16542	10179.3125
1149.79145	10206.3125
1153.415	10301.6125
1157.03607	10408.9125
1160.65467	10595.1125
1164.27079	10922.5125
1167.88443	11399.5125
1171.49561	11986.3125
1175.10432	12727.3125
1178.71056	13561.3125
1182.31434	14400.9125
1185.91565	14902.3125
1189.51451	15034.4125
1193.11091	14866.6125
1196.70485	14378.5125
1200.29634	13771.3125
1203.88538	13270.7125
1207.47197	12880.7125
1211.05612	12586.2125
1214.63782	12344.9125
1218.21708	12029.3125
1221.79391	11729.7125
1225.36829	11500.3125
1228.94024	11404.1125
1232.50976	11313.1125
1236.07685	11271.2125
1239.6415	11214.9125
1243.20374	11189.6125
1246.76355	11241.3125
1250.32093	11377.2125
1253.8759	11525.8125
1257.42845	11814.2125
1260.97859	12154.1125
1264.52631	12482.7125
1268.07163	12789.1125
1271.61453	13089.5125
1275.15503	13397.7125
1278.69312	13763.5125
1282.22882	14109.4125
1285.76211	14519.9125
1289.29301	14972.7125
1292.82151	15457.6125
1296.34761	15981.6125
1299.87133	16604.9125
1303.39266	17265.1125
1306.9116	17923.2125
1310.42815	18528.4125
1313.94233	18859.0125
1317.45412	18805.1125
1320.96354	18609.1125
1324.47058	18394.1125
1327.97525	18296.1125
1331.47754	18258.8125
1334.97747	18284.6125
1338.47502	18313.1125
1341.97022	18319.5125
1345.46305	18343.0125
1348.95352	18328.9125
1352.44163	18316.7125
1355.92738	18414.5125
1359.41078	18749.4125
1362.89183	19200.5125
1366.37053	19106.7125
1369.84688	18050.7125
1373.32088	16486.6125
1376.79254	15237.6125
1380.26186	14512.9125
1383.72883	14202.1125
1387.19347	13977.1125
1390.65578	13765.9125
1394.11575	13586.8125
1397.57339	13508.8125
1401.0287	13531.0125
1404.48168	13550.4125
1407.93234	13493.6125
1411.38068	13274.9125
1414.82669	12967.1125
1418.27039	12574.9125
1421.71177	12170.4125
1425.15083	11798.6125
1428.58758	11605.6125
1432.02203	11584.1125
1435.45416	11699.3125
1438.88399	11868.7125
1442.31151	12019.7125
1445.73673	12203.7125
1449.15965	12408.4125
1452.58027	12546.5125
1455.9986	12694.9125
1459.41463	12828.2125
1462.82837	13036.2125
1466.23982	13267.7125
1469.64898	13537.6125
1473.05586	13723.8125
1476.46045	13849.6125
1479.86276	13899.2125
1483.26279	13993.9125
1486.66054	14117.2125
1490.05602	14381.8125
1493.44922	14779.7125
1496.84016	15254.0125
1500.22882	15926.2125
1503.61521	16675.2125
1506.99934	17396.6125
1510.38121	17833.7125
1513.76081	17755.7125
1517.13816	17232.6125
1520.51324	16523.4125
1523.88607	15861.7125
1527.25665	15416.1125
1530.62498	15098.4125
1533.99105	14825.7125
1537.35488	14481.7125
1540.71647	14098.5125
1544.07581	13689.7125
1547.4329	13273.4125
1550.78776	12941.8125
1554.14038	12739.8125
1557.49077	12695.8125
1560.83892	12751.3125
1564.18484	12888.5125
1567.52853	13031.0125
1570.86999	13179.0125
1574.20922	13354.3125
1577.54624	13426.6125
1580.88103	13304.7125
1584.2136	13111.5125
1587.54395	13077.1125
1590.87208	13289.9125
1594.19801	13793.2125
1597.52172	14375.9125
1600.84321	14534.7125
1604.16251	14148.7125
1607.47959	13395.5125
1610.79447	12576.9125
1614.10715	11715.1125
1617.41763	11001.6125
1620.7259	10470.7125
1624.03199	10145.1125
1627.33587	10007.3125
1630.63757	10138.3125
1633.93707	10526.3125
1637.23439	11277.6125
1640.52951	12461.8125
1643.82246	13991.7125
1647.11321	15557.2125
1650.40179	16523.3125
1653.68819	16286.8125
1656.97241	14924.3125
1660.25446	13081.7125
1663.53433	11415.1125
1666.81203	10189.2125
1670.08756	9390.4125
1673.36092	8872.9125
1676.63211	8558.6125
1679.90115	8334.3125
1683.16801	8194.4125
1686.43272	8063.0125
1689.69527	7981.6125
1692.95567	7924.6125
1696.2139	7873.5125
1699.46999	7847.6125
1702.72392	7825.0125
1705.97571	7768.6125
1709.22535	7746.8125
1712.47284	7710.7125
1715.71819	7684.9125
1718.96139	7635.9125
1722.20246	7607.4125
1725.44139	7575.3125
1728.67818	7541.4125
1731.91284	7482.2125
1735.14537	7442.4125
1738.37576	7400.9125
1741.60403	7388.9125
1744.83017	7366.9125
1748.05418	7347.9125
1751.27607	7356.5125
1754.49584	7368.6125
1757.71349	7382.0125
1760.92903	7367.1125
1764.14244	7351.3125
1767.35375	7338.8125
1770.56294	7299.2125
1773.77002	7263.9125
1776.97499	7219.2125
1780.17785	7185.1125
1783.37861	7170.4125
1786.57727	7106.5125
1789.77382	7084.0125
1792.96828	7053.8125
1796.16064	7035.5125
1799.3509	7037.0125
1802.53907	7000.3125
1805.72514	6948.9125
1808.90913	6959.4125
1812.09102	6935.0125
1815.27083	6913.6125
1818.44856	6878.5125
1821.6242	6866.3125
1824.79776	6870.7125
1827.96924	6855.9125
1831.13864	6848.7125
1834.30597	6854.4125
1837.47122	6853.6125
1840.6344	6830.2125
1843.7955	6813.1125
1846.95454	6816.4125
1850.11151	6829.1125
1853.26642	6794.1125
1856.41926	6801.8125
1859.57004	6784.4125
1862.71876	6775.1125
1865.86542	6784.9125
1869.01003	6760.0125
1872.15258	6750.4125
1875.29308	6734.6125
1878.43152	6718.6125
1881.56792	6701.8125
1884.70227	6689.0125
1887.83457	6673.7125
1890.96482	6654.3125
1894.09304	6663.6125
1897.21921	6657.6125
1900.34335	6628.0125
1903.46544	6627.2125
1906.58551	6619.6125
1909.70353	6588.7125
1912.81953	6565.3125
1915.93349	6551.3125
1919.04543	6548.9125
1922.15534	6528.0125
1925.26322	6537.0125
1928.36908	6495.1125
1931.47292	6468.0125
1934.57473	6454.6125
1937.67453	6452.5125
1940.77232	6421.5125
1943.86808	6410.5125
1946.96184	6381.6125
1950.05358	6378.3125
1953.14331	6348.7125
1956.23103	6313.8125
1959.31675	6291.8125
1962.40046	6273.9125
1965.48217	6261.3125
1968.56188	6225.9125
1971.63959	6199.9125
1974.7153	6196.0125
1977.78901	6165.2125
1980.86073	6144.4125
1983.93046	6129.7125
1986.99819	6095.1125
1990.06394	6094.4125
1993.1277	6057.6125
1996.18947	6027.1125
1999.24925	6014.1125
2002.30706	5991.3125
2005.36288	5972.2125
2008.41672	5951.6125
2011.46859	5921.4125
2014.51848	5913.6125
2017.56639	5891.9125
2020.61233	5869.2125
2023.6563	5855.1125
2026.6983	5852.0125
2029.73833	5849.5125
2032.7764	5809.2125
2035.8125	5788.4125
2038.84664	5767.7125
2041.87881	5763.4125
2044.90903	5747.0125
2047.93729	5737.8125
2050.96359	5763.6125
2053.98794	5720.0125
2057.01034	5728.8125
2060.03078	5719.7125
2063.04927	5686.2125
2066.06582	5689.1125
2069.08042	5683.1125
2072.09307	5685.6125
2075.10378	5661.0125
2078.11255	5664.9125
2081.11938	5667.7125
2084.12426	5659.1125
2087.12722	5663.8125
2090.12824	5655.9125
2093.12732	5659.4125
2096.12447	5667.3125
2099.11969	5644.6125
2102.11299	5630.9125
2105.10435	5629.7125
2108.09379	5666.3125
2111.08131	5660.1125
2114.0669	5653.1125
2117.05057	5642.9125
2120.03233	5647.7125
2123.01216	5654.7125
2125.99008	5644.6125
2128.96609	5660.0125
2131.94018	5658.8125
2134.91236	5662.2125
2137.88263	5653.6125
2140.851	5637.5125
2143.81746	5631.9125
2146.78201	5650.6125
2149.74466	5619.3125
2152.7054	5643.5125
2155.66425	5634.6125
2158.6212	5633.6125
2161.57625	5621.5125
2164.52941	5614.1125
2167.48067	5616.9125
2170.43004	5595.9125
2173.37752	5621.7125
2176.32311	5590.3125
2179.26681	5570.5125
2182.20863	5581.9125
2185.14856	5596.8125
2188.08661	5584.0125
2191.02278	5581.1125
2193.95707	5582.0125
2196.88948	5576.6125
2199.82001	5542.4125
2202.74867	5541.1125
2205.67545	5534.7125
2208.60037	5516.4125
2211.52341	5515.5125
2214.44458	5514.3125
2217.36388	5493.8125
2220.28132	5481.0125
2223.1969	5467.5125
2226.11061	5470.0125
2229.02246	5461.6125
2231.93245	5436.7125
2234.84058	5435.1125
2237.74686	5439.8125
2240.65128	5407.6125
2243.55385	5415.0125
2246.45456	5408.4125
2249.35343	5394.6125
2252.25044	5368.2125
2255.14561	5371.6125
2258.03893	5368.5125
2260.93041	5358.7125
2263.82004	5343.5125
2266.70783	5331.8125
2269.59378	5305.7125
2272.4779	5291.8125
2275.36017	5261.4125
2278.24061	5252.8125
2281.11922	5248.4125
2283.996	5235.7125
2286.87094	5218.9125
2289.74405	5214.6125
2292.61534	5202.7125
2295.4848	5198.6125
2298.35243	5182.3125
2301.21824	5181.3125
2304.08223	5173.9125
2306.94439	5160.5125
2309.80474	5155.0125
2312.66327	5153.8125
2315.51999	5148.3125
2318.37489	5136.2125
2321.22797	5119.3125
2324.07925	5108.6125
2326.92871	5112.3125
2329.77637	5112.7125
2332.62222	5102.9125
2335.46626	5102.1125
2338.3085	5084.3125
2341.14893	5063.1125
2343.98756	5067.7125
2346.8244	5070.4125
2349.65943	5061.2125
2352.49267	5077.0125
2355.32411	5046.8125
2358.15376	5080.5125
2360.98161	5058.8125
2363.80768	5045.5125
2366.63195	5064.7125
2369.45444	5041.9125
2372.27514	5027.2125
2375.09405	5022.4125
2377.91118	5018.0125
2380.72652	5006.6125
2383.54009	4998.0125
2386.35187	4980.6125
2389.16188	4976.7125
2391.97011	4952.0125
2394.77657	4938.1125
2397.58125	4936.2125
2400.38416	4914.8125
2403.18529	4915.6125
2405.98466	4910.1125
2408.78226	4887.8125
2411.57809	4883.8125
2414.37216	4878.8125
2417.16446	4881.8125
2419.955	4870.4125
2422.74378	4872.8125
2425.5308	4849.7125
2428.31606	4859.5125
2431.09956	4843.1125
2433.88131	4830.2125
2436.6613	4834.6125
2439.43954	4834.0125
2442.21603	4809.2125
2444.99077	4809.6125
2447.76377	4824.3125
2450.53501	4818.5125
2453.30451	4820.9125
2456.07226	4803.5125
2458.83827	4799.5125
2461.60254	4794.5125
2464.36507	4795.8125
2467.12586	4787.2125
2469.88492	4793.2125
2472.64224	4778.1125
2475.39782	4798.2125
2478.15167	4783.0125
2480.90379	4758.8125
2483.65417	4775.7125
2486.40283	4764.1125
2489.14976	4760.8125
2491.89497	4745.6125
2494.63845	4765.3125
2497.3802	4768.3125
2500.12024	4758.3125
2502.85855	4739.0125
2505.59514	4731.4125
2508.33002	4719.2125
2511.06318	4708.5125
2513.79462	4701.2125
2516.52435	4701.9125
2519.25237	4694.5125
2521.97867	4664.4125
2524.70327	4700.8125
2527.42616	4670.1125
2530.14734	4673.0125
2532.86681	4659.5125
2535.58458	4659.2125
2538.30065	4642.1125
2541.01501	4639.1125
2543.72768	4623.0125
2546.43864	4629.5125
2549.14791	4620.6125
2551.85548	4605.5125
2554.56136	4604.4125
2557.26554	4597.4125
2559.96803	4593.5125
2562.66883	4586.7125
2565.36794	4566.5125
2568.06536	4571.7125
2570.7611	4557.7125
2573.45514	4564.0125
2576.14751	4552.7125
2578.83819	4545.5125
2581.52719	4534.1125
2584.21451	4532.0125
2586.90015	4523.7125
2589.58411	4513.3125
2592.2664	4509.7125
2594.94701	4498.4125
2597.62594	4499.5125
2600.30321	4489.0125
2602.9788	4459.9125
2605.65273	4471.7125
2608.32498	4460.5125
2610.99557	4450.6125
2613.66449	4441.9125
2616.33175	4441.2125
2618.99734	4430.9125
2621.66128	4428.4125
2624.32355	4418.1125
2626.98416	4420.9125
2629.64311	4402.8125
2632.30041	4401.8125
2634.95605	4408.9125
2637.61004	4383.4125
2640.26238	4383.1125
2642.91306	4387.8125
2645.56209	4376.0125
2648.20948	4382.8125
2650.85521	4369.2125
2653.4993	4373.6125
2656.14175	4359.2125
2658.78255	4368.4125
2661.42171	4369.9125
2664.05923	4382.3125
2666.6951	4375.1125
2669.32934	4368.9125
2671.96194	4378.5125
2674.59291	4371.7125
2677.22224	4363.6125
2679.84993	4375.9125
2682.476	4354.1125
2685.10043	4372.4125
2687.72324	4349.5125
2690.34441	4357.5125
2692.96396	4354.5125
2695.58188	4351.7125
2698.19818	4361.4125
2700.81285	4358.2125
2703.4259	4353.1125
2706.03733	4411.0125
2708.64714	4369.2125
2711.25533	4371.4125
2713.86191	4349.1125
2716.46687	4353.6125
2719.07021	4354.0125
2721.67194	4360.3125
2724.27206	4350.7125
2726.87057	4362.9125
2729.46747	4376.3125
2732.06276	4353.2125
2734.65644	4340.9125
2737.24852	4351.9125
2739.83899	4319.6125
2742.42786	4332.0125
2745.01513	4322.7125
2747.60079	4313.3125
2750.18486	4311.8125
2752.76733	4310.1125
2755.3482	4302.7125
2757.92747	4302.2125
2760.50515	4287.4125
2763.08123	4294.9125
2765.65573	4267.0125
2768.22863	4274.5125
2770.79994	4280.1125
2773.36967	4283.8125
2775.9378	4268.0125
2778.50435	4261.5125
2781.06932	4258.8125
2783.6327	4248.3125
2786.1945	4257.8125
2788.75471	4238.4125
2791.31335	4231.4125
2793.87041	4229.2125
2796.42589	4214.0125
2798.97979	4200.4125
2801.53212	4192.1125
2804.08288	4200.6125
2806.63206	4205.2125
2809.17967	4190.3125
2811.72571	4188.1125
2814.27018	4176.3125
2816.81308	4162.8125
2819.35442	4171.5125
2821.89419	4159.2125
2824.43239	4160.5125
2826.96904	4150.8125
2829.50412	4149.8125
2832.03763	4140.9125
2834.56959	4119.7125
2837.1	4134.6125
2839.62884	4147.1125
2842.15613	4139.3125
2844.68186	4144.9125
2847.20604	4165.1125
2849.72867	4163.2125
2852.24974	4165.3125
2854.76927	4175.4125
2857.28724	4169.6125
2859.80367	4170.4125
2862.31855	4149.6125
2864.83189	4140.5125
2867.34368	4138.0125
2869.85393	4118.3125
2872.36264	4120.5125
2874.8698	4103.6125
2877.37543	4104.1125
2879.87952	4107.2125
2882.38207	4110.8125
2884.88308	4108.0125
2887.38256	4107.1125
2889.88051	4110.4125
2892.37692	4112.5125
2894.8718	4094.1125
2897.36515	4114.6125
2899.85698	4103.6125
2902.34727	4110.3125
2904.83604	4108.5125
2907.32328	4124.0125
2909.809	4130.0125
2912.29319	4125.5125
2914.77587	4135.2125
2917.25702	4133.0125
2919.73665	4122.8125
2922.21476	4124.7125
2924.69136	4122.7125
2927.16644	4142.7125
2929.64	4135.1125
2932.11205	4121.3125
2934.58258	4113.9125
2937.05161	4112.5125
2939.51912	4124.7125
2941.98513	4108.5125
2944.44962	4095.6125
2946.91261	4091.9125
2949.37409	4089.0125
2951.83407	4074.3125
2954.29254	4079.7125
2956.74951	4059.3125
2959.20498	4056.5125
2961.65895	4042.9125
2964.11142	4039.1125
2966.56239	4009.9125
2969.01186	4013.4125
2971.45984	3998.2125
2973.90632	3989.6125
2976.35131	3968.1125
2978.7948	3969.5125
2981.23681	3960.6125
2983.67732	3931.1125
2986.11635	3931.7125
2988.55388	3910.1125
2990.98993	3902.9125
2993.4245	3888.6125
2995.85758	3885.1125
2998.28917	3883.4125
3000.71928	3873.0125
3003.14791	3862.6125
3005.57506	3856.0125
3008.00073	3855.3125
3010.42493	3854.0125
3012.84764	3830.4125
3015.26888	3831.8125
3017.68865	3819.8125
3020.10694	3807.5125
3022.52376	3811.4125
3024.9391	3800.1125
3027.35298	3792.6125
3029.76539	3769.4125
3032.17632	3782.5125
3034.5858	3772.5125
3036.9938	3767.6125
3039.40034	3758.3125
3041.80542	3761.5125
3044.20903	3742.4125
3046.61118	3738.2125
3049.01187	3735.2125
3051.4111	3726.7125
3053.80888	3712.9125
3056.20519	3700.4125
3058.60005	3707.6125
3060.99345	3701.7125
3063.3854	3694.2125
3065.7759	3678.7125
3068.16494	3674.4125
3070.55254	3664.1125
3072.93868	3674.3125
3075.32338	3661.6125
3077.70662	3659.0125
3080.08842	3643.1125
3082.46878	3635.6125
3084.84769	3624.7125
3087.22515	3620.0125
3089.60118	3614.7125
3091.97576	3619.3125
