Data from AgNPs_FTO_APTES_UA_1um_CRN_0.1mM_R6G_10uM_NaF_0.1M_Addition_RamanShift__14__11-50-29-002.txt Node

Date: Tue Dec 21 11:50:29 GMT 2021
User: TCL
Spectrometer: QEP01345
Trigger mode: 4
Integration Time (sec): 7.000000E0
Scans to average: 10
Electric dark correction enabled: true
Nonlinearity correction enabled: false
Boxcar width: 0
XAxis mode: Raman Shifts
Number of Pixels in Spectrum: 1044
>>>>>Begin Spectral Data<<<<<
46.04893	-0.225
50.45542	-1.325
54.85868	0.475
59.25871	1.675
63.6555	33.975
68.04907	37.475
72.43941	38.775
76.82654	44.775
81.21044	48.075
85.59113	49.175
89.96862	48.475
94.34289	50.875
98.71396	52.775
103.08183	52.775
107.4465	58.575
111.80798	66.575
116.16626	74.775
120.52136	59.275
124.87327	57.975
129.222	56.275
133.56755	63.975
137.90993	66.875
142.24913	70.875
146.58517	78.775
150.91804	87.675
155.24774	102.875
159.57429	121.075
163.89768	154.175
168.21792	197.175
172.53501	257.575
176.84895	359.475
181.15975	506.675
185.46741	695.875
189.77193	961.075
194.07331	1297.175
198.37157	1675.075
202.6667	2091.975
206.9587	2509.475
211.24758	2924.175
215.53334	3338.575
219.81599	3802.775
224.09553	4287.175
228.37195	4827.675
232.64527	5404.575
236.91549	6022.575
241.18261	6609.775
245.44663	7161.675
249.70755	7636.175
253.96539	7965.975
258.22014	8235.075
262.4718	8452.575
266.72039	8555.775
270.96589	8565.575
275.20832	8509.975
279.44768	8359.975
283.68397	8237.375
287.91719	8129.775
292.14735	8043.875
296.37445	8024.775
300.59849	8045.075
304.81948	8119.675
309.03742	8179.375
313.25231	8167.575
317.46415	8063.875
321.67296	7817.775
325.87872	7538.675
330.08145	7394.975
334.28114	7348.275
338.47781	7370.475
342.67145	7475.175
346.86207	7570.875
351.04966	7757.275
355.23424	7908.675
359.4158	8055.175
363.59435	8152.175
367.76989	8203.075
371.94243	8179.875
376.11196	8148.075
380.27849	8106.175
384.44203	8106.375
388.60257	8143.075
392.76012	8218.575
396.91468	8333.175
401.06626	8538.875
405.21485	8643.475
409.36047	8568.575
413.50311	8404.375
417.64277	8234.875
421.77947	8176.175
425.9132	8180.975
430.04396	8230.075
434.17176	8233.375
438.2966	8288.575
442.41849	8363.175
446.53742	8513.075
450.6534	8670.375
454.76644	8735.475
458.87653	8724.575
462.98368	8687.375
467.08789	8625.475
471.18916	8527.475
475.2875	8421.275
479.38291	8304.775
483.4754	8227.075
487.56496	8186.875
491.6516	8142.375
495.73531	8151.475
499.81612	8123.475
503.89401	8155.075
507.96899	8198.375
512.04106	8164.475
516.11023	8142.675
520.1765	8060.175
524.23987	8042.475
528.30034	7979.175
532.35792	7910.675
536.41261	7792.475
540.46441	7691.275
544.51333	7665.975
548.55936	7722.175
552.60252	7876.775
556.64279	8028.075
560.6802	8103.075
564.71473	8119.175
568.7464	8239.175
572.7752	8493.675
576.80114	8747.475
580.82422	9086.775
584.84444	9421.775
588.86181	9716.875
592.87633	9915.675
596.888	9977.775
600.89682	9797.975
604.9028	9788.575
608.90594	10538.275
612.90624	11676.875
616.90371	11091.575
620.89834	8982.175
624.89015	7901.375
628.87913	7786.975
632.86528	7900.875
636.84862	8029.675
640.82913	7962.975
644.80683	7721.375
648.78172	7505.275
652.75379	7491.975
656.72306	7596.875
660.68952	7770.975
664.65319	7763.775
668.61405	7632.275
672.57211	7597.775
676.52738	7660.375
680.47986	7679.975
684.42955	7632.375
688.37646	7549.375
692.32058	7480.675
696.26192	7511.375
700.20048	7570.675
704.13626	7637.375
708.06928	7693.775
711.99952	7653.575
715.927	7646.675
719.85171	7595.475
723.77365	7565.575
727.69284	7459.175
731.60928	7343.175
735.52295	7311.975
739.43388	7289.575
743.34206	7310.875
747.24749	7358.175
751.15017	7450.075
755.05012	7616.575
758.94733	7860.375
762.8418	8356.275
766.73354	9217.775
770.62254	10064.775
774.50882	10226.575
778.39237	9691.375
782.27321	8864.075
786.15132	8127.675
790.02671	7647.775
793.89938	7400.075
797.76935	7246.375
801.6366	7206.575
805.50115	7153.775
809.36299	7102.975
813.22213	7050.975
817.07857	6995.375
820.93231	6966.575
824.78336	6962.675
828.63172	6942.575
832.47738	6922.475
836.32036	6913.575
840.16066	6895.475
843.99827	6868.975
847.8332	6866.975
851.66546	6847.775
855.49504	6864.375
859.32195	6845.975
863.1462	6828.775
866.96777	6810.175
870.78668	6802.975
874.60293	6832.275
878.41652	6802.075
882.22745	6844.975
886.03573	6880.775
889.84136	6888.775
893.64433	6889.375
897.44466	6880.275
901.24235	6896.475
905.0374	6848.775
908.8298	6819.175
912.61957	6815.375
916.40671	6835.275
920.19121	6932.275
923.97308	7028.075
927.75233	7118.675
931.52895	7122.075
935.30295	7000.775
939.07433	6790.875
942.84309	6648.175
946.60924	6558.175
950.37278	6484.175
954.13371	6465.875
957.89203	6447.075
961.64774	6459.475
965.40086	6420.575
969.15137	6412.575
972.89929	6388.775
976.64461	6362.875
980.38733	6335.375
984.12747	6302.775
987.86502	6309.675
991.59999	6345.075
995.33237	6380.475
999.06217	6463.575
1002.78939	6531.975
1006.51404	6672.475
1010.23611	6796.675
1013.95561	6904.375
1017.67255	6934.275
1021.38692	6884.475
1025.09872	6795.975
1028.80796	6682.875
1032.51465	6639.675
1036.21877	6640.975
1039.92035	6699.575
1043.61937	6750.675
1047.31584	6779.875
1051.00976	6837.475
1054.70114	6872.775
1058.38998	6895.575
1062.07627	6902.975
1065.76003	6972.375
1069.44126	7067.675
1073.11995	7243.075
1076.79611	7391.875
1080.46974	7483.675
1084.14085	7510.175
1087.80943	7579.875
1091.47549	7649.475
1095.13903	7675.475
1098.80005	7536.775
1102.45857	7307.475
1106.11456	7096.375
1109.76805	6946.675
1113.41903	6925.975
1117.06751	6982.575
1120.71348	7118.175
1124.35696	7272.775
1127.99793	7436.175
1131.63641	7551.775
1135.2724	7460.575
1138.90589	7341.175
1142.5369	7281.775
1146.16542	7255.075
1149.79145	7257.075
1153.415	7296.275
1157.03607	7348.775
1160.65467	7528.675
1164.27079	7833.975
1167.88443	8279.575
1171.49561	8852.475
1175.10432	9603.775
1178.71056	10523.775
1182.31434	11287.175
1185.91565	11710.075
1189.51451	11702.475
1193.11091	11427.175
1196.70485	10859.475
1200.29634	10220.475
1203.88538	9620.775
1207.47197	9177.875
1211.05612	8824.275
1214.63782	8565.475
1218.21708	8336.675
1221.79391	8228.375
1225.36829	8182.875
1228.94024	8169.175
1232.50976	8144.875
1236.07685	8099.775
1239.6415	8061.875
1243.20374	8043.375
1246.76355	8011.675
1250.32093	8060.075
1253.8759	8175.875
1257.42845	8395.775
1260.97859	8672.475
1264.52631	8961.675
1268.07163	9257.075
1271.61453	9524.175
1275.15503	9755.175
1278.69312	10034.875
1282.22882	10272.475
1285.76211	10609.475
1289.29301	10972.875
1292.82151	11359.775
1296.34761	11740.675
1299.87133	12260.975
1303.39266	12921.875
1306.9116	13713.075
1310.42815	14494.275
1313.94233	14996.575
1317.45412	14891.675
1320.96354	14500.475
1324.47058	14089.275
1327.97525	13790.375
1331.47754	13573.075
1334.97747	13463.475
1338.47502	13364.675
1341.97022	13264.975
1345.46305	13238.575
1348.95352	13366.675
1352.44163	13620.875
1355.92738	14065.075
1359.41078	14819.875
1362.89183	15599.375
1366.37053	15649.875
1369.84688	14518.975
1373.32088	12820.675
1376.79254	11442.275
1380.26186	10662.675
1383.72883	10262.775
1387.19347	9965.775
1390.65578	9674.775
1394.11575	9486.475
1397.57339	9414.375
1401.0287	9422.375
1404.48168	9432.875
1407.93234	9418.275
1411.38068	9345.575
1414.82669	9182.575
1418.27039	8987.875
1421.71177	8759.775
1425.15083	8516.975
1428.58758	8368.575
1432.02203	8317.975
1435.45416	8407.175
1438.88399	8523.175
1442.31151	8635.675
1445.73673	8739.075
1449.15965	8873.075
1452.58027	9002.775
1455.9986	9022.475
1459.41463	9129.875
1462.82837	9255.375
1466.23982	9472.775
1469.64898	9684.075
1473.05586	9854.575
1476.46045	9954.375
1479.86276	10097.975
1483.26279	10264.075
1486.66054	10470.375
1490.05602	10783.475
1493.44922	11277.475
1496.84016	11891.275
1500.22882	12691.075
1503.61521	13630.375
1506.99934	14527.875
1510.38121	15126.575
1513.76081	15091.275
1517.13816	14370.875
1520.51324	13278.675
1523.88607	12273.475
1527.25665	11560.675
1530.62498	11109.775
1533.99105	10794.775
1537.35488	10468.375
1540.71647	10157.375
1544.07581	9844.675
1547.4329	9514.475
1550.78776	9278.975
1554.14038	9194.275
1557.49077	9171.475
1560.83892	9247.975
1564.18484	9396.875
1567.52853	9623.575
1570.86999	9810.875
1574.20922	9973.175
1577.54624	9966.975
1580.88103	9717.875
1584.2136	9353.275
1587.54395	9173.675
1590.87208	9309.575
1594.19801	9700.175
1597.52172	10241.775
1600.84321	10481.775
1604.16251	10225.475
1607.47959	9669.375
1610.79447	9021.575
1614.10715	8401.275
1617.41763	7835.175
1620.7259	7402.475
1624.03199	7140.675
1627.33587	7070.975
1630.63757	7173.275
1633.93707	7514.375
1637.23439	8133.075
1640.52951	9115.175
1643.82246	10474.375
1647.11321	11981.575
1650.40179	12968.475
1653.68819	12855.475
1656.97241	11560.075
1660.25446	9797.975
1663.53433	8342.975
1666.81203	7315.975
1670.08756	6691.675
1673.36092	6312.175
1676.63211	6097.675
1679.90115	5923.575
1683.16801	5810.575
1686.43272	5743.275
1689.69527	5652.475
1692.95567	5608.575
1696.2139	5598.875
1699.46999	5573.675
1702.72392	5551.975
1705.97571	5531.575
1709.22535	5490.975
1712.47284	5456.275
1715.71819	5441.675
1718.96139	5410.975
1722.20246	5392.375
1725.44139	5378.375
1728.67818	5330.775
1731.91284	5288.475
1735.14537	5252.775
1738.37576	5235.175
1741.60403	5213.975
1744.83017	5206.075
1748.05418	5210.975
1751.27607	5210.675
1754.49584	5245.175
1757.71349	5262.375
1760.92903	5289.275
1764.14244	5258.575
1767.35375	5225.475
1770.56294	5201.375
1773.77002	5150.775
1776.97499	5094.975
1780.17785	5054.175
1783.37861	5045.575
1786.57727	5006.275
1789.77382	4985.475
1792.96828	4960.475
1796.16064	4935.275
1799.3509	4915.375
1802.53907	4898.075
1805.72514	4881.975
1808.90913	4846.975
1812.09102	4840.775
1815.27083	4817.775
1818.44856	4823.975
1821.6242	4798.175
1824.79776	4794.875
1827.96924	4796.875
1831.13864	4783.975
1834.30597	4782.675
1837.47122	4799.775
1840.6344	4784.175
1843.7955	4795.575
1846.95454	4793.175
1850.11151	4773.675
1853.26642	4776.875
1856.41926	4761.175
1859.57004	4771.575
1862.71876	4751.475
1865.86542	4743.775
1869.01003	4721.575
1872.15258	4729.875
1875.29308	4711.975
1878.43152	4691.175
1881.56792	4693.775
1884.70227	4685.675
1887.83457	4673.975
1890.96482	4670.875
1894.09304	4655.975
1897.21921	4652.375
1900.34335	4640.875
1903.46544	4635.575
1906.58551	4640.775
1909.70353	4603.275
1912.81953	4602.275
1915.93349	4591.775
1919.04543	4573.275
1922.15534	4567.175
1925.26322	4547.775
1928.36908	4539.675
1931.47292	4537.075
1934.57473	4505.775
1937.67453	4514.375
1940.77232	4480.575
1943.86808	4485.375
1946.96184	4455.975
1950.05358	4430.575
1953.14331	4427.175
1956.23103	4411.675
1959.31675	4390.775
1962.40046	4377.275
1965.48217	4355.975
1968.56188	4347.375
1971.63959	4325.875
1974.7153	4316.875
1977.78901	4296.775
1980.86073	4275.475
1983.93046	4268.475
1986.99819	4243.675
1990.06394	4222.975
1993.1277	4217.475
1996.18947	4204.075
1999.24925	4184.875
2002.30706	4169.575
2005.36288	4148.475
2008.41672	4143.675
2011.46859	4131.275
2014.51848	4111.275
2017.56639	4103.275
2020.61233	4084.475
2023.6563	4083.275
2026.6983	4071.775
2029.73833	4045.475
2032.7764	4035.975
2035.8125	4022.475
2038.84664	4011.275
2041.87881	4019.975
2044.90903	4011.075
2047.93729	3984.575
2050.96359	3994.175
2053.98794	3998.875
2057.01034	3981.075
2060.03078	3972.475
2063.04927	3970.075
2066.06582	3951.375
2069.08042	3938.975
2072.09307	3954.075
2075.10378	3944.575
2078.11255	3959.075
2081.11938	3957.575
2084.12426	3941.275
2087.12722	3957.575
2090.12824	3941.475
2093.12732	3938.775
2096.12447	3938.875
2099.11969	3950.075
2102.11299	3930.875
2105.10435	3938.875
2108.09379	3931.975
2111.08131	3927.375
2114.0669	3937.275
2117.05057	3924.375
2120.03233	3939.875
2123.01216	3927.375
2125.99008	3934.475
2128.96609	3940.575
2131.94018	3947.175
2134.91236	3941.575
2137.88263	3936.275
2140.851	3927.875
2143.81746	3936.875
2146.78201	3934.175
2149.74466	3938.375
2152.7054	3932.375
2155.66425	3912.775
2158.6212	3923.575
2161.57625	3914.275
2164.52941	3907.675
2167.48067	3905.375
2170.43004	3909.875
2173.37752	3909.875
2176.32311	3894.075
2179.26681	3891.875
2182.20863	3898.675
2185.14856	3883.375
2188.08661	3902.875
2191.02278	3881.775
2193.95707	3882.975
2196.88948	3866.175
2199.82001	3865.475
2202.74867	3853.875
2205.67545	3855.375
2208.60037	3851.575
2211.52341	3829.475
2214.44458	3831.175
2217.36388	3822.875
2220.28132	3818.575
2223.1969	3796.675
2226.11061	3803.175
2229.02246	3789.375
2231.93245	3787.375
2234.84058	3782.275
2237.74686	3778.175
2240.65128	3777.875
2243.55385	3762.975
2246.45456	3747.275
2249.35343	3746.175
2252.25044	3744.875
2255.14561	3729.075
2258.03893	3731.475
2260.93041	3730.375
2263.82004	3718.575
2266.70783	3711.575
2269.59378	3687.375
2272.4779	3677.675
2275.36017	3671.875
2278.24061	3664.675
2281.11922	3656.375
2283.996	3641.275
2286.87094	3631.075
2289.74405	3624.375
2292.61534	3612.975
2295.4848	3613.075
2298.35243	3589.575
2301.21824	3601.075
2304.08223	3598.575
2306.94439	3587.975
2309.80474	3587.175
2312.66327	3593.775
2315.51999	3581.175
2318.37489	3573.875
2321.22797	3580.375
2324.07925	3576.375
2326.92871	3544.875
2329.77637	3548.275
2332.62222	3549.575
2335.46626	3549.975
2338.3085	3529.075
2341.14893	3540.675
2343.98756	3528.375
2346.8244	3523.175
2349.65943	3515.175
2352.49267	3530.275
2355.32411	3524.675
2358.15376	3520.975
2360.98161	3545.675
2363.80768	3526.875
2366.63195	3529.475
2369.45444	3525.275
2372.27514	3515.875
2375.09405	3520.975
2377.91118	3509.575
2380.72652	3493.575
2383.54009	3483.475
2386.35187	3474.275
2389.16188	3471.875
2391.97011	3445.675
2394.77657	3437.775
2397.58125	3441.275
2400.38416	3432.975
2403.18529	3409.875
2405.98466	3411.975
2408.78226	3415.775
2411.57809	3400.575
2414.37216	3397.575
2417.16446	3394.475
2419.955	3380.575
2422.74378	3386.275
2425.5308	3380.475
2428.31606	3384.375
2431.09956	3381.575
2433.88131	3364.275
2436.6613	3386.275
2439.43954	3370.475
2442.21603	3364.475
2444.99077	3364.775
2447.76377	3363.575
2450.53501	3352.475
2453.30451	3370.575
2456.07226	3354.675
2458.83827	3361.875
2461.60254	3352.975
2464.36507	3350.175
2467.12586	3340.275
2469.88492	3334.875
2472.64224	3341.775
2475.39782	3347.675
2478.15167	3353.975
2480.90379	3340.975
2483.65417	3347.875
2486.40283	3332.175
2489.14976	3322.275
2491.89497	3332.175
2494.63845	3347.475
2497.3802	3344.375
2500.12024	3327.975
2502.85855	3327.875
2505.59514	3309.775
2508.33002	3305.875
2511.06318	3297.375
2513.79462	3285.675
2516.52435	3266.475
2519.25237	3278.475
2521.97867	3263.875
2524.70327	3268.675
2527.42616	3265.675
2530.14734	3260.975
2532.86681	3248.875
2535.58458	3229.075
2538.30065	3229.675
2541.01501	3215.575
2543.72768	3226.475
2546.43864	3225.475
2549.14791	3216.975
2551.85548	3217.075
2554.56136	3212.275
2557.26554	3196.375
2559.96803	3201.475
2562.66883	3191.975
2565.36794	3179.675
2568.06536	3186.675
2570.7611	3182.575
2573.45514	3179.875
2576.14751	3155.475
2578.83819	3162.475
2581.52719	3165.575
2584.21451	3150.675
2586.90015	3147.375
2589.58411	3133.975
2592.2664	3118.775
2594.94701	3130.475
2597.62594	3130.375
2600.30321	3104.875
2602.9788	3102.975
2605.65273	3093.275
2608.32498	3095.475
2610.99557	3091.975
2613.66449	3083.775
2616.33175	3068.575
2618.99734	3090.375
2621.66128	3074.375
2624.32355	3078.175
2626.98416	3069.775
2629.64311	3077.775
2632.30041	3074.375
2634.95605	3057.775
2637.61004	3051.575
2640.26238	3054.475
2642.91306	3047.275
2645.56209	3024.275
2648.20948	3040.375
2650.85521	3041.675
2653.4993	3044.475
2656.14175	3029.375
2658.78255	3046.275
2661.42171	3038.875
2664.05923	3045.075
2666.6951	3052.375
2669.32934	3056.675
2671.96194	3056.475
2674.59291	3053.675
2677.22224	3052.075
2679.84993	3041.975
2682.476	3037.575
2685.10043	3036.675
2687.72324	3038.775
2690.34441	3041.375
2692.96396	3025.675
2695.58188	3039.875
2698.19818	3030.075
2700.81285	3047.675
2703.4259	3057.375
2706.03733	3089.975
2708.64714	3062.575
2711.25533	3045.975
2713.86191	3039.275
2716.46687	3037.775
2719.07021	3042.875
2721.67194	3035.475
2724.27206	3032.875
2726.87057	3033.275
2729.46747	3030.175
2732.06276	3028.375
2734.65644	3013.275
2737.24852	3012.175
2739.83899	3020.475
2742.42786	3020.475
2745.01513	3016.275
2747.60079	3008.575
2750.18486	3003.075
2752.76733	3014.175
2755.3482	2986.275
2757.92747	2996.175
2760.50515	2988.575
2763.08123	2975.275
2765.65573	2980.575
2768.22863	2986.275
2770.79994	2967.875
2773.36967	2972.375
2775.9378	2969.375
2778.50435	2955.675
2781.06932	2955.075
2783.6327	2955.975
2786.1945	2972.375
2788.75471	2969.175
2791.31335	2944.275
2793.87041	2942.675
2796.42589	2937.775
2798.97979	2931.675
2801.53212	2941.275
2804.08288	2921.975
2806.63206	2933.075
2809.17967	2918.775
2811.72571	2921.975
2814.27018	2932.875
2816.81308	2902.575
2819.35442	2914.175
2821.89419	2914.975
2824.43239	2919.275
2826.96904	2922.375
2829.50412	2915.875
2832.03763	2906.175
2834.56959	2909.675
2837.1	2909.075
2839.62884	2907.675
2842.15613	2900.375
2844.68186	2918.475
2847.20604	2931.675
2849.72867	2932.875
2852.24974	2928.075
2854.76927	2946.275
2857.28724	2943.675
2859.80367	2929.975
2862.31855	2923.675
2864.83189	2928.075
2867.34368	2909.575
2869.85393	2911.875
2872.36264	2903.275
2874.8698	2907.975
2877.37543	2901.575
2879.87952	2908.975
2882.38207	2906.875
2884.88308	2915.975
2887.38256	2898.475
2889.88051	2898.675
2892.37692	2908.175
2894.8718	2897.075
2897.36515	2911.975
2899.85698	2925.175
2902.34727	2941.975
2904.83604	2927.575
2907.32328	2930.875
2909.809	2935.175
2912.29319	2939.275
2914.77587	2946.875
2917.25702	2949.675
2919.73665	2952.775
2922.21476	2948.675
2924.69136	2953.075
2927.16644	2948.775
2929.64	2954.575
2932.11205	2948.775
2934.58258	2940.375
2937.05161	2959.775
2939.51912	2954.675
2941.98513	2965.675
2944.44962	2952.675
2946.91261	2941.775
2949.37409	2934.475
2951.83407	2934.175
2954.29254	2939.775
2956.74951	2915.275
2959.20498	2908.675
2961.65895	2900.675
2964.11142	2881.475
2966.56239	2862.075
2969.01186	2873.675
2971.45984	2847.675
2973.90632	2835.975
2976.35131	2827.275
2978.7948	2827.275
2981.23681	2810.975
2983.67732	2811.975
2986.11635	2793.375
2988.55388	2792.275
2990.98993	2780.275
2993.4245	2765.875
2995.85758	2761.575
2998.28917	2768.775
3000.71928	2757.975
3003.14791	2751.875
3005.57506	2758.175
3008.00073	2740.075
3010.42493	2737.575
3012.84764	2736.375
3015.26888	2732.575
3017.68865	2722.275
3020.10694	2716.875
3022.52376	2709.675
3024.9391	2705.075
3027.35298	2701.475
3029.76539	2691.275
3032.17632	2677.675
3034.5858	2681.775
3036.9938	2667.775
3039.40034	2660.275
3041.80542	2663.275
3044.20903	2641.775
3046.61118	2658.675
3049.01187	2639.475
3051.4111	2627.775
3053.80888	2643.975
3056.20519	2619.875
3058.60005	2637.775
3060.99345	2626.175
3063.3854	2625.575
3065.7759	2618.875
3068.16494	2617.575
3070.55254	2618.075
3072.93868	2618.875
3075.32338	2604.275
3077.70662	2603.875
3080.08842	2607.375
3082.46878	2586.775
3084.84769	2586.675
3087.22515	2595.175
3089.60118	2592.275
3091.97576	2599.075
3094.3489	2586.375
3096.72061	2592.875
3099.09087	2593.875
3101.4597	2598.375
3103.82709	2589.975
3106.19305	2591.875
3108.55757	2589.875
3110.92066	2592.475
3113.28232	2590.675
3115.64255	2580.575
3118.00134	2578.675
3120.35871	2564.275
3122.71466	2570.275
3125.06917	2580.075
3127.42226	2566.075
3129.77393	2589.575
3132.12417	2574.075
3134.47299	2579.775
3136.82039	2579.475
3139.16636	2586.775
3141.51092	2581.075
3143.85406	2585.175
3146.19579	2590.975
3148.53609	2593.275
3150.87499	2606.075
3153.21246	2598.775
3155.54853	2622.075
3157.88318	2608.975
3160.21642	2616.475
3162.54826	2605.675
3164.87868	2607.975
3167.2077	2617.675
3169.5353	2611.075
3171.86151	2621.175
3174.18631	2613.875
3176.5097	2611.975
3178.83169	2616.475
3181.15228	2635.075
3183.47147	2616.875
3185.78926	2616.675
3188.10565	2611.175
3190.42065	2609.175
3192.73424	2623.875
3195.04645	2613.275
3197.35725	2619.375
3199.66667	2620.275
3201.97469	2624.575
3204.28132	2621.475
3206.58656	2643.075
3208.8904	2639.075
3211.19287	2628.975
3213.49394	2638.675
3215.79363	2635.475
3218.09193	2635.975
3220.38884	2650.175
3222.68438	2646.075
3224.97853	2644.075
3227.2713	2639.075
