Data from AgNPs_FTO_APTES_UA_5um_CRN_0.1mM_R6G_10uM_NaF_0.1M_Addition_RamanShift__28__13-29-39-104.txt Node

Date: Tue Dec 21 13:29:39 GMT 2021
User: TCL
Spectrometer: QEP01345
Trigger mode: 4
Integration Time (sec): 7.000000E0
Scans to average: 10
Electric dark correction enabled: true
Nonlinearity correction enabled: false
Boxcar width: 0
XAxis mode: Raman Shifts
Number of Pixels in Spectrum: 1044
>>>>>Begin Spectral Data<<<<<
46.04893	1.1625
50.45542	-1.8375
54.85868	-0.1375
59.25871	-1.2375
63.6555	35.0625
68.04907	39.4625
72.43941	41.0625
76.82654	41.2625
81.21044	51.4625
85.59113	47.8625
89.96862	50.7625
94.34289	50.9625
98.71396	51.8625
103.08183	53.8625
107.4465	58.9625
111.80798	59.8625
116.16626	58.9625
120.52136	57.8625
124.87327	57.3625
129.222	61.3625
133.56755	63.8625
137.90993	66.8625
142.24913	69.0625
146.58517	79.4625
150.91804	93.0625
155.24774	105.7625
159.57429	120.1625
163.89768	153.0625
168.21792	201.1625
172.53501	261.1625
176.84895	361.5625
181.15975	503.8625
185.46741	696.9625
189.77193	959.1625
194.07331	1289.3625
198.37157	1669.7625
202.6667	2043.8625
206.9587	2443.0625
211.24758	2827.0625
215.53334	3237.2625
219.81599	3656.4625
224.09553	4122.7625
228.37195	4668.4625
232.64527	5243.7625
236.91549	5843.8625
241.18261	6442.7625
245.44663	6950.6625
249.70755	7417.5625
253.96539	7790.7625
258.22014	8095.1625
262.4718	8304.4625
266.72039	8458.2625
270.96589	8501.7625
275.20832	8499.1625
279.44768	8446.6625
283.68397	8378.7625
287.91719	8350.3625
292.14735	8326.1625
296.37445	8411.8625
300.59849	8573.9625
304.81948	8766.9625
309.03742	8923.6625
313.25231	8892.3625
317.46415	8582.0625
321.67296	8080.4625
325.87872	7654.0625
330.08145	7448.5625
334.28114	7433.8625
338.47781	7545.4625
342.67145	7707.7625
346.86207	7971.4625
351.04966	8346.9625
355.23424	8765.4625
359.4158	9102.6625
363.59435	9272.4625
367.76989	9270.2625
371.94243	9227.3625
376.11196	9169.3625
380.27849	9137.7625
384.44203	9080.8625
388.60257	9050.1625
392.76012	9049.1625
396.91468	9198.1625
401.06626	9421.1625
405.21485	9676.4625
409.36047	9609.9625
413.50311	9321.6625
417.64277	8974.9625
421.77947	8803.9625
425.9132	8735.1625
430.04396	8771.8625
434.17176	8778.5625
438.2966	8885.6625
442.41849	9065.3625
446.53742	9310.4625
450.6534	9607.0625
454.76644	9784.3625
458.87653	9813.7625
462.98368	9746.6625
467.08789	9602.7625
471.18916	9420.2625
475.2875	9209.8625
479.38291	9076.6625
483.4754	8945.3625
487.56496	8857.3625
491.6516	8790.3625
495.73531	8746.9625
499.81612	8729.5625
503.89401	8783.7625
507.96899	8806.7625
512.04106	8821.8625
516.11023	8841.9625
520.1765	8894.3625
524.23987	8858.1625
528.30034	8765.9625
532.35792	8652.3625
536.41261	8495.0625
540.46441	8305.0625
544.51333	8240.5625
548.55936	8288.1625
552.60252	8415.3625
556.64279	8624.9625
560.6802	8764.7625
564.71473	8898.2625
568.7464	9241.7625
572.7752	9517.8625
576.80114	9464.3625
580.82422	9346.8625
584.84444	9342.5625
588.86181	9360.8625
592.87633	9381.3625
596.888	9456.3625
600.89682	9677.3625
604.9028	10338.0625
608.90594	12198.2625
612.90624	14639.5625
616.90371	14153.1625
620.89834	10775.0625
624.89015	9129.0625
628.87913	8850.3625
632.86528	8908.1625
636.84862	9012.0625
640.82913	8861.1625
644.80683	8513.2625
648.78172	8252.8625
652.75379	8225.3625
656.72306	8465.6625
660.68952	8766.5625
664.65319	8740.1625
668.61405	8476.0625
672.57211	8335.4625
676.52738	8338.9625
680.47986	8326.0625
684.42955	8309.3625
688.37646	8248.9625
692.32058	8291.4625
696.26192	8324.3625
700.20048	8440.3625
704.13626	8550.1625
708.06928	8560.5625
711.99952	8458.8625
715.927	8400.8625
719.85171	8355.6625
723.77365	8332.0625
727.69284	8229.3625
731.60928	8143.0625
735.52295	8121.8625
739.43388	8137.9625
743.34206	8190.3625
747.24749	8253.4625
751.15017	8385.0625
755.05012	8551.6625
758.94733	8919.1625
762.8418	9636.8625
766.73354	10813.0625
770.62254	12010.8625
774.50882	12505.7625
778.39237	12099.4625
782.27321	10813.2625
786.15132	9498.5625
790.02671	8702.0625
793.89938	8356.9625
797.76935	8199.6625
801.6366	8164.8625
805.50115	8118.3625
809.36299	8148.8625
813.22213	8135.8625
817.07857	8116.3625
820.93231	8071.4625
824.78336	8048.5625
828.63172	8032.8625
832.47738	8073.9625
836.32036	8065.3625
840.16066	8018.4625
843.99827	7972.9625
847.8332	7939.0625
851.66546	7917.6625
855.49504	7910.1625
859.32195	7891.7625
863.1462	7858.5625
866.96777	7818.8625
870.78668	7841.0625
874.60293	7855.9625
878.41652	7863.5625
882.22745	7927.5625
886.03573	7996.7625
889.84136	7991.1625
893.64433	7926.0625
897.44466	7871.6625
901.24235	7855.3625
905.0374	7798.0625
908.8298	7760.3625
912.61957	7762.9625
916.40671	7803.6625
920.19121	7903.3625
923.97308	7982.6625
927.75233	8068.6625
931.52895	8052.1625
935.30295	7937.6625
939.07433	7746.0625
942.84309	7582.4625
946.60924	7480.2625
950.37278	7397.6625
954.13371	7385.8625
957.89203	7362.6625
961.64774	7322.2625
965.40086	7324.7625
969.15137	7294.1625
972.89929	7249.2625
976.64461	7224.9625
980.38733	7250.9625
984.12747	7257.3625
987.86502	7277.0625
991.59999	7322.7625
995.33237	7396.3625
999.06217	7545.3625
1002.78939	7788.9625
1006.51404	8010.6625
1010.23611	8190.8625
1013.95561	8325.6625
1017.67255	8306.2625
1021.38692	8205.1625
1025.09872	8069.5625
1028.80796	7970.1625
1032.51465	7996.3625
1036.21877	8117.1625
1039.92035	8201.2625
1043.61937	8224.8625
1047.31584	8194.4625
1051.00976	8140.5625
1054.70114	8098.3625
1058.38998	8107.4625
1062.07627	8151.6625
1065.76003	8236.3625
1069.44126	8333.1625
1073.11995	8446.9625
1076.79611	8510.1625
1080.46974	8551.9625
1084.14085	8684.0625
1087.80943	8772.2625
1091.47549	8844.5625
1095.13903	8744.5625
1098.80005	8487.1625
1102.45857	8235.9625
1106.11456	8090.0625
1109.76805	8061.7625
1113.41903	8144.1625
1117.06751	8347.1625
1120.71348	8630.8625
1124.35696	8977.3625
1127.99793	9256.5625
1131.63641	9214.8625
1135.2724	8946.8625
1138.90589	8679.1625
1142.5369	8507.7625
1146.16542	8347.2625
1149.79145	8291.3625
1153.415	8302.7625
1157.03607	8334.7625
1160.65467	8498.8625
1164.27079	8738.1625
1167.88443	9104.3625
1171.49561	9720.3625
1175.10432	10716.2625
1178.71056	11944.3625
1182.31434	12928.9625
1185.91565	13218.8625
1189.51451	13066.6625
1193.11091	12604.9625
1196.70485	11982.2625
1200.29634	11423.2625
1203.88538	10868.5625
1207.47197	10295.3625
1211.05612	9811.3625
1214.63782	9516.5625
1218.21708	9401.3625
1221.79391	9431.1625
1225.36829	9468.0625
1228.94024	9492.6625
1232.50976	9500.3625
1236.07685	9498.8625
1239.6415	9498.5625
1243.20374	9485.6625
1246.76355	9532.2625
1250.32093	9615.3625
1253.8759	9786.4625
1257.42845	10071.4625
1260.97859	10321.3625
1264.52631	10576.9625
1268.07163	10774.8625
1271.61453	11010.0625
1275.15503	11203.3625
1278.69312	11402.8625
1282.22882	11561.3625
1285.76211	11849.3625
1289.29301	12213.5625
1292.82151	12603.3625
1296.34761	13016.2625
1299.87133	13600.8625
1303.39266	14505.5625
1306.9116	15764.6625
1310.42815	17113.9625
1313.94233	17797.9625
1317.45412	17651.3625
1320.96354	16815.5625
1324.47058	15924.9625
1327.97525	15300.3625
1331.47754	14924.5625
1334.97747	14819.5625
1338.47502	14956.2625
1341.97022	15219.5625
1345.46305	15513.6625
1348.95352	15768.4625
1352.44163	16235.9625
1355.92738	17086.8625
1359.41078	18553.2625
1362.89183	19795.2625
1366.37053	19198.9625
1369.84688	17244.4625
1373.32088	15216.1625
1376.79254	13713.9625
1380.26186	12795.7625
1383.72883	12296.3625
1387.19347	11956.4625
1390.65578	11686.5625
1394.11575	11517.7625
1397.57339	11541.8625
1401.0287	11661.6625
1404.48168	11923.1625
1407.93234	12081.3625
1411.38068	12136.8625
1414.82669	12047.1625
1418.27039	11696.1625
1421.71177	11317.0625
1425.15083	10985.3625
1428.58758	10834.9625
1432.02203	10835.6625
1435.45416	10872.5625
1438.88399	10874.8625
1442.31151	10867.9625
1445.73673	10903.3625
1449.15965	11004.1625
1452.58027	10993.7625
1455.9986	10923.2625
1459.41463	10988.6625
1462.82837	11150.0625
1466.23982	11323.5625
1469.64898	11508.4625
1473.05586	11703.5625
1476.46045	11718.8625
1479.86276	11895.0625
1483.26279	12067.1625
1486.66054	12316.3625
1490.05602	12649.5625
1493.44922	13076.3625
1496.84016	13726.6625
1500.22882	14608.4625
1503.61521	15777.0625
1506.99934	17015.5625
1510.38121	17953.7625
1513.76081	18189.9625
1517.13816	17312.4625
1520.51324	15732.0625
1523.88607	14254.2625
1527.25665	13262.1625
1530.62498	12742.2625
1533.99105	12444.1625
1537.35488	12246.6625
1540.71647	12157.6625
1544.07581	12071.4625
1547.4329	11972.6625
1550.78776	11816.4625
1554.14038	11693.8625
1557.49077	11644.6625
1560.83892	11722.6625
1564.18484	11939.7625
1567.52853	12164.3625
1570.86999	12358.8625
1574.20922	12456.2625
1577.54624	12354.0625
1580.88103	11954.1625
1584.2136	11465.8625
1587.54395	11301.8625
1590.87208	11595.6625
1594.19801	12311.3625
1597.52172	13105.3625
1600.84321	13541.1625
1604.16251	13204.4625
1607.47959	12350.6625
1610.79447	11369.7625
1614.10715	10430.2625
1617.41763	9735.7625
1620.7259	9276.3625
1624.03199	9067.9625
1627.33587	9041.6625
1630.63757	9203.6625
1633.93707	9579.9625
1637.23439	10257.0625
1640.52951	11148.2625
1643.82246	12296.0625
1647.11321	13488.0625
1650.40179	14182.4625
1653.68819	13735.0625
1656.97241	12241.6625
1660.25446	10563.0625
1663.53433	9322.8625
1666.81203	8528.4625
1670.08756	8033.1625
1673.36092	7734.9625
1676.63211	7526.8625
1679.90115	7361.5625
1683.16801	7241.6625
1686.43272	7159.2625
1689.69527	7082.1625
1692.95567	7035.8625
1696.2139	7000.1625
1699.46999	6980.7625
1702.72392	6948.4625
1705.97571	6940.9625
1709.22535	6900.2625
1712.47284	6900.7625
1715.71819	6897.9625
1718.96139	6874.9625
1722.20246	6852.4625
1725.44139	6851.0625
1728.67818	6796.6625
1731.91284	6766.9625
1735.14537	6729.3625
1738.37576	6701.6625
1741.60403	6667.6625
1744.83017	6639.9625
1748.05418	6645.8625
1751.27607	6623.6625
1754.49584	6596.8625
1757.71349	6594.2625
1760.92903	6588.7625
1764.14244	6550.6625
1767.35375	6534.0625
1770.56294	6517.7625
1773.77002	6476.7625
1776.97499	6448.8625
1780.17785	6443.1625
1783.37861	6414.9625
1786.57727	6396.2625
1789.77382	6384.5625
1792.96828	6352.0625
1796.16064	6349.4625
1799.3509	6327.0625
1802.53907	6337.6625
1805.72514	6314.1625
1808.90913	6302.4625
1812.09102	6287.3625
1815.27083	6254.8625
1818.44856	6251.8625
1821.6242	6236.8625
1824.79776	6251.5625
1827.96924	6216.4625
1831.13864	6205.8625
1834.30597	6203.6625
1837.47122	6200.8625
1840.6344	6216.4625
1843.7955	6190.1625
1846.95454	6200.6625
1850.11151	6193.8625
1853.26642	6182.5625
1856.41926	6170.6625
1859.57004	6206.9625
1862.71876	6178.3625
1865.86542	6180.0625
1869.01003	6174.8625
1872.15258	6178.0625
1875.29308	6173.3625
1878.43152	6172.0625
1881.56792	6168.1625
1884.70227	6157.2625
1887.83457	6166.9625
1890.96482	6157.2625
1894.09304	6146.4625
1897.21921	6174.3625
1900.34335	6146.0625
1903.46544	6164.1625
1906.58551	6146.9625
1909.70353	6152.6625
1912.81953	6144.7625
1915.93349	6122.5625
1919.04543	6143.4625
1922.15534	6133.7625
1925.26322	6107.1625
1928.36908	6102.7625
1931.47292	6060.7625
1934.57473	6040.6625
1937.67453	6033.4625
1940.77232	5998.5625
1943.86808	5981.4625
1946.96184	5968.1625
1950.05358	5932.2625
1953.14331	5927.0625
1956.23103	5883.5625
1959.31675	5881.4625
1962.40046	5853.1625
1965.48217	5839.9625
1968.56188	5817.3625
1971.63959	5802.2625
1974.7153	5774.1625
1977.78901	5756.1625
1980.86073	5735.9625
1983.93046	5732.3625
1986.99819	5694.4625
1990.06394	5679.5625
1993.1277	5652.4625
1996.18947	5637.9625
1999.24925	5625.5625
2002.30706	5608.4625
2005.36288	5603.6625
2008.41672	5596.3625
2011.46859	5558.8625
2014.51848	5543.7625
2017.56639	5531.3625
2020.61233	5506.1625
2023.6563	5503.5625
2026.6983	5483.9625
2029.73833	5470.4625
2032.7764	5466.6625
2035.8125	5436.9625
2038.84664	5427.5625
2041.87881	5424.6625
2044.90903	5419.7625
2047.93729	5392.2625
2050.96359	5401.5625
2053.98794	5399.6625
2057.01034	5383.6625
2060.03078	5373.4625
2063.04927	5344.0625
2066.06582	5345.3625
2069.08042	5340.8625
2072.09307	5336.9625
2075.10378	5347.9625
2078.11255	5334.7625
2081.11938	5328.3625
2084.12426	5328.3625
2087.12722	5312.6625
2090.12824	5318.1625
2093.12732	5324.2625
2096.12447	5325.4625
2099.11969	5314.2625
2102.11299	5322.3625
2105.10435	5324.4625
2108.09379	5308.0625
2111.08131	5309.7625
2114.0669	5304.5625
2117.05057	5320.1625
2120.03233	5329.2625
2123.01216	5324.1625
2125.99008	5311.1625
2128.96609	5313.4625
2131.94018	5320.0625
2134.91236	5333.4625
2137.88263	5318.7625
2140.851	5329.0625
2143.81746	5320.7625
2146.78201	5310.4625
2149.74466	5304.5625
2152.7054	5320.5625
2155.66425	5304.6625
2158.6212	5308.7625
2161.57625	5301.3625
2164.52941	5308.7625
2167.48067	5286.5625
2170.43004	5294.4625
2173.37752	5268.6625
2176.32311	5290.8625
2179.26681	5289.1625
2182.20863	5268.2625
2185.14856	5280.6625
2188.08661	5284.5625
2191.02278	5279.4625
2193.95707	5269.6625
2196.88948	5258.2625
2199.82001	5240.6625
2202.74867	5248.2625
2205.67545	5248.6625
2208.60037	5239.2625
2211.52341	5231.8625
2214.44458	5234.4625
2217.36388	5217.3625
2220.28132	5179.3625
2223.1969	5183.7625
2226.11061	5188.4625
2229.02246	5170.1625
2231.93245	5162.9625
2234.84058	5149.7625
2237.74686	5134.2625
2240.65128	5130.3625
2243.55385	5122.4625
2246.45456	5139.1625
2249.35343	5109.4625
2252.25044	5102.3625
2255.14561	5096.2625
2258.03893	5099.3625
2260.93041	5108.3625
2263.82004	5078.0625
2266.70783	5068.6625
2269.59378	5038.3625
2272.4779	5034.1625
2275.36017	5022.9625
2278.24061	5010.0625
2281.11922	5001.5625
2283.996	4985.2625
2286.87094	4975.1625
2289.74405	4960.9625
2292.61534	4949.9625
2295.4848	4950.3625
2298.35243	4922.1625
2301.21824	4932.6625
2304.08223	4933.9625
2306.94439	4922.5625
2309.80474	4927.8625
2312.66327	4907.6625
2315.51999	4898.3625
2318.37489	4915.0625
2321.22797	4904.2625
2324.07925	4889.1625
2326.92871	4883.0625
2329.77637	4892.5625
2332.62222	4878.8625
2335.46626	4878.3625
2338.3085	4856.5625
2341.14893	4853.8625
2343.98756	4841.2625
2346.8244	4868.4625
2349.65943	4873.9625
2352.49267	4851.4625
2355.32411	4863.0625
2358.15376	4864.4625
2360.98161	4858.1625
2363.80768	4863.5625
2366.63195	4857.6625
2369.45444	4833.0625
2372.27514	4836.9625
2375.09405	4850.8625
2377.91118	4827.5625
2380.72652	4806.6625
2383.54009	4795.6625
2386.35187	4767.0625
2389.16188	4757.8625
2391.97011	4744.9625
2394.77657	4745.1625
2397.58125	4733.3625
2400.38416	4717.8625
2403.18529	4708.7625
2405.98466	4705.8625
2408.78226	4689.3625
2411.57809	4685.5625
2414.37216	4680.6625
2417.16446	4682.7625
2419.955	4674.2625
2422.74378	4665.1625
2425.5308	4645.0625
2428.31606	4652.6625
2431.09956	4651.5625
2433.88131	4635.3625
2436.6613	4637.2625
2439.43954	4637.4625
2442.21603	4618.6625
2444.99077	4606.5625
2447.76377	4634.0625
2450.53501	4622.1625
2453.30451	4612.7625
2456.07226	4610.8625
2458.83827	4605.9625
2461.60254	4601.2625
2464.36507	4621.4625
2467.12586	4588.7625
2469.88492	4588.4625
2472.64224	4591.1625
2475.39782	4602.0625
2478.15167	4596.5625
2480.90379	4589.6625
2483.65417	4620.2625
2486.40283	4592.3625
2489.14976	4591.5625
2491.89497	4609.2625
2494.63845	4623.9625
2497.3802	4603.5625
2500.12024	4611.2625
2502.85855	4588.4625
2505.59514	4587.2625
2508.33002	4578.0625
2511.06318	4545.4625
2513.79462	4541.1625
2516.52435	4542.3625
2519.25237	4542.8625
2521.97867	4510.7625
2524.70327	4507.2625
2527.42616	4512.3625
2530.14734	4487.4625
2532.86681	4497.1625
2535.58458	4490.4625
2538.30065	4466.5625
2541.01501	4483.6625
2543.72768	4469.8625
2546.43864	4464.4625
2549.14791	4466.4625
2551.85548	4471.4625
2554.56136	4463.2625
2557.26554	4438.0625
2559.96803	4440.9625
2562.66883	4431.5625
2565.36794	4436.3625
2568.06536	4415.1625
2570.7611	4423.3625
2573.45514	4425.1625
2576.14751	4417.4625
2578.83819	4406.7625
2581.52719	4418.4625
2584.21451	4393.5625
2586.90015	4379.2625
2589.58411	4375.8625
2592.2664	4370.6625
2594.94701	4368.3625
2597.62594	4367.7625
2600.30321	4360.7625
2602.9788	4349.6625
2605.65273	4346.4625
2608.32498	4351.8625
2610.99557	4343.5625
2613.66449	4352.7625
2616.33175	4340.2625
2618.99734	4352.1625
2621.66128	4332.6625
2624.32355	4327.9625
2626.98416	4325.8625
2629.64311	4324.9625
2632.30041	4315.3625
2634.95605	4328.8625
2637.61004	4306.4625
2640.26238	4297.7625
2642.91306	4292.3625
2645.56209	4272.1625
2648.20948	4284.5625
2650.85521	4265.7625
2653.4993	4273.6625
2656.14175	4271.3625
2658.78255	4277.4625
2661.42171	4272.2625
2664.05923	4279.9625
2666.6951	4279.7625
2669.32934	4280.8625
2671.96194	4294.2625
2674.59291	4299.2625
2677.22224	4292.6625
2679.84993	4308.1625
2682.476	4291.8625
2685.10043	4290.8625
2687.72324	4286.1625
2690.34441	4303.9625
2692.96396	4291.0625
2695.58188	4297.4625
2698.19818	4292.9625
2700.81285	4309.9625
2703.4259	4322.0625
2706.03733	4394.1625
2708.64714	4335.8625
2711.25533	4318.8625
2713.86191	4316.4625
2716.46687	4319.6625
2719.07021	4313.6625
2721.67194	4315.3625
2724.27206	4317.0625
2726.87057	4315.0625
2729.46747	4323.1625
2732.06276	4313.3625
2734.65644	4302.5625
2737.24852	4308.7625
2739.83899	4285.2625
2742.42786	4298.6625
2745.01513	4276.4625
2747.60079	4305.2625
2750.18486	4275.3625
2752.76733	4263.5625
2755.3482	4271.4625
2757.92747	4266.6625
2760.50515	4266.9625
2763.08123	4247.5625
2765.65573	4258.3625
2768.22863	4245.8625
2770.79994	4258.0625
2773.36967	4248.5625
2775.9378	4240.9625
2778.50435	4243.4625
2781.06932	4252.7625
2783.6327	4247.1625
2786.1945	4255.8625
2788.75471	4244.5625
2791.31335	4242.5625
2793.87041	4228.6625
2796.42589	4224.6625
2798.97979	4232.8625
2801.53212	4237.3625
2804.08288	4228.0625
2806.63206	4223.8625
2809.17967	4229.9625
2811.72571	4217.3625
2814.27018	4232.1625
2816.81308	4243.8625
2819.35442	4238.8625
2821.89419	4230.7625
2824.43239	4239.4625
2826.96904	4248.3625
2829.50412	4251.5625
2832.03763	4232.5625
2834.56959	4245.3625
2837.1	4237.5625
2839.62884	4254.5625
2842.15613	4272.4625
2844.68186	4318.2625
2847.20604	4362.6625
2849.72867	4382.2625
2852.24974	4387.8625
2854.76927	4412.2625
2857.28724	4404.3625
2859.80367	4377.9625
2862.31855	4360.6625
2864.83189	4339.8625
2867.34368	4341.3625
2869.85393	4336.2625
2872.36264	4315.6625
2874.8698	4302.3625
2877.37543	4288.3625
2879.87952	4305.5625
2882.38207	4312.2625
2884.88308	4288.0625
2887.38256	4296.2625
2889.88051	4304.0625
2892.37692	4306.8625
2894.8718	4296.6625
2897.36515	4314.1625
2899.85698	4315.6625
2902.34727	4315.4625
2904.83604	4324.0625
2907.32328	4317.2625
2909.809	4314.5625
2912.29319	4320.7625
2914.77587	4309.1625
2917.25702	4309.8625
2919.73665	4288.9625
2922.21476	4286.7625
2924.69136	4279.0625
2927.16644	4280.4625
2929.64	4280.7625
2932.11205	4267.9625
2934.58258	4229.2625
2937.05161	4247.9625
2939.51912	4238.4625
2941.98513	4204.5625
2944.44962	4190.8625
2946.91261	4163.6625
2949.37409	4147.2625
2951.83407	4137.5625
2954.29254	4112.8625
2956.74951	4096.4625
2959.20498	4079.0625
2961.65895	4065.8625
2964.11142	4038.1625
2966.56239	4018.5625
2969.01186	4010.4625
2971.45984	4003.0625
2973.90632	4004.4625
2976.35131	3986.7625
2978.7948	3952.0625
2981.23681	3970.5625
2983.67732	3931.3625
2986.11635	3931.5625
2988.55388	3913.9625
2990.98993	3904.3625
2993.4245	3899.5625
2995.85758	3880.6625
2998.28917	3871.9625
3000.71928	3873.0625
3003.14791	3875.9625
3005.57506	3872.2625
3008.00073	3853.3625
3010.42493	3832.3625
3012.84764	3842.9625
3015.26888	3839.8625
3017.68865	3830.8625
3020.10694	3820.2625
3022.52376	3807.1625
3024.9391	3825.7625
3027.35298	3791.2625
3029.76539	3781.3625
3032.17632	3780.6625
3034.5858	3760.9625
3036.9938	3784.4625
3039.40034	3757.7625
3041.80542	3758.2625
3044.20903	3749.1625
3046.61118	3743.2625
3049.01187	3731.6625
3051.4111	3739.9625
3053.80888	3732.7625
3056.20519	3711.3625
3058.60005	3727.9625
3060.99345	3693.4625
3063.3854	3698.8625
3065.7759	3689.4625
3068.16494	3678.2625
3070.55254	3660.8625
3072.93868	3671.3625
3075.32338	3641.8625
3077.70662	3639.6625
3080.08842	3633.1625
3082.46878	3621.5625
3084.84769	3606.3625
3087.22515	3603.9625
3089.60118	3610.7625
3091.97576	3599.5625
3094.3489	3603.5625
3096.72061	3588.4625
3099.09087	3590.6625
3101.4597	3588.3625
3103.82709	3590.4625
3106.19305	3601.6625
3108.55757	3590.8625
3110.92066	3573.2625
