Data from AgNPs_FTO_APTES_UA_0um_CRN_0.1mM_R6G_10uM_NaF_0.1M_Addition_RamanShift__44__11-02-38-946.txt Node

Date: Tue Dec 21 11:02:38 GMT 2021
User: TCL
Spectrometer: QEP01345
Trigger mode: 4
Integration Time (sec): 7.000000E0
Scans to average: 10
Electric dark correction enabled: true
Nonlinearity correction enabled: false
Boxcar width: 0
XAxis mode: Raman Shifts
Number of Pixels in Spectrum: 1044
>>>>>Begin Spectral Data<<<<<
46.04893	0.8375
50.45542	-0.6625
54.85868	-1.5625
59.25871	-0.6625
63.6555	38.6375
68.04907	45.0375
72.43941	45.4375
76.82654	48.7375
81.21044	52.9375
85.59113	53.1375
89.96862	53.7375
94.34289	55.9375
98.71396	55.6375
103.08183	63.5375
107.4465	63.2375
111.80798	66.4375
116.16626	64.9375
120.52136	69.7375
124.87327	68.9375
129.222	71.3375
133.56755	78.3375
137.90993	89.4375
142.24913	91.5375
146.58517	101.5375
150.91804	119.3375
155.24774	147.9375
159.57429	176.9375
163.89768	236.3375
168.21792	309.9375
172.53501	415.8375
176.84895	580.4375
181.15975	818.6375
185.46741	1131.6375
189.77193	1556.0375
194.07331	2084.2375
198.37157	2666.4375
202.6667	3306.0375
206.9587	3924.2375
211.24758	4558.2375
215.53334	5169.7375
219.81599	5815.5375
224.09553	6534.5375
228.37195	7353.5375
232.64527	8205.2375
236.91549	9092.4375
241.18261	10005.4375
245.44663	10803.4375
249.70755	11517.4375
253.96539	12057.8375
258.22014	12551.0375
262.4718	12910.8375
266.72039	13144.2375
270.96589	13188.0375
275.20832	13166.8375
279.44768	13034.9375
283.68397	12920.0375
287.91719	12812.0375
292.14735	12757.4375
296.37445	12742.7375
300.59849	12757.6375
304.81948	12886.1375
309.03742	12955.4375
313.25231	12980.7375
317.46415	12889.8375
321.67296	12711.5375
325.87872	12526.9375
330.08145	12377.8375
334.28114	12297.9375
338.47781	12284.4375
342.67145	12383.5375
346.86207	12585.2375
351.04966	12819.1375
355.23424	12992.9375
359.4158	13120.9375
363.59435	13238.7375
367.76989	13221.9375
371.94243	13127.2375
376.11196	13079.0375
380.27849	13034.8375
384.44203	13017.2375
388.60257	13126.9375
392.76012	13279.7375
396.91468	13523.5375
401.06626	13749.2375
405.21485	13925.9375
409.36047	13866.7375
413.50311	13678.8375
417.64277	13742.5375
421.77947	13964.7375
425.9132	14117.0375
430.04396	14238.5375
434.17176	14326.0375
438.2966	14422.4375
442.41849	14732.0375
446.53742	15289.4375
450.6534	15820.1375
454.76644	16051.3375
458.87653	15972.3375
462.98368	15659.4375
467.08789	15318.5375
471.18916	14907.1375
475.2875	14503.5375
479.38291	14179.7375
483.4754	14024.1375
487.56496	13858.9375
491.6516	13742.5375
495.73531	13495.4375
499.81612	13372.0375
503.89401	13479.5375
507.96899	13548.8375
512.04106	13441.9375
516.11023	13172.6375
520.1765	12895.7375
524.23987	12670.4375
528.30034	12585.8375
532.35792	12460.1375
536.41261	12248.5375
540.46441	12009.3375
544.51333	11947.3375
548.55936	12040.2375
552.60252	12441.1375
556.64279	12959.2375
560.6802	13413.3375
564.71473	13604.4375
568.7464	13866.6375
572.7752	14565.3375
576.80114	15520.6375
580.82422	16657.5375
584.84444	18113.5375
588.86181	20274.9375
592.87633	22650.9375
596.888	23326.9375
600.89682	21174.9375
604.9028	18588.4375
608.90594	17746.0375
612.90624	17813.6375
616.90371	16326.9375
620.89834	13580.6375
624.89015	12334.5375
628.87913	12382.7375
632.86528	12632.4375
636.84862	12575.3375
640.82913	12153.1375
644.80683	11684.7375
648.78172	11475.0375
652.75379	11476.6375
656.72306	11644.8375
660.68952	11747.9375
664.65319	11608.4375
668.61405	11333.6375
672.57211	11293.2375
676.52738	11378.2375
680.47986	11418.9375
684.42955	11263.7375
688.37646	11127.4375
692.32058	11186.0375
696.26192	11431.3375
700.20048	11676.9375
704.13626	11872.3375
708.06928	12085.4375
711.99952	12183.3375
715.927	12205.0375
719.85171	12196.7375
723.77365	11984.7375
727.69284	11613.5375
731.60928	11306.4375
735.52295	11221.9375
739.43388	11250.4375
743.34206	11376.0375
747.24749	11527.8375
751.15017	11795.0375
755.05012	12169.4375
758.94733	12693.6375
762.8418	13538.6375
766.73354	14740.8375
770.62254	15764.4375
774.50882	15609.4375
778.39237	14431.4375
782.27321	13172.2375
786.15132	12213.3375
790.02671	11631.3375
793.89938	11346.4375
797.76935	11169.3375
801.6366	11101.2375
805.50115	11038.4375
809.36299	10982.1375
813.22213	10881.3375
817.07857	10777.5375
820.93231	10656.1375
824.78336	10519.7375
828.63172	10422.2375
832.47738	10357.2375
836.32036	10312.6375
840.16066	10338.7375
843.99827	10342.4375
847.8332	10339.1375
851.66546	10372.4375
855.49504	10372.0375
859.32195	10365.7375
863.1462	10301.4375
866.96777	10212.8375
870.78668	10169.6375
874.60293	10163.0375
878.41652	10192.6375
882.22745	10228.2375
886.03573	10259.6375
889.84136	10263.1375
893.64433	10223.6375
897.44466	10180.3375
901.24235	10177.1375
905.0374	10108.6375
908.8298	10098.5375
912.61957	10124.7375
916.40671	10268.3375
920.19121	10554.7375
923.97308	10899.7375
927.75233	11006.2375
931.52895	10822.8375
935.30295	10351.4375
939.07433	9903.3375
942.84309	9616.2375
946.60924	9463.2375
950.37278	9409.3375
954.13371	9409.8375
957.89203	9416.2375
961.64774	9437.6375
965.40086	9455.4375
969.15137	9412.7375
972.89929	9319.4375
976.64461	9200.2375
980.38733	9122.4375
984.12747	9124.4375
987.86502	9127.1375
991.59999	9157.8375
995.33237	9255.9375
999.06217	9425.3375
1002.78939	9707.7375
1006.51404	10054.0375
1010.23611	10401.1375
1013.95561	10669.6375
1017.67255	10814.2375
1021.38692	10666.4375
1025.09872	10283.2375
1028.80796	9954.3375
1032.51465	9786.5375
1036.21877	9770.6375
1039.92035	9826.8375
1043.61937	9937.1375
1047.31584	10005.3375
1051.00976	10071.6375
1054.70114	10132.3375
1058.38998	10199.1375
1062.07627	10312.4375
1065.76003	10496.6375
1069.44126	10740.9375
1073.11995	11132.9375
1076.79611	11414.0375
1080.46974	11524.5375
1084.14085	11649.5375
1087.80943	11868.3375
1091.47549	12084.2375
1095.13903	12227.1375
1098.80005	11913.1375
1102.45857	11324.7375
1106.11456	10840.2375
1109.76805	10600.5375
1113.41903	10603.4375
1117.06751	10708.0375
1120.71348	10889.4375
1124.35696	11091.9375
1127.99793	11278.0375
1131.63641	11487.0375
1135.2724	11508.7375
1138.90589	11514.8375
1142.5369	11681.2375
1146.16542	11915.2375
1149.79145	12183.9375
1153.415	12397.5375
1157.03607	12732.0375
1160.65467	13327.1375
1164.27079	14390.3375
1167.88443	15643.6375
1171.49561	16931.4375
1175.10432	18400.7375
1178.71056	20162.5375
1182.31434	21688.3375
1185.91565	22151.4375
1189.51451	21508.3375
1193.11091	20541.1375
1196.70485	19581.6375
1200.29634	18617.9375
1203.88538	18011.1375
1207.47197	17821.2375
1211.05612	17785.7375
1214.63782	17443.6375
1218.21708	16811.4375
1221.79391	16118.6375
1225.36829	15758.3375
1228.94024	15570.4375
1232.50976	15255.9375
1236.07685	14752.0375
1239.6415	14266.3375
1243.20374	14056.1375
1246.76355	14077.1375
1250.32093	14295.9375
1253.8759	14670.3375
1257.42845	15273.1375
1260.97859	15926.9375
1264.52631	16595.1375
1268.07163	17297.1375
1271.61453	17961.4375
1275.15503	18738.3375
1278.69312	19733.7375
1282.22882	21042.3375
1285.76211	22639.9375
1289.29301	24443.1375
1292.82151	26267.4375
1296.34761	28337.8375
1299.87133	30599.3375
1303.39266	32763.5375
1306.9116	34456.0375
1310.42815	35544.1375
1313.94233	35959.3375
1317.45412	35394.1375
1320.96354	34113.4375
1324.47058	32999.9375
1327.97525	32277.8375
1331.47754	31726.9375
1334.97747	31104.8375
1338.47502	30251.7375
1341.97022	29202.9375
1345.46305	28182.0375
1348.95352	27566.1375
1352.44163	27764.1375
1355.92738	29087.0375
1359.41078	31392.3375
1362.89183	33437.9375
1366.37053	34037.7375
1369.84688	31976.8375
1373.32088	27703.7375
1376.79254	24072.4375
1380.26186	22650.5375
1383.72883	22680.3375
1387.19347	22623.3375
1390.65578	22117.6375
1394.11575	21990.4375
1397.57339	22462.0375
1401.0287	23195.0375
1404.48168	23757.6375
1407.93234	23669.8375
1411.38068	22944.8375
1414.82669	21784.6375
1418.27039	20557.7375
1421.71177	19358.6375
1425.15083	18315.1375
1428.58758	17760.0375
1432.02203	17965.2375
1435.45416	18598.5375
1438.88399	19400.7375
1442.31151	19895.3375
1445.73673	20231.0375
1449.15965	20431.3375
1452.58027	20393.3375
1455.9986	20223.5375
1459.41463	20195.2375
1462.82837	20429.9375
1466.23982	21030.4375
1469.64898	21663.8375
1473.05586	22117.0375
1476.46045	22358.6375
1479.86276	22501.7375
1483.26279	22477.9375
1486.66054	22524.3375
1490.05602	22831.1375
1493.44922	23324.4375
1496.84016	23756.0375
1500.22882	23961.3375
1503.61521	24044.7375
1506.99934	24055.1375
1510.38121	24053.4375
1513.76081	23942.5375
1517.13816	23775.6375
1520.51324	23633.5375
1523.88607	23775.8375
1527.25665	24200.7375
1530.62498	24486.5375
1533.99105	24242.0375
1537.35488	23533.2375
1540.71647	22476.0375
1544.07581	21221.0375
1547.4329	19942.7375
1550.78776	18894.9375
1554.14038	18129.2375
1557.49077	17767.1375
1560.83892	17543.0375
1564.18484	17501.9375
1567.52853	17648.6375
1570.86999	17908.9375
1574.20922	18431.1375
1577.54624	18949.0375
1580.88103	19204.5375
1584.2136	19544.9375
1587.54395	20508.7375
1590.87208	22241.0375
1594.19801	24451.3375
1597.52172	26464.2375
1600.84321	27157.1375
1604.16251	25601.6375
1607.47959	22569.2375
1610.79447	19406.0375
1614.10715	16719.4375
1617.41763	14825.2375
1620.7259	13618.2375
1624.03199	13089.0375
1627.33587	13078.0375
1630.63757	13707.9375
1633.93707	15063.7375
1637.23439	17556.1375
1640.52951	21592.8375
1643.82246	27028.3375
1647.11321	32088.4375
1650.40179	33913.3375
1653.68819	31228.6375
1656.97241	25759.8375
1660.25446	20254.7375
1663.53433	16077.9375
1666.81203	13393.6375
1670.08756	11727.6375
1673.36092	10728.9375
1676.63211	10118.8375
1679.90115	9713.1375
1683.16801	9371.9375
1686.43272	9147.6375
1689.69527	9013.9375
1692.95567	8872.6375
1696.2139	8814.7375
1699.46999	8725.0375
1702.72392	8658.4375
1705.97571	8631.1375
1709.22535	8524.7375
1712.47284	8496.1375
1715.71819	8465.2375
1718.96139	8415.4375
1722.20246	8356.6375
1725.44139	8301.8375
1728.67818	8201.7375
1731.91284	8124.9375
1735.14537	8056.0375
1738.37576	8006.7375
1741.60403	7928.9375
1744.83017	7893.3375
1748.05418	7883.9375
1751.27607	7849.8375
1754.49584	7835.6375
1757.71349	7869.3375
1760.92903	7869.7375
1764.14244	7842.5375
1767.35375	7822.0375
1770.56294	7756.1375
1773.77002	7747.3375
1776.97499	7690.0375
1780.17785	7647.8375
1783.37861	7625.6375
1786.57727	7590.7375
1789.77382	7550.6375
1792.96828	7512.4375
1796.16064	7484.3375
1799.3509	7452.7375
1802.53907	7434.3375
1805.72514	7385.4375
1808.90913	7357.9375
1812.09102	7350.1375
1815.27083	7308.2375
1818.44856	7290.7375
1821.6242	7298.4375
1824.79776	7274.2375
1827.96924	7269.2375
1831.13864	7265.4375
1834.30597	7251.9375
1837.47122	7243.9375
1840.6344	7253.1375
1843.7955	7246.8375
1846.95454	7236.3375
1850.11151	7242.1375
1853.26642	7216.2375
1856.41926	7218.6375
1859.57004	7225.9375
1862.71876	7205.7375
1865.86542	7184.5375
1869.01003	7163.9375
1872.15258	7175.0375
1875.29308	7148.0375
1878.43152	7133.7375
1881.56792	7120.8375
1884.70227	7125.9375
1887.83457	7115.3375
1890.96482	7121.6375
1894.09304	7109.6375
1897.21921	7106.9375
1900.34335	7088.7375
1903.46544	7080.3375
1906.58551	7050.4375
1909.70353	7035.4375
1912.81953	7021.2375
1915.93349	6967.7375
1919.04543	6963.9375
1922.15534	6929.5375
1925.26322	6924.5375
1928.36908	6872.9375
1931.47292	6845.3375
1934.57473	6823.0375
1937.67453	6797.9375
1940.77232	6777.2375
1943.86808	6758.6375
1946.96184	6754.6375
1950.05358	6716.8375
1953.14331	6702.4375
1956.23103	6685.5375
1959.31675	6658.8375
1962.40046	6626.4375
1965.48217	6588.5375
1968.56188	6580.3375
1971.63959	6551.8375
1974.7153	6521.8375
1977.78901	6484.1375
1980.86073	6457.7375
1983.93046	6435.6375
1986.99819	6420.9375
1990.06394	6401.4375
1993.1277	6384.3375
1996.18947	6347.6375
1999.24925	6331.1375
2002.30706	6333.2375
2005.36288	6295.1375
2008.41672	6276.3375
2011.46859	6242.2375
2014.51848	6208.6375
2017.56639	6208.8375
2020.61233	6190.9375
2023.6563	6166.4375
2026.6983	6183.4375
2029.73833	6160.2375
2032.7764	6119.2375
2035.8125	6104.7375
2038.84664	6102.2375
2041.87881	6081.0375
2044.90903	6058.0375
2047.93729	6061.6375
2050.96359	6061.5375
2053.98794	6044.6375
2057.01034	6035.1375
2060.03078	6035.2375
2063.04927	6026.3375
2066.06582	6013.4375
2069.08042	5992.9375
2072.09307	5993.6375
2075.10378	5983.6375
2078.11255	5983.2375
2081.11938	5996.3375
2084.12426	5997.1375
2087.12722	5998.2375
2090.12824	5981.4375
2093.12732	5989.5375
2096.12447	5982.3375
2099.11969	5974.3375
2102.11299	5989.2375
2105.10435	5982.1375
2108.09379	5967.5375
2111.08131	5952.3375
2114.0669	5972.4375
2117.05057	5953.7375
2120.03233	5960.8375
2123.01216	5959.1375
2125.99008	5963.4375
2128.96609	5947.2375
2131.94018	5962.5375
2134.91236	5934.7375
2137.88263	5940.5375
2140.851	5918.2375
2143.81746	5912.8375
2146.78201	5927.7375
2149.74466	5903.5375
2152.7054	5899.4375
2155.66425	5865.6375
2158.6212	5890.9375
2161.57625	5882.7375
2164.52941	5879.3375
2167.48067	5861.7375
2170.43004	5859.3375
2173.37752	5843.8375
2176.32311	5860.7375
2179.26681	5863.2375
2182.20863	5859.1375
2185.14856	5853.7375
2188.08661	5836.1375
2191.02278	5839.5375
2193.95707	5842.6375
2196.88948	5824.4375
2199.82001	5820.8375
2202.74867	5791.4375
2205.67545	5792.1375
2208.60037	5761.8375
2211.52341	5755.5375
2214.44458	5736.2375
2217.36388	5728.2375
2220.28132	5717.6375
2223.1969	5700.7375
2226.11061	5703.7375
2229.02246	5696.2375
2231.93245	5701.6375
2234.84058	5709.4375
2237.74686	5714.0375
2240.65128	5703.0375
2243.55385	5687.0375
2246.45456	5687.3375
2249.35343	5651.0375
2252.25044	5635.7375
2255.14561	5622.7375
2258.03893	5591.3375
2260.93041	5580.2375
2263.82004	5537.8375
2266.70783	5511.4375
2269.59378	5503.2375
2272.4779	5479.9375
2275.36017	5462.3375
2278.24061	5448.8375
2281.11922	5428.2375
2283.996	5436.0375
2286.87094	5413.8375
2289.74405	5384.9375
2292.61534	5395.8375
2295.4848	5389.1375
2298.35243	5383.1375
2301.21824	5377.8375
2304.08223	5373.9375
2306.94439	5359.0375
2309.80474	5352.8375
2312.66327	5347.6375
2315.51999	5339.8375
2318.37489	5346.5375
2321.22797	5323.9375
2324.07925	5318.4375
2326.92871	5310.3375
2329.77637	5305.7375
2332.62222	5279.6375
2335.46626	5303.9375
2338.3085	5269.2375
2341.14893	5287.1375
2343.98756	5283.7375
2346.8244	5278.4375
2349.65943	5280.3375
2352.49267	5264.0375
2355.32411	5290.7375
2358.15376	5293.1375
2360.98161	5285.9375
2363.80768	5270.8375
2366.63195	5272.1375
2369.45444	5263.0375
2372.27514	5252.3375
2375.09405	5249.7375
2377.91118	5228.2375
2380.72652	5227.0375
2383.54009	5200.3375
2386.35187	5195.3375
2389.16188	5166.9375
2391.97011	5167.0375
2394.77657	5152.4375
2397.58125	5144.2375
2400.38416	5137.4375
2403.18529	5124.0375
2405.98466	5130.9375
2408.78226	5124.2375
2411.57809	5113.3375
2414.37216	5096.9375
2417.16446	5090.2375
2419.955	5080.3375
2422.74378	5089.2375
2425.5308	5083.2375
2428.31606	5062.5375
2431.09956	5068.5375
2433.88131	5059.7375
2436.6613	5064.9375
2439.43954	5057.1375
2442.21603	5045.4375
2444.99077	5030.1375
2447.76377	5054.0375
2450.53501	5039.8375
2453.30451	5041.1375
2456.07226	5044.7375
2458.83827	5042.5375
2461.60254	5038.6375
2464.36507	5029.9375
2467.12586	5034.2375
2469.88492	5035.9375
2472.64224	5045.1375
2475.39782	5044.8375
2478.15167	5052.2375
2480.90379	5035.8375
2483.65417	5035.2375
2486.40283	5031.6375
2489.14976	5032.9375
2491.89497	5049.2375
2494.63845	5031.3375
2497.3802	5031.8375
2500.12024	5032.1375
2502.85855	5017.5375
2505.59514	5022.6375
2508.33002	5009.1375
2511.06318	5006.8375
2513.79462	4987.6375
2516.52435	4984.1375
2519.25237	4970.3375
2521.97867	4984.3375
2524.70327	4969.8375
2527.42616	4961.5375
2530.14734	4957.2375
2532.86681	4950.9375
2535.58458	4954.1375
2538.30065	4936.0375
2541.01501	4922.6375
2543.72768	4952.3375
2546.43864	4942.2375
2549.14791	4923.3375
2551.85548	4926.8375
2554.56136	4917.3375
2557.26554	4904.3375
2559.96803	4919.3375
2562.66883	4909.7375
2565.36794	4914.9375
2568.06536	4931.1375
2570.7611	4905.1375
2573.45514	4912.1375
2576.14751	4898.5375
2578.83819	4906.9375
2581.52719	4906.5375
2584.21451	4909.0375
2586.90015	4897.4375
2589.58411	4893.2375
2592.2664	4891.9375
2594.94701	4895.2375
2597.62594	4886.7375
2600.30321	4875.3375
2602.9788	4870.6375
2605.65273	4871.4375
2608.32498	4872.0375
2610.99557	4881.8375
2613.66449	4884.2375
2616.33175	4880.0375
2618.99734	4877.7375
2621.66128	4871.1375
2624.32355	4865.1375
2626.98416	4852.2375
2629.64311	4849.6375
2632.30041	4865.3375
2634.95605	4845.4375
2637.61004	4863.4375
2640.26238	4842.0375
2642.91306	4842.9375
2645.56209	4835.6375
2648.20948	4827.0375
2650.85521	4845.8375
2653.4993	4841.9375
2656.14175	4862.6375
2658.78255	4858.9375
2661.42171	4860.4375
2664.05923	4873.1375
2666.6951	4886.5375
2669.32934	4889.4375
2671.96194	4881.1375
2674.59291	4880.3375
2677.22224	4859.7375
2679.84993	4865.3375
2682.476	4858.2375
2685.10043	4866.2375
2687.72324	4873.7375
2690.34441	4856.9375
2692.96396	4855.9375
2695.58188	4852.6375
2698.19818	4881.9375
2700.81285	4882.6375
2703.4259	4873.5375
2706.03733	4920.6375
2708.64714	4901.8375
2711.25533	4895.3375
2713.86191	4886.7375
2716.46687	4887.8375
2719.07021	4900.6375
2721.67194	4889.8375
2724.27206	4890.7375
2726.87057	4899.9375
2729.46747	4901.1375
2732.06276	4908.2375
2734.65644	4902.1375
2737.24852	4901.5375
2739.83899	4892.8375
2742.42786	4913.1375
2745.01513	4894.7375
2747.60079	4885.3375
2750.18486	4889.4375
2752.76733	4868.7375
2755.3482	4872.8375
2757.92747	4867.7375
2760.50515	4876.5375
2763.08123	4859.3375
2765.65573	4853.1375
2768.22863	4881.2375
2770.79994	4863.8375
2773.36967	4891.9375
2775.9378	4876.2375
2778.50435	4898.0375
2781.06932	4882.2375
2783.6327	4881.1375
2786.1945	4881.0375
2788.75471	4877.2375
2791.31335	4871.4375
2793.87041	4868.3375
2796.42589	4868.8375
2798.97979	4873.7375
2801.53212	4858.2375
2804.08288	4860.1375
2806.63206	4852.7375
2809.17967	4835.0375
2811.72571	4827.6375
2814.27018	4839.7375
2816.81308	4831.5375
2819.35442	4815.0375
2821.89419	4806.0375
2824.43239	4822.5375
2826.96904	4819.7375
2829.50412	4809.2375
2832.03763	4797.6375
2834.56959	4805.8375
2837.1	4806.0375
2839.62884	4813.2375
2842.15613	4805.4375
2844.68186	4837.1375
2847.20604	4834.3375
2849.72867	4865.2375
2852.24974	4847.0375
2854.76927	4840.4375
2857.28724	4863.0375
2859.80367	4844.2375
2862.31855	4813.2375
2864.83189	4797.3375
2867.34368	4797.1375
2869.85393	4793.5375
2872.36264	4789.9375
2874.8698	4777.7375
2877.37543	4780.6375
2879.87952	4784.4375
2882.38207	4779.2375
2884.88308	4777.1375
2887.38256	4795.6375
2889.88051	4778.4375
2892.37692	4781.2375
2894.8718	4774.2375
2897.36515	4797.1375
2899.85698	4809.5375
2902.34727	4816.9375
2904.83604	4805.1375
2907.32328	4805.5375
2909.809	4822.9375
2912.29319	4826.8375
2914.77587	4817.2375
2917.25702	4825.3375
2919.73665	4812.1375
2922.21476	4834.7375
2924.69136	4825.5375
2927.16644	4829.7375
2929.64	4824.4375
2932.11205	4829.4375
2934.58258	4805.4375
2937.05161	4815.2375
2939.51912	4818.0375
2941.98513	4811.7375
2944.44962	4785.8375
2946.91261	4766.7375
2949.37409	4758.2375
2951.83407	4754.8375
2954.29254	4750.5375
2956.74951	4745.0375
2959.20498	4736.2375
2961.65895	4733.8375
2964.11142	4701.5375
2966.56239	4688.1375
2969.01186	4685.1375
2971.45984	4657.0375
2973.90632	4638.4375
2976.35131	4609.5375
2978.7948	4599.5375
2981.23681	4589.1375
2983.67732	4557.2375
2986.11635	4538.9375
2988.55388	4530.0375
2990.98993	4507.6375
2993.4245	4502.4375
2995.85758	4477.2375
2998.28917	4490.1375
3000.71928	4477.3375
3003.14791	4465.4375
3005.57506	4448.5375
3008.00073	4450.6375
3010.42493	4425.9375
3012.84764	4419.7375
3015.26888	4422.0375
3017.68865	4394.5375
3020.10694	4381.4375
3022.52376	4377.2375
3024.9391	4363.5375
3027.35298	4347.1375
3029.76539	4351.9375
3032.17632	4347.3375
3034.5858	4328.6375
3036.9938	4316.8375
3039.40034	4316.2375
3041.80542	4316.2375
3044.20903	4312.3375
3046.61118	4320.7375
3049.01187	4289.8375
3051.4111	4303.4375
3053.80888	4281.4375
3056.20519	4257.3375
3058.60005	4267.8375
3060.99345	4254.5375
3063.3854	4245.3375
3065.7759	4238.1375
3068.16494	4217.0375
3070.55254	4192.9375
3072.93868	4175.2375
3075.32338	4168.9375
3077.70662	4157.5375
3080.08842	4132.6375
3082.46878	4129.9375
