Data from AgNPs_FTO_APTES_UA_5um_CRN_0.1mM_R6G_10uM_NaF_0.1M_Addition_RamanShift__13__13-12-09-095.txt Node

Date: Tue Dec 21 13:12:09 GMT 2021
User: TCL
Spectrometer: QEP01345
Trigger mode: 4
Integration Time (sec): 7.000000E0
Scans to average: 10
Electric dark correction enabled: true
Nonlinearity correction enabled: false
Boxcar width: 0
XAxis mode: Raman Shifts
Number of Pixels in Spectrum: 1044
>>>>>Begin Spectral Data<<<<<
46.04893	-1.025
50.45542	-0.725
54.85868	-1.625
59.25871	1.475
63.6555	33.575
68.04907	39.975
72.43941	43.775
76.82654	47.875
81.21044	48.375
85.59113	50.775
89.96862	50.475
94.34289	51.275
98.71396	54.375
103.08183	55.675
107.4465	58.675
111.80798	62.375
116.16626	60.275
120.52136	62.075
124.87327	61.975
129.222	65.575
133.56755	70.775
137.90993	74.675
142.24913	76.975
146.58517	90.175
150.91804	102.175
155.24774	119.675
159.57429	144.575
163.89768	187.375
168.21792	244.775
172.53501	329.875
176.84895	455.075
181.15975	642.675
185.46741	893.575
189.77193	1229.875
194.07331	1663.975
198.37157	2155.075
202.6667	2679.375
206.9587	3192.375
211.24758	3735.375
215.53334	4271.275
219.81599	4819.775
224.09553	5415.175
228.37195	6061.875
232.64527	6785.675
236.91549	7543.575
241.18261	8315.775
245.44663	9028.275
249.70755	9655.575
253.96539	10188.475
258.22014	10616.775
262.4718	10950.975
266.72039	11174.975
270.96589	11225.375
275.20832	11217.175
279.44768	11100.475
283.68397	10998.775
287.91719	10912.675
292.14735	10850.775
296.37445	10785.875
300.59849	10792.975
304.81948	10834.875
309.03742	10834.475
313.25231	10767.875
317.46415	10585.875
321.67296	10285.975
325.87872	10019.975
330.08145	9874.775
334.28114	9834.275
338.47781	9854.775
342.67145	10007.875
346.86207	10102.375
351.04966	10275.775
355.23424	10443.175
359.4158	10582.675
363.59435	10680.075
367.76989	10739.375
371.94243	10762.175
376.11196	10800.875
380.27849	10799.675
384.44203	10848.575
388.60257	10909.575
392.76012	11024.275
396.91468	11192.275
401.06626	11397.075
405.21485	11572.575
409.36047	11545.575
413.50311	11406.075
417.64277	11225.875
421.77947	11146.175
425.9132	11135.275
430.04396	11178.575
434.17176	11230.675
438.2966	11302.575
442.41849	11395.975
446.53742	11537.775
450.6534	11729.875
454.76644	11882.475
458.87653	11962.775
462.98368	11941.575
467.08789	11949.975
471.18916	11867.675
475.2875	11759.975
479.38291	11712.475
483.4754	11623.675
487.56496	11577.675
491.6516	11527.675
495.73531	11451.775
499.81612	11396.175
503.89401	11416.775
507.96899	11459.275
512.04106	11444.575
516.11023	11368.975
520.1765	11301.675
524.23987	11203.675
528.30034	11127.675
532.35792	11045.975
536.41261	10935.475
540.46441	10843.375
544.51333	10839.775
548.55936	10944.475
552.60252	11117.375
556.64279	11297.875
560.6802	11403.875
564.71473	11482.775
568.7464	11618.775
572.7752	11919.075
576.80114	12247.675
580.82422	12589.075
584.84444	12919.175
588.86181	13097.475
592.87633	13106.075
596.888	13023.775
600.89682	12911.975
604.9028	13047.075
608.90594	13835.575
612.90624	14834.075
616.90371	14061.475
620.89834	12058.975
624.89015	11059.875
628.87913	10971.175
632.86528	11112.375
636.84862	11219.775
640.82913	11129.575
644.80683	10874.375
648.78172	10701.675
652.75379	10627.975
656.72306	10690.475
660.68952	10894.075
664.65319	10914.675
668.61405	10805.575
672.57211	10776.475
676.52738	10884.475
680.47986	10901.075
684.42955	10814.075
688.37646	10777.075
692.32058	10735.475
696.26192	10755.675
700.20048	10855.675
704.13626	10908.475
708.06928	10962.875
711.99952	10946.775
715.927	10912.975
719.85171	10871.975
723.77365	10805.275
727.69284	10679.575
731.60928	10566.175
735.52295	10492.575
739.43388	10491.775
743.34206	10487.275
747.24749	10549.275
751.15017	10622.375
755.05012	10730.775
758.94733	11021.075
762.8418	11523.575
766.73354	12368.675
770.62254	13210.675
774.50882	13413.875
778.39237	12917.075
782.27321	12025.575
786.15132	11268.175
790.02671	10779.275
793.89938	10507.575
797.76935	10375.475
801.6366	10328.475
805.50115	10279.875
809.36299	10185.575
813.22213	10154.775
817.07857	10132.275
820.93231	10096.175
824.78336	10074.575
828.63172	10048.575
832.47738	10033.675
836.32036	10001.675
840.16066	9965.275
843.99827	9969.475
847.8332	9922.375
851.66546	9948.975
855.49504	9935.475
859.32195	9939.175
863.1462	9916.275
866.96777	9907.875
870.78668	9899.275
874.60293	9910.275
878.41652	9917.575
882.22745	9924.075
886.03573	9971.375
889.84136	9988.975
893.64433	9951.975
897.44466	9944.975
901.24235	9927.475
905.0374	9881.675
908.8298	9858.975
912.61957	9876.975
916.40671	9915.275
920.19121	10023.675
923.97308	10111.775
927.75233	10145.975
931.52895	10093.575
935.30295	9955.675
939.07433	9783.375
942.84309	9604.975
946.60924	9522.275
950.37278	9458.575
954.13371	9439.375
957.89203	9425.675
961.64774	9373.675
965.40086	9384.075
969.15137	9369.775
972.89929	9331.675
976.64461	9298.375
980.38733	9259.075
984.12747	9238.275
987.86502	9256.875
991.59999	9271.275
995.33237	9335.075
999.06217	9428.375
1002.78939	9513.375
1006.51404	9652.375
1010.23611	9773.475
1013.95561	9859.375
1017.67255	9894.775
1021.38692	9859.675
1025.09872	9789.375
1028.80796	9666.475
1032.51465	9601.975
1036.21877	9614.975
1039.92035	9677.375
1043.61937	9760.775
1047.31584	9813.075
1051.00976	9854.675
1054.70114	9908.775
1058.38998	9964.375
1062.07627	10023.375
1065.76003	10163.675
1069.44126	10275.475
1073.11995	10468.375
1076.79611	10617.675
1080.46974	10679.675
1084.14085	10670.775
1087.80943	10727.175
1091.47549	10790.475
1095.13903	10896.575
1098.80005	10813.575
1102.45857	10546.775
1106.11456	10306.975
1109.76805	10106.875
1113.41903	10069.875
1117.06751	10069.775
1120.71348	10185.375
1124.35696	10316.275
1127.99793	10464.775
1131.63641	10554.275
1135.2724	10527.675
1138.90589	10453.775
1142.5369	10400.375
1146.16542	10399.975
1149.79145	10413.075
1153.415	10487.275
1157.03607	10594.175
1160.65467	10754.875
1164.27079	11089.675
1167.88443	11509.875
1171.49561	12069.675
1175.10432	12773.375
1178.71056	13636.175
1182.31434	14487.175
1185.91565	14967.975
1189.51451	15087.575
1193.11091	14918.075
1196.70485	14442.375
1200.29634	13838.375
1203.88538	13349.375
1207.47197	12899.375
1211.05612	12583.275
1214.63782	12271.275
1218.21708	11995.875
1221.79391	11759.075
1225.36829	11569.475
1228.94024	11461.875
1232.50976	11420.375
1236.07685	11374.975
1239.6415	11363.175
1243.20374	11322.975
1246.76355	11401.175
1250.32093	11474.975
1253.8759	11630.475
1257.42845	11908.275
1260.97859	12213.575
1264.52631	12535.675
1268.07163	12820.675
1271.61453	13113.075
1275.15503	13389.975
1278.69312	13677.175
1282.22882	14011.175
1285.76211	14364.275
1289.29301	14736.875
1292.82151	15154.275
1296.34761	15609.675
1299.87133	16170.175
1303.39266	16786.775
1306.9116	17449.975
1310.42815	18056.975
1313.94233	18448.975
1317.45412	18396.075
1320.96354	18154.675
1324.47058	17998.175
1327.97525	17860.175
1331.47754	17813.875
1334.97747	17800.075
1338.47502	17885.275
1341.97022	17934.875
1345.46305	18030.075
1348.95352	18089.175
1352.44163	18129.475
1355.92738	18255.475
1359.41078	18632.375
1362.89183	19091.175
1366.37053	18964.775
1369.84688	17836.875
1373.32088	16329.075
1376.79254	15047.375
1380.26186	14343.575
1383.72883	14019.675
1387.19347	13774.375
1390.65578	13539.875
1394.11575	13363.875
1397.57339	13273.275
1401.0287	13227.075
1404.48168	13262.875
1407.93234	13200.975
1411.38068	13036.175
1414.82669	12751.375
1418.27039	12437.275
1421.71177	12046.675
1425.15083	11766.575
1428.58758	11594.575
1432.02203	11538.275
1435.45416	11617.375
1438.88399	11726.075
1442.31151	11891.575
1445.73673	12059.675
1449.15965	12259.675
1452.58027	12405.575
1455.9986	12491.675
1459.41463	12655.875
1462.82837	12833.675
1466.23982	13075.175
1469.64898	13329.475
1473.05586	13501.775
1476.46045	13602.775
1479.86276	13708.475
1483.26279	13797.675
1486.66054	13959.875
1490.05602	14204.375
1493.44922	14556.875
1496.84016	15122.675
1500.22882	15837.075
1503.61521	16657.475
1506.99934	17479.675
1510.38121	17991.375
1513.76081	17987.075
1517.13816	17391.475
1520.51324	16551.175
1523.88607	15776.175
1527.25665	15192.175
1530.62498	14858.675
1533.99105	14564.475
1537.35488	14258.975
1540.71647	13908.275
1544.07581	13536.175
1547.4329	13184.175
1550.78776	12862.775
1554.14038	12739.375
1557.49077	12674.675
1560.83892	12752.675
1564.18484	12908.175
1567.52853	13090.675
1570.86999	13225.075
1574.20922	13392.375
1577.54624	13426.075
1580.88103	13254.975
1584.2136	13003.175
1587.54395	12916.675
1590.87208	13080.775
1594.19801	13460.275
1597.52172	13982.675
1600.84321	14199.875
1604.16251	13836.975
1607.47959	13185.075
1610.79447	12454.175
1614.10715	11739.475
1617.41763	11063.075
1620.7259	10552.675
1624.03199	10240.575
1627.33587	10108.875
1630.63757	10208.875
1633.93707	10577.775
1637.23439	11228.575
1640.52951	12266.875
1643.82246	13641.975
1647.11321	15038.975
1650.40179	15974.375
1653.68819	15849.775
1656.97241	14627.175
1660.25446	12943.075
1663.53433	11386.175
1666.81203	10279.975
1670.08756	9529.475
1673.36092	9068.075
1676.63211	8754.575
1679.90115	8544.475
1683.16801	8403.775
1686.43272	8274.575
1689.69527	8210.275
1692.95567	8148.675
1696.2139	8111.475
1699.46999	8095.475
1702.72392	8044.875
1705.97571	8033.275
1709.22535	7981.475
1712.47284	7936.975
1715.71819	7926.975
1718.96139	7887.775
1722.20246	7837.975
1725.44139	7808.175
1728.67818	7786.175
1731.91284	7723.275
1735.14537	7686.975
1738.37576	7668.675
1741.60403	7617.775
1744.83017	7593.375
1748.05418	7584.975
1751.27607	7578.975
1754.49584	7619.775
1757.71349	7638.275
1760.92903	7616.675
1764.14244	7616.275
1767.35375	7595.175
1770.56294	7543.875
1773.77002	7491.375
1776.97499	7454.875
1780.17785	7398.775
1783.37861	7402.775
1786.57727	7341.575
1789.77382	7315.775
1792.96828	7307.675
1796.16064	7280.975
1799.3509	7249.775
1802.53907	7242.075
1805.72514	7205.975
1808.90913	7183.575
1812.09102	7156.075
1815.27083	7146.675
1818.44856	7125.175
1821.6242	7110.875
1824.79776	7103.975
1827.96924	7101.175
1831.13864	7096.675
1834.30597	7080.275
1837.47122	7074.575
1840.6344	7056.775
1843.7955	7049.775
1846.95454	7050.075
1850.11151	7034.575
1853.26642	7028.875
1856.41926	7033.275
1859.57004	7035.175
1862.71876	7008.275
1865.86542	7006.775
1869.01003	6988.675
1872.15258	6965.775
1875.29308	6952.575
1878.43152	6938.375
1881.56792	6936.075
1884.70227	6893.075
1887.83457	6909.775
1890.96482	6889.475
1894.09304	6870.575
1897.21921	6886.075
1900.34335	6849.975
1903.46544	6854.275
1906.58551	6833.375
1909.70353	6824.175
1912.81953	6802.775
1915.93349	6785.275
1919.04543	6769.375
1922.15534	6768.075
1925.26322	6760.375
1928.36908	6727.175
1931.47292	6700.675
1934.57473	6683.175
1937.67453	6670.175
1940.77232	6637.875
1943.86808	6624.875
1946.96184	6595.775
1950.05358	6576.375
1953.14331	6569.375
1956.23103	6531.975
1959.31675	6528.175
1962.40046	6482.575
1965.48217	6467.775
1968.56188	6441.075
1971.63959	6420.075
1974.7153	6403.775
1977.78901	6378.475
1980.86073	6355.075
1983.93046	6349.275
1986.99819	6315.475
1990.06394	6270.875
1993.1277	6256.375
1996.18947	6242.275
1999.24925	6227.575
2002.30706	6208.575
2005.36288	6177.475
2008.41672	6170.675
2011.46859	6142.775
2014.51848	6130.275
2017.56639	6074.375
2020.61233	6078.375
2023.6563	6069.675
2026.6983	6060.375
2029.73833	6029.875
2032.7764	6005.975
2035.8125	5995.875
2038.84664	6000.475
2041.87881	5975.375
2044.90903	5951.575
2047.93729	5956.775
2050.96359	5953.175
2053.98794	5917.075
2057.01034	5909.775
2060.03078	5890.675
2063.04927	5887.075
2066.06582	5891.975
2069.08042	5879.575
2072.09307	5888.775
2075.10378	5865.475
2078.11255	5859.475
2081.11938	5865.375
2084.12426	5854.975
2087.12722	5854.575
2090.12824	5851.675
2093.12732	5846.075
2096.12447	5854.875
2099.11969	5845.475
2102.11299	5824.575
2105.10435	5845.575
2108.09379	5826.575
2111.08131	5844.675
2114.0669	5834.375
2117.05057	5849.275
2120.03233	5832.375
2123.01216	5845.175
2125.99008	5852.875
2128.96609	5864.675
2131.94018	5841.275
2134.91236	5847.675
2137.88263	5860.375
2140.851	5835.575
2143.81746	5843.275
2146.78201	5844.475
2149.74466	5844.675
2152.7054	5850.475
2155.66425	5826.875
2158.6212	5825.575
2161.57625	5819.975
2164.52941	5828.575
2167.48067	5811.775
2170.43004	5815.475
2173.37752	5791.475
2176.32311	5784.375
2179.26681	5793.975
2182.20863	5787.275
2185.14856	5783.675
2188.08661	5776.375
2191.02278	5766.475
2193.95707	5778.475
2196.88948	5774.075
2199.82001	5761.375
2202.74867	5745.575
2205.67545	5746.675
2208.60037	5713.375
2211.52341	5730.775
2214.44458	5734.675
2217.36388	5683.075
2220.28132	5675.575
2223.1969	5654.175
2226.11061	5646.875
2229.02246	5641.875
2231.93245	5641.075
2234.84058	5635.075
2237.74686	5601.475
2240.65128	5604.275
2243.55385	5584.975
2246.45456	5584.475
2249.35343	5572.275
2252.25044	5585.075
2255.14561	5557.875
2258.03893	5567.975
2260.93041	5548.775
2263.82004	5529.775
2266.70783	5516.675
2269.59378	5511.875
2272.4779	5484.275
2275.36017	5456.075
2278.24061	5443.575
2281.11922	5428.175
2283.996	5443.775
2286.87094	5425.875
2289.74405	5394.975
2292.61534	5382.575
2295.4848	5368.475
2298.35243	5384.775
2301.21824	5365.675
2304.08223	5361.075
2306.94439	5355.775
2309.80474	5348.375
2312.66327	5329.875
2315.51999	5308.175
2318.37489	5324.875
2321.22797	5311.575
2324.07925	5306.275
2326.92871	5280.475
2329.77637	5289.075
2332.62222	5286.275
2335.46626	5277.575
2338.3085	5272.275
2341.14893	5267.975
2343.98756	5260.575
2346.8244	5232.175
2349.65943	5244.475
2352.49267	5242.575
2355.32411	5237.675
2358.15376	5241.675
2360.98161	5236.275
2363.80768	5233.275
2366.63195	5241.475
2369.45444	5225.375
2372.27514	5226.975
2375.09405	5220.275
2377.91118	5200.475
2380.72652	5160.075
2383.54009	5161.975
2386.35187	5155.975
2389.16188	5128.375
2391.97011	5133.375
2394.77657	5115.675
2397.58125	5098.375
2400.38416	5100.475
2403.18529	5061.775
2405.98466	5072.075
2408.78226	5052.775
2411.57809	5044.075
2414.37216	5038.775
2417.16446	5033.275
2419.955	5043.775
2422.74378	5026.275
2425.5308	5017.075
2428.31606	5025.175
2431.09956	5020.875
2433.88131	5002.875
2436.6613	4986.275
2439.43954	4997.975
2442.21603	4976.675
2444.99077	4984.275
2447.76377	4971.175
2450.53501	4969.575
2453.30451	4972.675
2456.07226	4970.175
2458.83827	4956.275
2461.60254	4959.975
2464.36507	4950.775
2467.12586	4943.775
2469.88492	4934.875
2472.64224	4938.975
2475.39782	4957.875
2478.15167	4925.475
2480.90379	4933.575
2483.65417	4920.675
2486.40283	4916.375
2489.14976	4907.075
2491.89497	4917.975
2494.63845	4927.475
2497.3802	4914.775
2500.12024	4905.075
2502.85855	4894.075
2505.59514	4886.875
2508.33002	4869.575
2511.06318	4866.475
2513.79462	4859.375
2516.52435	4857.675
2519.25237	4850.775
2521.97867	4831.975
2524.70327	4829.375
2527.42616	4819.975
2530.14734	4815.075
2532.86681	4798.875
2535.58458	4799.475
2538.30065	4793.475
2541.01501	4775.275
2543.72768	4769.275
2546.43864	4763.175
2549.14791	4761.675
2551.85548	4766.775
2554.56136	4747.175
2557.26554	4738.775
2559.96803	4731.675
2562.66883	4735.175
2565.36794	4729.875
2568.06536	4708.775
2570.7611	4710.775
2573.45514	4683.875
2576.14751	4681.475
2578.83819	4682.775
2581.52719	4663.275
2584.21451	4641.175
2586.90015	4659.575
2589.58411	4641.275
2592.2664	4626.875
2594.94701	4621.375
2597.62594	4624.675
2600.30321	4602.375
2602.9788	4581.375
2605.65273	4595.575
2608.32498	4574.975
2610.99557	4580.575
2613.66449	4585.475
2616.33175	4559.375
2618.99734	4561.175
2621.66128	4563.175
2624.32355	4541.375
2626.98416	4551.075
2629.64311	4538.075
2632.30041	4515.275
2634.95605	4531.475
2637.61004	4510.675
2640.26238	4510.275
2642.91306	4510.175
2645.56209	4501.575
2648.20948	4512.775
2650.85521	4494.175
2653.4993	4500.275
2656.14175	4491.375
2658.78255	4490.275
2661.42171	4488.575
2664.05923	4477.775
2666.6951	4473.075
2669.32934	4482.075
2671.96194	4487.075
2674.59291	4490.275
2677.22224	4489.275
2679.84993	4490.375
2682.476	4464.475
2685.10043	4470.375
2687.72324	4460.775
2690.34441	4466.175
2692.96396	4476.175
2695.58188	4474.675
2698.19818	4459.875
2700.81285	4474.575
2703.4259	4487.175
2706.03733	4523.075
2708.64714	4505.275
2711.25533	4483.775
2713.86191	4482.175
2716.46687	4477.275
2719.07021	4466.175
2721.67194	4458.475
2724.27206	4456.375
2726.87057	4462.775
2729.46747	4461.375
2732.06276	4469.675
2734.65644	4457.875
2737.24852	4446.575
2739.83899	4450.975
2742.42786	4444.575
2745.01513	4442.175
2747.60079	4417.775
2750.18486	4428.275
2752.76733	4421.775
2755.3482	4414.575
2757.92747	4403.175
2760.50515	4388.975
2763.08123	4386.575
2765.65573	4383.075
2768.22863	4380.775
2770.79994	4385.675
2773.36967	4367.775
2775.9378	4375.075
2778.50435	4362.875
2781.06932	4357.075
2783.6327	4355.475
2786.1945	4348.375
2788.75471	4342.175
2791.31335	4350.475
2793.87041	4338.875
2796.42589	4320.675
2798.97979	4296.875
2801.53212	4298.975
2804.08288	4299.975
2806.63206	4289.675
2809.17967	4278.475
2811.72571	4252.775
2814.27018	4271.975
2816.81308	4263.775
2819.35442	4259.575
2821.89419	4254.275
2824.43239	4250.375
2826.96904	4244.475
2829.50412	4240.675
2832.03763	4234.575
2834.56959	4249.475
2837.1	4230.475
2839.62884	4234.575
2842.15613	4240.775
2844.68186	4245.975
2847.20604	4241.575
2849.72867	4252.775
2852.24974	4253.075
2854.76927	4253.175
2857.28724	4248.075
2859.80367	4245.375
2862.31855	4219.675
2864.83189	4229.775
2867.34368	4211.175
2869.85393	4212.475
2872.36264	4203.975
2874.8698	4193.275
2877.37543	4190.975
2879.87952	4193.475
2882.38207	4197.975
2884.88308	4185.175
2887.38256	4189.375
2889.88051	4180.175
2892.37692	4185.075
2894.8718	4180.375
2897.36515	4201.175
2899.85698	4192.375
2902.34727	4200.275
2904.83604	4199.675
2907.32328	4199.875
2909.809	4194.475
2912.29319	4205.975
2914.77587	4198.275
2917.25702	4219.075
2919.73665	4200.675
2922.21476	4218.875
2924.69136	4205.175
2927.16644	4217.275
2929.64	4207.275
2932.11205	4193.075
2934.58258	4198.975
2937.05161	4188.475
2939.51912	4202.475
2941.98513	4188.675
2944.44962	4195.975
2946.91261	4172.375
2949.37409	4165.075
2951.83407	4157.775
2954.29254	4166.275
2956.74951	4143.975
2959.20498	4143.175
2961.65895	4121.375
2964.11142	4113.375
2966.56239	4083.075
2969.01186	4092.875
2971.45984	4066.375
2973.90632	4071.775
2976.35131	4060.375
2978.7948	4038.175
2981.23681	4039.575
2983.67732	4013.275
2986.11635	4014.375
2988.55388	4003.875
2990.98993	3990.675
2993.4245	3982.875
2995.85758	3991.775
2998.28917	3964.275
3000.71928	3956.075
3003.14791	3945.275
3005.57506	3941.675
3008.00073	3941.575
3010.42493	3941.975
3012.84764	3932.375
3015.26888	3915.475
3017.68865	3905.975
3020.10694	3886.475
3022.52376	3875.975
3024.9391	3888.975
3027.35298	3874.175
3029.76539	3859.675
3032.17632	3864.975
3034.5858	3851.275
3036.9938	3848.975
3039.40034	3838.675
3041.80542	3831.475
3044.20903	3827.475
3046.61118	3811.075
3049.01187	3808.775
3051.4111	3810.575
3053.80888	3778.675
3056.20519	3792.875
3058.60005	3786.175
3060.99345	3783.275
3063.3854	3763.675
3065.7759	3763.775
3068.16494	3759.075
3070.55254	3746.975
3072.93868	3738.075
3075.32338	3733.175
3077.70662	3719.775
3080.08842	3710.375
3082.46878	3719.575
3084.84769	3713.575
3087.22515	3702.375
3089.60118	3705.375
3091.97576	3704.375
3094.3489	3710.875
3096.72061	3713.875
3099.09087	3702.575
3101.4597	3707.375
3103.82709	3693.675
3106.19305	3696.675
3108.55757	3692.675
3110.92066	3683.775
3113.28232	3676.675
3115.64255	3669.075
3118.00134	3666.575
3120.35871	3649.375
3122.71466	3652.475
3125.06917	3644.575
3127.42226	3633.075
3129.77393	3654.175
3132.12417	3638.675
3134.47299	3651.875
3136.82039	3648.575
3139.16636	3646.575
3141.51092	3641.075
3143.85406	3651.575
3146.19579	3662.075
3148.53609	3649.475
3150.87499	3660.075
3153.21246	3664.575
3155.54853	3661.275
3157.88318	3661.475
3160.21642	3667.075
3162.54826	3650.475
3164.87868	3669.675
3167.2077	3659.175
3169.5353	3649.075
3171.86151	3672.375
3174.18631	3642.875
3176.5097	3655.975
3178.83169	3649.575
3181.15228	3638.475
3183.47147	3629.475
3185.78926	3623.675
3188.10565	3645.775
3190.42065	3648.475
3192.73424	3632.875
3195.04645	3636.275
3197.35725	3635.475
