Data from AgNPs_FTO_APTES_UA_0um_CRN_0.1mM_R6G_10uM_NaF_0.1M_Addition_RamanShift__1__10-12-28-889.txt Node

Date: Tue Dec 21 10:12:28 GMT 2021
User: TCL
Spectrometer: QEP01345
Trigger mode: 4
Integration Time (sec): 7.000000E0
Scans to average: 10
Electric dark correction enabled: true
Nonlinearity correction enabled: false
Boxcar width: 0
XAxis mode: Raman Shifts
Number of Pixels in Spectrum: 1044
>>>>>Begin Spectral Data<<<<<
46.04893	-1.075
50.45542	-0.575
54.85868	0.625
59.25871	2.125
63.6555	19.125
68.04907	24.125
72.43941	25.525
76.82654	25.225
81.21044	26.325
85.59113	31.725
89.96862	28.125
94.34289	30.325
98.71396	28.125
103.08183	35.625
107.4465	34.625
111.80798	32.725
116.16626	34.325
120.52136	29.625
124.87327	30.825
129.222	30.725
133.56755	30.725
137.90993	34.525
142.24913	36.525
146.58517	36.725
150.91804	36.425
155.24774	42.525
159.57429	49.925
163.89768	58.725
168.21792	70.125
172.53501	83.725
176.84895	110.925
181.15975	153.525
185.46741	202.525
189.77193	278.025
194.07331	375.125
198.37157	489.725
202.6667	625.725
206.9587	764.325
211.24758	910.625
215.53334	1061.525
219.81599	1208.425
224.09553	1354.825
228.37195	1511.425
232.64527	1656.625
236.91549	1800.425
241.18261	1927.125
245.44663	2042.825
249.70755	2133.525
253.96539	2197.825
258.22014	2256.125
262.4718	2256.225
266.72039	2248.025
270.96589	2226.725
275.20832	2165.625
279.44768	2102.925
283.68397	2048.625
287.91719	1971.025
292.14735	1906.625
296.37445	1856.525
300.59849	1814.925
304.81948	1779.125
309.03742	1738.725
313.25231	1705.525
317.46415	1662.025
321.67296	1629.625
325.87872	1607.425
330.08145	1578.425
334.28114	1564.125
338.47781	1565.725
342.67145	1558.825
346.86207	1564.025
351.04966	1568.025
355.23424	1569.125
359.4158	1569.225
363.59435	1564.125
367.76989	1569.725
371.94243	1555.525
376.11196	1563.125
380.27849	1550.225
384.44203	1545.425
388.60257	1546.725
392.76012	1550.525
396.91468	1554.225
401.06626	1553.925
405.21485	1552.925
409.36047	1563.025
413.50311	1558.325
417.64277	1549.325
421.77947	1558.625
425.9132	1561.125
430.04396	1575.925
434.17176	1586.825
438.2966	1605.825
442.41849	1615.725
446.53742	1645.425
450.6534	1654.625
454.76644	1677.825
458.87653	1684.325
462.98368	1690.825
467.08789	1694.325
471.18916	1691.525
475.2875	1677.025
479.38291	1679.025
483.4754	1676.625
487.56496	1680.125
491.6516	1689.825
495.73531	1682.525
499.81612	1682.525
503.89401	1681.925
507.96899	1680.625
512.04106	1673.525
516.11023	1667.925
520.1765	1654.525
524.23987	1652.125
528.30034	1638.525
532.35792	1632.125
536.41261	1628.025
540.46441	1616.225
544.51333	1620.525
548.55936	1621.125
552.60252	1615.725
556.64279	1628.625
560.6802	1634.125
564.71473	1632.325
568.7464	1641.625
572.7752	1646.325
576.80114	1642.925
580.82422	1632.125
584.84444	1628.125
588.86181	1612.925
592.87633	1623.225
596.888	1619.725
600.89682	1625.925
604.9028	1659.725
608.90594	1721.425
612.90624	1810.125
616.90371	1847.725
620.89834	1760.625
624.89015	1709.125
628.87913	1709.925
632.86528	1715.125
636.84862	1736.825
640.82913	1767.325
644.80683	1808.325
648.78172	1825.225
652.75379	1826.725
656.72306	1808.425
660.68952	1783.425
664.65319	1773.025
668.61405	1790.725
672.57211	1835.025
676.52738	1919.525
680.47986	2016.225
684.42955	2073.625
688.37646	2082.325
692.32058	2024.025
696.26192	1960.325
700.20048	1928.725
704.13626	1904.025
708.06928	1888.425
711.99952	1861.225
715.927	1842.925
719.85171	1827.125
723.77365	1828.325
727.69284	1832.425
731.60928	1844.125
735.52295	1839.925
739.43388	1826.725
743.34206	1804.825
747.24749	1791.925
751.15017	1787.525
755.05012	1784.125
758.94733	1798.025
762.8418	1804.725
766.73354	1826.525
770.62254	1843.625
774.50882	1876.225
778.39237	1848.625
782.27321	1805.725
786.15132	1772.125
790.02671	1757.125
793.89938	1755.525
797.76935	1757.725
801.6366	1780.325
805.50115	1773.525
809.36299	1796.125
813.22213	1773.625
817.07857	1770.925
820.93231	1762.825
824.78336	1754.325
828.63172	1750.425
832.47738	1726.925
836.32036	1713.925
840.16066	1713.525
843.99827	1705.525
847.8332	1708.325
851.66546	1703.625
855.49504	1688.325
859.32195	1697.525
863.1462	1717.425
866.96777	1714.325
870.78668	1724.225
874.60293	1738.325
878.41652	1743.825
882.22745	1740.525
886.03573	1747.425
889.84136	1754.325
893.64433	1755.225
897.44466	1769.925
901.24235	1769.925
905.0374	1768.925
908.8298	1792.525
912.61957	1825.025
916.40671	1875.525
920.19121	1942.725
923.97308	2018.425
927.75233	2078.825
931.52895	2116.825
935.30295	2115.625
939.07433	2092.625
942.84309	2043.325
946.60924	1989.125
950.37278	1959.025
954.13371	1926.725
957.89203	1905.125
961.64774	1872.625
965.40086	1836.225
969.15137	1834.825
972.89929	1809.025
976.64461	1794.025
980.38733	1775.025
984.12747	1770.225
987.86502	1743.425
991.59999	1750.425
995.33237	1737.825
999.06217	1744.025
1002.78939	1743.625
1006.51404	1742.025
1010.23611	1742.625
1013.95561	1762.225
1017.67255	1775.925
1021.38692	1778.525
1025.09872	1790.625
1028.80796	1792.025
1032.51465	1804.125
1036.21877	1809.125
1039.92035	1818.125
1043.61937	1808.225
1047.31584	1804.625
1051.00976	1806.225
1054.70114	1794.125
1058.38998	1779.725
1062.07627	1772.325
1065.76003	1758.325
1069.44126	1727.025
1073.11995	1696.925
1076.79611	1679.925
1080.46974	1656.725
1084.14085	1641.725
1087.80943	1626.525
1091.47549	1606.925
1095.13903	1606.325
1098.80005	1593.125
1102.45857	1590.425
1106.11456	1581.025
1109.76805	1573.625
1113.41903	1586.525
1117.06751	1591.125
1120.71348	1611.725
1124.35696	1625.525
1127.99793	1641.725
1131.63641	1672.925
1135.2724	1687.325
1138.90589	1687.125
1142.5369	1687.225
1146.16542	1686.225
1149.79145	1666.125
1153.415	1663.425
1157.03607	1646.225
1160.65467	1649.925
1164.27079	1649.525
1167.88443	1659.425
1171.49561	1665.325
1175.10432	1694.525
1178.71056	1721.425
1182.31434	1756.925
1185.91565	1780.025
1189.51451	1767.125
1193.11091	1752.725
1196.70485	1718.925
1200.29634	1712.525
1203.88538	1687.025
1207.47197	1691.725
1211.05612	1676.625
1214.63782	1671.925
1218.21708	1685.125
1221.79391	1684.325
1225.36829	1697.825
1228.94024	1709.925
1232.50976	1727.725
1236.07685	1723.625
1239.6415	1743.625
1243.20374	1764.925
1246.76355	1771.625
1250.32093	1777.125
1253.8759	1796.625
1257.42845	1818.725
1260.97859	1841.725
1264.52631	1859.025
1268.07163	1877.325
1271.61453	1895.825
1275.15503	1918.925
1278.69312	1944.025
1282.22882	1958.325
1285.76211	1991.825
1289.29301	2033.625
1292.82151	2070.825
1296.34761	2107.225
1299.87133	2145.225
1303.39266	2179.325
1306.9116	2226.225
1310.42815	2276.925
1313.94233	2306.425
1317.45412	2304.725
1320.96354	2256.125
1324.47058	2219.025
1327.97525	2201.125
1331.47754	2186.225
1334.97747	2197.825
1338.47502	2221.125
1341.97022	2267.625
1345.46305	2323.325
1348.95352	2383.025
1352.44163	2456.325
1355.92738	2533.825
1359.41078	2626.925
1362.89183	2722.025
1366.37053	2749.225
1369.84688	2703.625
1373.32088	2588.825
1376.79254	2528.825
1380.26186	2487.525
1383.72883	2455.725
1387.19347	2442.325
1390.65578	2412.025
1394.11575	2395.325
1397.57339	2374.025
1401.0287	2379.625
1404.48168	2362.825
1407.93234	2379.325
1411.38068	2403.125
1414.82669	2433.925
1418.27039	2490.925
1421.71177	2516.825
1425.15083	2504.825
1428.58758	2473.825
1432.02203	2404.225
1435.45416	2349.625
1438.88399	2326.825
1442.31151	2295.225
1445.73673	2288.025
1449.15965	2285.725
1452.58027	2275.725
1455.9986	2285.025
1459.41463	2276.325
1462.82837	2281.925
1466.23982	2287.425
1469.64898	2290.025
1473.05586	2292.425
1476.46045	2281.025
1479.86276	2285.725
1483.26279	2261.425
1486.66054	2264.725
1490.05602	2239.225
1493.44922	2241.125
1496.84016	2226.525
1500.22882	2230.525
1503.61521	2253.125
1506.99934	2273.225
1510.38121	2312.025
1513.76081	2297.425
1517.13816	2268.625
1520.51324	2196.425
1523.88607	2119.225
1527.25665	2079.125
1530.62498	2047.325
1533.99105	2027.725
1537.35488	2007.125
1540.71647	2014.125
1544.07581	2006.025
1547.4329	1994.025
1550.78776	2020.025
1554.14038	2014.725
1557.49077	2012.125
1560.83892	1990.025
1564.18484	1989.825
1567.52853	1974.825
1570.86999	1964.225
1574.20922	1937.225
1577.54624	1927.325
1580.88103	1878.925
1584.2136	1841.725
1587.54395	1798.725
1590.87208	1781.225
1594.19801	1761.725
1597.52172	1759.425
1600.84321	1749.125
1604.16251	1735.325
1607.47959	1716.525
1610.79447	1699.525
1614.10715	1683.725
1617.41763	1680.825
1620.7259	1666.025
1624.03199	1665.625
1627.33587	1661.825
1630.63757	1665.825
1633.93707	1656.725
1637.23439	1642.825
1640.52951	1637.025
1643.82246	1654.125
1647.11321	1662.525
1650.40179	1675.125
1653.68819	1652.525
1656.97241	1597.225
1660.25446	1541.325
1663.53433	1478.225
1666.81203	1439.525
1670.08756	1401.925
1673.36092	1367.325
1676.63211	1335.525
1679.90115	1318.325
1683.16801	1291.725
1686.43272	1259.425
1689.69527	1244.725
1692.95567	1221.925
1696.2139	1203.925
1699.46999	1193.225
1702.72392	1172.025
1705.97571	1167.225
1709.22535	1155.725
1712.47284	1147.925
1715.71819	1140.225
1718.96139	1140.525
1722.20246	1135.425
1725.44139	1121.725
1728.67818	1125.025
1731.91284	1121.325
1735.14537	1115.725
1738.37576	1108.425
1741.60403	1115.625
1744.83017	1133.325
1748.05418	1131.625
1751.27607	1138.325
1754.49584	1159.725
1757.71349	1159.225
1760.92903	1150.925
1764.14244	1126.425
1767.35375	1110.425
1770.56294	1078.225
1773.77002	1049.325
1776.97499	1040.525
1780.17785	1034.225
1783.37861	1030.425
1786.57727	1024.925
1789.77382	1012.325
1792.96828	999.825
1796.16064	994.125
1799.3509	978.225
1802.53907	978.025
1805.72514	975.725
1808.90913	963.425
1812.09102	965.425
1815.27083	955.225
1818.44856	957.425
1821.6242	954.025
1824.79776	955.625
1827.96924	944.825
1831.13864	944.825
1834.30597	944.725
1837.47122	938.325
1840.6344	936.525
1843.7955	936.425
1846.95454	930.325
1850.11151	932.225
1853.26642	933.725
1856.41926	933.425
1859.57004	929.525
1862.71876	930.325
1865.86542	925.925
1869.01003	916.525
1872.15258	923.225
1875.29308	913.425
1878.43152	917.225
1881.56792	919.025
1884.70227	921.225
1887.83457	922.825
1890.96482	908.225
1894.09304	911.425
1897.21921	908.825
1900.34335	908.225
1903.46544	910.625
1906.58551	894.225
1909.70353	899.325
1912.81953	902.125
1915.93349	904.725
1919.04543	904.025
1922.15534	895.725
1925.26322	899.225
1928.36908	888.125
1931.47292	895.125
1934.57473	890.025
1937.67453	894.625
1940.77232	881.725
1943.86808	883.025
1946.96184	881.425
1950.05358	875.825
1953.14331	870.225
1956.23103	867.325
1959.31675	867.425
1962.40046	857.525
1965.48217	857.325
1968.56188	857.325
1971.63959	853.025
1974.7153	856.425
1977.78901	855.825
1980.86073	847.425
1983.93046	849.125
1986.99819	845.025
1990.06394	841.125
1993.1277	832.625
1996.18947	824.225
1999.24925	835.225
2002.30706	829.925
2005.36288	824.125
2008.41672	824.925
2011.46859	812.425
2014.51848	821.125
2017.56639	808.525
2020.61233	813.025
2023.6563	816.525
2026.6983	808.025
2029.73833	804.925
2032.7764	807.225
2035.8125	801.425
2038.84664	803.225
2041.87881	803.425
2044.90903	804.825
2047.93729	800.425
2050.96359	799.925
2053.98794	801.925
2057.01034	806.425
2060.03078	803.525
2063.04927	799.225
2066.06582	802.325
2069.08042	808.725
2072.09307	817.725
2075.10378	813.525
2078.11255	818.825
2081.11938	832.825
2084.12426	834.425
2087.12722	844.025
2090.12824	847.325
2093.12732	861.125
2096.12447	861.425
2099.11969	874.125
2102.11299	875.925
2105.10435	881.725
2108.09379	888.625
2111.08131	890.525
2114.0669	876.725
2117.05057	862.925
2120.03233	853.225
2123.01216	847.225
2125.99008	843.125
2128.96609	836.825
2131.94018	826.325
2134.91236	828.725
2137.88263	817.525
2140.851	815.625
2143.81746	811.325
2146.78201	807.625
2149.74466	803.925
2152.7054	796.225
2155.66425	790.725
2158.6212	793.525
2161.57625	791.125
2164.52941	786.425
2167.48067	789.625
2170.43004	771.725
2173.37752	775.325
2176.32311	773.125
2179.26681	772.225
2182.20863	772.525
2185.14856	769.025
2188.08661	764.025
2191.02278	759.925
2193.95707	767.325
2196.88948	762.025
2199.82001	765.825
2202.74867	757.525
2205.67545	761.425
2208.60037	757.425
2211.52341	757.925
2214.44458	753.825
2217.36388	752.325
2220.28132	751.925
2223.1969	744.925
2226.11061	746.725
2229.02246	738.425
2231.93245	742.525
2234.84058	731.925
2237.74686	741.625
2240.65128	729.325
2243.55385	734.025
2246.45456	735.925
2249.35343	723.125
2252.25044	730.625
2255.14561	718.925
2258.03893	727.825
2260.93041	731.325
2263.82004	723.125
2266.70783	720.325
2269.59378	714.425
2272.4779	714.325
2275.36017	722.225
2278.24061	718.625
2281.11922	711.525
2283.996	708.525
2286.87094	710.225
2289.74405	705.625
2292.61534	703.125
2295.4848	707.225
2298.35243	697.125
2301.21824	702.325
2304.08223	699.625
2306.94439	703.625
2309.80474	694.425
2312.66327	691.025
2315.51999	697.525
2318.37489	695.325
2321.22797	699.025
2324.07925	690.625
2326.92871	701.025
2329.77637	696.625
2332.62222	696.225
2335.46626	686.025
2338.3085	683.525
2341.14893	683.325
2343.98756	681.225
2346.8244	679.825
2349.65943	672.625
2352.49267	681.825
2355.32411	679.125
2358.15376	674.325
2360.98161	668.425
2363.80768	679.425
2366.63195	676.825
2369.45444	675.425
2372.27514	670.825
2375.09405	675.025
2377.91118	672.425
2380.72652	664.625
2383.54009	666.525
2386.35187	662.425
2389.16188	661.525
2391.97011	659.825
2394.77657	658.625
2397.58125	656.625
2400.38416	658.025
2403.18529	663.225
2405.98466	659.825
2408.78226	648.125
2411.57809	652.825
2414.37216	652.025
2417.16446	649.125
2419.955	643.925
2422.74378	652.325
2425.5308	640.225
2428.31606	649.725
2431.09956	645.425
2433.88131	640.125
2436.6613	644.125
2439.43954	644.525
2442.21603	641.925
2444.99077	637.525
2447.76377	642.625
2450.53501	644.025
2453.30451	635.525
2456.07226	640.725
2458.83827	638.025
2461.60254	639.125
2464.36507	636.625
2467.12586	632.125
2469.88492	634.625
2472.64224	631.025
2475.39782	626.525
2478.15167	628.925
2480.90379	632.525
2483.65417	628.825
2486.40283	629.325
2489.14976	627.325
2491.89497	620.825
2494.63845	625.825
2497.3802	619.225
2500.12024	627.125
2502.85855	624.525
2505.59514	622.225
2508.33002	616.625
2511.06318	628.025
2513.79462	621.425
2516.52435	621.225
2519.25237	616.925
2521.97867	613.725
2524.70327	616.825
2527.42616	613.525
2530.14734	610.825
2532.86681	607.425
2535.58458	600.325
2538.30065	610.525
2541.01501	604.325
2543.72768	609.325
2546.43864	600.225
2549.14791	609.025
2551.85548	600.025
2554.56136	604.225
2557.26554	594.425
2559.96803	598.125
2562.66883	594.225
2565.36794	592.825
2568.06536	596.125
2570.7611	592.625
2573.45514	597.925
2576.14751	592.125
2578.83819	589.225
2581.52719	598.225
2584.21451	589.025
2586.90015	586.225
2589.58411	590.625
2592.2664	587.225
2594.94701	583.825
2597.62594	588.825
2600.30321	581.825
2602.9788	575.425
2605.65273	577.425
2608.32498	582.325
2610.99557	577.025
2613.66449	578.125
2616.33175	572.425
2618.99734	577.825
2621.66128	576.625
2624.32355	574.525
2626.98416	574.125
2629.64311	569.325
2632.30041	571.025
2634.95605	573.725
2637.61004	569.325
2640.26238	570.125
2642.91306	570.925
2645.56209	563.025
2648.20948	570.125
2650.85521	568.225
2653.4993	565.725
2656.14175	565.825
2658.78255	569.025
2661.42171	572.825
2664.05923	571.725
2666.6951	576.025
2669.32934	570.025
2671.96194	571.225
2674.59291	575.425
2677.22224	569.325
2679.84993	574.025
2682.476	570.825
2685.10043	571.625
2687.72324	574.125
2690.34441	574.425
2692.96396	569.325
2695.58188	581.625
2698.19818	575.125
2700.81285	578.125
2703.4259	574.125
2706.03733	566.225
2708.64714	570.125
2711.25533	574.325
2713.86191	571.725
2716.46687	575.025
2719.07021	578.225
2721.67194	577.925
2724.27206	573.625
2726.87057	577.125
2729.46747	575.825
2732.06276	577.025
2734.65644	574.225
2737.24852	578.225
2739.83899	569.425
2742.42786	571.025
2745.01513	573.325
2747.60079	569.625
2750.18486	573.525
2752.76733	574.825
2755.3482	565.325
2757.92747	574.125
2760.50515	570.925
2763.08123	570.825
2765.65573	563.325
2768.22863	565.625
2770.79994	568.725
2773.36967	569.825
2775.9378	568.525
2778.50435	563.525
2781.06932	562.625
2783.6327	569.225
2786.1945	562.625
2788.75471	567.425
2791.31335	562.525
2793.87041	571.125
2796.42589	569.225
2798.97979	571.225
2801.53212	563.825
2804.08288	575.825
2806.63206	576.425
2809.17967	575.525
2811.72571	576.225
2814.27018	579.025
2816.81308	580.225
2819.35442	583.425
2821.89419	582.325
2824.43239	572.625
2826.96904	582.425
2829.50412	579.525
2832.03763	574.925
2834.56959	580.025
2837.1	575.225
2839.62884	576.725
2842.15613	576.425
2844.68186	583.625
2847.20604	591.125
2849.72867	592.425
2852.24974	586.125
2854.76927	583.525
2857.28724	584.025
2859.80367	588.525
2862.31855	586.525
2864.83189	597.825
2867.34368	597.125
2869.85393	597.025
2872.36264	601.125
2874.8698	603.725
2877.37543	613.925
2879.87952	618.425
2882.38207	631.825
2884.88308	630.425
2887.38256	635.325
2889.88051	644.425
2892.37692	657.925
2894.8718	661.525
2897.36515	666.825
2899.85698	677.625
2902.34727	683.125
2904.83604	695.925
2907.32328	709.225
2909.809	715.025
2912.29319	729.425
2914.77587	744.225
2917.25702	754.725
2919.73665	764.825
2922.21476	769.125
2924.69136	777.025
2927.16644	785.625
2929.64	797.725
2932.11205	800.525
2934.58258	804.925
2937.05161	819.825
2939.51912	818.825
2941.98513	816.725
2944.44962	818.625
2946.91261	810.225
2949.37409	805.625
2951.83407	796.225
2954.29254	778.425
2956.74951	770.425
2959.20498	765.425
2961.65895	738.725
2964.11142	732.625
2966.56239	710.025
2969.01186	700.725
2971.45984	690.725
2973.90632	675.225
2976.35131	665.125
2978.7948	656.325
2981.23681	656.225
2983.67732	644.125
2986.11635	643.125
2988.55388	636.925
2990.98993	634.025
2993.4245	628.725
2995.85758	627.225
2998.28917	619.525
3000.71928	632.025
3003.14791	630.825
3005.57506	624.725
3008.00073	620.225
3010.42493	623.825
3012.84764	616.425
3015.26888	622.025
3017.68865	620.525
3020.10694	614.225
3022.52376	616.625
3024.9391	613.525
3027.35298	606.725
3029.76539	599.025
3032.17632	605.325
3034.5858	595.425
3036.9938	592.325
3039.40034	598.225
3041.80542	596.525
3044.20903	586.025
3046.61118	587.725
3049.01187	584.225
3051.4111	572.325
3053.80888	579.725
3056.20519	580.425
3058.60005	581.725
3060.99345	585.925
3063.3854	585.125
3065.7759	583.825
3068.16494	577.325
3070.55254	579.725
3072.93868	575.925
3075.32338	584.925
3077.70662	593.925
3080.08842	587.325
3082.46878	588.925
3084.84769	585.325
3087.22515	592.625
3089.60118	596.125
3091.97576	598.125
3094.3489	596.925
3096.72061	606.125
3099.09087	610.425
3101.4597	613.525
3103.82709	621.025
3106.19305	622.525
3108.55757	614.325
3110.92066	621.025
3113.28232	623.425
3115.64255	625.125
3118.00134	626.325
3120.35871	628.225
3122.71466	630.325
3125.06917	639.025
3127.42226	646.925
3129.77393	640.725
3132.12417	656.125
3134.47299	654.925
3136.82039	653.025
3139.16636	657.625
3141.51092	667.025
3143.85406	667.525
3146.19579	676.025
3148.53609	678.225
3150.87499	681.125
3153.21246	686.625
3155.54853	699.525
3157.88318	700.125
3160.21642	704.225
3162.54826	707.425
3164.87868	713.625
3167.2077	712.725
3169.5353	712.125
3171.86151	724.325
3174.18631	732.025
3176.5097	734.425
3178.83169	734.125
3181.15228	747.625
3183.47147	742.925
3185.78926	746.625
3188.10565	748.625
3190.42065	747.225
3192.73424	755.425
3195.04645	758.225
3197.35725	767.125
3199.66667	766.125
3201.97469	762.525
3204.28132	777.125
3206.58656	774.625
3208.8904	784.025
3211.19287	781.825
3213.49394	787.325
3215.79363	788.825
3218.09193	798.325
3220.38884	790.825
3222.68438	786.325
3224.97853	790.425
3227.2713	792.725
3229.56269	793.225
3231.8527	794.925
3234.14133	794.625
3236.42858	800.125
3238.71446	803.925
3240.99896	798.125
3243.28209	801.325
3245.56384	795.025
3247.84423	801.025
3250.12324	807.925
3252.40088	803.125
3254.67715	812.525
3256.95205	808.925
3259.22558	814.825
3261.49775	812.225
3263.76855	811.625
3266.03799	814.825
3268.30606	809.425
3270.57277	805.225
3272.83812	803.825
3275.10211	804.325
3277.36474	800.325
3279.62601	806.125
3281.88593	805.125
3284.14448	807.125
3286.40168	807.825
3288.65753	803.225
3290.91202	801.525
3293.16516	805.525
3295.41695	798.925
3297.66738	796.025
3299.91647	795.125
