Data from AgNPs_FTO_APTES_UA_0um_CRN_0.1mM_R6G_10uM_NaF_0.1M_Addition_RamanShift__51__11-10-48-956.txt Node

Date: Tue Dec 21 11:10:48 GMT 2021
User: TCL
Spectrometer: QEP01345
Trigger mode: 4
Integration Time (sec): 7.000000E0
Scans to average: 10
Electric dark correction enabled: true
Nonlinearity correction enabled: false
Boxcar width: 0
XAxis mode: Raman Shifts
Number of Pixels in Spectrum: 1044
>>>>>Begin Spectral Data<<<<<
46.04893	0.475
50.45542	-0.025
54.85868	-1.225
59.25871	-0.125
63.6555	43.575
68.04907	46.175
72.43941	49.575
76.82654	48.375
81.21044	52.675
85.59113	57.775
89.96862	54.275
94.34289	54.075
98.71396	58.675
103.08183	60.375
107.4465	66.175
111.80798	67.075
116.16626	66.875
120.52136	67.775
124.87327	72.875
129.222	70.075
133.56755	81.775
137.90993	88.375
142.24913	91.775
146.58517	107.675
150.91804	125.675
155.24774	151.775
159.57429	187.675
163.89768	243.475
168.21792	319.375
172.53501	429.875
176.84895	602.575
181.15975	846.975
185.46741	1182.675
189.77193	1639.675
194.07331	2179.675
198.37157	2778.775
202.6667	3443.375
206.9587	4087.375
211.24758	4758.575
215.53334	5398.975
219.81599	6114.775
224.09553	6860.775
228.37195	7687.375
232.64527	8631.975
236.91549	9578.775
241.18261	10515.075
245.44663	11357.375
249.70755	12107.975
253.96539	12773.875
258.22014	13278.475
262.4718	13738.175
266.72039	14054.275
270.96589	14225.375
275.20832	14191.175
279.44768	14141.075
283.68397	14062.375
287.91719	14067.975
292.14735	14063.475
296.37445	14132.275
300.59849	14104.975
304.81948	14171.075
309.03742	14148.375
313.25231	14009.675
317.46415	13688.575
321.67296	13244.875
325.87872	12862.275
330.08145	12602.075
334.28114	12514.575
338.47781	12545.775
342.67145	12670.175
346.86207	12852.975
351.04966	13091.275
355.23424	13347.375
359.4158	13578.375
363.59435	13695.175
367.76989	13752.175
371.94243	13782.475
376.11196	13774.075
380.27849	13827.175
384.44203	13910.575
388.60257	14050.075
392.76012	14263.075
396.91468	14470.575
401.06626	14763.075
405.21485	14905.375
409.36047	14865.375
413.50311	14719.975
417.64277	14665.875
421.77947	14790.775
425.9132	14858.075
430.04396	14943.475
434.17176	15053.275
438.2966	15178.275
442.41849	15473.375
446.53742	16057.775
450.6534	16734.375
454.76644	17177.375
458.87653	17272.275
462.98368	17013.275
467.08789	16634.975
471.18916	16271.275
475.2875	16028.175
479.38291	16009.675
483.4754	16042.975
487.56496	15946.075
491.6516	15625.475
495.73531	15268.075
499.81612	15051.375
503.89401	15034.675
507.96899	15067.475
512.04106	14827.875
516.11023	14481.275
520.1765	14079.975
524.23987	13840.775
528.30034	13713.375
532.35792	13561.475
536.41261	13341.975
540.46441	13124.375
544.51333	13091.875
548.55936	13306.175
552.60252	13716.275
556.64279	14294.375
560.6802	14789.975
564.71473	15060.775
568.7464	15499.675
572.7752	16197.575
576.80114	16865.075
580.82422	17526.175
584.84444	18112.775
588.86181	18866.575
592.87633	19549.975
596.888	19775.375
600.89682	19090.475
604.9028	18712.275
608.90594	19428.875
612.90624	20289.475
616.90371	18423.575
620.89834	15001.275
624.89015	13472.475
628.87913	13399.775
632.86528	13607.575
636.84862	13648.375
640.82913	13426.075
644.80683	12988.775
648.78172	12578.675
652.75379	12435.975
656.72306	12528.875
660.68952	12702.075
664.65319	12613.475
668.61405	12362.575
672.57211	12292.975
676.52738	12347.675
680.47986	12340.975
684.42955	12248.475
688.37646	12130.575
692.32058	12125.375
696.26192	12268.075
700.20048	12478.075
704.13626	12649.475
708.06928	12745.575
711.99952	12689.075
715.927	12651.575
719.85171	12667.475
723.77365	12635.475
727.69284	12402.375
731.60928	12236.975
735.52295	12173.575
739.43388	12190.675
743.34206	12256.075
747.24749	12358.675
751.15017	12568.975
755.05012	12903.675
758.94733	13458.675
762.8418	14453.075
766.73354	15916.675
770.62254	17162.775
774.50882	17089.575
778.39237	15829.575
782.27321	14354.675
786.15132	13245.375
790.02671	12581.675
793.89938	12223.375
797.76935	12068.575
801.6366	12071.275
805.50115	12067.275
809.36299	11993.775
813.22213	11804.975
817.07857	11703.175
820.93231	11608.075
824.78336	11501.375
828.63172	11386.775
832.47738	11358.275
836.32036	11343.275
840.16066	11361.275
843.99827	11353.675
847.8332	11297.775
851.66546	11241.575
855.49504	11269.075
859.32195	11240.375
863.1462	11174.875
866.96777	11122.275
870.78668	11090.475
874.60293	11094.475
878.41652	11105.275
882.22745	11139.475
886.03573	11178.475
889.84136	11210.575
893.64433	11185.275
897.44466	11138.075
901.24235	11073.075
905.0374	10979.775
908.8298	10887.975
912.61957	10880.275
916.40671	10970.775
920.19121	11232.675
923.97308	11484.575
927.75233	11547.375
931.52895	11376.075
935.30295	11098.175
939.07433	10768.275
942.84309	10467.475
946.60924	10335.075
950.37278	10289.775
954.13371	10306.275
957.89203	10318.875
961.64774	10315.575
965.40086	10282.375
969.15137	10233.575
972.89929	10136.475
976.64461	10026.875
980.38733	9973.975
984.12747	9985.775
987.86502	10033.775
991.59999	10146.975
995.33237	10363.975
999.06217	10732.175
1002.78939	11213.575
1006.51404	11611.075
1010.23611	11900.675
1013.95561	12065.375
1017.67255	12137.475
1021.38692	11903.175
1025.09872	11512.875
1028.80796	11320.775
1032.51465	11383.175
1036.21877	11532.875
1039.92035	11587.475
1043.61937	11549.675
1047.31584	11446.875
1051.00976	11312.175
1054.70114	11270.275
1058.38998	11300.175
1062.07627	11377.875
1065.76003	11538.275
1069.44126	11744.975
1073.11995	12066.675
1076.79611	12270.075
1080.46974	12391.875
1084.14085	12488.975
1087.80943	12704.275
1091.47549	12946.875
1095.13903	13076.275
1098.80005	12857.175
1102.45857	12351.275
1106.11456	11895.475
1109.76805	11655.875
1113.41903	11628.675
1117.06751	11758.675
1120.71348	11908.975
1124.35696	12108.675
1127.99793	12343.575
1131.63641	12513.875
1135.2724	12530.875
1138.90589	12523.075
1142.5369	12569.975
1146.16542	12701.175
1149.79145	12888.775
1153.415	13132.075
1157.03607	13498.675
1160.65467	14099.775
1164.27079	15087.975
1167.88443	16401.775
1171.49561	17951.775
1175.10432	19911.575
1178.71056	22270.975
1182.31434	24419.275
1185.91565	25441.075
1189.51451	25158.975
1193.11091	24248.275
1196.70485	23018.975
1200.29634	21637.975
1203.88538	20469.175
1207.47197	19748.475
1211.05612	19238.775
1214.63782	18688.375
1218.21708	18257.675
1221.79391	18009.675
1225.36829	17910.075
1228.94024	17603.475
1232.50976	17024.075
1236.07685	16390.775
1239.6415	15944.475
1243.20374	15729.875
1246.76355	15766.375
1250.32093	15984.075
1253.8759	16406.275
1257.42845	17062.675
1260.97859	17776.375
1264.52631	18498.675
1268.07163	19246.975
1271.61453	20024.075
1275.15503	20850.675
1278.69312	21781.375
1282.22882	22750.675
1285.76211	23906.375
1289.29301	25206.475
1292.82151	26758.575
1296.34761	28633.975
1299.87133	30856.075
1303.39266	33197.075
1306.9116	35422.075
1310.42815	37552.775
1313.94233	39097.475
1317.45412	39589.975
1320.96354	39152.975
1324.47058	38547.775
1327.97525	37991.075
1331.47754	37456.175
1334.97747	36871.975
1338.47502	36125.375
1341.97022	35034.975
1345.46305	33648.275
1348.95352	32296.575
1352.44163	31476.075
1355.92738	31795.975
1359.41078	33096.275
1362.89183	34474.175
1366.37053	34705.775
1369.84688	32695.375
1373.32088	29000.675
1376.79254	25940.375
1380.26186	24665.975
1383.72883	24579.575
1387.19347	24683.975
1390.65578	24604.975
1394.11575	24856.375
1397.57339	25750.875
1401.0287	26951.375
1404.48168	27965.375
1407.93234	28221.275
1411.38068	27623.675
1414.82669	26330.075
1418.27039	24570.875
1421.71177	22830.175
1425.15083	21243.775
1428.58758	20380.675
1432.02203	20234.675
1435.45416	20844.675
1438.88399	21773.675
1442.31151	22687.875
1445.73673	23503.375
1449.15965	24184.675
1452.58027	24609.275
1455.9986	24648.475
1459.41463	24734.875
1462.82837	25125.975
1466.23982	25831.375
1469.64898	26488.175
1473.05586	26799.075
1476.46045	26779.375
1479.86276	26556.475
1483.26279	26141.575
1486.66054	25777.575
1490.05602	25695.775
1493.44922	25736.375
1496.84016	25682.075
1500.22882	25626.975
1503.61521	25752.575
1506.99934	26268.375
1510.38121	26734.475
1513.76081	26805.075
1517.13816	26271.475
1520.51324	25410.875
1523.88607	24678.575
1527.25665	24387.075
1530.62498	24372.975
1533.99105	24404.175
1537.35488	24269.975
1540.71647	23823.275
1544.07581	23103.075
1547.4329	22163.175
1550.78776	21304.775
1554.14038	20643.775
1557.49077	20283.075
1560.83892	20137.875
1564.18484	20152.175
1567.52853	20233.075
1570.86999	20428.175
1574.20922	20865.775
1577.54624	21373.475
1580.88103	21576.275
1584.2136	21959.075
1587.54395	23022.275
1590.87208	24753.775
1594.19801	27081.275
1597.52172	29397.575
1600.84321	30339.075
1604.16251	28892.475
1607.47959	25809.475
1610.79447	22345.175
1614.10715	19302.275
1617.41763	16966.375
1620.7259	15464.175
1624.03199	14674.475
1627.33587	14594.175
1630.63757	15194.875
1633.93707	16633.975
1637.23439	19227.375
1640.52951	23144.375
1643.82246	28127.375
1647.11321	32376.575
1650.40179	33738.675
1653.68819	31079.775
1656.97241	25997.975
1660.25446	20712.775
1663.53433	16721.675
1666.81203	14111.875
1670.08756	12545.375
1673.36092	11580.575
1676.63211	10959.375
1679.90115	10550.375
1683.16801	10239.775
1686.43272	10010.675
1689.69527	9814.675
1692.95567	9669.975
1696.2139	9629.975
1699.46999	9527.875
1702.72392	9447.375
1705.97571	9407.775
1709.22535	9312.175
1712.47284	9269.675
1715.71819	9244.675
1718.96139	9188.475
1722.20246	9130.775
1725.44139	9049.775
1728.67818	8981.775
1731.91284	8918.775
1735.14537	8831.875
1738.37576	8783.675
1741.60403	8730.075
1744.83017	8713.775
1748.05418	8709.975
1751.27607	8694.675
1754.49584	8718.975
1757.71349	8730.775
1760.92903	8692.975
1764.14244	8654.175
1767.35375	8607.575
1770.56294	8550.375
1773.77002	8518.475
1776.97499	8477.075
1780.17785	8446.175
1783.37861	8414.775
1786.57727	8393.975
1789.77382	8330.775
1792.96828	8317.775
1796.16064	8293.775
1799.3509	8253.075
1802.53907	8232.175
1805.72514	8194.975
1808.90913	8169.975
1812.09102	8153.475
1815.27083	8117.675
1818.44856	8094.375
1821.6242	8093.675
1824.79776	8072.975
1827.96924	8047.575
1831.13864	8053.775
1834.30597	8054.275
1837.47122	8037.775
1840.6344	8059.675
1843.7955	8047.275
1846.95454	8049.675
1850.11151	8056.775
1853.26642	8071.275
1856.41926	8047.675
1859.57004	8067.775
1862.71876	8035.075
1865.86542	8038.275
1869.01003	8021.575
1872.15258	8031.375
1875.29308	8024.775
1878.43152	7995.375
1881.56792	7974.975
1884.70227	7995.575
1887.83457	8003.575
1890.96482	7995.175
1894.09304	7975.875
1897.21921	7968.475
1900.34335	7973.475
1903.46544	7953.875
1906.58551	7954.475
1909.70353	7922.475
1912.81953	7899.275
1915.93349	7877.375
1919.04543	7848.775
1922.15534	7809.275
1925.26322	7780.575
1928.36908	7774.075
1931.47292	7726.975
1934.57473	7693.075
1937.67453	7666.875
1940.77232	7627.775
1943.86808	7622.875
1946.96184	7594.575
1950.05358	7580.375
1953.14331	7546.375
1956.23103	7512.275
1959.31675	7485.975
1962.40046	7435.975
1965.48217	7434.775
1968.56188	7411.475
1971.63959	7356.475
1974.7153	7343.975
1977.78901	7308.475
1980.86073	7276.675
1983.93046	7259.475
1986.99819	7237.575
1990.06394	7219.375
1993.1277	7193.775
1996.18947	7153.375
1999.24925	7138.075
2002.30706	7118.075
2005.36288	7104.075
2008.41672	7071.775
2011.46859	7068.675
2014.51848	7034.875
2017.56639	7010.975
2020.61233	7006.575
2023.6563	6969.775
2026.6983	6968.475
2029.73833	6965.375
2032.7764	6943.475
2035.8125	6933.475
2038.84664	6919.875
2041.87881	6895.475
2044.90903	6873.575
2047.93729	6851.675
2050.96359	6886.075
2053.98794	6853.575
2057.01034	6860.775
2060.03078	6850.875
2063.04927	6842.275
2066.06582	6833.575
2069.08042	6814.075
2072.09307	6808.975
2075.10378	6799.475
2078.11255	6783.775
2081.11938	6804.975
2084.12426	6792.975
2087.12722	6768.675
2090.12824	6783.875
2093.12732	6783.075
2096.12447	6772.275
2099.11969	6770.075
2102.11299	6767.775
2105.10435	6771.875
2108.09379	6773.675
2111.08131	6749.875
2114.0669	6751.775
2117.05057	6743.675
2120.03233	6769.375
2123.01216	6739.675
2125.99008	6755.275
2128.96609	6744.275
2131.94018	6729.475
2134.91236	6737.875
2137.88263	6756.575
2140.851	6718.175
2143.81746	6741.175
2146.78201	6744.675
2149.74466	6725.375
2152.7054	6715.275
2155.66425	6703.375
2158.6212	6708.875
2161.57625	6729.275
2164.52941	6697.275
2167.48067	6688.775
2170.43004	6702.875
2173.37752	6705.675
2176.32311	6709.275
2179.26681	6690.875
2182.20863	6706.975
2185.14856	6687.275
2188.08661	6688.075
2191.02278	6687.575
2193.95707	6673.175
2196.88948	6680.575
2199.82001	6689.675
2202.74867	6659.175
2205.67545	6643.375
2208.60037	6632.575
2211.52341	6643.875
2214.44458	6614.775
2217.36388	6607.775
2220.28132	6581.175
2223.1969	6559.475
2226.11061	6565.275
2229.02246	6559.175
2231.93245	6551.475
2234.84058	6531.875
2237.74686	6537.975
2240.65128	6515.475
2243.55385	6519.175
2246.45456	6509.675
2249.35343	6484.675
2252.25044	6451.075
2255.14561	6444.475
2258.03893	6420.675
2260.93041	6423.175
2263.82004	6383.775
2266.70783	6355.975
2269.59378	6343.075
2272.4779	6313.275
2275.36017	6316.575
2278.24061	6301.475
2281.11922	6300.375
2283.996	6284.075
2286.87094	6292.675
2289.74405	6258.275
2292.61534	6256.775
2295.4848	6254.975
2298.35243	6237.875
2301.21824	6233.575
2304.08223	6239.675
2306.94439	6223.775
2309.80474	6216.175
2312.66327	6219.575
2315.51999	6222.375
2318.37489	6205.175
2321.22797	6214.575
2324.07925	6200.675
2326.92871	6191.175
2329.77637	6191.875
2332.62222	6193.675
2335.46626	6165.475
2338.3085	6177.475
2341.14893	6192.575
2343.98756	6195.275
2346.8244	6178.975
2349.65943	6192.875
2352.49267	6198.875
2355.32411	6196.875
2358.15376	6194.775
2360.98161	6186.775
2363.80768	6177.275
2366.63195	6172.975
2369.45444	6169.575
2372.27514	6161.275
2375.09405	6153.775
2377.91118	6155.675
2380.72652	6126.675
2383.54009	6107.475
2386.35187	6097.575
2389.16188	6046.375
2391.97011	6044.775
2394.77657	6036.275
2397.58125	6032.175
2400.38416	6034.875
2403.18529	6019.775
2405.98466	6002.675
2408.78226	5994.275
2411.57809	6003.475
2414.37216	5966.275
2417.16446	5977.975
2419.955	5947.475
2422.74378	5964.975
2425.5308	5953.075
2428.31606	5942.375
2431.09956	5923.375
2433.88131	5928.875
2436.6613	5937.575
2439.43954	5928.775
2442.21603	5928.575
2444.99077	5916.575
2447.76377	5945.375
2450.53501	5927.975
2453.30451	5934.675
2456.07226	5923.175
2458.83827	5941.575
2461.60254	5919.475
2464.36507	5951.575
2467.12586	5922.675
2469.88492	5940.375
2472.64224	5951.575
2475.39782	5943.775
2478.15167	5971.575
2480.90379	5965.075
2483.65417	5940.375
2486.40283	5966.075
2489.14976	5970.075
2491.89497	5969.175
2494.63845	5972.875
2497.3802	5986.275
2500.12024	5974.875
2502.85855	5977.875
2505.59514	5970.275
2508.33002	5962.375
2511.06318	5955.075
2513.79462	5955.175
2516.52435	5935.075
2519.25237	5918.175
2521.97867	5926.075
2524.70327	5923.875
2527.42616	5919.975
2530.14734	5893.875
2532.86681	5892.675
2535.58458	5896.975
2538.30065	5898.475
2541.01501	5888.875
2543.72768	5873.675
2546.43864	5866.675
2549.14791	5863.175
2551.85548	5864.775
2554.56136	5852.475
2557.26554	5869.375
2559.96803	5875.175
2562.66883	5876.275
2565.36794	5860.575
2568.06536	5853.675
2570.7611	5856.075
2573.45514	5845.575
2576.14751	5852.875
2578.83819	5856.575
2581.52719	5853.975
2584.21451	5853.275
2586.90015	5850.075
2589.58411	5840.775
2592.2664	5872.475
2594.94701	5856.975
2597.62594	5841.475
2600.30321	5850.475
2602.9788	5851.475
2605.65273	5858.975
2608.32498	5856.475
2610.99557	5868.575
2613.66449	5848.375
2616.33175	5854.575
2618.99734	5851.675
2621.66128	5856.375
2624.32355	5869.975
2626.98416	5882.575
2629.64311	5881.575
2632.30041	5865.375
2634.95605	5877.575
2637.61004	5857.475
2640.26238	5864.675
2642.91306	5857.475
2645.56209	5860.175
2648.20948	5859.075
2650.85521	5837.175
2653.4993	5858.775
2656.14175	5862.175
2658.78255	5852.675
2661.42171	5874.675
2664.05923	5881.675
2666.6951	5893.375
2669.32934	5905.475
2671.96194	5886.175
2674.59291	5878.575
2677.22224	5891.675
2679.84993	5891.775
2682.476	5870.075
2685.10043	5858.775
2687.72324	5879.375
2690.34441	5847.375
2692.96396	5845.675
2695.58188	5868.275
2698.19818	5843.275
2700.81285	5860.275
2703.4259	5885.275
2706.03733	5925.675
2708.64714	5898.475
2711.25533	5882.275
2713.86191	5881.975
2716.46687	5892.375
2719.07021	5898.875
2721.67194	5904.575
2724.27206	5897.275
2726.87057	5902.475
2729.46747	5911.775
2732.06276	5911.575
2734.65644	5931.575
2737.24852	5916.575
2739.83899	5908.575
2742.42786	5918.375
2745.01513	5900.075
2747.60079	5917.075
2750.18486	5913.475
2752.76733	5907.275
2755.3482	5911.575
2757.92747	5917.275
2760.50515	5912.575
2763.08123	5923.175
2765.65573	5907.175
2768.22863	5914.575
2770.79994	5929.775
2773.36967	5942.075
2775.9378	5931.875
2778.50435	5931.775
2781.06932	5944.975
2783.6327	5949.075
2786.1945	5970.875
2788.75471	5960.075
2791.31335	5932.175
2793.87041	5928.575
2796.42589	5925.475
2798.97979	5917.975
2801.53212	5912.275
2804.08288	5916.675
2806.63206	5906.775
2809.17967	5887.175
2811.72571	5874.775
2814.27018	5873.975
2816.81308	5877.475
2819.35442	5873.175
2821.89419	5858.075
2824.43239	5870.375
2826.96904	5873.275
2829.50412	5865.875
2832.03763	5834.275
2834.56959	5835.375
2837.1	5813.075
2839.62884	5822.375
2842.15613	5816.075
2844.68186	5841.975
2847.20604	5845.275
2849.72867	5852.975
2852.24974	5838.875
2854.76927	5840.275
2857.28724	5849.675
2859.80367	5829.175
2862.31855	5811.575
2864.83189	5816.475
2867.34368	5809.275
2869.85393	5817.675
2872.36264	5808.775
2874.8698	5783.775
2877.37543	5814.375
2879.87952	5818.975
2882.38207	5801.075
2884.88308	5816.575
2887.38256	5829.775
2889.88051	5818.875
2892.37692	5810.075
2894.8718	5832.575
2897.36515	5845.075
2899.85698	5837.675
2902.34727	5881.375
2904.83604	5883.575
2907.32328	5880.275
2909.809	5875.475
2912.29319	5895.575
2914.77587	5897.675
2917.25702	5891.975
2919.73665	5878.175
2922.21476	5898.075
2924.69136	5904.875
2927.16644	5890.775
2929.64	5885.675
2932.11205	5885.575
2934.58258	5861.975
2937.05161	5867.975
2939.51912	5885.075
2941.98513	5876.375
2944.44962	5853.075
2946.91261	5843.575
2949.37409	5839.275
2951.83407	5830.675
2954.29254	5822.575
2956.74951	5820.975
2959.20498	5823.575
2961.65895	5778.175
2964.11142	5764.675
2966.56239	5761.275
2969.01186	5734.375
2971.45984	5720.275
2973.90632	5681.375
2976.35131	5665.475
2978.7948	5655.575
2981.23681	5634.675
2983.67732	5610.575
2986.11635	5616.875
2988.55388	5585.175
2990.98993	5576.175
2993.4245	5554.975
2995.85758	5537.575
2998.28917	5538.175
3000.71928	5521.575
3003.14791	5504.375
3005.57506	5503.675
3008.00073	5484.775
3010.42493	5481.075
3012.84764	5469.875
3015.26888	5443.675
3017.68865	5425.575
3020.10694	5431.275
3022.52376	5400.375
3024.9391	5414.975
3027.35298	5385.875
3029.76539	5383.675
3032.17632	5378.375
3034.5858	5368.275
3036.9938	5371.975
3039.40034	5359.475
3041.80542	5366.575
3044.20903	5347.175
3046.61118	5368.175
3049.01187	5330.475
3051.4111	5332.075
3053.80888	5328.075
3056.20519	5308.475
3058.60005	5286.275
3060.99345	5276.175
3063.3854	5272.275
3065.7759	5244.075
3068.16494	5231.775
3070.55254	5220.575
3072.93868	5209.975
3075.32338	5171.375
3077.70662	5159.375
3080.08842	5156.275
3082.46878	5147.075
3084.84769	5140.275
3087.22515	5124.875
3089.60118	5141.275
3091.97576	5118.575
3094.3489	5129.875
3096.72061	5113.675
3099.09087	5115.875
3101.4597	5099.075
3103.82709	5110.575
3106.19305	5084.275
3108.55757	5091.475
3110.92066	5061.475
3113.28232	5074.475
3115.64255	5043.775
3118.00134	5021.675
3120.35871	5029.075
3122.71466	5025.775
3125.06917	5008.675
3127.42226	4990.575
3129.77393	5005.075
3132.12417	5003.975
3134.47299	4995.575
3136.82039	4979.875
3139.16636	4995.075
3141.51092	4978.075
3143.85406	4981.275
3146.19579	4961.175
3148.53609	4972.775
3150.87499	4965.475
3153.21246	4984.175
3155.54853	4970.575
3157.88318	4978.475
3160.21642	4980.075
3162.54826	4978.875
3164.87868	4975.075
3167.2077	4965.375
3169.5353	4964.575
3171.86151	4962.375
3174.18631	4964.675
3176.5097	4954.475
3178.83169	4952.275
3181.15228	4956.075
3183.47147	4946.775
3185.78926	4940.275
3188.10565	4937.575
3190.42065	4959.075
