Data from AgNPs_FTO_APTES_UA_0um_CRN_0.1mM_R6G_10uM_NaF_0.1M_Addition_RamanShift__17__10-31-08-911.txt Node

Date: Tue Dec 21 10:31:08 GMT 2021
User: TCL
Spectrometer: QEP01345
Trigger mode: 4
Integration Time (sec): 7.000000E0
Scans to average: 10
Electric dark correction enabled: true
Nonlinearity correction enabled: false
Boxcar width: 0
XAxis mode: Raman Shifts
Number of Pixels in Spectrum: 1044
>>>>>Begin Spectral Data<<<<<
46.04893	0.0375
50.45542	-0.0625
54.85868	0.1375
59.25871	-0.3625
63.6555	15.0375
68.04907	21.9375
72.43941	22.7375
76.82654	22.8375
81.21044	27.1375
85.59113	26.7375
89.96862	25.1375
94.34289	28.0375
98.71396	25.2375
103.08183	30.6375
107.4465	29.1375
111.80798	31.3375
116.16626	28.4375
120.52136	31.5375
124.87327	32.2375
129.222	26.1375
133.56755	29.8375
137.90993	32.7375
142.24913	32.3375
146.58517	34.6375
150.91804	39.2375
155.24774	41.1375
159.57429	48.0375
163.89768	58.7375
168.21792	70.4375
172.53501	89.3375
176.84895	113.8375
181.15975	149.2375
185.46741	204.2375
189.77193	288.4375
194.07331	391.4375
198.37157	512.9375
202.6667	656.0375
206.9587	815.0375
211.24758	963.2375
215.53334	1128.4375
219.81599	1280.8375
224.09553	1439.1375
228.37195	1593.3375
232.64527	1741.0375
236.91549	1869.8375
241.18261	2001.6375
245.44663	2089.9375
249.70755	2160.1375
253.96539	2210.0375
258.22014	2233.7375
262.4718	2233.4375
266.72039	2206.3375
270.96589	2170.2375
275.20832	2098.4375
279.44768	2028.7375
283.68397	1974.2375
287.91719	1899.0375
292.14735	1841.4375
296.37445	1794.3375
300.59849	1767.3375
304.81948	1755.6375
309.03742	1751.8375
313.25231	1734.4375
317.46415	1691.8375
321.67296	1660.6375
325.87872	1632.6375
330.08145	1605.7375
334.28114	1604.1375
338.47781	1617.6375
342.67145	1632.7375
346.86207	1653.7375
351.04966	1678.8375
355.23424	1716.4375
359.4158	1721.0375
363.59435	1746.8375
367.76989	1748.0375
371.94243	1743.1375
376.11196	1757.8375
380.27849	1760.4375
384.44203	1755.3375
388.60257	1770.6375
392.76012	1771.5375
396.91468	1766.8375
401.06626	1784.5375
405.21485	1791.7375
409.36047	1800.9375
413.50311	1809.0375
417.64277	1821.2375
421.77947	1856.4375
425.9132	1799.9375
430.04396	1781.4375
434.17176	1795.1375
438.2966	1810.5375
442.41849	1831.3375
446.53742	1864.1375
450.6534	1898.3375
454.76644	1909.6375
458.87653	1935.4375
462.98368	1933.7375
467.08789	1932.6375
471.18916	1909.6375
475.2875	1895.6375
479.38291	1879.3375
483.4754	1879.7375
487.56496	1866.6375
491.6516	1865.7375
495.73531	1875.9375
499.81612	1881.8375
503.89401	1880.1375
507.96899	1878.5375
512.04106	1882.9375
516.11023	1883.3375
520.1765	1875.3375
524.23987	1864.0375
528.30034	1851.2375
532.35792	1850.0375
536.41261	1831.7375
540.46441	1822.7375
544.51333	1821.2375
548.55936	1822.5375
552.60252	1839.8375
556.64279	1844.4375
560.6802	1851.2375
564.71473	1855.2375
568.7464	1867.5375
572.7752	1897.2375
576.80114	1894.9375
580.82422	1873.7375
584.84444	1852.5375
588.86181	1852.7375
592.87633	1864.3375
596.888	1870.3375
600.89682	1891.8375
604.9028	1932.1375
608.90594	2040.4375
612.90624	2226.0375
616.90371	2242.2375
620.89834	2049.6375
624.89015	1948.2375
628.87913	1940.7375
632.86528	1954.0375
636.84862	1982.7375
640.82913	2031.4375
644.80683	2067.2375
648.78172	2112.5375
652.75379	2132.6375
656.72306	2106.6375
660.68952	2085.7375
664.65319	2067.4375
668.61405	2093.8375
672.57211	2173.1375
676.52738	2342.8375
680.47986	2497.4375
684.42955	2579.3375
688.37646	2503.0375
692.32058	2346.5375
696.26192	2226.9375
700.20048	2153.5375
704.13626	2106.0375
708.06928	2067.8375
711.99952	2020.3375
715.927	2010.3375
719.85171	1999.0375
723.77365	2009.5375
727.69284	2029.1375
731.60928	2033.1375
735.52295	2018.8375
739.43388	1995.6375
743.34206	1985.9375
747.24749	2004.3375
751.15017	2008.0375
755.05012	2036.1375
758.94733	2051.9375
762.8418	2072.8375
766.73354	2119.0375
770.62254	2144.7375
774.50882	2159.0375
778.39237	2126.6375
782.27321	2030.3375
786.15132	1954.3375
790.02671	1910.6375
793.89938	1893.6375
797.76935	1890.6375
801.6366	1886.2375
805.50115	1902.5375
809.36299	1911.0375
813.22213	1886.3375
817.07857	1867.3375
820.93231	1851.1375
824.78336	1850.3375
828.63172	1844.7375
832.47738	1839.6375
836.32036	1827.5375
840.16066	1829.6375
843.99827	1820.4375
847.8332	1833.8375
851.66546	1822.6375
855.49504	1832.0375
859.32195	1853.2375
863.1462	1866.3375
866.96777	1871.1375
870.78668	1883.0375
874.60293	1870.1375
878.41652	1861.6375
882.22745	1857.8375
886.03573	1841.0375
889.84136	1841.8375
893.64433	1842.8375
897.44466	1836.3375
901.24235	1849.0375
905.0374	1849.4375
908.8298	1857.3375
912.61957	1865.8375
916.40671	1877.4375
920.19121	1947.3375
923.97308	1987.2375
927.75233	2058.2375
931.52895	2091.2375
935.30295	2105.5375
939.07433	2061.6375
942.84309	2022.7375
946.60924	1979.0375
950.37278	1938.4375
954.13371	1895.2375
957.89203	1879.5375
961.64774	1861.3375
965.40086	1847.4375
969.15137	1820.8375
972.89929	1815.2375
976.64461	1787.6375
980.38733	1763.2375
984.12747	1746.7375
987.86502	1740.9375
991.59999	1743.2375
995.33237	1735.0375
999.06217	1742.5375
1002.78939	1755.2375
1006.51404	1764.8375
1010.23611	1780.9375
1013.95561	1788.9375
1017.67255	1801.5375
1021.38692	1794.9375
1025.09872	1801.1375
1028.80796	1798.7375
1032.51465	1806.3375
1036.21877	1812.9375
1039.92035	1815.6375
1043.61937	1826.7375
1047.31584	1835.5375
1051.00976	1850.8375
1054.70114	1851.5375
1058.38998	1831.6375
1062.07627	1812.5375
1065.76003	1781.9375
1069.44126	1755.5375
1073.11995	1737.4375
1076.79611	1724.2375
1080.46974	1713.1375
1084.14085	1714.8375
1087.80943	1707.9375
1091.47549	1707.8375
1095.13903	1694.2375
1098.80005	1688.7375
1102.45857	1684.0375
1106.11456	1667.8375
1109.76805	1670.9375
1113.41903	1683.5375
1117.06751	1699.8375
1120.71348	1709.1375
1124.35696	1744.9375
1127.99793	1767.9375
1131.63641	1789.7375
1135.2724	1781.0375
1138.90589	1759.8375
1142.5369	1748.0375
1146.16542	1735.8375
1149.79145	1726.7375
1153.415	1722.8375
1157.03607	1708.0375
1160.65467	1719.7375
1164.27079	1722.0375
1167.88443	1733.2375
1171.49561	1749.1375
1175.10432	1806.6375
1178.71056	1873.3375
1182.31434	1932.1375
1185.91565	1939.0375
1189.51451	1931.4375
1193.11091	1881.2375
1196.70485	1845.5375
1200.29634	1805.4375
1203.88538	1788.6375
1207.47197	1772.7375
1211.05612	1750.7375
1214.63782	1739.7375
1218.21708	1739.6375
1221.79391	1741.9375
1225.36829	1750.0375
1228.94024	1760.4375
1232.50976	1778.0375
1236.07685	1779.0375
1239.6415	1789.5375
1243.20374	1810.6375
1246.76355	1825.1375
1250.32093	1843.1375
1253.8759	1851.1375
1257.42845	1868.8375
1260.97859	1881.7375
1264.52631	1887.0375
1268.07163	1903.2375
1271.61453	1915.3375
1275.15503	1924.7375
1278.69312	1929.1375
1282.22882	1931.1375
1285.76211	1940.3375
1289.29301	1972.6375
1292.82151	1993.4375
1296.34761	2034.2375
1299.87133	2070.1375
1303.39266	2131.8375
1306.9116	2186.4375
1310.42815	2297.2375
1313.94233	2341.9375
1317.45412	2354.3375
1320.96354	2278.1375
1324.47058	2213.5375
1327.97525	2148.6375
1331.47754	2113.5375
1334.97747	2121.8375
1338.47502	2139.7375
1341.97022	2185.0375
1345.46305	2246.7375
1348.95352	2340.6375
1352.44163	2446.4375
1355.92738	2576.3375
1359.41078	2722.9375
1362.89183	2901.3375
1366.37053	2928.1375
1369.84688	2773.0375
1373.32088	2554.9375
1376.79254	2397.6375
1380.26186	2306.4375
1383.72883	2244.0375
1387.19347	2174.9375
1390.65578	2131.4375
1394.11575	2107.4375
1397.57339	2086.5375
1401.0287	2081.0375
1404.48168	2085.9375
1407.93234	2109.1375
1411.38068	2141.6375
1414.82669	2197.9375
1418.27039	2253.3375
1421.71177	2292.3375
1425.15083	2303.6375
1428.58758	2255.2375
1432.02203	2204.3375
1435.45416	2156.4375
1438.88399	2132.4375
1442.31151	2090.5375
1445.73673	2080.8375
1449.15965	2072.3375
1452.58027	2054.2375
1455.9986	2031.0375
1459.41463	2043.4375
1462.82837	2016.2375
1466.23982	1998.0375
1469.64898	2008.1375
1473.05586	1999.1375
1476.46045	1965.6375
1479.86276	1955.9375
1483.26279	1927.4375
1486.66054	1914.8375
1490.05602	1914.7375
1493.44922	1911.8375
1496.84016	1937.8375
1500.22882	1979.6375
1503.61521	2028.4375
1506.99934	2137.2375
1510.38121	2235.1375
1513.76081	2273.6375
1517.13816	2251.3375
1520.51324	2141.4375
1523.88607	2027.9375
1527.25665	1938.7375
1530.62498	1895.8375
1533.99105	1884.2375
1537.35488	1868.8375
1540.71647	1868.9375
1544.07581	1872.2375
1547.4329	1872.8375
1550.78776	1880.1375
1554.14038	1889.4375
1557.49077	1896.2375
1560.83892	1913.1375
1564.18484	1925.8375
1567.52853	1917.7375
1570.86999	1932.8375
1574.20922	1923.6375
1577.54624	1926.0375
1580.88103	1897.3375
1584.2136	1836.8375
1587.54395	1794.1375
1590.87208	1780.4375
1594.19801	1783.0375
1597.52172	1807.1375
1600.84321	1814.6375
1604.16251	1797.5375
1607.47959	1781.9375
1610.79447	1769.6375
1614.10715	1720.2375
1617.41763	1711.0375
1620.7259	1697.3375
1624.03199	1700.4375
1627.33587	1701.4375
1630.63757	1716.2375
1633.93707	1721.0375
1637.23439	1736.2375
1640.52951	1769.3375
1643.82246	1822.4375
1647.11321	1895.5375
1650.40179	1950.5375
1653.68819	1947.3375
1656.97241	1849.8375
1660.25446	1758.0375
1663.53433	1670.1375
1666.81203	1623.5375
1670.08756	1591.1375
1673.36092	1556.8375
1676.63211	1537.9375
1679.90115	1510.1375
1683.16801	1463.3375
1686.43272	1431.8375
1689.69527	1388.4375
1692.95567	1356.4375
1696.2139	1314.4375
1699.46999	1294.9375
1702.72392	1260.1375
1705.97571	1254.7375
1709.22535	1253.4375
1712.47284	1251.0375
1715.71819	1247.2375
1718.96139	1248.8375
1722.20246	1242.6375
1725.44139	1249.1375
1728.67818	1246.4375
1731.91284	1251.6375
1735.14537	1260.2375
1738.37576	1271.7375
1741.60403	1279.9375
1744.83017	1303.6375
1748.05418	1330.0375
1751.27607	1368.6375
1754.49584	1398.2375
1757.71349	1382.4375
1760.92903	1355.8375
1764.14244	1296.1375
1767.35375	1239.4375
1770.56294	1190.9375
1773.77002	1154.5375
1776.97499	1117.8375
1780.17785	1095.4375
1783.37861	1087.0375
1786.57727	1078.2375
1789.77382	1053.6375
1792.96828	1038.5375
1796.16064	1018.1375
1799.3509	997.8375
1802.53907	1001.5375
1805.72514	985.0375
1808.90913	983.2375
1812.09102	971.3375
1815.27083	964.4375
1818.44856	966.4375
1821.6242	958.6375
1824.79776	955.1375
1827.96924	943.6375
1831.13864	941.9375
1834.30597	941.6375
1837.47122	939.4375
1840.6344	934.5375
1843.7955	934.7375
1846.95454	935.3375
1850.11151	934.9375
1853.26642	937.6375
1856.41926	931.1375
1859.57004	931.5375
1862.71876	920.2375
1865.86542	917.7375
1869.01003	912.8375
1872.15258	917.1375
1875.29308	911.9375
1878.43152	913.5375
1881.56792	909.9375
1884.70227	904.5375
1887.83457	909.6375
1890.96482	901.2375
1894.09304	895.2375
1897.21921	907.7375
1900.34335	901.1375
1903.46544	893.3375
1906.58551	890.4375
1909.70353	890.6375
1912.81953	884.3375
1915.93349	884.3375
1919.04543	887.4375
1922.15534	881.3375
1925.26322	886.6375
1928.36908	880.6375
1931.47292	872.9375
1934.57473	865.2375
1937.67453	870.1375
1940.77232	862.7375
1943.86808	857.8375
1946.96184	865.0375
1950.05358	853.1375
1953.14331	851.1375
1956.23103	846.0375
1959.31675	848.7375
1962.40046	838.4375
1965.48217	835.0375
1968.56188	832.0375
1971.63959	828.7375
1974.7153	833.5375
1977.78901	822.4375
1980.86073	819.6375
1983.93046	818.8375
1986.99819	818.9375
1990.06394	815.2375
1993.1277	817.2375
1996.18947	810.3375
1999.24925	803.9375
2002.30706	801.8375
2005.36288	805.0375
2008.41672	798.0375
2011.46859	792.8375
2014.51848	799.2375
2017.56639	784.9375
2020.61233	786.2375
2023.6563	782.2375
2026.6983	781.3375
2029.73833	785.3375
2032.7764	776.2375
2035.8125	772.4375
2038.84664	772.5375
2041.87881	770.5375
2044.90903	767.4375
2047.93729	763.6375
2050.96359	768.3375
2053.98794	774.8375
2057.01034	765.6375
2060.03078	761.1375
2063.04927	763.6375
2066.06582	752.9375
2069.08042	756.0375
2072.09307	759.7375
2075.10378	751.8375
2078.11255	753.6375
2081.11938	760.0375
2084.12426	753.1375
2087.12722	755.9375
2090.12824	753.8375
2093.12732	753.0375
2096.12447	752.2375
2099.11969	758.6375
2102.11299	748.7375
2105.10435	753.3375
2108.09379	763.7375
2111.08131	757.8375
2114.0669	756.9375
2117.05057	743.2375
2120.03233	756.6375
2123.01216	741.8375
2125.99008	745.7375
2128.96609	744.0375
2131.94018	744.1375
2134.91236	747.5375
2137.88263	742.5375
2140.851	748.5375
2143.81746	745.0375
2146.78201	744.4375
2149.74466	742.9375
2152.7054	742.1375
2155.66425	739.0375
2158.6212	737.8375
2161.57625	732.8375
2164.52941	741.6375
2167.48067	736.0375
2170.43004	731.9375
2173.37752	736.7375
2176.32311	723.3375
2179.26681	731.5375
2182.20863	731.8375
2185.14856	728.8375
2188.08661	723.3375
2191.02278	730.0375
2193.95707	725.5375
2196.88948	725.9375
2199.82001	722.1375
2202.74867	721.6375
2205.67545	727.9375
2208.60037	718.3375
2211.52341	715.8375
2214.44458	711.8375
2217.36388	707.4375
2220.28132	704.6375
2223.1969	705.0375
2226.11061	706.5375
2229.02246	702.5375
2231.93245	700.6375
2234.84058	691.5375
2237.74686	694.6375
2240.65128	698.7375
2243.55385	689.9375
2246.45456	696.4375
2249.35343	688.2375
2252.25044	686.2375
2255.14561	685.9375
2258.03893	681.0375
2260.93041	682.4375
2263.82004	682.8375
2266.70783	680.0375
2269.59378	672.6375
2272.4779	677.4375
2275.36017	678.8375
2278.24061	666.9375
2281.11922	675.5375
2283.996	659.7375
2286.87094	661.7375
2289.74405	664.7375
2292.61534	659.8375
2295.4848	663.6375
2298.35243	653.1375
2301.21824	660.0375
2304.08223	659.1375
2306.94439	656.3375
2309.80474	650.2375
2312.66327	652.4375
2315.51999	649.2375
2318.37489	648.0375
2321.22797	644.1375
2324.07925	645.9375
2326.92871	650.0375
2329.77637	650.0375
2332.62222	644.9375
2335.46626	639.8375
2338.3085	642.7375
2341.14893	638.2375
2343.98756	636.9375
2346.8244	635.7375
2349.65943	637.7375
2352.49267	633.6375
2355.32411	633.3375
2358.15376	629.1375
2360.98161	635.7375
2363.80768	630.5375
2366.63195	636.1375
2369.45444	628.1375
2372.27514	630.5375
2375.09405	630.0375
2377.91118	628.8375
2380.72652	621.1375
2383.54009	627.3375
2386.35187	622.5375
2389.16188	612.2375
2391.97011	607.2375
2394.77657	616.2375
2397.58125	607.8375
2400.38416	606.0375
2403.18529	611.8375
2405.98466	610.8375
2408.78226	610.5375
2411.57809	609.5375
2414.37216	597.9375
2417.16446	609.5375
2419.955	596.6375
2422.74378	599.1375
2425.5308	600.7375
2428.31606	597.6375
2431.09956	594.4375
2433.88131	598.3375
2436.6613	601.1375
2439.43954	598.7375
2442.21603	589.1375
2444.99077	595.7375
2447.76377	592.5375
2450.53501	594.3375
2453.30451	591.8375
2456.07226	588.8375
2458.83827	590.1375
2461.60254	580.2375
2464.36507	586.9375
2467.12586	578.3375
2469.88492	579.5375
2472.64224	574.2375
2475.39782	583.5375
2478.15167	581.9375
2480.90379	575.1375
2483.65417	577.6375
2486.40283	574.1375
2489.14976	577.6375
2491.89497	580.5375
2494.63845	579.0375
2497.3802	577.9375
2500.12024	575.8375
2502.85855	572.5375
2505.59514	569.6375
2508.33002	570.1375
2511.06318	565.6375
2513.79462	562.5375
2516.52435	563.6375
2519.25237	562.6375
2521.97867	562.6375
2524.70327	557.9375
2527.42616	558.5375
2530.14734	558.8375
2532.86681	555.5375
2535.58458	562.7375
2538.30065	555.4375
2541.01501	553.5375
2543.72768	549.7375
2546.43864	547.8375
2549.14791	552.9375
2551.85548	548.2375
2554.56136	548.2375
2557.26554	538.1375
2559.96803	548.1375
2562.66883	548.2375
2565.36794	542.8375
2568.06536	537.6375
2570.7611	541.3375
2573.45514	538.7375
2576.14751	538.9375
2578.83819	529.1375
2581.52719	542.0375
2584.21451	530.9375
2586.90015	531.1375
2589.58411	537.9375
2592.2664	527.8375
2594.94701	529.5375
2597.62594	528.9375
2600.30321	522.7375
2602.9788	520.6375
2605.65273	526.2375
2608.32498	519.9375
2610.99557	525.4375
2613.66449	522.0375
2616.33175	516.3375
2618.99734	524.1375
2621.66128	517.5375
2624.32355	515.3375
2626.98416	523.0375
2629.64311	508.7375
2632.30041	511.9375
2634.95605	510.7375
2637.61004	508.7375
2640.26238	512.6375
2642.91306	513.9375
2645.56209	504.7375
2648.20948	512.9375
2650.85521	508.7375
2653.4993	506.0375
2656.14175	510.0375
2658.78255	504.9375
2661.42171	508.8375
2664.05923	508.2375
2666.6951	507.7375
2669.32934	511.7375
2671.96194	515.7375
2674.59291	510.4375
2677.22224	512.4375
2679.84993	517.4375
2682.476	515.3375
2685.10043	515.0375
2687.72324	513.3375
2690.34441	508.0375
2692.96396	509.5375
2695.58188	515.4375
2698.19818	513.5375
2700.81285	517.2375
2703.4259	512.4375
2706.03733	505.3375
2708.64714	507.8375
2711.25533	511.1375
2713.86191	510.6375
2716.46687	516.6375
2719.07021	521.8375
2721.67194	518.2375
2724.27206	513.3375
2726.87057	512.3375
2729.46747	512.9375
2732.06276	508.8375
2734.65644	510.8375
2737.24852	514.0375
2739.83899	508.9375
2742.42786	512.8375
2745.01513	503.1375
2747.60079	506.4375
2750.18486	507.8375
2752.76733	509.8375
2755.3482	502.5375
2757.92747	507.2375
2760.50515	502.0375
2763.08123	504.9375
2765.65573	497.6375
2768.22863	508.3375
2770.79994	502.3375
2773.36967	508.0375
2775.9378	504.9375
2778.50435	498.5375
2781.06932	500.9375
2783.6327	502.8375
2786.1945	502.8375
2788.75471	507.3375
2791.31335	508.3375
2793.87041	506.2375
2796.42589	509.5375
2798.97979	514.9375
2801.53212	514.0375
2804.08288	518.7375
2806.63206	523.0375
2809.17967	521.9375
2811.72571	528.8375
2814.27018	527.8375
2816.81308	526.9375
2819.35442	530.1375
2821.89419	534.7375
2824.43239	530.0375
2826.96904	538.3375
2829.50412	532.1375
2832.03763	528.8375
2834.56959	534.1375
2837.1	530.9375
2839.62884	536.5375
2842.15613	545.4375
2844.68186	545.2375
2847.20604	546.4375
2849.72867	554.8375
2852.24974	549.8375
2854.76927	547.1375
2857.28724	553.9375
2859.80367	548.5375
2862.31855	553.1375
2864.83189	559.6375
2867.34368	568.6375
2869.85393	568.4375
2872.36264	562.8375
2874.8698	573.5375
2877.37543	584.1375
2879.87952	591.2375
2882.38207	602.2375
2884.88308	605.0375
2887.38256	608.7375
2889.88051	620.3375
2892.37692	634.9375
2894.8718	642.6375
2897.36515	651.5375
2899.85698	659.2375
2902.34727	672.6375
2904.83604	680.5375
2907.32328	699.4375
2909.809	709.1375
2912.29319	732.5375
2914.77587	742.8375
2917.25702	749.9375
2919.73665	760.3375
2922.21476	771.1375
2924.69136	780.9375
2927.16644	792.6375
2929.64	802.6375
2932.11205	810.7375
2934.58258	815.6375
2937.05161	818.3375
2939.51912	825.5375
2941.98513	826.0375
2944.44962	819.4375
2946.91261	817.1375
2949.37409	821.3375
2951.83407	803.9375
2954.29254	796.9375
2956.74951	794.1375
2959.20498	774.6375
2961.65895	751.1375
2964.11142	732.8375
2966.56239	724.2375
2969.01186	697.8375
2971.45984	682.7375
2973.90632	670.3375
2976.35131	662.9375
2978.7948	646.9375
2981.23681	630.8375
2983.67732	625.4375
2986.11635	620.9375
2988.55388	613.6375
2990.98993	609.3375
2993.4245	607.1375
2995.85758	606.4375
2998.28917	602.6375
3000.71928	598.0375
3003.14791	598.6375
3005.57506	608.6375
3008.00073	598.0375
3010.42493	600.9375
3012.84764	600.1375
3015.26888	600.4375
3017.68865	592.0375
3020.10694	582.5375
3022.52376	585.8375
3024.9391	578.3375
3027.35298	570.8375
3029.76539	564.8375
3032.17632	560.3375
3034.5858	552.4375
3036.9938	553.5375
3039.40034	540.1375
3041.80542	536.1375
3044.20903	534.2375
3046.61118	532.2375
3049.01187	531.3375
3051.4111	523.5375
3053.80888	524.0375
3056.20519	520.2375
3058.60005	523.9375
3060.99345	520.7375
3063.3854	522.4375
3065.7759	521.8375
3068.16494	520.7375
3070.55254	519.3375
3072.93868	520.2375
3075.32338	519.5375
3077.70662	515.5375
3080.08842	527.6375
3082.46878	521.2375
3084.84769	526.3375
3087.22515	528.1375
3089.60118	527.2375
3091.97576	531.5375
3094.3489	532.7375
3096.72061	540.5375
3099.09087	538.8375
3101.4597	542.9375
3103.82709	541.0375
3106.19305	550.1375
3108.55757	550.0375
3110.92066	553.5375
3113.28232	555.8375
3115.64255	555.3375
3118.00134	562.2375
3120.35871	560.0375
3122.71466	557.9375
3125.06917	571.5375
3127.42226	573.0375
3129.77393	579.3375
3132.12417	573.4375
3134.47299	580.9375
3136.82039	587.6375
3139.16636	588.4375
3141.51092	593.2375
3143.85406	597.1375
3146.19579	607.1375
3148.53609	605.1375
3150.87499	613.4375
3153.21246	613.1375
3155.54853	626.0375
3157.88318	629.3375
3160.21642	630.8375
3162.54826	634.3375
3164.87868	637.2375
3167.2077	644.8375
3169.5353	641.5375
3171.86151	651.9375
3174.18631	654.1375
3176.5097	656.9375
3178.83169	658.6375
3181.15228	662.1375
3183.47147	664.2375
