Data from AgNPs_FTO_APTES_UA_20um_CRN_0.1mM_R6G_10uM_NaF_0.1M_Addition_RamanShift__11__14-29-09-183.txt Node

Date: Tue Dec 21 14:29:09 GMT 2021
User: TCL
Spectrometer: QEP01345
Trigger mode: 4
Integration Time (sec): 7.000000E0
Scans to average: 10
Electric dark correction enabled: true
Nonlinearity correction enabled: false
Boxcar width: 0
XAxis mode: Raman Shifts
Number of Pixels in Spectrum: 1044
>>>>>Begin Spectral Data<<<<<
46.04893	-0.2125
50.45542	-0.4125
54.85868	-1.2125
59.25871	0.2875
63.6555	37.8875
68.04907	46.4875
72.43941	47.6875
76.82654	47.7875
81.21044	52.7875
85.59113	54.5875
89.96862	55.4875
94.34289	56.8875
98.71396	57.0875
103.08183	59.4875
107.4465	65.0875
111.80798	65.1875
116.16626	64.9875
120.52136	65.8875
124.87327	68.7875
129.222	67.1875
133.56755	73.9875
137.90993	82.3875
142.24913	82.9875
146.58517	95.3875
150.91804	108.1875
155.24774	123.0875
159.57429	150.5875
163.89768	191.5875
168.21792	246.6875
172.53501	331.6875
176.84895	456.1875
181.15975	644.8875
185.46741	903.0875
189.77193	1238.7875
194.07331	1668.4875
198.37157	2165.2875
202.6667	2682.6875
206.9587	3211.9875
211.24758	3731.3875
215.53334	4242.5875
219.81599	4787.1875
224.09553	5391.3875
228.37195	6064.3875
232.64527	6771.8875
236.91549	7505.1875
241.18261	8275.3875
245.44663	8993.6875
249.70755	9604.3875
253.96539	10152.3875
258.22014	10594.7875
262.4718	10942.6875
266.72039	11172.6875
270.96589	11285.2875
275.20832	11269.4875
279.44768	11171.7875
283.68397	11080.0875
287.91719	10957.1875
292.14735	10889.9875
296.37445	10872.2875
300.59849	10875.7875
304.81948	10914.6875
309.03742	10922.2875
313.25231	10840.4875
317.46415	10645.5875
321.67296	10374.0875
325.87872	10101.4875
330.08145	9948.6875
334.28114	9911.5875
338.47781	9974.2875
342.67145	10067.9875
346.86207	10211.9875
351.04966	10366.1875
355.23424	10537.4875
359.4158	10684.1875
363.59435	10788.0875
367.76989	10831.4875
371.94243	10886.4875
376.11196	10915.2875
380.27849	10959.9875
384.44203	10975.3875
388.60257	11052.5875
392.76012	11173.7875
396.91468	11325.8875
401.06626	11513.4875
405.21485	11671.9875
409.36047	11632.0875
413.50311	11465.7875
417.64277	11291.7875
421.77947	11214.8875
425.9132	11230.1875
430.04396	11261.3875
434.17176	11301.4875
438.2966	11362.0875
442.41849	11437.5875
446.53742	11621.4875
450.6534	11841.5875
454.76644	11999.9875
458.87653	12079.9875
462.98368	12084.6875
467.08789	12043.7875
471.18916	11979.0875
475.2875	11898.2875
479.38291	11856.3875
483.4754	11797.8875
487.56496	11740.4875
491.6516	11612.7875
495.73531	11521.5875
499.81612	11461.4875
503.89401	11477.8875
507.96899	11517.5875
512.04106	11486.6875
516.11023	11473.8875
520.1765	11401.7875
524.23987	11307.5875
528.30034	11232.5875
532.35792	11127.9875
536.41261	11029.3875
540.46441	10932.4875
544.51333	10935.8875
548.55936	11002.6875
552.60252	11229.3875
556.64279	11401.0875
560.6802	11530.8875
564.71473	11585.3875
568.7464	11756.5875
572.7752	12051.1875
576.80114	12340.8875
580.82422	12633.4875
584.84444	12876.9875
588.86181	12992.8875
592.87633	13016.3875
596.888	12989.5875
600.89682	12874.1875
604.9028	13006.0875
608.90594	13847.4875
612.90624	14907.1875
616.90371	14258.5875
620.89834	12223.5875
624.89015	11209.3875
628.87913	11097.1875
632.86528	11233.4875
636.84862	11360.3875
640.82913	11213.0875
644.80683	10993.6875
648.78172	10803.1875
652.75379	10743.1875
656.72306	10833.7875
660.68952	11012.2875
664.65319	10992.7875
668.61405	10898.1875
672.57211	10877.0875
676.52738	10905.0875
680.47986	10931.9875
684.42955	10924.2875
688.37646	10852.0875
692.32058	10818.5875
696.26192	10874.4875
700.20048	10943.5875
704.13626	11010.2875
708.06928	11045.8875
711.99952	10995.7875
715.927	10952.1875
719.85171	10890.7875
723.77365	10851.7875
727.69284	10746.8875
731.60928	10643.1875
735.52295	10576.2875
739.43388	10551.2875
743.34206	10556.7875
747.24749	10632.8875
751.15017	10697.2875
755.05012	10855.5875
758.94733	11093.7875
762.8418	11572.1875
766.73354	12384.8875
770.62254	13234.0875
774.50882	13458.0875
778.39237	12964.5875
782.27321	12101.6875
786.15132	11367.3875
790.02671	10899.9875
793.89938	10649.3875
797.76935	10526.3875
801.6366	10435.5875
805.50115	10383.6875
809.36299	10313.1875
813.22213	10282.3875
817.07857	10251.0875
820.93231	10232.2875
824.78336	10184.7875
828.63172	10158.7875
832.47738	10148.8875
836.32036	10119.2875
840.16066	10101.4875
843.99827	10082.7875
847.8332	10047.4875
851.66546	10063.3875
855.49504	10047.1875
859.32195	10029.3875
863.1462	10012.1875
866.96777	9995.0875
870.78668	9982.2875
874.60293	10024.8875
878.41652	10004.6875
882.22745	10027.8875
886.03573	10074.4875
889.84136	10082.2875
893.64433	10052.3875
897.44466	10038.2875
901.24235	9999.2875
905.0374	9987.2875
908.8298	9953.7875
912.61957	9944.5875
916.40671	10014.2875
920.19121	10128.7875
923.97308	10195.5875
927.75233	10181.1875
931.52895	10115.9875
935.30295	9973.6875
939.07433	9824.2875
942.84309	9656.2875
946.60924	9575.0875
950.37278	9527.3875
954.13371	9536.2875
957.89203	9497.3875
961.64774	9483.8875
965.40086	9444.4875
969.15137	9458.9875
972.89929	9393.9875
976.64461	9356.5875
980.38733	9339.9875
984.12747	9333.9875
987.86502	9357.5875
991.59999	9372.2875
995.33237	9382.2875
999.06217	9464.3875
1002.78939	9577.5875
1006.51404	9672.5875
1010.23611	9810.7875
1013.95561	9930.6875
1017.67255	9942.6875
1021.38692	9893.5875
1025.09872	9797.1875
1028.80796	9707.4875
1032.51465	9648.9875
1036.21877	9665.8875
1039.92035	9700.5875
1043.61937	9753.5875
1047.31584	9824.9875
1051.00976	9872.0875
1054.70114	9911.7875
1058.38998	9979.2875
1062.07627	10057.1875
1065.76003	10157.4875
1069.44126	10268.0875
1073.11995	10396.0875
1076.79611	10513.0875
1080.46974	10575.7875
1084.14085	10601.1875
1087.80943	10644.3875
1091.47549	10717.9875
1095.13903	10771.2875
1098.80005	10702.9875
1102.45857	10495.9875
1106.11456	10279.9875
1109.76805	10148.3875
1113.41903	10099.8875
1117.06751	10140.4875
1120.71348	10228.7875
1124.35696	10344.1875
1127.99793	10534.3875
1131.63641	10630.0875
1135.2724	10562.0875
1138.90589	10462.4875
1142.5369	10418.9875
1146.16542	10417.9875
1149.79145	10450.3875
1153.415	10522.9875
1157.03607	10593.2875
1160.65467	10811.0875
1164.27079	11074.4875
1167.88443	11485.1875
1171.49561	12035.3875
1175.10432	12728.4875
1178.71056	13560.8875
1182.31434	14358.7875
1185.91565	14823.3875
1189.51451	14937.6875
1193.11091	14767.6875
1196.70485	14319.4875
1200.29634	13805.0875
1203.88538	13316.3875
1207.47197	12930.2875
1211.05612	12613.9875
1214.63782	12358.1875
1218.21708	12084.7875
1221.79391	11787.7875
1225.36829	11611.9875
1228.94024	11511.6875
1232.50976	11437.1875
1236.07685	11398.3875
1239.6415	11348.7875
1243.20374	11364.7875
1246.76355	11404.7875
1250.32093	11504.3875
1253.8759	11667.9875
1257.42845	11902.4875
1260.97859	12187.2875
1264.52631	12474.9875
1268.07163	12753.2875
1271.61453	13017.1875
1275.15503	13248.3875
1278.69312	13491.6875
1282.22882	13785.5875
1285.76211	14086.8875
1289.29301	14464.7875
1292.82151	14913.7875
1296.34761	15411.3875
1299.87133	15987.3875
1303.39266	16612.9875
1306.9116	17236.2875
1310.42815	17886.4875
1313.94233	18193.4875
1317.45412	18129.2875
1320.96354	17987.4875
1324.47058	17746.1875
1327.97525	17591.5875
1331.47754	17525.1875
1334.97747	17509.6875
1338.47502	17486.5875
1341.97022	17609.9875
1345.46305	17750.2875
1348.95352	17880.7875
1352.44163	17971.2875
1355.92738	18167.5875
1359.41078	18580.5875
1362.89183	19057.4875
1366.37053	18882.0875
1369.84688	17688.6875
1373.32088	16072.5875
1376.79254	14837.4875
1380.26186	14230.3875
1383.72883	13968.9875
1387.19347	13813.8875
1390.65578	13602.2875
1394.11575	13454.1875
1397.57339	13346.5875
1401.0287	13311.8875
1404.48168	13300.3875
1407.93234	13227.3875
1411.38068	12999.2875
1414.82669	12731.0875
1418.27039	12397.3875
1421.71177	12014.5875
1425.15083	11702.6875
1428.58758	11500.8875
1432.02203	11461.5875
1435.45416	11566.8875
1438.88399	11709.0875
1442.31151	11829.1875
1445.73673	11990.7875
1449.15965	12114.9875
1452.58027	12268.3875
1455.9986	12391.8875
1459.41463	12508.5875
1462.82837	12645.6875
1466.23982	12898.0875
1469.64898	13085.7875
1473.05586	13287.9875
1476.46045	13304.5875
1479.86276	13391.8875
1483.26279	13462.8875
1486.66054	13539.0875
1490.05602	13717.1875
1493.44922	14081.9875
1496.84016	14535.8875
1500.22882	15234.4875
1503.61521	16027.3875
1506.99934	16826.8875
1510.38121	17406.3875
1513.76081	17433.0875
1517.13816	16933.8875
1520.51324	16165.4875
1523.88607	15449.4875
1527.25665	14971.6875
1530.62498	14710.0875
1533.99105	14415.5875
1537.35488	14154.0875
1540.71647	13832.9875
1544.07581	13445.1875
1547.4329	13105.9875
1550.78776	12836.6875
1554.14038	12687.4875
1557.49077	12640.0875
1560.83892	12684.4875
1564.18484	12807.8875
1567.52853	12957.3875
1570.86999	13109.0875
1574.20922	13280.3875
1577.54624	13366.2875
1580.88103	13244.9875
1584.2136	13007.5875
1587.54395	12863.9875
1590.87208	13035.0875
1594.19801	13410.9875
1597.52172	13907.9875
1600.84321	14106.6875
1604.16251	13768.7875
1607.47959	13142.7875
1610.79447	12422.1875
1614.10715	11705.3875
1617.41763	11044.1875
1620.7259	10543.9875
1624.03199	10196.6875
1627.33587	10126.5875
1630.63757	10159.1875
1633.93707	10518.6875
1637.23439	11116.5875
1640.52951	12135.6875
1643.82246	13420.5875
1647.11321	14779.4875
1650.40179	15606.7875
1653.68819	15413.3875
1656.97241	14233.3875
1660.25446	12608.4875
1663.53433	11197.8875
1666.81203	10142.5875
1670.08756	9440.2875
1673.36092	9006.2875
1676.63211	8702.0875
1679.90115	8507.8875
1683.16801	8355.3875
1686.43272	8247.0875
1689.69527	8135.7875
1692.95567	8076.2875
1696.2139	8057.5875
1699.46999	8013.7875
1702.72392	7978.8875
1705.97571	7939.0875
1709.22535	7910.0875
1712.47284	7865.4875
1715.71819	7858.7875
1718.96139	7811.8875
1722.20246	7790.8875
1725.44139	7735.4875
1728.67818	7725.1875
1731.91284	7683.9875
1735.14537	7613.7875
1738.37576	7567.1875
1741.60403	7552.8875
1744.83017	7528.9875
1748.05418	7522.2875
1751.27607	7505.6875
1754.49584	7500.0875
1757.71349	7511.4875
1760.92903	7520.6875
1764.14244	7491.9875
1767.35375	7505.8875
1770.56294	7441.6875
1773.77002	7415.9875
1776.97499	7377.1875
1780.17785	7332.6875
1783.37861	7318.3875
1786.57727	7298.4875
1789.77382	7275.2875
1792.96828	7235.4875
1796.16064	7205.9875
1799.3509	7167.0875
1802.53907	7183.6875
1805.72514	7133.0875
1808.90913	7086.2875
1812.09102	7105.3875
1815.27083	7061.8875
1818.44856	7039.4875
1821.6242	7038.4875
1824.79776	7016.1875
1827.96924	7012.3875
1831.13864	6990.5875
1834.30597	7016.3875
1837.47122	6979.4875
1840.6344	6978.1875
1843.7955	6960.5875
1846.95454	6967.3875
1850.11151	6951.1875
1853.26642	6951.2875
1856.41926	6946.4875
1859.57004	6930.7875
1862.71876	6914.4875
1865.86542	6908.3875
1869.01003	6872.7875
1872.15258	6885.5875
1875.29308	6875.7875
1878.43152	6820.4875
1881.56792	6845.2875
1884.70227	6837.0875
1887.83457	6819.1875
1890.96482	6798.1875
1894.09304	6770.7875
1897.21921	6784.6875
1900.34335	6763.3875
1903.46544	6726.1875
1906.58551	6711.6875
1909.70353	6719.2875
1912.81953	6680.8875
1915.93349	6692.5875
1919.04543	6668.7875
1922.15534	6661.5875
1925.26322	6633.5875
1928.36908	6615.6875
1931.47292	6615.3875
1934.57473	6574.5875
1937.67453	6559.7875
1940.77232	6529.2875
1943.86808	6523.5875
1946.96184	6520.6875
1950.05358	6476.7875
1953.14331	6453.5875
1956.23103	6446.0875
1959.31675	6416.0875
1962.40046	6397.7875
1965.48217	6407.8875
1968.56188	6349.0875
1971.63959	6333.1875
1974.7153	6322.9875
1977.78901	6306.0875
1980.86073	6260.3875
1983.93046	6255.3875
1986.99819	6234.1875
1990.06394	6202.0875
1993.1277	6199.5875
1996.18947	6147.3875
1999.24925	6129.1875
2002.30706	6121.0875
2005.36288	6095.4875
2008.41672	6069.0875
2011.46859	6033.8875
2014.51848	6020.8875
2017.56639	6006.4875
2020.61233	5996.0875
2023.6563	5984.3875
2026.6983	5944.7875
2029.73833	5939.6875
2032.7764	5926.3875
2035.8125	5908.8875
2038.84664	5880.1875
2041.87881	5873.8875
2044.90903	5856.7875
2047.93729	5855.4875
2050.96359	5831.7875
2053.98794	5846.4875
2057.01034	5831.2875
2060.03078	5825.1875
2063.04927	5812.2875
2066.06582	5788.2875
2069.08042	5791.0875
2072.09307	5796.6875
2075.10378	5782.4875
2078.11255	5771.1875
2081.11938	5765.1875
2084.12426	5774.6875
2087.12722	5766.0875
2090.12824	5735.2875
2093.12732	5765.1875
2096.12447	5735.9875
2099.11969	5747.4875
2102.11299	5750.6875
2105.10435	5739.7875
2108.09379	5743.5875
2111.08131	5762.5875
2114.0669	5739.4875
2117.05057	5733.4875
2120.03233	5759.2875
2123.01216	5752.3875
2125.99008	5745.2875
2128.96609	5741.5875
2131.94018	5747.7875
2134.91236	5732.8875
2137.88263	5741.9875
2140.851	5757.0875
2143.81746	5747.2875
2146.78201	5744.1875
2149.74466	5747.1875
2152.7054	5739.2875
2155.66425	5723.0875
2158.6212	5725.5875
2161.57625	5714.2875
2164.52941	5714.5875
2167.48067	5708.7875
2170.43004	5688.8875
2173.37752	5694.5875
2176.32311	5706.8875
2179.26681	5684.8875
2182.20863	5675.3875
2185.14856	5684.4875
2188.08661	5664.4875
2191.02278	5672.3875
2193.95707	5688.3875
2196.88948	5654.0875
2199.82001	5646.0875
2202.74867	5625.5875
2205.67545	5631.6875
2208.60037	5625.7875
2211.52341	5617.0875
2214.44458	5599.0875
2217.36388	5582.6875
2220.28132	5588.4875
2223.1969	5554.9875
2226.11061	5519.8875
2229.02246	5526.5875
2231.93245	5532.8875
2234.84058	5513.0875
2237.74686	5496.6875
2240.65128	5480.1875
2243.55385	5481.9875
2246.45456	5472.8875
2249.35343	5463.1875
2252.25044	5437.8875
2255.14561	5438.6875
2258.03893	5445.9875
2260.93041	5431.1875
2263.82004	5399.3875
2266.70783	5392.6875
2269.59378	5383.7875
2272.4779	5372.7875
2275.36017	5335.3875
2278.24061	5337.9875
2281.11922	5309.2875
2283.996	5310.1875
2286.87094	5317.7875
2289.74405	5289.7875
2292.61534	5259.1875
2295.4848	5267.6875
2298.35243	5257.8875
2301.21824	5240.4875
2304.08223	5240.6875
2306.94439	5223.2875
2309.80474	5237.2875
2312.66327	5219.5875
2315.51999	5211.0875
2318.37489	5196.1875
2321.22797	5189.1875
2324.07925	5178.6875
2326.92871	5180.0875
2329.77637	5182.2875
2332.62222	5166.2875
2335.46626	5146.6875
2338.3085	5138.7875
2341.14893	5127.0875
2343.98756	5139.2875
2346.8244	5132.0875
2349.65943	5131.4875
2352.49267	5115.0875
2355.32411	5119.2875
2358.15376	5117.0875
2360.98161	5107.7875
2363.80768	5113.7875
2366.63195	5106.7875
2369.45444	5108.2875
2372.27514	5106.6875
2375.09405	5081.9875
2377.91118	5068.1875
2380.72652	5051.3875
2383.54009	5047.8875
2386.35187	5033.5875
2389.16188	5012.6875
2391.97011	5002.4875
2394.77657	4988.4875
2397.58125	4981.6875
2400.38416	4964.0875
2403.18529	4957.0875
2405.98466	4941.0875
2408.78226	4931.3875
2411.57809	4918.2875
2414.37216	4934.8875
2417.16446	4914.2875
2419.955	4899.8875
2422.74378	4909.2875
2425.5308	4908.1875
2428.31606	4896.5875
2431.09956	4893.6875
2433.88131	4890.6875
2436.6613	4874.3875
2439.43954	4862.2875
2442.21603	4855.0875
2444.99077	4862.2875
2447.76377	4866.8875
2450.53501	4855.7875
2453.30451	4855.9875
2456.07226	4826.5875
2458.83827	4850.1875
2461.60254	4853.9875
2464.36507	4823.7875
2467.12586	4810.4875
2469.88492	4814.1875
2472.64224	4830.4875
2475.39782	4816.7875
2478.15167	4817.4875
2480.90379	4802.1875
2483.65417	4790.6875
2486.40283	4798.8875
2489.14976	4785.9875
2491.89497	4788.6875
2494.63845	4801.4875
2497.3802	4779.4875
2500.12024	4802.7875
2502.85855	4778.3875
2505.59514	4777.9875
2508.33002	4747.7875
2511.06318	4748.8875
2513.79462	4731.9875
2516.52435	4733.7875
2519.25237	4732.1875
2521.97867	4712.0875
2524.70327	4721.5875
2527.42616	4701.9875
2530.14734	4690.7875
2532.86681	4677.8875
2535.58458	4671.4875
2538.30065	4657.4875
2541.01501	4659.6875
2543.72768	4646.2875
2546.43864	4653.1875
2549.14791	4628.8875
2551.85548	4627.5875
2554.56136	4626.2875
2557.26554	4602.5875
2559.96803	4606.2875
2562.66883	4608.0875
2565.36794	4597.7875
2568.06536	4582.2875
2570.7611	4571.2875
2573.45514	4557.8875
2576.14751	4553.2875
2578.83819	4550.5875
2581.52719	4540.9875
2584.21451	4542.4875
2586.90015	4513.9875
2589.58411	4533.3875
2592.2664	4512.2875
2594.94701	4500.6875
2597.62594	4497.1875
2600.30321	4479.3875
2602.9788	4469.8875
2605.65273	4457.8875
2608.32498	4462.2875
2610.99557	4444.0875
2613.66449	4449.7875
2616.33175	4448.5875
2618.99734	4444.4875
2621.66128	4427.1875
2624.32355	4416.8875
2626.98416	4427.2875
2629.64311	4409.0875
2632.30041	4408.9875
2634.95605	4399.2875
2637.61004	4403.7875
2640.26238	4383.9875
2642.91306	4386.7875
2645.56209	4380.4875
2648.20948	4379.6875
2650.85521	4373.8875
2653.4993	4360.8875
2656.14175	4370.3875
2658.78255	4364.6875
2661.42171	4358.4875
2664.05923	4379.7875
2666.6951	4368.6875
2669.32934	4361.5875
2671.96194	4367.4875
2674.59291	4362.3875
2677.22224	4355.6875
2679.84993	4371.6875
2682.476	4366.2875
2685.10043	4356.4875
2687.72324	4337.2875
2690.34441	4352.4875
2692.96396	4352.5875
2695.58188	4346.7875
2698.19818	4359.0875
2700.81285	4351.1875
2703.4259	4366.1875
2706.03733	4409.6875
2708.64714	4374.7875
2711.25533	4341.0875
2713.86191	4331.9875
2716.46687	4346.8875
2719.07021	4359.9875
2721.67194	4338.9875
2724.27206	4343.5875
2726.87057	4348.5875
2729.46747	4338.6875
2732.06276	4329.1875
2734.65644	4333.3875
2737.24852	4319.9875
2739.83899	4301.7875
2742.42786	4321.7875
2745.01513	4305.8875
2747.60079	4298.8875
2750.18486	4299.3875
2752.76733	4291.5875
2755.3482	4282.7875
2757.92747	4276.2875
2760.50515	4279.2875
2763.08123	4273.5875
2765.65573	4259.3875
2768.22863	4265.2875
2770.79994	4263.3875
2773.36967	4259.7875
2775.9378	4244.9875
2778.50435	4234.0875
2781.06932	4219.2875
2783.6327	4238.9875
2786.1945	4222.4875
2788.75471	4225.1875
2791.31335	4208.4875
2793.87041	4220.7875
2796.42589	4185.2875
2798.97979	4191.4875
2801.53212	4171.2875
2804.08288	4169.3875
2806.63206	4163.7875
2809.17967	4153.2875
2811.72571	4154.7875
2814.27018	4127.4875
2816.81308	4136.0875
2819.35442	4127.8875
2821.89419	4144.9875
2824.43239	4122.9875
2826.96904	4104.9875
2829.50412	4134.0875
2832.03763	4094.0875
2834.56959	4100.9875
2837.1	4095.3875
2839.62884	4123.3875
2842.15613	4108.8875
2844.68186	4127.2875
2847.20604	4118.4875
2849.72867	4121.4875
2852.24974	4138.5875
2854.76927	4120.6875
2857.28724	4141.0875
2859.80367	4116.6875
2862.31855	4097.5875
2864.83189	4078.0875
2867.34368	4083.9875
2869.85393	4083.5875
2872.36264	4072.3875
2874.8698	4076.2875
2877.37543	4076.3875
2879.87952	4079.3875
2882.38207	4081.5875
2884.88308	4069.0875
2887.38256	4068.7875
2889.88051	4051.2875
2892.37692	4076.9875
2894.8718	4062.0875
2897.36515	4068.1875
2899.85698	4075.5875
2902.34727	4068.8875
2904.83604	4061.9875
2907.32328	4069.5875
2909.809	4071.2875
2912.29319	4079.1875
2914.77587	4083.1875
2917.25702	4070.3875
2919.73665	4075.0875
2922.21476	4079.1875
2924.69136	4070.0875
2927.16644	4077.7875
2929.64	4073.8875
2932.11205	4063.1875
2934.58258	4069.6875
2937.05161	4076.3875
2939.51912	4081.7875
2941.98513	4057.8875
2944.44962	4040.4875
2946.91261	4030.2875
2949.37409	4029.8875
2951.83407	4033.8875
2954.29254	4017.3875
2956.74951	4009.3875
2959.20498	4005.9875
2961.65895	3977.7875
2964.11142	4000.0875
2966.56239	3957.0875
2969.01186	3961.3875
2971.45984	3948.5875
2973.90632	3941.2875
2976.35131	3933.2875
2978.7948	3921.6875
2981.23681	3910.9875
2983.67732	3892.9875
2986.11635	3901.0875
2988.55388	3882.1875
2990.98993	3866.3875
2993.4245	3864.7875
2995.85758	3859.7875
2998.28917	3839.9875
3000.71928	3840.0875
3003.14791	3829.7875
3005.57506	3829.4875
3008.00073	3805.6875
3010.42493	3799.1875
3012.84764	3798.6875
3015.26888	3802.4875
3017.68865	3800.8875
3020.10694	3773.8875
3022.52376	3773.5875
3024.9391	3771.8875
3027.35298	3761.5875
3029.76539	3756.9875
3032.17632	3747.2875
3034.5858	3741.7875
3036.9938	3731.7875
3039.40034	3733.7875
3041.80542	3721.8875
3044.20903	3704.1875
3046.61118	3709.6875
3049.01187	3699.6875
3051.4111	3689.8875
3053.80888	3701.7875
3056.20519	3697.6875
3058.60005	3683.2875
3060.99345	3681.0875
3063.3854	3677.7875
3065.7759	3675.1875
3068.16494	3663.1875
3070.55254	3651.7875
3072.93868	3656.7875
3075.32338	3631.7875
3077.70662	3618.2875
3080.08842	3619.5875
3082.46878	3619.4875
3084.84769	3609.9875
3087.22515	3616.4875
