Data from AgNPs_FTO_APTES_UA_100um_CRN_0.1mM_R6G_10uM_NaF_0.1M_Addition_RamanShift__12__15-58-59-286.txt Node

Date: Tue Dec 21 15:58:59 GMT 2021
User: TCL
Spectrometer: QEP01345
Trigger mode: 4
Integration Time (sec): 7.000000E0
Scans to average: 10
Electric dark correction enabled: true
Nonlinearity correction enabled: false
Boxcar width: 0
XAxis mode: Raman Shifts
Number of Pixels in Spectrum: 1044
>>>>>Begin Spectral Data<<<<<
46.04893	0.125
50.45542	-1.175
54.85868	-0.075
59.25871	0.525
63.6555	30.625
68.04907	35.625
72.43941	38.825
76.82654	37.225
81.21044	42.525
85.59113	42.125
89.96862	44.225
94.34289	42.925
98.71396	46.725
103.08183	49.025
107.4465	52.125
111.80798	49.325
116.16626	52.225
120.52136	50.525
124.87327	51.925
129.222	53.225
133.56755	56.725
137.90993	64.425
142.24913	63.625
146.58517	71.325
150.91804	77.625
155.24774	90.025
159.57429	108.125
163.89768	134.025
168.21792	173.825
172.53501	227.525
176.84895	317.625
181.15975	448.925
185.46741	627.125
189.77193	856.025
194.07331	1155.725
198.37157	1490.025
202.6667	1861.625
206.9587	2210.025
211.24758	2557.425
215.53334	2921.425
219.81599	3272.425
224.09553	3685.125
228.37195	4130.025
232.64527	4625.325
236.91549	5161.425
241.18261	5706.125
245.44663	6207.025
249.70755	6658.225
253.96539	7039.125
258.22014	7347.925
262.4718	7584.625
266.72039	7709.725
270.96589	7760.825
275.20832	7704.525
279.44768	7631.525
283.68397	7517.225
287.91719	7407.325
292.14735	7308.025
296.37445	7265.925
300.59849	7214.425
304.81948	7254.525
309.03742	7246.425
313.25231	7178.725
317.46415	7074.325
321.67296	6880.525
325.87872	6752.725
330.08145	6668.725
334.28114	6660.425
338.47781	6704.725
342.67145	6797.025
346.86207	6901.525
351.04966	7012.425
355.23424	7134.025
359.4158	7247.425
363.59435	7336.225
367.76989	7401.425
371.94243	7466.725
376.11196	7498.525
380.27849	7568.925
384.44203	7592.925
388.60257	7638.325
392.76012	7703.025
396.91468	7772.925
401.06626	7892.025
405.21485	7997.125
409.36047	7995.325
413.50311	7906.725
417.64277	7773.825
421.77947	7671.325
425.9132	7643.425
430.04396	7629.025
434.17176	7635.325
438.2966	7664.825
442.41849	7713.725
446.53742	7786.125
450.6534	7880.625
454.76644	7955.225
458.87653	8001.725
462.98368	8041.925
467.08789	8037.525
471.18916	8017.825
475.2875	7987.325
479.38291	7937.125
483.4754	7903.825
487.56496	7870.525
491.6516	7843.725
495.73531	7830.125
499.81612	7805.025
503.89401	7860.825
507.96899	7876.425
512.04106	7881.225
516.11023	7903.925
520.1765	7877.725
524.23987	7840.525
528.30034	7760.725
532.35792	7732.325
536.41261	7672.725
540.46441	7630.025
544.51333	7619.225
548.55936	7642.425
552.60252	7717.225
556.64279	7797.425
560.6802	7863.125
564.71473	7875.225
568.7464	7908.825
572.7752	7988.125
576.80114	8012.625
580.82422	8065.725
584.84444	8106.125
588.86181	8122.825
592.87633	8066.625
596.888	8075.925
600.89682	8136.425
604.9028	8400.925
608.90594	9101.525
612.90624	9989.825
616.90371	9800.725
620.89834	8566.325
624.89015	7894.525
628.87913	7745.725
632.86528	7812.425
636.84862	7888.825
640.82913	7878.725
644.80683	7744.725
648.78172	7641.125
652.75379	7611.425
656.72306	7651.725
660.68952	7782.925
664.65319	7795.425
668.61405	7723.825
672.57211	7710.725
676.52738	7747.325
680.47986	7751.025
684.42955	7737.025
688.37646	7697.625
692.32058	7701.825
696.26192	7714.825
700.20048	7747.525
704.13626	7755.825
708.06928	7729.025
711.99952	7648.725
715.927	7600.525
719.85171	7566.825
723.77365	7544.625
727.69284	7512.625
731.60928	7485.125
735.52295	7443.025
739.43388	7439.125
743.34206	7462.325
747.24749	7460.825
751.15017	7492.225
755.05012	7552.825
758.94733	7673.825
762.8418	7932.525
766.73354	8333.425
770.62254	8842.725
774.50882	9126.325
778.39237	8905.025
782.27321	8357.425
786.15132	7881.825
790.02671	7579.425
793.89938	7416.825
797.76935	7365.825
801.6366	7327.825
805.50115	7307.225
809.36299	7300.825
813.22213	7285.625
817.07857	7252.725
820.93231	7255.925
824.78336	7204.325
828.63172	7185.725
832.47738	7160.325
836.32036	7171.025
840.16066	7152.425
843.99827	7110.525
847.8332	7106.325
851.66546	7095.425
855.49504	7101.125
859.32195	7097.925
863.1462	7069.325
866.96777	7059.525
870.78668	7069.425
874.60293	7087.925
878.41652	7080.025
882.22745	7067.025
886.03573	7099.325
889.84136	7110.125
893.64433	7071.725
897.44466	7071.925
901.24235	7054.025
905.0374	7039.725
908.8298	7035.025
912.61957	7009.425
916.40671	7016.925
920.19121	7046.525
923.97308	7057.325
927.75233	7051.025
931.52895	7018.325
935.30295	6994.925
939.07433	6925.225
942.84309	6854.825
946.60924	6771.325
950.37278	6746.125
954.13371	6730.325
957.89203	6713.325
961.64774	6704.925
965.40086	6701.825
969.15137	6676.725
972.89929	6649.225
976.64461	6651.125
980.38733	6641.125
984.12747	6608.525
987.86502	6627.225
991.59999	6633.925
995.33237	6628.725
999.06217	6673.425
1002.78939	6673.825
1006.51404	6732.625
1010.23611	6764.525
1013.95561	6795.625
1017.67255	6810.725
1021.38692	6799.525
1025.09872	6770.825
1028.80796	6746.325
1032.51465	6702.225
1036.21877	6696.325
1039.92035	6713.625
1043.61937	6767.425
1047.31584	6773.425
1051.00976	6811.125
1054.70114	6815.925
1058.38998	6834.125
1062.07627	6863.525
1065.76003	6915.025
1069.44126	6961.425
1073.11995	6969.225
1076.79611	7052.925
1080.46974	7063.925
1084.14085	7069.825
1087.80943	7092.625
1091.47549	7105.625
1095.13903	7108.725
1098.80005	7101.125
1102.45857	7035.525
1106.11456	6933.325
1109.76805	6887.725
1113.41903	6894.725
1117.06751	6954.625
1120.71348	7010.225
1124.35696	7086.625
1127.99793	7159.025
1131.63641	7243.325
1135.2724	7184.525
1138.90589	7086.925
1142.5369	7030.825
1146.16542	6965.825
1149.79145	6956.925
1153.415	6939.725
1157.03607	6933.625
1160.65467	6969.825
1164.27079	7075.025
1167.88443	7217.625
1171.49561	7441.025
1175.10432	7754.325
1178.71056	8159.425
1182.31434	8549.625
1185.91565	8757.525
1189.51451	8750.825
1193.11091	8624.625
1196.70485	8400.625
1200.29634	8173.425
1203.88538	7992.125
1207.47197	7737.725
1211.05612	7568.925
1214.63782	7417.525
1218.21708	7315.425
1221.79391	7228.825
1225.36829	7167.625
1228.94024	7158.525
1232.50976	7117.525
1236.07685	7141.825
1239.6415	7150.525
1243.20374	7154.825
1246.76355	7149.325
1250.32093	7215.125
1253.8759	7254.825
1257.42845	7385.725
1260.97859	7472.625
1264.52631	7594.725
1268.07163	7700.025
1271.61453	7773.325
1275.15503	7827.325
1278.69312	7883.225
1282.22882	7923.125
1285.76211	7980.125
1289.29301	8094.025
1292.82151	8197.425
1296.34761	8391.225
1299.87133	8599.025
1303.39266	8872.025
1306.9116	9203.225
1310.42815	9590.825
1313.94233	9792.625
1317.45412	9764.025
1320.96354	9576.325
1324.47058	9410.725
1327.97525	9243.325
1331.47754	9074.225
1334.97747	8998.025
1338.47502	9008.125
1341.97022	9138.725
1345.46305	9290.925
1348.95352	9492.525
1352.44163	9742.925
1355.92738	9983.725
1359.41078	10415.725
1362.89183	10887.125
1366.37053	10835.425
1369.84688	10080.925
1373.32088	9172.825
1376.79254	8486.625
1380.26186	8114.325
1383.72883	7939.025
1387.19347	7821.225
1390.65578	7664.225
1394.11575	7553.825
1397.57339	7435.925
1401.0287	7347.525
1404.48168	7301.425
1407.93234	7245.925
1411.38068	7195.225
1414.82669	7143.425
1418.27039	7034.325
1421.71177	6938.625
1425.15083	6811.125
1428.58758	6745.525
1432.02203	6710.425
1435.45416	6698.525
1438.88399	6717.025
1442.31151	6723.425
1445.73673	6754.025
1449.15965	6821.825
1452.58027	6838.225
1455.9986	6866.325
1459.41463	6886.125
1462.82837	6976.325
1466.23982	7036.825
1469.64898	7165.625
1473.05586	7242.525
1476.46045	7289.425
1479.86276	7357.125
1483.26279	7408.925
1486.66054	7474.925
1490.05602	7576.425
1493.44922	7767.525
1496.84016	8035.725
1500.22882	8447.925
1503.61521	9033.525
1506.99934	9636.625
1510.38121	10037.525
1513.76081	10141.725
1517.13816	9765.825
1520.51324	9187.925
1523.88607	8642.425
1527.25665	8260.225
1530.62498	8008.625
1533.99105	7852.425
1537.35488	7715.725
1540.71647	7596.725
1544.07581	7494.125
1547.4329	7399.725
1550.78776	7368.525
1554.14038	7336.725
1557.49077	7375.525
1560.83892	7434.025
1564.18484	7514.425
1567.52853	7600.625
1570.86999	7732.125
1574.20922	7809.525
1577.54624	7807.625
1580.88103	7685.425
1584.2136	7482.225
1587.54395	7310.625
1590.87208	7272.825
1594.19801	7371.525
1597.52172	7533.825
1600.84321	7616.625
1604.16251	7527.525
1607.47959	7332.425
1610.79447	7119.625
1614.10715	6890.325
1617.41763	6654.525
1620.7259	6454.725
1624.03199	6344.925
1627.33587	6267.825
1630.63757	6286.225
1633.93707	6368.925
1637.23439	6534.025
1640.52951	6828.225
1643.82246	7239.225
1647.11321	7775.925
1650.40179	8188.225
1653.68819	8249.225
1656.97241	7819.825
1660.25446	7233.825
1663.53433	6701.625
1666.81203	6289.525
1670.08756	6034.425
1673.36092	5827.925
1676.63211	5702.625
1679.90115	5608.825
1683.16801	5528.925
1686.43272	5473.425
1689.69527	5440.325
1692.95567	5404.125
1696.2139	5389.225
1699.46999	5373.325
1702.72392	5335.225
1705.97571	5305.925
1709.22535	5252.625
1712.47284	5224.925
1715.71819	5218.325
1718.96139	5199.225
1722.20246	5179.625
1725.44139	5140.825
1728.67818	5118.325
1731.91284	5079.725
1735.14537	5055.825
1738.37576	5034.225
1741.60403	4994.325
1744.83017	4977.525
1748.05418	4990.325
1751.27607	4969.425
1754.49584	4939.925
1757.71349	4985.225
1760.92903	4958.125
1764.14244	4961.425
1767.35375	4939.725
1770.56294	4928.125
1773.77002	4891.525
1776.97499	4854.525
1780.17785	4828.325
1783.37861	4797.025
1786.57727	4780.125
1789.77382	4756.825
1792.96828	4730.625
1796.16064	4706.225
1799.3509	4704.325
1802.53907	4678.925
1805.72514	4659.325
1808.90913	4639.725
1812.09102	4614.525
1815.27083	4601.325
1818.44856	4579.725
1821.6242	4585.225
1824.79776	4572.125
1827.96924	4553.825
1831.13864	4544.325
1834.30597	4536.725
1837.47122	4523.425
1840.6344	4517.125
1843.7955	4513.125
1846.95454	4510.125
1850.11151	4497.125
1853.26642	4485.025
1856.41926	4463.125
1859.57004	4471.325
1862.71876	4453.825
1865.86542	4454.425
1869.01003	4435.825
1872.15258	4433.825
1875.29308	4429.125
1878.43152	4421.025
1881.56792	4414.525
1884.70227	4379.325
1887.83457	4366.825
1890.96482	4369.325
1894.09304	4374.225
1897.21921	4336.725
1900.34335	4345.325
1903.46544	4357.825
1906.58551	4327.425
1909.70353	4311.925
1912.81953	4312.425
1915.93349	4288.525
1919.04543	4291.125
1922.15534	4274.825
1925.26322	4259.525
1928.36908	4244.425
1931.47292	4250.725
1934.57473	4228.325
1937.67453	4216.925
1940.77232	4201.725
1943.86808	4175.325
1946.96184	4175.325
1950.05358	4151.225
1953.14331	4136.025
1956.23103	4130.525
1959.31675	4113.725
1962.40046	4092.525
1965.48217	4080.225
1968.56188	4072.125
1971.63959	4046.725
1974.7153	4047.025
1977.78901	4033.425
1980.86073	4004.625
1983.93046	3996.325
1986.99819	3972.025
1990.06394	3965.825
1993.1277	3962.625
1996.18947	3925.725
1999.24925	3922.025
2002.30706	3895.525
2005.36288	3875.325
2008.41672	3870.525
2011.46859	3853.325
2014.51848	3848.525
2017.56639	3829.325
2020.61233	3815.725
2023.6563	3798.125
2026.6983	3784.725
2029.73833	3778.725
2032.7764	3763.825
2035.8125	3750.625
2038.84664	3732.225
2041.87881	3741.925
2044.90903	3718.725
2047.93729	3709.925
2050.96359	3701.025
2053.98794	3697.925
2057.01034	3689.925
2060.03078	3681.325
2063.04927	3684.125
2066.06582	3653.925
2069.08042	3658.825
2072.09307	3659.025
2075.10378	3635.925
2078.11255	3637.925
2081.11938	3631.825
2084.12426	3630.725
2087.12722	3627.525
2090.12824	3622.025
2093.12732	3633.325
2096.12447	3613.225
2099.11969	3618.725
2102.11299	3594.325
2105.10435	3610.425
2108.09379	3614.325
2111.08131	3613.125
2114.0669	3607.025
2117.05057	3614.725
2120.03233	3618.125
2123.01216	3604.425
2125.99008	3606.525
2128.96609	3618.525
2131.94018	3606.625
2134.91236	3596.925
2137.88263	3609.625
2140.851	3603.225
2143.81746	3607.225
2146.78201	3598.925
2149.74466	3606.825
2152.7054	3596.025
2155.66425	3596.125
2158.6212	3578.225
2161.57625	3573.125
2164.52941	3573.825
2167.48067	3571.325
2170.43004	3553.725
2173.37752	3556.525
2176.32311	3560.925
2179.26681	3565.725
2182.20863	3545.125
2185.14856	3542.925
2188.08661	3544.325
2191.02278	3543.525
2193.95707	3535.525
2196.88948	3515.325
2199.82001	3531.725
2202.74867	3514.325
2205.67545	3500.725
2208.60037	3480.325
2211.52341	3483.525
2214.44458	3479.425
2217.36388	3464.325
2220.28132	3466.125
2223.1969	3455.325
2226.11061	3450.625
2229.02246	3430.225
2231.93245	3416.625
2234.84058	3412.125
2237.74686	3400.525
2240.65128	3401.525
2243.55385	3399.325
2246.45456	3387.425
2249.35343	3385.225
2252.25044	3371.625
2255.14561	3368.125
2258.03893	3356.825
2260.93041	3359.125
2263.82004	3336.925
2266.70783	3334.425
2269.59378	3324.625
2272.4779	3309.125
2275.36017	3311.125
2278.24061	3293.325
2281.11922	3279.425
2283.996	3272.325
2286.87094	3271.425
2289.74405	3249.525
2292.61534	3246.725
2295.4848	3234.925
2298.35243	3215.825
2301.21824	3236.325
2304.08223	3221.325
2306.94439	3212.225
2309.80474	3196.225
2312.66327	3198.825
2315.51999	3176.225
2318.37489	3187.225
2321.22797	3183.925
2324.07925	3182.325
2326.92871	3176.025
2329.77637	3168.925
2332.62222	3158.525
2335.46626	3152.225
2338.3085	3143.225
2341.14893	3140.025
2343.98756	3121.625
2346.8244	3111.625
2349.65943	3120.325
2352.49267	3112.925
2355.32411	3108.225
2358.15376	3122.725
2360.98161	3103.425
2363.80768	3105.525
2366.63195	3109.125
2369.45444	3092.325
2372.27514	3084.925
2375.09405	3095.325
2377.91118	3078.425
2380.72652	3071.825
2383.54009	3047.125
2386.35187	3048.825
2389.16188	3045.825
2391.97011	3018.325
2394.77657	3016.325
2397.58125	3003.825
2400.38416	3004.325
2403.18529	3000.825
2405.98466	2986.125
2408.78226	2979.025
2411.57809	2973.625
2414.37216	2954.625
2417.16446	2977.525
2419.955	2952.425
2422.74378	2945.825
2425.5308	2955.625
2428.31606	2945.725
2431.09956	2938.725
2433.88131	2926.025
2436.6613	2939.225
2439.43954	2927.825
2442.21603	2915.925
2444.99077	2921.325
2447.76377	2912.225
2450.53501	2903.525
2453.30451	2900.025
2456.07226	2909.425
2458.83827	2901.425
2461.60254	2882.725
2464.36507	2891.325
2467.12586	2869.725
2469.88492	2881.625
2472.64224	2872.925
2475.39782	2865.625
2478.15167	2888.525
2480.90379	2862.525
2483.65417	2865.525
2486.40283	2848.325
2489.14976	2858.325
2491.89497	2854.625
2494.63845	2849.725
2497.3802	2864.225
2500.12024	2839.925
2502.85855	2840.325
2505.59514	2822.625
2508.33002	2814.825
2511.06318	2808.325
2513.79462	2810.825
2516.52435	2814.525
2519.25237	2794.025
2521.97867	2781.725
2524.70327	2786.125
2527.42616	2774.525
2530.14734	2770.725
2532.86681	2772.225
2535.58458	2766.225
2538.30065	2748.725
2541.01501	2747.525
2543.72768	2750.225
2546.43864	2734.625
2549.14791	2733.425
2551.85548	2711.525
2554.56136	2715.125
2557.26554	2709.125
2559.96803	2708.325
2562.66883	2688.425
2565.36794	2689.925
2568.06536	2686.225
2570.7611	2678.425
2573.45514	2673.925
2576.14751	2668.625
2578.83819	2649.925
2581.52719	2652.925
2584.21451	2648.525
2586.90015	2650.525
2589.58411	2636.825
2592.2664	2627.225
2594.94701	2628.725
2597.62594	2611.725
2600.30321	2605.825
2602.9788	2601.425
2605.65273	2600.125
2608.32498	2587.525
2610.99557	2581.825
2613.66449	2576.325
2616.33175	2568.225
2618.99734	2573.625
2621.66128	2565.325
2624.32355	2560.825
2626.98416	2564.225
2629.64311	2558.725
2632.30041	2537.125
2634.95605	2537.725
2637.61004	2532.325
2640.26238	2517.125
2642.91306	2530.925
2645.56209	2522.625
2648.20948	2510.825
2650.85521	2515.225
2653.4993	2518.125
2656.14175	2512.625
2658.78255	2507.725
2661.42171	2503.325
2664.05923	2499.225
2666.6951	2499.125
2669.32934	2509.925
2671.96194	2500.825
2674.59291	2500.125
2677.22224	2487.725
2679.84993	2495.625
2682.476	2494.625
2685.10043	2491.325
2687.72324	2507.425
2690.34441	2498.025
2692.96396	2484.025
2695.58188	2492.825
2698.19818	2480.325
2700.81285	2481.425
2703.4259	2502.025
2706.03733	2539.925
2708.64714	2509.825
2711.25533	2492.325
2713.86191	2474.425
2716.46687	2476.025
2719.07021	2485.825
2721.67194	2480.925
2724.27206	2468.125
2726.87057	2468.125
2729.46747	2465.525
2732.06276	2472.125
2734.65644	2471.225
2737.24852	2458.125
2739.83899	2448.725
2742.42786	2449.025
2745.01513	2435.325
2747.60079	2434.625
2750.18486	2420.325
2752.76733	2427.725
2755.3482	2420.725
2757.92747	2413.625
2760.50515	2412.925
2763.08123	2422.825
2765.65573	2407.425
2768.22863	2407.825
2770.79994	2402.325
2773.36967	2394.125
2775.9378	2396.025
2778.50435	2385.625
2781.06932	2379.925
2783.6327	2383.025
2786.1945	2362.825
2788.75471	2352.525
2791.31335	2363.625
2793.87041	2346.125
2796.42589	2325.925
2798.97979	2341.125
2801.53212	2334.625
2804.08288	2335.325
2806.63206	2330.325
2809.17967	2319.325
2811.72571	2310.425
2814.27018	2314.525
2816.81308	2307.625
2819.35442	2299.125
2821.89419	2298.325
2824.43239	2295.425
2826.96904	2305.025
2829.50412	2297.825
2832.03763	2279.125
2834.56959	2291.725
2837.1	2281.525
2839.62884	2290.325
2842.15613	2288.825
2844.68186	2286.525
2847.20604	2286.625
2849.72867	2289.325
2852.24974	2282.825
2854.76927	2292.125
2857.28724	2300.725
2859.80367	2276.225
2862.31855	2274.325
2864.83189	2259.825
2867.34368	2263.025
2869.85393	2262.225
2872.36264	2248.525
2874.8698	2255.725
2877.37543	2244.325
2879.87952	2249.225
2882.38207	2251.825
2884.88308	2248.025
2887.38256	2245.325
2889.88051	2242.925
2892.37692	2244.625
2894.8718	2237.425
2897.36515	2242.825
2899.85698	2239.825
2902.34727	2247.925
2904.83604	2240.525
2907.32328	2241.425
2909.809	2245.125
2912.29319	2233.125
2914.77587	2239.025
2917.25702	2229.725
2919.73665	2241.925
2922.21476	2236.625
2924.69136	2240.725
2927.16644	2243.125
2929.64	2218.825
2932.11205	2236.725
2934.58258	2230.125
2937.05161	2221.825
2939.51912	2220.525
2941.98513	2235.525
2944.44962	2225.025
2946.91261	2219.825
2949.37409	2220.725
2951.83407	2217.925
2954.29254	2216.025
2956.74951	2209.425
2959.20498	2197.525
2961.65895	2194.825
2964.11142	2193.025
2966.56239	2190.325
2969.01186	2177.325
2971.45984	2169.825
2973.90632	2170.125
2976.35131	2163.725
2978.7948	2150.525
2981.23681	2155.125
2983.67732	2142.325
2986.11635	2141.825
2988.55388	2136.325
2990.98993	2133.825
2993.4245	2134.025
2995.85758	2124.625
2998.28917	2117.725
3000.71928	2122.425
3003.14791	2104.325
3005.57506	2112.925
3008.00073	2103.125
3010.42493	2100.725
3012.84764	2095.925
3015.26888	2099.325
3017.68865	2090.625
3020.10694	2080.825
3022.52376	2093.525
3024.9391	2092.625
3027.35298	2078.925
3029.76539	2068.125
3032.17632	2065.225
3034.5858	2071.025
3036.9938	2079.525
3039.40034	2053.725
3041.80542	2061.225
3044.20903	2060.725
3046.61118	2064.925
3049.01187	2056.825
3051.4111	2056.925
3053.80888	2042.225
3056.20519	2041.325
3058.60005	2055.625
3060.99345	2040.425
3063.3854	2043.425
3065.7759	2035.725
3068.16494	2025.525
3070.55254	2009.225
3072.93868	2021.825
3075.32338	2022.525
3077.70662	2021.325
3080.08842	2022.425
3082.46878	2023.525
3084.84769	2018.725
3087.22515	2020.925
3089.60118	2036.825
3091.97576	2017.525
3094.3489	2027.425
3096.72061	2030.125
3099.09087	2028.325
3101.4597	2034.825
3103.82709	2039.925
3106.19305	2028.925
3108.55757	2020.925
3110.92066	2031.625
3113.28232	2021.625
3115.64255	2016.525
3118.00134	2024.325
3120.35871	2018.425
3122.71466	2015.825
3125.06917	2024.025
3127.42226	2011.225
3129.77393	2014.025
3132.12417	2015.925
3134.47299	2033.325
3136.82039	2027.425
3139.16636	2027.425
3141.51092	2032.825
3143.85406	2043.125
3146.19579	2036.525
3148.53609	2041.625
3150.87499	2050.825
3153.21246	2049.625
3155.54853	2055.625
3157.88318	2056.125
3160.21642	2063.925
3162.54826	2067.825
3164.87868	2054.625
3167.2077	2068.425
3169.5353	2067.325
3171.86151	2068.925
3174.18631	2073.925
3176.5097	2077.025
3178.83169	2075.825
3181.15228	2071.725
3183.47147	2070.725
3185.78926	2082.425
3188.10565	2072.725
3190.42065	2071.725
3192.73424	2084.625
3195.04645	2062.625
3197.35725	2077.025
3199.66667	2078.925
3201.97469	2095.125
3204.28132	2083.925
3206.58656	2100.625
3208.8904	2096.125
3211.19287	2101.025
3213.49394	2110.425
3215.79363	2104.925
3218.09193	2106.925
3220.38884	2112.525
3222.68438	2119.425
3224.97853	2099.825
3227.2713	2109.225
3229.56269	2098.225
3231.8527	2108.825
3234.14133	2097.725
