Data from AgNPs_FTO_APTES_UA_20um_CRN_0.1mM_R6G_10uM_NaF_0.1M_Addition_RamanShift__10__14-27-59-181.txt Node

Date: Tue Dec 21 14:27:59 GMT 2021
User: TCL
Spectrometer: QEP01345
Trigger mode: 4
Integration Time (sec): 7.000000E0
Scans to average: 10
Electric dark correction enabled: true
Nonlinearity correction enabled: false
Boxcar width: 0
XAxis mode: Raman Shifts
Number of Pixels in Spectrum: 1044
>>>>>Begin Spectral Data<<<<<
46.04893	-0.1875
50.45542	-0.8875
54.85868	-0.4875
59.25871	-0.5875
63.6555	41.4125
68.04907	48.6125
72.43941	48.1125
76.82654	47.6125
81.21044	56.0125
85.59113	53.5125
89.96862	59.8125
94.34289	58.8125
98.71396	59.9125
103.08183	63.4125
107.4465	65.9125
111.80798	66.8125
116.16626	66.5125
120.52136	67.5125
124.87327	71.7125
129.222	70.0125
133.56755	76.2125
137.90993	83.7125
142.24913	85.2125
146.58517	96.3125
150.91804	109.2125
155.24774	125.9125
159.57429	156.1125
163.89768	196.9125
168.21792	259.9125
172.53501	335.9125
176.84895	469.6125
181.15975	657.8125
185.46741	922.8125
189.77193	1275.0125
194.07331	1712.8125
198.37157	2216.6125
202.6667	2753.5125
206.9587	3285.7125
211.24758	3818.4125
215.53334	4369.8125
219.81599	4904.3125
224.09553	5517.6125
228.37195	6189.3125
232.64527	6927.8125
236.91549	7714.9125
241.18261	8475.8125
245.44663	9203.2125
249.70755	9834.5125
253.96539	10398.7125
258.22014	10842.5125
262.4718	11190.2125
266.72039	11434.0125
270.96589	11559.9125
275.20832	11547.8125
279.44768	11469.0125
283.68397	11340.4125
287.91719	11222.2125
292.14735	11140.1125
296.37445	11120.0125
300.59849	11167.2125
304.81948	11212.6125
309.03742	11250.7125
313.25231	11140.7125
317.46415	10940.8125
321.67296	10666.3125
325.87872	10387.0125
330.08145	10239.0125
334.28114	10165.6125
338.47781	10210.1125
342.67145	10355.5125
346.86207	10488.7125
351.04966	10641.6125
355.23424	10826.6125
359.4158	10946.4125
363.59435	11072.9125
367.76989	11125.9125
371.94243	11179.7125
376.11196	11185.4125
380.27849	11200.5125
384.44203	11258.2125
388.60257	11344.3125
392.76012	11488.3125
396.91468	11623.5125
401.06626	11838.8125
405.21485	11970.9125
409.36047	11926.4125
413.50311	11785.1125
417.64277	11582.4125
421.77947	11541.4125
425.9132	11537.0125
430.04396	11603.6125
434.17176	11615.9125
438.2966	11704.4125
442.41849	11798.4125
446.53742	12003.2125
450.6534	12214.2125
454.76644	12392.3125
458.87653	12444.3125
462.98368	12498.3125
467.08789	12437.3125
471.18916	12353.2125
475.2875	12294.9125
479.38291	12231.2125
483.4754	12177.9125
487.56496	12077.6125
491.6516	11972.6125
495.73531	11805.9125
499.81612	11722.5125
503.89401	11743.4125
507.96899	11773.0125
512.04106	11770.4125
516.11023	11733.8125
520.1765	11634.8125
524.23987	11542.9125
528.30034	11422.4125
532.35792	11374.8125
536.41261	11233.5125
540.46441	11147.9125
544.51333	11161.0125
548.55936	11264.4125
552.60252	11444.8125
556.64279	11678.2125
560.6802	11835.6125
564.71473	11906.3125
568.7464	12096.4125
572.7752	12415.5125
576.80114	12757.5125
580.82422	13086.9125
584.84444	13334.5125
588.86181	13584.1125
592.87633	13726.8125
596.888	13703.2125
600.89682	13434.3125
604.9028	13504.3125
608.90594	14296.7125
612.90624	15328.7125
616.90371	14633.4125
620.89834	12471.4125
624.89015	11451.8125
628.87913	11288.9125
632.86528	11451.3125
636.84862	11552.8125
640.82913	11428.4125
644.80683	11147.5125
648.78172	10955.7125
652.75379	10908.7125
656.72306	10983.3125
660.68952	11158.7125
664.65319	11162.4125
668.61405	11006.7125
672.57211	11015.3125
676.52738	11051.4125
680.47986	11074.5125
684.42955	11039.1125
688.37646	10970.7125
692.32058	10961.0125
696.26192	10985.4125
700.20048	11074.7125
704.13626	11158.6125
708.06928	11223.7125
711.99952	11187.7125
715.927	11115.2125
719.85171	11092.5125
723.77365	11019.0125
727.69284	10892.9125
731.60928	10803.6125
735.52295	10723.6125
739.43388	10710.9125
743.34206	10739.2125
747.24749	10794.6125
751.15017	10873.7125
755.05012	11045.8125
758.94733	11325.8125
762.8418	11836.1125
766.73354	12693.0125
770.62254	13541.8125
774.50882	13776.5125
778.39237	13235.2125
782.27321	12319.3125
786.15132	11560.3125
790.02671	11056.9125
793.89938	10804.4125
797.76935	10677.9125
801.6366	10598.8125
805.50115	10532.7125
809.36299	10494.4125
813.22213	10445.0125
817.07857	10412.6125
820.93231	10360.0125
824.78336	10349.2125
828.63172	10285.0125
832.47738	10248.5125
836.32036	10252.0125
840.16066	10239.9125
843.99827	10212.4125
847.8332	10209.0125
851.66546	10185.8125
855.49504	10163.3125
859.32195	10156.9125
863.1462	10136.6125
866.96777	10117.0125
870.78668	10111.6125
874.60293	10133.8125
878.41652	10116.1125
882.22745	10151.5125
886.03573	10168.5125
889.84136	10204.4125
893.64433	10158.9125
897.44466	10140.9125
901.24235	10141.0125
905.0374	10088.4125
908.8298	10052.8125
912.61957	10050.1125
916.40671	10129.4125
920.19121	10258.4125
923.97308	10324.6125
927.75233	10311.9125
931.52895	10241.8125
935.30295	10110.5125
939.07433	9939.0125
942.84309	9776.4125
946.60924	9692.2125
950.37278	9603.3125
954.13371	9603.8125
957.89203	9578.3125
961.64774	9597.8125
965.40086	9575.8125
969.15137	9527.5125
972.89929	9492.7125
976.64461	9455.3125
980.38733	9434.2125
984.12747	9417.1125
987.86502	9407.8125
991.59999	9461.2125
995.33237	9499.3125
999.06217	9566.1125
1002.78939	9696.5125
1006.51404	9826.2125
1010.23611	9965.4125
1013.95561	10093.2125
1017.67255	10101.8125
1021.38692	10080.7125
1025.09872	9982.0125
1028.80796	9839.9125
1032.51465	9787.1125
1036.21877	9781.5125
1039.92035	9831.6125
1043.61937	9889.5125
1047.31584	9963.9125
1051.00976	10000.9125
1054.70114	10048.5125
1058.38998	10103.6125
1062.07627	10207.3125
1065.76003	10287.6125
1069.44126	10423.9125
1073.11995	10569.0125
1076.79611	10737.2125
1080.46974	10767.9125
1084.14085	10791.1125
1087.80943	10857.1125
1091.47549	10945.2125
1095.13903	11027.7125
1098.80005	10944.2125
1102.45857	10689.4125
1106.11456	10458.0125
1109.76805	10288.6125
1113.41903	10244.3125
1117.06751	10283.8125
1120.71348	10416.2125
1124.35696	10550.3125
1127.99793	10715.8125
1131.63641	10822.5125
1135.2724	10776.0125
1138.90589	10693.9125
1142.5369	10671.3125
1146.16542	10659.3125
1149.79145	10711.7125
1153.415	10780.8125
1157.03607	10916.1125
1160.65467	11102.4125
1164.27079	11433.7125
1167.88443	11883.7125
1171.49561	12474.4125
1175.10432	13232.1125
1178.71056	14208.6125
1182.31434	15046.7125
1185.91565	15561.9125
1189.51451	15669.6125
1193.11091	15413.9125
1196.70485	14966.0125
1200.29634	14415.4125
1203.88538	13887.6125
1207.47197	13521.9125
1211.05612	13198.8125
1214.63782	12896.1125
1218.21708	12614.3125
1221.79391	12323.4125
1225.36829	12096.2125
1228.94024	11965.6125
1232.50976	11895.8125
1236.07685	11806.2125
1239.6415	11756.0125
1243.20374	11749.5125
1246.76355	11806.1125
1250.32093	11913.6125
1253.8759	12102.6125
1257.42845	12356.9125
1260.97859	12701.0125
1264.52631	13021.1125
1268.07163	13316.6125
1271.61453	13595.4125
1275.15503	13879.9125
1278.69312	14185.1125
1282.22882	14520.3125
1285.76211	14895.2125
1289.29301	15401.4125
1292.82151	15920.2125
1296.34761	16498.5125
1299.87133	17217.0125
1303.39266	17966.2125
1306.9116	18711.4125
1310.42815	19318.9125
1313.94233	19684.1125
1317.45412	19661.2125
1320.96354	19417.7125
1324.47058	19152.8125
1327.97525	18969.8125
1331.47754	18866.1125
1334.97747	18768.7125
1338.47502	18774.8125
1341.97022	18782.8125
1345.46305	18849.1125
1348.95352	18968.8125
1352.44163	19069.0125
1355.92738	19259.0125
1359.41078	19744.5125
1362.89183	20327.2125
1366.37053	20158.2125
1369.84688	18857.4125
1373.32088	17085.7125
1376.79254	15738.4125
1380.26186	15059.8125
1383.72883	14805.4125
1387.19347	14648.1125
1390.65578	14452.8125
1394.11575	14279.6125
1397.57339	14224.9125
1401.0287	14236.0125
1404.48168	14243.8125
1407.93234	14121.9125
1411.38068	13878.2125
1414.82669	13537.9125
1418.27039	13117.4125
1421.71177	12692.7125
1425.15083	12328.3125
1428.58758	12128.1125
1432.02203	12101.4125
1435.45416	12223.5125
1438.88399	12437.2125
1442.31151	12594.4125
1445.73673	12757.2125
1449.15965	12907.1125
1452.58027	13085.0125
1455.9986	13153.9125
1459.41463	13267.4125
1462.82837	13464.2125
1466.23982	13730.5125
1469.64898	13934.7125
1473.05586	14087.3125
1476.46045	14193.1125
1479.86276	14170.0125
1483.26279	14211.6125
1486.66054	14320.0125
1490.05602	14522.0125
1493.44922	14835.4125
1496.84016	15334.8125
1500.22882	15971.3125
1503.61521	16798.9125
1506.99934	17576.5125
1510.38121	18116.3125
1513.76081	18194.4125
1517.13816	17738.6125
1520.51324	16960.6125
1523.88607	16269.4125
1527.25665	15803.7125
1530.62498	15587.6125
1533.99105	15313.1125
1537.35488	15029.2125
1540.71647	14640.1125
1544.07581	14240.4125
1547.4329	13819.1125
1550.78776	13516.0125
1554.14038	13306.2125
1557.49077	13243.0125
1560.83892	13277.7125
1564.18484	13407.0125
1567.52853	13546.3125
1570.86999	13678.9125
1574.20922	13896.2125
1577.54624	14011.1125
1580.88103	13924.4125
1584.2136	13721.4125
1587.54395	13666.1125
1590.87208	13907.2125
1594.19801	14356.6125
1597.52172	14948.8125
1600.84321	15157.6125
1604.16251	14748.6125
1607.47959	13989.7125
1610.79447	13109.9125
1614.10715	12246.8125
1617.41763	11494.5125
1620.7259	10949.1125
1624.03199	10582.2125
1627.33587	10480.3125
1630.63757	10597.4125
1633.93707	11012.7125
1637.23439	11750.2125
1640.52951	12956.5125
1643.82246	14530.4125
1647.11321	16071.3125
1650.40179	16961.6125
1653.68819	16603.1125
1656.97241	15088.0125
1660.25446	13264.6125
1663.53433	11671.8125
1666.81203	10496.2125
1670.08756	9737.2125
1673.36092	9235.5125
1676.63211	8937.7125
1679.90115	8705.9125
1683.16801	8532.1125
1686.43272	8404.6125
1689.69527	8331.6125
1692.95567	8247.4125
1696.2139	8198.9125
1699.46999	8169.6125
1702.72392	8122.1125
1705.97571	8077.3125
1709.22535	8024.5125
1712.47284	8008.2125
1715.71819	7986.9125
1718.96139	7965.7125
1722.20246	7925.5125
1725.44139	7879.6125
1728.67818	7829.2125
1731.91284	7779.1125
1735.14537	7731.0125
1738.37576	7696.9125
1741.60403	7653.6125
1744.83017	7662.0125
1748.05418	7622.5125
1751.27607	7624.8125
1754.49584	7638.4125
1757.71349	7635.3125
1760.92903	7645.8125
1764.14244	7599.3125
1767.35375	7606.2125
1770.56294	7571.8125
1773.77002	7522.3125
1776.97499	7512.5125
1780.17785	7468.7125
1783.37861	7440.9125
1786.57727	7404.2125
1789.77382	7380.3125
1792.96828	7343.7125
1796.16064	7335.6125
1799.3509	7310.9125
1802.53907	7274.5125
1805.72514	7246.5125
1808.90913	7226.1125
1812.09102	7204.7125
1815.27083	7174.7125
1818.44856	7172.7125
1821.6242	7153.4125
1824.79776	7141.0125
1827.96924	7141.9125
1831.13864	7122.6125
1834.30597	7123.8125
1837.47122	7111.9125
1840.6344	7112.7125
1843.7955	7084.5125
1846.95454	7074.7125
1850.11151	7060.3125
1853.26642	7062.0125
1856.41926	7063.8125
1859.57004	7066.8125
1862.71876	7025.2125
1865.86542	7032.0125
1869.01003	6998.8125
1872.15258	7000.5125
1875.29308	6985.0125
1878.43152	6969.1125
1881.56792	6969.8125
1884.70227	6955.2125
1887.83457	6929.1125
1890.96482	6917.0125
1894.09304	6908.1125
1897.21921	6890.1125
1900.34335	6876.3125
1903.46544	6863.8125
1906.58551	6858.6125
1909.70353	6824.4125
1912.81953	6835.2125
1915.93349	6832.0125
1919.04543	6792.4125
1922.15534	6770.7125
1925.26322	6750.0125
1928.36908	6739.4125
1931.47292	6718.4125
1934.57473	6694.5125
1937.67453	6660.3125
1940.77232	6662.9125
1943.86808	6617.5125
1946.96184	6606.3125
1950.05358	6602.3125
1953.14331	6589.8125
1956.23103	6566.1125
1959.31675	6542.7125
1962.40046	6533.4125
1965.48217	6498.4125
1968.56188	6478.6125
1971.63959	6438.4125
1974.7153	6427.5125
1977.78901	6421.9125
1980.86073	6387.6125
1983.93046	6361.1125
1986.99819	6347.1125
1990.06394	6339.9125
1993.1277	6284.0125
1996.18947	6267.2125
1999.24925	6245.9125
2002.30706	6217.8125
2005.36288	6216.0125
2008.41672	6196.7125
2011.46859	6164.0125
2014.51848	6141.0125
2017.56639	6111.2125
2020.61233	6106.6125
2023.6563	6086.3125
2026.6983	6067.1125
2029.73833	6053.8125
2032.7764	6022.1125
2035.8125	6021.6125
2038.84664	5994.2125
2041.87881	6003.5125
2044.90903	5991.3125
2047.93729	5958.6125
2050.96359	5962.9125
2053.98794	5934.3125
2057.01034	5944.3125
2060.03078	5921.3125
2063.04927	5927.2125
2066.06582	5903.3125
2069.08042	5903.6125
2072.09307	5909.2125
2075.10378	5889.8125
2078.11255	5886.9125
2081.11938	5875.6125
2084.12426	5877.3125
2087.12722	5868.9125
2090.12824	5859.2125
2093.12732	5853.4125
2096.12447	5858.1125
2099.11969	5839.9125
2102.11299	5838.8125
2105.10435	5850.1125
2108.09379	5855.4125
2111.08131	5864.0125
2114.0669	5867.6125
2117.05057	5848.0125
2120.03233	5870.2125
2123.01216	5849.6125
2125.99008	5855.4125
2128.96609	5869.4125
2131.94018	5844.2125
2134.91236	5874.7125
2137.88263	5857.7125
2140.851	5849.9125
2143.81746	5848.8125
2146.78201	5844.2125
2149.74466	5860.4125
2152.7054	5833.9125
2155.66425	5819.7125
2158.6212	5828.8125
2161.57625	5816.6125
2164.52941	5830.4125
2167.48067	5827.8125
2170.43004	5802.1125
2173.37752	5804.2125
2176.32311	5808.6125
2179.26681	5786.7125
2182.20863	5779.3125
2185.14856	5796.6125
2188.08661	5782.0125
2191.02278	5769.3125
2193.95707	5770.1125
2196.88948	5762.2125
2199.82001	5745.1125
2202.74867	5749.7125
2205.67545	5742.9125
2208.60037	5706.3125
2211.52341	5722.7125
2214.44458	5714.2125
2217.36388	5685.3125
2220.28132	5668.6125
2223.1969	5668.0125
2226.11061	5654.6125
2229.02246	5655.2125
2231.93245	5628.8125
2234.84058	5609.9125
2237.74686	5597.9125
2240.65128	5597.1125
2243.55385	5588.6125
2246.45456	5577.5125
2249.35343	5574.3125
2252.25044	5565.3125
2255.14561	5544.9125
2258.03893	5532.9125
2260.93041	5514.4125
2263.82004	5503.9125
2266.70783	5493.0125
2269.59378	5482.2125
2272.4779	5459.1125
2275.36017	5447.7125
2278.24061	5423.9125
2281.11922	5433.0125
2283.996	5419.3125
2286.87094	5403.7125
2289.74405	5389.5125
2292.61534	5370.2125
2295.4848	5371.9125
2298.35243	5362.7125
2301.21824	5341.9125
2304.08223	5339.2125
2306.94439	5318.6125
2309.80474	5319.4125
2312.66327	5336.8125
2315.51999	5311.4125
2318.37489	5316.6125
2321.22797	5292.2125
2324.07925	5296.8125
2326.92871	5302.6125
2329.77637	5273.8125
2332.62222	5258.8125
2335.46626	5257.8125
2338.3085	5244.2125
2341.14893	5230.4125
2343.98756	5244.5125
2346.8244	5236.2125
2349.65943	5251.6125
2352.49267	5253.3125
2355.32411	5236.2125
2358.15376	5217.5125
2360.98161	5219.4125
2363.80768	5225.3125
2366.63195	5222.7125
2369.45444	5206.6125
2372.27514	5215.9125
2375.09405	5196.6125
2377.91118	5198.5125
2380.72652	5173.9125
2383.54009	5167.4125
2386.35187	5143.6125
2389.16188	5125.9125
2391.97011	5095.4125
2394.77657	5099.4125
2397.58125	5092.0125
2400.38416	5089.0125
2403.18529	5073.3125
2405.98466	5058.3125
2408.78226	5041.1125
2411.57809	5038.1125
2414.37216	5033.4125
2417.16446	5022.7125
2419.955	5012.5125
2422.74378	5007.9125
2425.5308	4993.1125
2428.31606	4995.2125
2431.09956	4992.8125
2433.88131	4990.3125
2436.6613	4979.4125
2439.43954	4987.1125
2442.21603	4972.3125
2444.99077	4961.9125
2447.76377	4983.7125
2450.53501	4978.1125
2453.30451	4966.8125
2456.07226	4958.9125
2458.83827	4938.1125
2461.60254	4942.1125
2464.36507	4951.1125
2467.12586	4932.0125
2469.88492	4936.5125
2472.64224	4930.5125
2475.39782	4933.4125
2478.15167	4934.9125
2480.90379	4919.8125
2483.65417	4921.7125
2486.40283	4907.2125
2489.14976	4904.7125
2491.89497	4890.4125
2494.63845	4902.5125
2497.3802	4901.7125
2500.12024	4881.9125
2502.85855	4880.4125
2505.59514	4864.6125
2508.33002	4883.0125
2511.06318	4874.2125
2513.79462	4856.0125
2516.52435	4861.1125
2519.25237	4844.6125
2521.97867	4830.0125
2524.70327	4848.2125
2527.42616	4808.2125
2530.14734	4812.0125
2532.86681	4808.8125
2535.58458	4795.3125
2538.30065	4772.8125
2541.01501	4783.2125
2543.72768	4778.6125
2546.43864	4758.2125
2549.14791	4748.6125
2551.85548	4743.0125
2554.56136	4740.2125
2557.26554	4742.2125
2559.96803	4723.1125
2562.66883	4709.2125
2565.36794	4732.9125
2568.06536	4686.4125
2570.7611	4697.6125
2573.45514	4693.3125
2576.14751	4674.2125
2578.83819	4657.8125
2581.52719	4668.9125
2584.21451	4645.6125
2586.90015	4660.3125
2589.58411	4642.8125
2592.2664	4626.7125
2594.94701	4612.7125
2597.62594	4616.5125
2600.30321	4603.0125
2602.9788	4577.5125
2605.65273	4590.3125
2608.32498	4609.3125
2610.99557	4586.4125
2613.66449	4576.6125
2616.33175	4562.9125
2618.99734	4576.4125
2621.66128	4567.1125
2624.32355	4550.1125
2626.98416	4553.8125
2629.64311	4548.9125
2632.30041	4533.3125
2634.95605	4541.0125
2637.61004	4512.1125
2640.26238	4539.2125
2642.91306	4517.6125
2645.56209	4508.7125
2648.20948	4511.1125
2650.85521	4500.2125
2653.4993	4502.9125
2656.14175	4508.5125
2658.78255	4503.0125
2661.42171	4516.4125
2664.05923	4504.2125
2666.6951	4503.2125
2669.32934	4499.8125
2671.96194	4514.2125
2674.59291	4496.0125
2677.22224	4501.9125
2679.84993	4497.7125
2682.476	4483.9125
2685.10043	4498.2125
2687.72324	4490.9125
2690.34441	4495.1125
2692.96396	4496.0125
2695.58188	4493.7125
2698.19818	4493.3125
2700.81285	4483.2125
2703.4259	4507.6125
2706.03733	4548.8125
2708.64714	4503.2125
2711.25533	4490.2125
2713.86191	4478.4125
2716.46687	4494.6125
2719.07021	4498.7125
2721.67194	4500.5125
2724.27206	4468.7125
2726.87057	4483.4125
2729.46747	4497.2125
2732.06276	4482.1125
2734.65644	4477.1125
2737.24852	4460.8125
2739.83899	4442.4125
2742.42786	4453.9125
2745.01513	4440.1125
2747.60079	4438.0125
2750.18486	4448.5125
2752.76733	4444.6125
2755.3482	4425.3125
2757.92747	4429.5125
2760.50515	4404.3125
2763.08123	4411.5125
2765.65573	4413.5125
2768.22863	4418.8125
2770.79994	4394.4125
2773.36967	4412.9125
2775.9378	4393.0125
2778.50435	4381.0125
2781.06932	4386.1125
2783.6327	4383.9125
2786.1945	4371.7125
2788.75471	4369.4125
2791.31335	4347.5125
2793.87041	4350.0125
2796.42589	4338.1125
2798.97979	4338.5125
2801.53212	4320.4125
2804.08288	4321.7125
2806.63206	4315.3125
2809.17967	4298.7125
2811.72571	4286.2125
2814.27018	4308.1125
2816.81308	4284.0125
2819.35442	4284.1125
2821.89419	4280.7125
2824.43239	4272.8125
2826.96904	4271.1125
2829.50412	4258.7125
2832.03763	4261.2125
2834.56959	4255.5125
2837.1	4253.3125
2839.62884	4264.1125
2842.15613	4270.2125
2844.68186	4264.3125
2847.20604	4273.6125
2849.72867	4282.6125
2852.24974	4278.6125
2854.76927	4268.9125
2857.28724	4288.0125
2859.80367	4263.0125
2862.31855	4254.2125
2864.83189	4251.3125
2867.34368	4249.9125
2869.85393	4222.6125
2872.36264	4215.9125
2874.8698	4242.0125
2877.37543	4223.7125
2879.87952	4245.4125
2882.38207	4231.0125
2884.88308	4230.5125
2887.38256	4207.9125
2889.88051	4206.7125
2892.37692	4222.0125
2894.8718	4210.8125
2897.36515	4216.9125
2899.85698	4212.8125
2902.34727	4231.7125
2904.83604	4218.8125
2907.32328	4218.7125
2909.809	4231.1125
2912.29319	4225.4125
2914.77587	4226.8125
2917.25702	4230.9125
2919.73665	4219.2125
2922.21476	4234.4125
2924.69136	4237.1125
2927.16644	4234.2125
2929.64	4226.9125
2932.11205	4240.2125
2934.58258	4214.7125
2937.05161	4222.0125
2939.51912	4217.4125
2941.98513	4222.1125
2944.44962	4199.8125
2946.91261	4179.2125
2949.37409	4187.4125
2951.83407	4186.8125
2954.29254	4168.9125
2956.74951	4163.9125
2959.20498	4155.1125
2961.65895	4141.1125
2964.11142	4149.3125
2966.56239	4117.3125
2969.01186	4108.0125
2971.45984	4112.9125
2973.90632	4092.4125
2976.35131	4064.9125
2978.7948	4084.6125
2981.23681	4045.4125
2983.67732	4050.2125
2986.11635	4040.8125
2988.55388	4013.8125
2990.98993	4011.7125
2993.4245	4000.1125
2995.85758	3991.8125
2998.28917	3985.1125
3000.71928	3979.4125
3003.14791	3963.5125
3005.57506	3959.9125
3008.00073	3971.8125
3010.42493	3926.9125
3012.84764	3938.4125
3015.26888	3947.5125
3017.68865	3934.7125
3020.10694	3919.8125
3022.52376	3917.0125
3024.9391	3915.1125
3027.35298	3908.3125
3029.76539	3892.5125
3032.17632	3869.2125
3034.5858	3870.3125
3036.9938	3883.4125
3039.40034	3876.6125
3041.80542	3854.9125
3044.20903	3843.1125
3046.61118	3864.6125
3049.01187	3832.2125
3051.4111	3840.1125
3053.80888	3825.7125
3056.20519	3840.1125
3058.60005	3826.1125
3060.99345	3811.2125
3063.3854	3810.3125
3065.7759	3799.2125
3068.16494	3789.1125
3070.55254	3764.3125
3072.93868	3775.2125
3075.32338	3763.5125
3077.70662	3770.3125
3080.08842	3753.5125
3082.46878	3751.7125
3084.84769	3743.3125
