Data from AgNPs_FTO_APTES_UA_5um_CRN_0.1mM_R6G_10uM_NaF_0.1M_Addition_RamanShift__17__13-16-49-100.txt Node

Date: Tue Dec 21 13:16:49 GMT 2021
User: TCL
Spectrometer: QEP01345
Trigger mode: 4
Integration Time (sec): 7.000000E0
Scans to average: 10
Electric dark correction enabled: true
Nonlinearity correction enabled: false
Boxcar width: 0
XAxis mode: Raman Shifts
Number of Pixels in Spectrum: 1044
>>>>>Begin Spectral Data<<<<<
46.04893	-1.125
50.45542	-1.425
54.85868	-1.725
59.25871	1.475
63.6555	45.375
68.04907	49.475
72.43941	49.575
76.82654	50.375
81.21044	53.775
85.59113	56.075
89.96862	59.175
94.34289	61.675
98.71396	62.175
103.08183	65.975
107.4465	69.875
111.80798	70.575
116.16626	74.775
120.52136	74.275
124.87327	75.275
129.222	77.175
133.56755	81.975
137.90993	91.575
142.24913	97.975
146.58517	113.875
150.91804	127.175
155.24774	154.575
159.57429	188.875
163.89768	238.675
168.21792	313.075
172.53501	426.375
176.84895	587.475
181.15975	828.775
185.46741	1156.075
189.77193	1608.675
194.07331	2149.375
198.37157	2760.175
202.6667	3437.475
206.9587	4091.875
211.24758	4747.475
215.53334	5423.075
219.81599	6119.475
224.09553	6889.075
228.37195	7718.575
232.64527	8640.675
236.91549	9569.275
241.18261	10573.575
245.44663	11491.475
249.70755	12265.875
253.96539	12926.775
258.22014	13465.675
262.4718	13920.575
266.72039	14229.375
270.96589	14354.275
275.20832	14333.975
279.44768	14239.375
283.68397	14108.075
287.91719	14028.775
292.14735	13959.175
296.37445	13957.475
300.59849	14010.275
304.81948	14007.575
309.03742	13965.575
313.25231	13809.275
317.46415	13488.675
321.67296	13064.375
325.87872	12724.875
330.08145	12532.775
334.28114	12458.575
338.47781	12527.575
342.67145	12663.475
346.86207	12843.775
351.04966	13093.275
355.23424	13310.275
359.4158	13528.975
363.59435	13684.875
367.76989	13782.475
371.94243	13860.775
376.11196	13923.875
380.27849	13990.575
384.44203	14106.475
388.60257	14243.075
392.76012	14394.375
396.91468	14602.175
401.06626	14830.375
405.21485	15018.275
409.36047	14956.175
413.50311	14767.375
417.64277	14565.375
421.77947	14505.275
425.9132	14546.075
430.04396	14645.675
434.17176	14694.275
438.2966	14804.375
442.41849	15042.875
446.53742	15465.475
450.6534	15951.975
454.76644	16341.175
458.87653	16481.475
462.98368	16389.075
467.08789	16248.575
471.18916	16072.475
475.2875	15939.775
479.38291	15958.875
483.4754	15933.375
487.56496	15801.975
491.6516	15498.675
495.73531	15201.475
499.81612	15034.975
503.89401	15060.275
507.96899	15035.275
512.04106	14946.375
516.11023	14722.975
520.1765	14528.775
524.23987	14419.175
528.30034	14347.375
532.35792	14335.975
536.41261	14227.575
540.46441	14069.875
544.51333	14013.375
548.55936	14092.475
552.60252	14342.175
556.64279	14695.075
560.6802	14944.275
564.71473	15111.475
568.7464	15371.475
572.7752	15819.775
576.80114	16157.275
580.82422	16475.875
584.84444	16781.275
588.86181	17059.475
592.87633	17367.575
596.888	17494.075
600.89682	17324.875
604.9028	17541.575
608.90594	18710.375
612.90624	19835.275
616.90371	18481.875
620.89834	15486.275
624.89015	14160.575
628.87913	14041.075
632.86528	14218.275
636.84862	14340.375
640.82913	14202.475
644.80683	13843.375
648.78172	13502.375
652.75379	13342.775
656.72306	13428.975
660.68952	13575.475
664.65319	13602.875
668.61405	13413.975
672.57211	13479.975
676.52738	13619.175
680.47986	13715.575
684.42955	13620.075
688.37646	13455.075
692.32058	13401.175
696.26192	13382.475
700.20048	13478.975
704.13626	13575.475
708.06928	13580.075
711.99952	13500.775
715.927	13411.175
719.85171	13433.475
723.77365	13406.975
727.69284	13312.075
731.60928	13223.275
735.52295	13227.775
739.43388	13225.875
743.34206	13193.875
747.24749	13260.775
751.15017	13335.175
755.05012	13492.475
758.94733	13892.975
762.8418	14599.075
766.73354	15782.175
770.62254	16946.475
774.50882	17272.075
778.39237	16530.875
782.27321	15216.675
786.15132	14116.375
790.02671	13362.375
793.89938	12981.175
797.76935	12833.775
801.6366	12798.775
805.50115	12807.575
809.36299	12705.075
813.22213	12584.475
817.07857	12505.575
820.93231	12460.175
824.78336	12363.475
828.63172	12293.775
832.47738	12227.575
836.32036	12239.575
840.16066	12226.875
843.99827	12202.375
847.8332	12179.775
851.66546	12134.475
855.49504	12100.575
859.32195	12149.475
863.1462	12168.075
866.96777	12155.675
870.78668	12188.075
874.60293	12131.375
878.41652	12140.775
882.22745	12159.775
886.03573	12226.975
889.84136	12222.375
893.64433	12177.875
897.44466	12106.475
901.24235	12011.575
905.0374	11903.175
908.8298	11828.075
912.61957	11819.275
916.40671	11908.975
920.19121	12040.775
923.97308	12207.775
927.75233	12251.475
931.52895	12191.175
935.30295	12010.775
939.07433	11766.975
942.84309	11547.075
946.60924	11454.875
950.37278	11371.075
954.13371	11379.375
957.89203	11324.975
961.64774	11285.475
965.40086	11264.175
969.15137	11221.075
972.89929	11130.775
976.64461	11046.575
980.38733	11012.675
984.12747	11009.475
987.86502	11082.775
991.59999	11176.775
995.33237	11328.975
999.06217	11631.075
1002.78939	11947.275
1006.51404	12236.775
1010.23611	12445.775
1013.95561	12603.275
1017.67255	12624.275
1021.38692	12464.975
1025.09872	12224.475
1028.80796	12068.275
1032.51465	12117.675
1036.21877	12306.175
1039.92035	12374.275
1043.61937	12384.875
1047.31584	12315.175
1051.00976	12229.075
1054.70114	12171.775
1058.38998	12171.875
1062.07627	12238.275
1065.76003	12366.675
1069.44126	12512.775
1073.11995	12697.075
1076.79611	12888.075
1080.46974	12919.875
1084.14085	12958.975
1087.80943	13024.075
1091.47549	13214.575
1095.13903	13304.175
1098.80005	13165.675
1102.45857	12837.875
1106.11456	12546.275
1109.76805	12374.675
1113.41903	12374.275
1117.06751	12451.175
1120.71348	12617.875
1124.35696	12820.975
1127.99793	13062.875
1131.63641	13247.875
1135.2724	13238.075
1138.90589	13164.775
1142.5369	13138.275
1146.16542	13121.075
1149.79145	13143.375
1153.415	13264.375
1157.03607	13446.175
1160.65467	13820.775
1164.27079	14457.575
1167.88443	15338.175
1171.49561	16371.275
1175.10432	17692.775
1178.71056	19330.075
1182.31434	20791.275
1185.91565	21531.775
1189.51451	21505.475
1193.11091	20927.175
1196.70485	20041.575
1200.29634	19037.975
1203.88538	18213.875
1207.47197	17636.775
1211.05612	17205.075
1214.63782	16801.375
1218.21708	16467.575
1221.79391	16244.275
1225.36829	16126.275
1228.94024	15936.075
1232.50976	15615.975
1236.07685	15312.775
1239.6415	15093.875
1243.20374	15001.375
1246.76355	15095.875
1250.32093	15303.775
1253.8759	15638.775
1257.42845	16149.775
1260.97859	16656.975
1264.52631	17142.075
1268.07163	17657.275
1271.61453	18213.775
1275.15503	18834.075
1278.69312	19470.975
1282.22882	20121.275
1285.76211	20804.675
1289.29301	21606.975
1292.82151	22626.675
1296.34761	23828.575
1299.87133	25210.175
1303.39266	26673.675
1306.9116	28138.175
1310.42815	29444.375
1313.94233	30414.875
1317.45412	30589.575
1320.96354	30284.075
1324.47058	29843.775
1327.97525	29338.975
1331.47754	28945.575
1334.97747	28610.475
1338.47502	28327.375
1341.97022	27920.175
1345.46305	27426.975
1348.95352	26919.375
1352.44163	26731.675
1355.92738	27122.975
1359.41078	27955.775
1362.89183	28733.575
1366.37053	28480.175
1369.84688	26596.675
1373.32088	23887.675
1376.79254	21814.375
1380.26186	20921.475
1383.72883	20686.875
1387.19347	20674.875
1390.65578	20553.475
1394.11575	20605.975
1397.57339	21062.075
1401.0287	21603.475
1404.48168	22098.275
1407.93234	22182.075
1411.38068	21773.175
1414.82669	20941.875
1418.27039	19864.575
1421.71177	18799.475
1425.15083	17924.275
1428.58758	17427.475
1432.02203	17380.875
1435.45416	17715.275
1438.88399	18271.975
1442.31151	18801.375
1445.73673	19276.875
1449.15965	19745.375
1452.58027	20133.275
1455.9986	20302.775
1459.41463	20486.175
1462.82837	20844.575
1466.23982	21334.975
1469.64898	21683.975
1473.05586	21833.575
1476.46045	21759.975
1479.86276	21573.475
1483.26279	21269.475
1486.66054	21085.675
1490.05602	21032.475
1493.44922	21156.975
1496.84016	21266.375
1500.22882	21487.575
1503.61521	21979.275
1506.99934	22623.375
1510.38121	23195.275
1513.76081	23290.075
1517.13816	22760.775
1520.51324	21867.775
1523.88607	21043.775
1527.25665	20596.375
1530.62498	20422.875
1533.99105	20328.475
1537.35488	20184.375
1540.71647	19881.575
1544.07581	19466.975
1547.4329	18911.475
1550.78776	18405.075
1554.14038	18140.775
1557.49077	17986.975
1560.83892	18005.675
1564.18484	18018.575
1567.52853	18156.075
1570.86999	18325.475
1574.20922	18588.175
1577.54624	18833.375
1580.88103	18894.575
1584.2136	18982.775
1587.54395	19446.475
1590.87208	20307.275
1594.19801	21572.475
1597.52172	22891.775
1600.84321	23424.275
1604.16251	22568.575
1607.47959	20742.875
1610.79447	18713.375
1614.10715	16844.275
1617.41763	15394.175
1620.7259	14380.875
1624.03199	13825.075
1627.33587	13722.575
1630.63757	14069.775
1633.93707	15047.975
1637.23439	16646.875
1640.52951	18992.175
1643.82246	21946.575
1647.11321	24422.175
1650.40179	25227.375
1653.68819	23768.875
1656.97241	20677.675
1660.25446	17396.675
1663.53433	14817.075
1666.81203	13146.475
1670.08756	12076.375
1673.36092	11375.975
1676.63211	10987.275
1679.90115	10658.375
1683.16801	10423.775
1686.43272	10250.175
1689.69527	10113.575
1692.95567	10024.175
1696.2139	9960.975
1699.46999	9897.775
1702.72392	9862.675
1705.97571	9803.475
1709.22535	9751.675
1712.47284	9686.775
1715.71819	9671.375
1718.96139	9621.375
1722.20246	9570.575
1725.44139	9522.975
1728.67818	9434.275
1731.91284	9429.575
1735.14537	9380.675
1738.37576	9296.975
1741.60403	9291.775
1744.83017	9271.675
1748.05418	9273.075
1751.27607	9282.275
1754.49584	9285.275
1757.71349	9299.375
1760.92903	9270.575
1764.14244	9211.075
1767.35375	9149.575
1770.56294	9120.975
1773.77002	9053.375
1776.97499	8992.175
1780.17785	8969.475
1783.37861	8930.875
1786.57727	8908.475
1789.77382	8876.375
1792.96828	8842.375
1796.16064	8802.575
1799.3509	8791.775
1802.53907	8737.175
1805.72514	8717.175
1808.90913	8705.575
1812.09102	8661.875
1815.27083	8640.375
1818.44856	8630.775
1821.6242	8613.675
1824.79776	8611.275
1827.96924	8598.975
1831.13864	8566.175
1834.30597	8565.475
1837.47122	8557.075
1840.6344	8544.775
1843.7955	8541.875
1846.95454	8532.575
1850.11151	8532.175
1853.26642	8534.375
1856.41926	8520.275
1859.57004	8513.975
1862.71876	8521.975
1865.86542	8521.675
1869.01003	8500.475
1872.15258	8491.575
1875.29308	8468.575
1878.43152	8477.575
1881.56792	8460.175
1884.70227	8442.775
1887.83457	8450.875
1890.96482	8425.575
1894.09304	8403.475
1897.21921	8398.175
1900.34335	8390.175
1903.46544	8410.775
1906.58551	8374.575
1909.70353	8350.675
1912.81953	8325.875
1915.93349	8316.075
1919.04543	8293.275
1922.15534	8276.575
1925.26322	8236.175
1928.36908	8208.975
1931.47292	8166.075
1934.57473	8164.575
1937.67453	8140.275
1940.77232	8113.275
1943.86808	8091.675
1946.96184	8071.775
1950.05358	8042.875
1953.14331	8016.575
1956.23103	7972.075
1959.31675	7954.775
1962.40046	7924.775
1965.48217	7925.975
1968.56188	7879.775
1971.63959	7873.675
1974.7153	8025.075
1977.78901	7829.175
1980.86073	7777.175
1983.93046	7756.475
1986.99819	7709.875
1990.06394	7670.475
1993.1277	7655.375
1996.18947	7610.575
1999.24925	7639.975
2002.30706	7598.275
2005.36288	7555.175
2008.41672	7537.275
2011.46859	7511.475
2014.51848	7498.475
2017.56639	7467.775
2020.61233	7457.875
2023.6563	7450.975
2026.6983	7429.275
2029.73833	7425.975
2032.7764	7395.175
2035.8125	7368.675
2038.84664	7359.275
2041.87881	7338.075
2044.90903	7349.675
2047.93729	7329.175
2050.96359	7334.375
2053.98794	7291.375
2057.01034	7298.375
2060.03078	7283.675
2063.04927	7284.175
2066.06582	7265.075
2069.08042	7253.075
2072.09307	7239.275
2075.10378	7240.275
2078.11255	7232.675
2081.11938	7241.175
2084.12426	7210.975
2087.12722	7218.675
2090.12824	7219.075
2093.12732	7204.575
2096.12447	7201.975
2099.11969	7202.975
2102.11299	7179.475
2105.10435	7197.075
2108.09379	7205.675
2111.08131	7196.475
2114.0669	7196.575
2117.05057	7201.775
2120.03233	7203.375
2123.01216	7214.275
2125.99008	7201.475
2128.96609	7222.875
2131.94018	7210.375
2134.91236	7224.575
2137.88263	7227.375
2140.851	7213.975
2143.81746	7197.775
2146.78201	7202.475
2149.74466	7211.975
2152.7054	7216.775
2155.66425	7176.775
2158.6212	7169.075
2161.57625	7181.075
2164.52941	7168.575
2167.48067	7158.775
2170.43004	7161.875
2173.37752	7148.575
2176.32311	7141.875
2179.26681	7145.775
2182.20863	7136.175
2185.14856	7130.875
2188.08661	7161.375
2191.02278	7139.775
2193.95707	7126.575
2196.88948	7125.075
2199.82001	7147.475
2202.74867	7095.475
2205.67545	7094.375
2208.60037	7131.675
2211.52341	7084.075
2214.44458	7078.975
2217.36388	7054.475
2220.28132	7046.075
2223.1969	7024.475
2226.11061	7005.375
2229.02246	7002.675
2231.93245	6985.575
2234.84058	6962.475
2237.74686	6955.175
2240.65128	6959.675
2243.55385	6938.675
2246.45456	6925.375
2249.35343	6900.975
2252.25044	6906.175
2255.14561	6882.175
2258.03893	6885.575
2260.93041	6854.875
2263.82004	6856.375
2266.70783	6830.575
2269.59378	6794.075
2272.4779	6770.275
2275.36017	6752.675
2278.24061	6743.775
2281.11922	6727.775
2283.996	6704.875
2286.87094	6716.275
2289.74405	6661.675
2292.61534	6674.475
2295.4848	6662.475
2298.35243	6680.675
2301.21824	6664.175
2304.08223	6647.975
2306.94439	6652.075
2309.80474	6656.075
2312.66327	6630.175
2315.51999	6628.075
2318.37489	6625.675
2321.22797	6607.575
2324.07925	6617.075
2326.92871	6601.175
2329.77637	6622.575
2332.62222	6606.175
2335.46626	6595.875
2338.3085	6583.575
2341.14893	6590.675
2343.98756	6579.375
2346.8244	6589.575
2349.65943	6591.175
2352.49267	6557.975
2355.32411	6559.175
2358.15376	6585.575
2360.98161	6558.375
2363.80768	6564.975
2366.63195	6554.375
2369.45444	6528.475
2372.27514	6523.975
2375.09405	6505.475
2377.91118	6512.175
2380.72652	6498.375
2383.54009	6483.175
2386.35187	6451.575
2389.16188	6439.975
2391.97011	6430.875
2394.77657	6418.975
2397.58125	6395.175
2400.38416	6404.775
2403.18529	6372.275
2405.98466	6387.175
2408.78226	6375.475
2411.57809	6358.775
2414.37216	6338.975
2417.16446	6326.575
2419.955	6342.775
2422.74378	6323.375
2425.5308	6299.175
2428.31606	6313.375
2431.09956	6307.375
2433.88131	6291.675
2436.6613	6292.575
2439.43954	6281.375
2442.21603	6256.175
2444.99077	6263.375
2447.76377	6272.275
2450.53501	6276.375
2453.30451	6275.375
2456.07226	6264.375
2458.83827	6274.875
2461.60254	6275.175
2464.36507	6258.775
2467.12586	6260.675
2469.88492	6239.775
2472.64224	6245.275
2475.39782	6252.675
2478.15167	6261.375
2480.90379	6255.375
2483.65417	6257.575
2486.40283	6274.475
2489.14976	6260.375
2491.89497	6231.075
2494.63845	6253.775
2497.3802	6268.675
2500.12024	6255.675
2502.85855	6262.175
2505.59514	6240.875
2508.33002	6221.075
2511.06318	6229.275
2513.79462	6206.775
2516.52435	6193.275
2519.25237	6188.875
2521.97867	6178.175
2524.70327	6182.275
2527.42616	6187.475
2530.14734	6173.575
2532.86681	6166.275
2535.58458	6161.775
2538.30065	6159.475
2541.01501	6146.975
2543.72768	6123.275
2546.43864	6119.175
2549.14791	6136.475
2551.85548	6141.675
2554.56136	6117.975
2557.26554	6094.875
2559.96803	6121.175
2562.66883	6091.475
2565.36794	6082.475
2568.06536	6087.475
2570.7611	6084.175
2573.45514	6088.175
2576.14751	6090.675
2578.83819	6084.175
2581.52719	6076.475
2584.21451	6078.775
2586.90015	6046.775
2589.58411	6058.975
2592.2664	6038.875
2594.94701	6017.775
2597.62594	6048.375
2600.30321	6028.075
2602.9788	6015.675
2605.65273	6000.875
2608.32498	6009.475
2610.99557	6022.875
2613.66449	6020.475
2616.33175	6016.175
2618.99734	5999.375
2621.66128	5986.175
2624.32355	5993.175
2626.98416	6001.475
2629.64311	5998.375
2632.30041	5986.875
2634.95605	6012.075
2637.61004	5995.475
2640.26238	5974.875
2642.91306	5978.375
2645.56209	5986.375
2648.20948	5979.075
2650.85521	5966.375
2653.4993	5963.275
2656.14175	5952.775
2658.78255	5966.575
2661.42171	5979.675
2664.05923	5965.775
2666.6951	5951.275
2669.32934	5983.075
2671.96194	5973.875
2674.59291	5967.575
2677.22224	5970.775
2679.84993	5962.675
2682.476	5969.075
2685.10043	5948.075
2687.72324	5947.175
2690.34441	5950.475
2692.96396	5943.375
2695.58188	5954.475
2698.19818	5947.375
2700.81285	5936.575
2703.4259	5962.575
2706.03733	6006.775
2708.64714	5963.275
2711.25533	5965.675
2713.86191	5955.575
2716.46687	5961.775
2719.07021	5959.275
2721.67194	5968.075
2724.27206	5956.975
2726.87057	5970.475
2729.46747	5974.775
2732.06276	5989.075
2734.65644	5956.975
2737.24852	5968.675
2739.83899	5949.275
2742.42786	5960.875
2745.01513	5945.475
2747.60079	5964.675
2750.18486	5936.475
2752.76733	5933.775
2755.3482	5926.375
2757.92747	5930.475
2760.50515	5957.175
2763.08123	5938.875
2765.65573	5928.475
2768.22863	5935.775
2770.79994	5921.675
2773.36967	5929.375
2775.9378	5940.775
2778.50435	5962.875
2781.06932	5938.075
2783.6327	5938.775
2786.1945	5936.075
2788.75471	5916.375
2791.31335	5922.375
2793.87041	5898.175
2796.42589	5869.775
2798.97979	5887.475
2801.53212	5884.075
2804.08288	5880.875
2806.63206	5862.075
2809.17967	5856.375
2811.72571	5838.475
2814.27018	5844.875
2816.81308	5822.975
2819.35442	5826.875
2821.89419	5822.075
2824.43239	5828.475
2826.96904	5813.375
2829.50412	5816.875
2832.03763	5796.075
2834.56959	5801.875
2837.1	5776.675
2839.62884	5777.075
2842.15613	5783.275
2844.68186	5801.175
2847.20604	5802.075
2849.72867	5814.375
2852.24974	5784.375
2854.76927	5782.975
2857.28724	5795.075
2859.80367	5789.675
2862.31855	5780.875
2864.83189	5779.275
2867.34368	5769.375
2869.85393	5746.675
2872.36264	5753.675
2874.8698	5743.575
2877.37543	5752.075
2879.87952	5757.175
2882.38207	5756.875
2884.88308	5771.075
2887.38256	5748.775
2889.88051	5773.475
2892.37692	5771.275
2894.8718	5771.775
2897.36515	5798.575
2899.85698	5789.175
2902.34727	5819.375
2904.83604	5786.775
2907.32328	5831.875
2909.809	5838.075
2912.29319	5840.475
2914.77587	5844.775
2917.25702	5848.875
2919.73665	5861.075
2922.21476	5842.175
2924.69136	5835.275
2927.16644	5851.675
2929.64	5858.075
2932.11205	5838.275
2934.58258	5810.375
2937.05161	5836.175
2939.51912	5829.875
2941.98513	5833.075
2944.44962	5819.175
2946.91261	5803.575
2949.37409	5803.775
2951.83407	5789.375
2954.29254	5766.575
2956.74951	5769.675
2959.20498	5750.175
2961.65895	5722.475
2964.11142	5712.475
2966.56239	5682.675
2969.01186	5680.875
2971.45984	5649.175
2973.90632	5648.975
2976.35131	5608.975
2978.7948	5601.275
2981.23681	5592.275
2983.67732	5564.275
2986.11635	5551.875
2988.55388	5533.475
2990.98993	5528.175
2993.4245	5511.475
2995.85758	5493.775
2998.28917	5466.775
3000.71928	5470.375
3003.14791	5481.375
3005.57506	5458.775
3008.00073	5446.775
3010.42493	5441.075
3012.84764	5433.675
3015.26888	5402.975
3017.68865	5385.575
3020.10694	5394.675
3022.52376	5362.375
3024.9391	5375.075
3027.35298	5360.175
3029.76539	5351.975
3032.17632	5336.875
3034.5858	5317.875
3036.9938	5317.875
3039.40034	5322.175
3041.80542	5300.775
3044.20903	5300.375
3046.61118	5312.375
3049.01187	5272.675
3051.4111	5278.575
3053.80888	5260.375
3056.20519	5230.975
3058.60005	5257.275
3060.99345	5233.375
3063.3854	5227.775
3065.7759	5200.175
3068.16494	5178.475
3070.55254	5179.675
3072.93868	5168.375
3075.32338	5149.375
3077.70662	5133.975
3080.08842	5130.275
3082.46878	5132.775
3084.84769	5092.575
3087.22515	5098.575
3089.60118	5126.775
3091.97576	5114.075
3094.3489	5094.875
3096.72061	5097.075
3099.09087	5102.275
3101.4597	5086.175
3103.82709	5102.075
3106.19305	5079.975
3108.55757	5091.975
3110.92066	5065.675
3113.28232	5048.275
3115.64255	5035.975
3118.00134	5033.375
3120.35871	5025.375
3122.71466	5009.175
3125.06917	5005.775
3127.42226	5007.175
3129.77393	5006.275
3132.12417	4995.775
3134.47299	5007.275
3136.82039	4994.175
3139.16636	4997.575
3141.51092	5001.275
3143.85406	5005.675
3146.19579	4987.275
3148.53609	4990.675
3150.87499	5006.675
3153.21246	4996.675
3155.54853	5001.275
3157.88318	4997.875
3160.21642	4995.175
3162.54826	4997.975
3164.87868	4989.075
3167.2077	4981.675
3169.5353	4986.975
3171.86151	4992.575
3174.18631	4986.475
3176.5097	4984.975
3178.83169	4976.775
3181.15228	4993.275
3183.47147	4987.075
3185.78926	4975.375
3188.10565	4973.175
3190.42065	4958.075
