Data from AgNPs_FTO_APTES_UA_50um_CRN_0.1mM_R6G_10uM_NaF_0.1M_Addition_RamanShift__25__15-32-09-255.txt Node

Date: Tue Dec 21 15:32:09 GMT 2021
User: TCL
Spectrometer: QEP01345
Trigger mode: 4
Integration Time (sec): 7.000000E0
Scans to average: 10
Electric dark correction enabled: true
Nonlinearity correction enabled: false
Boxcar width: 0
XAxis mode: Raman Shifts
Number of Pixels in Spectrum: 1044
>>>>>Begin Spectral Data<<<<<
46.04893	0.1875
50.45542	-1.3125
54.85868	-1.0125
59.25871	0.0875
63.6555	40.4875
68.04907	47.0875
72.43941	50.4875
76.82654	50.8875
81.21044	58.1875
85.59113	57.1875
89.96862	60.6875
94.34289	61.3875
98.71396	61.3875
103.08183	64.7875
107.4465	70.0875
111.80798	68.5875
116.16626	70.4875
120.52136	71.7875
124.87327	71.7875
129.222	77.3875
133.56755	81.7875
137.90993	90.0875
142.24913	91.4875
146.58517	104.0875
150.91804	118.6875
155.24774	138.4875
159.57429	168.8875
163.89768	216.4875
168.21792	283.1875
172.53501	381.0875
176.84895	526.5875
181.15975	737.4875
185.46741	1034.1875
189.77193	1418.1875
194.07331	1907.8875
198.37157	2452.9875
202.6667	3061.9875
206.9587	3637.7875
211.24758	4221.1875
215.53334	4810.5875
219.81599	5408.9875
224.09553	6114.5875
228.37195	6877.3875
232.64527	7716.8875
236.91549	8582.8875
241.18261	9493.7875
245.44663	10286.5875
249.70755	10988.3875
253.96539	11572.7875
258.22014	12096.5875
262.4718	12515.4875
266.72039	12829.1875
270.96589	12961.5875
275.20832	12974.0875
279.44768	12867.6875
283.68397	12733.9875
287.91719	12622.2875
292.14735	12562.1875
296.37445	12633.4875
300.59849	12774.6875
304.81948	12948.0875
309.03742	13007.0875
313.25231	12840.0875
317.46415	12413.8875
321.67296	11889.5875
325.87872	11474.9875
330.08145	11267.0875
334.28114	11236.6875
338.47781	11385.6875
342.67145	11568.4875
346.86207	11844.5875
351.04966	12216.7875
355.23424	12621.6875
359.4158	12991.1875
363.59435	13191.1875
367.76989	13347.0875
371.94243	13465.5875
376.11196	13513.9875
380.27849	13551.1875
384.44203	13569.7875
388.60257	13571.0875
392.76012	13576.6875
396.91468	13687.4875
401.06626	13927.1875
405.21485	14093.4875
409.36047	13991.9875
413.50311	13618.0875
417.64277	13227.6875
421.77947	13044.6875
425.9132	12954.0875
430.04396	12980.8875
434.17176	13085.1875
438.2966	13217.5875
442.41849	13421.2875
446.53742	13756.8875
450.6534	14131.2875
454.76644	14350.3875
458.87653	14450.5875
462.98368	14376.8875
467.08789	14240.6875
471.18916	14043.6875
475.2875	13939.7875
479.38291	13855.3875
483.4754	13763.4875
487.56496	13637.3875
491.6516	13444.9875
495.73531	13316.5875
499.81612	13235.8875
503.89401	13268.8875
507.96899	13315.6875
512.04106	13350.2875
516.11023	13371.9875
520.1765	13410.6875
524.23987	13368.7875
528.30034	13253.4875
532.35792	13172.2875
536.41261	13034.7875
540.46441	12838.9875
544.51333	12755.0875
548.55936	12772.6875
552.60252	12989.3875
556.64279	13253.5875
560.6802	13375.5875
564.71473	13476.9875
568.7464	13713.8875
572.7752	13937.1875
576.80114	13885.4875
580.82422	13761.9875
584.84444	13725.4875
588.86181	13831.6875
592.87633	14044.6875
596.888	14210.6875
600.89682	14313.6875
604.9028	15012.7875
608.90594	17016.6875
612.90624	19680.4875
616.90371	19127.7875
620.89834	15340.9875
624.89015	13431.8875
628.87913	13148.7875
632.86528	13317.5875
636.84862	13478.2875
640.82913	13339.3875
644.80683	12916.6875
648.78172	12538.5875
652.75379	12373.8875
656.72306	12555.1875
660.68952	12823.4875
664.65319	12818.4875
668.61405	12549.2875
672.57211	12468.8875
676.52738	12476.4875
680.47986	12473.6875
684.42955	12361.1875
688.37646	12243.3875
692.32058	12251.3875
696.26192	12284.9875
700.20048	12341.8875
704.13626	12412.3875
708.06928	12400.6875
711.99952	12291.9875
715.927	12266.2875
719.85171	12245.9875
723.77365	12273.1875
727.69284	12203.6875
731.60928	12167.8875
735.52295	12123.9875
739.43388	12116.8875
743.34206	12178.7875
747.24749	12194.3875
751.15017	12230.9875
755.05012	12378.2875
758.94733	12683.8875
762.8418	13413.0875
766.73354	14725.6875
770.62254	16209.5875
774.50882	16988.0875
778.39237	16385.8875
782.27321	14840.1875
786.15132	13342.4875
790.02671	12500.6875
793.89938	12053.1875
797.76935	11884.8875
801.6366	11843.9875
805.50115	11832.8875
809.36299	11851.1875
813.22213	11830.7875
817.07857	11812.6875
820.93231	11746.1875
824.78336	11629.9875
828.63172	11612.6875
832.47738	11572.7875
836.32036	11540.9875
840.16066	11499.5875
843.99827	11464.2875
847.8332	11446.8875
851.66546	11407.6875
855.49504	11400.6875
859.32195	11423.7875
863.1462	11358.3875
866.96777	11356.0875
870.78668	11363.4875
874.60293	11352.2875
878.41652	11377.9875
882.22745	11435.9875
886.03573	11485.2875
889.84136	11495.4875
893.64433	11422.5875
897.44466	11332.8875
901.24235	11239.2875
905.0374	11163.4875
908.8298	11101.5875
912.61957	11066.7875
916.40671	11101.3875
920.19121	11189.2875
923.97308	11238.8875
927.75233	11276.8875
931.52895	11278.8875
935.30295	11160.8875
939.07433	10996.7875
942.84309	10853.8875
946.60924	10722.0875
950.37278	10672.3875
954.13371	10632.4875
957.89203	10589.2875
961.64774	10572.9875
965.40086	10510.1875
969.15137	10454.5875
972.89929	10403.0875
976.64461	10337.6875
980.38733	10319.0875
984.12747	10331.8875
987.86502	10368.8875
991.59999	10460.0875
995.33237	10542.8875
999.06217	10713.7875
1002.78939	10959.7875
1006.51404	11183.4875
1010.23611	11370.5875
1013.95561	11522.4875
1017.67255	11538.1875
1021.38692	11440.3875
1025.09872	11255.6875
1028.80796	11161.8875
1032.51465	11173.5875
1036.21877	11259.1875
1039.92035	11287.8875
1043.61937	11265.8875
1047.31584	11218.6875
1051.00976	11149.1875
1054.70114	11073.4875
1058.38998	11045.8875
1062.07627	11097.3875
1065.76003	11189.3875
1069.44126	11214.1875
1073.11995	11311.7875
1076.79611	11369.1875
1080.46974	11428.1875
1084.14085	11518.3875
1087.80943	11627.3875
1091.47549	11743.7875
1095.13903	11690.2875
1098.80005	11532.6875
1102.45857	11302.3875
1106.11456	11171.8875
1109.76805	11157.7875
1113.41903	11308.9875
1117.06751	11495.2875
1120.71348	11761.4875
1124.35696	12070.5875
1127.99793	12383.5875
1131.63641	12506.0875
1135.2724	12361.1875
1138.90589	12078.1875
1142.5369	11846.0875
1146.16542	11668.6875
1149.79145	11542.0875
1153.415	11465.4875
1157.03607	11505.6875
1160.65467	11656.3875
1164.27079	11993.7875
1167.88443	12477.7875
1171.49561	13189.3875
1175.10432	14220.5875
1178.71056	15614.9875
1182.31434	16951.3875
1185.91565	17556.5875
1189.51451	17361.9875
1193.11091	16722.2875
1196.70485	15921.9875
1200.29634	15221.0875
1203.88538	14618.6875
1207.47197	14143.4875
1211.05612	13606.6875
1214.63782	13203.1875
1218.21708	12974.5875
1221.79391	12867.5875
1225.36829	12793.4875
1228.94024	12693.4875
1232.50976	12528.3875
1236.07685	12426.3875
1239.6415	12389.4875
1243.20374	12409.7875
1246.76355	12487.8875
1250.32093	12632.8875
1253.8759	12807.5875
1257.42845	13109.6875
1260.97859	13429.5875
1264.52631	13729.8875
1268.07163	13985.3875
1271.61453	14268.3875
1275.15503	14578.3875
1278.69312	14801.3875
1282.22882	14989.3875
1285.76211	15313.1875
1289.29301	15730.7875
1292.82151	16318.7875
1296.34761	17006.6875
1299.87133	17918.7875
1303.39266	19057.6875
1306.9116	20493.7875
1310.42815	22015.4875
1313.94233	22879.4875
1317.45412	22777.2875
1320.96354	22004.1875
1324.47058	21032.9875
1327.97525	20169.9875
1331.47754	19596.0875
1334.97747	19300.1875
1338.47502	19385.7875
1341.97022	19612.4875
1345.46305	19820.7875
1348.95352	20073.8875
1352.44163	20538.8875
1355.92738	21500.4875
1359.41078	23158.4875
1362.89183	24821.2875
1366.37053	24543.1875
1369.84688	21876.7875
1373.32088	18924.2875
1376.79254	16939.4875
1380.26186	15987.2875
1383.72883	15627.6875
1387.19347	15452.1875
1390.65578	15252.1875
1394.11575	15139.0875
1397.57339	15223.0875
1401.0287	15497.0875
1404.48168	15811.7875
1407.93234	15988.0875
1411.38068	15944.7875
1414.82669	15671.0875
1418.27039	15142.0875
1421.71177	14534.1875
1425.15083	13999.3875
1428.58758	13617.4875
1432.02203	13570.3875
1435.45416	13685.2875
1438.88399	13861.2875
1442.31151	14028.1875
1445.73673	14193.3875
1449.15965	14450.4875
1452.58027	14598.3875
1455.9986	14680.4875
1459.41463	14801.2875
1462.82837	14991.5875
1466.23982	15266.8875
1469.64898	15504.3875
1473.05586	15631.5875
1476.46045	15633.3875
1479.86276	15622.2875
1483.26279	15615.5875
1486.66054	15639.7875
1490.05602	15814.0875
1493.44922	16062.8875
1496.84016	16464.6875
1500.22882	17165.1875
1503.61521	18343.6875
1506.99934	19786.0875
1510.38121	21099.3875
1513.76081	21521.8875
1517.13816	20692.4875
1520.51324	19022.1875
1523.88607	17419.4875
1527.25665	16298.3875
1530.62498	15719.1875
1533.99105	15437.4875
1537.35488	15292.3875
1540.71647	15146.6875
1544.07581	15001.5875
1547.4329	14853.0875
1550.78776	14714.9875
1554.14038	14580.7875
1557.49077	14619.0875
1560.83892	14725.2875
1564.18484	14883.6875
1567.52853	15088.0875
1570.86999	15277.9875
1574.20922	15417.4875
1577.54624	15452.5875
1580.88103	15205.3875
1584.2136	14776.1875
1587.54395	14656.4875
1590.87208	15016.3875
1594.19801	15715.2875
1597.52172	16650.3875
1600.84321	17187.1875
1604.16251	16781.8875
1607.47959	15801.9875
1610.79447	14572.3875
1614.10715	13463.3875
1617.41763	12527.5875
1620.7259	11880.9875
1624.03199	11576.5875
1627.33587	11470.0875
1630.63757	11652.9875
1633.93707	12143.2875
1637.23439	12931.5875
1640.52951	14141.0875
1643.82246	15686.8875
1647.11321	17335.4875
1650.40179	18303.0875
1653.68819	17836.3875
1656.97241	15925.6875
1660.25446	13758.5875
1663.53433	12135.7875
1666.81203	11065.1875
1670.08756	10392.6875
1673.36092	9975.8875
1676.63211	9707.1875
1679.90115	9504.7875
1683.16801	9363.6875
1686.43272	9245.9875
1689.69527	9152.1875
1692.95567	9082.9875
1696.2139	9039.8875
1699.46999	8987.5875
1702.72392	8931.9875
1705.97571	8876.0875
1709.22535	8802.7875
1712.47284	8794.6875
1715.71819	8745.1875
1718.96139	8733.5875
1722.20246	8690.7875
1725.44139	8655.6875
1728.67818	8606.2875
1731.91284	8537.1875
1735.14537	8500.3875
1738.37576	8456.2875
1741.60403	8453.0875
1744.83017	8428.7875
1748.05418	8418.2875
1751.27607	8381.8875
1754.49584	8383.8875
1757.71349	8372.2875
1760.92903	8352.1875
1764.14244	8334.7875
1767.35375	8305.6875
1770.56294	8284.6875
1773.77002	8247.6875
1776.97499	8219.4875
1780.17785	8181.4875
1783.37861	8171.1875
1786.57727	8144.3875
1789.77382	8107.5875
1792.96828	8082.1875
1796.16064	8080.5875
1799.3509	8054.1875
1802.53907	8037.4875
1805.72514	8001.8875
1808.90913	8008.1875
1812.09102	7977.4875
1815.27083	7944.5875
1818.44856	7908.9875
1821.6242	7909.1875
1824.79776	7892.8875
1827.96924	7889.3875
1831.13864	7880.6875
1834.30597	7874.1875
1837.47122	7849.2875
1840.6344	7846.8875
1843.7955	7832.9875
1846.95454	7832.7875
1850.11151	7815.7875
1853.26642	7812.3875
1856.41926	7806.6875
1859.57004	7802.7875
1862.71876	7807.8875
1865.86542	7787.6875
1869.01003	7789.0875
1872.15258	7790.4875
1875.29308	7764.2875
1878.43152	7752.5875
1881.56792	7751.6875
1884.70227	7768.6875
1887.83457	7731.6875
1890.96482	7719.7875
1894.09304	7713.4875
1897.21921	7711.5875
1900.34335	7710.6875
1903.46544	7699.7875
1906.58551	7689.7875
1909.70353	7687.8875
1912.81953	7687.6875
1915.93349	7646.7875
1919.04543	7636.3875
1922.15534	7636.2875
1925.26322	7617.7875
1928.36908	7593.8875
1931.47292	7559.7875
1934.57473	7550.4875
1937.67453	7504.3875
1940.77232	7501.4875
1943.86808	7479.2875
1946.96184	7457.8875
1950.05358	7436.0875
1953.14331	7391.5875
1956.23103	7383.9875
1959.31675	7339.0875
1962.40046	7323.5875
1965.48217	7302.0875
1968.56188	7309.0875
1971.63959	7279.5875
1974.7153	7250.8875
1977.78901	7224.1875
1980.86073	7211.2875
1983.93046	7179.9875
1986.99819	7149.1875
1990.06394	7134.5875
1993.1277	7091.8875
1996.18947	7077.8875
1999.24925	7053.7875
2002.30706	7042.0875
2005.36288	7019.4875
2008.41672	7001.6875
2011.46859	6962.6875
2014.51848	6924.8875
2017.56639	6922.5875
2020.61233	6894.8875
2023.6563	6873.6875
2026.6983	6868.3875
2029.73833	6850.8875
2032.7764	6835.7875
2035.8125	6819.3875
2038.84664	6806.1875
2041.87881	6799.3875
2044.90903	6773.4875
2047.93729	6760.4875
2050.96359	6760.2875
2053.98794	6741.0875
2057.01034	6739.7875
2060.03078	6726.7875
2063.04927	6746.0875
2066.06582	6696.1875
2069.08042	6704.8875
2072.09307	6689.0875
2075.10378	6684.6875
2078.11255	6671.7875
2081.11938	6702.1875
2084.12426	6689.4875
2087.12722	6675.9875
2090.12824	6659.1875
2093.12732	6658.1875
2096.12447	6645.0875
2099.11969	6649.5875
2102.11299	6647.6875
2105.10435	6651.7875
2108.09379	6650.3875
2111.08131	6661.2875
2114.0669	6643.4875
2117.05057	6649.5875
2120.03233	6649.2875
2123.01216	6640.8875
2125.99008	6659.6875
2128.96609	6650.4875
2131.94018	6652.1875
2134.91236	6646.0875
2137.88263	6654.1875
2140.851	6655.2875
2143.81746	6649.2875
2146.78201	6657.4875
2149.74466	6653.5875
2152.7054	6673.5875
2155.66425	6642.5875
2158.6212	6634.6875
2161.57625	6628.5875
2164.52941	6630.9875
2167.48067	6628.9875
2170.43004	6632.1875
2173.37752	6625.7875
2176.32311	6611.4875
2179.26681	6613.1875
2182.20863	6621.8875
2185.14856	6608.0875
2188.08661	6612.7875
2191.02278	6601.1875
2193.95707	6597.0875
2196.88948	6579.7875
2199.82001	6562.3875
2202.74867	6564.9875
2205.67545	6559.9875
2208.60037	6558.7875
2211.52341	6560.8875
2214.44458	6537.2875
2217.36388	6529.4875
2220.28132	6502.5875
2223.1969	6484.6875
2226.11061	6482.1875
2229.02246	6475.0875
2231.93245	6466.9875
2234.84058	6433.8875
2237.74686	6425.6875
2240.65128	6435.7875
2243.55385	6414.5875
2246.45456	6390.6875
2249.35343	6398.2875
2252.25044	6390.5875
2255.14561	6388.8875
2258.03893	6386.6875
2260.93041	6341.4875
2263.82004	6342.5875
2266.70783	6320.7875
2269.59378	6315.2875
2272.4779	6299.7875
2275.36017	6288.5875
2278.24061	6247.6875
2281.11922	6245.6875
2283.996	6247.4875
2286.87094	6241.8875
2289.74405	6200.1875
2292.61534	6196.3875
2295.4848	6193.3875
2298.35243	6186.4875
2301.21824	6180.4875
2304.08223	6178.3875
2306.94439	6171.0875
2309.80474	6169.4875
2312.66327	6184.1875
2315.51999	6147.7875
2318.37489	6139.3875
2321.22797	6132.8875
2324.07925	6136.7875
2326.92871	6125.2875
2329.77637	6127.8875
2332.62222	6124.0875
2335.46626	6109.6875
2338.3085	6081.7875
2341.14893	6084.7875
2343.98756	6098.2875
2346.8244	6101.2875
2349.65943	6088.9875
2352.49267	6097.6875
2355.32411	6093.1875
2358.15376	6078.6875
2360.98161	6077.2875
2363.80768	6079.3875
2366.63195	6088.5875
2369.45444	6072.7875
2372.27514	6056.5875
2375.09405	6031.1875
2377.91118	6064.4875
2380.72652	5999.9875
2383.54009	5994.5875
2386.35187	5994.5875
2389.16188	5983.5875
2391.97011	5953.8875
2394.77657	5930.5875
2397.58125	5930.6875
2400.38416	5924.7875
2403.18529	5908.0875
2405.98466	5889.1875
2408.78226	5895.3875
2411.57809	5856.1875
2414.37216	5854.5875
2417.16446	5867.2875
2419.955	5835.4875
2422.74378	5834.5875
2425.5308	5838.2875
2428.31606	5826.9875
2431.09956	5835.9875
2433.88131	5816.3875
2436.6613	5808.8875
2439.43954	5798.7875
2442.21603	5784.1875
2444.99077	5797.2875
2447.76377	5790.5875
2450.53501	5794.4875
2453.30451	5790.0875
2456.07226	5775.4875
2458.83827	5766.9875
2461.60254	5782.8875
2464.36507	5782.8875
2467.12586	5760.9875
2469.88492	5761.8875
2472.64224	5756.2875
2475.39782	5761.8875
2478.15167	5779.4875
2480.90379	5762.1875
2483.65417	5760.4875
2486.40283	5765.6875
2489.14976	5765.3875
2491.89497	5757.5875
2494.63845	5784.5875
2497.3802	5787.2875
2500.12024	5759.8875
2502.85855	5759.7875
2505.59514	5762.2875
2508.33002	5740.1875
2511.06318	5715.7875
2513.79462	5706.5875
2516.52435	5687.3875
2519.25237	5686.0875
2521.97867	5665.6875
2524.70327	5668.9875
2527.42616	5653.8875
2530.14734	5640.8875
2532.86681	5634.7875
2535.58458	5644.9875
2538.30065	5624.1875
2541.01501	5622.8875
2543.72768	5617.8875
2546.43864	5601.6875
2549.14791	5594.3875
2551.85548	5594.7875
2554.56136	5591.2875
2557.26554	5584.3875
2559.96803	5568.1875
2562.66883	5561.2875
2565.36794	5550.6875
2568.06536	5575.4875
2570.7611	5538.9875
2573.45514	5555.3875
2576.14751	5535.3875
2578.83819	5517.8875
2581.52719	5516.7875
2584.21451	5521.3875
2586.90015	5489.1875
2589.58411	5499.6875
2592.2664	5479.7875
2594.94701	5485.8875
2597.62594	5484.9875
2600.30321	5481.0875
2602.9788	5472.6875
2605.65273	5456.2875
2608.32498	5476.4875
2610.99557	5463.1875
2613.66449	5440.2875
2616.33175	5433.2875
2618.99734	5447.3875
2621.66128	5461.7875
2624.32355	5438.0875
2626.98416	5430.8875
2629.64311	5434.3875
2632.30041	5422.3875
2634.95605	5433.9875
2637.61004	5419.9875
2640.26238	5395.5875
2642.91306	5396.2875
2645.56209	5401.0875
2648.20948	5385.0875
2650.85521	5390.3875
2653.4993	5385.1875
2656.14175	5380.2875
2658.78255	5382.6875
2661.42171	5387.8875
2664.05923	5399.3875
2666.6951	5395.5875
2669.32934	5394.2875
2671.96194	5394.0875
2674.59291	5397.6875
2677.22224	5390.0875
2679.84993	5401.1875
2682.476	5378.7875
2685.10043	5405.6875
2687.72324	5387.6875
2690.34441	5382.7875
2692.96396	5375.7875
2695.58188	5393.2875
2698.19818	5380.3875
2700.81285	5406.2875
2703.4259	5410.5875
2706.03733	5446.6875
2708.64714	5399.9875
2711.25533	5413.9875
2713.86191	5386.4875
2716.46687	5393.9875
2719.07021	5371.5875
2721.67194	5369.5875
2724.27206	5386.4875
2726.87057	5371.5875
2729.46747	5378.4875
2732.06276	5401.6875
2734.65644	5382.0875
2737.24852	5372.3875
2739.83899	5340.2875
2742.42786	5378.4875
2745.01513	5350.4875
2747.60079	5349.2875
2750.18486	5362.2875
2752.76733	5357.9875
2755.3482	5342.9875
2757.92747	5337.7875
2760.50515	5335.1875
2763.08123	5339.0875
2765.65573	5322.9875
2768.22863	5326.5875
2770.79994	5311.8875
2773.36967	5306.6875
2775.9378	5327.5875
2778.50435	5319.0875
2781.06932	5300.3875
2783.6327	5323.7875
2786.1945	5299.7875
2788.75471	5286.3875
2791.31335	5285.4875
2793.87041	5276.2875
2796.42589	5259.8875
2798.97979	5254.8875
2801.53212	5251.6875
2804.08288	5227.9875
2806.63206	5232.4875
2809.17967	5223.3875
2811.72571	5209.5875
2814.27018	5204.1875
2816.81308	5200.6875
2819.35442	5203.0875
2821.89419	5190.0875
2824.43239	5187.4875
2826.96904	5170.1875
2829.50412	5175.1875
2832.03763	5155.9875
2834.56959	5172.0875
2837.1	5165.4875
2839.62884	5162.9875
2842.15613	5172.5875
2844.68186	5179.1875
2847.20604	5188.5875
2849.72867	5174.6875
2852.24974	5180.9875
2854.76927	5181.2875
2857.28724	5177.9875
2859.80367	5171.1875
2862.31855	5144.9875
2864.83189	5146.3875
2867.34368	5136.8875
2869.85393	5150.7875
2872.36264	5129.0875
2874.8698	5134.0875
2877.37543	5128.4875
2879.87952	5130.3875
2882.38207	5132.4875
2884.88308	5136.8875
2887.38256	5135.5875
2889.88051	5113.6875
2892.37692	5119.1875
2894.8718	5143.5875
2897.36515	5138.3875
2899.85698	5138.7875
2902.34727	5139.1875
2904.83604	5138.0875
2907.32328	5144.1875
2909.809	5154.4875
2912.29319	5147.2875
2914.77587	5163.2875
2917.25702	5140.4875
2919.73665	5142.0875
2922.21476	5146.8875
2924.69136	5148.7875
2927.16644	5131.4875
2929.64	5140.4875
2932.11205	5143.4875
2934.58258	5117.9875
2937.05161	5118.3875
2939.51912	5105.2875
2941.98513	5085.4875
2944.44962	5087.2875
2946.91261	5077.1875
2949.37409	5081.9875
2951.83407	5094.7875
2954.29254	5072.0875
2956.74951	5072.1875
2959.20498	5070.9875
2961.65895	5068.6875
2964.11142	5055.6875
2966.56239	5036.3875
2969.01186	5020.3875
2971.45984	4995.5875
2973.90632	4989.4875
2976.35131	4980.5875
2978.7948	4985.3875
2981.23681	4950.5875
2983.67732	4948.5875
2986.11635	4936.8875
2988.55388	4919.9875
2990.98993	4908.3875
2993.4245	4919.4875
2995.85758	4891.6875
2998.28917	4880.5875
3000.71928	4889.7875
3003.14791	4870.8875
3005.57506	4881.5875
3008.00073	4849.5875
3010.42493	4851.2875
3012.84764	4831.9875
3015.26888	4839.1875
3017.68865	4843.0875
3020.10694	4828.4875
3022.52376	4820.9875
3024.9391	4821.4875
3027.35298	4814.9875
3029.76539	4800.9875
3032.17632	4791.3875
3034.5858	4769.3875
3036.9938	4786.5875
3039.40034	4783.5875
3041.80542	4771.3875
3044.20903	4765.0875
3046.61118	4756.9875
3049.01187	4745.6875
3051.4111	4741.0875
3053.80888	4732.0875
3056.20519	4718.1875
3058.60005	4712.4875
3060.99345	4713.1875
3063.3854	4692.1875
3065.7759	4677.8875
3068.16494	4682.1875
3070.55254	4652.8875
3072.93868	4663.2875
3075.32338	4638.5875
3077.70662	4636.8875
3080.08842	4634.3875
