Data from AgNPs_FTO_APTES_UA_0um_CRN_0.1mM_R6G_10uM_NaF_0.1M_Addition_RamanShift__21__10-35-48-916.txt Node

Date: Tue Dec 21 10:35:48 GMT 2021
User: TCL
Spectrometer: QEP01345
Trigger mode: 4
Integration Time (sec): 7.000000E0
Scans to average: 10
Electric dark correction enabled: true
Nonlinearity correction enabled: false
Boxcar width: 0
XAxis mode: Raman Shifts
Number of Pixels in Spectrum: 1044
>>>>>Begin Spectral Data<<<<<
46.04893	1.25
50.45542	-1.05
54.85868	-1.35
59.25871	0.95
63.6555	17.25
68.04907	22.55
72.43941	24.95
76.82654	24.35
81.21044	26.75
85.59113	30.65
89.96862	29.35
94.34289	31.25
98.71396	27.25
103.08183	33.75
107.4465	31.65
111.80798	33.35
116.16626	30.45
120.52136	32.95
124.87327	32.05
129.222	29.45
133.56755	34.85
137.90993	38.85
142.24913	37.25
146.58517	42.75
150.91804	45.35
155.24774	50.25
159.57429	60.85
163.89768	77.55
168.21792	93.25
172.53501	121.55
176.84895	160.65
181.15975	215.55
185.46741	294.65
189.77193	400.35
194.07331	555.05
198.37157	732.55
202.6667	937.85
206.9587	1150.25
211.24758	1369.55
215.53334	1588.65
219.81599	1807.95
224.09553	2031.25
228.37195	2251.95
232.64527	2470.35
236.91549	2653.65
241.18261	2820.55
245.44663	2953.85
249.70755	3061.45
253.96539	3131.05
258.22014	3177.95
262.4718	3193.95
266.72039	3163.45
270.96589	3089.55
275.20832	3006.25
279.44768	2904.95
283.68397	2819.45
287.91719	2731.15
292.14735	2653.55
296.37445	2612.55
300.59849	2605.85
304.81948	2604.45
309.03742	2616.45
313.25231	2602.55
317.46415	2544.85
321.67296	2482.95
325.87872	2417.45
330.08145	2401.35
334.28114	2399.35
338.47781	2426.75
342.67145	2462.35
346.86207	2494.95
351.04966	2549.25
355.23424	2611.35
359.4158	2668.05
363.59435	2690.85
367.76989	2725.35
371.94243	2734.85
376.11196	2737.95
380.27849	2747.55
384.44203	2746.45
388.60257	2741.45
392.76012	2735.45
396.91468	2753.05
401.06626	2759.25
405.21485	2789.25
409.36047	2796.75
413.50311	2743.85
417.64277	2703.85
421.77947	2691.55
425.9132	2686.55
430.04396	2706.85
434.17176	2755.05
438.2966	2801.65
442.41849	2872.45
446.53742	2938.65
450.6534	3027.85
454.76644	3078.05
458.87653	3072.85
462.98368	3039.85
467.08789	2971.15
471.18916	2927.45
475.2875	2879.95
479.38291	2832.55
483.4754	2796.25
487.56496	2791.65
491.6516	2765.05
495.73531	2770.95
499.81612	2776.55
503.89401	2781.95
507.96899	2792.95
512.04106	2776.05
516.11023	2779.35
520.1765	2792.75
524.23987	2801.95
528.30034	2782.45
532.35792	2768.75
536.41261	2752.65
540.46441	2732.15
544.51333	2727.75
548.55936	2742.25
552.60252	2733.95
556.64279	2759.05
560.6802	2790.75
564.71473	2804.65
568.7464	2853.75
572.7752	2912.75
576.80114	2913.95
580.82422	2871.05
584.84444	2832.85
588.86181	2844.25
592.87633	2918.25
596.888	2970.15
600.89682	3023.45
604.9028	3111.55
608.90594	3376.35
612.90624	3792.95
616.90371	3785.05
620.89834	3275.15
624.89015	2957.85
628.87913	2889.15
632.86528	2919.75
636.84862	2974.55
640.82913	3027.45
644.80683	3066.25
648.78172	3092.95
652.75379	3100.85
656.72306	3064.35
660.68952	3018.35
664.65319	2980.35
668.61405	2983.35
672.57211	3072.35
676.52738	3217.85
680.47986	3368.15
684.42955	3410.25
688.37646	3327.25
692.32058	3216.25
696.26192	3179.65
700.20048	3166.15
704.13626	3165.95
708.06928	3091.95
711.99952	3003.75
715.927	2938.75
719.85171	2908.95
723.77365	2898.35
727.69284	2907.85
731.60928	2899.75
735.52295	2897.95
739.43388	2897.65
743.34206	2879.15
747.24749	2893.75
751.15017	2909.95
755.05012	2931.45
758.94733	2972.35
762.8418	3022.95
766.73354	3102.05
770.62254	3245.25
774.50882	3299.75
778.39237	3230.35
782.27321	3062.25
786.15132	2871.75
790.02671	2783.75
793.89938	2722.85
797.76935	2719.95
801.6366	2717.05
805.50115	2721.25
809.36299	2724.85
813.22213	2680.85
817.07857	2665.75
820.93231	2662.35
824.78336	2644.65
828.63172	2634.35
832.47738	2635.75
836.32036	2638.85
840.16066	2626.65
843.99827	2633.15
847.8332	2645.15
851.66546	2669.95
855.49504	2709.85
859.32195	2792.65
863.1462	2871.45
866.96777	2878.95
870.78668	2829.15
874.60293	2749.85
878.41652	2690.75
882.22745	2681.75
886.03573	2641.15
889.84136	2638.65
893.64433	2602.05
897.44466	2597.25
901.24235	2597.05
905.0374	2600.75
908.8298	2591.25
912.61957	2615.45
916.40671	2659.85
920.19121	2746.95
923.97308	2865.35
927.75233	2987.85
931.52895	3056.65
935.30295	3077.75
939.07433	3008.75
942.84309	2889.85
946.60924	2777.25
950.37278	2672.05
954.13371	2610.25
957.89203	2581.35
961.64774	2538.55
965.40086	2527.95
969.15137	2505.35
972.89929	2487.25
976.64461	2466.05
980.38733	2459.15
984.12747	2434.55
987.86502	2439.65
991.59999	2420.75
995.33237	2418.75
999.06217	2440.05
1002.78939	2460.55
1006.51404	2471.15
1010.23611	2496.65
1013.95561	2493.55
1017.67255	2504.45
1021.38692	2494.75
1025.09872	2483.75
1028.80796	2470.55
1032.51465	2484.25
1036.21877	2499.55
1039.92035	2512.55
1043.61937	2528.35
1047.31584	2557.35
1051.00976	2572.95
1054.70114	2585.45
1058.38998	2542.15
1062.07627	2505.05
1065.76003	2481.25
1069.44126	2432.75
1073.11995	2413.95
1076.79611	2405.55
1080.46974	2411.45
1084.14085	2415.95
1087.80943	2429.35
1091.47549	2438.15
1095.13903	2428.55
1098.80005	2407.45
1102.45857	2371.25
1106.11456	2362.85
1109.76805	2366.85
1113.41903	2406.15
1117.06751	2442.35
1120.71348	2478.05
1124.35696	2535.95
1127.99793	2575.35
1131.63641	2605.15
1135.2724	2563.65
1138.90589	2515.35
1142.5369	2482.45
1146.16542	2466.95
1149.79145	2440.55
1153.415	2429.45
1157.03607	2404.65
1160.65467	2406.95
1164.27079	2431.35
1167.88443	2483.95
1171.49561	2532.65
1175.10432	2660.25
1178.71056	2827.65
1182.31434	2968.65
1185.91565	3018.05
1189.51451	2955.65
1193.11091	2861.55
1196.70485	2755.55
1200.29634	2674.75
1203.88538	2624.45
1207.47197	2565.25
1211.05612	2511.55
1214.63782	2461.35
1218.21708	2479.05
1221.79391	2481.25
1225.36829	2491.85
1228.94024	2500.05
1232.50976	2493.65
1236.07685	2489.75
1239.6415	2492.55
1243.20374	2505.15
1246.76355	2519.55
1250.32093	2540.15
1253.8759	2562.35
1257.42845	2604.25
1260.97859	2635.25
1264.52631	2668.25
1268.07163	2709.15
1271.61453	2716.55
1275.15503	2732.65
1278.69312	2725.05
1282.22882	2721.65
1285.76211	2756.05
1289.29301	2786.75
1292.82151	2841.05
1296.34761	2900.35
1299.87133	2962.95
1303.39266	3065.65
1306.9116	3221.95
1310.42815	3437.55
1313.94233	3589.05
1317.45412	3599.45
1320.96354	3456.15
1324.47058	3266.65
1327.97525	3108.25
1331.47754	3028.35
1334.97747	3041.65
1338.47502	3112.85
1341.97022	3182.95
1345.46305	3267.45
1348.95352	3397.55
1352.44163	3594.75
1355.92738	3827.45
1359.41078	4150.85
1362.89183	4475.55
1366.37053	4512.65
1369.84688	4152.35
1373.32088	3667.45
1376.79254	3337.55
1380.26186	3153.95
1383.72883	3059.45
1387.19347	2981.15
1390.65578	2907.05
1394.11575	2875.35
1397.57339	2867.35
1401.0287	2913.05
1404.48168	2955.25
1407.93234	3013.45
1411.38068	3094.15
1414.82669	3189.05
1418.27039	3290.95
1421.71177	3371.75
1425.15083	3405.65
1428.58758	3392.95
1432.02203	3371.65
1435.45416	3332.65
1438.88399	3249.55
1442.31151	3170.15
1445.73673	3090.85
1449.15965	3045.35
1452.58027	2985.55
1455.9986	2907.95
1459.41463	2854.85
1462.82837	2826.05
1466.23982	2814.05
1469.64898	2829.85
1473.05586	2833.95
1476.46045	2818.35
1479.86276	2809.25
1483.26279	2799.55
1486.66054	2792.15
1490.05602	2782.15
1493.44922	2770.95
1496.84016	2789.25
1500.22882	2860.25
1503.61521	2974.85
1506.99934	3159.85
1510.38121	3363.25
1513.76081	3487.35
1517.13816	3419.85
1520.51324	3166.85
1523.88607	2921.25
1527.25665	2760.65
1530.62498	2662.25
1533.99105	2632.35
1537.35488	2595.85
1540.71647	2598.25
1544.07581	2596.65
1547.4329	2596.75
1550.78776	2595.45
1554.14038	2612.75
1557.49077	2602.45
1560.83892	2607.85
1564.18484	2631.15
1567.52853	2659.35
1570.86999	2685.95
1574.20922	2709.85
1577.54624	2704.25
1580.88103	2637.75
1584.2136	2557.55
1587.54395	2495.95
1590.87208	2479.65
1594.19801	2541.75
1597.52172	2630.55
1600.84321	2724.75
1604.16251	2730.05
1607.47959	2637.35
1610.79447	2530.55
1614.10715	2423.35
1617.41763	2356.75
1620.7259	2343.65
1624.03199	2334.75
1627.33587	2352.85
1630.63757	2386.85
1633.93707	2409.95
1637.23439	2496.45
1640.52951	2609.35
1643.82246	2780.95
1647.11321	2970.65
1650.40179	3109.45
1653.68819	3062.95
1656.97241	2851.85
1660.25446	2598.05
1663.53433	2420.75
1666.81203	2318.85
1670.08756	2228.45
1673.36092	2174.35
1676.63211	2126.35
1679.90115	2063.25
1683.16801	1992.25
1686.43272	1943.95
1689.69527	1890.05
1692.95567	1845.95
1696.2139	1814.95
1699.46999	1797.95
1702.72392	1780.75
1705.97571	1794.75
1709.22535	1812.05
1712.47284	1844.15
1715.71819	1865.35
1718.96139	1884.25
1722.20246	1886.45
1725.44139	1876.15
1728.67818	1850.35
1731.91284	1835.05
1735.14537	1805.15
1738.37576	1793.25
1741.60403	1773.75
1744.83017	1766.75
1748.05418	1773.35
1751.27607	1756.15
1754.49584	1757.05
1757.71349	1702.95
1760.92903	1646.65
1764.14244	1595.65
1767.35375	1559.15
1770.56294	1510.95
1773.77002	1487.65
1776.97499	1478.35
1780.17785	1460.75
1783.37861	1461.05
1786.57727	1443.25
1789.77382	1435.25
1792.96828	1419.15
1796.16064	1404.55
1799.3509	1396.15
1802.53907	1395.55
1805.72514	1375.45
1808.90913	1379.45
1812.09102	1370.15
1815.27083	1360.95
1818.44856	1351.35
1821.6242	1348.25
1824.79776	1338.85
1827.96924	1339.85
1831.13864	1335.55
1834.30597	1334.45
1837.47122	1330.95
1840.6344	1319.45
1843.7955	1329.75
1846.95454	1318.95
1850.11151	1313.85
1853.26642	1311.05
1856.41926	1312.15
1859.57004	1307.25
1862.71876	1305.35
1865.86542	1303.15
1869.01003	1299.05
1872.15258	1301.65
1875.29308	1290.55
1878.43152	1290.25
1881.56792	1283.45
1884.70227	1274.25
1887.83457	1283.45
1890.96482	1274.85
1894.09304	1270.85
1897.21921	1269.95
1900.34335	1261.25
1903.46544	1260.05
1906.58551	1261.85
1909.70353	1263.85
1912.81953	1255.75
1915.93349	1255.05
1919.04543	1256.95
1922.15534	1242.35
1925.26322	1248.15
1928.36908	1244.45
1931.47292	1240.05
1934.57473	1227.75
1937.67453	1227.55
1940.77232	1211.15
1943.86808	1220.55
1946.96184	1216.05
1950.05358	1208.15
1953.14331	1198.95
1956.23103	1195.65
1959.31675	1191.85
1962.40046	1193.05
1965.48217	1177.95
1968.56188	1172.95
1971.63959	1172.55
1974.7153	1179.15
1977.78901	1165.45
1980.86073	1158.95
1983.93046	1149.85
1986.99819	1148.45
1990.06394	1148.95
1993.1277	1146.15
1996.18947	1137.15
1999.24925	1141.75
2002.30706	1138.85
2005.36288	1128.05
2008.41672	1121.05
2011.46859	1121.95
2014.51848	1113.95
2017.56639	1117.65
2020.61233	1101.85
2023.6563	1111.25
2026.6983	1099.15
2029.73833	1106.25
2032.7764	1086.75
2035.8125	1087.45
2038.84664	1085.45
2041.87881	1081.45
2044.90903	1079.95
2047.93729	1073.45
2050.96359	1085.45
2053.98794	1071.65
2057.01034	1079.55
2060.03078	1080.55
2063.04927	1071.45
2066.06582	1071.85
2069.08042	1071.15
2072.09307	1069.15
2075.10378	1058.75
2078.11255	1066.75
2081.11938	1071.15
2084.12426	1071.25
2087.12722	1071.25
2090.12824	1068.55
2093.12732	1072.25
2096.12447	1072.75
2099.11969	1072.55
2102.11299	1070.45
2105.10435	1074.05
2108.09379	1070.85
2111.08131	1075.25
2114.0669	1058.45
2117.05057	1056.85
2120.03233	1062.35
2123.01216	1059.05
2125.99008	1054.85
2128.96609	1044.45
2131.94018	1040.85
2134.91236	1046.35
2137.88263	1037.75
2140.851	1034.55
2143.81746	1038.75
2146.78201	1033.45
2149.74466	1032.75
2152.7054	1034.45
2155.66425	1031.65
2158.6212	1030.65
2161.57625	1033.75
2164.52941	1032.85
2167.48067	1033.45
2170.43004	1027.95
2173.37752	1024.15
2176.32311	1017.55
2179.26681	1021.45
2182.20863	1018.55
2185.14856	1014.85
2188.08661	1019.25
2191.02278	1007.65
2193.95707	1009.35
2196.88948	1017.25
2199.82001	1014.45
2202.74867	1008.05
2205.67545	1009.85
2208.60037	1009.35
2211.52341	1004.35
2214.44458	991.35
2217.36388	985.45
2220.28132	993.85
2223.1969	980.85
2226.11061	987.05
2229.02246	975.45
2231.93245	973.15
2234.84058	976.15
2237.74686	973.15
2240.65128	962.95
2243.55385	965.75
2246.45456	970.05
2249.35343	951.65
2252.25044	966.05
2255.14561	959.65
2258.03893	961.35
2260.93041	953.25
2263.82004	952.65
2266.70783	952.55
2269.59378	939.25
2272.4779	941.25
2275.36017	939.15
2278.24061	935.65
2281.11922	935.25
2283.996	927.25
2286.87094	927.95
2289.74405	917.55
2292.61534	919.75
2295.4848	922.85
2298.35243	917.55
2301.21824	911.85
2304.08223	906.25
2306.94439	915.65
2309.80474	908.65
2312.66327	914.15
2315.51999	908.35
2318.37489	903.35
2321.22797	899.15
2324.07925	903.45
2326.92871	901.95
2329.77637	901.55
2332.62222	897.95
2335.46626	893.85
2338.3085	889.55
2341.14893	896.55
2343.98756	885.15
2346.8244	888.15
2349.65943	882.45
2352.49267	890.55
2355.32411	881.55
2358.15376	889.25
2360.98161	875.45
2363.80768	881.25
2366.63195	880.25
2369.45444	882.95
2372.27514	883.15
2375.09405	879.55
2377.91118	871.35
2380.72652	862.95
2383.54009	868.45
2386.35187	870.75
2389.16188	865.85
2391.97011	854.85
2394.77657	859.65
2397.58125	854.45
2400.38416	849.85
2403.18529	851.35
2405.98466	849.65
2408.78226	844.55
2411.57809	845.15
2414.37216	846.15
2417.16446	844.65
2419.955	837.45
2422.74378	843.55
2425.5308	835.75
2428.31606	833.75
2431.09956	831.15
2433.88131	828.45
2436.6613	831.25
2439.43954	824.55
2442.21603	817.85
2444.99077	821.35
2447.76377	825.35
2450.53501	815.15
2453.30451	819.25
2456.07226	816.85
2458.83827	818.15
2461.60254	811.75
2464.36507	811.95
2467.12586	810.05
2469.88492	811.95
2472.64224	809.45
2475.39782	803.95
2478.15167	809.15
2480.90379	803.35
2483.65417	808.75
2486.40283	801.15
2489.14976	809.75
2491.89497	798.65
2494.63845	803.15
2497.3802	795.35
2500.12024	799.85
2502.85855	799.55
2505.59514	795.65
2508.33002	791.85
2511.06318	792.25
2513.79462	785.45
2516.52435	789.65
2519.25237	784.45
2521.97867	777.85
2524.70327	777.55
2527.42616	778.35
2530.14734	767.45
2532.86681	775.65
2535.58458	766.85
2538.30065	766.65
2541.01501	762.75
2543.72768	767.05
2546.43864	766.65
2549.14791	766.35
2551.85548	761.95
2554.56136	764.75
2557.26554	751.85
2559.96803	755.95
2562.66883	755.05
2565.36794	754.15
2568.06536	752.15
2570.7611	748.85
2573.45514	752.25
2576.14751	747.05
2578.83819	736.45
2581.52719	747.15
2584.21451	741.25
2586.90015	746.15
2589.58411	743.95
2592.2664	735.35
2594.94701	733.15
2597.62594	735.05
2600.30321	734.15
2602.9788	722.25
2605.65273	724.45
2608.32498	730.95
2610.99557	720.95
2613.66449	726.65
2616.33175	717.25
2618.99734	723.65
2621.66128	721.35
2624.32355	711.95
2626.98416	716.15
2629.64311	719.85
2632.30041	709.15
2634.95605	717.85
2637.61004	718.15
2640.26238	715.45
2642.91306	711.55
2645.56209	707.35
2648.20948	709.85
2650.85521	710.25
2653.4993	706.45
2656.14175	705.45
2658.78255	706.55
2661.42171	716.05
2664.05923	710.85
2666.6951	713.85
2669.32934	713.95
2671.96194	712.65
2674.59291	711.65
2677.22224	715.25
2679.84993	717.25
2682.476	710.65
2685.10043	717.15
2687.72324	709.75
2690.34441	710.85
2692.96396	713.35
2695.58188	711.75
2698.19818	710.25
2700.81285	715.55
2703.4259	718.15
2706.03733	722.45
2708.64714	711.45
2711.25533	716.15
2713.86191	714.05
2716.46687	719.25
2719.07021	724.85
2721.67194	719.25
2724.27206	715.25
2726.87057	714.45
2729.46747	724.85
2732.06276	722.35
2734.65644	727.95
2737.24852	720.65
2739.83899	724.25
2742.42786	727.15
2745.01513	723.05
2747.60079	721.45
2750.18486	732.25
2752.76733	726.75
2755.3482	727.55
2757.92747	722.85
2760.50515	728.25
2763.08123	734.65
2765.65573	732.85
2768.22863	733.15
2770.79994	735.25
2773.36967	749.85
2775.9378	747.15
2778.50435	749.15
2781.06932	746.55
2783.6327	752.35
2786.1945	755.15
2788.75471	758.05
2791.31335	758.75
2793.87041	762.05
2796.42589	769.85
2798.97979	777.35
2801.53212	782.85
2804.08288	796.45
2806.63206	796.45
2809.17967	804.05
2811.72571	816.15
2814.27018	825.65
2816.81308	826.15
2819.35442	836.45
2821.89419	830.65
2824.43239	841.55
2826.96904	850.75
2829.50412	851.65
2832.03763	857.15
2834.56959	859.25
2837.1	862.75
2839.62884	876.05
2842.15613	876.35
2844.68186	890.95
2847.20604	892.55
2849.72867	902.75
2852.24974	904.85
2854.76927	903.75
2857.28724	919.85
2859.80367	910.25
2862.31855	913.95
2864.83189	924.85
2867.34368	936.45
2869.85393	949.95
2872.36264	957.35
2874.8698	971.25
2877.37543	985.85
2879.87952	1004.75
2882.38207	1021.95
2884.88308	1041.05
2887.38256	1054.55
2889.88051	1077.55
2892.37692	1086.15
2894.8718	1107.05
2897.36515	1122.85
2899.85698	1140.35
2902.34727	1157.85
2904.83604	1180.85
2907.32328	1190.25
2909.809	1208.15
2912.29319	1220.55
2914.77587	1234.45
2917.25702	1245.45
2919.73665	1252.55
2922.21476	1255.75
2924.69136	1254.45
2927.16644	1255.85
2929.64	1258.25
2932.11205	1251.05
2934.58258	1233.55
2937.05161	1228.85
2939.51912	1225.25
2941.98513	1195.75
2944.44962	1174.95
2946.91261	1160.05
2949.37409	1133.35
2951.83407	1121.05
2954.29254	1092.25
2956.74951	1073.75
2959.20498	1047.25
2961.65895	1017.05
2964.11142	1000.75
2966.56239	967.85
2969.01186	947.35
2971.45984	937.95
2973.90632	910.05
2976.35131	889.45
2978.7948	876.65
2981.23681	869.85
2983.67732	854.65
2986.11635	851.85
2988.55388	836.95
2990.98993	832.85
2993.4245	828.55
2995.85758	820.65
2998.28917	812.55
3000.71928	816.75
3003.14791	808.25
3005.57506	817.95
3008.00073	809.25
3010.42493	800.45
3012.84764	797.95
3015.26888	795.45
3017.68865	787.85
3020.10694	773.95
3022.52376	771.05
3024.9391	764.15
3027.35298	757.45
3029.76539	747.65
3032.17632	737.15
3034.5858	728.05
3036.9938	727.85
3039.40034	721.15
3041.80542	705.25
3044.20903	704.45
3046.61118	702.45
3049.01187	693.75
3051.4111	689.55
3053.80888	689.75
3056.20519	687.15
3058.60005	688.95
3060.99345	687.25
3063.3854	681.05
3065.7759	679.65
3068.16494	679.85
3070.55254	671.35
3072.93868	673.85
3075.32338	677.55
3077.70662	676.35
3080.08842	677.95
3082.46878	682.55
3084.84769	678.85
3087.22515	685.65
3089.60118	689.25
3091.97576	683.85
3094.3489	690.65
3096.72061	690.95
3099.09087	702.75
3101.4597	701.55
3103.82709	706.05
3106.19305	708.35
3108.55757	700.95
3110.92066	709.55
3113.28232	704.75
3115.64255	704.35
3118.00134	709.35
3120.35871	714.75
3122.71466	714.05
3125.06917	720.85
3127.42226	722.85
3129.77393	731.25
3132.12417	735.85
3134.47299	732.55
3136.82039	739.95
3139.16636	739.65
3141.51092	744.35
3143.85406	755.85
3146.19579	756.25
3148.53609	752.75
3150.87499	759.35
3153.21246	769.65
3155.54853	776.35
3157.88318	777.55
3160.21642	784.65
3162.54826	786.45
3164.87868	787.75
3167.2077	791.25
3169.5353	803.65
3171.86151	801.65
3174.18631	804.05
3176.5097	807.35
3178.83169	822.35
3181.15228	825.75
3183.47147	823.25
3185.78926	824.95
3188.10565	822.55
3190.42065	821.35
3192.73424	835.55
3195.04645	835.55
3197.35725	842.05
3199.66667	849.05
3201.97469	846.95
3204.28132	849.85
3206.58656	863.55
3208.8904	856.25
3211.19287	859.45
3213.49394	863.05
3215.79363	861.65
3218.09193	864.65
3220.38884	865.65
3222.68438	874.55
3224.97853	872.05
3227.2713	872.45
3229.56269	880.65
3231.8527	883.15
3234.14133	874.95
3236.42858	876.45
3238.71446	883.35
3240.99896	878.85
3243.28209	882.15
3245.56384	880.65
3247.84423	884.95
3250.12324	882.85
3252.40088	882.85
3254.67715	882.35
3256.95205	882.65
3259.22558	883.45
3261.49775	893.65
3263.76855	883.35
3266.03799	884.35
3268.30606	885.25
3270.57277	876.85
3272.83812	877.25
3275.10211	880.45
3277.36474	876.25
3279.62601	884.35
3281.88593	892.05
3284.14448	889.95
3286.40168	895.45
3288.65753	885.05
3290.91202	885.45
3293.16516	887.65
3295.41695	887.45
3297.66738	884.85
3299.91647	879.55
3302.16421	872.15
3304.4106	871.55
3306.65564	870.95
3308.89933	863.35
3311.14169	870.85
3313.38269	856.85
3315.62236	856.95
3317.86068	853.95
3320.09766	848.75
3322.3333	843.65
3324.5676	843.95
3326.80056	830.85
3329.03219	829.95
3331.26248	1.55
3333.49143	0.35
3335.71905	-0.55
