Data from AgNPs_FTO_APTES_UA_0um_CRN_0.1mM_R6G_10uM_NaF_0.1M_Addition_RamanShift__40__10-57-58-942.txt Node

Date: Tue Dec 21 10:57:58 GMT 2021
User: TCL
Spectrometer: QEP01345
Trigger mode: 4
Integration Time (sec): 7.000000E0
Scans to average: 10
Electric dark correction enabled: true
Nonlinearity correction enabled: false
Boxcar width: 0
XAxis mode: Raman Shifts
Number of Pixels in Spectrum: 1044
>>>>>Begin Spectral Data<<<<<
46.04893	-0.5875
50.45542	-0.3875
54.85868	0.0125
59.25871	0.4125
63.6555	43.0125
68.04907	50.6125
72.43941	52.3125
76.82654	52.7125
81.21044	56.5125
85.59113	59.3125
89.96862	60.0125
94.34289	60.9125
98.71396	60.7125
103.08183	66.8125
107.4465	70.6125
111.80798	71.1125
116.16626	72.1125
120.52136	72.6125
124.87327	75.3125
129.222	78.1125
133.56755	86.9125
137.90993	94.2125
142.24913	97.2125
146.58517	114.8125
150.91804	131.9125
155.24774	155.2125
159.57429	195.6125
163.89768	248.7125
168.21792	332.6125
172.53501	451.8125
176.84895	623.3125
181.15975	874.9125
185.46741	1230.5125
189.77193	1679.1125
194.07331	2244.0125
198.37157	2868.6125
202.6667	3544.3125
206.9587	4209.5125
211.24758	4874.1125
215.53334	5539.2125
219.81599	6253.7125
224.09553	7054.0125
228.37195	7897.8125
232.64527	8870.7125
236.91549	9815.5125
241.18261	10773.6125
245.44663	11613.7125
249.70755	12357.1125
253.96539	12943.6125
258.22014	13439.5125
262.4718	13854.6125
266.72039	14103.3125
270.96589	14186.8125
275.20832	14119.7125
279.44768	13973.5125
283.68397	13804.2125
287.91719	13700.1125
292.14735	13649.0125
296.37445	13610.4125
300.59849	13683.8125
304.81948	13800.5125
309.03742	13934.5125
313.25231	13995.8125
317.46415	13959.9125
321.67296	13853.1125
325.87872	13723.7125
330.08145	13611.2125
334.28114	13563.5125
338.47781	13566.0125
342.67145	13660.1125
346.86207	13891.1125
351.04966	14153.5125
355.23424	14344.4125
359.4158	14517.9125
363.59435	14570.7125
367.76989	14580.9125
371.94243	14545.5125
376.11196	14485.6125
380.27849	14551.7125
384.44203	14623.2125
388.60257	14780.5125
392.76012	14928.4125
396.91468	15089.5125
401.06626	15301.1125
405.21485	15459.3125
409.36047	15433.5125
413.50311	15355.2125
417.64277	15495.3125
421.77947	15745.8125
425.9132	15942.5125
430.04396	16074.0125
434.17176	16199.4125
438.2966	16343.5125
442.41849	16834.8125
446.53742	17628.4125
450.6534	18469.3125
454.76644	18823.2125
458.87653	18599.7125
462.98368	18088.8125
467.08789	17471.3125
471.18916	16826.9125
475.2875	16206.0125
479.38291	15745.9125
483.4754	15547.2125
487.56496	15402.5125
491.6516	15173.1125
495.73531	14945.8125
499.81612	14888.3125
503.89401	14974.6125
507.96899	15048.6125
512.04106	14855.7125
516.11023	14546.8125
520.1765	14213.5125
524.23987	14072.6125
528.30034	14076.3125
532.35792	14033.3125
536.41261	13772.9125
540.46441	13426.9125
544.51333	13324.4125
548.55936	13416.0125
552.60252	13899.7125
556.64279	14638.8125
560.6802	15291.5125
564.71473	15482.7125
568.7464	15628.9125
572.7752	16233.0125
576.80114	17157.8125
580.82422	18312.8125
584.84444	20173.1125
588.86181	23018.2125
592.87633	26129.0125
596.888	26815.6125
600.89682	23801.0125
604.9028	20501.7125
608.90594	19613.2125
612.90624	19901.5125
616.90371	18325.0125
620.89834	15288.4125
624.89015	13848.2125
628.87913	13746.4125
632.86528	13890.2125
636.84862	13765.5125
640.82913	13276.8125
644.80683	12853.2125
648.78172	12705.4125
652.75379	12764.8125
656.72306	12955.4125
660.68952	13053.0125
664.65319	12872.9125
668.61405	12549.8125
672.57211	12491.6125
676.52738	12685.9125
680.47986	12715.4125
684.42955	12540.6125
688.37646	12356.5125
692.32058	12441.8125
696.26192	12758.2125
700.20048	13122.0125
704.13626	13369.2125
708.06928	13482.5125
711.99952	13508.2125
715.927	13583.0125
719.85171	13707.0125
723.77365	13555.1125
727.69284	13193.8125
731.60928	12870.0125
735.52295	12813.7125
739.43388	12866.3125
743.34206	12999.8125
747.24749	13130.1125
751.15017	13377.5125
755.05012	13731.3125
758.94733	14263.2125
762.8418	15144.4125
766.73354	16364.7125
770.62254	17404.1125
774.50882	17301.2125
778.39237	16147.4125
782.27321	14873.5125
786.15132	13839.7125
790.02671	13217.7125
793.89938	12883.2125
797.76935	12763.2125
801.6366	12680.1125
805.50115	12691.6125
809.36299	12601.4125
813.22213	12468.0125
817.07857	12329.3125
820.93231	12155.8125
824.78336	12009.1125
828.63172	11877.8125
832.47738	11830.6125
836.32036	11858.1125
840.16066	11878.0125
843.99827	11906.2125
847.8332	11877.1125
851.66546	11871.1125
855.49504	11897.6125
859.32195	11881.9125
863.1462	11804.6125
866.96777	11723.6125
870.78668	11655.2125
874.60293	11684.5125
878.41652	11701.2125
882.22745	11776.5125
886.03573	11778.6125
889.84136	11785.4125
893.64433	11708.2125
897.44466	11630.5125
901.24235	11622.1125
905.0374	11558.5125
908.8298	11546.5125
912.61957	11542.2125
916.40671	11685.3125
920.19121	11957.6125
923.97308	12304.7125
927.75233	12442.8125
931.52895	12245.1125
935.30295	11799.5125
939.07433	11341.2125
942.84309	11070.1125
946.60924	10936.7125
950.37278	10905.2125
954.13371	10950.7125
957.89203	10949.0125
961.64774	10949.9125
965.40086	10980.5125
969.15137	10949.0125
972.89929	10806.6125
976.64461	10712.0125
980.38733	10653.5125
984.12747	10655.9125
987.86502	10712.3125
991.59999	10800.5125
995.33237	10930.5125
999.06217	11232.7125
1002.78939	11647.5125
1006.51404	12102.4125
1010.23611	12504.4125
1013.95561	12835.5125
1017.67255	13026.6125
1021.38692	12824.0125
1025.09872	12271.7125
1028.80796	11844.4125
1032.51465	11688.6125
1036.21877	11740.7125
1039.92035	11804.1125
1043.61937	11856.9125
1047.31584	11855.0125
1051.00976	11816.0125
1054.70114	11842.2125
1058.38998	11852.8125
1062.07627	11909.7125
1065.76003	12068.9125
1069.44126	12302.9125
1073.11995	12657.1125
1076.79611	12985.8125
1080.46974	13105.1125
1084.14085	13245.7125
1087.80943	13512.3125
1091.47549	13768.3125
1095.13903	13840.1125
1098.80005	13481.0125
1102.45857	12865.6125
1106.11456	12478.9125
1109.76805	12356.1125
1113.41903	12386.3125
1117.06751	12546.5125
1120.71348	12755.7125
1124.35696	12925.6125
1127.99793	13126.2125
1131.63641	13274.4125
1135.2724	13329.5125
1138.90589	13377.9125
1142.5369	13539.7125
1146.16542	13863.9125
1149.79145	14174.3125
1153.415	14409.2125
1157.03607	14735.3125
1160.65467	15563.2125
1164.27079	16867.3125
1167.88443	18411.6125
1171.49561	19964.2125
1175.10432	21786.4125
1178.71056	24138.9125
1182.31434	26069.6125
1185.91565	26367.1125
1189.51451	25056.0125
1193.11091	23458.0125
1196.70485	22259.4125
1200.29634	21222.7125
1203.88538	20581.2125
1207.47197	20412.0125
1211.05612	20363.7125
1214.63782	19956.4125
1218.21708	19303.1125
1221.79391	18748.3125
1225.36829	18626.3125
1228.94024	18572.1125
1232.50976	18139.9125
1236.07685	17288.9125
1239.6415	16551.9125
1243.20374	16313.8125
1246.76355	16322.7125
1250.32093	16606.1125
1253.8759	17108.1125
1257.42845	17811.4125
1260.97859	18519.9125
1264.52631	19275.9125
1268.07163	19976.7125
1271.61453	20699.5125
1275.15503	21523.5125
1278.69312	22686.3125
1282.22882	24146.0125
1285.76211	26112.2125
1289.29301	28349.2125
1292.82151	30679.4125
1296.34761	33319.4125
1299.87133	36339.0125
1303.39266	39241.1125
1306.9116	41531.8125
1310.42815	43142.9125
1313.94233	44035.2125
1317.45412	43306.0125
1320.96354	41344.0125
1324.47058	39326.9125
1327.97525	37848.8125
1331.47754	36798.9125
1334.97747	35782.5125
1338.47502	34595.7125
1341.97022	32957.9125
1345.46305	31495.1125
1348.95352	30768.5125
1352.44163	31573.6125
1355.92738	34108.0125
1359.41078	37683.8125
1362.89183	40612.4125
1366.37053	41346.4125
1369.84688	38332.7125
1373.32088	32437.3125
1376.79254	27787.0125
1380.26186	26315.7125
1383.72883	26554.0125
1387.19347	26599.3125
1390.65578	26031.5125
1394.11575	25939.7125
1397.57339	26718.4125
1401.0287	27818.1125
1404.48168	28566.6125
1407.93234	28438.7125
1411.38068	27587.9125
1414.82669	26323.7125
1418.27039	24954.7125
1421.71177	23467.6125
1425.15083	22172.6125
1428.58758	21515.3125
1432.02203	21849.6125
1435.45416	22902.9125
1438.88399	24049.0125
1442.31151	24678.3125
1445.73673	24981.0125
1449.15965	25039.8125
1452.58027	24754.0125
1455.9986	24182.2125
1459.41463	23831.4125
1462.82837	24093.7125
1466.23982	24817.0125
1469.64898	25824.6125
1473.05586	26403.2125
1476.46045	26758.0125
1479.86276	26846.9125
1483.26279	26647.9125
1486.66054	26487.2125
1490.05602	26617.4125
1493.44922	26893.8125
1496.84016	26856.7125
1500.22882	26541.3125
1503.61521	26200.1125
1506.99934	26040.6125
1510.38121	26007.9125
1513.76081	25999.6125
1517.13816	25846.6125
1520.51324	25739.1125
1523.88607	26056.6125
1527.25665	26746.8125
1530.62498	27323.1125
1533.99105	27352.5125
1537.35488	26745.5125
1540.71647	25654.6125
1544.07581	24279.6125
1547.4329	22901.2125
1550.78776	21690.1125
1554.14038	20764.7125
1557.49077	20145.3125
1560.83892	19787.1125
1564.18484	19701.2125
1567.52853	19726.9125
1570.86999	20118.8125
1574.20922	20723.5125
1577.54624	21425.4125
1580.88103	21829.7125
1584.2136	22472.9125
1587.54395	23956.5125
1590.87208	26370.4125
1594.19801	29443.0125
1597.52172	32293.6125
1600.84321	33339.9125
1604.16251	31408.4125
1607.47959	27332.9125
1610.79447	22972.3125
1614.10715	19455.1125
1617.41763	17112.5125
1620.7259	15790.8125
1624.03199	15268.4125
1627.33587	15432.0125
1630.63757	16238.2125
1633.93707	17981.5125
1637.23439	21162.8125
1640.52951	26330.5125
1643.82246	33197.3125
1647.11321	39250.2125
1650.40179	40450.5125
1653.68819	35732.4125
1656.97241	28422.8125
1660.25446	21839.0125
1663.53433	17429.7125
1666.81203	14814.7125
1670.08756	13301.1125
1673.36092	12391.0125
1676.63211	11797.2125
1679.90115	11387.9125
1683.16801	11079.2125
1686.43272	10892.0125
1689.69527	10826.1125
1692.95567	10642.7125
1696.2139	10528.8125
1699.46999	10440.0125
1702.72392	10397.4125
1705.97571	10326.5125
1709.22535	10253.8125
1712.47284	10206.0125
1715.71819	10175.1125
1718.96139	10146.2125
1722.20246	10088.3125
1725.44139	9984.3125
1728.67818	9934.6125
1731.91284	9840.9125
1735.14537	9774.8125
1738.37576	9711.0125
1741.60403	9645.7125
1744.83017	9596.6125
1748.05418	9589.2125
1751.27607	9565.2125
1754.49584	9582.2125
1757.71349	9558.3125
1760.92903	9562.8125
1764.14244	9521.5125
1767.35375	9496.4125
1770.56294	9457.5125
1773.77002	9396.2125
1776.97499	9384.6125
1780.17785	9333.0125
1783.37861	9319.3125
1786.57727	9270.7125
1789.77382	9239.5125
1792.96828	9201.9125
1796.16064	9161.4125
1799.3509	9138.1125
1802.53907	9123.7125
1805.72514	9081.8125
1808.90913	9028.4125
1812.09102	9011.4125
1815.27083	9007.1125
1818.44856	8984.3125
1821.6242	8963.9125
1824.79776	8963.4125
1827.96924	8936.0125
1831.13864	8928.6125
1834.30597	8940.2125
1837.47122	8942.2125
1840.6344	8946.8125
1843.7955	8934.3125
1846.95454	8908.3125
1850.11151	8917.6125
1853.26642	8908.6125
1856.41926	8907.8125
1859.57004	8906.3125
1862.71876	8894.3125
1865.86542	8886.3125
1869.01003	8874.2125
1872.15258	8854.4125
1875.29308	8842.3125
1878.43152	8850.6125
1881.56792	8837.6125
1884.70227	8821.6125
1887.83457	8851.8125
1890.96482	8852.9125
1894.09304	8831.5125
1897.21921	8775.3125
1900.34335	8791.7125
1903.46544	8810.0125
1906.58551	8775.5125
1909.70353	8786.1125
1912.81953	8718.5125
1915.93349	8726.7125
1919.04543	8681.2125
1922.15534	8656.3125
1925.26322	8634.7125
1928.36908	8592.9125
1931.47292	8562.4125
1934.57473	8518.5125
1937.67453	8507.9125
1940.77232	8493.0125
1943.86808	8445.4125
1946.96184	8445.7125
1950.05358	8422.3125
1953.14331	8424.8125
1956.23103	8377.4125
1959.31675	8348.5125
1962.40046	8341.3125
1965.48217	8327.7125
1968.56188	8258.9125
1971.63959	8218.2125
1974.7153	8198.0125
1977.78901	8166.4125
1980.86073	8135.7125
1983.93046	8115.5125
1986.99819	8109.1125
1990.06394	8067.9125
1993.1277	8041.3125
1996.18947	8017.5125
1999.24925	8010.2125
2002.30706	7962.8125
2005.36288	7949.8125
2008.41672	7964.9125
2011.46859	7884.4125
2014.51848	7871.9125
2017.56639	7868.2125
2020.61233	7843.1125
2023.6563	7838.6125
2026.6983	7824.7125
2029.73833	7794.2125
2032.7764	7769.0125
2035.8125	7740.4125
2038.84664	7739.2125
2041.87881	7715.5125
2044.90903	7711.2125
2047.93729	7674.5125
2050.96359	7683.2125
2053.98794	7691.6125
2057.01034	7687.1125
2060.03078	7687.6125
2063.04927	7662.4125
2066.06582	7644.7125
2069.08042	7657.5125
2072.09307	7615.6125
2075.10378	7633.9125
2078.11255	7615.6125
2081.11938	7624.8125
2084.12426	7634.7125
2087.12722	7648.9125
2090.12824	7637.3125
2093.12732	7634.2125
2096.12447	7622.2125
2099.11969	7629.6125
2102.11299	7646.5125
2105.10435	7633.1125
2108.09379	7619.2125
2111.08131	7602.4125
2114.0669	7621.6125
2117.05057	7624.8125
2120.03233	7628.3125
2123.01216	7642.0125
2125.99008	7620.5125
2128.96609	7621.5125
2131.94018	7624.9125
2134.91236	7614.8125
2137.88263	7609.6125
2140.851	7622.3125
2143.81746	7597.3125
2146.78201	7591.3125
2149.74466	7592.7125
2152.7054	7573.0125
2155.66425	7578.2125
2158.6212	7576.4125
2161.57625	7555.2125
2164.52941	7563.0125
2167.48067	7573.3125
2170.43004	7576.9125
2173.37752	7561.2125
2176.32311	7568.8125
2179.26681	7564.8125
2182.20863	7583.2125
2185.14856	7556.7125
2188.08661	7565.4125
2191.02278	7562.6125
2193.95707	7555.7125
2196.88948	7556.8125
2199.82001	7543.4125
2202.74867	7511.4125
2205.67545	7509.5125
2208.60037	7500.4125
2211.52341	7476.7125
2214.44458	7448.3125
2217.36388	7447.2125
2220.28132	7421.3125
2223.1969	7425.4125
2226.11061	7425.7125
2229.02246	7399.8125
2231.93245	7412.0125
2234.84058	7426.3125
2237.74686	7429.2125
2240.65128	7423.4125
2243.55385	7420.3125
2246.45456	7412.8125
2249.35343	7358.9125
2252.25044	7342.1125
2255.14561	7303.8125
2258.03893	7311.5125
2260.93041	7286.1125
2263.82004	7241.7125
2266.70783	7217.2125
2269.59378	7189.8125
2272.4779	7177.0125
2275.36017	7134.2125
2278.24061	7135.2125
2281.11922	7129.8125
2283.996	7100.0125
2286.87094	7108.5125
2289.74405	7100.9125
2292.61534	7079.3125
2295.4848	7078.9125
2298.35243	7073.7125
2301.21824	7074.8125
2304.08223	7083.9125
2306.94439	7060.0125
2309.80474	7051.4125
2312.66327	7040.0125
2315.51999	7061.2125
2318.37489	7030.5125
2321.22797	7035.2125
2324.07925	7017.6125
2326.92871	7033.7125
2329.77637	7027.7125
2332.62222	6990.2125
2335.46626	7002.4125
2338.3085	7001.7125
2341.14893	7004.6125
2343.98756	6986.6125
2346.8244	6995.1125
2349.65943	6983.9125
2352.49267	6974.9125
2355.32411	6983.8125
2358.15376	6982.7125
2360.98161	6966.2125
2363.80768	6961.5125
2366.63195	6984.5125
2369.45444	6980.2125
2372.27514	6943.7125
2375.09405	6950.1125
2377.91118	6925.4125
2380.72652	6931.8125
2383.54009	6910.0125
2386.35187	6892.5125
2389.16188	6873.5125
2391.97011	6853.0125
2394.77657	6854.3125
2397.58125	6851.5125
2400.38416	6844.4125
2403.18529	6825.3125
2405.98466	6815.2125
2408.78226	6814.1125
2411.57809	6788.0125
2414.37216	6791.1125
2417.16446	6780.8125
2419.955	6775.2125
2422.74378	6780.9125
2425.5308	6768.5125
2428.31606	6734.0125
2431.09956	6764.0125
2433.88131	6757.5125
2436.6613	6757.5125
2439.43954	6733.1125
2442.21603	6732.9125
2444.99077	6739.6125
2447.76377	6756.1125
2450.53501	6724.8125
2453.30451	6742.6125
2456.07226	6736.1125
2458.83827	6736.8125
2461.60254	6733.6125
2464.36507	6739.2125
2467.12586	6748.5125
2469.88492	6757.0125
2472.64224	6727.5125
2475.39782	6742.5125
2478.15167	6745.0125
2480.90379	6745.3125
2483.65417	6746.1125
2486.40283	6746.8125
2489.14976	6744.1125
2491.89497	6732.7125
2494.63845	6754.7125
2497.3802	6758.2125
2500.12024	6749.2125
2502.85855	6751.1125
2505.59514	6741.1125
2508.33002	6727.3125
2511.06318	6730.7125
2513.79462	6712.4125
2516.52435	6706.4125
2519.25237	6700.7125
2521.97867	6688.5125
2524.70327	6692.3125
2527.42616	6679.8125
2530.14734	6682.7125
2532.86681	6673.8125
2535.58458	6653.1125
2538.30065	6653.0125
2541.01501	6674.1125
2543.72768	6681.2125
2546.43864	6665.2125
2549.14791	6667.2125
2551.85548	6642.9125
2554.56136	6638.3125
2557.26554	6655.7125
2559.96803	6654.5125
2562.66883	6647.6125
2565.36794	6642.5125
2568.06536	6672.6125
2570.7611	6644.6125
2573.45514	6636.6125
2576.14751	6665.1125
2578.83819	6638.6125
2581.52719	6665.5125
2584.21451	6636.5125
2586.90015	6635.9125
2589.58411	6619.6125
2592.2664	6629.5125
2594.94701	6598.7125
2597.62594	6608.9125
2600.30321	6616.3125
2602.9788	6619.3125
2605.65273	6608.7125
2608.32498	6619.6125
2610.99557	6625.4125
2613.66449	6620.5125
2616.33175	6624.8125
2618.99734	6623.8125
2621.66128	6627.2125
2624.32355	6610.2125
2626.98416	6601.5125
2629.64311	6603.3125
2632.30041	6603.7125
2634.95605	6609.3125
2637.61004	6598.2125
2640.26238	6597.8125
2642.91306	6593.9125
2645.56209	6573.9125
2648.20948	6565.4125
2650.85521	6574.9125
2653.4993	6585.5125
2656.14175	6605.1125
2658.78255	6605.9125
2661.42171	6599.4125
2664.05923	6629.9125
2666.6951	6649.8125
2669.32934	6652.4125
2671.96194	6671.3125
2674.59291	6648.8125
2677.22224	6633.2125
2679.84993	6640.3125
2682.476	6618.3125
2685.10043	6609.2125
2687.72324	6614.0125
2690.34441	6625.4125
2692.96396	6591.4125
2695.58188	6622.1125
2698.19818	6615.1125
2700.81285	6631.9125
2703.4259	6660.4125
2706.03733	6678.7125
2708.64714	6671.4125
2711.25533	6670.0125
2713.86191	6651.2125
2716.46687	6691.3125
2719.07021	6681.2125
2721.67194	6686.7125
2724.27206	6666.8125
2726.87057	6670.7125
2729.46747	6686.3125
2732.06276	6687.3125
2734.65644	6719.4125
2737.24852	6715.9125
2739.83899	6703.2125
2742.42786	6704.5125
2745.01513	6682.6125
2747.60079	6693.6125
2750.18486	6700.6125
2752.76733	6672.0125
2755.3482	6678.4125
2757.92747	6708.3125
2760.50515	6699.1125
2763.08123	6685.9125
2765.65573	6678.6125
2768.22863	6694.3125
2770.79994	6696.8125
2773.36967	6704.1125
2775.9378	6700.9125
2778.50435	6696.3125
2781.06932	6706.5125
2783.6327	6706.4125
2786.1945	6707.8125
2788.75471	6694.3125
2791.31335	6688.1125
2793.87041	6665.7125
2796.42589	6666.1125
2798.97979	6666.8125
2801.53212	6659.7125
2804.08288	6633.6125
2806.63206	6640.7125
2809.17967	6622.9125
2811.72571	6617.5125
2814.27018	6620.5125
2816.81308	6622.6125
2819.35442	6604.9125
2821.89419	6583.0125
2824.43239	6602.7125
2826.96904	6609.4125
2829.50412	6603.4125
2832.03763	6601.3125
2834.56959	6595.3125
2837.1	6586.9125
2839.62884	6600.3125
2842.15613	6594.9125
2844.68186	6616.4125
2847.20604	6649.3125
2849.72867	6646.3125
2852.24974	6639.4125
2854.76927	6649.3125
2857.28724	6636.5125
2859.80367	6629.0125
2862.31855	6600.7125
2864.83189	6581.2125
2867.34368	6583.2125
2869.85393	6573.5125
2872.36264	6559.7125
2874.8698	6563.4125
2877.37543	6560.9125
2879.87952	6567.6125
2882.38207	6559.9125
2884.88308	6562.3125
2887.38256	6575.0125
2889.88051	6576.9125
2892.37692	6595.6125
2894.8718	6592.4125
2897.36515	6604.9125
2899.85698	6617.5125
2902.34727	6627.7125
2904.83604	6621.7125
2907.32328	6634.5125
2909.809	6611.2125
2912.29319	6622.6125
2914.77587	6641.5125
2917.25702	6653.4125
2919.73665	6652.1125
2922.21476	6652.3125
2924.69136	6628.5125
2927.16644	6641.8125
2929.64	6655.2125
2932.11205	6641.7125
2934.58258	6602.1125
2937.05161	6642.2125
2939.51912	6614.0125
2941.98513	6615.3125
2944.44962	6596.2125
2946.91261	6563.3125
2949.37409	6595.2125
2951.83407	6575.1125
2954.29254	6558.1125
2956.74951	6573.5125
2959.20498	6561.3125
2961.65895	6521.9125
2964.11142	6505.4125
2966.56239	6473.4125
2969.01186	6483.6125
2971.45984	6427.7125
2973.90632	6427.8125
2976.35131	6393.3125
2978.7948	6371.5125
2981.23681	6329.4125
2983.67732	6316.6125
2986.11635	6322.6125
2988.55388	6278.9125
2990.98993	6261.9125
2993.4245	6254.4125
2995.85758	6242.8125
2998.28917	6224.3125
3000.71928	6201.3125
3003.14791	6218.4125
3005.57506	6209.4125
3008.00073	6200.2125
3010.42493	6190.1125
3012.84764	6173.7125
3015.26888	6153.3125
3017.68865	6133.7125
3020.10694	6130.2125
3022.52376	6116.7125
3024.9391	6091.2125
3027.35298	6072.8125
3029.76539	6051.0125
3032.17632	6081.6125
3034.5858	6046.9125
3036.9938	6029.7125
3039.40034	6044.9125
3041.80542	6040.7125
3044.20903	6027.2125
3046.61118	6030.4125
3049.01187	6005.0125
3051.4111	6017.9125
3053.80888	6003.0125
3056.20519	6005.8125
3058.60005	5970.8125
3060.99345	5963.2125
3063.3854	5938.5125
3065.7759	5923.9125
3068.16494	5912.1125
3070.55254	5882.9125
3072.93868	5885.9125
3075.32338	5866.3125
3077.70662	5833.9125
3080.08842	5818.0125
