Data from AgNPs_FTO_APTES_UA_5um_CRN_0.1mM_R6G_10uM_NaF_0.1M_Addition_RamanShift__27__13-28-29-113.txt Node

Date: Tue Dec 21 13:28:29 GMT 2021
User: TCL
Spectrometer: QEP01345
Trigger mode: 4
Integration Time (sec): 7.000000E0
Scans to average: 10
Electric dark correction enabled: true
Nonlinearity correction enabled: false
Boxcar width: 0
XAxis mode: Raman Shifts
Number of Pixels in Spectrum: 1044
>>>>>Begin Spectral Data<<<<<
46.04893	0.275
50.45542	-1.025
54.85868	-1.225
59.25871	0.175
63.6555	50.575
68.04907	53.875
72.43941	56.075
76.82654	58.275
81.21044	61.675
85.59113	65.275
89.96862	68.275
94.34289	68.775
98.71396	66.275
103.08183	74.375
107.4465	75.675
111.80798	77.675
116.16626	78.275
120.52136	80.475
124.87327	82.975
129.222	84.375
133.56755	92.575
137.90993	102.275
142.24913	106.975
146.58517	122.475
150.91804	142.375
155.24774	170.275
159.57429	211.175
163.89768	271.975
168.21792	356.275
172.53501	481.175
176.84895	665.375
181.15975	937.975
185.46741	1313.375
189.77193	1806.175
194.07331	2428.575
198.37157	3138.175
202.6667	3881.375
206.9587	4618.775
211.24758	5392.775
215.53334	6179.875
219.81599	7015.975
224.09553	7962.275
228.37195	9026.075
232.64527	10128.475
236.91549	11305.175
241.18261	12427.475
245.44663	13413.775
249.70755	14240.275
253.96539	14954.275
258.22014	15533.175
262.4718	15994.775
266.72039	16300.775
270.96589	16436.475
275.20832	16390.275
279.44768	16185.375
283.68397	15989.175
287.91719	15828.275
292.14735	15829.775
296.37445	16035.675
300.59849	16484.675
304.81948	16969.275
309.03742	17277.575
313.25231	17221.775
317.46415	16498.775
321.67296	15483.775
325.87872	14572.175
330.08145	14126.875
334.28114	14054.475
338.47781	14310.275
342.67145	14673.975
346.86207	15180.975
351.04966	15908.975
355.23424	16776.475
359.4158	17457.275
363.59435	17818.375
367.76989	17914.575
371.94243	17885.275
376.11196	17864.375
380.27849	17787.275
384.44203	17709.175
388.60257	17578.575
392.76012	17538.575
396.91468	17723.575
401.06626	18101.875
405.21485	18465.175
409.36047	18286.575
413.50311	17521.175
417.64277	16822.075
421.77947	16435.875
425.9132	16293.075
430.04396	16321.175
434.17176	16473.675
438.2966	16701.775
442.41849	17156.875
446.53742	17797.575
450.6534	18442.375
454.76644	18863.475
458.87653	18960.775
462.98368	18775.775
467.08789	18442.875
471.18916	18086.075
475.2875	17793.875
479.38291	17572.675
483.4754	17338.475
487.56496	17044.175
491.6516	16695.375
495.73531	16423.075
499.81612	16319.875
503.89401	16449.475
507.96899	16536.775
512.04106	16592.375
516.11023	16698.775
520.1765	16777.375
524.23987	16719.775
528.30034	16579.475
532.35792	16363.875
536.41261	16073.775
540.46441	15731.975
544.51333	15501.275
548.55936	15539.975
552.60252	15823.775
556.64279	16248.475
560.6802	16583.675
564.71473	16968.075
568.7464	17697.975
572.7752	18173.575
576.80114	17958.275
580.82422	17485.575
584.84444	17365.375
588.86181	17537.975
592.87633	17917.875
596.888	18251.475
600.89682	18529.775
604.9028	19818.575
608.90594	23809.575
612.90624	29077.075
616.90371	28013.075
620.89834	20510.775
624.89015	16818.975
628.87913	16176.875
632.86528	16313.475
636.84862	16466.075
640.82913	16185.975
644.80683	15454.675
648.78172	14892.675
652.75379	14784.975
656.72306	15231.075
660.68952	15817.175
664.65319	15804.375
668.61405	15265.475
672.57211	15026.575
676.52738	15097.275
680.47986	15035.075
684.42955	14896.775
688.37646	14745.275
692.32058	14719.575
696.26192	14838.475
700.20048	14978.375
704.13626	15111.375
708.06928	15080.575
711.99952	14913.175
715.927	14814.875
719.85171	14851.875
723.77365	14852.375
727.69284	14781.975
731.60928	14695.675
735.52295	14690.075
739.43388	14723.975
743.34206	14822.375
747.24749	14857.775
751.15017	14956.275
755.05012	15182.875
758.94733	15786.675
762.8418	17219.675
766.73354	19685.475
770.62254	22317.375
774.50882	23659.575
778.39237	22807.775
782.27321	20066.475
786.15132	17274.075
790.02671	15618.075
793.89938	14861.775
797.76935	14552.475
801.6366	14453.475
805.50115	14394.275
809.36299	14347.675
813.22213	14297.175
817.07857	14263.775
820.93231	14236.875
824.78336	14177.875
828.63172	14163.275
832.47738	14181.975
836.32036	14140.575
840.16066	14103.575
843.99827	14061.375
847.8332	13997.675
851.66546	13954.975
855.49504	13904.875
859.32195	13924.175
863.1462	13864.475
866.96777	13865.275
870.78668	13809.075
874.60293	13836.975
878.41652	13862.375
882.22745	13938.975
886.03573	14003.175
889.84136	13975.275
893.64433	13892.875
897.44466	13809.775
901.24235	13723.175
905.0374	13645.475
908.8298	13534.375
912.61957	13491.375
916.40671	13551.875
920.19121	13722.175
923.97308	13904.475
927.75233	14104.175
931.52895	14165.875
935.30295	14017.475
939.07433	13626.775
942.84309	13300.775
946.60924	13130.375
950.37278	12998.275
954.13371	12919.875
957.89203	12847.775
961.64774	12821.275
965.40086	12752.875
969.15137	12678.175
972.89929	12592.275
976.64461	12569.975
980.38733	12558.075
984.12747	12584.175
987.86502	12662.475
991.59999	12814.875
995.33237	13056.975
999.06217	13501.575
1002.78939	14030.475
1006.51404	14525.975
1010.23611	14843.275
1013.95561	15036.875
1017.67255	15004.775
1021.38692	14746.975
1025.09872	14420.075
1028.80796	14363.675
1032.51465	14559.275
1036.21877	14810.675
1039.92035	14938.075
1043.61937	14900.075
1047.31584	14624.275
1051.00976	14327.675
1054.70114	14078.575
1058.38998	14013.175
1062.07627	14010.275
1065.76003	14085.375
1069.44126	14158.075
1073.11995	14342.775
1076.79611	14513.775
1080.46974	14685.575
1084.14085	14983.975
1087.80943	15328.775
1091.47549	15506.175
1095.13903	15337.975
1098.80005	14920.475
1102.45857	14488.475
1106.11456	14296.675
1109.76805	14284.775
1113.41903	14573.775
1117.06751	14996.975
1120.71348	15545.475
1124.35696	16221.575
1127.99793	16760.175
1131.63641	16803.375
1135.2724	16223.775
1138.90589	15598.775
1142.5369	15222.575
1146.16542	14951.275
1149.79145	14815.875
1153.415	14822.375
1157.03607	14919.975
1160.65467	15215.775
1164.27079	15818.875
1167.88443	16727.875
1171.49561	18112.475
1175.10432	20169.975
1178.71056	22924.975
1182.31434	25346.875
1185.91565	26283.975
1189.51451	25846.775
1193.11091	24546.375
1196.70485	22901.575
1200.29634	21530.275
1203.88538	20467.575
1207.47197	19398.675
1211.05612	18466.175
1214.63782	17906.975
1218.21708	17720.975
1221.79391	17700.775
1225.36829	17681.575
1228.94024	17489.075
1232.50976	17160.775
1236.07685	16967.675
1239.6415	16826.275
1243.20374	16909.175
1246.76355	17037.475
1250.32093	17296.475
1253.8759	17752.075
1257.42845	18366.975
1260.97859	19018.075
1264.52631	19568.275
1268.07163	20162.875
1271.61453	20726.675
1275.15503	21274.475
1278.69312	21715.775
1282.22882	22143.575
1285.76211	22775.575
1289.29301	23626.875
1292.82151	24608.375
1296.34761	25809.075
1299.87133	27413.975
1303.39266	29632.475
1306.9116	32607.875
1310.42815	35801.075
1313.94233	37669.275
1317.45412	37078.175
1320.96354	35137.075
1324.47058	32989.375
1327.97525	31173.775
1331.47754	29948.975
1334.97747	29535.475
1338.47502	29700.775
1341.97022	30122.775
1345.46305	30550.375
1348.95352	31012.175
1352.44163	32050.275
1355.92738	34104.475
1359.41078	37658.075
1362.89183	40962.775
1366.37053	40017.075
1369.84688	34863.175
1373.32088	29439.175
1376.79254	25855.175
1380.26186	24079.775
1383.72883	23313.875
1387.19347	22847.075
1390.65578	22406.975
1394.11575	22315.875
1397.57339	22650.575
1401.0287	23248.675
1404.48168	23895.375
1407.93234	24393.175
1411.38068	24459.775
1414.82669	24077.275
1418.27039	23141.775
1421.71177	21974.775
1425.15083	21028.675
1428.58758	20462.975
1432.02203	20413.575
1435.45416	20636.975
1438.88399	20915.875
1442.31151	21148.175
1445.73673	21444.375
1449.15965	21823.075
1452.58027	22062.475
1455.9986	22092.875
1459.41463	22238.975
1462.82837	22625.775
1466.23982	23145.875
1469.64898	23667.775
1473.05586	23926.775
1476.46045	23942.075
1479.86276	23979.775
1483.26279	24062.475
1486.66054	24246.675
1490.05602	24651.775
1493.44922	25159.975
1496.84016	25871.075
1500.22882	27095.875
1503.61521	29234.275
1506.99934	31898.675
1510.38121	34420.775
1513.76081	35273.875
1517.13816	33636.275
1520.51324	30249.475
1523.88607	26920.675
1527.25665	24674.675
1530.62498	23531.275
1533.99105	22960.075
1537.35488	22670.275
1540.71647	22413.375
1544.07581	22243.675
1547.4329	22047.775
1550.78776	21783.875
1554.14038	21578.275
1557.49077	21580.775
1560.83892	21754.075
1564.18484	22062.975
1567.52853	22491.475
1570.86999	22823.675
1574.20922	23062.575
1577.54624	23114.875
1580.88103	22466.975
1584.2136	21672.875
1587.54395	21582.375
1590.87208	22472.775
1594.19801	24166.275
1597.52172	26171.375
1600.84321	27211.275
1604.16251	26414.975
1607.47959	24304.975
1610.79447	21774.075
1614.10715	19437.375
1617.41763	17691.175
1620.7259	16568.975
1624.03199	16069.175
1627.33587	16042.375
1630.63757	16513.875
1633.93707	17506.975
1637.23439	19100.375
1640.52951	21404.475
1643.82246	24423.575
1647.11321	27582.575
1650.40179	29325.675
1653.68819	28123.675
1656.97241	24390.575
1660.25446	20156.475
1663.53433	17087.375
1666.81203	15163.575
1670.08756	14013.675
1673.36092	13292.175
1676.63211	12869.575
1679.90115	12537.975
1683.16801	12275.075
1686.43272	12108.875
1689.69527	11954.775
1692.95567	11866.175
1696.2139	11808.375
1699.46999	11786.875
1702.72392	11728.375
1705.97571	11691.875
1709.22535	11653.475
1712.47284	11626.975
1715.71819	11612.075
1718.96139	11595.375
1722.20246	11556.275
1725.44139	11471.275
1728.67818	11394.375
1731.91284	11344.375
1735.14537	11278.675
1738.37576	11218.875
1741.60403	11194.675
1744.83017	11132.575
1748.05418	11136.475
1751.27607	11106.575
1754.49584	11075.775
1757.71349	11074.875
1760.92903	11056.675
1764.14244	10994.275
1767.35375	11002.775
1770.56294	10943.875
1773.77002	10924.375
1776.97499	10852.475
1780.17785	10830.375
1783.37861	10804.675
1786.57727	10755.475
1789.77382	10748.775
1792.96828	10734.275
1796.16064	10732.475
1799.3509	10664.775
1802.53907	10677.975
1805.72514	10624.775
1808.90913	10595.075
1812.09102	10586.175
1815.27083	10535.475
1818.44856	10537.975
1821.6242	10509.275
1824.79776	10488.275
1827.96924	10466.675
1831.13864	10443.975
1834.30597	10470.875
1837.47122	10446.775
1840.6344	10433.975
1843.7955	10405.175
1846.95454	10397.475
1850.11151	10401.175
1853.26642	10395.975
1856.41926	10409.875
1859.57004	10400.875
1862.71876	10418.975
1865.86542	10398.775
1869.01003	10413.975
1872.15258	10411.375
1875.29308	10398.875
1878.43152	10405.675
1881.56792	10366.075
1884.70227	10393.575
1887.83457	10374.075
1890.96482	10385.575
1894.09304	10380.375
1897.21921	10407.475
1900.34335	10374.775
1903.46544	10369.975
1906.58551	10372.175
1909.70353	10342.275
1912.81953	10341.375
1915.93349	10339.075
1919.04543	10316.175
1922.15534	10317.175
1925.26322	10246.275
1928.36908	10251.475
1931.47292	10180.475
1934.57473	10192.175
1937.67453	10120.575
1940.77232	10084.075
1943.86808	10081.475
1946.96184	10035.675
1950.05358	9998.375
1953.14331	9951.575
1956.23103	9921.675
1959.31675	9894.275
1962.40046	9863.475
1965.48217	9837.275
1968.56188	9803.075
1971.63959	9785.275
1974.7153	9770.475
1977.78901	9728.475
1980.86073	9684.875
1983.93046	9666.775
1986.99819	9612.075
1990.06394	9540.175
1993.1277	9531.975
1996.18947	9495.875
1999.24925	9475.175
2002.30706	9433.875
2005.36288	9414.075
2008.41672	9397.375
2011.46859	9364.775
2014.51848	9328.675
2017.56639	9317.075
2020.61233	9284.775
2023.6563	9269.475
2026.6983	9261.875
2029.73833	9218.375
2032.7764	9210.075
2035.8125	9201.675
2038.84664	9166.175
2041.87881	9152.275
2044.90903	9148.575
2047.93729	9134.175
2050.96359	9114.975
2053.98794	9108.375
2057.01034	9083.175
2060.03078	9069.775
2063.04927	9057.875
2066.06582	9035.175
2069.08042	9001.775
2072.09307	9005.375
2075.10378	8990.675
2078.11255	8980.775
2081.11938	8999.075
2084.12426	8974.975
2087.12722	8980.975
2090.12824	8977.175
2093.12732	8991.975
2096.12447	8973.475
2099.11969	8946.775
2102.11299	8952.475
2105.10435	8963.275
2108.09379	8969.475
2111.08131	8953.475
2114.0669	8939.575
2117.05057	8946.275
2120.03233	8985.475
2123.01216	8999.175
2125.99008	8978.175
2128.96609	8989.575
2131.94018	8983.375
2134.91236	8987.375
2137.88263	8968.975
2140.851	8995.675
2143.81746	8977.775
2146.78201	8965.575
2149.74466	8974.075
2152.7054	8942.375
2155.66425	8948.775
2158.6212	8966.775
2161.57625	8929.875
2164.52941	8931.975
2167.48067	8912.375
2170.43004	8917.375
2173.37752	8917.075
2176.32311	8922.575
2179.26681	8924.675
2182.20863	8901.575
2185.14856	8910.775
2188.08661	8897.975
2191.02278	8900.175
2193.95707	8898.275
2196.88948	8878.675
2199.82001	8872.075
2202.74867	8861.875
2205.67545	8869.475
2208.60037	8873.975
2211.52341	8835.275
2214.44458	8852.075
2217.36388	8828.475
2220.28132	8808.375
2223.1969	8773.375
2226.11061	8778.875
2229.02246	8768.175
2231.93245	8735.275
2234.84058	8718.475
2237.74686	8709.475
2240.65128	8695.175
2243.55385	8683.375
2246.45456	8687.975
2249.35343	8660.275
2252.25044	8654.275
2255.14561	8639.175
2258.03893	8635.675
2260.93041	8638.175
2263.82004	8581.975
2266.70783	8582.675
2269.59378	8531.675
2272.4779	8531.175
2275.36017	8511.475
2278.24061	8482.275
2281.11922	8455.375
2283.996	8434.875
2286.87094	8426.875
2289.74405	8414.475
2292.61534	8404.975
2295.4848	8367.975
2298.35243	8384.875
2301.21824	8374.175
2304.08223	8375.775
2306.94439	8374.575
2309.80474	8374.375
2312.66327	8362.075
2315.51999	8364.775
2318.37489	8367.575
2321.22797	8353.875
2324.07925	8349.075
2326.92871	8326.775
2329.77637	8318.675
2332.62222	8323.875
2335.46626	8329.975
2338.3085	8316.975
2341.14893	8330.675
2343.98756	8328.275
2346.8244	8349.875
2349.65943	8314.075
2352.49267	8319.375
2355.32411	8320.075
2358.15376	8329.175
2360.98161	8320.475
2363.80768	8320.875
2366.63195	8321.075
2369.45444	8300.975
2372.27514	8291.575
2375.09405	8265.275
2377.91118	8258.875
2380.72652	8238.775
2383.54009	8211.975
2386.35187	8183.675
2389.16188	8141.775
2391.97011	8115.175
2394.77657	8121.175
2397.58125	8109.875
2400.38416	8070.475
2403.18529	8070.975
2405.98466	8041.875
2408.78226	8021.675
2411.57809	8009.275
2414.37216	7990.275
2417.16446	7967.375
2419.955	7975.675
2422.74378	7987.875
2425.5308	7941.875
2428.31606	7972.275
2431.09956	7937.875
2433.88131	7916.475
2436.6613	7936.775
2439.43954	7925.275
2442.21603	7897.475
2444.99077	7903.675
2447.76377	7933.675
2450.53501	7914.975
2453.30451	7919.075
2456.07226	7918.375
2458.83827	7908.075
2461.60254	7908.775
2464.36507	7904.175
2467.12586	7906.975
2469.88492	7900.875
2472.64224	7905.875
2475.39782	7913.675
2478.15167	7929.475
2480.90379	7930.375
2483.65417	7933.475
2486.40283	7932.275
2489.14976	7929.275
2491.89497	7961.275
2494.63845	7957.275
2497.3802	7966.675
2500.12024	7954.275
2502.85855	7923.075
2505.59514	7928.675
2508.33002	7917.775
2511.06318	7880.575
2513.79462	7858.675
2516.52435	7864.475
2519.25237	7820.975
2521.97867	7802.775
2524.70327	7802.775
2527.42616	7797.375
2530.14734	7776.475
2532.86681	7789.175
2535.58458	7798.575
2538.30065	7754.375
2541.01501	7762.875
2543.72768	7763.775
2546.43864	7749.175
2549.14791	7760.975
2551.85548	7759.775
2554.56136	7742.275
2557.26554	7708.075
2559.96803	7740.075
2562.66883	7732.175
2565.36794	7715.075
2568.06536	7697.575
2570.7611	7699.775
2573.45514	7686.875
2576.14751	7688.675
2578.83819	7683.175
2581.52719	7697.775
2584.21451	7668.175
2586.90015	7670.975
2589.58411	7634.675
2592.2664	7643.775
2594.94701	7632.075
2597.62594	7659.675
2600.30321	7628.375
2602.9788	7603.975
2605.65273	7606.775
2608.32498	7621.275
2610.99557	7621.875
2613.66449	7605.875
2616.33175	7625.975
2618.99734	7635.275
2621.66128	7613.275
2624.32355	7637.675
2626.98416	7604.975
2629.64311	7613.075
2632.30041	7612.875
2634.95605	7605.075
2637.61004	7592.375
2640.26238	7574.375
2642.91306	7570.075
2645.56209	7562.575
2648.20948	7555.975
2650.85521	7517.175
2653.4993	7553.775
2656.14175	7541.075
2658.78255	7539.975
2661.42171	7547.975
2664.05923	7560.375
2666.6951	7563.575
2669.32934	7574.975
2671.96194	7597.175
2674.59291	7613.475
2677.22224	7578.075
2679.84993	7583.975
2682.476	7562.175
2685.10043	7569.175
2687.72324	7575.175
2690.34441	7538.775
2692.96396	7557.875
2695.58188	7561.375
2698.19818	7535.275
2700.81285	7541.775
2703.4259	7575.775
2706.03733	7616.175
2708.64714	7596.675
2711.25533	7595.375
2713.86191	7573.175
2716.46687	7572.675
2719.07021	7548.875
2721.67194	7571.875
2724.27206	7569.675
2726.87057	7578.875
2729.46747	7564.975
2732.06276	7583.675
2734.65644	7564.075
2737.24852	7558.375
2739.83899	7567.875
2742.42786	7567.275
2745.01513	7536.675
2747.60079	7552.975
2750.18486	7527.875
2752.76733	7532.675
2755.3482	7522.575
2757.92747	7536.975
2760.50515	7517.775
2763.08123	7522.175
2765.65573	7529.375
2768.22863	7502.675
2770.79994	7505.575
2773.36967	7507.575
2775.9378	7514.175
2778.50435	7500.875
2781.06932	7503.975
2783.6327	7516.475
2786.1945	7499.275
2788.75471	7512.175
2791.31335	7483.975
2793.87041	7478.475
2796.42589	7445.775
2798.97979	7467.375
2801.53212	7446.175
2804.08288	7441.575
2806.63206	7419.075
2809.17967	7431.875
2811.72571	7412.175
2814.27018	7412.675
2816.81308	7421.475
2819.35442	7406.975
2821.89419	7402.375
2824.43239	7409.075
2826.96904	7406.275
2829.50412	7424.675
2832.03763	7416.975
2834.56959	7395.875
2837.1	7378.775
2839.62884	7407.575
2842.15613	7383.575
2844.68186	7419.475
2847.20604	7435.875
2849.72867	7453.175
2852.24974	7440.075
2854.76927	7429.975
2857.28724	7435.975
2859.80367	7421.575
2862.31855	7391.775
2864.83189	7412.175
2867.34368	7422.375
2869.85393	7394.675
2872.36264	7381.275
2874.8698	7388.075
2877.37543	7383.375
2879.87952	7406.375
2882.38207	7387.075
2884.88308	7393.075
2887.38256	7378.775
2889.88051	7378.675
2892.37692	7376.475
2894.8718	7378.475
2897.36515	7402.275
2899.85698	7384.775
2902.34727	7407.275
2904.83604	7416.475
2907.32328	7405.775
2909.809	7400.375
2912.29319	7418.475
2914.77587	7413.775
2917.25702	7428.375
2919.73665	7387.975
2922.21476	7391.175
2924.69136	7412.875
2927.16644	7383.875
2929.64	7390.675
2932.11205	7364.375
2934.58258	7338.575
2937.05161	7364.575
2939.51912	7342.675
2941.98513	7322.575
2944.44962	7314.575
2946.91261	7266.475
2949.37409	7262.075
2951.83407	7245.575
2954.29254	7239.975
2956.74951	7205.775
2959.20498	7187.175
2961.65895	7178.375
2964.11142	7151.975
2966.56239	7133.175
2969.01186	7111.875
2971.45984	7088.775
2973.90632	7065.375
2976.35131	7043.975
2978.7948	7046.475
2981.23681	7035.275
2983.67732	7010.275
2986.11635	6970.475
2988.55388	6964.975
2990.98993	6934.275
2993.4245	6927.775
2995.85758	6924.675
2998.28917	6897.175
3000.71928	6878.575
3003.14791	6873.575
3005.57506	6883.275
3008.00073	6870.675
3010.42493	6849.475
3012.84764	6821.575
3015.26888	6832.275
3017.68865	6797.875
3020.10694	6795.375
3022.52376	6779.175
3024.9391	6758.875
3027.35298	6750.375
3029.76539	6743.375
3032.17632	6724.375
3034.5858	6697.275
3036.9938	6692.075
3039.40034	6692.075
3041.80542	6681.875
3044.20903	6675.375
3046.61118	6661.975
3049.01187	6633.775
3051.4111	6638.275
3053.80888	6620.775
3056.20519	6593.975
3058.60005	6587.075
3060.99345	6574.375
3063.3854	6538.175
3065.7759	6516.175
3068.16494	6505.375
3070.55254	6470.775
3072.93868	6472.475
3075.32338	6462.175
3077.70662	6429.975
3080.08842	6417.175
3082.46878	6405.075
3084.84769	6408.775
3087.22515	6375.275
3089.60118	6380.975
3091.97576	6370.675
3094.3489	6375.975
3096.72061	6362.775
3099.09087	6368.875
3101.4597	6333.875
3103.82709	6340.875
3106.19305	6330.275
3108.55757	6328.275
3110.92066	6332.175
3113.28232	6290.775
3115.64255	6274.975
3118.00134	6271.175
3120.35871	6255.975
3122.71466	6241.175
3125.06917	6246.075
3127.42226	6211.175
3129.77393	6237.175
3132.12417	6222.875
3134.47299	6215.575
3136.82039	6212.075
3139.16636	6207.175
3141.51092	6216.375
3143.85406	6208.375
3146.19579	6217.375
3148.53609	6211.675
3150.87499	6218.075
3153.21246	6212.175
3155.54853	6207.075
3157.88318	6200.575
3160.21642	6203.875
3162.54826	6188.275
3164.87868	6198.475
3167.2077	6168.375
3169.5353	6178.275
3171.86151	6182.275
3174.18631	6155.675
3176.5097	6174.575
3178.83169	6158.975
3181.15228	6173.175
