Data from AgNPs_FTO_APTES_UA_1um_CRN_0.1mM_R6G_10uM_NaF_0.1M_Addition_RamanShift__15__11-51-39-003.txt Node

Date: Tue Dec 21 11:51:39 GMT 2021
User: TCL
Spectrometer: QEP01345
Trigger mode: 4
Integration Time (sec): 7.000000E0
Scans to average: 10
Electric dark correction enabled: true
Nonlinearity correction enabled: false
Boxcar width: 0
XAxis mode: Raman Shifts
Number of Pixels in Spectrum: 1044
>>>>>Begin Spectral Data<<<<<
46.04893	-0.125
50.45542	-0.625
54.85868	-0.225
59.25871	0.175
63.6555	37.775
68.04907	42.675
72.43941	44.575
76.82654	44.875
81.21044	50.975
85.59113	50.875
89.96862	52.575
94.34289	52.575
98.71396	54.575
103.08183	60.275
107.4465	63.875
111.80798	63.175
116.16626	62.075
120.52136	62.975
124.87327	63.275
129.222	65.875
133.56755	70.375
137.90993	77.275
142.24913	78.175
146.58517	89.975
150.91804	107.175
155.24774	121.875
159.57429	148.175
163.89768	185.275
168.21792	239.875
172.53501	324.675
176.84895	453.675
181.15975	629.775
185.46741	875.475
189.77193	1222.075
194.07331	1644.175
198.37157	2123.475
202.6667	2638.075
206.9587	3157.175
211.24758	3681.275
215.53334	4212.775
219.81599	4769.475
224.09553	5364.475
228.37195	6031.375
232.64527	6767.675
236.91549	7529.175
241.18261	8226.875
245.44663	8870.075
249.70755	9404.375
253.96539	9853.775
258.22014	10217.375
262.4718	10503.575
266.72039	10665.575
270.96589	10703.575
275.20832	10655.675
279.44768	10528.275
283.68397	10377.575
287.91719	10271.075
292.14735	10221.475
296.37445	10245.775
300.59849	10310.675
304.81948	10466.175
309.03742	10579.275
313.25231	10601.075
317.46415	10392.975
321.67296	9992.575
325.87872	9611.275
330.08145	9375.175
334.28114	9323.175
338.47781	9370.075
342.67145	9469.075
346.86207	9697.875
351.04966	9911.675
355.23424	10152.775
359.4158	10343.475
363.59435	10506.375
367.76989	10572.575
371.94243	10510.275
376.11196	10492.275
380.27849	10482.475
384.44203	10474.175
388.60257	10514.975
392.76012	10610.575
396.91468	10775.475
401.06626	10987.675
405.21485	11119.475
409.36047	11049.775
413.50311	10781.075
417.64277	10537.175
421.77947	10441.575
425.9132	10468.875
430.04396	10476.575
434.17176	10489.475
438.2966	10527.175
442.41849	10640.875
446.53742	10861.075
450.6534	11141.275
454.76644	11300.275
458.87653	11302.375
462.98368	11225.175
467.08789	11127.175
471.18916	10963.275
475.2875	10811.375
479.38291	10701.675
483.4754	10595.775
487.56496	10541.675
491.6516	10477.975
495.73531	10411.675
499.81612	10377.075
503.89401	10460.475
507.96899	10477.375
512.04106	10430.275
516.11023	10382.875
520.1765	10298.675
524.23987	10213.375
528.30034	10177.575
532.35792	10103.575
536.41261	9952.675
540.46441	9804.175
544.51333	9746.275
548.55936	9811.675
552.60252	10035.475
556.64279	10262.775
560.6802	10378.375
564.71473	10456.375
568.7464	10653.975
572.7752	10979.075
576.80114	11270.475
580.82422	11565.675
584.84444	11983.475
588.86181	12280.875
592.87633	12453.675
596.888	12403.475
600.89682	12122.275
604.9028	12240.575
608.90594	13568.975
612.90624	15248.775
616.90371	14510.375
620.89834	11507.675
624.89015	9969.675
628.87913	9783.275
632.86528	9939.275
636.84862	10102.775
640.82913	10047.275
644.80683	9723.475
648.78172	9475.175
652.75379	9412.975
656.72306	9543.775
660.68952	9776.475
664.65319	9749.575
668.61405	9584.875
672.57211	9528.475
676.52738	9623.175
680.47986	9677.475
684.42955	9593.475
688.37646	9415.475
692.32058	9344.575
696.26192	9372.775
700.20048	9460.275
704.13626	9519.675
708.06928	9574.675
711.99952	9543.875
715.927	9491.175
719.85171	9477.175
723.77365	9445.375
727.69284	9347.975
731.60928	9218.475
735.52295	9165.475
739.43388	9159.175
743.34206	9179.575
747.24749	9243.475
751.15017	9324.475
755.05012	9521.975
758.94733	9850.875
762.8418	10545.375
766.73354	11741.975
770.62254	12919.475
774.50882	13182.975
778.39237	12459.675
782.27321	11344.475
786.15132	10325.975
790.02671	9653.375
793.89938	9288.675
797.76935	9122.175
801.6366	9046.375
805.50115	9001.975
809.36299	8936.375
813.22213	8825.575
817.07857	8754.275
820.93231	8722.175
824.78336	8684.475
828.63172	8685.775
832.47738	8676.175
836.32036	8631.475
840.16066	8570.975
843.99827	8572.075
847.8332	8556.875
851.66546	8532.575
855.49504	8542.075
859.32195	8545.975
863.1462	8539.775
866.96777	8526.475
870.78668	8519.375
874.60293	8538.575
878.41652	8530.075
882.22745	8563.475
886.03573	8583.875
889.84136	8610.875
893.64433	8586.875
897.44466	8575.275
901.24235	8554.575
905.0374	8510.275
908.8298	8441.575
912.61957	8422.275
916.40671	8417.675
920.19121	8541.975
923.97308	8657.475
927.75233	8763.875
931.52895	8765.775
935.30295	8627.475
939.07433	8398.675
942.84309	8200.175
946.60924	8075.175
950.37278	8020.375
954.13371	7994.575
957.89203	7963.375
961.64774	7946.675
965.40086	7940.475
969.15137	7925.375
972.89929	7903.175
976.64461	7824.475
980.38733	7815.175
984.12747	7809.975
987.86502	7834.775
991.59999	7854.175
995.33237	7924.275
999.06217	8039.375
1002.78939	8208.575
1006.51404	8345.075
1010.23611	8545.875
1013.95561	8663.575
1017.67255	8728.775
1021.38692	8680.875
1025.09872	8506.575
1028.80796	8379.175
1032.51465	8285.875
1036.21877	8336.675
1039.92035	8382.775
1043.61937	8445.075
1047.31584	8489.975
1051.00976	8508.275
1054.70114	8540.275
1058.38998	8560.975
1062.07627	8590.175
1065.76003	8677.675
1069.44126	8792.575
1073.11995	9001.175
1076.79611	9204.775
1080.46974	9280.475
1084.14085	9313.875
1087.80943	9444.375
1091.47549	9557.175
1095.13903	9557.175
1098.80005	9390.175
1102.45857	9074.375
1106.11456	8810.075
1109.76805	8672.675
1113.41903	8661.375
1117.06751	8750.075
1120.71348	8907.975
1124.35696	9154.175
1127.99793	9391.675
1131.63641	9521.975
1135.2724	9406.275
1138.90589	9253.075
1142.5369	9159.775
1146.16542	9100.675
1149.79145	9085.775
1153.415	9092.575
1157.03607	9209.075
1160.65467	9454.275
1164.27079	9860.875
1167.88443	10513.375
1171.49561	11317.675
1175.10432	12412.075
1178.71056	13720.075
1182.31434	14891.175
1185.91565	15449.375
1189.51451	15440.575
1193.11091	14917.575
1196.70485	14057.475
1200.29634	13145.175
1203.88538	12368.475
1207.47197	11680.475
1211.05612	11207.975
1214.63782	10863.475
1218.21708	10641.175
1221.79391	10547.775
1225.36829	10542.575
1228.94024	10569.875
1232.50976	10497.875
1236.07685	10360.175
1239.6415	10222.275
1243.20374	10162.375
1246.76355	10146.975
1250.32093	10193.375
1253.8759	10391.075
1257.42845	10708.775
1260.97859	11088.075
1264.52631	11494.775
1268.07163	11873.075
1271.61453	12219.975
1275.15503	12598.375
1278.69312	12947.575
1282.22882	13283.075
1285.76211	13708.075
1289.29301	14230.275
1292.82151	14793.975
1296.34761	15388.375
1299.87133	16179.175
1303.39266	17135.975
1306.9116	18291.475
1310.42815	19528.775
1313.94233	20376.775
1317.45412	20390.775
1320.96354	19833.175
1324.47058	19238.575
1327.97525	18735.975
1331.47754	18274.175
1334.97747	17913.575
1338.47502	17600.475
1341.97022	17375.675
1345.46305	17262.675
1348.95352	17381.475
1352.44163	17738.875
1355.92738	18387.475
1359.41078	19520.975
1362.89183	20787.275
1366.37053	20831.275
1369.84688	19102.675
1373.32088	16742.675
1376.79254	14856.075
1380.26186	13835.175
1383.72883	13321.175
1387.19347	13023.975
1390.65578	12703.775
1394.11575	12497.475
1397.57339	12529.675
1401.0287	12647.075
1404.48168	12715.575
1407.93234	12678.675
1411.38068	12546.075
1414.82669	12286.275
1418.27039	11945.975
1421.71177	11580.175
1425.15083	11213.075
1428.58758	10977.875
1432.02203	10948.775
1435.45416	11117.675
1438.88399	11357.375
1442.31151	11483.875
1445.73673	11680.875
1449.15965	11866.775
1452.58027	12011.175
1455.9986	12037.575
1459.41463	12153.875
1462.82837	12349.075
1466.23982	12620.375
1469.64898	12879.775
1473.05586	13062.375
1476.46045	13111.575
1479.86276	13195.675
1483.26279	13276.675
1486.66054	13469.775
1490.05602	13791.375
1493.44922	14298.875
1496.84016	14975.575
1500.22882	15896.375
1503.61521	17131.375
1506.99934	18487.775
1510.38121	19476.175
1513.76081	19637.775
1517.13816	18748.275
1520.51324	17196.075
1523.88607	15733.775
1527.25665	14753.075
1530.62498	14158.875
1533.99105	13754.675
1537.35488	13418.875
1540.71647	13057.575
1544.07581	12659.975
1547.4329	12281.175
1550.78776	11982.675
1554.14038	11802.575
1557.49077	11771.975
1560.83892	11912.975
1564.18484	12097.575
1567.52853	12346.275
1570.86999	12619.675
1574.20922	12793.875
1577.54624	12821.375
1580.88103	12525.875
1584.2136	12108.675
1587.54395	11953.875
1590.87208	12181.975
1594.19801	12809.675
1597.52172	13578.275
1600.84321	13956.375
1604.16251	13594.475
1607.47959	12739.275
1610.79447	11781.175
1614.10715	10812.575
1617.41763	9962.075
1620.7259	9372.575
1624.03199	9021.975
1627.33587	8933.475
1630.63757	9121.875
1633.93707	9632.675
1637.23439	10543.475
1640.52951	12005.275
1643.82246	13939.675
1647.11321	15955.375
1650.40179	17139.475
1653.68819	16735.475
1656.97241	14767.275
1660.25446	12350.675
1663.53433	10393.575
1666.81203	9104.875
1670.08756	8342.375
1673.36092	7863.475
1676.63211	7572.475
1679.90115	7359.175
1683.16801	7214.375
1686.43272	7104.675
1689.69527	7033.775
1692.95567	6943.575
1696.2139	6927.575
1699.46999	6900.175
1702.72392	6875.075
1705.97571	6843.175
1709.22535	6784.875
1712.47284	6753.975
1715.71819	6740.375
1718.96139	6736.875
1722.20246	6680.775
1725.44139	6642.275
1728.67818	6615.175
1731.91284	6574.975
1735.14537	6521.775
1738.37576	6502.375
1741.60403	6489.675
1744.83017	6457.275
1748.05418	6478.375
1751.27607	6482.775
1754.49584	6533.175
1757.71349	6533.975
1760.92903	6527.975
1764.14244	6510.275
1767.35375	6470.075
1770.56294	6393.975
1773.77002	6338.375
1776.97499	6300.275
1780.17785	6233.975
1783.37861	6216.475
1786.57727	6190.775
1789.77382	6170.775
1792.96828	6127.675
1796.16064	6108.775
1799.3509	6089.475
1802.53907	6074.875
1805.72514	6042.875
1808.90913	6001.275
1812.09102	6001.475
1815.27083	5988.275
1818.44856	5972.175
1821.6242	5957.675
1824.79776	5942.875
1827.96924	5946.175
1831.13864	5932.775
1834.30597	5930.975
1837.47122	5936.475
1840.6344	5926.675
1843.7955	5925.075
1846.95454	5903.475
1850.11151	5909.275
1853.26642	5907.075
1856.41926	5906.575
1859.57004	5902.575
1862.71876	5880.375
1865.86542	5908.875
1869.01003	5870.575
1872.15258	5878.775
1875.29308	5865.575
1878.43152	5852.075
1881.56792	5829.575
1884.70227	5817.575
1887.83457	5820.775
1890.96482	5801.875
1894.09304	5776.275
1897.21921	5792.075
1900.34335	5782.675
1903.46544	5758.575
1906.58551	5737.875
1909.70353	5736.975
1912.81953	5703.275
1915.93349	5682.075
1919.04543	5660.375
1922.15534	5679.875
1925.26322	5644.275
1928.36908	5634.175
1931.47292	5615.275
1934.57473	5604.275
1937.67453	5575.975
1940.77232	5561.575
1943.86808	5533.775
1946.96184	5527.575
1950.05358	5499.475
1953.14331	5499.575
1956.23103	5456.575
1959.31675	5439.975
1962.40046	5434.675
1965.48217	5419.675
1968.56188	5398.275
1971.63959	5372.375
1974.7153	5370.675
1977.78901	5356.275
1980.86073	5326.275
1983.93046	5311.875
1986.99819	5274.075
1990.06394	5263.975
1993.1277	5258.175
1996.18947	5223.975
1999.24925	5211.075
2002.30706	5192.075
2005.36288	5177.075
2008.41672	5162.375
2011.46859	5138.775
2014.51848	5123.075
2017.56639	5102.975
2020.61233	5107.875
2023.6563	5098.075
2026.6983	5075.075
2029.73833	5045.675
2032.7764	5055.775
2035.8125	5014.875
2038.84664	5011.175
2041.87881	5016.975
2044.90903	4986.775
2047.93729	4987.075
2050.96359	4979.875
2053.98794	4964.675
2057.01034	4970.275
2060.03078	4950.475
2063.04927	4936.275
2066.06582	4937.175
2069.08042	4929.575
2072.09307	4941.075
2075.10378	4920.875
2078.11255	4921.575
2081.11938	4934.275
2084.12426	4920.075
2087.12722	4916.675
2090.12824	4895.875
2093.12732	4910.775
2096.12447	4909.275
2099.11969	4912.775
2102.11299	4894.175
2105.10435	4896.075
2108.09379	4911.775
2111.08131	4908.075
2114.0669	4897.675
2117.05057	4897.575
2120.03233	4917.975
2123.01216	4912.175
2125.99008	4911.575
2128.96609	4917.275
2131.94018	4915.475
2134.91236	4913.775
2137.88263	4914.175
2140.851	4900.475
2143.81746	4915.875
2146.78201	4907.275
2149.74466	4912.575
2152.7054	4905.275
2155.66425	4884.475
2158.6212	4874.175
2161.57625	4879.575
2164.52941	4882.675
2167.48067	4874.275
2170.43004	4852.775
2173.37752	4887.475
2176.32311	4864.775
2179.26681	4876.075
2182.20863	4857.375
2185.14856	4852.175
2188.08661	4862.775
2191.02278	4840.075
2193.95707	4855.775
2196.88948	4838.875
2199.82001	4830.975
2202.74867	4819.875
2205.67545	4823.475
2208.60037	4824.675
2211.52341	4813.275
2214.44458	4803.875
2217.36388	4776.475
2220.28132	4772.175
2223.1969	4736.075
2226.11061	4764.075
2229.02246	4734.775
2231.93245	4721.775
2234.84058	4719.875
2237.74686	4725.275
2240.65128	4713.675
2243.55385	4719.975
2246.45456	4709.275
2249.35343	4696.575
2252.25044	4680.275
2255.14561	4672.975
2258.03893	4663.375
2260.93041	4668.575
2263.82004	4644.475
2266.70783	4643.175
2269.59378	4627.875
2272.4779	4603.775
2275.36017	4595.675
2278.24061	4578.375
2281.11922	4581.275
2283.996	4565.975
2286.87094	4553.475
2289.74405	4547.775
2292.61534	4548.975
2295.4848	4524.075
2298.35243	4521.075
2301.21824	4505.775
2304.08223	4516.475
2306.94439	4508.875
2309.80474	4496.875
2312.66327	4494.475
2315.51999	4483.275
2318.37489	4490.175
2321.22797	4473.375
2324.07925	4474.175
2326.92871	4469.775
2329.77637	4465.375
2332.62222	4453.175
2335.46626	4439.075
2338.3085	4454.775
2341.14893	4444.875
2343.98756	4444.975
2346.8244	4441.575
2349.65943	4439.275
2352.49267	4434.475
2355.32411	4416.275
2358.15376	4438.075
2360.98161	4447.575
2363.80768	4437.375
2366.63195	4436.375
2369.45444	4439.575
2372.27514	4434.475
2375.09405	4422.175
2377.91118	4413.575
2380.72652	4389.475
2383.54009	4374.775
2386.35187	4379.575
2389.16188	4354.675
2391.97011	4347.075
2394.77657	4323.275
2397.58125	4321.975
2400.38416	4314.575
2403.18529	4311.475
2405.98466	4292.475
2408.78226	4292.275
2411.57809	4278.775
2414.37216	4264.675
2417.16446	4268.875
2419.955	4259.675
2422.74378	4256.775
2425.5308	4249.875
2428.31606	4254.375
2431.09956	4241.275
2433.88131	4246.775
2436.6613	4250.475
2439.43954	4236.775
2442.21603	4222.975
2444.99077	4229.575
2447.76377	4245.775
2450.53501	4225.975
2453.30451	4225.375
2456.07226	4229.475
2458.83827	4219.275
2461.60254	4206.175
2464.36507	4217.975
2467.12586	4206.875
2469.88492	4213.375
2472.64224	4214.175
2475.39782	4217.475
2478.15167	4218.575
2480.90379	4215.275
2483.65417	4215.875
2486.40283	4192.575
2489.14976	4214.575
2491.89497	4200.075
2494.63845	4207.975
2497.3802	4216.275
2500.12024	4191.975
2502.85855	4186.975
2505.59514	4176.175
2508.33002	4175.475
2511.06318	4159.475
2513.79462	4160.475
2516.52435	4153.875
2519.25237	4130.375
2521.97867	4127.375
2524.70327	4130.075
2527.42616	4121.475
2530.14734	4105.475
2532.86681	4100.075
2535.58458	4094.975
2538.30065	4072.475
2541.01501	4083.675
2543.72768	4066.175
2546.43864	4059.375
2549.14791	4059.975
2551.85548	4055.975
2554.56136	4053.375
2557.26554	4040.075
2559.96803	4034.475
2562.66883	4042.475
2565.36794	4023.075
2568.06536	4037.875
2570.7611	4028.075
2573.45514	4023.175
2576.14751	4021.775
2578.83819	4014.575
2581.52719	4006.175
2584.21451	3994.975
2586.90015	4000.575
2589.58411	3972.575
2592.2664	3974.375
2594.94701	3948.675
2597.62594	3970.475
2600.30321	3965.075
2602.9788	3941.975
2605.65273	3938.375
2608.32498	3933.475
2610.99557	3948.175
2613.66449	3933.775
2616.33175	3922.875
2618.99734	3933.775
2621.66128	3919.575
2624.32355	3918.475
2626.98416	3913.375
2629.64311	3879.275
2632.30041	3898.375
2634.95605	3888.775
2637.61004	3898.875
2640.26238	3880.075
2642.91306	3871.575
2645.56209	3880.675
2648.20948	3877.475
2650.85521	3877.575
2653.4993	3876.275
2656.14175	3857.375
2658.78255	3858.775
2661.42171	3882.375
2664.05923	3879.675
2666.6951	3873.675
2669.32934	3885.775
2671.96194	3882.275
2674.59291	3882.075
2677.22224	3878.675
2679.84993	3879.175
2682.476	3866.075
2685.10043	3859.375
2687.72324	3864.975
2690.34441	3853.875
2692.96396	3848.175
2695.58188	3858.375
2698.19818	3861.975
2700.81285	3870.575
2703.4259	3873.775
2706.03733	3925.975
2708.64714	3890.975
2711.25533	3882.475
2713.86191	3860.275
2716.46687	3867.175
2719.07021	3875.275
2721.67194	3865.075
2724.27206	3859.175
2726.87057	3853.775
2729.46747	3849.775
2732.06276	3873.775
2734.65644	3860.775
2737.24852	3859.875
2739.83899	3854.875
2742.42786	3833.175
2745.01513	3844.175
2747.60079	3826.375
2750.18486	3828.875
2752.76733	3832.875
2755.3482	3814.775
2757.92747	3838.675
2760.50515	3814.475
2763.08123	3821.875
2765.65573	3795.575
2768.22863	3804.775
2770.79994	3799.075
2773.36967	3803.075
2775.9378	3806.675
2778.50435	3798.775
2781.06932	3789.775
2783.6327	3779.275
2786.1945	3785.375
2788.75471	3791.375
2791.31335	3781.975
2793.87041	3776.475
2796.42589	3761.175
2798.97979	3758.175
2801.53212	3744.575
2804.08288	3746.975
2806.63206	3749.375
2809.17967	3734.075
2811.72571	3737.375
2814.27018	3732.675
2816.81308	3740.875
2819.35442	3725.175
2821.89419	3728.175
2824.43239	3733.475
2826.96904	3729.675
2829.50412	3728.875
2832.03763	3725.275
2834.56959	3725.975
2837.1	3715.975
2839.62884	3725.375
2842.15613	3721.675
2844.68186	3719.375
2847.20604	3738.375
2849.72867	3739.375
2852.24974	3743.075
2854.76927	3747.675
2857.28724	3753.075
2859.80367	3731.975
2862.31855	3730.075
2864.83189	3719.775
2867.34368	3716.075
2869.85393	3727.175
2872.36264	3720.575
2874.8698	3716.875
2877.37543	3713.375
2879.87952	3716.175
2882.38207	3725.675
2884.88308	3721.175
2887.38256	3722.975
2889.88051	3726.575
2892.37692	3724.775
2894.8718	3715.775
2897.36515	3748.575
2899.85698	3737.975
2902.34727	3755.275
2904.83604	3743.275
2907.32328	3760.975
2909.809	3760.675
2912.29319	3763.475
2914.77587	3777.575
2917.25702	3775.475
2919.73665	3770.175
2922.21476	3780.375
2924.69136	3775.775
2927.16644	3771.375
2929.64	3801.875
2932.11205	3771.075
2934.58258	3751.375
2937.05161	3775.075
2939.51912	3777.675
2941.98513	3784.275
2944.44962	3764.475
2946.91261	3755.375
2949.37409	3768.575
2951.83407	3761.875
2954.29254	3745.975
2956.74951	3733.675
2959.20498	3728.875
2961.65895	3722.975
2964.11142	3709.475
2966.56239	3682.675
2969.01186	3670.575
2971.45984	3656.475
2973.90632	3644.175
2976.35131	3639.075
2978.7948	3618.975
2981.23681	3595.775
2983.67732	3583.175
2986.11635	3587.475
2988.55388	3566.075
2990.98993	3549.475
2993.4245	3539.075
2995.85758	3550.875
2998.28917	3521.175
3000.71928	3542.275
3003.14791	3524.775
3005.57506	3513.075
3008.00073	3526.775
3010.42493	3493.075
3012.84764	3505.475
3015.26888	3506.675
3017.68865	3494.775
3020.10694	3470.275
3022.52376	3469.475
3024.9391	3465.375
3027.35298	3463.575
3029.76539	3444.675
3032.17632	3439.275
3034.5858	3422.175
3036.9938	3420.775
3039.40034	3413.375
3041.80542	3407.075
3044.20903	3407.375
3046.61118	3388.775
3049.01187	3389.175
3051.4111	3380.975
3053.80888	3374.375
3056.20519	3367.575
3058.60005	3360.275
3060.99345	3367.075
3063.3854	3337.775
3065.7759	3356.875
3068.16494	3342.475
3070.55254	3332.175
3072.93868	3315.575
3075.32338	3310.375
3077.70662	3308.775
3080.08842	3302.475
3082.46878	3310.975
3084.84769	3295.175
3087.22515	3291.575
3089.60118	3293.775
3091.97576	3310.975
3094.3489	3284.675
3096.72061	3300.975
3099.09087	3299.675
3101.4597	3286.275
3103.82709	3301.575
3106.19305	3285.975
3108.55757	3297.175
3110.92066	3283.875
3113.28232	3288.975
3115.64255	3273.875
3118.00134	3258.475
3120.35871	3271.075
3122.71466	3259.375
3125.06917	3254.875
3127.42226	3239.375
3129.77393	3266.175
3132.12417	3256.575
3134.47299	3260.675
3136.82039	3266.175
3139.16636	3256.575
3141.51092	3259.175
3143.85406	3261.075
3146.19579	3258.575
3148.53609	3259.175
3150.87499	3275.275
3153.21246	3267.875
3155.54853	3300.675
3157.88318	3281.075
3160.21642	3289.475
3162.54826	3285.775
3164.87868	3295.875
3167.2077	3299.975
3169.5353	3283.475
3171.86151	3278.575
3174.18631	3272.775
3176.5097	3292.275
3178.83169	3284.375
3181.15228	3285.275
3183.47147	3283.575
3185.78926	3280.475
3188.10565	3278.075
3190.42065	3281.375
3192.73424	3278.175
3195.04645	3275.175
3197.35725	3293.375
3199.66667	3295.875
3201.97469	3295.275
3204.28132	3305.675
3206.58656	3296.775
3208.8904	3291.075
