Data from AgNPs_FTO_APTES_UA_0um_CRN_0.1mM_R6G_10uM_NaF_0.1M_Addition_RamanShift__53__11-13-08-959.txt Node

Date: Tue Dec 21 11:13:08 GMT 2021
User: TCL
Spectrometer: QEP01345
Trigger mode: 4
Integration Time (sec): 7.000000E0
Scans to average: 10
Electric dark correction enabled: true
Nonlinearity correction enabled: false
Boxcar width: 0
XAxis mode: Raman Shifts
Number of Pixels in Spectrum: 1044
>>>>>Begin Spectral Data<<<<<
46.04893	-0.225
50.45542	-1.625
54.85868	0.475
59.25871	0.275
63.6555	44.975
68.04907	53.075
72.43941	53.375
76.82654	50.875
81.21044	56.875
85.59113	60.175
89.96862	61.375
94.34289	62.375
98.71396	65.275
103.08183	72.175
107.4465	75.175
111.80798	74.575
116.16626	73.575
120.52136	76.175
124.87327	79.675
129.222	80.775
133.56755	86.275
137.90993	95.875
142.24913	106.975
146.58517	118.175
150.91804	140.575
155.24774	167.375
159.57429	205.575
163.89768	265.775
168.21792	348.375
172.53501	474.475
176.84895	662.375
181.15975	925.075
185.46741	1298.675
189.77193	1784.975
194.07331	2373.175
198.37157	3049.975
202.6667	3767.475
206.9587	4492.975
211.24758	5176.975
215.53334	5901.475
219.81599	6661.275
224.09553	7512.475
228.37195	8401.775
232.64527	9414.275
236.91549	10442.975
241.18261	11481.375
245.44663	12399.575
249.70755	13226.575
253.96539	13948.875
258.22014	14588.075
262.4718	15063.975
266.72039	15436.175
270.96589	15581.375
275.20832	15627.475
279.44768	15581.975
283.68397	15523.375
287.91719	15503.875
292.14735	15529.975
296.37445	15554.675
300.59849	15598.075
304.81948	15589.775
309.03742	15532.675
313.25231	15378.075
317.46415	14992.875
321.67296	14517.275
325.87872	14080.875
330.08145	13841.475
334.28114	13757.875
338.47781	13805.575
342.67145	13938.775
346.86207	14165.175
351.04966	14434.775
355.23424	14713.775
359.4158	14971.475
363.59435	15116.975
367.76989	15197.375
371.94243	15225.475
376.11196	15221.075
380.27849	15281.375
384.44203	15393.275
388.60257	15546.975
392.76012	15733.775
396.91468	15998.775
401.06626	16313.575
405.21485	16467.675
409.36047	16459.375
413.50311	16260.275
417.64277	16148.575
421.77947	16241.575
425.9132	16406.975
430.04396	16588.775
434.17176	16730.575
438.2966	16890.975
442.41849	17269.575
446.53742	17922.975
450.6534	18689.075
454.76644	19221.275
458.87653	19280.675
462.98368	19010.375
467.08789	18576.275
471.18916	18170.275
475.2875	17852.575
479.38291	17843.075
483.4754	17885.375
487.56496	17766.675
491.6516	17436.975
495.73531	17038.575
499.81612	16749.375
503.89401	16745.075
507.96899	16748.275
512.04106	16520.275
516.11023	16135.275
520.1765	15702.675
524.23987	15421.275
528.30034	15276.675
532.35792	15143.975
536.41261	14896.275
540.46441	14612.275
544.51333	14579.975
548.55936	14813.675
552.60252	15321.975
556.64279	15934.975
560.6802	16455.275
564.71473	16774.275
568.7464	17272.175
572.7752	18032.475
576.80114	18753.775
580.82422	19381.975
584.84444	19973.775
588.86181	20694.075
592.87633	21558.475
596.888	21913.375
600.89682	21316.875
604.9028	20966.275
608.90594	21721.575
612.90624	22551.175
616.90371	20525.775
620.89834	16737.375
624.89015	15100.675
628.87913	15024.975
632.86528	15263.175
636.84862	15291.175
640.82913	15004.275
644.80683	14502.375
648.78172	14052.775
652.75379	13865.575
656.72306	13940.775
660.68952	14146.075
664.65319	14068.575
668.61405	13827.375
672.57211	13727.375
676.52738	13805.475
680.47986	13796.975
684.42955	13689.075
688.37646	13584.175
692.32058	13565.475
696.26192	13732.275
700.20048	13935.675
704.13626	14185.575
708.06928	14232.475
711.99952	14163.375
715.927	14093.775
719.85171	14099.175
723.77365	14055.075
727.69284	13871.175
731.60928	13666.575
735.52295	13631.475
739.43388	13673.675
743.34206	13724.675
747.24749	13851.475
751.15017	14077.575
755.05012	14439.175
758.94733	15059.975
762.8418	16097.475
766.73354	17706.975
770.62254	19096.975
774.50882	19032.475
778.39237	17668.875
782.27321	16010.675
786.15132	14756.075
790.02671	14011.575
793.89938	13658.075
797.76935	13507.775
801.6366	13528.475
805.50115	13518.475
809.36299	13450.675
813.22213	13249.575
817.07857	13123.375
820.93231	13034.575
824.78336	12872.175
828.63172	12785.675
832.47738	12742.975
836.32036	12757.875
840.16066	12747.475
843.99827	12772.975
847.8332	12720.675
851.66546	12642.475
855.49504	12616.075
859.32195	12658.975
863.1462	12569.375
866.96777	12506.375
870.78668	12466.075
874.60293	12455.175
878.41652	12488.975
882.22745	12516.375
886.03573	12560.975
889.84136	12576.775
893.64433	12522.675
897.44466	12501.975
901.24235	12423.575
905.0374	12326.175
908.8298	12221.875
912.61957	12199.775
916.40671	12349.975
920.19121	12587.575
923.97308	12871.175
927.75233	12955.075
931.52895	12772.275
935.30295	12480.675
939.07433	12094.475
942.84309	11825.575
946.60924	11646.975
950.37278	11611.875
954.13371	11608.275
957.89203	11626.375
961.64774	11596.675
965.40086	11577.475
969.15137	11545.475
972.89929	11409.675
976.64461	11309.775
980.38733	11255.775
984.12747	11262.875
987.86502	11332.775
991.59999	11467.375
995.33237	11740.275
999.06217	12179.175
1002.78939	12736.775
1006.51404	13194.775
1010.23611	13512.775
1013.95561	13710.575
1017.67255	13761.475
1021.38692	13463.575
1025.09872	13055.975
1028.80796	12850.675
1032.51465	12965.775
1036.21877	13173.175
1039.92035	13240.275
1043.61937	13171.375
1047.31584	12989.775
1051.00976	12807.875
1054.70114	12717.075
1058.38998	12747.275
1062.07627	12878.875
1065.76003	12992.575
1069.44126	13243.475
1073.11995	13542.175
1076.79611	13798.775
1080.46974	13876.375
1084.14085	14014.075
1087.80943	14263.375
1091.47549	14514.475
1095.13903	14622.275
1098.80005	14393.375
1102.45857	13864.675
1106.11456	13368.875
1109.76805	13149.075
1113.41903	13142.775
1117.06751	13282.975
1120.71348	13447.175
1124.35696	13674.675
1127.99793	13883.675
1131.63641	14068.075
1135.2724	14070.975
1138.90589	14056.675
1142.5369	14146.775
1146.16542	14258.275
1149.79145	14430.975
1153.415	14715.975
1157.03607	15078.175
1160.65467	15761.275
1164.27079	16840.875
1167.88443	18248.475
1171.49561	19975.375
1175.10432	22158.175
1178.71056	24805.675
1182.31434	27213.475
1185.91565	28312.675
1189.51451	28049.875
1193.11091	27050.375
1196.70485	25729.075
1200.29634	24214.475
1203.88538	22920.575
1207.47197	22088.175
1211.05612	21521.675
1214.63782	20978.575
1218.21708	20489.475
1221.79391	20262.475
1225.36829	20129.975
1228.94024	19807.275
1232.50976	19112.475
1236.07685	18364.575
1239.6415	17879.775
1243.20374	17677.675
1246.76355	17704.975
1250.32093	17961.875
1253.8759	18451.575
1257.42845	19153.475
1260.97859	19961.375
1264.52631	20741.775
1268.07163	21541.275
1271.61453	22388.675
1275.15503	23298.275
1278.69312	24339.575
1282.22882	25389.675
1285.76211	26600.775
1289.29301	28015.775
1292.82151	29721.575
1296.34761	31797.575
1299.87133	34268.375
1303.39266	36901.975
1306.9116	39498.475
1310.42815	41983.575
1313.94233	43802.975
1317.45412	44323.675
1320.96354	43881.275
1324.47058	43139.075
1327.97525	42431.075
1331.47754	41809.575
1334.97747	41195.275
1338.47502	40483.875
1341.97022	39350.875
1345.46305	37835.875
1348.95352	36334.175
1352.44163	35372.775
1355.92738	35645.775
1359.41078	37030.475
1362.89183	38600.175
1366.37053	38807.875
1369.84688	36565.875
1373.32088	32469.675
1376.79254	29038.375
1380.26186	27630.575
1383.72883	27525.575
1387.19347	27707.375
1390.65578	27648.475
1394.11575	28019.375
1397.57339	29085.875
1401.0287	30507.875
1404.48168	31726.575
1407.93234	32180.175
1411.38068	31650.575
1414.82669	30249.975
1418.27039	28290.075
1421.71177	26183.775
1425.15083	24360.575
1428.58758	23243.575
1432.02203	23069.175
1435.45416	23713.675
1438.88399	24707.175
1442.31151	25714.575
1445.73673	26657.575
1449.15965	27454.275
1452.58027	27936.675
1455.9986	28008.175
1459.41463	28077.175
1462.82837	28558.875
1466.23982	29351.175
1469.64898	30108.275
1473.05586	30538.775
1476.46045	30453.575
1479.86276	30234.575
1483.26279	29698.975
1486.66054	29286.075
1490.05602	29144.875
1493.44922	29083.475
1496.84016	28853.475
1500.22882	28572.775
1503.61521	28603.375
1506.99934	28992.775
1510.38121	29378.775
1513.76081	29464.475
1517.13816	28958.175
1520.51324	28102.875
1523.88607	27341.175
1527.25665	27115.375
1530.62498	27153.575
1533.99105	27210.975
1537.35488	27159.675
1540.71647	26778.875
1544.07581	26058.975
1547.4329	25073.975
1550.78776	24083.375
1554.14038	23418.375
1557.49077	23001.375
1560.83892	22839.375
1564.18484	22801.075
1567.52853	22823.575
1570.86999	22974.975
1574.20922	23416.475
1577.54624	23946.775
1580.88103	24246.375
1584.2136	24674.875
1587.54395	25860.875
1590.87208	27897.775
1594.19801	30577.675
1597.52172	33323.475
1600.84321	34469.575
1604.16251	33003.775
1607.47959	29519.175
1610.79447	25545.375
1614.10715	22037.775
1617.41763	19352.375
1620.7259	17600.375
1624.03199	16719.675
1627.33587	16598.375
1630.63757	17252.475
1633.93707	18831.175
1637.23439	21633.175
1640.52951	25976.375
1643.82246	31347.075
1647.11321	36043.775
1650.40179	37473.175
1653.68819	34621.375
1656.97241	29033.775
1660.25446	23315.075
1663.53433	18852.875
1666.81203	15988.675
1670.08756	14228.675
1673.36092	13159.175
1676.63211	12469.675
1679.90115	12016.475
1683.16801	11644.875
1686.43272	11390.575
1689.69527	11194.575
1692.95567	11060.075
1696.2139	10959.375
1699.46999	10873.875
1702.72392	10783.475
1705.97571	10723.075
1709.22535	10649.175
1712.47284	10591.075
1715.71819	10564.375
1718.96139	10502.275
1722.20246	10449.575
1725.44139	10389.675
1728.67818	10259.375
1731.91284	10224.475
1735.14537	10134.075
1738.37576	10088.775
1741.60403	10016.975
1744.83017	10011.475
1748.05418	9999.275
1751.27607	9993.675
1754.49584	9979.175
1757.71349	9960.475
1760.92903	9950.775
1764.14244	9889.775
1767.35375	9870.975
1770.56294	9840.275
1773.77002	9795.575
1776.97499	9747.375
1780.17785	9708.575
1783.37861	9671.175
1786.57727	9639.575
1789.77382	9592.275
1792.96828	9562.675
1796.16064	9524.475
1799.3509	9502.675
1802.53907	9469.475
1805.72514	9433.375
1808.90913	9393.375
1812.09102	9385.875
1815.27083	9337.375
1818.44856	9303.775
1821.6242	9313.175
1824.79776	9294.175
1827.96924	9283.775
1831.13864	9290.675
1834.30597	9297.675
1837.47122	9260.675
1840.6344	9273.075
1843.7955	9284.275
1846.95454	9293.475
1850.11151	9275.775
1853.26642	9266.575
1856.41926	9294.875
1859.57004	9289.375
1862.71876	9276.375
1865.86542	9294.775
1869.01003	9261.775
1872.15258	9270.075
1875.29308	9273.275
1878.43152	9246.675
1881.56792	9251.575
1884.70227	9246.575
1887.83457	9246.775
1890.96482	9264.875
1894.09304	9227.875
1897.21921	9260.675
1900.34335	9225.575
1903.46544	9218.375
1906.58551	9219.575
1909.70353	9203.175
1912.81953	9173.975
1915.93349	9142.175
1919.04543	9110.875
1922.15534	9081.175
1925.26322	9057.575
1928.36908	8991.675
1931.47292	8991.975
1934.57473	8933.375
1937.67453	8898.075
1940.77232	8886.175
1943.86808	8838.375
1946.96184	8811.775
1950.05358	8774.975
1953.14331	8733.575
1956.23103	8709.075
1959.31675	8667.475
1962.40046	8639.875
1965.48217	8624.675
1968.56188	8573.375
1971.63959	8560.775
1974.7153	8514.675
1977.78901	8491.375
1980.86073	8450.575
1983.93046	8437.875
1986.99819	8409.875
1990.06394	8383.475
1993.1277	8348.975
1996.18947	8324.475
1999.24925	8315.975
2002.30706	8252.975
2005.36288	8246.875
2008.41672	8228.775
2011.46859	8207.775
2014.51848	8170.375
2017.56639	8162.175
2020.61233	8155.075
2023.6563	8125.775
2026.6983	8093.375
2029.73833	8076.375
2032.7764	8053.475
2035.8125	8050.775
2038.84664	8062.575
2041.87881	8050.275
2044.90903	8009.275
2047.93729	7991.975
2050.96359	8010.875
2053.98794	7974.375
2057.01034	7994.775
2060.03078	7967.275
2063.04927	7966.675
2066.06582	7927.275
2069.08042	7925.175
2072.09307	7941.375
2075.10378	7908.275
2078.11255	7901.775
2081.11938	7912.975
2084.12426	7885.775
2087.12722	7902.575
2090.12824	7897.975
2093.12732	7890.675
2096.12447	7880.775
2099.11969	7895.275
2102.11299	7866.475
2105.10435	7900.575
2108.09379	7881.675
2111.08131	7886.375
2114.0669	7879.575
2117.05057	7861.075
2120.03233	7873.475
2123.01216	7863.275
2125.99008	7866.375
2128.96609	7849.675
2131.94018	7856.075
2134.91236	7856.175
2137.88263	7867.775
2140.851	7873.875
2143.81746	7854.375
2146.78201	7840.975
2149.74466	7850.475
2152.7054	7853.275
2155.66425	7846.075
2158.6212	7837.075
2161.57625	7826.575
2164.52941	7825.275
2167.48067	7813.775
2170.43004	7809.075
2173.37752	7827.775
2176.32311	7819.075
2179.26681	7826.875
2182.20863	7827.375
2185.14856	7823.775
2188.08661	7802.475
2191.02278	7813.075
2193.95707	7789.075
2196.88948	7803.775
2199.82001	7801.875
2202.74867	7776.175
2205.67545	7771.275
2208.60037	7773.775
2211.52341	7751.275
2214.44458	7732.075
2217.36388	7725.675
2220.28132	7729.875
2223.1969	7693.275
2226.11061	7691.075
2229.02246	7673.775
2231.93245	7657.075
2234.84058	7663.075
2237.74686	7631.175
2240.65128	7608.775
2243.55385	7635.575
2246.45456	7595.875
2249.35343	7580.975
2252.25044	7583.875
2255.14561	7533.675
2258.03893	7534.775
2260.93041	7533.875
2263.82004	7495.075
2266.70783	7460.675
2269.59378	7433.475
2272.4779	7412.275
2275.36017	7410.775
2278.24061	7366.775
2281.11922	7365.475
2283.996	7350.975
2286.87094	7334.975
2289.74405	7338.875
2292.61534	7327.775
2295.4848	7321.675
2298.35243	7326.375
2301.21824	7309.975
2304.08223	7320.875
2306.94439	7323.575
2309.80474	7304.975
2312.66327	7290.275
2315.51999	7296.775
2318.37489	7281.775
2321.22797	7289.875
2324.07925	7296.375
2326.92871	7262.275
2329.77637	7271.475
2332.62222	7274.175
2335.46626	7256.975
2338.3085	7247.075
2341.14893	7263.775
2343.98756	7267.875
2346.8244	7283.075
2349.65943	7267.075
2352.49267	7285.975
2355.32411	7278.275
2358.15376	7258.175
2360.98161	7273.875
2363.80768	7250.075
2366.63195	7272.375
2369.45444	7239.675
2372.27514	7225.875
2375.09405	7192.975
2377.91118	7184.175
2380.72652	7179.975
2383.54009	7164.075
2386.35187	7145.675
2389.16188	7112.075
2391.97011	7101.975
2394.77657	7078.475
2397.58125	7076.975
2400.38416	7070.975
2403.18529	7081.075
2405.98466	7063.675
2408.78226	7051.375
2411.57809	7034.875
2414.37216	7011.975
2417.16446	7023.575
2419.955	7002.575
2422.74378	7009.075
2425.5308	6981.675
2428.31606	6974.175
2431.09956	6967.975
2433.88131	6986.875
2436.6613	6983.975
2439.43954	6984.675
2442.21603	6969.875
2444.99077	6977.075
2447.76377	6970.475
2450.53501	6967.575
2453.30451	6971.375
2456.07226	6959.475
2458.83827	6976.175
2461.60254	6969.675
2464.36507	6989.875
2467.12586	6986.575
2469.88492	6991.775
2472.64224	6970.475
2475.39782	6990.575
2478.15167	7009.575
2480.90379	6997.675
2483.65417	6996.475
2486.40283	7004.575
2489.14976	7005.775
2491.89497	7014.075
2494.63845	7024.675
2497.3802	7042.075
2500.12024	7027.775
2502.85855	7020.875
2505.59514	7011.075
2508.33002	6997.175
2511.06318	7016.075
2513.79462	6992.875
2516.52435	6990.275
2519.25237	6995.075
2521.97867	6966.975
2524.70327	6978.975
2527.42616	6952.375
2530.14734	6942.675
2532.86681	6951.175
2535.58458	6942.475
2538.30065	6929.975
2541.01501	6928.675
2543.72768	6939.475
2546.43864	6927.675
2549.14791	6921.875
2551.85548	6912.875
2554.56136	6904.075
2557.26554	6907.775
2559.96803	6894.375
2562.66883	6892.475
2565.36794	6908.475
2568.06536	6914.275
2570.7611	6904.275
2573.45514	6909.975
2576.14751	6909.375
2578.83819	6894.175
2581.52719	6909.275
2584.21451	6907.775
2586.90015	6894.875
2589.58411	6906.275
2592.2664	6919.475
2594.94701	6894.975
2597.62594	6899.675
2600.30321	6892.875
2602.9788	6884.575
2605.65273	6904.975
2608.32498	6893.175
2610.99557	6906.575
2613.66449	6898.275
2616.33175	6914.075
2618.99734	6916.875
2621.66128	6909.375
2624.32355	6917.875
2626.98416	6903.875
2629.64311	6948.575
2632.30041	6945.775
2634.95605	6955.775
2637.61004	6942.275
2640.26238	6944.075
2642.91306	6933.675
2645.56209	6935.875
2648.20948	6907.075
2650.85521	6913.875
2653.4993	6908.175
2656.14175	6927.775
2658.78255	6941.975
2661.42171	6936.075
2664.05923	6951.775
2666.6951	6961.375
2669.32934	6958.675
2671.96194	6958.575
2674.59291	6962.275
2677.22224	6968.875
2679.84993	6952.375
2682.476	6935.975
2685.10043	6920.675
2687.72324	6916.675
2690.34441	6933.575
2692.96396	6915.275
2695.58188	6917.575
2698.19818	6934.075
2700.81285	6933.275
2703.4259	6939.975
2706.03733	6995.575
2708.64714	6977.175
2711.25533	6962.475
2713.86191	6960.775
2716.46687	6953.275
2719.07021	6963.875
2721.67194	6976.175
2724.27206	6942.675
2726.87057	6990.075
2729.46747	6978.675
2732.06276	7011.475
2734.65644	6991.575
2737.24852	6990.975
2739.83899	6997.475
2742.42786	6992.575
2745.01513	6984.575
2747.60079	6969.375
2750.18486	6990.075
2752.76733	6983.275
2755.3482	6981.475
2757.92747	6998.675
2760.50515	6995.675
2763.08123	6997.575
2765.65573	6980.975
2768.22863	7025.375
2770.79994	7002.575
2773.36967	7017.175
2775.9378	7046.275
2778.50435	7061.575
2781.06932	7024.575
2783.6327	7049.875
2786.1945	7047.875
2788.75471	7047.775
2791.31335	7031.475
2793.87041	7028.075
2796.42589	7011.475
2798.97979	7027.475
2801.53212	7021.975
2804.08288	7002.175
2806.63206	6988.575
2809.17967	6955.175
2811.72571	6963.775
2814.27018	6975.675
2816.81308	6958.175
2819.35442	6932.675
2821.89419	6940.375
2824.43239	6951.375
2826.96904	6927.975
2829.50412	6944.475
2832.03763	6916.775
2834.56959	6890.775
2837.1	6888.975
2839.62884	6893.775
2842.15613	6891.875
2844.68186	6918.175
2847.20604	6920.475
2849.72867	6916.375
2852.24974	6927.975
2854.76927	6910.975
2857.28724	6905.675
2859.80367	6899.275
2862.31855	6873.075
2864.83189	6886.575
2867.34368	6868.275
2869.85393	6878.475
2872.36264	6876.375
2874.8698	6868.975
2877.37543	6874.175
2879.87952	6859.675
2882.38207	6869.375
2884.88308	6876.475
2887.38256	6898.375
2889.88051	6890.075
2892.37692	6918.775
2894.8718	6893.475
2897.36515	6908.075
2899.85698	6937.875
2902.34727	6947.075
2904.83604	6947.375
2907.32328	6948.875
2909.809	6964.175
2912.29319	6952.675
2914.77587	6992.075
2917.25702	6977.575
2919.73665	6981.775
2922.21476	6990.075
2924.69136	6954.875
2927.16644	6975.375
2929.64	6974.675
2932.11205	6983.975
2934.58258	6947.875
2937.05161	6954.675
2939.51912	6949.175
2941.98513	6946.275
2944.44962	6934.175
2946.91261	6917.975
2949.37409	6904.475
2951.83407	6905.375
2954.29254	6905.775
2956.74951	6917.675
2959.20498	6888.475
2961.65895	6859.775
2964.11142	6843.475
2966.56239	6813.775
2969.01186	6800.975
2971.45984	6772.375
2973.90632	6736.375
2976.35131	6732.875
2978.7948	6723.975
2981.23681	6681.875
2983.67732	6647.475
2986.11635	6650.475
2988.55388	6628.475
2990.98993	6607.675
2993.4245	6589.075
2995.85758	6558.675
2998.28917	6555.075
3000.71928	6542.575
3003.14791	6539.875
3005.57506	6534.575
3008.00073	6505.675
3010.42493	6490.075
3012.84764	6497.175
3015.26888	6468.675
3017.68865	6454.475
3020.10694	6439.475
3022.52376	6410.575
3024.9391	6408.475
3027.35298	6407.175
3029.76539	6384.275
3032.17632	6391.575
3034.5858	6382.875
3036.9938	6365.975
3039.40034	6380.975
3041.80542	6360.775
3044.20903	6352.275
3046.61118	6359.775
3049.01187	6336.875
3051.4111	6348.575
3053.80888	6314.075
3056.20519	6316.875
3058.60005	6301.975
3060.99345	6300.675
3063.3854	6267.775
3065.7759	6236.375
3068.16494	6208.775
3070.55254	6190.175
3072.93868	6184.875
3075.32338	6154.875
3077.70662	6154.375
3080.08842	6132.475
3082.46878	6116.975
3084.84769	6103.175
3087.22515	6097.475
3089.60118	6109.775
3091.97576	6117.875
3094.3489	6104.775
3096.72061	6113.975
3099.09087	6091.475
3101.4597	6074.375
3103.82709	6081.475
3106.19305	6072.775
3108.55757	6041.075
3110.92066	6030.675
3113.28232	6029.375
3115.64255	5990.475
3118.00134	5989.775
3120.35871	5973.175
3122.71466	5964.075
3125.06917	5961.075
3127.42226	5928.875
3129.77393	5954.475
3132.12417	5949.975
3134.47299	5948.575
3136.82039	5938.575
3139.16636	5936.875
3141.51092	5912.375
3143.85406	5916.275
3146.19579	5911.875
3148.53609	5899.875
3150.87499	5915.875
3153.21246	5913.075
3155.54853	5932.575
3157.88318	5916.175
3160.21642	5911.575
3162.54826	5909.375
3164.87868	5889.575
3167.2077	5906.175
3169.5353	5906.775
3171.86151	5904.175
3174.18631	5895.975
3176.5097	5902.275
3178.83169	5877.375
3181.15228	5897.475
3183.47147	5874.375
3185.78926	5876.075
3188.10565	5867.675
