Data from AgNPs_FTO_APTES_UA_0um_CRN_0.1mM_R6G_10uM_NaF_0.1M_Addition_RamanShift__30__10-46-18-928.txt Node

Date: Tue Dec 21 10:46:18 GMT 2021
User: TCL
Spectrometer: QEP01345
Trigger mode: 4
Integration Time (sec): 7.000000E0
Scans to average: 10
Electric dark correction enabled: true
Nonlinearity correction enabled: false
Boxcar width: 0
XAxis mode: Raman Shifts
Number of Pixels in Spectrum: 1044
>>>>>Begin Spectral Data<<<<<
46.04893	-0.525
50.45542	0.575
54.85868	-0.525
59.25871	1.175
63.6555	19.875
68.04907	23.575
72.43941	26.675
76.82654	26.175
81.21044	31.575
85.59113	32.575
89.96862	31.575
94.34289	31.375
98.71396	32.875
103.08183	34.475
107.4465	36.375
111.80798	38.075
116.16626	35.075
120.52136	36.275
124.87327	37.975
129.222	32.875
133.56755	36.475
137.90993	40.475
142.24913	39.275
146.58517	42.275
150.91804	43.475
155.24774	47.075
159.57429	58.175
163.89768	70.575
168.21792	84.275
172.53501	108.275
176.84895	140.975
181.15975	195.075
185.46741	264.675
189.77193	358.175
194.07331	478.675
198.37157	608.775
202.6667	747.175
206.9587	888.175
211.24758	1027.675
215.53334	1172.875
219.81599	1318.675
224.09553	1492.675
228.37195	1696.775
232.64527	1898.475
236.91549	2116.175
241.18261	2324.375
245.44663	2481.175
249.70755	2605.175
253.96539	2685.175
258.22014	2724.775
262.4718	2743.175
266.72039	2757.975
270.96589	2741.675
275.20832	2712.075
279.44768	2650.375
283.68397	2586.475
287.91719	2528.375
292.14735	2527.275
296.37445	2591.775
300.59849	2732.775
304.81948	2926.475
309.03742	3087.275
313.25231	3128.875
317.46415	2937.275
321.67296	2621.475
325.87872	2351.975
330.08145	2212.775
334.28114	2203.775
338.47781	2255.175
342.67145	2343.075
346.86207	2518.775
351.04966	2743.575
355.23424	3031.475
359.4158	3229.175
363.59435	3327.575
367.76989	3345.175
371.94243	3322.175
376.11196	3271.375
380.27849	3197.775
384.44203	3127.375
388.60257	3013.375
392.76012	2956.575
396.91468	2966.275
401.06626	3049.475
405.21485	3114.375
409.36047	3050.275
413.50311	2816.375
417.64277	2590.575
421.77947	2445.375
425.9132	2391.975
430.04396	2378.875
434.17176	2391.775
438.2966	2441.675
442.41849	2540.475
446.53742	2660.975
450.6534	2776.175
454.76644	2828.175
458.87653	2814.275
462.98368	2758.775
467.08789	2670.775
471.18916	2565.975
475.2875	2458.375
479.38291	2373.175
483.4754	2313.075
487.56496	2263.975
491.6516	2251.275
495.73531	2241.275
499.81612	2258.375
503.89401	2304.575
507.96899	2381.375
512.04106	2441.075
516.11023	2555.175
520.1765	2622.075
524.23987	2606.575
528.30034	2520.175
532.35792	2429.375
536.41261	2328.675
540.46441	2217.275
544.51333	2179.275
548.55936	2175.275
552.60252	2213.275
556.64279	2291.275
560.6802	2359.975
564.71473	2419.175
568.7464	2578.975
572.7752	2690.175
576.80114	2547.175
580.82422	2332.475
584.84444	2207.175
588.86181	2176.975
592.87633	2202.875
596.888	2245.875
600.89682	2378.975
604.9028	2811.675
608.90594	3953.275
612.90624	5650.275
616.90371	5761.575
620.89834	3719.575
624.89015	2569.675
628.87913	2273.175
632.86528	2228.975
636.84862	2273.175
640.82913	2283.375
644.80683	2169.675
648.78172	2103.775
652.75379	2172.675
656.72306	2409.975
660.68952	2638.775
664.65319	2548.175
668.61405	2263.275
672.57211	2103.175
676.52738	2110.875
680.47986	2145.375
684.42955	2127.075
688.37646	2119.175
692.32058	2138.775
696.26192	2212.175
700.20048	2307.375
704.13626	2384.575
708.06928	2342.775
711.99952	2243.175
715.927	2170.475
719.85171	2149.975
723.77365	2144.375
727.69284	2116.175
731.60928	2121.275
735.52295	2106.575
739.43388	2123.075
743.34206	2123.275
747.24749	2107.975
751.15017	2127.675
755.05012	2188.075
758.94733	2355.575
762.8418	2687.675
766.73354	3268.175
770.62254	3963.475
774.50882	4427.575
778.39237	4409.575
782.27321	3746.675
786.15132	2957.075
790.02671	2493.175
793.89938	2302.375
797.76935	2237.475
801.6366	2218.475
805.50115	2191.875
809.36299	2187.375
813.22213	2164.375
817.07857	2156.575
820.93231	2151.075
824.78336	2139.975
828.63172	2153.575
832.47738	2145.475
836.32036	2134.375
840.16066	2127.175
843.99827	2101.175
847.8332	2123.275
851.66546	2140.375
855.49504	2177.375
859.32195	2180.975
863.1462	2156.375
866.96777	2103.675
870.78668	2066.175
874.60293	2053.275
878.41652	2054.375
882.22745	2064.875
886.03573	2072.575
889.84136	2064.475
893.64433	2048.875
897.44466	2058.775
901.24235	2059.775
905.0374	2034.775
908.8298	2009.975
912.61957	1999.375
916.40671	2012.875
920.19121	2049.075
923.97308	2080.075
927.75233	2138.675
931.52895	2178.175
935.30295	2156.575
939.07433	2033.775
942.84309	1930.275
946.60924	1860.775
950.37278	1797.075
954.13371	1768.575
957.89203	1760.675
961.64774	1736.175
965.40086	1725.675
969.15137	1715.775
972.89929	1705.675
976.64461	1695.175
980.38733	1697.975
984.12747	1704.375
987.86502	1705.575
991.59999	1698.375
995.33237	1711.775
999.06217	1745.475
1002.78939	1768.675
1006.51404	1802.575
1010.23611	1850.575
1013.95561	1912.275
1017.67255	2085.475
1021.38692	1910.675
1025.09872	1875.775
1028.80796	1863.175
1032.51465	1910.075
1036.21877	2003.075
1039.92035	2145.575
1043.61937	2219.775
1047.31584	2189.075
1051.00976	2121.475
1054.70114	2032.175
1058.38998	1943.175
1062.07627	1890.575
1065.76003	1868.475
1069.44126	1843.575
1073.11995	1896.375
1076.79611	1956.875
1080.46974	2052.275
1084.14085	2153.475
1087.80943	2229.075
1091.47549	2247.675
1095.13903	2151.675
1098.80005	2011.975
1102.45857	1917.375
1106.11456	1903.475
1109.76805	1947.375
1113.41903	2043.775
1117.06751	2187.275
1120.71348	2366.875
1124.35696	2587.975
1127.99793	2743.575
1131.63641	2706.475
1135.2724	2445.375
1138.90589	2207.075
1142.5369	2073.175
1146.16542	1986.675
1149.79145	1942.275
1153.415	1948.775
1157.03607	1988.675
1160.65467	2061.575
1164.27079	2162.675
1167.88443	2314.275
1171.49561	2570.175
1175.10432	3022.075
1178.71056	3649.775
1182.31434	4029.375
1185.91565	4051.375
1189.51451	3897.175
1193.11091	3636.175
1196.70485	3277.375
1200.29634	3009.475
1203.88538	2782.175
1207.47197	2495.475
1211.05612	2248.175
1214.63782	2114.775
1218.21708	2042.975
1221.79391	2008.775
1225.36829	1994.975
1228.94024	1993.775
1232.50976	2005.475
1236.07685	2025.675
1239.6415	2072.975
1243.20374	2140.475
1246.76355	2183.075
1250.32093	2237.675
1253.8759	2342.675
1257.42845	2463.875
1260.97859	2601.275
1264.52631	2756.375
1268.07163	2899.875
1271.61453	2989.375
1275.15503	3011.675
1278.69312	2983.775
1282.22882	2931.775
1285.76211	2983.175
1289.29301	3113.475
1292.82151	3235.575
1296.34761	3356.375
1299.87133	3515.275
1303.39266	3852.875
1306.9116	4395.775
1310.42815	5068.675
1313.94233	5470.575
1317.45412	5289.675
1320.96354	4693.275
1324.47058	4046.975
1327.97525	3502.375
1331.47754	3171.375
1334.97747	3036.275
1338.47502	3083.575
1341.97022	3228.075
1345.46305	3514.975
1348.95352	4001.475
1352.44163	4648.375
1355.92738	5524.275
1359.41078	6656.275
1362.89183	7624.975
1366.37053	7362.275
1369.84688	6105.175
1373.32088	4805.275
1376.79254	3923.475
1380.26186	3396.375
1383.72883	3079.375
1387.19347	2829.675
1390.65578	2583.775
1394.11575	2407.275
1397.57339	2291.975
1401.0287	2249.475
1404.48168	2232.375
1407.93234	2245.075
1411.38068	2276.475
1414.82669	2324.575
1418.27039	2372.975
1421.71177	2398.775
1425.15083	2415.475
1428.58758	2421.975
1432.02203	2462.275
1435.45416	2495.475
1438.88399	2523.175
1442.31151	2496.875
1445.73673	2470.075
1449.15965	2450.175
1452.58027	2381.275
1455.9986	2301.375
1459.41463	2260.675
1462.82837	2272.775
1466.23982	2309.975
1469.64898	2382.575
1473.05586	2447.175
1476.46045	2481.075
1479.86276	2544.675
1483.26279	2627.475
1486.66054	2709.875
1490.05602	2799.675
1493.44922	2948.375
1496.84016	3250.875
1500.22882	3788.875
1503.61521	4525.875
1506.99934	5323.875
1510.38121	6114.175
1513.76081	6568.075
1517.13816	6192.875
1520.51324	5107.375
1523.88607	4038.575
1527.25665	3307.875
1530.62498	2920.575
1533.99105	2716.675
1537.35488	2589.575
1540.71647	2530.375
1544.07581	2523.475
1547.4329	2531.375
1550.78776	2574.975
1554.14038	2603.075
1557.49077	2658.075
1560.83892	2752.475
1564.18484	2869.975
1567.52853	3050.275
1570.86999	3247.575
1574.20922	3403.775
1577.54624	3379.475
1580.88103	3117.575
1584.2136	2699.475
1587.54395	2445.675
1590.87208	2410.175
1594.19801	2557.575
1597.52172	2790.475
1600.84321	2912.075
1604.16251	2795.275
1607.47959	2578.475
1610.79447	2344.275
1614.10715	2111.275
1617.41763	1952.875
1620.7259	1855.875
1624.03199	1830.475
1627.33587	1830.375
1630.63757	1880.875
1633.93707	1937.375
1637.23439	2066.875
1640.52951	2313.275
1643.82246	2691.175
1647.11321	3253.375
1650.40179	3732.575
1653.68819	3756.875
1656.97241	3217.775
1660.25446	2523.675
1663.53433	2062.375
1666.81203	1819.375
1670.08756	1676.175
1673.36092	1599.375
1676.63211	1544.775
1679.90115	1507.475
1683.16801	1490.875
1686.43272	1459.175
1689.69527	1446.075
1692.95567	1435.075
1696.2139	1428.775
1699.46999	1426.075
1702.72392	1407.775
1705.97571	1394.075
1709.22535	1375.575
1712.47284	1374.975
1715.71819	1382.075
1718.96139	1395.975
1722.20246	1400.875
1725.44139	1392.975
1728.67818	1346.175
1731.91284	1318.975
1735.14537	1283.775
1738.37576	1258.775
1741.60403	1219.375
1744.83017	1211.675
1748.05418	1198.475
1751.27607	1187.175
1754.49584	1188.975
1757.71349	1166.075
1760.92903	1161.875
1764.14244	1139.975
1767.35375	1133.875
1770.56294	1118.775
1773.77002	1106.275
1776.97499	1085.075
1780.17785	1067.375
1783.37861	1064.175
1786.57727	1052.875
1789.77382	1046.475
1792.96828	1029.375
1796.16064	1038.975
1799.3509	1027.075
1802.53907	1027.275
1805.72514	1013.875
1808.90913	1003.175
1812.09102	1000.575
1815.27083	999.575
1818.44856	992.775
1821.6242	982.975
1824.79776	980.075
1827.96924	970.975
1831.13864	971.675
1834.30597	970.975
1837.47122	965.375
1840.6344	959.175
1843.7955	954.575
1846.95454	957.375
1850.11151	949.775
1853.26642	948.975
1856.41926	948.075
1859.57004	947.075
1862.71876	939.175
1865.86542	941.675
1869.01003	941.275
1872.15258	930.475
1875.29308	939.475
1878.43152	932.675
1881.56792	929.875
1884.70227	935.975
1887.83457	928.575
1890.96482	922.075
1894.09304	925.075
1897.21921	924.275
1900.34335	923.975
1903.46544	927.675
1906.58551	916.175
1909.70353	914.975
1912.81953	916.575
1915.93349	916.975
1919.04543	918.675
1922.15534	903.875
1925.26322	905.275
1928.36908	900.075
1931.47292	892.075
1934.57473	891.875
1937.67453	887.775
1940.77232	879.375
1943.86808	884.075
1946.96184	884.175
1950.05358	871.175
1953.14331	871.175
1956.23103	875.075
1959.31675	862.875
1962.40046	863.975
1965.48217	856.075
1968.56188	854.375
1971.63959	853.175
1974.7153	853.075
1977.78901	846.775
1980.86073	850.375
1983.93046	849.575
1986.99819	839.975
1990.06394	830.175
1993.1277	831.375
1996.18947	821.975
1999.24925	819.175
2002.30706	815.975
2005.36288	813.675
2008.41672	808.975
2011.46859	806.275
2014.51848	806.575
2017.56639	801.275
2020.61233	804.375
2023.6563	793.575
2026.6983	802.575
2029.73833	792.675
2032.7764	785.275
2035.8125	776.075
2038.84664	783.075
2041.87881	776.675
2044.90903	776.975
2047.93729	773.775
2050.96359	776.875
2053.98794	774.475
2057.01034	770.675
2060.03078	770.175
2063.04927	766.675
2066.06582	768.075
2069.08042	757.275
2072.09307	765.775
2075.10378	760.375
2078.11255	762.175
2081.11938	766.875
2084.12426	756.875
2087.12722	754.275
2090.12824	758.875
2093.12732	761.375
2096.12447	763.875
2099.11969	758.275
2102.11299	759.575
2105.10435	760.675
2108.09379	762.175
2111.08131	769.975
2114.0669	763.375
2117.05057	758.475
2120.03233	759.375
2123.01216	754.875
2125.99008	760.375
2128.96609	759.675
2131.94018	749.875
2134.91236	755.475
2137.88263	745.875
2140.851	749.475
2143.81746	752.275
2146.78201	743.775
2149.74466	748.075
2152.7054	741.475
2155.66425	740.475
2158.6212	743.975
2161.57625	747.675
2164.52941	735.975
2167.48067	742.775
2170.43004	736.775
2173.37752	739.075
2176.32311	736.875
2179.26681	731.775
2182.20863	735.275
2185.14856	736.075
2188.08661	735.075
2191.02278	733.075
2193.95707	733.375
2196.88948	731.375
2199.82001	721.575
2202.74867	723.075
2205.67545	724.875
2208.60037	725.175
2211.52341	718.375
2214.44458	716.475
2217.36388	716.175
2220.28132	714.575
2223.1969	697.475
2226.11061	705.775
2229.02246	706.675
2231.93245	695.375
2234.84058	700.175
2237.74686	700.775
2240.65128	694.875
2243.55385	693.675
2246.45456	700.475
2249.35343	689.375
2252.25044	694.975
2255.14561	694.275
2258.03893	699.275
2260.93041	705.475
2263.82004	695.775
2266.70783	697.575
2269.59378	690.375
2272.4779	689.275
2275.36017	687.475
2278.24061	687.275
2281.11922	692.175
2283.996	674.275
2286.87094	677.775
2289.74405	669.675
2292.61534	668.475
2295.4848	668.575
2298.35243	668.775
2301.21824	665.475
2304.08223	659.975
2306.94439	671.375
2309.80474	660.075
2312.66327	655.775
2315.51999	657.275
2318.37489	657.475
2321.22797	658.975
2324.07925	653.475
2326.92871	658.875
2329.77637	659.975
2332.62222	650.075
2335.46626	653.075
2338.3085	653.975
2341.14893	649.675
2343.98756	647.075
2346.8244	649.475
2349.65943	644.675
2352.49267	649.975
2355.32411	652.175
2358.15376	655.875
2360.98161	660.275
2363.80768	663.475
2366.63195	670.175
2369.45444	671.875
2372.27514	664.575
2375.09405	670.475
2377.91118	666.775
2380.72652	659.075
2383.54009	657.675
2386.35187	652.375
2389.16188	656.075
2391.97011	640.175
2394.77657	637.375
2397.58125	631.475
2400.38416	640.275
2403.18529	637.875
2405.98466	629.875
2408.78226	628.975
2411.57809	625.675
2414.37216	624.075
2417.16446	620.975
2419.955	618.975
2422.74378	622.175
2425.5308	613.375
2428.31606	624.675
2431.09956	621.475
2433.88131	620.175
2436.6613	628.475
2439.43954	626.975
2442.21603	616.975
2444.99077	621.475
2447.76377	625.275
2450.53501	623.375
2453.30451	630.075
2456.07226	632.375
2458.83827	626.575
2461.60254	625.875
2464.36507	616.075
2467.12586	627.975
2469.88492	622.075
2472.64224	626.175
2475.39782	628.475
2478.15167	634.775
2480.90379	628.775
2483.65417	634.275
2486.40283	632.275
2489.14976	637.475
2491.89497	638.775
2494.63845	649.875
2497.3802	651.075
2500.12024	645.975
2502.85855	646.275
2505.59514	633.775
2508.33002	625.475
2511.06318	629.675
2513.79462	616.075
2516.52435	610.975
2519.25237	608.275
2521.97867	602.875
2524.70327	603.375
2527.42616	598.075
2530.14734	592.875
2532.86681	605.675
2535.58458	605.275
2538.30065	597.675
2541.01501	601.975
2543.72768	605.675
2546.43864	608.675
2549.14791	606.275
2551.85548	610.075
2554.56136	608.375
2557.26554	605.375
2559.96803	616.475
2562.66883	607.875
2565.36794	609.275
2568.06536	616.975
2570.7611	609.075
2573.45514	615.075
2576.14751	608.275
2578.83819	611.875
2581.52719	611.875
2584.21451	600.975
2586.90015	604.675
2589.58411	603.175
2592.2664	593.675
2594.94701	606.375
2597.62594	605.675
2600.30321	603.175
2602.9788	594.075
2605.65273	602.175
2608.32498	594.875
2610.99557	599.375
2613.66449	595.675
2616.33175	596.175
2618.99734	600.475
2621.66128	593.875
2624.32355	596.775
2626.98416	603.075
2629.64311	598.175
2632.30041	594.675
2634.95605	594.375
2637.61004	599.375
2640.26238	596.875
2642.91306	595.275
2645.56209	593.775
2648.20948	595.375
2650.85521	600.775
2653.4993	592.275
2656.14175	601.475
2658.78255	601.375
2661.42171	611.275
2664.05923	611.075
2666.6951	616.175
2669.32934	625.675
2671.96194	631.875
2674.59291	636.275
2677.22224	637.075
2679.84993	642.275
2682.476	648.175
2685.10043	655.075
2687.72324	656.775
2690.34441	668.375
2692.96396	668.175
2695.58188	679.675
2698.19818	688.575
2700.81285	696.075
2703.4259	716.275
2706.03733	756.975
2708.64714	749.275
2711.25533	738.075
2713.86191	747.675
2716.46687	748.375
2719.07021	745.275
2721.67194	748.675
2724.27206	733.675
2726.87057	733.975
2729.46747	732.975
2732.06276	728.275
2734.65644	719.975
2737.24852	722.375
2739.83899	703.775
2742.42786	708.075
2745.01513	695.075
2747.60079	701.775
2750.18486	702.875
2752.76733	697.175
2755.3482	697.375
2757.92747	700.375
2760.50515	711.975
2763.08123	712.175
2765.65573	724.275
2768.22863	740.075
2770.79994	741.775
2773.36967	764.575
2775.9378	777.875
2778.50435	790.475
2781.06932	805.675
2783.6327	826.475
2786.1945	844.275
2788.75471	868.475
2791.31335	893.975
2793.87041	921.475
2796.42589	941.275
2798.97979	975.275
2801.53212	1005.575
2804.08288	1048.175
2806.63206	1070.075
2809.17967	1105.375
2811.72571	1129.875
2814.27018	1146.775
2816.81308	1172.375
2819.35442	1175.975
2821.89419	1177.575
2824.43239	1172.175
2826.96904	1168.475
2829.50412	1157.475
2832.03763	1151.575
2834.56959	1153.175
2837.1	1154.675
2839.62884	1182.875
2842.15613	1227.275
2844.68186	1287.075
2847.20604	1356.675
2849.72867	1412.375
2852.24974	1427.675
2854.76927	1426.475
2857.28724	1417.575
2859.80367	1404.175
2862.31855	1374.775
2864.83189	1337.475
2867.34368	1321.775
2869.85393	1311.475
2872.36264	1295.975
2874.8698	1288.375
2877.37543	1273.775
2879.87952	1273.675
2882.38207	1271.275
2884.88308	1253.675
2887.38256	1257.875
2889.88051	1261.175
2892.37692	1271.075
2894.8718	1269.075
2897.36515	1270.475
2899.85698	1279.875
2902.34727	1271.575
2904.83604	1277.175
2907.32328	1270.375
2909.809	1273.175
2912.29319	1271.075
2914.77587	1266.575
2917.25702	1257.775
2919.73665	1256.175
2922.21476	1249.075
2924.69136	1236.975
2927.16644	1216.075
2929.64	1200.575
2932.11205	1174.675
2934.58258	1142.375
2937.05161	1128.675
2939.51912	1087.975
2941.98513	1054.275
2944.44962	999.475
2946.91261	964.775
2949.37409	919.275
2951.83407	883.475
2954.29254	865.575
2956.74951	838.475
2959.20498	822.775
2961.65895	799.575
2964.11142	785.175
2966.56239	767.875
2969.01186	761.775
2971.45984	755.275
2973.90632	743.975
2976.35131	734.575
2978.7948	726.375
2981.23681	721.175
2983.67732	703.975
2986.11635	700.475
2988.55388	691.975
2990.98993	680.275
2993.4245	682.775
2995.85758	669.475
2998.28917	660.975
3000.71928	661.475
3003.14791	649.375
3005.57506	649.075
3008.00073	636.075
3010.42493	633.375
3012.84764	629.975
3015.26888	635.275
3017.68865	637.475
3020.10694	625.975
3022.52376	625.275
3024.9391	636.975
3027.35298	635.475
3029.76539	629.575
3032.17632	636.975
3034.5858	630.975
3036.9938	632.875
3039.40034	631.375
3041.80542	626.375
3044.20903	627.475
3046.61118	631.075
3049.01187	623.675
3051.4111	626.275
3053.80888	620.475
3056.20519	627.575
3058.60005	625.475
3060.99345	628.375
3063.3854	622.775
3065.7759	634.575
3068.16494	629.575
3070.55254	628.175
3072.93868	632.975
3075.32338	625.175
3077.70662	629.975
3080.08842	618.975
3082.46878	615.475
3084.84769	613.575
3087.22515	617.575
3089.60118	610.175
3091.97576	615.275
3094.3489	607.775
3096.72061	607.475
3099.09087	609.475
3101.4597	607.075
3103.82709	608.675
3106.19305	616.775
3108.55757	610.575
3110.92066	616.875
3113.28232	613.875
3115.64255	615.075
3118.00134	616.675
3120.35871	616.875
3122.71466	624.575
3125.06917	621.475
3127.42226	629.775
3129.77393	635.475
3132.12417	639.175
3134.47299	652.975
3136.82039	652.175
3139.16636	648.175
3141.51092	664.975
3143.85406	667.475
3146.19579	670.975
3148.53609	674.475
3150.87499	677.275
3153.21246	677.175
3155.54853	694.175
3157.88318	694.075
3160.21642	693.175
3162.54826	703.075
3164.87868	701.675
3167.2077	709.675
3169.5353	705.975
3171.86151	713.475
3174.18631	723.175
3176.5097	721.975
3178.83169	728.875
3181.15228	729.975
3183.47147	736.475
3185.78926	738.675
3188.10565	742.475
3190.42065	750.175
3192.73424	751.275
3195.04645	752.575
3197.35725	760.275
3199.66667	763.275
3201.97469	762.375
3204.28132	778.675
3206.58656	773.775
3208.8904	774.275
3211.19287	777.675
3213.49394	783.675
3215.79363	779.175
3218.09193	780.975
3220.38884	796.175
3222.68438	797.175
3224.97853	794.175
3227.2713	793.075
3229.56269	799.975
3231.8527	801.475
3234.14133	802.075
3236.42858	796.375
3238.71446	805.075
3240.99896	795.875
3243.28209	796.775
3245.56384	803.475
3247.84423	802.575
3250.12324	803.175
3252.40088	805.175
3254.67715	801.975
3256.95205	807.875
3259.22558	799.275
3261.49775	799.475
3263.76855	804.175
3266.03799	808.275
3268.30606	800.375
3270.57277	800.575
3272.83812	799.875
3275.10211	800.675
3277.36474	800.775
3279.62601	801.075
3281.88593	807.475
3284.14448	813.575
3286.40168	805.175
3288.65753	808.475
3290.91202	805.475
3293.16516	808.175
