Data from AgNPs_FTO_APTES_UA_10um_CRN_0.1mM_R6G_10uM_NaF_0.1M_Addition_RamanShift__14__13-51-49-140.txt Node

Date: Tue Dec 21 13:51:49 GMT 2021
User: TCL
Spectrometer: QEP01345
Trigger mode: 4
Integration Time (sec): 7.000000E0
Scans to average: 10
Electric dark correction enabled: true
Nonlinearity correction enabled: false
Boxcar width: 0
XAxis mode: Raman Shifts
Number of Pixels in Spectrum: 1044
>>>>>Begin Spectral Data<<<<<
46.04893	1.2
50.45542	-0.7
54.85868	-2.2
59.25871	0
63.6555	38
68.04907	43.7
72.43941	43.9
76.82654	46.1
81.21044	51.6
85.59113	51.1
89.96862	52.7
94.34289	53.1
98.71396	52.7
103.08183	58.4
107.4465	60.2
111.80798	59.9
116.16626	63
120.52136	62.9
124.87327	64.8
129.222	65.9
133.56755	73.4
137.90993	78.5
142.24913	80.3
146.58517	92.7
150.91804	107.1
155.24774	124.1
159.57429	151.8
163.89768	196.5
168.21792	255.2
172.53501	341.2
176.84895	477.5
181.15975	676.9
185.46741	941.4
189.77193	1315.9
194.07331	1759.1
198.37157	2275.6
202.6667	2833.4
206.9587	3393.8
211.24758	3958.7
215.53334	4523.5
219.81599	5076.9
224.09553	5710.6
228.37195	6402.4
232.64527	7151.9
236.91549	7950.1
241.18261	8780.6
245.44663	9531.3
249.70755	10200.8
253.96539	10761.3
258.22014	11238.8
262.4718	11635.5
266.72039	11843.1
270.96589	11970.4
275.20832	11955.6
279.44768	11866.3
283.68397	11766.8
287.91719	11673.5
292.14735	11591.8
296.37445	11531.6
300.59849	11520
304.81948	11548.3
309.03742	11540.9
313.25231	11450.8
317.46415	11230.8
321.67296	10940.8
325.87872	10695.4
330.08145	10527
334.28114	10489.7
338.47781	10558.5
342.67145	10678.2
346.86207	10814.7
351.04966	10998.9
355.23424	11145
359.4158	11284.4
363.59435	11434.3
367.76989	11487
371.94243	11542.6
376.11196	11562.8
380.27849	11593.4
384.44203	11638.8
388.60257	11739.5
392.76012	11864.8
396.91468	11995.6
401.06626	12201.7
405.21485	12382.8
409.36047	12354.6
413.50311	12207
417.64277	12028.6
421.77947	11944.3
425.9132	11935
430.04396	11977
434.17176	12038.8
438.2966	12102.3
442.41849	12205.1
446.53742	12386.1
450.6534	12577.3
454.76644	12751.5
458.87653	12837.4
462.98368	12881.5
467.08789	12833.4
471.18916	12780.4
475.2875	12710.4
479.38291	12628.3
483.4754	12591.9
487.56496	12520
491.6516	12418.2
495.73531	12320.6
499.81612	12294.3
503.89401	12293.9
507.96899	12331.7
512.04106	12312.9
516.11023	12282.9
520.1765	12229.8
524.23987	12139.1
528.30034	12036.8
532.35792	11932.3
536.41261	11852.2
540.46441	11727.6
544.51333	11738.4
548.55936	11835.7
552.60252	12041.9
556.64279	12251.2
560.6802	12352.4
564.71473	12441.4
568.7464	12604.2
572.7752	12876.3
576.80114	13156.6
580.82422	13491.1
584.84444	13712.2
588.86181	13802.7
592.87633	13771.9
596.888	13689.8
600.89682	13643.2
604.9028	13865
608.90594	14728.9
612.90624	15698.2
616.90371	14976.4
620.89834	13013.1
624.89015	12016.2
628.87913	11902.2
632.86528	12031.2
636.84862	12178.2
640.82913	12072.4
644.80683	11834.7
648.78172	11640.4
652.75379	11599.2
656.72306	11653.1
660.68952	11810.8
664.65319	11851.4
668.61405	11793
672.57211	11751.4
676.52738	11812.7
680.47986	11844
684.42955	11814.1
688.37646	11782
692.32058	11762.1
696.26192	11795.2
700.20048	11846.2
704.13626	11908.5
708.06928	11974.1
711.99952	11928.4
715.927	11872.1
719.85171	11836.2
723.77365	11778
727.69284	11652.6
731.60928	11537.7
735.52295	11473.9
739.43388	11448
743.34206	11435
747.24749	11515.7
751.15017	11551.2
755.05012	11675.5
758.94733	11963.2
762.8418	12458.2
766.73354	13255.9
770.62254	14106.9
774.50882	14343.9
778.39237	13844.3
782.27321	13006.3
786.15132	12253.3
790.02671	11732.5
793.89938	11477.7
797.76935	11358.6
801.6366	11281.5
805.50115	11216.2
809.36299	11149.4
813.22213	11085.3
817.07857	11073.9
820.93231	11043.3
824.78336	11026.7
828.63172	11024.6
832.47738	11004.5
836.32036	10978.1
840.16066	10934.7
843.99827	10923.3
847.8332	10877.3
851.66546	10896
855.49504	10889.9
859.32195	10879.3
863.1462	10880.5
866.96777	10845.5
870.78668	10847.3
874.60293	10857.6
878.41652	10871.9
882.22745	10899.9
886.03573	10935.2
889.84136	10954.7
893.64433	10922.1
897.44466	10893.4
901.24235	10859.6
905.0374	10845.4
908.8298	10819.8
912.61957	10810.9
916.40671	10889.7
920.19121	11005.7
923.97308	11093.6
927.75233	11072.2
931.52895	10998.1
935.30295	10842.6
939.07433	10711.9
942.84309	10559.8
946.60924	10451.3
950.37278	10395.9
954.13371	10380.4
957.89203	10370.2
961.64774	10344.1
965.40086	10317.6
969.15137	10305.8
972.89929	10259.5
976.64461	10207.5
980.38733	10197
984.12747	10177.6
987.86502	10220
991.59999	10248
995.33237	10262.8
999.06217	10381.6
1002.78939	10450
1006.51404	10554.3
1010.23611	10688.1
1013.95561	10801.4
1017.67255	10819.4
1021.38692	10801.1
1025.09872	10706.5
1028.80796	10597.4
1032.51465	10547.3
1036.21877	10575.1
1039.92035	10613.7
1043.61937	10676.2
1047.31584	10752.7
1051.00976	10791.4
1054.70114	10849.4
1058.38998	10917.9
1062.07627	10993.4
1065.76003	11119.1
1069.44126	11239.5
1073.11995	11394.4
1076.79611	11523.1
1080.46974	11604.1
1084.14085	11585.7
1087.80943	11636.5
1091.47549	11730.8
1095.13903	11794.1
1098.80005	11743.4
1102.45857	11537.8
1106.11456	11290.9
1109.76805	11110.7
1113.41903	11047.9
1117.06751	11057.4
1120.71348	11163.4
1124.35696	11266.6
1127.99793	11428.9
1131.63641	11516.1
1135.2724	11457.1
1138.90589	11383.3
1142.5369	11360.2
1146.16542	11354.1
1149.79145	11389.3
1153.415	11483.6
1157.03607	11586.4
1160.65467	11730.3
1164.27079	12063.8
1167.88443	12439.7
1171.49561	12972.9
1175.10432	13658.7
1178.71056	14521.6
1182.31434	15323.8
1185.91565	15803.9
1189.51451	15979.5
1193.11091	15821.6
1196.70485	15404.2
1200.29634	14854.1
1203.88538	14323.9
1207.47197	13927.1
1211.05612	13615.9
1214.63782	13340.1
1218.21708	13071
1221.79391	12779.8
1225.36829	12549.9
1228.94024	12449.8
1232.50976	12388
1236.07685	12361.4
1239.6415	12332.6
1243.20374	12362.7
1246.76355	12430.3
1250.32093	12550.9
1253.8759	12650.5
1257.42845	12932.7
1260.97859	13235.4
1264.52631	13528.9
1268.07163	13819.3
1271.61453	14090.2
1275.15503	14365.8
1278.69312	14643.1
1282.22882	14886.5
1285.76211	15176.8
1289.29301	15561.1
1292.82151	15987.1
1296.34761	16412.8
1299.87133	16928.8
1303.39266	17484.6
1306.9116	18175
1310.42815	18718.7
1313.94233	19096.6
1317.45412	19108.8
1320.96354	18914.7
1324.47058	18804
1327.97525	18692.5
1331.47754	18656
1334.97747	18723.1
1338.47502	18807.4
1341.97022	18970.5
1345.46305	19167.1
1348.95352	19312
1352.44163	19326.5
1355.92738	19369.9
1359.41078	19606.6
1362.89183	19941.9
1366.37053	19736.6
1369.84688	18591.9
1373.32088	17097
1376.79254	15932.7
1380.26186	15293.4
1383.72883	14975.4
1387.19347	14786.3
1390.65578	14607.2
1394.11575	14433.2
1397.57339	14250.7
1401.0287	14226.3
1404.48168	14197.3
1407.93234	14154.5
1411.38068	14004
1414.82669	13722.9
1418.27039	13361.7
1421.71177	12995.1
1425.15083	12674.3
1428.58758	12477.6
1432.02203	12432.3
1435.45416	12504.7
1438.88399	12660.7
1442.31151	12787.5
1445.73673	12955.1
1449.15965	13150.8
1452.58027	13290.7
1455.9986	13439.3
1459.41463	13569.3
1462.82837	13772.6
1466.23982	14025.6
1469.64898	14270.6
1473.05586	14411
1476.46045	14515.1
1479.86276	14605.8
1483.26279	14642.4
1486.66054	14737.9
1490.05602	14961
1493.44922	15283.1
1496.84016	15775.8
1500.22882	16465.1
1503.61521	17257.3
1506.99934	18061.7
1510.38121	18588.3
1513.76081	18588.4
1517.13816	18092.5
1520.51324	17344.3
1523.88607	16568.8
1527.25665	16074.6
1530.62498	15757.5
1533.99105	15486.8
1537.35488	15205.1
1540.71647	14872.3
1544.07581	14530.2
1547.4329	14170.9
1550.78776	13839
1554.14038	13698.6
1557.49077	13693.7
1560.83892	13751.4
1564.18484	13874.1
1567.52853	14014.3
1570.86999	14179.3
1574.20922	14331.5
1577.54624	14401.4
1580.88103	14246.6
1584.2136	14015.5
1587.54395	13928
1590.87208	14065.8
1594.19801	14414
1597.52172	14893.8
1600.84321	15076
1604.16251	14770
1607.47959	14162.2
1610.79447	13472.5
1614.10715	12724.1
1617.41763	12049
1620.7259	11525.8
1624.03199	11205.7
1627.33587	11042.3
1630.63757	11122.7
1633.93707	11462
1637.23439	12078.7
1640.52951	13026
1643.82246	14305.6
1647.11321	15653.3
1650.40179	16551.5
1653.68819	16409.5
1656.97241	15271.3
1660.25446	13670.2
1663.53433	12213.5
1666.81203	11110.7
1670.08756	10362.5
1673.36092	9891.9
1676.63211	9575.8
1679.90115	9376.5
1683.16801	9202.2
1686.43272	9097.5
1689.69527	9016.3
1692.95567	8946.1
1696.2139	8912.9
1699.46999	8879.4
1702.72392	8863.6
1705.97571	8816.9
1709.22535	8778.9
1712.47284	8724.2
1715.71819	8686
1718.96139	8670.8
1722.20246	8631.4
1725.44139	8601.3
1728.67818	8529.1
1731.91284	8511.1
1735.14537	8462.7
1738.37576	8421.7
1741.60403	8383.3
1744.83017	8363.6
1748.05418	8351.7
1751.27607	8345.1
1754.49584	8354.8
1757.71349	8380.3
1760.92903	8392.5
1764.14244	8369.3
1767.35375	8345.6
1770.56294	8291.7
1773.77002	8261.8
1776.97499	8204.7
1780.17785	8164.5
1783.37861	8123.6
1786.57727	8094.8
1789.77382	8061.8
1792.96828	8032.8
1796.16064	8011.3
1799.3509	7985.4
1802.53907	7948.4
1805.72514	7928.5
1808.90913	7912.7
1812.09102	7877.4
1815.27083	7862.4
1818.44856	7825.3
1821.6242	7810.1
1824.79776	7807.6
1827.96924	7805.2
1831.13864	7783.5
1834.30597	7788.4
1837.47122	7770.5
1840.6344	7753.7
1843.7955	7776.5
1846.95454	7763.6
1850.11151	7739.7
1853.26642	7740.3
1856.41926	7726.6
1859.57004	7706.2
1862.71876	7700.8
1865.86542	7674.2
1869.01003	7685.6
1872.15258	7665.8
1875.29308	7654.6
1878.43152	7630.6
1881.56792	7611.9
1884.70227	7597.2
1887.83457	7570
1890.96482	7565.5
1894.09304	7560.5
1897.21921	7542
1900.34335	7535.3
1903.46544	7535.6
1906.58551	7515.1
1909.70353	7479
1912.81953	7488.4
1915.93349	7460.3
1919.04543	7441
1922.15534	7427.8
1925.26322	7408
1928.36908	7398.3
1931.47292	7372.4
1934.57473	7355.8
1937.67453	7322.7
1940.77232	7309.6
1943.86808	7275.2
1946.96184	7257.4
1950.05358	7234.8
1953.14331	7214
1956.23103	7183.8
1959.31675	7185.8
1962.40046	7148.2
1965.48217	7125.3
1968.56188	7086.5
1971.63959	7080
1974.7153	7059.8
1977.78901	7017.7
1980.86073	6979.2
1983.93046	6981.2
1986.99819	6947.5
1990.06394	6948.1
1993.1277	6910.7
1996.18947	6875.7
1999.24925	6859.1
2002.30706	6851.4
2005.36288	6802.7
2008.41672	6797.9
2011.46859	6756.8
2014.51848	6742.4
2017.56639	6718.5
2020.61233	6699.6
2023.6563	6676.3
2026.6983	6642.1
2029.73833	6644.6
2032.7764	6617.5
2035.8125	6602.4
2038.84664	6585.9
2041.87881	6577.2
2044.90903	6553.9
2047.93729	6540.1
2050.96359	6544.7
2053.98794	6538
2057.01034	6511.9
2060.03078	6512
2063.04927	6503.8
2066.06582	6460.1
2069.08042	6487.8
2072.09307	6480.5
2075.10378	6469.8
2078.11255	6455.5
2081.11938	6462.5
2084.12426	6456.6
2087.12722	6422.2
2090.12824	6436.1
2093.12732	6442.9
2096.12447	6432.7
2099.11969	6416.4
2102.11299	6417.4
2105.10435	6428.1
2108.09379	6412.9
2111.08131	6442.8
2114.0669	6410.5
2117.05057	6423.7
2120.03233	6433.1
2123.01216	6429
2125.99008	6442.2
2128.96609	6430.4
2131.94018	6438.6
2134.91236	6446.9
2137.88263	6440.7
2140.851	6422.3
2143.81746	6419
2146.78201	6419.1
2149.74466	6446.9
2152.7054	6428.6
2155.66425	6430.3
2158.6212	6398.2
2161.57625	6410.2
2164.52941	6401.8
2167.48067	6398.1
2170.43004	6397
2173.37752	6379.3
2176.32311	6381.4
2179.26681	6373.2
2182.20863	6355.1
2185.14856	6359.4
2188.08661	6347
2191.02278	6344.7
2193.95707	6325.6
2196.88948	6338.4
2199.82001	6349.7
2202.74867	6324.4
2205.67545	6312.8
2208.60037	6297.7
2211.52341	6303.3
2214.44458	6273.5
2217.36388	6246.8
2220.28132	6254.4
2223.1969	6212.8
2226.11061	6243.1
2229.02246	6193.7
2231.93245	6192.5
2234.84058	6180.6
2237.74686	6177.1
2240.65128	6161.7
2243.55385	6155.8
2246.45456	6137.6
2249.35343	6121.7
2252.25044	6121.2
2255.14561	6132.4
2258.03893	6110.6
2260.93041	6091.1
2263.82004	6081.1
2266.70783	6041.8
2269.59378	6048
2272.4779	6019.6
2275.36017	6009.2
2278.24061	5980.4
2281.11922	5975.8
2283.996	5948.7
2286.87094	5950.2
2289.74405	5924.7
2292.61534	5910.6
2295.4848	5905.6
2298.35243	5899.7
2301.21824	5893.9
2304.08223	5896
2306.94439	5870.9
2309.80474	5859.4
2312.66327	5845.9
2315.51999	5839.9
2318.37489	5856.2
2321.22797	5825.5
2324.07925	5815.7
2326.92871	5811.9
2329.77637	5821
2332.62222	5803.2
2335.46626	5796.2
2338.3085	5788.9
2341.14893	5765.4
2343.98756	5761.1
2346.8244	5739.5
2349.65943	5771.4
2352.49267	5742.6
2355.32411	5753.8
2358.15376	5754.3
2360.98161	5733.7
2363.80768	5736.4
2366.63195	5747.7
2369.45444	5722.1
2372.27514	5719.1
2375.09405	5700.5
2377.91118	5698.8
2380.72652	5670.7
2383.54009	5662.3
2386.35187	5655
2389.16188	5647.9
2391.97011	5605
2394.77657	5620.7
2397.58125	5588.9
2400.38416	5583.1
2403.18529	5560.6
2405.98466	5562
2408.78226	5542
2411.57809	5537.2
2414.37216	5529.6
2417.16446	5522.2
2419.955	5518.4
2422.74378	5510.5
2425.5308	5506.7
2428.31606	5488.4
2431.09956	5482.2
2433.88131	5478.5
2436.6613	5473.8
2439.43954	5462
2442.21603	5458
2444.99077	5452.2
2447.76377	5468.8
2450.53501	5452.3
2453.30451	5461.8
2456.07226	5427.3
2458.83827	5429.2
2461.60254	5429
2464.36507	5428.4
2467.12586	5433.4
2469.88492	5408.2
2472.64224	5415.8
2475.39782	5403.1
2478.15167	5423.4
2480.90379	5412.6
2483.65417	5388.2
2486.40283	5383.7
2489.14976	5371.5
2491.89497	5373.3
2494.63845	5397.1
2497.3802	5373.9
2500.12024	5368.3
2502.85855	5359.5
2505.59514	5353.2
2508.33002	5337.2
2511.06318	5344.1
2513.79462	5327
2516.52435	5319.2
2519.25237	5321.3
2521.97867	5301.3
2524.70327	5289.1
2527.42616	5285.2
2530.14734	5280.6
2532.86681	5266.7
2535.58458	5245.4
2538.30065	5244.4
2541.01501	5242.2
2543.72768	5222.6
2546.43864	5210.1
2549.14791	5211.1
2551.85548	5218
2554.56136	5192.9
2557.26554	5178.1
2559.96803	5175.2
2562.66883	5165.4
2565.36794	5153.4
2568.06536	5152.9
2570.7611	5130.7
2573.45514	5131.4
2576.14751	5120.4
2578.83819	5123.6
2581.52719	5110.1
2584.21451	5092.8
2586.90015	5078.8
2589.58411	5069.2
2592.2664	5049.1
2594.94701	5051.4
2597.62594	5055.1
2600.30321	5034.8
2602.9788	5033.8
2605.65273	4994.5
2608.32498	5016.5
2610.99557	4995.6
2613.66449	4988.3
2616.33175	4980.7
2618.99734	4987.9
2621.66128	4973.4
2624.32355	4961.4
2626.98416	4980
2629.64311	4960.1
2632.30041	4943.7
2634.95605	4945.9
2637.61004	4936.1
2640.26238	4926.4
2642.91306	4924.8
2645.56209	4925.7
2648.20948	4921.2
2650.85521	4918.7
2653.4993	4908.1
2656.14175	4908.2
2658.78255	4918.8
2661.42171	4902.3
2664.05923	4903
2666.6951	4912.9
2669.32934	4912.6
2671.96194	4892.4
2674.59291	4903.5
2677.22224	4899.3
2679.84993	4913.6
2682.476	4902.6
2685.10043	4895.2
2687.72324	4873.4
2690.34441	4883.4
2692.96396	4872.9
2695.58188	4875
2698.19818	4889.2
2700.81285	4873.9
2703.4259	4904.2
2706.03733	4952.1
2708.64714	4911.5
2711.25533	4883
2713.86191	4886.8
2716.46687	4889.1
2719.07021	4888.8
2721.67194	4865.6
2724.27206	4871.3
2726.87057	4887.3
2729.46747	4879.4
2732.06276	4888.9
2734.65644	4878.7
2737.24852	4851.2
2739.83899	4857
2742.42786	4849.6
2745.01513	4856.6
2747.60079	4830.3
2750.18486	4831.4
2752.76733	4809.7
2755.3482	4796.1
2757.92747	4818.3
2760.50515	4800.1
2763.08123	4801.3
2765.65573	4807.8
2768.22863	4797.6
2770.79994	4772.8
2773.36967	4778.3
2775.9378	4789.5
2778.50435	4768.8
2781.06932	4747.4
2783.6327	4752.5
2786.1945	4749
2788.75471	4735.1
2791.31335	4720.8
2793.87041	4726.3
2796.42589	4718.2
2798.97979	4704.6
2801.53212	4685.3
2804.08288	4681.2
2806.63206	4670.3
2809.17967	4681.8
2811.72571	4662.1
2814.27018	4641.6
2816.81308	4641.8
2819.35442	4645.5
2821.89419	4627
2824.43239	4630.5
2826.96904	4619.7
2829.50412	4615.8
2832.03763	4620.5
2834.56959	4616.8
2837.1	4615
2839.62884	4598.9
2842.15613	4594.1
2844.68186	4623.5
2847.20604	4626.1
2849.72867	4617.8
2852.24974	4614.9
2854.76927	4621.4
2857.28724	4614.5
2859.80367	4625.3
2862.31855	4585.8
2864.83189	4579.5
2867.34368	4576.8
2869.85393	4572.8
2872.36264	4566.9
2874.8698	4562.4
2877.37543	4554.6
2879.87952	4562.8
2882.38207	4556
2884.88308	4548.1
2887.38256	4560.9
2889.88051	4539
2892.37692	4537.9
2894.8718	4538.1
2897.36515	4544.2
2899.85698	4552.9
2902.34727	4547.7
2904.83604	4530.5
2907.32328	4563.6
2909.809	4566.8
2912.29319	4569.8
2914.77587	4567
2917.25702	4564.8
2919.73665	4572
2922.21476	4563.8
2924.69136	4561.8
2927.16644	4571.5
2929.64	4558.8
2932.11205	4541.7
2934.58258	4538.7
2937.05161	4544
2939.51912	4561.2
2941.98513	4548.9
2944.44962	4526.7
2946.91261	4517.8
2949.37409	4521.7
2951.83407	4514.9
2954.29254	4505.2
2956.74951	4494.4
2959.20498	4484.7
2961.65895	4466.6
2964.11142	4461.7
2966.56239	4438.4
2969.01186	4445.3
2971.45984	4432.5
2973.90632	4410.9
2976.35131	4392
2978.7948	4397.1
2981.23681	4387.9
2983.67732	4360.2
2986.11635	4367
2988.55388	4349.6
2990.98993	4340.3
2993.4245	4332.9
2995.85758	4321.5
2998.28917	4309.5
3000.71928	4308.9
3003.14791	4296.7
3005.57506	4304.7
3008.00073	4274
3010.42493	4256.4
3012.84764	4270.2
3015.26888	4261.3
3017.68865	4240.3
3020.10694	4238.7
3022.52376	4220.1
3024.9391	4224.2
3027.35298	4233.4
3029.76539	4220.1
3032.17632	4201.4
3034.5858	4172.4
3036.9938	4179.5
3039.40034	4184.2
3041.80542	4168.9
3044.20903	4157.3
3046.61118	4144.2
3049.01187	4151.7
3051.4111	4141.8
3053.80888	4125.4
3056.20519	4110.8
3058.60005	4107.7
3060.99345	4121.5
3063.3854	4102.8
3065.7759	4103
3068.16494	4082.9
3070.55254	4088.5
3072.93868	4080.9
3075.32338	4061.5
3077.70662	4070.9
3080.08842	4038.1
3082.46878	4040.7
3084.84769	4030.1
3087.22515	4035.1
3089.60118	4024.2
3091.97576	4031.3
3094.3489	4032.7
3096.72061	4034.8
3099.09087	4034
3101.4597	4034.5
3103.82709	4028.9
3106.19305	4024.4
3108.55757	4012.7
3110.92066	4011.8
3113.28232	4001.7
3115.64255	3992.4
3118.00134	3989.8
3120.35871	3986.5
3122.71466	3972.5
3125.06917	3961.8
3127.42226	3964.2
3129.77393	3968.3
3132.12417	3963
3134.47299	3962.4
3136.82039	3966.4
3139.16636	3959.7
3141.51092	3964.5
3143.85406	3974.3
3146.19579	3983.8
3148.53609	3958.6
3150.87499	3974.9
3153.21246	3972.5
3155.54853	3988.3
3157.88318	3976.6
3160.21642	3976.3
3162.54826	3991
3164.87868	3980.5
3167.2077	3966.3
3169.5353	3977.1
3171.86151	3977.6
3174.18631	3956.2
3176.5097	3977.9
3178.83169	3956.9
3181.15228	3960.2
3183.47147	3954.9
3185.78926	3951
3188.10565	3960.3
3190.42065	3951.3
3192.73424	3950.7
3195.04645	3952.4
3197.35725	3947.5
3199.66667	3961
3201.97469	3963.4
3204.28132	3949.8
3206.58656	3962.4
3208.8904	3973.5
3211.19287	3963
3213.49394	3956.3
3215.79363	3958.8
3218.09193	3968.2
3220.38884	3974.7
3222.68438	3981.1
3224.97853	3962
3227.2713	3948.9
3229.56269	3943.3
3231.8527	3947.8
3234.14133	3927.8
3236.42858	3955.2
3238.71446	3932.5
3240.99896	3928.9
3243.28209	3915.8
3245.56384	3918.9
3247.84423	3908.5
3250.12324	3902.3
3252.40088	3895.7
3254.67715	3889
3256.95205	3891.7
3259.22558	3887.4
3261.49775	3868.8
3263.76855	3886.6
3266.03799	3870.9
3268.30606	3855.7
3270.57277	3854.1
3272.83812	3846.5
3275.10211	3840.2
3277.36474	3835.4
3279.62601	3836.9
3281.88593	3819.6
3284.14448	3823.1
3286.40168	3832.7
3288.65753	3809.6
3290.91202	3819.1
3293.16516	3806.7
3295.41695	3781.8
3297.66738	3765.3
3299.91647	3753
3302.16421	3737.7
3304.4106	3702.5
3306.65564	3700.4
3308.89933	3676.8
3311.14169	3665.6
3313.38269	3653.8
3315.62236	3620.7
3317.86068	3603.6
3320.09766	3528.4
3322.3333	3518
3324.5676	3519.7
3326.80056	3474.7
3329.03219	3453
3331.26248	2.5
3333.49143	0.7
3335.71905	0.1
