Data from AgNP_FTO_APTES_CRN_5uM_R6G_10uM_NaF_0.1M_Addition_RamanShift__3__15-29-27-899.txt Node

Date: Wed Dec 15 15:29:27 GMT 2021
User: TCL
Spectrometer: QEP01345
Trigger mode: 4
Integration Time (sec): 7.000000E0
Scans to average: 10
Electric dark correction enabled: true
Nonlinearity correction enabled: false
Boxcar width: 0
XAxis mode: Raman Shifts
Number of Pixels in Spectrum: 1044
>>>>>Begin Spectral Data<<<<<
46.04893	-0.125
50.45542	-3.125
54.85868	-1.725
59.25871	-1.025
63.6555	137.775
68.04907	143.375
72.43941	148.475
76.82654	155.075
81.21044	161.775
85.59113	165.075
89.96862	177.175
94.34289	176.775
98.71396	186.375
103.08183	197.575
107.4465	198.875
111.80798	201.375
116.16626	207.175
120.52136	213.675
124.87327	222.375
129.222	236.475
133.56755	246.475
137.90993	268.275
142.24913	297.175
146.58517	326.775
150.91804	382.575
155.24774	451.775
159.57429	559.875
163.89768	720.075
168.21792	950.775
172.53501	1288.975
176.84895	1793.975
181.15975	2523.775
185.46741	3534.675
189.77193	4843.675
194.07331	6492.775
198.37157	8350.075
202.6667	10297.075
206.9587	12244.575
211.24758	14101.675
215.53334	16028.075
219.81599	18051.875
224.09553	20237.775
228.37195	22709.175
232.64527	25381.775
236.91549	28234.475
241.18261	31121.175
245.44663	33779.475
249.70755	36242.675
253.96539	38415.975
258.22014	40295.875
262.4718	41692.975
266.72039	42739.275
270.96589	43229.075
275.20832	43246.975
279.44768	43049.075
283.68397	42587.975
287.91719	42260.875
292.14735	41948.075
296.37445	41799.075
300.59849	41784.375
304.81948	41877.175
309.03742	41847.275
313.25231	41603.775
317.46415	41125.175
321.67296	40487.175
325.87872	39965.875
330.08145	39698.375
334.28114	39778.675
338.47781	40104.775
342.67145	40547.375
346.86207	41084.475
351.04966	41844.475
355.23424	42598.875
359.4158	43374.275
363.59435	44012.675
367.76989	44501.875
371.94243	44799.375
376.11196	45046.475
380.27849	45175.375
384.44203	45317.175
388.60257	45744.075
392.76012	46218.475
396.91468	46849.075
401.06626	47538.375
405.21485	48011.675
409.36047	48135.075
413.50311	48014.375
417.64277	48119.375
421.77947	48400.275
425.9132	48712.375
430.04396	48993.475
434.17176	49087.275
438.2966	49232.375
442.41849	49671.775
446.53742	50800.475
450.6534	52065.875
454.76644	53080.775
458.87653	53413.575
462.98368	53106.475
467.08789	52295.375
471.18916	51368.275
475.2875	50351.775
479.38291	49654.075
483.4754	49151.075
487.56496	48788.375
491.6516	48443.875
495.73531	48271.875
499.81612	48442.275
503.89401	49035.975
507.96899	49406.575
512.04106	49500.075
516.11023	49235.575
520.1765	48766.875
524.23987	48244.275
528.30034	47842.875
532.35792	47398.775
536.41261	46822.375
540.46441	46351.375
544.51333	46292.475
548.55936	46681.875
552.60252	47497.075
556.64279	48354.775
560.6802	48963.375
564.71473	49414.275
568.7464	49973.675
572.7752	51176.975
576.80114	52776.475
580.82422	54719.675
584.84444	57012.075
588.86181	59242.675
592.87633	60274.975
596.888	59205.675
600.89682	57145.975
604.9028	57254.675
608.90594	59927.075
612.90624	62251.775
616.90371	58577.075
620.89834	51892.675
624.89015	49012.075
628.87913	48652.175
632.86528	48590.475
636.84862	48245.675
640.82913	47526.175
644.80683	46670.275
648.78172	46208.775
652.75379	46352.975
656.72306	46850.175
660.68952	47320.975
664.65319	46961.775
668.61405	46465.275
672.57211	46477.475
676.52738	46705.575
680.47986	46664.375
684.42955	46339.075
688.37646	46268.575
692.32058	46620.975
696.26192	47332.475
700.20048	48007.875
704.13626	48329.375
708.06928	48311.575
711.99952	48108.975
715.927	48097.475
719.85171	48382.775
723.77365	48340.175
727.69284	47660.875
731.60928	46936.775
735.52295	46586.675
739.43388	46467.375
743.34206	46672.275
747.24749	46997.075
751.15017	47433.175
755.05012	48100.675
758.94733	49198.175
762.8418	50960.075
766.73354	53410.375
770.62254	55408.175
774.50882	55353.175
778.39237	53385.275
782.27321	50790.975
786.15132	48796.975
790.02671	47554.175
793.89938	47012.475
797.76935	46818.275
801.6366	46903.875
805.50115	46932.175
809.36299	46719.775
813.22213	46236.475
817.07857	45884.875
820.93231	45600.575
824.78336	45382.675
828.63172	45289.475
832.47738	45349.675
836.32036	45494.075
840.16066	45667.075
843.99827	45798.575
847.8332	45699.875
851.66546	45618.375
855.49504	45619.075
859.32195	45633.175
863.1462	45561.575
866.96777	45436.875
870.78668	45385.975
874.60293	45400.775
878.41652	45491.575
882.22745	45639.575
886.03573	45750.775
889.84136	45816.575
893.64433	45637.975
897.44466	45391.275
901.24235	45350.975
905.0374	45228.275
908.8298	45198.375
912.61957	45225.275
916.40671	45654.375
920.19121	46240.875
923.97308	46736.375
927.75233	46842.775
931.52895	46414.175
935.30295	45876.975
939.07433	45323.075
942.84309	44927.275
946.60924	44905.075
950.37278	44833.975
954.13371	44821.775
957.89203	44679.275
961.64774	44597.675
965.40086	44573.875
969.15137	44504.475
972.89929	44400.575
976.64461	44421.675
980.38733	44539.775
984.12747	44700.275
987.86502	44967.175
991.59999	45407.775
995.33237	46120.275
999.06217	47176.775
1002.78939	48534.675
1006.51404	49663.175
1010.23611	50433.675
1013.95561	50963.475
1017.67255	50841.775
1021.38692	50095.475
1025.09872	49488.075
1028.80796	49482.775
1032.51465	50251.775
1036.21877	51307.575
1039.92035	51615.275
1043.61937	51199.975
1047.31584	50447.175
1051.00976	49566.075
1054.70114	49121.375
1058.38998	49242.375
1062.07627	49689.175
1065.76003	50499.775
1069.44126	51435.275
1073.11995	52681.375
1076.79611	53704.575
1080.46974	53993.375
1084.14085	53921.775
1087.80943	53769.075
1091.47549	53589.575
1095.13903	53217.175
1098.80005	52362.375
1102.45857	51324.875
1106.11456	50582.575
1109.76805	50206.675
1113.41903	50145.475
1117.06751	50203.675
1120.71348	50328.475
1124.35696	50571.175
1127.99793	50923.175
1131.63641	51273.475
1135.2724	51377.475
1138.90589	51536.175
1142.5369	51686.475
1146.16542	51901.075
1149.79145	52087.575
1153.415	52509.775
1157.03607	53383.675
1160.65467	55021.475
1164.27079	57634.975
1167.88443	60549.675
1171.49561	63212.475
1175.10432	66241.775
1178.71056	70268.775
1182.31434	74358.575
1185.91565	76605.475
1189.51451	76485.875
1193.11091	74777.975
1196.70485	72455.275
1200.29634	70148.675
1203.88538	68792.775
1207.47197	68300.975
1211.05612	67975.675
1214.63782	66965.075
1218.21708	65399.775
1221.79391	63801.075
1225.36829	62595.175
1228.94024	61624.675
1232.50976	60710.275
1236.07685	59911.175
1239.6415	59630.175
1243.20374	59722.475
1246.76355	60177.175
1250.32093	61105.875
1253.8759	62477.275
1257.42845	64198.675
1260.97859	66054.675
1264.52631	67920.375
1268.07163	69985.075
1271.61453	72122.775
1275.15503	74345.275
1278.69312	76360.375
1282.22882	78073.075
1285.76211	79829.275
1289.29301	81854.875
1292.82151	84524.375
1296.34761	87986.175
1299.87133	92775.775
1303.39266	98223.175
1306.9116	103015.875
1310.42815	106521.475
1313.94233	107621.375
1317.45412	106805.375
1320.96354	105253.275
1324.47058	104234.275
1327.97525	104076.175
1331.47754	104254.075
1334.97747	104451.275
1338.47502	104050.775
1341.97022	102881.675
1345.46305	100641.875
1348.95352	98319.375
1352.44163	97227.275
1355.92738	98414.575
1359.41078	101357.975
1362.89183	103424.975
1366.37053	101632.775
1369.84688	95285.575
1373.32088	86782.475
1376.79254	80601.775
1380.26186	78156.475
1383.72883	78199.675
1387.19347	78286.475
1390.65578	77420.175
1394.11575	76903.375
1397.57339	77588.075
1401.0287	79320.575
1404.48168	81224.575
1407.93234	82074.575
1411.38068	81600.875
1414.82669	79683.075
1418.27039	76849.775
1421.71177	73823.275
1425.15083	71409.675
1428.58758	70533.175
1432.02203	71363.975
1435.45416	73351.875
1438.88399	75695.175
1442.31151	77555.375
1445.73673	78330.275
1449.15965	78377.975
1452.58027	77981.875
1455.9986	77327.475
1459.41463	77410.075
1462.82837	78585.175
1466.23982	80187.475
1469.64898	81724.875
1473.05586	82750.575
1476.46045	83058.275
1479.86276	82506.475
1483.26279	81534.875
1486.66054	80944.075
1490.05602	80930.875
1493.44922	81076.075
1496.84016	80915.275
1500.22882	80867.575
1503.61521	81328.175
1506.99934	82149.075
1510.38121	82655.175
1513.76081	82515.475
1517.13816	81250.775
1520.51324	79887.475
1523.88607	79074.275
1527.25665	79224.875
1530.62498	79806.475
1533.99105	80162.075
1537.35488	79691.375
1540.71647	78678.275
1544.07581	77278.275
1547.4329	75559.775
1550.78776	74034.775
1554.14038	72710.175
1557.49077	71800.175
1560.83892	71101.375
1564.18484	70572.875
1567.52853	70459.375
1570.86999	71001.675
1574.20922	72601.475
1577.54624	74459.275
1580.88103	76226.775
1584.2136	78184.875
1587.54395	81132.575
1590.87208	85212.275
1594.19801	90237.575
1597.52172	94762.775
1600.84321	95489.575
1604.16251	91095.675
1607.47959	83659.475
1610.79447	76193.975
1614.10715	69540.875
1617.41763	64417.675
1620.7259	60972.975
1624.03199	59319.875
1627.33587	59484.475
1630.63757	61342.475
1633.93707	65202.675
1637.23439	71528.075
1640.52951	80323.275
1643.82246	89591.175
1647.11321	95781.075
1650.40179	94767.775
1653.68819	86525.875
1656.97241	75089.775
1660.25446	65135.175
1663.53433	58053.875
1666.81203	53650.175
1670.08756	50840.475
1673.36092	49091.375
1676.63211	47881.075
1679.90115	47047.275
1683.16801	46372.675
1686.43272	45900.375
1689.69527	45595.275
1692.95567	45286.375
1696.2139	45161.975
1699.46999	45037.675
1702.72392	44973.975
1705.97571	44833.075
1709.22535	44766.275
1712.47284	44654.775
1715.71819	44645.975
1718.96139	44492.775
1722.20246	44393.375
1725.44139	44220.675
1728.67818	43972.975
1731.91284	43791.875
1735.14537	43617.975
1738.37576	43406.775
1741.60403	43299.275
1744.83017	43151.475
1748.05418	43056.475
1751.27607	42944.875
1754.49584	42874.675
1757.71349	42886.875
1760.92903	42858.475
1764.14244	42842.175
1767.35375	42872.475
1770.56294	42831.475
1773.77002	42775.375
1776.97499	42755.975
1780.17785	42666.475
1783.37861	42676.975
1786.57727	42589.275
1789.77382	42482.775
1792.96828	42423.875
1796.16064	42356.075
1799.3509	42282.975
1802.53907	42274.475
1805.72514	42111.875
1808.90913	42045.075
1812.09102	41933.475
1815.27083	41898.475
1818.44856	41877.175
1821.6242	41871.175
1824.79776	41875.975
1827.96924	41859.675
1831.13864	41880.375
1834.30597	41949.475
1837.47122	41959.575
1840.6344	41972.275
1843.7955	41991.975
1846.95454	41940.675
1850.11151	41994.275
1853.26642	41947.975
1856.41926	41968.075
1859.57004	41979.875
1862.71876	41913.675
1865.86542	41847.075
1869.01003	41844.175
1872.15258	41828.575
1875.29308	41827.675
1878.43152	41766.775
1881.56792	41712.475
1884.70227	41679.775
1887.83457	41667.975
1890.96482	41654.675
1894.09304	41672.475
1897.21921	41639.475
1900.34335	41510.375
1903.46544	41385.475
1906.58551	41381.475
1909.70353	41321.075
1912.81953	41280.975
1915.93349	41187.875
1919.04543	41108.375
1922.15534	41055.675
1925.26322	40978.375
1928.36908	40885.675
1931.47292	40788.175
1934.57473	40745.275
1937.67453	40599.575
1940.77232	40556.175
1943.86808	40442.875
1946.96184	40358.375
1950.05358	40256.975
1953.14331	40182.275
1956.23103	40120.475
1959.31675	40008.875
1962.40046	39872.175
1965.48217	39773.375
1968.56188	39694.675
1971.63959	39523.175
1974.7153	39391.975
1977.78901	39351.775
1980.86073	39258.675
1983.93046	39175.275
1986.99819	39070.875
1990.06394	39008.775
1993.1277	38896.075
1996.18947	38744.975
1999.24925	38658.075
2002.30706	38560.175
2005.36288	38475.575
2008.41672	38404.875
2011.46859	38289.875
2014.51848	38232.075
2017.56639	38164.375
2020.61233	38084.775
2023.6563	38073.075
2026.6983	37999.875
2029.73833	37938.975
2032.7764	37933.975
2035.8125	37761.575
2038.84664	37668.975
2041.87881	37693.975
2044.90903	37635.475
2047.93729	37599.475
2050.96359	37574.675
2053.98794	37547.075
2057.01034	37553.375
2060.03078	37454.675
2063.04927	37442.975
2066.06582	37434.775
2069.08042	37426.875
2072.09307	37366.275
2075.10378	37346.375
2078.11255	37336.575
2081.11938	37375.375
2084.12426	37309.575
2087.12722	37288.075
2090.12824	37348.675
2093.12732	37343.975
2096.12447	37344.175
2099.11969	37345.775
2102.11299	37337.775
2105.10435	37354.375
2108.09379	37434.475
2111.08131	37497.075
2114.0669	37514.675
2117.05057	37487.775
2120.03233	37525.675
2123.01216	37550.275
2125.99008	37585.775
2128.96609	37591.975
2131.94018	37669.275
2134.91236	37678.575
2137.88263	37651.575
2140.851	37694.375
2143.81746	37749.475
2146.78201	37779.975
2149.74466	37757.275
2152.7054	37843.675
2155.66425	37843.675
2158.6212	37874.575
2161.57625	37807.675
2164.52941	37849.575
2167.48067	37882.875
2170.43004	37886.675
2173.37752	37840.275
2176.32311	37846.775
2179.26681	37817.875
2182.20863	37861.075
2185.14856	37882.875
2188.08661	37843.575
2191.02278	37865.075
2193.95707	37884.675
2196.88948	37861.575
2199.82001	37859.175
2202.74867	37807.575
2205.67545	37788.275
2208.60037	37778.175
2211.52341	37739.875
2214.44458	37733.075
2217.36388	37673.975
2220.28132	37615.775
2223.1969	37635.775
2226.11061	37599.875
2229.02246	37521.575
2231.93245	37385.175
2234.84058	37349.475
2237.74686	37305.275
2240.65128	37289.875
2243.55385	37209.775
2246.45456	37225.575
2249.35343	37148.975
2252.25044	37086.275
2255.14561	36963.775
2258.03893	37014.675
2260.93041	36942.675
2263.82004	36923.075
2266.70783	36818.375
2269.59378	36730.975
2272.4779	36665.175
2275.36017	36537.775
2278.24061	36489.075
2281.11922	36412.075
2283.996	36412.175
2286.87094	36390.575
2289.74405	36376.875
2292.61534	36358.975
2295.4848	36288.675
2298.35243	36323.275
2301.21824	36307.975
2304.08223	36361.175
2306.94439	36372.675
2309.80474	36395.175
2312.66327	36383.275
2315.51999	36375.975
2318.37489	36352.375
2321.22797	36321.875
2324.07925	36318.775
2326.92871	36203.175
2329.77637	36266.675
2332.62222	36209.375
2335.46626	36206.275
2338.3085	36197.075
2341.14893	36219.375
2343.98756	36246.275
2346.8244	36223.475
2349.65943	36197.275
2352.49267	36140.975
2355.32411	36117.275
2358.15376	36114.075
2360.98161	36030.775
2363.80768	36083.575
2366.63195	36071.475
2369.45444	35991.475
2372.27514	35936.875
2375.09405	35853.475
2377.91118	35878.875
2380.72652	35814.675
2383.54009	35779.575
2386.35187	35751.775
2389.16188	35682.375
2391.97011	35676.975
2394.77657	35628.475
2397.58125	35586.375
2400.38416	35540.175
2403.18529	35496.275
2405.98466	35462.375
2408.78226	35361.875
2411.57809	35355.275
2414.37216	35224.275
2417.16446	35287.875
2419.955	35271.875
2422.74378	35282.275
2425.5308	35188.375
2428.31606	35135.975
2431.09956	35147.075
2433.88131	35142.975
2436.6613	35196.175
2439.43954	35121.775
2442.21603	35033.775
2444.99077	35057.175
2447.76377	35109.975
2450.53501	35013.475
2453.30451	35078.875
2456.07226	35055.575
2458.83827	35034.175
2461.60254	35049.075
2464.36507	35019.375
2467.12586	35033.875
2469.88492	35028.875
2472.64224	35038.875
2475.39782	35025.275
2478.15167	35105.575
2480.90379	35074.575
2483.65417	35086.275
2486.40283	35096.575
2489.14976	35114.875
2491.89497	35061.675
2494.63845	35084.875
2497.3802	35121.575
2500.12024	35118.575
2502.85855	35141.175
2505.59514	35199.475
2508.33002	35107.875
2511.06318	35087.575
2513.79462	35109.975
2516.52435	35084.675
2519.25237	35045.375
2521.97867	35056.775
2524.70327	35060.475
2527.42616	34988.375
2530.14734	34984.175
2532.86681	34930.975
2535.58458	34939.375
2538.30065	34869.975
2541.01501	34900.975
2543.72768	34907.675
2546.43864	34874.375
2549.14791	34834.275
2551.85548	34860.775
2554.56136	34801.275
2557.26554	34817.075
2559.96803	34722.275
2562.66883	34713.775
2565.36794	34746.075
2568.06536	34750.675
2570.7611	34702.475
2573.45514	34673.775
2576.14751	34692.375
2578.83819	34668.575
2581.52719	34703.375
2584.21451	34640.875
2586.90015	34597.275
2589.58411	34580.275
2592.2664	34551.675
2594.94701	34526.575
2597.62594	34497.075
2600.30321	34482.175
2602.9788	34483.675
2605.65273	34450.475
2608.32498	34448.775
2610.99557	34413.375
2613.66449	34484.775
2616.33175	34386.775
2618.99734	34401.175
2621.66128	34392.075
2624.32355	34434.075
2626.98416	34326.575
2629.64311	34317.575
2632.30041	34322.775
2634.95605	34291.275
2637.61004	34311.075
2640.26238	34265.675
2642.91306	34293.375
2645.56209	34277.575
2648.20948	34252.175
2650.85521	34206.975
2653.4993	34222.175
2656.14175	34181.975
2658.78255	34277.475
2661.42171	34263.575
2664.05923	34324.675
2666.6951	34359.675
2669.32934	34378.575
2671.96194	34344.475
2674.59291	34382.075
2677.22224	34344.275
2679.84993	34353.575
2682.476	34316.475
2685.10043	34324.875
2687.72324	34275.675
2690.34441	34356.775
2692.96396	34348.875
2695.58188	34353.075
2698.19818	34284.575
2700.81285	34399.875
2703.4259	34350.075
2706.03733	34504.175
2708.64714	34493.475
2711.25533	34489.075
2713.86191	34523.675
2716.46687	34555.075
2719.07021	34523.975
2721.67194	34562.575
2724.27206	34510.575
2726.87057	34537.175
2729.46747	34568.775
2732.06276	34611.975
2734.65644	34670.575
2737.24852	34690.975
2739.83899	34633.575
2742.42786	34679.675
2745.01513	34566.775
2747.60079	34605.975
2750.18486	34578.975
2752.76733	34620.875
2755.3482	34665.175
2757.92747	34613.175
2760.50515	34575.775
2763.08123	34594.175
2765.65573	34562.275
2768.22863	34513.475
2770.79994	34458.475
2773.36967	34446.575
2775.9378	34433.575
2778.50435	34414.675
2781.06932	34394.875
2783.6327	34435.075
2786.1945	34408.775
2788.75471	34379.675
2791.31335	34303.575
2793.87041	34263.575
2796.42589	34165.775
2798.97979	34174.275
2801.53212	34165.875
2804.08288	34134.175
2806.63206	34042.775
2809.17967	33981.575
2811.72571	33884.875
2814.27018	33859.675
2816.81308	33796.375
2819.35442	33800.175
2821.89419	33727.575
2824.43239	33690.075
2826.96904	33623.075
2829.50412	33662.575
2832.03763	33618.875
2834.56959	33627.575
2837.1	33530.275
2839.62884	33507.675
2842.15613	33474.475
2844.68186	33477.375
2847.20604	33415.875
2849.72867	33415.875
2852.24974	33389.075
2854.76927	33373.475
2857.28724	33310.975
2859.80367	33317.075
2862.31855	33294.375
2864.83189	33267.075
2867.34368	33246.075
2869.85393	33257.775
2872.36264	33185.375
2874.8698	33189.775
2877.37543	33253.775
2879.87952	33209.175
2882.38207	33227.575
2884.88308	33213.475
2887.38256	33288.075
2889.88051	33256.875
2892.37692	33275.475
2894.8718	33272.275
2897.36515	33293.675
2899.85698	33312.775
2902.34727	33399.175
2904.83604	33439.675
2907.32328	33470.975
2909.809	33485.375
2912.29319	33545.475
2914.77587	33539.775
2917.25702	33491.775
2919.73665	33492.575
2922.21476	33541.075
2924.69136	33489.575
2927.16644	33480.175
2929.64	33387.875
2932.11205	33320.875
2934.58258	33228.175
2937.05161	33323.475
2939.51912	33426.375
2941.98513	33408.675
2944.44962	33292.475
2946.91261	33191.275
2949.37409	33260.475
2951.83407	33293.975
2954.29254	33237.875
2956.74951	33164.675
2959.20498	33172.975
2961.65895	33125.175
2964.11142	33161.075
2966.56239	33101.575
2969.01186	33117.575
2971.45984	33010.075
2973.90632	32991.075
2976.35131	32961.375
2978.7948	32870.275
2981.23681	32843.975
2983.67732	32790.075
2986.11635	32749.875
2988.55388	32648.575
2990.98993	32608.675
2993.4245	32576.375
2995.85758	32444.475
2998.28917	32368.875
3000.71928	32318.675
3003.14791	32290.775
3005.57506	32256.375
3008.00073	32183.375
3010.42493	32196.675
3012.84764	32175.975
3015.26888	32142.875
3017.68865	32080.775
3020.10694	32051.975
3022.52376	31992.975
3024.9391	31957.675
3027.35298	31884.875
3029.76539	31928.175
3032.17632	31877.375
3034.5858	31831.775
3036.9938	31836.275
3039.40034	31790.875
3041.80542	31718.375
3044.20903	31654.475
3046.61118	31672.475
3049.01187	31564.275
3051.4111	31512.975
3053.80888	31465.675
3056.20519	31427.775
3058.60005	31348.375
3060.99345	31318.375
3063.3854	31267.275
3065.7759	31184.775
3068.16494	31102.075
3070.55254	31081.175
3072.93868	30998.975
3075.32338	30916.875
3077.70662	30871.375
3080.08842	30827.975
3082.46878	30816.375
3084.84769	30693.875
3087.22515	30730.375
3089.60118	30683.975
3091.97576	30692.475
3094.3489	30671.975
3096.72061	30682.675
3099.09087	30659.075
3101.4597	30610.375
3103.82709	30541.175
3106.19305	30488.175
3108.55757	30532.175
3110.92066	30455.475
3113.28232	30384.075
3115.64255	30317.775
3118.00134	30295.175
3120.35871	30201.075
3122.71466	30214.375
3125.06917	30196.975
