Data from AgNP_FTO_APTES_CRN_0uM_R6G_10uM_NaF_0.1M_Addition_RamanShift__54__12-32-42-964.txt Node

Date: Wed Dec 15 12:32:42 GMT 2021
User: TCL
Spectrometer: QEP01345
Trigger mode: 4
Integration Time (sec): 7.000000E0
Scans to average: 10
Electric dark correction enabled: true
Nonlinearity correction enabled: false
Boxcar width: 0
XAxis mode: Raman Shifts
Number of Pixels in Spectrum: 1044
>>>>>Begin Spectral Data<<<<<
46.04893	0.3
50.45542	-1.4
54.85868	-0.5
59.25871	-0.8
63.6555	144.1
68.04907	155.8
72.43941	159
76.82654	170.2
81.21044	169.5
85.59113	182.2
89.96862	188.7
94.34289	186.3
98.71396	197.9
103.08183	205.1
107.4465	212.9
111.80798	211.5
116.16626	221.3
120.52136	224.5
124.87327	233.3
129.222	245.1
133.56755	257
137.90993	270.3
142.24913	302.4
146.58517	333.4
150.91804	381.6
155.24774	448.2
159.57429	546.7
163.89768	699.3
168.21792	918.1
172.53501	1242.4
176.84895	1720
181.15975	2400.3
185.46741	3356.6
189.77193	4608.9
194.07331	6149.3
198.37157	7921.7
202.6667	9801.5
206.9587	11652.7
211.24758	13448.5
215.53334	15262.5
219.81599	17144.1
224.09553	19186.7
228.37195	21507.8
232.64527	24033.2
236.91549	26784.5
241.18261	29538.7
245.44663	32227.7
249.70755	34683.5
253.96539	36811.4
258.22014	38535.4
262.4718	39910.5
266.72039	40799.3
270.96589	41189.8
275.20832	41140
279.44768	40841
283.68397	40385.8
287.91719	39958.6
292.14735	39616
296.37445	39313
300.59849	39096.7
304.81948	39002
309.03742	38974.7
313.25231	38861.6
317.46415	38592.3
321.67296	38091.4
325.87872	37667.3
330.08145	37521.3
334.28114	37529.6
338.47781	37798.4
342.67145	38165.6
346.86207	38633
351.04966	39196.5
355.23424	39740.7
359.4158	40275.8
363.59435	40734.4
367.76989	40999.9
371.94243	41087.5
376.11196	41138.9
380.27849	41118.6
384.44203	41242.6
388.60257	41477.4
392.76012	41913.8
396.91468	42532
401.06626	43245
405.21485	43782.7
409.36047	43811.7
413.50311	43489.1
417.64277	43527.1
421.77947	43836.3
425.9132	44182.1
430.04396	44479.7
434.17176	44629.6
438.2966	44653.4
442.41849	45024.6
446.53742	45768.4
450.6534	46638.5
454.76644	47178.1
458.87653	47459.2
462.98368	47421.8
467.08789	47071.9
471.18916	46545.8
475.2875	45990.4
479.38291	45582.5
483.4754	45422.3
487.56496	45267.3
491.6516	44962.3
495.73531	44541.7
499.81612	44347.9
503.89401	44662.5
507.96899	44961.7
512.04106	45090.2
516.11023	44938
520.1765	44580.7
524.23987	44164.4
528.30034	43744.2
532.35792	43338.5
536.41261	43011.8
540.46441	42714.8
544.51333	42704.4
548.55936	43028.6
552.60252	43727
556.64279	44448
560.6802	44994.4
564.71473	45474.8
568.7464	46232.7
572.7752	47643.8
576.80114	49412.5
580.82422	51538.4
584.84444	53733.9
588.86181	56328.2
592.87633	58523.6
596.888	58238.4
600.89682	55429
604.9028	54043.5
608.90594	55261.7
612.90624	56302.5
616.90371	53159.4
620.89834	48062.2
624.89015	45891.7
628.87913	45727.5
632.86528	45957.3
636.84862	45611.9
640.82913	44619.1
644.80683	43402.4
648.78172	42712.7
652.75379	42640.5
656.72306	43134.6
660.68952	43550.8
664.65319	43377.4
668.61405	42828.6
672.57211	42799.3
676.52738	42897.4
680.47986	42871.2
684.42955	42688.3
688.37646	42549.1
692.32058	42765.9
696.26192	43274.9
700.20048	43849.5
704.13626	44260.2
708.06928	44472.8
711.99952	44518.3
715.927	44534.1
719.85171	44496.6
723.77365	44116.2
727.69284	43432.3
731.60928	42750.9
735.52295	42409.7
739.43388	42357.7
743.34206	42483
747.24749	42737.4
751.15017	43178.3
755.05012	43939.5
758.94733	44971.7
762.8418	46642.6
766.73354	48811.2
770.62254	50459.5
774.50882	50331.4
778.39237	48425
782.27321	46280.6
786.15132	44638.7
790.02671	43553.7
793.89938	42963.7
797.76935	42607.7
801.6366	42453.6
805.50115	42368.7
809.36299	42175.4
813.22213	41990.7
817.07857	41891.1
820.93231	41757.6
824.78336	41650.9
828.63172	41490.6
832.47738	41440
836.32036	41391.1
840.16066	41507.6
843.99827	41462.1
847.8332	41515.1
851.66546	41551.6
855.49504	41707.1
859.32195	41755.4
863.1462	41660.7
866.96777	41632.9
870.78668	41700.4
874.60293	41794.6
878.41652	41840.4
882.22745	42029.9
886.03573	42233.9
889.84136	42352.3
893.64433	42335.2
897.44466	42286.4
901.24235	42434
905.0374	42503.9
908.8298	42580.7
912.61957	42799
916.40671	43287.7
920.19121	43885.3
923.97308	44349.2
927.75233	44382.8
931.52895	43797.9
935.30295	42938.2
939.07433	42169.6
942.84309	41661.7
946.60924	41218.7
950.37278	41070.7
954.13371	41015.1
957.89203	40929.6
961.64774	40852.7
965.40086	40759.6
969.15137	40587
972.89929	40428.1
976.64461	40252.1
980.38733	40139
984.12747	40095.5
987.86502	40192.6
991.59999	40308.5
995.33237	40523.7
999.06217	40952.1
1002.78939	41632.4
1006.51404	42472.4
1010.23611	43327.8
1013.95561	43890.9
1017.67255	43823.6
1021.38692	43313.4
1025.09872	42618.8
1028.80796	42008.3
1032.51465	41771.4
1036.21877	41808.9
1039.92035	42023.5
1043.61937	42198.1
1047.31584	42316
1051.00976	42570.4
1054.70114	42849.5
1058.38998	43244.8
1062.07627	43911.3
1065.76003	44715.5
1069.44126	45727.4
1073.11995	46941.7
1076.79611	47844.3
1080.46974	48010.3
1084.14085	47860.5
1087.80943	47812.4
1091.47549	47876.4
1095.13903	47819.4
1098.80005	47215
1102.45857	45995.8
1106.11456	44879.5
1109.76805	44237.3
1113.41903	43939
1117.06751	43851.4
1120.71348	44008.9
1124.35696	44187.2
1127.99793	44479.8
1131.63641	44776.6
1135.2724	44948
1138.90589	45220
1142.5369	45441.3
1146.16542	45670.3
1149.79145	46075.1
1153.415	46484.4
1157.03607	47083.8
1160.65467	48141.9
1164.27079	49883.3
1167.88443	51969.4
1171.49561	54053.8
1175.10432	56294.2
1178.71056	59103.3
1182.31434	61849.8
1185.91565	63586.5
1189.51451	63913.5
1193.11091	63399.7
1196.70485	62089.1
1200.29634	60375.7
1203.88538	59016.2
1207.47197	58557.2
1211.05612	58461.2
1214.63782	58044.8
1218.21708	56747.2
1221.79391	54990.5
1225.36829	53576.4
1228.94024	52754.7
1232.50976	52243.3
1236.07685	51800.1
1239.6415	51560.5
1243.20374	51486
1246.76355	51700.9
1250.32093	52261.5
1253.8759	53241.6
1257.42845	54476
1260.97859	55973.3
1264.52631	57562.9
1268.07163	59144.3
1271.61453	60774.1
1275.15503	62327.9
1278.69312	64098.3
1282.22882	65994.2
1285.76211	68099.8
1289.29301	70303.5
1292.82151	72661
1296.34761	75566.8
1299.87133	78830.5
1303.39266	82005.5
1306.9116	84374.1
1310.42815	85822
1313.94233	86245
1317.45412	85947.4
1320.96354	85589.3
1324.47058	85659.1
1327.97525	86311.5
1331.47754	86799.7
1334.97747	87107.7
1338.47502	86882.1
1341.97022	86483.4
1345.46305	85783.9
1348.95352	84717.6
1352.44163	83513.8
1355.92738	83057.9
1359.41078	83748.7
1362.89183	84438
1366.37053	83684.9
1369.84688	79910.1
1373.32088	74074.6
1376.79254	69289
1380.26186	67111.8
1383.72883	66944.3
1387.19347	66970.1
1390.65578	66379.7
1394.11575	65880.3
1397.57339	66203.8
1401.0287	67102.1
1404.48168	67802.9
1407.93234	67687.3
1411.38068	66408.1
1414.82669	64359.2
1418.27039	61929.9
1421.71177	59645.1
1425.15083	57993.7
1428.58758	57472
1432.02203	58101.2
1435.45416	59532.5
1438.88399	61153.4
1442.31151	62283.9
1445.73673	62927.8
1449.15965	63162.5
1452.58027	63175.4
1455.9986	63098.8
1459.41463	63585.4
1462.82837	64486.4
1466.23982	65571.9
1469.64898	66428.7
1473.05586	66728.5
1476.46045	66723.9
1479.86276	66554.7
1483.26279	66097.4
1486.66054	65799.5
1490.05602	66062.3
1493.44922	66743.9
1496.84016	67400.7
1500.22882	68159
1503.61521	68977.4
1506.99934	69696.8
1510.38121	70149.1
1513.76081	70170.2
1517.13816	70022.3
1520.51324	69850.8
1523.88607	70111.8
1527.25665	70553.7
1530.62498	70849.6
1533.99105	70308.1
1537.35488	69150
1540.71647	67341.1
1544.07581	65280.4
1547.4329	63483.4
1550.78776	61945.4
1554.14038	61013.6
1557.49077	60415.5
1560.83892	60172.2
1564.18484	59982.9
1567.52853	59938.3
1570.86999	60490.1
1574.20922	61895.1
1577.54624	63598.5
1580.88103	65053.8
1584.2136	66667.7
1587.54395	68681.6
1590.87208	71188.5
1594.19801	73725
1597.52172	75658.4
1600.84321	75209.4
1604.16251	71475.2
1607.47959	66335.2
1610.79447	61234.2
1614.10715	56782.5
1617.41763	53166.7
1620.7259	50607.6
1624.03199	49363.3
1627.33587	49396.8
1630.63757	50777.8
1633.93707	53862.5
1637.23439	59052.4
1640.52951	66566.5
1643.82246	75137.3
1647.11321	81452
1650.40179	81707
1653.68819	75755.3
1656.97241	66348
1660.25446	57433.6
1663.53433	50921.3
1666.81203	46625.1
1670.08756	43843.6
1673.36092	42177.2
1676.63211	41041.2
1679.90115	40198.7
1683.16801	39590.4
1686.43272	39124.8
1689.69527	38830
1692.95567	38637.2
1696.2139	38382.5
1699.46999	38260.8
1702.72392	38128
1705.97571	38043.9
1709.22535	37923.4
1712.47284	37853.1
1715.71819	37789
1718.96139	37684.6
1722.20246	37550.6
1725.44139	37379.9
1728.67818	37196.4
1731.91284	37005.4
1735.14537	36840.6
1738.37576	36653.4
1741.60403	36495.1
1744.83017	36425.3
1748.05418	36332.6
1751.27607	36265.8
1754.49584	36165.2
1757.71349	36124.8
1760.92903	36088.2
1764.14244	36013.6
1767.35375	36005.1
1770.56294	35961.2
1773.77002	35887.7
1776.97499	35898.2
1780.17785	35836.9
1783.37861	35765.1
1786.57727	35724.9
1789.77382	35612.6
1792.96828	35536.3
1796.16064	35461.4
1799.3509	35403.1
1802.53907	35416.9
1805.72514	35301.3
1808.90913	35158.4
1812.09102	35142.8
1815.27083	35065.7
1818.44856	35019.7
1821.6242	35004.3
1824.79776	34966
1827.96924	35033.4
1831.13864	34947.5
1834.30597	35006.7
1837.47122	34979.3
1840.6344	34999.4
1843.7955	35060.9
1846.95454	35032.2
1850.11151	35005.5
1853.26642	34961.9
1856.41926	34967.3
1859.57004	34931.3
1862.71876	34867.4
1865.86542	34764.5
1869.01003	34787.5
1872.15258	34674.8
1875.29308	34650.2
1878.43152	34535.2
1881.56792	34511.4
1884.70227	34477.2
1887.83457	34432.6
1890.96482	34392.3
1894.09304	34337.1
1897.21921	34273.8
1900.34335	34257.2
1903.46544	34180.2
1906.58551	34197.6
1909.70353	34139.8
1912.81953	34068.1
1915.93349	33942.4
1919.04543	33804.8
1922.15534	33753.7
1925.26322	33698
1928.36908	33563.4
1931.47292	33478.3
1934.57473	33431.9
1937.67453	33344.2
1940.77232	33285.1
1943.86808	33155.1
1946.96184	33074.2
1950.05358	32899.3
1953.14331	32888.8
1956.23103	32751.6
1959.31675	32729
1962.40046	32642.7
1965.48217	32564.7
1968.56188	32398.8
1971.63959	32345
1974.7153	32187.7
1977.78901	32124.8
1980.86073	31990
1983.93046	31901.9
1986.99819	31783.8
1990.06394	31711.3
1993.1277	31655.2
1996.18947	31516.6
1999.24925	31485.8
2002.30706	31336.5
2005.36288	31290.8
2008.41672	31180.7
2011.46859	31062.1
2014.51848	31013.8
2017.56639	30942.1
2020.61233	30842.1
2023.6563	30759.6
2026.6983	30702.2
2029.73833	30610.9
2032.7764	30550
2035.8125	30488.4
2038.84664	30451
2041.87881	30393.3
2044.90903	30331.6
2047.93729	30228.5
2050.96359	30224.5
2053.98794	30139.7
2057.01034	30125.2
2060.03078	30094.3
2063.04927	30073
2066.06582	30082.6
2069.08042	30059.9
2072.09307	30093
2075.10378	30044.8
2078.11255	30020.6
2081.11938	29996.2
2084.12426	29980.2
2087.12722	29923.9
2090.12824	29942.1
2093.12732	29940.2
2096.12447	29917.3
2099.11969	29944
2102.11299	29922.1
2105.10435	29891.8
2108.09379	29950.4
2111.08131	29979.1
2114.0669	29922.6
2117.05057	29962.2
2120.03233	29930.5
2123.01216	29970.9
2125.99008	29979.2
2128.96609	29968.6
2131.94018	29952.2
2134.91236	29967.2
2137.88263	30000.3
2140.851	30006.4
2143.81746	29995.5
2146.78201	30019.2
2149.74466	30006.6
2152.7054	30041.6
2155.66425	29984.2
2158.6212	29981.4
2161.57625	29994.8
2164.52941	29989.8
2167.48067	29981.3
2170.43004	29928.1
2173.37752	29865.8
2176.32311	29879.3
2179.26681	29876.9
2182.20863	29905.4
2185.14856	29906.5
2188.08661	29916.2
2191.02278	29865.3
2193.95707	29831.4
2196.88948	29831.4
2199.82001	29849.3
2202.74867	29797.8
2205.67545	29771.7
2208.60037	29672.2
2211.52341	29627.3
2214.44458	29576.8
2217.36388	29500.9
2220.28132	29503.1
2223.1969	29395.7
2226.11061	29446.2
2229.02246	29342.5
2231.93245	29286.7
2234.84058	29268
2237.74686	29259.5
2240.65128	29239.3
2243.55385	29152.7
2246.45456	29133.9
2249.35343	29033.1
2252.25044	28971.7
2255.14561	28889.6
2258.03893	28876.9
2260.93041	28825.3
2263.82004	28751.4
2266.70783	28670.9
2269.59378	28601.8
2272.4779	28551.7
2275.36017	28514.8
2278.24061	28424.6
2281.11922	28328.4
2283.996	28300.4
2286.87094	28290.7
2289.74405	28192.6
2292.61534	28135.4
2295.4848	28131.5
2298.35243	28124
2301.21824	28093.2
2304.08223	28137.6
2306.94439	28042.7
2309.80474	28023.5
2312.66327	28010.4
2315.51999	27943.7
2318.37489	27931
2321.22797	27876.4
2324.07925	27887.4
2326.92871	27795.2
2329.77637	27800.8
2332.62222	27718.2
2335.46626	27672.6
2338.3085	27706.8
2341.14893	27684.3
2343.98756	27646.1
2346.8244	27619
2349.65943	27572
2352.49267	27554.1
2355.32411	27537.5
2358.15376	27492.1
2360.98161	27456.1
2363.80768	27505.9
2366.63195	27461.5
2369.45444	27420
2372.27514	27402
2375.09405	27359.2
2377.91118	27304.9
2380.72652	27255.4
2383.54009	27189.9
2386.35187	27199.2
2389.16188	27129.9
2391.97011	27093.4
2394.77657	27072.1
2397.58125	27003.3
2400.38416	26925.4
2403.18529	26907.8
2405.98466	26876
2408.78226	26848.3
2411.57809	26836.5
2414.37216	26760.4
2417.16446	26763
2419.955	26705.1
2422.74378	26709.1
2425.5308	26655
2428.31606	26664.5
2431.09956	26596.1
2433.88131	26552.2
2436.6613	26547.1
2439.43954	26567.3
2442.21603	26525.1
2444.99077	26438.6
2447.76377	26501.2
2450.53501	26443.5
2453.30451	26446.7
2456.07226	26393.2
2458.83827	26414.5
2461.60254	26404.7
2464.36507	26395.2
2467.12586	26355.6
2469.88492	26328.5
2472.64224	26320.1
2475.39782	26305.9
2478.15167	26308.6
2480.90379	26230.8
2483.65417	26288.3
2486.40283	26235
2489.14976	26270.9
2491.89497	26198
2494.63845	26166.4
2497.3802	26165.3
2500.12024	26207.1
2502.85855	26177.3
2505.59514	26129.3
2508.33002	26120.6
2511.06318	26049.8
2513.79462	26053
2516.52435	26029
2519.25237	26026.9
2521.97867	25983.4
2524.70327	25994.5
2527.42616	26002.4
2530.14734	25987.3
2532.86681	25954.4
2535.58458	25924.9
2538.30065	25856.7
2541.01501	25831.8
2543.72768	25837.5
2546.43864	25812.2
2549.14791	25757.7
2551.85548	25776.9
2554.56136	25723.5
2557.26554	25687.9
2559.96803	25648.8
2562.66883	25595.3
2565.36794	25590.4
2568.06536	25574.8
2570.7611	25533.1
2573.45514	25474
2576.14751	25499.8
2578.83819	25412.9
2581.52719	25385.9
2584.21451	25338.3
2586.90015	25307.6
2589.58411	25278.2
2592.2664	25225.8
2594.94701	25186
2597.62594	25173.3
2600.30321	25098.3
2602.9788	25121.9
2605.65273	25060.6
2608.32498	25069.8
2610.99557	25027.3
2613.66449	25021.6
2616.33175	25013
2618.99734	25004
2621.66128	24939.7
2624.32355	24936.3
2626.98416	24900.1
2629.64311	24878.7
2632.30041	24898.2
2634.95605	24825
2637.61004	24817.2
2640.26238	24819.4
2642.91306	24808.4
2645.56209	24802.4
2648.20948	24776
2650.85521	24768.6
2653.4993	24820.4
2656.14175	24834.9
2658.78255	24846.5
2661.42171	24783.7
2664.05923	24824.3
2666.6951	24787.5
2669.32934	24799.6
2671.96194	24832.9
2674.59291	24789.3
2677.22224	24765.7
2679.84993	24789
2682.476	24751.3
2685.10043	24806.6
2687.72324	24752
2690.34441	24779.3
2692.96396	24757.7
2695.58188	24829.5
2698.19818	24775.9
2700.81285	24781.1
2703.4259	24764
2706.03733	24787.7
2708.64714	24747
2711.25533	24762.8
2713.86191	24754.2
2716.46687	24789
2719.07021	24762.2
2721.67194	24760.2
2724.27206	24749.6
2726.87057	24811.6
2729.46747	24769.7
2732.06276	24805.7
2734.65644	24805.4
2737.24852	24790.1
2739.83899	24757.4
2742.42786	24772.1
2745.01513	24721
2747.60079	24709.5
2750.18486	24686.3
2752.76733	24688.9
2755.3482	24662.4
2757.92747	24655.3
2760.50515	24614.3
2763.08123	24617.5
2765.65573	24595.5
2768.22863	24571.4
2770.79994	24558.1
2773.36967	24515.8
2775.9378	24439
2778.50435	24459.8
2781.06932	24426.9
2783.6327	24402.4
2786.1945	24371.9
2788.75471	24336.5
2791.31335	24287.1
2793.87041	24256.1
2796.42589	24190.3
2798.97979	24172.2
2801.53212	24091.9
2804.08288	24101.2
2806.63206	23993.6
2809.17967	23935.3
2811.72571	23936.1
2814.27018	23878.2
2816.81308	23812.7
2819.35442	23780
2821.89419	23736.5
2824.43239	23738.9
2826.96904	23692.9
2829.50412	23690.1
2832.03763	23667.7
2834.56959	23631.8
2837.1	23565.4
2839.62884	23522.6
2842.15613	23513.8
2844.68186	23438.1
2847.20604	23428.2
2849.72867	23432.8
2852.24974	23364.1
2854.76927	23368.4
2857.28724	23356.2
2859.80367	23311.2
2862.31855	23302.2
2864.83189	23260
2867.34368	23251.6
2869.85393	23193.2
2872.36264	23118.7
2874.8698	23119.4
2877.37543	23133.9
2879.87952	23171.4
2882.38207	23145
2884.88308	23144.6
2887.38256	23145.3
2889.88051	23158.1
2892.37692	23176.3
2894.8718	23168.8
2897.36515	23150.8
2899.85698	23132.4
2902.34727	23190.5
2904.83604	23154.1
2907.32328	23194.8
2909.809	23166.2
2912.29319	23155.9
2914.77587	23117.7
2917.25702	23146.7
2919.73665	23119
2922.21476	23108.8
2924.69136	23125.3
2927.16644	23093.6
2929.64	23087.9
2932.11205	23017.1
2934.58258	23034.1
2937.05161	23015.7
2939.51912	23027.9
2941.98513	23045.7
2944.44962	22963.9
2946.91261	22874.2
2949.37409	22914.4
2951.83407	22902.8
2954.29254	22875.7
2956.74951	22825.5
2959.20498	22858.6
2961.65895	22792.2
2964.11142	22786.9
2966.56239	22731.7
2969.01186	22711.5
2971.45984	22625.4
2973.90632	22608.5
2976.35131	22562.9
2978.7948	22540.6
2981.23681	22492.1
2983.67732	22455.4
2986.11635	22375.2
2988.55388	22307
2990.98993	22287.7
2993.4245	22227.4
2995.85758	22160.2
2998.28917	22075.6
3000.71928	22055
3003.14791	21979.9
3005.57506	21934.9
3008.00073	21876.4
3010.42493	21892.3
3012.84764	21850.7
3015.26888	21824.6
3017.68865	21764.8
3020.10694	21745.2
3022.52376	21696.3
3024.9391	21621.6
3027.35298	21597.5
3029.76539	21575.7
3032.17632	21562.4
3034.5858	21485.4
3036.9938	21478.1
3039.40034	21433.2
3041.80542	21432.4
3044.20903	21403.1
3046.61118	21347.1
3049.01187	21275.7
3051.4111	21261.3
3053.80888	21173.4
3056.20519	21150.3
3058.60005	21090.7
3060.99345	21026.4
3063.3854	21004.2
3065.7759	20929.6
3068.16494	20882
3070.55254	20830
3072.93868	20799.1
3075.32338	20691.8
3077.70662	20629.8
3080.08842	20569.8
3082.46878	20609.1
3084.84769	20550
3087.22515	20505
3089.60118	20529.1
3091.97576	20527.3
3094.3489	20443.1
3096.72061	20425.6
3099.09087	20402.5
3101.4597	20392.9
3103.82709	20388.2
3106.19305	20347.5
3108.55757	20327.4
3110.92066	20258.7
3113.28232	20204
3115.64255	20158.8
3118.00134	20096.7
3120.35871	20057.6
3122.71466	19980.7
3125.06917	19982.3
3127.42226	19943
3129.77393	19942
3132.12417	19892.7
3134.47299	19884.3
3136.82039	19868.5
3139.16636	19894
3141.51092	19829.1
3143.85406	19833.7
3146.19579	19791.9
3148.53609	19810
3150.87499	19782.5
3153.21246	19806.4
3155.54853	19814.7
3157.88318	19781.3
3160.21642	19773.7
3162.54826	19726.5
3164.87868	19714.7
3167.2077	19676.8
3169.5353	19711.4
3171.86151	19661.3
3174.18631	19632
3176.5097	19601.9
3178.83169	19591.1
3181.15228	19566.8
3183.47147	19499.5
3185.78926	19517.3
3188.10565	19484.8
3190.42065	19454.3
3192.73424	19448.8
3195.04645	19380
3197.35725	19418.2
3199.66667	19385.5
3201.97469	19375
3204.28132	19331.5
3206.58656	19324.7
3208.8904	19313.6
3211.19287	19327.3
3213.49394	19286.6
3215.79363	19264.3
3218.09193	19305.9
3220.38884	19248.5
3222.68438	19261.8
3224.97853	19242.2
3227.2713	19200.3
3229.56269	19160.9
3231.8527	19127.9
3234.14133	19076.3
3236.42858	19049.8
3238.71446	19025.2
3240.99896	18998.3
3243.28209	18990.1
3245.56384	18967.4
3247.84423	18961.8
3250.12324	18940.9
3252.40088	18908
3254.67715	18909.7
3256.95205	18797.1
3259.22558	18778.9
3261.49775	18739.4
3263.76855	18684.8
3266.03799	18630.1
3268.30606	18638.5
3270.57277	18594.1
3272.83812	18565.6
3275.10211	18523.8
3277.36474	18516.8
3279.62601	18534.4
3281.88593	18511.7
3284.14448	18509.5
3286.40168	18493.5
3288.65753	18482.7
3290.91202	18456
3293.16516	18378.6
3295.41695	18323.1
3297.66738	18195.2
3299.91647	18102.6
3302.16421	18005.9
3304.4106	17919.6
3306.65564	17852.4
3308.89933	17709.7
3311.14169	17580.6
3313.38269	17457.5
3315.62236	17336.5
3317.86068	17176
3320.09766	16978.6
3322.3333	16830.1
3324.5676	16813.1
3326.80056	16559.9
3329.03219	16438.4
3331.26248	5.1
3333.49143	-1.1
3335.71905	-0.7
