Data from AgNP_FTO_APTES_CRN_1000uM_R6G_10uM_NaF_0.1M_Addition_RamanShift__27__21-21-48-298.txt Node

Date: Wed Dec 15 21:21:48 GMT 2021
User: TCL
Spectrometer: QEP01345
Trigger mode: 4
Integration Time (sec): 7.000000E0
Scans to average: 10
Electric dark correction enabled: true
Nonlinearity correction enabled: false
Boxcar width: 0
XAxis mode: Raman Shifts
Number of Pixels in Spectrum: 1044
>>>>>Begin Spectral Data<<<<<
46.04893	-0.325
50.45542	-1.625
54.85868	-0.325
59.25871	-1.925
63.6555	61.075
68.04907	66.275
72.43941	70.475
76.82654	73.475
81.21044	75.875
85.59113	77.375
89.96862	84.975
94.34289	81.075
98.71396	88.375
103.08183	92.375
107.4465	97.575
111.80798	94.875
116.16626	98.375
120.52136	103.275
124.87327	107.475
129.222	110.575
133.56755	115.475
137.90993	126.075
142.24913	141.075
146.58517	156.575
150.91804	181.475
155.24774	214.975
159.57429	266.675
163.89768	342.675
168.21792	454.675
172.53501	628.875
176.84895	864.975
181.15975	1217.375
185.46741	1707.675
189.77193	2349.375
194.07331	3157.075
198.37157	4066.675
202.6667	5035.275
206.9587	5992.175
211.24758	6933.475
215.53334	7903.775
219.81599	8920.575
224.09553	10067.475
228.37195	11291.075
232.64527	12639.275
236.91549	14027.475
241.18261	15348.375
245.44663	16598.175
249.70755	17666.375
253.96539	18602.675
258.22014	19404.675
262.4718	20062.875
266.72039	20545.675
270.96589	20822.175
275.20832	20818.175
279.44768	20653.375
283.68397	20421.275
287.91719	20252.475
292.14735	20173.875
296.37445	20235.475
300.59849	20544.775
304.81948	20839.875
309.03742	20965.275
313.25231	20786.875
317.46415	20179.475
321.67296	19355.875
325.87872	18652.375
330.08145	18328.675
334.28114	18411.975
338.47781	18607.975
342.67145	18961.775
346.86207	19430.475
351.04966	20148.075
355.23424	20832.275
359.4158	21443.275
363.59435	21777.775
367.76989	21962.475
371.94243	22030.075
376.11196	22088.575
380.27849	22175.775
384.44203	22121.075
388.60257	22055.775
392.76012	22037.075
396.91468	22191.775
401.06626	22541.675
405.21485	22821.275
409.36047	22645.975
413.50311	22063.175
417.64277	21508.875
421.77947	21181.975
425.9132	21100.075
430.04396	21233.975
434.17176	21437.475
438.2966	21747.675
442.41849	22237.775
446.53742	22819.075
450.6534	23414.275
454.76644	23779.375
458.87653	23944.075
462.98368	23801.875
467.08789	23519.875
471.18916	23262.075
475.2875	23005.675
479.38291	22722.075
483.4754	22446.975
487.56496	22166.875
491.6516	21905.975
495.73531	21715.475
499.81612	21686.175
503.89401	21830.075
507.96899	22039.175
512.04106	22343.975
516.11023	22687.275
520.1765	22973.075
524.23987	23048.075
528.30034	22900.775
532.35792	22588.675
536.41261	22264.575
540.46441	21972.075
544.51333	21829.075
548.55936	21937.575
552.60252	22271.575
556.64279	22674.075
560.6802	22934.675
564.71473	23152.775
568.7464	23591.175
572.7752	23951.975
576.80114	23622.775
580.82422	23151.675
584.84444	22937.475
588.86181	23135.775
592.87633	23465.175
596.888	23794.875
600.89682	24131.875
604.9028	25361.775
608.90594	28844.975
612.90624	33324.775
616.90371	32057.975
620.89834	25748.575
624.89015	22731.675
628.87913	22168.575
632.86528	22203.975
636.84862	22381.375
640.82913	22217.775
644.80683	21741.275
648.78172	21405.375
652.75379	21431.975
656.72306	21840.375
660.68952	22393.175
664.65319	22290.175
668.61405	21781.275
672.57211	21614.875
676.52738	21620.775
680.47986	21670.975
684.42955	21639.175
688.37646	21551.075
692.32058	21550.075
696.26192	21728.975
700.20048	21890.275
704.13626	21956.675
708.06928	21813.075
711.99952	21655.475
715.927	21457.375
719.85171	21481.975
723.77365	21318.075
727.69284	21109.475
731.60928	20908.275
735.52295	20838.875
739.43388	20823.975
743.34206	20828.175
747.24749	20813.375
751.15017	20888.075
755.05012	21057.875
758.94733	21612.675
762.8418	22842.175
766.73354	24902.875
770.62254	27158.975
774.50882	28167.375
778.39237	27147.575
782.27321	24731.275
786.15132	22493.575
790.02671	21171.575
793.89938	20563.275
797.76935	20331.875
801.6366	20199.375
805.50115	20097.475
809.36299	20066.275
813.22213	20009.275
817.07857	19983.975
820.93231	19984.975
824.78336	20010.875
828.63172	20070.075
832.47738	20047.775
836.32036	20082.475
840.16066	20060.475
843.99827	20005.375
847.8332	19925.075
851.66546	19923.075
855.49504	19885.175
859.32195	19932.075
863.1462	19913.975
866.96777	19873.975
870.78668	19784.875
874.60293	19682.875
878.41652	19659.775
882.22745	19690.375
886.03573	19701.575
889.84136	19682.275
893.64433	19597.275
897.44466	19563.375
901.24235	19540.975
905.0374	19455.775
908.8298	19441.075
912.61957	19441.675
916.40671	19536.475
920.19121	19635.475
923.97308	19767.575
927.75233	19895.175
931.52895	20045.575
935.30295	19935.775
939.07433	19568.375
942.84309	19262.475
946.60924	18994.075
950.37278	18843.375
954.13371	18724.975
957.89203	18646.375
961.64774	18646.975
965.40086	18582.575
969.15137	18530.775
972.89929	18446.975
976.64461	18426.975
980.38733	18403.975
984.12747	18463.975
987.86502	18560.475
991.59999	18656.475
995.33237	18843.375
999.06217	19131.175
1002.78939	19485.375
1006.51404	19786.575
1010.23611	20048.175
1013.95561	20225.075
1017.67255	20182.475
1021.38692	19958.875
1025.09872	19771.875
1028.80796	19643.275
1032.51465	19828.375
1036.21877	19997.275
1039.92035	20090.875
1043.61937	20107.575
1047.31584	20011.675
1051.00976	19933.875
1054.70114	19924.275
1058.38998	20008.575
1062.07627	20287.875
1065.76003	20660.775
1069.44126	21226.875
1073.11995	22020.875
1076.79611	22694.775
1080.46974	22918.175
1084.14085	22614.275
1087.80943	22108.975
1091.47549	21598.975
1095.13903	21043.375
1098.80005	20505.275
1102.45857	20081.075
1106.11456	19832.475
1109.76805	19915.175
1113.41903	20112.775
1117.06751	20461.075
1120.71348	20881.875
1124.35696	21290.075
1127.99793	21744.075
1131.63641	21821.675
1135.2724	21341.075
1138.90589	20891.275
1142.5369	20496.775
1146.16542	20244.275
1149.79145	20135.075
1153.415	20162.575
1157.03607	20301.075
1160.65467	20607.075
1164.27079	21178.475
1167.88443	22080.575
1171.49561	23425.075
1175.10432	25414.375
1178.71056	27925.075
1182.31434	29777.475
1185.91565	30211.875
1189.51451	29553.675
1193.11091	28276.275
1196.70485	26838.775
1200.29634	25687.875
1203.88538	24848.475
1207.47197	23983.175
1211.05612	23257.275
1214.63782	22845.575
1218.21708	22733.475
1221.79391	22725.775
1225.36829	22647.275
1228.94024	22484.875
1232.50976	22244.475
1236.07685	22155.175
1239.6415	22174.775
1243.20374	22276.975
1246.76355	22382.475
1250.32093	22656.975
1253.8759	23016.875
1257.42845	23478.975
1260.97859	23914.275
1264.52631	24352.675
1268.07163	24812.475
1271.61453	25301.775
1275.15503	25657.275
1278.69312	26008.575
1282.22882	26194.175
1285.76211	26606.275
1289.29301	27270.875
1292.82151	28049.175
1296.34761	29004.375
1299.87133	30286.075
1303.39266	32082.275
1306.9116	34539.875
1310.42815	37229.875
1313.94233	38664.975
1317.45412	38398.875
1320.96354	36955.575
1324.47058	35325.575
1327.97525	33769.475
1331.47754	32795.975
1334.97747	32525.875
1338.47502	32800.175
1341.97022	33286.075
1345.46305	33732.675
1348.95352	34384.275
1352.44163	35562.475
1355.92738	37620.375
1359.41078	40831.575
1362.89183	43853.475
1366.37053	42995.875
1369.84688	38428.075
1373.32088	33640.475
1376.79254	30495.075
1380.26186	28875.375
1383.72883	28106.275
1387.19347	27632.275
1390.65578	27126.875
1394.11575	26762.875
1397.57339	26779.175
1401.0287	27074.175
1404.48168	27413.675
1407.93234	27737.075
1411.38068	27758.075
1414.82669	27453.875
1418.27039	26813.875
1421.71177	26072.475
1425.15083	25370.875
1428.58758	24916.975
1432.02203	24889.975
1435.45416	25070.675
1438.88399	25281.575
1442.31151	25400.875
1445.73673	25526.075
1449.15965	25770.675
1452.58027	25918.975
1455.9986	25869.075
1459.41463	25990.875
1462.82837	26274.675
1466.23982	26767.975
1469.64898	27159.775
1473.05586	27525.275
1476.46045	27612.575
1479.86276	27694.775
1483.26279	27756.975
1486.66054	27857.675
1490.05602	28161.175
1493.44922	28629.975
1496.84016	29226.675
1500.22882	30400.375
1503.61521	32143.775
1506.99934	34424.475
1510.38121	36554.875
1513.76081	37446.175
1517.13816	36098.675
1520.51324	33303.875
1523.88607	30581.075
1527.25665	28720.975
1530.62498	27810.675
1533.99105	27402.175
1537.35488	27166.275
1540.71647	26990.875
1544.07581	26843.075
1547.4329	26725.575
1550.78776	26559.575
1554.14038	26443.175
1557.49077	26472.075
1560.83892	26640.975
1564.18484	27017.075
1567.52853	27597.075
1570.86999	28367.975
1574.20922	29422.875
1577.54624	30345.575
1580.88103	30413.675
1584.2136	29443.575
1587.54395	28337.975
1590.87208	27941.075
1594.19801	28556.775
1597.52172	29732.875
1600.84321	30281.275
1604.16251	29518.575
1607.47959	27816.875
1610.79447	25836.675
1614.10715	24028.775
1617.41763	22514.075
1620.7259	21590.775
1624.03199	21114.375
1627.33587	21106.675
1630.63757	21449.275
1633.93707	22251.075
1637.23439	23563.075
1640.52951	25447.875
1643.82246	27801.675
1647.11321	30185.175
1650.40179	31485.875
1653.68819	30389.375
1656.97241	27206.575
1660.25446	23866.275
1663.53433	21387.875
1666.81203	19846.275
1670.08756	18942.575
1673.36092	18295.675
1676.63211	17925.275
1679.90115	17601.475
1683.16801	17386.575
1686.43272	17211.575
1689.69527	17097.975
1692.95567	16986.275
1696.2139	16942.875
1699.46999	16902.075
1702.72392	16850.275
1705.97571	16825.475
1709.22535	16777.675
1712.47284	16740.675
1715.71819	16756.675
1718.96139	16706.275
1722.20246	16645.975
1725.44139	16568.175
1728.67818	16449.275
1731.91284	16381.375
1735.14537	16303.275
1738.37576	16221.075
1741.60403	16178.775
1744.83017	16155.075
1748.05418	16115.375
1751.27607	16079.275
1754.49584	16048.875
1757.71349	16030.875
1760.92903	16008.875
1764.14244	15975.575
1767.35375	15983.375
1770.56294	15901.575
1773.77002	15898.775
1776.97499	15861.975
1780.17785	15811.975
1783.37861	15825.175
1786.57727	15780.375
1789.77382	15725.375
1792.96828	15708.375
1796.16064	15703.275
1799.3509	15670.575
1802.53907	15615.375
1805.72514	15570.375
1808.90913	15529.275
1812.09102	15488.475
1815.27083	15462.175
1818.44856	15470.275
1821.6242	15381.075
1824.79776	15383.075
1827.96924	15404.575
1831.13864	15376.275
1834.30597	15360.075
1837.47122	15340.875
1840.6344	15318.075
1843.7955	15311.375
1846.95454	15286.675
1850.11151	15318.275
1853.26642	15276.775
1856.41926	15263.475
1859.57004	15275.975
1862.71876	15268.775
1865.86542	15233.775
1869.01003	15243.175
1872.15258	15225.675
1875.29308	15211.975
1878.43152	15213.775
1881.56792	15192.175
1884.70227	15218.075
1887.83457	15232.675
1890.96482	15204.175
1894.09304	15155.375
1897.21921	15173.775
1900.34335	15149.975
1903.46544	15150.875
1906.58551	15124.375
1909.70353	15095.175
1912.81953	15103.275
1915.93349	15084.475
1919.04543	15057.275
1922.15534	14995.775
1925.26322	14992.375
1928.36908	14975.475
1931.47292	14977.375
1934.57473	14914.375
1937.67453	14854.875
1940.77232	14824.675
1943.86808	14773.675
1946.96184	14723.675
1950.05358	14696.675
1953.14331	14635.675
1956.23103	14610.175
1959.31675	14559.975
1962.40046	14563.075
1965.48217	14522.075
1968.56188	14440.775
1971.63959	14399.475
1974.7153	14378.075
1977.78901	14338.375
1980.86073	14276.575
1983.93046	14256.075
1986.99819	14160.175
1990.06394	14151.475
1993.1277	14145.875
1996.18947	14055.875
1999.24925	14055.175
2002.30706	13982.375
2005.36288	13939.875
2008.41672	13893.975
2011.46859	13852.775
2014.51848	13860.375
2017.56639	13808.575
2020.61233	13733.375
2023.6563	13744.675
2026.6983	13705.775
2029.73833	13684.375
2032.7764	13638.275
2035.8125	13619.475
2038.84664	13561.275
2041.87881	13590.175
2044.90903	13547.875
2047.93729	13530.575
2050.96359	13490.475
2053.98794	13453.975
2057.01034	13454.975
2060.03078	13470.575
2063.04927	13427.375
2066.06582	13429.275
2069.08042	13447.675
2072.09307	13412.275
2075.10378	13394.175
2078.11255	13367.175
2081.11938	13377.375
2084.12426	13390.575
2087.12722	13355.175
2090.12824	13344.375
2093.12732	13359.375
2096.12447	13370.875
2099.11969	13352.575
2102.11299	13356.775
2105.10435	13371.875
2108.09379	13354.275
2111.08131	13374.375
2114.0669	13364.575
2117.05057	13342.875
2120.03233	13403.775
2123.01216	13415.575
2125.99008	13382.875
2128.96609	13400.375
2131.94018	13422.675
2134.91236	13435.175
2137.88263	13445.375
2140.851	13449.475
2143.81746	13467.675
2146.78201	13445.975
2149.74466	13445.275
2152.7054	13460.775
2155.66425	13489.275
2158.6212	13501.775
2161.57625	13433.675
2164.52941	13425.775
2167.48067	13412.975
2170.43004	13409.875
2173.37752	13415.075
2176.32311	13400.975
2179.26681	13389.475
2182.20863	13422.175
2185.14856	13408.575
2188.08661	13395.175
2191.02278	13378.575
2193.95707	13374.375
2196.88948	13378.475
2199.82001	13352.775
2202.74867	13313.575
2205.67545	13309.475
2208.60037	13324.975
2211.52341	13328.175
2214.44458	13286.475
2217.36388	13259.375
2220.28132	13216.175
2223.1969	13182.575
2226.11061	13175.075
2229.02246	13171.975
2231.93245	13141.575
2234.84058	13118.875
2237.74686	13119.475
2240.65128	13077.875
2243.55385	13024.675
2246.45456	13013.175
2249.35343	13022.975
2252.25044	13000.775
2255.14561	12975.675
2258.03893	12980.175
2260.93041	12965.975
2263.82004	12923.475
2266.70783	12922.275
2269.59378	12869.175
2272.4779	12875.975
2275.36017	12807.075
2278.24061	12771.575
2281.11922	12728.875
2283.996	12702.975
2286.87094	12699.075
2289.74405	12644.175
2292.61534	12655.875
2295.4848	12651.475
2298.35243	12648.175
2301.21824	12640.775
2304.08223	12609.975
2306.94439	12603.575
2309.80474	12581.775
2312.66327	12593.475
2315.51999	12592.875
2318.37489	12572.875
2321.22797	12576.875
2324.07925	12584.875
2326.92871	12569.975
2329.77637	12561.875
2332.62222	12550.775
2335.46626	12500.075
2338.3085	12486.175
2341.14893	12483.375
2343.98756	12480.975
2346.8244	12467.475
2349.65943	12489.175
2352.49267	12474.875
2355.32411	12480.275
2358.15376	12465.275
2360.98161	12442.875
2363.80768	12442.375
2366.63195	12447.575
2369.45444	12418.475
2372.27514	12423.675
2375.09405	12392.675
2377.91118	12365.675
2380.72652	12351.175
2383.54009	12305.575
2386.35187	12270.175
2389.16188	12208.875
2391.97011	12222.975
2394.77657	12188.275
2397.58125	12160.975
2400.38416	12169.275
2403.18529	12144.775
2405.98466	12157.275
2408.78226	12073.275
2411.57809	12079.875
2414.37216	12043.775
2417.16446	12012.775
2419.955	12020.475
2422.74378	12024.975
2425.5308	12002.775
2428.31606	11952.575
2431.09956	11977.075
2433.88131	11955.275
2436.6613	11950.475
2439.43954	11952.775
2442.21603	11955.775
2444.99077	11963.775
2447.76377	11960.475
2450.53501	11921.575
2453.30451	11910.675
2456.07226	11900.675
2458.83827	11893.975
2461.60254	11880.075
2464.36507	11880.875
2467.12586	11870.775
2469.88492	11832.675
2472.64224	11818.775
2475.39782	11825.875
2478.15167	11836.075
2480.90379	11840.575
2483.65417	11844.975
2486.40283	11866.475
2489.14976	11872.575
2491.89497	11894.875
2494.63845	11877.575
2497.3802	11840.175
2500.12024	11842.475
2502.85855	11850.175
2505.59514	11821.675
2508.33002	11791.175
2511.06318	11761.075
2513.79462	11763.775
2516.52435	11721.175
2519.25237	11713.375
2521.97867	11669.875
2524.70327	11674.675
2527.42616	11658.575
2530.14734	11632.175
2532.86681	11631.475
2535.58458	11625.475
2538.30065	11611.075
2541.01501	11607.775
2543.72768	11595.375
2546.43864	11591.275
2549.14791	11569.175
2551.85548	11552.475
2554.56136	11529.775
2557.26554	11504.975
2559.96803	11461.375
2562.66883	11469.575
2565.36794	11469.175
2568.06536	11475.275
2570.7611	11456.575
2573.45514	11448.875
2576.14751	11423.375
2578.83819	11372.675
2581.52719	11384.975
2584.21451	11404.275
2586.90015	11359.875
2589.58411	11333.375
2592.2664	11313.875
2594.94701	11269.375
2597.62594	11273.375
2600.30321	11285.175
2602.9788	11266.975
2605.65273	11245.575
2608.32498	11254.675
2610.99557	11206.375
2613.66449	11200.275
2616.33175	11216.775
2618.99734	11216.575
2621.66128	11182.675
2624.32355	11184.675
2626.98416	11159.475
2629.64311	11171.575
2632.30041	11148.575
2634.95605	11151.075
2637.61004	11121.175
2640.26238	11092.475
2642.91306	11090.875
2645.56209	11103.975
2648.20948	11076.475
2650.85521	11083.575
2653.4993	11093.175
2656.14175	11095.575
2658.78255	11070.475
2661.42171	11089.375
2664.05923	11090.475
2666.6951	11100.975
2669.32934	11084.475
2671.96194	11109.575
2674.59291	11093.575
2677.22224	11102.175
2679.84993	11100.575
2682.476	11082.975
2685.10043	11103.375
2687.72324	11065.775
2690.34441	11078.975
2692.96396	11082.475
2695.58188	11090.675
2698.19818	11074.375
2700.81285	11088.075
2703.4259	11092.275
2706.03733	11153.275
2708.64714	11134.275
2711.25533	11115.675
2713.86191	11135.175
2716.46687	11126.875
2719.07021	11108.175
2721.67194	11121.475
2724.27206	11092.675
2726.87057	11097.875
2729.46747	11085.875
2732.06276	11092.675
2734.65644	11048.475
2737.24852	11086.175
2739.83899	11066.875
2742.42786	11069.675
2745.01513	11053.075
2747.60079	11070.675
2750.18486	11020.375
2752.76733	11011.175
2755.3482	11045.175
2757.92747	11025.875
2760.50515	10979.775
2763.08123	10976.375
2765.65573	10974.075
2768.22863	10978.175
2770.79994	10968.975
2773.36967	10970.775
2775.9378	10947.775
2778.50435	10925.075
2781.06932	10913.775
2783.6327	10897.175
2786.1945	10898.175
2788.75471	10870.775
2791.31335	10851.975
2793.87041	10838.275
2796.42589	10818.075
2798.97979	10817.275
2801.53212	10806.775
2804.08288	10805.475
2806.63206	10753.475
2809.17967	10745.775
2811.72571	10733.675
2814.27018	10730.075
2816.81308	10742.975
2819.35442	10733.175
2821.89419	10719.375
2824.43239	10727.675
2826.96904	10702.975
2829.50412	10725.175
2832.03763	10698.075
2834.56959	10676.075
2837.1	10685.075
2839.62884	10698.275
2842.15613	10710.475
2844.68186	10717.075
2847.20604	10753.375
2849.72867	10759.775
2852.24974	10755.075
2854.76927	10764.275
2857.28724	10761.375
2859.80367	10722.975
2862.31855	10721.775
2864.83189	10691.175
2867.34368	10705.675
2869.85393	10698.775
2872.36264	10686.575
2874.8698	10702.375
2877.37543	10713.475
2879.87952	10715.375
2882.38207	10705.475
2884.88308	10716.175
2887.38256	10744.875
2889.88051	10727.675
2892.37692	10735.375
2894.8718	10720.575
2897.36515	10724.375
2899.85698	10744.675
2902.34727	10771.375
2904.83604	10772.675
2907.32328	10790.175
2909.809	10786.075
2912.29319	10783.275
2914.77587	10818.875
2917.25702	10808.475
2919.73665	10764.075
2922.21476	10818.975
2924.69136	10788.475
2927.16644	10788.775
2929.64	10777.375
2932.11205	10764.975
2934.58258	10707.675
2937.05161	10738.975
2939.51912	10720.875
2941.98513	10694.175
2944.44962	10657.475
2946.91261	10571.075
2949.37409	10555.875
2951.83407	10538.275
2954.29254	10534.075
2956.74951	10463.675
2959.20498	10462.275
2961.65895	10411.375
2964.11142	10394.275
2966.56239	10365.575
2969.01186	10358.775
2971.45984	10322.575
2973.90632	10295.575
2976.35131	10255.775
2978.7948	10248.075
2981.23681	10216.375
2983.67732	10197.575
2986.11635	10162.375
2988.55388	10139.575
2990.98993	10096.575
2993.4245	10093.375
2995.85758	10058.275
2998.28917	10045.675
3000.71928	10025.775
3003.14791	9985.275
3005.57506	9998.075
3008.00073	9965.875
3010.42493	9986.975
3012.84764	9935.675
3015.26888	9938.375
3017.68865	9908.175
3020.10694	9894.275
3022.52376	9841.575
3024.9391	9860.875
3027.35298	9834.675
3029.76539	9842.875
3032.17632	9828.275
3034.5858	9822.175
3036.9938	9797.575
3039.40034	9767.175
3041.80542	9756.875
3044.20903	9748.575
3046.61118	9744.275
3049.01187	9715.875
3051.4111	9698.275
3053.80888	9670.375
3056.20519	9658.075
3058.60005	9612.375
3060.99345	9615.775
3063.3854	9600.575
3065.7759	9561.875
3068.16494	9584.275
3070.55254	9544.375
3072.93868	9514.375
3075.32338	9485.775
3077.70662	9474.275
3080.08842	9426.575
3082.46878	9420.575
3084.84769	9423.975
3087.22515	9394.075
3089.60118	9416.875
3091.97576	9436.375
3094.3489	9415.275
3096.72061	9432.475
3099.09087	9444.075
3101.4597	9406.375
3103.82709	9402.675
3106.19305	9355.275
3108.55757	9365.775
3110.92066	9330.575
3113.28232	9314.175
3115.64255	9290.075
3118.00134	9274.075
3120.35871	9275.575
3122.71466	9267.875
3125.06917	9244.975
3127.42226	9206.975
3129.77393	9262.875
3132.12417	9235.675
3134.47299	9251.675
