Data from AgNP_FTO_APTES_CRN_500uM_R6G_10uM_NaF_0.1M_Addition_RamanShift__36__20-45-38-257.txt Node

Date: Wed Dec 15 20:45:38 GMT 2021
User: TCL
Spectrometer: QEP01345
Trigger mode: 4
Integration Time (sec): 7.000000E0
Scans to average: 10
Electric dark correction enabled: true
Nonlinearity correction enabled: false
Boxcar width: 0
XAxis mode: Raman Shifts
Number of Pixels in Spectrum: 1044
>>>>>Begin Spectral Data<<<<<
46.04893	0.8125
50.45542	-1.1875
54.85868	0.8125
59.25871	-0.7875
63.6555	41.1125
68.04907	48.7125
72.43941	53.2125
76.82654	55.4125
81.21044	58.8125
85.59113	61.5125
89.96862	63.3125
94.34289	60.4125
98.71396	65.7125
103.08183	72.3125
107.4465	73.5125
111.80798	73.9125
116.16626	74.6125
120.52136	74.7125
124.87327	74.7125
129.222	78.4125
133.56755	81.0125
137.90993	82.5125
142.24913	90.1125
146.58517	97.8125
150.91804	106.4125
155.24774	126.6125
159.57429	154.6125
163.89768	192.3125
168.21792	252.5125
172.53501	331.0125
176.84895	453.1125
181.15975	623.4125
185.46741	865.4125
189.77193	1193.2125
194.07331	1592.9125
198.37157	2038.3125
202.6667	2519.3125
206.9587	2979.9125
211.24758	3447.2125
215.53334	3953.4125
219.81599	4473.5125
224.09553	5094.5125
228.37195	5771.7125
232.64527	6488.9125
236.91549	7202.1125
241.18261	7841.7125
245.44663	8372.6125
249.70755	8780.5125
253.96539	9123.4125
258.22014	9424.1125
262.4718	9687.3125
266.72039	9878.0125
270.96589	9969.5125
275.20832	9965.2125
279.44768	9869.8125
283.68397	9706.1125
287.91719	9606.4125
292.14735	9607.8125
296.37445	9780.3125
300.59849	10152.0125
304.81948	10610.6125
309.03742	10934.1125
313.25231	10974.2125
317.46415	10513.6125
321.67296	9733.7125
325.87872	9037.8125
330.08145	8732.7125
334.28114	8702.6125
338.47781	8870.2125
342.67145	9111.8125
346.86207	9523.5125
351.04966	10123.2125
355.23424	10787.5125
359.4158	11271.2125
363.59435	11505.3125
367.76989	11584.1125
371.94243	11522.5125
376.11196	11446.9125
380.27849	11364.0125
384.44203	11234.3125
388.60257	11061.2125
392.76012	10956.3125
396.91468	11054.7125
401.06626	11304.2125
405.21485	11546.2125
409.36047	11342.1125
413.50311	10759.7125
417.64277	10207.9125
421.77947	9903.6125
425.9132	9779.7125
430.04396	9774.0125
434.17176	9861.7125
438.2966	10034.7125
442.41849	10311.2125
446.53742	10668.9125
450.6534	10996.9125
454.76644	11214.5125
458.87653	11239.3125
462.98368	11108.0125
467.08789	10882.1125
471.18916	10677.3125
475.2875	10419.4125
479.38291	10199.9125
483.4754	9988.8125
487.56496	9809.8125
491.6516	9686.6125
495.73531	9636.3125
499.81612	9679.7125
503.89401	9843.5125
507.96899	9992.2125
512.04106	10234.9125
516.11023	10518.6125
520.1765	10750.1125
524.23987	10794.3125
528.30034	10627.2125
532.35792	10392.9125
536.41261	10123.9125
540.46441	9847.1125
544.51333	9705.0125
548.55936	9731.5125
552.60252	9904.6125
556.64279	10172.3125
560.6802	10307.6125
564.71473	10473.5125
568.7464	10866.3125
572.7752	11125.7125
576.80114	10736.9125
580.82422	10283.5125
584.84444	10090.9125
588.86181	10142.6125
592.87633	10288.3125
596.888	10478.0125
600.89682	10790.7125
604.9028	11998.9125
608.90594	15271.0125
612.90624	19607.9125
616.90371	18921.6125
620.89834	13284.2125
624.89015	10627.5125
628.87913	10059.0125
632.86528	10122.2125
636.84862	10263.2125
640.82913	10176.0125
644.80683	9837.3125
648.78172	9624.2125
652.75379	9765.5125
656.72306	10188.3125
660.68952	10688.0125
664.65319	10583.6125
668.61405	10076.5125
672.57211	9849.2125
676.52738	9844.8125
680.47986	9885.1125
684.42955	9810.1125
688.37646	9727.8125
692.32058	9778.3125
696.26192	9848.7125
700.20048	9939.6125
704.13626	9963.1125
708.06928	9895.3125
711.99952	9749.8125
715.927	9674.6125
719.85171	9681.6125
723.77365	9604.1125
727.69284	9442.9125
731.60928	9337.5125
735.52295	9298.4125
739.43388	9292.4125
743.34206	9309.2125
747.24749	9291.9125
751.15017	9332.5125
755.05012	9492.3125
758.94733	9965.2125
762.8418	11018.6125
766.73354	12884.6125
770.62254	14811.1125
774.50882	15864.9125
778.39237	15249.2125
782.27321	13172.2125
786.15132	11092.0125
790.02671	9921.0125
793.89938	9418.3125
797.76935	9157.5125
801.6366	9045.0125
805.50115	8982.5125
809.36299	8932.0125
813.22213	8891.3125
817.07857	8893.3125
820.93231	8901.9125
824.78336	8927.5125
828.63172	8981.1125
832.47738	9001.7125
836.32036	8989.3125
840.16066	8921.4125
843.99827	8842.2125
847.8332	8786.7125
851.66546	8742.4125
855.49504	8772.7125
859.32195	8710.8125
863.1462	8662.3125
866.96777	8629.4125
870.78668	8577.4125
874.60293	8582.5125
878.41652	8597.2125
882.22745	8627.9125
886.03573	8659.5125
889.84136	8620.3125
893.64433	8581.7125
897.44466	8565.1125
901.24235	8563.7125
905.0374	8546.8125
908.8298	8512.5125
912.61957	8465.9125
916.40671	8518.0125
920.19121	8572.7125
923.97308	8648.2125
927.75233	8757.6125
931.52895	8845.3125
935.30295	8779.3125
939.07433	8503.1125
942.84309	8263.0125
946.60924	8104.4125
950.37278	8030.8125
954.13371	7974.5125
957.89203	7944.2125
961.64774	7898.3125
965.40086	7875.3125
969.15137	7854.6125
972.89929	7818.3125
976.64461	7807.3125
980.38733	7819.3125
984.12747	7834.8125
987.86502	7842.0125
991.59999	7846.4125
995.33237	7946.2125
999.06217	8080.8125
1002.78939	8237.5125
1006.51404	8402.4125
1010.23611	8590.2125
1013.95561	8722.2125
1017.67255	8673.5125
1021.38692	8532.3125
1025.09872	8377.4125
1028.80796	8274.7125
1032.51465	8303.5125
1036.21877	8401.0125
1039.92035	8524.6125
1043.61937	8611.8125
1047.31584	8636.3125
1051.00976	8665.1125
1054.70114	8637.4125
1058.38998	8640.7125
1062.07627	8724.3125
1065.76003	8845.2125
1069.44126	9097.3125
1073.11995	9405.7125
1076.79611	9735.2125
1080.46974	9959.4125
1084.14085	10038.5125
1087.80943	10011.6125
1091.47549	9859.3125
1095.13903	9513.3125
1098.80005	9082.9125
1102.45857	8759.8125
1106.11456	8686.1125
1109.76805	8741.9125
1113.41903	8948.9125
1117.06751	9285.3125
1120.71348	9720.3125
1124.35696	10201.5125
1127.99793	10597.5125
1131.63641	10475.7125
1135.2724	9965.9125
1138.90589	9441.9125
1142.5369	9152.2125
1146.16542	8934.8125
1149.79145	8817.1125
1153.415	8823.0125
1157.03607	8900.6125
1160.65467	9108.4125
1164.27079	9431.1125
1167.88443	10019.2125
1171.49561	10951.4125
1175.10432	12457.1125
1178.71056	14314.4125
1182.31434	15505.5125
1185.91565	15515.7125
1189.51451	14930.2125
1193.11091	13958.5125
1196.70485	12878.3125
1200.29634	12107.7125
1203.88538	11495.2125
1207.47197	10731.1125
1211.05612	10160.8125
1214.63782	9847.5125
1218.21708	9782.2125
1221.79391	9798.9125
1225.36829	9801.0125
1228.94024	9818.7125
1232.50976	9825.0125
1236.07685	9860.0125
1239.6415	9943.6125
1243.20374	10015.0125
1246.76355	10071.3125
1250.32093	10186.7125
1253.8759	10362.1125
1257.42845	10679.1125
1260.97859	11009.5125
1264.52631	11358.4125
1268.07163	11707.3125
1271.61453	11970.9125
1275.15503	12107.4125
1278.69312	12093.1125
1282.22882	12127.0125
1285.76211	12364.8125
1289.29301	12799.8125
1292.82151	13244.4125
1296.34761	13725.6125
1299.87133	14404.6125
1303.39266	15543.4125
1306.9116	17334.2125
1310.42815	19332.4125
1313.94233	20458.2125
1317.45412	19946.0125
1320.96354	18436.6125
1324.47058	16833.4125
1327.97525	15490.5125
1331.47754	14723.2125
1334.97747	14513.1125
1338.47502	14694.3125
1341.97022	15112.7125
1345.46305	15785.4125
1348.95352	16901.4125
1352.44163	18469.9125
1355.92738	20661.1125
1359.41078	23691.2125
1362.89183	26383.7125
1366.37053	25416.1125
1369.84688	21490.0125
1373.32088	17702.2125
1376.79254	15278.5125
1380.26186	14016.0125
1383.72883	13334.5125
1387.19347	12762.6125
1390.65578	12158.2125
1394.11575	11661.6125
1397.57339	11402.5125
1401.0287	11367.5125
1404.48168	11422.0125
1407.93234	11509.0125
1411.38068	11603.3125
1414.82669	11585.1125
1418.27039	11433.5125
1421.71177	11225.7125
1425.15083	10998.1125
1428.58758	10924.1125
1432.02203	10957.2125
1435.45416	11090.0125
1438.88399	11158.5125
1442.31151	11154.3125
1445.73673	11143.4125
1449.15965	11199.5125
1452.58027	11146.2125
1455.9986	10999.2125
1459.41463	10963.0125
1462.82837	11088.7125
1466.23982	11353.0125
1469.64898	11612.3125
1473.05586	11834.9125
1476.46045	11992.2125
1479.86276	12188.0125
1483.26279	12442.7125
1486.66054	12751.4125
1490.05602	13151.0125
1493.44922	13717.0125
1496.84016	14590.4125
1500.22882	16022.4125
1503.61521	17884.8125
1506.99934	20045.9125
1510.38121	22047.2125
1513.76081	23020.9125
1517.13816	21851.3125
1520.51324	19127.7125
1523.88607	16346.9125
1527.25665	14514.8125
1530.62498	13549.3125
1533.99105	13074.1125
1537.35488	12723.4125
1540.71647	12533.5125
1544.07581	12421.5125
1547.4329	12373.8125
1550.78776	12291.4125
1554.14038	12255.6125
1557.49077	12254.0125
1560.83892	12464.2125
1564.18484	12815.2125
1567.52853	13350.6125
1570.86999	13857.4125
1574.20922	14405.5125
1577.54624	14613.1125
1580.88103	14131.5125
1584.2136	13163.4125
1587.54395	12319.4125
1590.87208	12066.6125
1594.19801	12433.6125
1597.52172	13223.7125
1600.84321	13633.7125
1604.16251	13263.4125
1607.47959	12409.5125
1610.79447	11429.0125
1614.10715	10495.6125
1617.41763	9774.5125
1620.7259	9368.5125
1624.03199	9170.6125
1627.33587	9153.9125
1630.63757	9299.4125
1633.93707	9668.1125
1637.23439	10316.1125
1640.52951	11310.6125
1643.82246	12766.3125
1647.11321	14487.3125
1650.40179	15691.9125
1653.68819	15286.6125
1656.97241	13334.2125
1660.25446	11113.7125
1663.53433	9532.9125
1666.81203	8647.5125
1670.08756	8115.6125
1673.36092	7799.2125
1676.63211	7613.9125
1679.90115	7458.0125
1683.16801	7342.8125
1686.43272	7255.0125
1689.69527	7187.7125
1692.95567	7159.9125
1696.2139	7132.6125
1699.46999	7121.7125
1702.72392	7084.5125
1705.97571	7054.6125
1709.22535	7058.2125
1712.47284	7036.1125
1715.71819	7047.0125
1718.96139	7036.6125
1722.20246	7011.6125
1725.44139	6972.5125
1728.67818	6935.9125
1731.91284	6851.8125
1735.14537	6803.7125
1738.37576	6748.1125
1741.60403	6726.4125
1744.83017	6702.1125
1748.05418	6679.3125
1751.27607	6669.2125
1754.49584	6651.9125
1757.71349	6643.2125
1760.92903	6630.8125
1764.14244	6631.7125
1767.35375	6578.4125
1770.56294	6569.9125
1773.77002	6547.2125
1776.97499	6520.6125
1780.17785	6487.6125
1783.37861	6476.7125
1786.57727	6435.7125
1789.77382	6438.4125
1792.96828	6438.0125
1796.16064	6384.7125
1799.3509	6388.5125
1802.53907	6373.4125
1805.72514	6363.8125
1808.90913	6318.2125
1812.09102	6318.1125
1815.27083	6293.7125
1818.44856	6279.1125
1821.6242	6272.7125
1824.79776	6262.4125
1827.96924	6248.8125
1831.13864	6219.2125
1834.30597	6234.6125
1837.47122	6197.3125
1840.6344	6211.2125
1843.7955	6184.8125
1846.95454	6199.2125
1850.11151	6189.3125
1853.26642	6181.1125
1856.41926	6168.6125
1859.57004	6174.4125
1862.71876	6155.5125
1865.86542	6169.2125
1869.01003	6148.3125
1872.15258	6141.7125
1875.29308	6153.1125
1878.43152	6140.8125
1881.56792	6130.4125
1884.70227	6124.8125
1887.83457	6135.1125
1890.96482	6127.7125
1894.09304	6116.3125
1897.21921	6124.6125
1900.34335	6125.8125
1903.46544	6107.3125
1906.58551	6088.5125
1909.70353	6104.7125
1912.81953	6101.8125
1915.93349	6081.1125
1919.04543	6095.7125
1922.15534	6072.3125
1925.26322	6049.1125
1928.36908	6050.8125
1931.47292	6035.0125
1934.57473	5995.1125
1937.67453	5963.4125
1940.77232	5958.0125
1943.86808	5922.0125
1946.96184	5913.5125
1950.05358	5886.5125
1953.14331	5869.0125
1956.23103	5860.0125
1959.31675	5843.5125
1962.40046	5820.3125
1965.48217	5802.2125
1968.56188	5786.7125
1971.63959	5771.8125
1974.7153	5750.8125
1977.78901	5742.8125
1980.86073	5725.1125
1983.93046	5709.0125
1986.99819	5693.7125
1990.06394	5672.7125
1993.1277	5626.6125
1996.18947	5600.9125
1999.24925	5591.8125
2002.30706	5579.1125
2005.36288	5550.4125
2008.41672	5554.0125
2011.46859	5534.1125
2014.51848	5506.4125
2017.56639	5495.3125
2020.61233	5459.8125
2023.6563	5454.1125
2026.6983	5458.6125
2029.73833	5434.8125
2032.7764	5415.3125
2035.8125	5411.3125
2038.84664	5387.7125
2041.87881	5386.0125
2044.90903	5368.2125
2047.93729	5347.2125
2050.96359	5356.0125
2053.98794	5351.8125
2057.01034	5331.5125
2060.03078	5327.0125
2063.04927	5309.6125
2066.06582	5303.3125
2069.08042	5315.9125
2072.09307	5296.2125
2075.10378	5306.3125
2078.11255	5267.4125
2081.11938	5290.9125
2084.12426	5288.5125
2087.12722	5286.0125
2090.12824	5286.1125
2093.12732	5267.1125
2096.12447	5282.3125
2099.11969	5265.9125
2102.11299	5267.5125
2105.10435	5286.1125
2108.09379	5269.8125
2111.08131	5287.7125
2114.0669	5284.2125
2117.05057	5271.2125
2120.03233	5270.1125
2123.01216	5303.3125
2125.99008	5305.0125
2128.96609	5284.0125
2131.94018	5291.3125
2134.91236	5292.8125
2137.88263	5300.6125
2140.851	5288.9125
2143.81746	5293.2125
2146.78201	5283.3125
2149.74466	5276.4125
2152.7054	5274.3125
2155.66425	5290.2125
2158.6212	5271.0125
2161.57625	5280.4125
2164.52941	5264.4125
2167.48067	5250.2125
2170.43004	5234.5125
2173.37752	5250.7125
2176.32311	5258.2125
2179.26681	5240.7125
2182.20863	5235.1125
2185.14856	5236.1125
2188.08661	5241.0125
2191.02278	5221.0125
2193.95707	5211.3125
2196.88948	5190.4125
2199.82001	5212.6125
2202.74867	5205.2125
2205.67545	5187.9125
2208.60037	5186.8125
2211.52341	5199.6125
2214.44458	5163.2125
2217.36388	5148.6125
2220.28132	5136.8125
2223.1969	5121.7125
2226.11061	5111.8125
2229.02246	5104.6125
2231.93245	5088.4125
2234.84058	5072.4125
2237.74686	5063.5125
2240.65128	5057.0125
2243.55385	5057.6125
2246.45456	5018.6125
2249.35343	5038.7125
2252.25044	5029.1125
2255.14561	5031.4125
2258.03893	5027.4125
2260.93041	5049.0125
2263.82004	5022.6125
2266.70783	5015.8125
2269.59378	4985.9125
2272.4779	4978.1125
2275.36017	4960.9125
2278.24061	4972.9125
2281.11922	4937.9125
2283.996	4947.5125
2286.87094	4924.7125
2289.74405	4903.3125
2292.61534	4881.3125
2295.4848	4879.3125
2298.35243	4872.1125
2301.21824	4860.3125
2304.08223	4854.1125
2306.94439	4842.4125
2309.80474	4842.7125
2312.66327	4835.5125
2315.51999	4844.5125
2318.37489	4833.2125
2321.22797	4833.1125
2324.07925	4832.2125
2326.92871	4819.8125
2329.77637	4814.2125
2332.62222	4797.3125
2335.46626	4791.9125
2338.3085	4784.9125
2341.14893	4789.4125
2343.98756	4772.3125
2346.8244	4778.2125
2349.65943	4784.6125
2352.49267	4780.1125
2355.32411	4780.8125
2358.15376	4778.2125
2360.98161	4793.0125
2363.80768	4795.6125
2366.63195	4809.8125
2369.45444	4811.6125
2372.27514	4792.7125
2375.09405	4798.9125
2377.91118	4776.8125
2380.72652	4751.0125
2383.54009	4734.2125
2386.35187	4730.0125
2389.16188	4689.4125
2391.97011	4683.5125
2394.77657	4668.3125
2397.58125	4636.2125
2400.38416	4643.3125
2403.18529	4627.3125
2405.98466	4617.4125
2408.78226	4620.7125
2411.57809	4602.2125
2414.37216	4608.8125
2417.16446	4586.7125
2419.955	4576.0125
2422.74378	4565.8125
2425.5308	4554.6125
2428.31606	4559.3125
2431.09956	4555.8125
2433.88131	4566.3125
2436.6613	4549.1125
2439.43954	4564.0125
2442.21603	4568.1125
2444.99077	4558.5125
2447.76377	4562.8125
2450.53501	4550.3125
2453.30451	4553.1125
2456.07226	4556.6125
2458.83827	4535.8125
2461.60254	4525.6125
2464.36507	4536.1125
2467.12586	4520.8125
2469.88492	4511.2125
2472.64224	4524.5125
2475.39782	4521.1125
2478.15167	4524.3125
2480.90379	4530.1125
2483.65417	4527.4125
2486.40283	4541.8125
2489.14976	4550.5125
2491.89497	4559.5125
2494.63845	4553.8125
2497.3802	4552.5125
2500.12024	4537.9125
2502.85855	4522.7125
2505.59514	4522.8125
2508.33002	4493.7125
2511.06318	4471.6125
2513.79462	4464.0125
2516.52435	4451.7125
2519.25237	4452.5125
2521.97867	4419.2125
2524.70327	4425.1125
2527.42616	4407.9125
2530.14734	4378.1125
2532.86681	4395.9125
2535.58458	4381.0125
2538.30065	4380.1125
2541.01501	4394.6125
2543.72768	4377.4125
2546.43864	4375.7125
2549.14791	4367.1125
2551.85548	4361.1125
2554.56136	4353.1125
2557.26554	4339.2125
2559.96803	4332.9125
2562.66883	4344.8125
2565.36794	4334.4125
2568.06536	4322.4125
2570.7611	4316.2125
2573.45514	4313.8125
2576.14751	4290.7125
2578.83819	4298.5125
2581.52719	4285.1125
2584.21451	4270.5125
2586.90015	4272.5125
2589.58411	4244.4125
2592.2664	4255.1125
2594.94701	4241.0125
2597.62594	4228.6125
2600.30321	4225.4125
2602.9788	4226.7125
2605.65273	4220.1125
2608.32498	4217.0125
2610.99557	4195.5125
2613.66449	4191.8125
2616.33175	4208.6125
2618.99734	4193.3125
2621.66128	4195.5125
2624.32355	4193.0125
2626.98416	4179.8125
2629.64311	4178.1125
2632.30041	4160.8125
2634.95605	4154.1125
2637.61004	4163.0125
2640.26238	4141.3125
2642.91306	4142.7125
2645.56209	4141.1125
2648.20948	4135.6125
2650.85521	4115.4125
2653.4993	4120.2125
2656.14175	4124.9125
2658.78255	4124.8125
2661.42171	4136.1125
2664.05923	4136.2125
2666.6951	4144.1125
2669.32934	4140.4125
2671.96194	4140.1125
2674.59291	4146.8125
2677.22224	4155.2125
2679.84993	4160.3125
2682.476	4144.6125
2685.10043	4156.2125
2687.72324	4147.1125
2690.34441	4153.6125
2692.96396	4145.9125
2695.58188	4159.9125
2698.19818	4152.8125
2700.81285	4161.3125
2703.4259	4165.5125
2706.03733	4196.0125
2708.64714	4197.6125
2711.25533	4193.4125
2713.86191	4177.0125
2716.46687	4183.8125
2719.07021	4192.0125
2721.67194	4180.9125
2724.27206	4171.8125
2726.87057	4160.9125
2729.46747	4166.6125
2732.06276	4165.2125
2734.65644	4154.7125
2737.24852	4166.7125
2739.83899	4143.9125
2742.42786	4144.0125
2745.01513	4110.9125
2747.60079	4128.6125
2750.18486	4119.9125
2752.76733	4097.1125
2755.3482	4098.8125
2757.92747	4106.3125
2760.50515	4096.1125
2763.08123	4072.1125
2765.65573	4077.0125
2768.22863	4091.1125
2770.79994	4079.6125
2773.36967	4075.1125
2775.9378	4063.1125
2778.50435	4059.0125
2781.06932	4068.1125
2783.6327	4055.8125
2786.1945	4058.8125
2788.75471	4060.0125
2791.31335	4051.4125
2793.87041	4071.5125
2796.42589	4061.3125
2798.97979	4056.2125
2801.53212	4050.5125
2804.08288	4049.9125
2806.63206	4053.7125
2809.17967	4048.1125
2811.72571	4040.1125
2814.27018	4055.0125
2816.81308	4063.7125
2819.35442	4063.4125
2821.89419	4071.3125
2824.43239	4065.8125
2826.96904	4087.0125
2829.50412	4097.3125
2832.03763	4081.8125
2834.56959	4090.8125
2837.1	4105.7125
2839.62884	4129.9125
2842.15613	4164.8125
2844.68186	4241.1125
2847.20604	4296.2125
2849.72867	4343.9125
2852.24974	4377.8125
2854.76927	4396.4125
2857.28724	4364.5125
2859.80367	4338.1125
2862.31855	4326.8125
2864.83189	4319.2125
2867.34368	4294.9125
2869.85393	4298.3125
2872.36264	4284.2125
2874.8698	4285.4125
2877.37543	4272.1125
2879.87952	4287.9125
2882.38207	4275.8125
2884.88308	4291.1125
2887.38256	4284.9125
2889.88051	4286.4125
2892.37692	4267.1125
2894.8718	4288.7125
2897.36515	4295.3125
2899.85698	4284.1125
2902.34727	4309.0125
2904.83604	4306.7125
2907.32328	4320.4125
2909.809	4312.9125
2912.29319	4310.6125
2914.77587	4292.1125
2917.25702	4287.8125
2919.73665	4258.8125
2922.21476	4266.4125
2924.69136	4267.7125
2927.16644	4246.4125
2929.64	4242.6125
2932.11205	4222.3125
2934.58258	4206.2125
2937.05161	4193.0125
2939.51912	4159.5125
2941.98513	4126.2125
2944.44962	4086.0125
2946.91261	4048.6125
2949.37409	4015.4125
2951.83407	3979.5125
2954.29254	3972.9125
2956.74951	3940.3125
2959.20498	3921.6125
2961.65895	3898.6125
2964.11142	3893.0125
2966.56239	3875.9125
2969.01186	3872.7125
2971.45984	3846.9125
2973.90632	3842.7125
2976.35131	3814.1125
2978.7948	3814.1125
2981.23681	3797.4125
2983.67732	3786.8125
2986.11635	3772.9125
2988.55388	3754.7125
2990.98993	3751.2125
2993.4245	3752.6125
2995.85758	3734.4125
2998.28917	3713.7125
3000.71928	3700.4125
3003.14791	3711.6125
3005.57506	3705.0125
3008.00073	3684.9125
3010.42493	3683.1125
3012.84764	3673.8125
3015.26888	3666.9125
3017.68865	3671.1125
3020.10694	3664.1125
3022.52376	3643.1125
3024.9391	3650.3125
3027.35298	3647.7125
3029.76539	3649.9125
3032.17632	3649.6125
3034.5858	3636.8125
3036.9938	3633.1125
3039.40034	3628.8125
3041.80542	3626.7125
3044.20903	3602.8125
3046.61118	3615.5125
3049.01187	3599.7125
3051.4111	3602.9125
3053.80888	3602.3125
3056.20519	3600.1125
3058.60005	3581.0125
3060.99345	3586.3125
3063.3854	3570.6125
3065.7759	3570.4125
3068.16494	3579.2125
3070.55254	3566.8125
3072.93868	3572.6125
3075.32338	3554.0125
3077.70662	3542.8125
3080.08842	3526.6125
3082.46878	3517.7125
3084.84769	3519.7125
3087.22515	3523.4125
3089.60118	3523.3125
3091.97576	3512.5125
3094.3489	3505.4125
3096.72061	3512.9125
3099.09087	3506.4125
3101.4597	3503.8125
