Data from AgNP_FTO_APTES_CRN_500uM_R6G_10uM_NaF_0.1M_Addition_RamanShift__18__20-24-38-233.txt Node

Date: Wed Dec 15 20:24:38 GMT 2021
User: TCL
Spectrometer: QEP01345
Trigger mode: 4
Integration Time (sec): 7.000000E0
Scans to average: 10
Electric dark correction enabled: true
Nonlinearity correction enabled: false
Boxcar width: 0
XAxis mode: Raman Shifts
Number of Pixels in Spectrum: 1044
>>>>>Begin Spectral Data<<<<<
46.04893	1.525
50.45542	-2.575
54.85868	-1.175
59.25871	-0.775
63.6555	63.125
68.04907	68.925
72.43941	69.225
76.82654	71.925
81.21044	76.125
85.59113	77.725
89.96862	82.125
94.34289	80.025
98.71396	86.325
103.08183	94.025
107.4465	96.225
111.80798	95.125
116.16626	97.325
120.52136	99.825
124.87327	99.725
129.222	107.325
133.56755	110.025
137.90993	122.425
142.24913	131.625
146.58517	144.625
150.91804	167.625
155.24774	195.325
159.57429	240.025
163.89768	300.225
168.21792	396.425
172.53501	535.325
176.84895	744.125
181.15975	1038.525
185.46741	1451.625
189.77193	2015.225
194.07331	2690.825
198.37157	3479.525
202.6667	4299.625
206.9587	5097.125
211.24758	5891.625
215.53334	6687.025
219.81599	7524.225
224.09553	8426.725
228.37195	9426.625
232.64527	10539.825
236.91549	11689.725
241.18261	12884.525
245.44663	13976.225
249.70755	14960.225
253.96539	15852.925
258.22014	16577.825
262.4718	17189.625
266.72039	17644.425
270.96589	17814.325
275.20832	17865.425
279.44768	17788.525
283.68397	17578.725
287.91719	17402.925
292.14735	17271.225
296.37445	17234.725
300.59849	17262.525
304.81948	17293.825
309.03742	17286.225
313.25231	17185.625
317.46415	16915.625
321.67296	16575.225
325.87872	16270.425
330.08145	16169.425
334.28114	16203.425
338.47781	16341.525
342.67145	16516.625
346.86207	16791.925
351.04966	17095.225
355.23424	17423.025
359.4158	17679.225
363.59435	17862.725
367.76989	17995.025
371.94243	18109.525
376.11196	18212.725
380.27849	18313.325
384.44203	18421.425
388.60257	18571.225
392.76012	18662.825
396.91468	18834.125
401.06626	19014.725
405.21485	19219.525
409.36047	19220.125
413.50311	18997.825
417.64277	18799.325
421.77947	18724.425
425.9132	18781.325
430.04396	18909.325
434.17176	19073.225
438.2966	19321.825
442.41849	19730.025
446.53742	20263.725
450.6534	20761.125
454.76644	21149.325
458.87653	21241.125
462.98368	21066.525
467.08789	20857.725
471.18916	20682.725
475.2875	20555.525
479.38291	20459.725
483.4754	20361.725
487.56496	20151.025
491.6516	19869.025
495.73531	19641.325
499.81612	19566.025
503.89401	19625.425
507.96899	19714.025
512.04106	19755.525
516.11023	19813.425
520.1765	19862.225
524.23987	19865.025
528.30034	19802.725
532.35792	19734.925
536.41261	19534.325
540.46441	19385.025
544.51333	19350.125
548.55936	19506.025
552.60252	19842.025
556.64279	20230.625
560.6802	20524.325
564.71473	20665.425
568.7464	20868.125
572.7752	21152.425
576.80114	21289.925
580.82422	21319.825
584.84444	21492.225
588.86181	21905.425
592.87633	22504.325
596.888	22808.025
600.89682	22600.825
604.9028	22778.125
608.90594	23902.025
612.90624	25445.025
616.90371	24330.425
620.89834	21327.925
624.89015	19918.425
628.87913	19729.625
632.86528	19835.625
636.84862	19891.925
640.82913	19773.125
644.80683	19467.025
648.78172	19218.025
652.75379	19174.225
656.72306	19334.525
660.68952	19532.025
664.65319	19481.725
668.61405	19237.325
672.57211	19191.225
676.52738	19245.025
680.47986	19317.825
684.42955	19266.025
688.37646	19199.225
692.32058	19190.525
696.26192	19283.825
700.20048	19425.925
704.13626	19502.725
708.06928	19527.325
711.99952	19450.925
715.927	19434.025
719.85171	19420.725
723.77365	19304.525
727.69284	19221.125
731.60928	19061.625
735.52295	19032.125
739.43388	19015.225
743.34206	19026.725
747.24749	19031.125
751.15017	19103.625
755.05012	19280.025
758.94733	19619.625
762.8418	20311.625
766.73354	21378.125
770.62254	22523.925
774.50882	22867.725
778.39237	22170.625
782.27321	20912.825
786.15132	19800.025
790.02671	19162.225
793.89938	18831.725
797.76935	18683.125
801.6366	18650.325
805.50115	18608.125
809.36299	18569.325
813.22213	18487.525
817.07857	18488.925
820.93231	18462.625
824.78336	18481.625
828.63172	18399.525
832.47738	18414.325
836.32036	18423.925
840.16066	18454.125
843.99827	18451.625
847.8332	18409.725
851.66546	18377.325
855.49504	18363.825
859.32195	18387.425
863.1462	18402.725
866.96777	18370.225
870.78668	18346.325
874.60293	18351.225
878.41652	18348.825
882.22745	18382.425
886.03573	18428.325
889.84136	18433.625
893.64433	18351.725
897.44466	18315.925
901.24235	18240.425
905.0374	18158.525
908.8298	18149.825
912.61957	18158.525
916.40671	18275.825
920.19121	18387.525
923.97308	18467.825
927.75233	18506.925
931.52895	18538.825
935.30295	18342.425
939.07433	18172.825
942.84309	17987.925
946.60924	17837.525
950.37278	17792.125
954.13371	17744.625
957.89203	17732.325
961.64774	17683.925
965.40086	17671.625
969.15137	17621.125
972.89929	17551.925
976.64461	17519.725
980.38733	17513.225
984.12747	17573.625
987.86502	17652.325
991.59999	17782.125
995.33237	17932.725
999.06217	18210.125
1002.78939	18452.725
1006.51404	18641.025
1010.23611	18849.125
1013.95561	18960.725
1017.67255	18950.625
1021.38692	18829.825
1025.09872	18623.325
1028.80796	18480.025
1032.51465	18552.225
1036.21877	18666.425
1039.92035	18749.525
1043.61937	18730.425
1047.31584	18690.125
1051.00976	18662.225
1054.70114	18697.325
1058.38998	18844.925
1062.07627	19045.625
1065.76003	19360.725
1069.44126	19717.125
1073.11995	20150.025
1076.79611	20446.925
1080.46974	20378.625
1084.14085	20152.225
1087.80943	19900.825
1091.47549	19788.525
1095.13903	19658.225
1098.80005	19406.625
1102.45857	19143.525
1106.11456	18960.125
1109.76805	18837.425
1113.41903	18932.225
1117.06751	19038.825
1120.71348	19196.125
1124.35696	19406.925
1127.99793	19646.025
1131.63641	19773.825
1135.2724	19614.425
1138.90589	19457.725
1142.5369	19344.825
1146.16542	19301.325
1149.79145	19380.825
1153.415	19489.325
1157.03607	19608.725
1160.65467	19932.425
1164.27079	20463.025
1167.88443	21213.625
1171.49561	22285.125
1175.10432	23622.625
1178.71056	25289.125
1182.31434	26691.825
1185.91565	27174.025
1189.51451	26747.025
1193.11091	25945.425
1196.70485	25078.225
1200.29634	24257.725
1203.88538	23597.125
1207.47197	23124.525
1211.05612	22733.025
1214.63782	22450.925
1218.21708	22261.225
1221.79391	22159.725
1225.36829	22103.725
1228.94024	21962.725
1232.50976	21664.425
1236.07685	21390.425
1239.6415	21292.425
1243.20374	21280.325
1246.76355	21399.325
1250.32093	21589.925
1253.8759	21873.725
1257.42845	22291.325
1260.97859	22611.125
1264.52631	22952.825
1268.07163	23321.325
1271.61453	23733.525
1275.15503	24146.125
1278.69312	24585.125
1282.22882	24968.125
1285.76211	25515.925
1289.29301	26207.725
1292.82151	27150.525
1296.34761	28168.725
1299.87133	29414.325
1303.39266	30746.725
1306.9116	32272.225
1310.42815	33900.125
1313.94233	35030.825
1317.45412	35278.025
1320.96354	34779.025
1324.47058	34007.325
1327.97525	33190.925
1331.47754	32436.925
1334.97747	32145.125
1338.47502	31921.125
1341.97022	31751.925
1345.46305	31536.825
1348.95352	31310.425
1352.44163	31521.125
1355.92738	32283.925
1359.41078	33598.625
1362.89183	34937.725
1366.37053	34591.625
1369.84688	32107.925
1373.32088	29129.525
1376.79254	27176.425
1380.26186	26398.625
1383.72883	26276.925
1387.19347	26303.525
1390.65578	26144.225
1394.11575	26120.625
1397.57339	26291.325
1401.0287	26693.925
1404.48168	26992.725
1407.93234	26963.325
1411.38068	26542.125
1414.82669	25847.325
1418.27039	24988.225
1421.71177	24163.725
1425.15083	23418.525
1428.58758	23023.425
1432.02203	23127.225
1435.45416	23527.225
1438.88399	24029.025
1442.31151	24426.225
1445.73673	24766.325
1449.15965	25089.325
1452.58027	25289.725
1455.9986	25351.425
1459.41463	25391.525
1462.82837	25615.525
1466.23982	25955.025
1469.64898	26228.725
1473.05586	26440.025
1476.46045	26393.025
1479.86276	26335.125
1483.26279	26182.425
1486.66054	25998.225
1490.05602	25990.225
1493.44922	26079.625
1496.84016	26252.625
1500.22882	26651.625
1503.61521	27410.825
1506.99934	28353.125
1510.38121	29233.825
1513.76081	29510.725
1517.13816	28887.125
1520.51324	27729.425
1523.88607	26699.525
1527.25665	25982.825
1530.62498	25757.225
1533.99105	25703.725
1537.35488	25586.825
1540.71647	25353.525
1544.07581	25046.625
1547.4329	24707.625
1550.78776	24384.725
1554.14038	24156.825
1557.49077	24074.925
1560.83892	24088.025
1564.18484	24217.425
1567.52853	24526.725
1570.86999	25020.825
1574.20922	25711.625
1577.54624	26411.325
1580.88103	26674.525
1584.2136	26542.825
1587.54395	26390.925
1590.87208	26557.325
1594.19801	27317.525
1597.52172	28315.225
1600.84321	28726.925
1604.16251	28030.325
1607.47959	26428.725
1610.79447	24601.325
1614.10715	22912.425
1617.41763	21613.225
1620.7259	20761.225
1624.03199	20323.325
1627.33587	20290.925
1630.63757	20654.925
1633.93707	21571.125
1637.23439	23046.225
1640.52951	25133.525
1643.82246	27649.325
1647.11321	29741.625
1650.40179	30277.925
1653.68819	28649.825
1656.97241	25647.825
1660.25446	22675.625
1663.53433	20542.525
1666.81203	19122.525
1670.08756	18210.025
1673.36092	17696.325
1676.63211	17271.325
1679.90115	17038.825
1683.16801	16848.025
1686.43272	16695.025
1689.69527	16578.125
1692.95567	16482.825
1696.2139	16420.125
1699.46999	16421.125
1702.72392	16395.225
1705.97571	16359.325
1709.22535	16303.125
1712.47284	16275.625
1715.71819	16246.125
1718.96139	16213.925
1722.20246	16148.025
1725.44139	16135.725
1728.67818	16063.825
1731.91284	15957.525
1735.14537	15897.925
1738.37576	15840.425
1741.60403	15822.525
1744.83017	15760.425
1748.05418	15774.025
1751.27607	15706.825
1754.49584	15706.025
1757.71349	15699.125
1760.92903	15697.425
1764.14244	15688.725
1767.35375	15646.725
1770.56294	15592.725
1773.77002	15614.625
1776.97499	15583.625
1780.17785	15526.225
1783.37861	15503.625
1786.57727	15460.025
1789.77382	15405.325
1792.96828	15409.125
1796.16064	15405.925
1799.3509	15328.025
1802.53907	15332.125
1805.72514	15267.325
1808.90913	15233.725
1812.09102	15199.225
1815.27083	15190.625
1818.44856	15148.025
1821.6242	15120.625
1824.79776	15118.425
1827.96924	15114.125
1831.13864	15061.125
1834.30597	15094.525
1837.47122	15057.525
1840.6344	15036.125
1843.7955	15049.525
1846.95454	15039.525
1850.11151	14988.425
1853.26642	14993.125
1856.41926	14991.125
1859.57004	14996.025
1862.71876	14973.025
1865.86542	14964.625
1869.01003	14949.825
1872.15258	14936.625
1875.29308	14934.625
1878.43152	14908.425
1881.56792	14923.125
1884.70227	14892.325
1887.83457	14867.625
1890.96482	14870.025
1894.09304	14865.025
1897.21921	14839.325
1900.34335	14843.525
1903.46544	14817.125
1906.58551	14825.925
1909.70353	14739.225
1912.81953	14801.725
1915.93349	14737.625
1919.04543	14724.525
1922.15534	14670.825
1925.26322	14677.825
1928.36908	14645.425
1931.47292	14635.525
1934.57473	14566.525
1937.67453	14570.325
1940.77232	14537.425
1943.86808	14473.325
1946.96184	14448.425
1950.05358	14412.625
1953.14331	14370.225
1956.23103	14311.725
1959.31675	14288.125
1962.40046	14242.925
1965.48217	14231.625
1968.56188	14161.025
1971.63959	14127.625
1974.7153	14098.925
1977.78901	14035.425
1980.86073	13987.325
1983.93046	13983.625
1986.99819	13923.825
1990.06394	13869.225
1993.1277	13846.825
1996.18947	13786.125
1999.24925	13758.125
2002.30706	13730.325
2005.36288	13684.525
2008.41672	13645.125
2011.46859	13604.525
2014.51848	13601.425
2017.56639	13542.625
2020.61233	13504.825
2023.6563	13507.925
2026.6983	13455.825
2029.73833	13435.825
2032.7764	13379.325
2035.8125	13360.525
2038.84664	13360.725
2041.87881	13297.925
2044.90903	13311.025
2047.93729	13276.925
2050.96359	13275.625
2053.98794	13260.525
2057.01034	13260.625
2060.03078	13238.025
2063.04927	13212.925
2066.06582	13202.925
2069.08042	13194.225
2072.09307	13194.825
2075.10378	13159.625
2078.11255	13146.825
2081.11938	13172.725
2084.12426	13163.725
2087.12722	13169.025
2090.12824	13132.025
2093.12732	13152.125
2096.12447	13145.325
2099.11969	13168.625
2102.11299	13154.925
2105.10435	13169.225
2108.09379	13156.025
2111.08131	13170.925
2114.0669	13169.725
2117.05057	13175.725
2120.03233	13184.725
2123.01216	13199.825
2125.99008	13219.625
2128.96609	13209.325
2131.94018	13223.725
2134.91236	13232.625
2137.88263	13274.725
2140.851	13258.525
2143.81746	13250.825
2146.78201	13230.825
2149.74466	13274.325
2152.7054	13273.625
2155.66425	13271.925
2158.6212	13292.825
2161.57625	13277.825
2164.52941	13263.225
2167.48067	13240.025
2170.43004	13239.725
2173.37752	13240.625
2176.32311	13221.825
2179.26681	13231.625
2182.20863	13248.925
2185.14856	13238.525
2188.08661	13216.825
2191.02278	13234.725
2193.95707	13214.025
2196.88948	13187.725
2199.82001	13172.125
2202.74867	13172.225
2205.67545	13171.125
2208.60037	13167.125
2211.52341	13151.225
2214.44458	13123.625
2217.36388	13096.425
2220.28132	13058.525
2223.1969	13040.525
2226.11061	13057.325
2229.02246	12986.325
2231.93245	12962.825
2234.84058	12971.225
2237.74686	12971.625
2240.65128	12926.925
2243.55385	12875.925
2246.45456	12865.025
2249.35343	12862.225
2252.25044	12849.325
2255.14561	12834.525
2258.03893	12809.525
2260.93041	12771.225
2263.82004	12766.825
2266.70783	12724.925
2269.59378	12690.925
2272.4779	12680.025
2275.36017	12648.225
2278.24061	12608.725
2281.11922	12603.425
2283.996	12545.425
2286.87094	12553.025
2289.74405	12534.025
2292.61534	12509.425
2295.4848	12495.225
2298.35243	12481.325
2301.21824	12485.025
2304.08223	12446.125
2306.94439	12448.725
2309.80474	12451.825
2312.66327	12457.425
2315.51999	12435.025
2318.37489	12450.925
2321.22797	12415.625
2324.07925	12421.525
2326.92871	12395.225
2329.77637	12397.325
2332.62222	12381.825
2335.46626	12335.525
2338.3085	12328.125
2341.14893	12305.125
2343.98756	12312.925
2346.8244	12282.825
2349.65943	12278.525
2352.49267	12293.925
2355.32411	12268.625
2358.15376	12274.525
2360.98161	12270.025
2363.80768	12238.625
2366.63195	12231.425
2369.45444	12218.325
2372.27514	12195.925
2375.09405	12195.325
2377.91118	12174.625
2380.72652	12162.825
2383.54009	12130.325
2386.35187	12145.925
2389.16188	12087.325
2391.97011	12025.425
2394.77657	12053.625
2397.58125	12015.625
2400.38416	12014.725
2403.18529	11999.525
2405.98466	11977.925
2408.78226	11930.725
2411.57809	11925.825
2414.37216	11922.125
2417.16446	11914.125
2419.955	11873.425
2422.74378	11862.825
2425.5308	11832.325
2428.31606	11848.825
2431.09956	11821.425
2433.88131	11821.525
2436.6613	11825.125
2439.43954	11807.925
2442.21603	11811.125
2444.99077	11807.325
2447.76377	11812.425
2450.53501	11800.825
2453.30451	11753.025
2456.07226	11733.525
2458.83827	11741.425
2461.60254	11729.325
2464.36507	11729.625
2467.12586	11726.625
2469.88492	11719.625
2472.64224	11694.225
2475.39782	11688.025
2478.15167	11680.225
2480.90379	11681.225
2483.65417	11703.725
2486.40283	11713.425
2489.14976	11692.425
2491.89497	11670.925
2494.63845	11671.825
2497.3802	11658.525
2500.12024	11660.825
2502.85855	11666.625
2505.59514	11625.625
2508.33002	11664.025
2511.06318	11614.925
2513.79462	11588.825
2516.52435	11570.125
2519.25237	11587.925
2521.97867	11562.325
2524.70327	11565.425
2527.42616	11514.825
2530.14734	11521.725
2532.86681	11491.925
2535.58458	11498.025
2538.30065	11482.725
2541.01501	11488.325
2543.72768	11459.325
2546.43864	11447.725
2549.14791	11408.525
2551.85548	11392.925
2554.56136	11387.125
2557.26554	11353.625
2559.96803	11371.825
2562.66883	11341.425
2565.36794	11335.525
2568.06536	11332.225
2570.7611	11318.325
2573.45514	11295.825
2576.14751	11305.525
2578.83819	11254.625
2581.52719	11241.125
2584.21451	11216.725
2586.90015	11226.725
2589.58411	11203.125
2592.2664	11173.225
2594.94701	11157.925
2597.62594	11124.525
2600.30321	11116.825
2602.9788	11128.625
2605.65273	11101.325
2608.32498	11082.125
2610.99557	11080.325
2613.66449	11075.125
2616.33175	11068.925
2618.99734	11042.125
2621.66128	11048.325
2624.32355	11049.025
2626.98416	11010.325
2629.64311	11043.325
2632.30041	11033.725
2634.95605	11009.225
2637.61004	10974.525
2640.26238	10974.925
2642.91306	10972.525
2645.56209	10972.025
2648.20948	10978.725
2650.85521	10954.425
2653.4993	10981.425
2656.14175	10961.225
2658.78255	10958.325
2661.42171	10941.525
2664.05923	10978.425
2666.6951	10939.125
2669.32934	10961.825
2671.96194	10933.125
2674.59291	10978.825
2677.22224	10937.125
2679.84993	10938.125
2682.476	10950.625
2685.10043	10935.525
2687.72324	10934.425
2690.34441	10922.125
2692.96396	10924.325
2695.58188	10924.325
2698.19818	10927.125
2700.81285	10923.525
2703.4259	10927.425
2706.03733	10973.325
2708.64714	10954.325
2711.25533	10961.625
2713.86191	10931.425
2716.46687	10964.725
2719.07021	10938.925
2721.67194	10958.325
2724.27206	10930.125
2726.87057	10905.725
2729.46747	10934.125
2732.06276	10939.625
2734.65644	10908.625
2737.24852	10910.825
2739.83899	10892.425
2742.42786	10899.725
2745.01513	10879.225
2747.60079	10884.125
2750.18486	10861.825
2752.76733	10863.225
2755.3482	10873.125
2757.92747	10852.725
2760.50515	10830.425
2763.08123	10827.825
2765.65573	10814.625
2768.22863	10846.925
2770.79994	10814.325
2773.36967	10825.825
2775.9378	10795.325
2778.50435	10772.925
2781.06932	10751.225
2783.6327	10762.725
2786.1945	10757.025
2788.75471	10724.425
2791.31335	10717.925
2793.87041	10702.425
2796.42589	10668.225
2798.97979	10689.625
2801.53212	10638.225
2804.08288	10633.025
2806.63206	10599.325
2809.17967	10569.325
2811.72571	10570.025
2814.27018	10548.725
2816.81308	10529.625
2819.35442	10531.825
2821.89419	10485.425
2824.43239	10497.325
2826.96904	10485.825
2829.50412	10479.025
2832.03763	10434.625
2834.56959	10467.425
2837.1	10439.425
2839.62884	10422.525
2842.15613	10420.125
2844.68186	10437.325
2847.20604	10439.525
2849.72867	10436.725
2852.24974	10409.825
2854.76927	10421.525
2857.28724	10408.825
2859.80367	10371.125
2862.31855	10381.725
2864.83189	10383.025
2867.34368	10353.025
2869.85393	10358.125
2872.36264	10341.125
2874.8698	10349.625
2877.37543	10341.525
2879.87952	10335.225
2882.38207	10337.125
2884.88308	10353.025
2887.38256	10375.325
2889.88051	10365.325
2892.37692	10358.825
2894.8718	10337.725
2897.36515	10346.425
2899.85698	10343.025
2902.34727	10385.525
2904.83604	10392.225
2907.32328	10402.625
2909.809	10413.225
2912.29319	10410.925
2914.77587	10385.025
2917.25702	10395.725
2919.73665	10388.825
2922.21476	10403.425
2924.69136	10406.025
2927.16644	10391.925
2929.64	10385.925
2932.11205	10367.425
2934.58258	10344.325
2937.05161	10341.225
2939.51912	10371.225
2941.98513	10365.725
2944.44962	10309.425
2946.91261	10278.425
2949.37409	10287.425
2951.83407	10283.925
2954.29254	10285.525
2956.74951	10241.925
2959.20498	10228.225
2961.65895	10202.225
2964.11142	10226.425
2966.56239	10210.725
2969.01186	10157.225
2971.45984	10145.225
2973.90632	10119.425
2976.35131	10104.825
2978.7948	10102.125
2981.23681	10050.725
2983.67732	10053.525
2986.11635	10021.625
2988.55388	10016.425
2990.98993	9999.725
2993.4245	9986.425
2995.85758	9929.825
2998.28917	9930.325
3000.71928	9922.725
3003.14791	9881.225
3005.57506	9897.325
3008.00073	9869.025
3010.42493	9869.025
3012.84764	9827.025
3015.26888	9837.625
3017.68865	9809.725
3020.10694	9817.825
3022.52376	9754.225
3024.9391	9737.025
3027.35298	9741.525
3029.76539	9733.125
3032.17632	9735.425
3034.5858	9714.925
3036.9938	9730.725
3039.40034	9707.925
3041.80542	9671.625
3044.20903	9655.125
3046.61118	9675.625
3049.01187	9628.625
3051.4111	9634.825
3053.80888	9630.625
3056.20519	9579.825
3058.60005	9552.825
3060.99345	9523.525
3063.3854	9553.525
3065.7759	9510.025
3068.16494	9519.225
3070.55254	9460.325
3072.93868	9450.625
3075.32338	9440.625
3077.70662	9425.425
3080.08842	9389.725
3082.46878	9393.125
3084.84769	9394.225
3087.22515	9389.825
3089.60118	9384.725
3091.97576	9403.825
3094.3489	9410.825
3096.72061	9372.225
3099.09087	9391.825
3101.4597	9380.025
3103.82709	9376.925
3106.19305	9366.725
3108.55757	9360.325
3110.92066	9346.825
3113.28232	9327.025
3115.64255	9305.425
3118.00134	9276.425
3120.35871	9297.425
3122.71466	9259.925
3125.06917	9252.325
3127.42226	9232.825
3129.77393	9234.825
3132.12417	9225.225
3134.47299	9242.625
3136.82039	9245.325
