Data from AgNP_FTO_APTES_CRN_10uM_R6G_10uM_NaF_0.1M_Addition_RamanShift__2__16-17-17-953.txt Node

Date: Wed Dec 15 16:17:17 GMT 2021
User: TCL
Spectrometer: QEP01345
Trigger mode: 4
Integration Time (sec): 7.000000E0
Scans to average: 10
Electric dark correction enabled: true
Nonlinearity correction enabled: false
Boxcar width: 0
XAxis mode: Raman Shifts
Number of Pixels in Spectrum: 1044
>>>>>Begin Spectral Data<<<<<
46.04893	-0.125
50.45542	-1.625
54.85868	-0.925
59.25871	-0.625
63.6555	81.675
68.04907	91.075
72.43941	94.975
76.82654	98.175
81.21044	104.875
85.59113	107.275
89.96862	112.375
94.34289	110.375
98.71396	119.975
103.08183	127.575
107.4465	125.575
111.80798	127.975
116.16626	128.675
120.52136	138.675
124.87327	138.175
129.222	146.675
133.56755	151.175
137.90993	166.075
142.24913	184.375
146.58517	202.375
150.91804	239.175
155.24774	281.875
159.57429	350.775
163.89768	449.375
168.21792	594.175
172.53501	806.375
176.84895	1121.875
181.15975	1579.675
185.46741	2198.075
189.77193	3045.075
194.07331	4050.975
198.37157	5229.775
202.6667	6482.675
206.9587	7719.375
211.24758	8923.975
215.53334	10155.675
219.81599	11464.975
224.09553	12884.375
228.37195	14447.775
232.64527	16177.875
236.91549	18000.775
241.18261	19850.675
245.44663	21496.475
249.70755	22971.375
253.96539	24189.175
258.22014	25281.175
262.4718	26133.275
266.72039	26684.375
270.96589	26923.575
275.20832	26821.775
279.44768	26584.275
283.68397	26239.775
287.91719	25979.575
292.14735	25845.675
296.37445	25861.975
300.59849	26019.775
304.81948	26235.575
309.03742	26373.875
313.25231	26243.475
317.46415	25802.375
321.67296	25064.675
325.87872	24384.375
330.08145	24056.075
334.28114	24038.875
338.47781	24197.475
342.67145	24559.875
346.86207	25000.675
351.04966	25597.375
355.23424	26195.275
359.4158	26565.775
363.59435	26802.175
367.76989	26898.975
371.94243	26904.875
376.11196	26849.575
380.27849	26854.575
384.44203	26899.075
388.60257	27061.075
392.76012	27333.075
396.91468	27595.375
401.06626	28072.975
405.21485	28385.375
409.36047	28294.575
413.50311	27831.675
417.64277	27522.075
421.77947	27431.875
425.9132	27521.975
430.04396	27597.075
434.17176	27635.975
438.2966	27743.475
442.41849	28048.375
446.53742	28768.675
450.6534	29466.775
454.76644	29907.575
458.87653	30007.775
462.98368	29829.375
467.08789	29475.075
471.18916	29114.475
475.2875	28755.075
479.38291	28474.975
483.4754	28189.975
487.56496	27908.175
491.6516	27569.575
495.73531	27339.175
499.81612	27259.975
503.89401	27500.975
507.96899	27625.275
512.04106	27676.175
516.11023	27715.675
520.1765	27744.575
524.23987	27656.975
528.30034	27605.375
532.35792	27293.975
536.41261	26795.375
540.46441	26324.975
544.51333	26210.275
548.55936	26470.375
552.60252	27033.275
556.64279	27618.975
560.6802	28033.475
564.71473	28152.575
568.7464	28488.975
572.7752	29103.975
576.80114	29761.575
580.82422	30580.175
584.84444	31675.075
588.86181	32836.475
592.87633	33496.175
596.888	33252.175
600.89682	32226.975
604.9028	32418.275
608.90594	34932.275
612.90624	37891.575
616.90371	35727.975
620.89834	29848.475
624.89015	27250.875
628.87913	26841.075
632.86528	27013.675
636.84862	26974.675
640.82913	26571.875
644.80683	25897.275
648.78172	25511.475
652.75379	25424.575
656.72306	25689.875
660.68952	26080.575
664.65319	25973.375
668.61405	25488.575
672.57211	25383.575
676.52738	25401.175
680.47986	25383.375
684.42955	25193.075
688.37646	25139.975
692.32058	25264.175
696.26192	25576.875
700.20048	25990.875
704.13626	26261.575
708.06928	26269.575
711.99952	26258.075
715.927	26230.675
719.85171	26295.975
723.77365	26124.275
727.69284	25712.675
731.60928	25370.775
735.52295	25252.075
739.43388	25269.875
743.34206	25298.175
747.24749	25510.475
751.15017	25712.375
755.05012	26138.075
758.94733	26964.575
762.8418	28384.775
766.73354	30726.675
770.62254	32864.175
774.50882	33278.475
778.39237	31810.075
782.27321	29580.875
786.15132	27602.275
790.02671	26384.075
793.89938	25779.975
797.76935	25585.375
801.6366	25439.375
805.50115	25366.175
809.36299	25197.075
813.22213	25015.875
817.07857	24868.175
820.93231	24801.675
824.78336	24731.675
828.63172	24759.175
832.47738	24784.575
836.32036	24941.875
840.16066	25098.775
843.99827	25156.775
847.8332	25012.675
851.66546	24804.175
855.49504	24767.475
859.32195	24736.375
863.1462	24637.975
866.96777	24599.175
870.78668	24513.475
874.60293	24523.675
878.41652	24579.875
882.22745	24678.075
886.03573	24750.175
889.84136	24806.775
893.64433	24724.375
897.44466	24660.575
901.24235	24590.375
905.0374	24499.075
908.8298	24450.375
912.61957	24507.775
916.40671	24711.375
920.19121	25000.375
923.97308	25279.575
927.75233	25492.975
931.52895	25466.575
935.30295	25168.775
939.07433	24663.075
942.84309	24241.575
946.60924	24021.175
950.37278	23933.175
954.13371	23854.575
957.89203	23752.975
961.64774	23724.275
965.40086	23685.975
969.15137	23663.575
972.89929	23596.375
976.64461	23560.775
980.38733	23622.775
984.12747	23748.275
987.86502	23925.175
991.59999	24187.575
995.33237	24562.875
999.06217	25225.375
1002.78939	25873.075
1006.51404	26390.575
1010.23611	26801.775
1013.95561	27139.075
1017.67255	27068.575
1021.38692	26672.175
1025.09872	26276.675
1028.80796	26319.475
1032.51465	26894.675
1036.21877	27620.775
1039.92035	27810.475
1043.61937	27693.075
1047.31584	27299.175
1051.00976	26876.075
1054.70114	26750.875
1058.38998	27021.075
1062.07627	27497.075
1065.76003	28208.075
1069.44126	29264.375
1073.11995	30346.475
1076.79611	31100.675
1080.46974	30986.875
1084.14085	30399.875
1087.80943	29769.175
1091.47549	29315.175
1095.13903	28840.675
1098.80005	28183.875
1102.45857	27414.175
1106.11456	26803.175
1109.76805	26588.775
1113.41903	26564.775
1117.06751	26712.775
1120.71348	26980.375
1124.35696	27346.875
1127.99793	27834.575
1131.63641	28068.875
1135.2724	27870.575
1138.90589	27676.575
1142.5369	27533.975
1146.16542	27434.975
1149.79145	27430.775
1153.415	27580.775
1157.03607	27908.175
1160.65467	28560.875
1164.27079	29807.475
1167.88443	31485.475
1171.49561	33534.775
1175.10432	36211.275
1178.71056	39621.575
1182.31434	42707.975
1185.91565	44112.475
1189.51451	43459.175
1193.11091	41817.175
1196.70485	39821.675
1200.29634	37806.775
1203.88538	36370.475
1207.47197	35445.075
1211.05612	34653.175
1214.63782	33945.375
1218.21708	33294.875
1221.79391	32713.975
1225.36829	32353.775
1228.94024	32059.475
1232.50976	31597.075
1236.07685	31148.075
1239.6415	30881.175
1243.20374	30823.875
1246.76355	31037.175
1250.32093	31506.475
1253.8759	32213.275
1257.42845	33210.575
1260.97859	34170.275
1264.52631	35296.375
1268.07163	36396.975
1271.61453	37518.675
1275.15503	38699.375
1278.69312	39710.875
1282.22882	40683.375
1285.76211	41708.475
1289.29301	42914.575
1292.82151	44445.975
1296.34761	46391.775
1299.87133	49045.575
1303.39266	52113.375
1306.9116	55387.375
1310.42815	58278.675
1313.94233	59756.175
1317.45412	59193.175
1320.96354	57521.075
1324.47058	55864.675
1327.97525	54672.875
1331.47754	53683.575
1334.97747	52994.975
1338.47502	52414.375
1341.97022	51859.675
1345.46305	51561.775
1348.95352	51613.975
1352.44163	52306.475
1355.92738	54049.775
1359.41078	57011.075
1362.89183	59408.875
1366.37053	58421.475
1369.84688	53674.075
1373.32088	47756.075
1376.79254	43591.575
1380.26186	41722.075
1383.72883	41050.475
1387.19347	40416.075
1390.65578	39630.075
1394.11575	39207.875
1397.57339	39365.875
1401.0287	39741.975
1404.48168	40006.375
1407.93234	39923.475
1411.38068	39409.675
1414.82669	38444.975
1418.27039	37224.375
1421.71177	36011.375
1425.15083	34946.675
1428.58758	34499.475
1432.02203	34870.775
1435.45416	35640.475
1438.88399	36470.875
1442.31151	37045.875
1445.73673	37365.275
1449.15965	37629.175
1452.58027	37760.175
1455.9986	37741.675
1459.41463	38007.975
1462.82837	38649.975
1466.23982	39446.175
1469.64898	40189.475
1473.05586	40653.475
1476.46045	40859.875
1479.86276	40815.175
1483.26279	40711.475
1486.66054	40785.675
1490.05602	41261.875
1493.44922	42136.375
1496.84016	43205.575
1500.22882	44752.275
1503.61521	46945.575
1506.99934	49290.675
1510.38121	51018.075
1513.76081	51012.675
1517.13816	49083.275
1520.51324	46228.475
1523.88607	43865.175
1527.25665	42372.675
1530.62498	41615.375
1533.99105	41301.375
1537.35488	40774.375
1540.71647	39982.275
1544.07581	39103.275
1547.4329	38226.775
1550.78776	37528.075
1554.14038	37089.575
1557.49077	36862.275
1560.83892	36804.175
1564.18484	37088.775
1567.52853	37749.275
1570.86999	38763.275
1574.20922	40255.475
1577.54624	41815.175
1580.88103	42736.275
1584.2136	42864.575
1587.54395	42685.675
1590.87208	42882.175
1594.19801	44054.275
1597.52172	45876.375
1600.84321	46405.575
1604.16251	44615.675
1607.47959	41274.475
1610.79447	37756.775
1614.10715	34569.475
1617.41763	31954.175
1620.7259	30261.975
1624.03199	29454.775
1627.33587	29500.975
1630.63757	30324.375
1633.93707	32056.775
1637.23439	34997.975
1640.52951	39385.575
1643.82246	44597.075
1647.11321	48939.875
1650.40179	50061.675
1653.68819	46955.775
1656.97241	41005.275
1660.25446	35060.875
1663.53433	30699.875
1666.81203	27903.275
1670.08756	26158.875
1673.36092	25048.975
1676.63211	24320.475
1679.90115	23798.875
1683.16801	23464.875
1686.43272	23228.075
1689.69527	23039.675
1692.95567	22876.475
1696.2139	22821.475
1699.46999	22788.475
1702.72392	22706.975
1705.97571	22657.075
1709.22535	22579.475
1712.47284	22520.675
1715.71819	22493.775
1718.96139	22480.475
1722.20246	22388.775
1725.44139	22290.375
1728.67818	22187.975
1731.91284	22080.075
1735.14537	21929.175
1738.37576	21834.975
1741.60403	21801.575
1744.83017	21745.875
1748.05418	21707.475
1751.27607	21643.775
1754.49584	21615.775
1757.71349	21606.875
1760.92903	21595.075
1764.14244	21640.675
1767.35375	21547.275
1770.56294	21549.175
1773.77002	21512.275
1776.97499	21494.775
1780.17785	21429.275
1783.37861	21372.175
1786.57727	21300.975
1789.77382	21273.375
1792.96828	21267.475
1796.16064	21179.175
1799.3509	21167.375
1802.53907	21133.475
1805.72514	21047.975
1808.90913	21021.775
1812.09102	20971.875
1815.27083	20894.575
1818.44856	20919.875
1821.6242	20917.275
1824.79776	20872.975
1827.96924	20884.475
1831.13864	20857.375
1834.30597	20915.075
1837.47122	20911.675
1840.6344	20907.775
1843.7955	20911.575
1846.95454	20886.375
1850.11151	20910.175
1853.26642	20933.075
1856.41926	20885.775
1859.57004	20862.275
1862.71876	20876.475
1865.86542	20842.075
1869.01003	20835.675
1872.15258	20825.575
1875.29308	20801.275
1878.43152	20707.975
1881.56792	20721.375
1884.70227	20672.375
1887.83457	20639.675
1890.96482	20590.775
1894.09304	20612.375
1897.21921	20576.175
1900.34335	20565.975
1903.46544	20516.575
1906.58551	20473.875
1909.70353	20466.275
1912.81953	20468.875
1915.93349	20409.075
1919.04543	20345.175
1922.15534	20289.875
1925.26322	20277.775
1928.36908	20241.075
1931.47292	20185.275
1934.57473	20124.175
1937.67453	20094.575
1940.77232	20045.875
1943.86808	20009.975
1946.96184	19965.075
1950.05358	19895.975
1953.14331	19872.075
1956.23103	19805.675
1959.31675	19793.075
1962.40046	19759.275
1965.48217	19685.575
1968.56188	19631.975
1971.63959	19593.775
1974.7153	19493.275
1977.78901	19448.775
1980.86073	19394.975
1983.93046	19338.875
1986.99819	19296.375
1990.06394	19238.075
1993.1277	19212.075
1996.18947	19071.275
1999.24925	19047.475
2002.30706	18996.975
2005.36288	18943.675
2008.41672	18938.475
2011.46859	18882.575
2014.51848	18821.075
2017.56639	18780.575
2020.61233	18747.475
2023.6563	18701.475
2026.6983	18668.775
2029.73833	18632.775
2032.7764	18650.175
2035.8125	18591.475
2038.84664	18526.175
2041.87881	18533.175
2044.90903	18498.875
2047.93729	18519.175
2050.96359	18465.075
2053.98794	18455.675
2057.01034	18460.275
2060.03078	18413.675
2063.04927	18426.075
2066.06582	18387.875
2069.08042	18390.875
2072.09307	18350.475
2075.10378	18321.875
2078.11255	18310.575
2081.11938	18342.875
2084.12426	18337.875
2087.12722	18340.275
2090.12824	18342.275
2093.12732	18378.475
2096.12447	18369.975
2099.11969	18348.375
2102.11299	18375.075
2105.10435	18389.275
2108.09379	18405.075
2111.08131	18430.675
2114.0669	18420.775
2117.05057	18463.775
2120.03233	18476.575
2123.01216	18476.075
2125.99008	18469.175
2128.96609	18503.175
2131.94018	18489.975
2134.91236	18554.675
2137.88263	18545.675
2140.851	18556.975
2143.81746	18583.675
2146.78201	18585.875
2149.74466	18581.875
2152.7054	18588.675
2155.66425	18581.675
2158.6212	18617.775
2161.57625	18570.875
2164.52941	18578.875
2167.48067	18597.775
2170.43004	18595.675
2173.37752	18593.875
2176.32311	18598.575
2179.26681	18589.275
2182.20863	18574.375
2185.14856	18581.775
2188.08661	18575.575
2191.02278	18605.475
2193.95707	18566.475
2196.88948	18562.275
2199.82001	18546.275
2202.74867	18549.675
2205.67545	18565.375
2208.60037	18574.175
2211.52341	18559.475
2214.44458	18486.375
2217.36388	18488.875
2220.28132	18467.075
2223.1969	18418.075
2226.11061	18425.775
2229.02246	18410.775
2231.93245	18361.075
2234.84058	18337.175
2237.74686	18309.475
2240.65128	18332.775
2243.55385	18250.775
2246.45456	18211.675
2249.35343	18221.575
2252.25044	18173.975
2255.14561	18131.775
2258.03893	18145.075
2260.93041	18153.275
2263.82004	18102.975
2266.70783	18059.275
2269.59378	17997.075
2272.4779	17984.375
2275.36017	17942.675
2278.24061	17917.375
2281.11922	17887.075
2283.996	17879.175
2286.87094	17845.375
2289.74405	17812.175
2292.61534	17794.075
2295.4848	17771.775
2298.35243	17819.375
2301.21824	17791.375
2304.08223	17782.675
2306.94439	17794.175
2309.80474	17789.775
2312.66327	17809.075
2315.51999	17794.475
2318.37489	17798.875
2321.22797	17774.875
2324.07925	17765.775
2326.92871	17718.175
2329.77637	17734.575
2332.62222	17712.375
2335.46626	17712.875
2338.3085	17698.775
2341.14893	17720.975
2343.98756	17701.275
2346.8244	17671.675
2349.65943	17704.675
2352.49267	17702.775
2355.32411	17703.575
2358.15376	17670.475
2360.98161	17654.675
2363.80768	17700.875
2366.63195	17664.175
2369.45444	17631.175
2372.27514	17638.475
2375.09405	17612.075
2377.91118	17567.775
2380.72652	17528.975
2383.54009	17501.975
2386.35187	17461.675
2389.16188	17421.475
2391.97011	17417.275
2394.77657	17387.775
2397.58125	17377.175
2400.38416	17359.875
2403.18529	17290.175
2405.98466	17295.675
2408.78226	17277.275
2411.57809	17244.675
2414.37216	17235.675
2417.16446	17211.675
2419.955	17176.275
2422.74378	17191.475
2425.5308	17165.575
2428.31606	17134.375
2431.09956	17163.475
2433.88131	17123.375
2436.6613	17110.775
2439.43954	17144.175
2442.21603	17074.975
2444.99077	17069.975
2447.76377	17130.675
2450.53501	17109.975
2453.30451	17117.075
2456.07226	17117.975
2458.83827	17091.575
2461.60254	17082.675
2464.36507	17051.875
2467.12586	17095.075
2469.88492	17112.575
2472.64224	17097.375
2475.39782	17102.475
2478.15167	17122.575
2480.90379	17129.675
2483.65417	17115.875
2486.40283	17124.775
2489.14976	17140.275
2491.89497	17146.275
2494.63845	17177.375
2497.3802	17148.975
2500.12024	17121.175
2502.85855	17102.275
2505.59514	17108.975
2508.33002	17096.075
2511.06318	17030.975
2513.79462	17013.875
2516.52435	17010.975
2519.25237	17010.775
2521.97867	16992.675
2524.70327	16997.975
2527.42616	16969.375
2530.14734	17001.775
2532.86681	16950.975
2535.58458	16962.275
2538.30065	16921.175
2541.01501	16941.375
2543.72768	16940.275
2546.43864	16912.575
2549.14791	16900.175
2551.85548	16920.175
2554.56136	16871.075
2557.26554	16873.175
2559.96803	16863.775
2562.66883	16833.775
2565.36794	16872.275
2568.06536	16836.275
2570.7611	16849.675
2573.45514	16831.475
2576.14751	16806.675
2578.83819	16765.175
2581.52719	16815.975
2584.21451	16774.275
2586.90015	16785.475
2589.58411	16749.175
2592.2664	16694.875
2594.94701	16715.875
2597.62594	16682.875
2600.30321	16652.975
2602.9788	16654.575
2605.65273	16633.775
2608.32498	16619.675
2610.99557	16580.575
2613.66449	16618.375
2616.33175	16611.075
2618.99734	16594.975
2621.66128	16597.975
2624.32355	16590.675
2626.98416	16582.775
2629.64311	16588.575
2632.30041	16596.075
2634.95605	16544.675
2637.61004	16529.675
2640.26238	16512.175
2642.91306	16504.675
2645.56209	16504.575
2648.20948	16501.175
2650.85521	16489.675
2653.4993	16475.975
2656.14175	16495.475
2658.78255	16495.575
2661.42171	16488.475
2664.05923	16520.975
2666.6951	16520.875
2669.32934	16517.575
2671.96194	16512.875
2674.59291	16498.375
2677.22224	16487.775
2679.84993	16507.275
2682.476	16501.175
2685.10043	16492.975
2687.72324	16472.275
2690.34441	16508.675
2692.96396	16489.975
2695.58188	16504.175
2698.19818	16494.575
2700.81285	16498.875
2703.4259	16553.775
2706.03733	16623.575
2708.64714	16569.975
2711.25533	16579.675
2713.86191	16579.675
2716.46687	16564.175
2719.07021	16575.875
2721.67194	16578.375
2724.27206	16556.475
2726.87057	16536.675
2729.46747	16611.775
2732.06276	16581.575
2734.65644	16590.775
2737.24852	16584.775
2739.83899	16574.175
2742.42786	16582.875
2745.01513	16563.775
2747.60079	16542.775
2750.18486	16557.975
2752.76733	16556.675
2755.3482	16558.775
2757.92747	16558.875
2760.50515	16567.275
2763.08123	16505.475
2765.65573	16524.175
2768.22863	16495.875
2770.79994	16491.275
2773.36967	16495.075
2775.9378	16481.275
2778.50435	16474.075
2781.06932	16440.475
2783.6327	16458.775
2786.1945	16461.775
2788.75471	16425.775
2791.31335	16384.275
2793.87041	16357.475
2796.42589	16334.875
2798.97979	16317.775
2801.53212	16275.775
2804.08288	16322.875
2806.63206	16280.375
2809.17967	16237.975
2811.72571	16188.675
2814.27018	16245.975
2816.81308	16176.375
2819.35442	16167.875
2821.89419	16173.675
2824.43239	16152.575
2826.96904	16158.175
2829.50412	16165.275
2832.03763	16095.475
2834.56959	16121.975
2837.1	16088.975
2839.62884	16099.075
2842.15613	16094.575
2844.68186	16121.875
2847.20604	16116.275
2849.72867	16142.675
2852.24974	16103.675
2854.76927	16128.475
2857.28724	16112.175
2859.80367	16110.075
2862.31855	16121.375
2864.83189	16083.175
2867.34368	16086.975
2869.85393	16072.275
2872.36264	16090.475
2874.8698	16101.675
2877.37543	16104.575
2879.87952	16108.775
2882.38207	16101.275
2884.88308	16114.675
2887.38256	16120.075
2889.88051	16114.775
2892.37692	16143.875
2894.8718	16148.675
2897.36515	16139.575
2899.85698	16135.875
2902.34727	16165.675
2904.83604	16169.175
2907.32328	16210.775
2909.809	16183.975
2912.29319	16223.875
2914.77587	16230.475
2917.25702	16189.775
2919.73665	16160.275
2922.21476	16190.975
2924.69136	16175.975
2927.16644	16205.775
2929.64	16194.875
2932.11205	16142.675
2934.58258	16090.775
2937.05161	16149.275
2939.51912	16119.875
2941.98513	16125.275
2944.44962	16060.275
2946.91261	16022.475
2949.37409	16062.475
2951.83407	16037.075
2954.29254	16041.275
2956.74951	15993.875
2959.20498	15989.975
2961.65895	15995.075
2964.11142	15987.675
2966.56239	15966.675
2969.01186	15932.975
2971.45984	15890.275
2973.90632	15842.375
2976.35131	15783.475
2978.7948	15770.275
2981.23681	15740.675
2983.67732	15744.375
2986.11635	15706.075
2988.55388	15706.875
2990.98993	15664.775
2993.4245	15635.475
2995.85758	15595.275
2998.28917	15563.775
3000.71928	15547.575
3003.14791	15521.575
3005.57506	15517.575
3008.00073	15492.675
3010.42493	15484.775
3012.84764	15453.475
3015.26888	15428.775
3017.68865	15395.975
3020.10694	15395.175
3022.52376	15376.775
3024.9391	15361.475
3027.35298	15321.175
3029.76539	15360.075
3032.17632	15360.175
3034.5858	15300.775
3036.9938	15304.175
3039.40034	15275.675
3041.80542	15275.175
3044.20903	15240.875
3046.61118	15242.175
3049.01187	15227.675
3051.4111	15231.375
3053.80888	15204.275
3056.20519	15187.075
3058.60005	15164.375
3060.99345	15099.875
3063.3854	15088.275
3065.7759	15065.375
3068.16494	15022.875
3070.55254	14960.075
3072.93868	15014.675
3075.32338	14970.075
3077.70662	14889.475
3080.08842	14835.475
3082.46878	14868.875
3084.84769	14844.175
3087.22515	14839.475
3089.60118	14854.475
3091.97576	14874.775
3094.3489	14852.775
3096.72061	14836.375
3099.09087	14849.175
3101.4597	14810.375
3103.82709	14832.575
3106.19305	14766.175
3108.55757	14794.075
3110.92066	14750.875
3113.28232	14742.375
3115.64255	14684.375
3118.00134	14704.375
3120.35871	14681.175
3122.71466	14637.375
3125.06917	14646.075
3127.42226	14630.675
