Data from AgNP_FTO_APTES_CRN_1uM_R6G_10uM_NaF_0.1M_Addition_RamanShift__10__13-57-10-790.txt Node

Date: Wed Dec 15 13:57:10 GMT 2021
User: TCL
Spectrometer: QEP01345
Trigger mode: 4
Integration Time (sec): 7.000000E0
Scans to average: 10
Electric dark correction enabled: true
Nonlinearity correction enabled: false
Boxcar width: 0
XAxis mode: Raman Shifts
Number of Pixels in Spectrum: 1044
>>>>>Begin Spectral Data<<<<<
46.04893	0.175
50.45542	-2.225
54.85868	-2.025
59.25871	-1.325
63.6555	168.275
68.04907	179.775
72.43941	187.675
76.82654	195.175
81.21044	205.075
85.59113	212.975
89.96862	221.875
94.34289	224.175
98.71396	238.175
103.08183	241.175
107.4465	253.075
111.80798	257.475
116.16626	258.575
120.52136	273.275
124.87327	276.875
129.222	292.175
133.56755	304.875
137.90993	327.375
142.24913	354.675
146.58517	393.175
150.91804	457.275
155.24774	544.675
159.57429	671.075
163.89768	857.375
168.21792	1114.075
172.53501	1518.475
176.84895	2093.175
181.15975	2927.975
185.46741	4082.375
189.77193	5600.775
194.07331	7487.875
198.37157	9628.775
202.6667	11849.575
206.9587	14058.775
211.24758	16227.975
215.53334	18394.675
219.81599	20682.075
224.09553	23226.875
228.37195	25985.975
232.64527	29050.375
236.91549	32282.975
241.18261	35573.975
245.44663	38633.375
249.70755	41454.475
253.96539	43882.775
258.22014	45926.875
262.4718	47556.475
266.72039	48618.175
270.96589	49161.175
275.20832	49238.575
279.44768	48934.575
283.68397	48470.075
287.91719	48112.975
292.14735	47776.475
296.37445	47716.175
300.59849	47670.775
304.81948	47785.075
309.03742	47878.675
313.25231	47758.875
317.46415	47336.875
321.67296	46639.375
325.87872	46057.375
330.08145	45776.875
334.28114	45733.675
338.47781	45982.175
342.67145	46486.875
346.86207	47107.775
351.04966	47835.575
355.23424	48652.275
359.4158	49422.375
363.59435	50037.675
367.76989	50454.675
371.94243	50715.075
376.11196	50826.275
380.27849	50907.175
384.44203	51092.575
388.60257	51533.675
392.76012	52145.275
396.91468	52938.475
401.06626	53788.775
405.21485	54396.475
409.36047	54553.975
413.50311	54409.675
417.64277	54570.775
421.77947	55188.575
425.9132	55637.675
430.04396	55888.375
434.17176	55918.575
438.2966	55899.675
442.41849	56402.775
446.53742	57514.975
450.6534	58960.275
454.76644	60034.475
458.87653	60440.175
462.98368	60087.875
467.08789	59199.075
471.18916	58136.475
475.2875	56945.275
479.38291	56135.575
483.4754	55636.375
487.56496	55243.775
491.6516	54698.375
495.73531	54277.175
499.81612	54239.675
503.89401	54899.875
507.96899	55456.775
512.04106	55650.975
516.11023	55305.175
520.1765	54550.675
524.23987	53656.075
528.30034	52947.075
532.35792	52275.775
536.41261	51644.375
540.46441	51178.575
544.51333	51311.375
548.55936	51820.075
552.60252	52758.175
556.64279	53767.875
560.6802	54688.475
564.71473	55411.675
568.7464	56588.475
572.7752	58391.775
576.80114	61067.075
580.82422	64256.875
584.84444	68237.775
588.86181	72818.175
592.87633	75735.375
596.888	73944.775
600.89682	68972.875
604.9028	66568.875
608.90594	68146.775
612.90624	69525.075
616.90371	64886.675
620.89834	57332.775
624.89015	54185.775
628.87913	54084.575
632.86528	54480.875
636.84862	54221.275
640.82913	53043.975
644.80683	51688.675
648.78172	51252.175
652.75379	51474.175
656.72306	52147.675
660.68952	52640.875
664.65319	52088.375
668.61405	51250.375
672.57211	51242.475
676.52738	51511.975
680.47986	51491.275
684.42955	51113.275
688.37646	50920.175
692.32058	51345.675
696.26192	52259.475
700.20048	53152.875
704.13626	53669.475
708.06928	53873.275
711.99952	53833.875
715.927	53869.775
719.85171	54116.875
723.77365	53826.375
727.69284	52883.675
731.60928	51886.975
735.52295	51379.175
739.43388	51143.575
743.34206	51300.175
747.24749	51731.275
751.15017	52341.075
755.05012	53397.375
758.94733	54879.675
762.8418	57084.675
766.73354	59902.975
770.62254	62109.275
774.50882	61598.875
778.39237	58911.475
782.27321	55825.475
786.15132	53547.475
790.02671	52091.475
793.89938	51420.975
797.76935	51184.975
801.6366	51103.775
805.50115	51108.775
809.36299	50886.275
813.22213	50460.375
817.07857	50057.575
820.93231	49765.275
824.78336	49477.375
828.63172	49241.575
832.47738	49074.275
836.32036	49100.475
840.16066	49152.375
843.99827	49229.175
847.8332	49242.575
851.66546	49376.375
855.49504	49396.175
859.32195	49492.675
863.1462	49389.475
866.96777	49230.275
870.78668	49257.175
874.60293	49271.875
878.41652	49287.475
882.22745	49473.975
886.03573	49604.375
889.84136	49625.075
893.64433	49428.075
897.44466	49268.575
901.24235	49132.775
905.0374	49106.075
908.8298	49101.075
912.61957	49294.075
916.40671	49781.875
920.19121	50607.275
923.97308	51329.875
927.75233	51288.675
931.52895	50562.875
935.30295	49541.175
939.07433	48716.575
942.84309	48073.775
946.60924	47802.775
950.37278	47875.475
954.13371	47943.975
957.89203	47955.475
961.64774	47914.475
965.40086	47965.775
969.15137	47901.475
972.89929	47706.475
976.64461	47552.475
980.38733	47487.875
984.12747	47545.475
987.86502	47668.675
991.59999	47946.775
995.33237	48412.475
999.06217	49215.275
1002.78939	50271.375
1006.51404	51614.475
1010.23611	52741.975
1013.95561	53462.475
1017.67255	53406.375
1021.38692	52661.275
1025.09872	51583.775
1028.80796	50852.675
1032.51465	50702.575
1036.21877	50936.675
1039.92035	51269.175
1043.61937	51328.375
1047.31584	51319.975
1051.00976	51314.975
1054.70114	51491.175
1058.38998	51950.975
1062.07627	52680.275
1065.76003	53707.975
1069.44126	54977.775
1073.11995	56499.675
1076.79611	57659.375
1080.46974	57889.175
1084.14085	57812.675
1087.80943	57995.475
1091.47549	58198.075
1095.13903	58220.675
1098.80005	57339.375
1102.45857	55745.475
1106.11456	54437.775
1109.76805	53848.275
1113.41903	53647.175
1117.06751	53646.075
1120.71348	53930.475
1124.35696	54183.075
1127.99793	54670.875
1131.63641	55123.175
1135.2724	55322.775
1138.90589	55611.675
1142.5369	56015.675
1146.16542	56622.875
1149.79145	57240.575
1153.415	57890.275
1157.03607	59032.275
1160.65467	61191.275
1164.27079	64579.675
1167.88443	68196.375
1171.49561	71220.375
1175.10432	74263.975
1178.71056	78197.075
1182.31434	82184.175
1185.91565	84189.175
1189.51451	83877.175
1193.11091	82402.475
1196.70485	80263.575
1200.29634	78037.675
1203.88538	76821.275
1207.47197	76966.875
1211.05612	77196.975
1214.63782	76547.075
1218.21708	74454.675
1221.79391	71599.875
1225.36829	69342.875
1228.94024	67959.075
1232.50976	67038.575
1236.07685	66179.775
1239.6415	65638.075
1243.20374	65578.675
1246.76355	66148.475
1250.32093	67235.875
1253.8759	68831.975
1257.42845	70766.275
1260.97859	72933.375
1264.52631	75244.075
1268.07163	77672.775
1271.61453	80069.775
1275.15503	82505.075
1278.69312	85037.175
1282.22882	87731.975
1285.76211	91022.075
1289.29301	94693.975
1292.82151	98861.775
1296.34761	103992.075
1299.87133	110197.975
1303.39266	116319.575
1306.9116	121045.275
1310.42815	123612.075
1313.94233	124233.475
1317.45412	123103.575
1320.96354	121611.375
1324.47058	121197.075
1327.97525	121828.675
1331.47754	122533.775
1334.97747	122741.775
1338.47502	121872.175
1341.97022	119900.375
1345.46305	117023.475
1348.95352	114288.775
1352.44163	112705.075
1355.92738	113383.475
1359.41078	116417.475
1362.89183	118846.275
1366.37053	117722.275
1369.84688	111208.075
1373.32088	100784.375
1376.79254	92696.675
1380.26186	89636.675
1383.72883	90219.975
1387.19347	91019.575
1390.65578	90240.075
1394.11575	89778.675
1397.57339	90890.775
1401.0287	93357.975
1404.48168	95581.975
1407.93234	96044.975
1411.38068	94328.175
1414.82669	90866.175
1418.27039	86645.875
1421.71177	82682.475
1425.15083	79713.375
1428.58758	78601.175
1432.02203	79784.075
1435.45416	82867.575
1438.88399	86229.375
1442.31151	88461.675
1445.73673	89222.575
1449.15965	89023.775
1452.58027	88268.475
1455.9986	87506.075
1459.41463	87826.475
1462.82837	89110.975
1466.23982	90936.175
1469.64898	92491.075
1473.05586	93351.775
1476.46045	93508.075
1479.86276	92757.675
1483.26279	91620.175
1486.66054	90882.975
1490.05602	90773.875
1493.44922	91183.375
1496.84016	91453.675
1500.22882	91826.375
1503.61521	92395.575
1506.99934	93032.075
1510.38121	93548.075
1513.76081	93512.375
1517.13816	92949.375
1520.51324	92619.075
1523.88607	93167.275
1527.25665	94492.475
1530.62498	95566.775
1533.99105	95598.075
1537.35488	94164.775
1540.71647	91596.875
1544.07581	88622.375
1547.4329	85741.175
1550.78776	83287.375
1554.14038	81571.075
1557.49077	80513.975
1560.83892	79707.575
1564.18484	79023.575
1567.52853	78819.875
1570.86999	79476.875
1574.20922	81514.675
1577.54624	84001.075
1580.88103	85923.375
1584.2136	88753.375
1587.54395	93029.875
1590.87208	98708.275
1594.19801	104914.775
1597.52172	109862.175
1600.84321	109702.275
1604.16251	103068.275
1607.47959	93571.775
1610.79447	84425.175
1614.10715	76759.275
1617.41763	70632.875
1620.7259	66680.675
1624.03199	64721.875
1627.33587	64943.675
1630.63757	67320.075
1633.93707	72527.775
1637.23439	81157.675
1640.52951	93666.175
1643.82246	107860.475
1647.11321	117719.275
1650.40179	116922.275
1653.68819	105410.775
1656.97241	89342.575
1660.25446	75199.675
1663.53433	65307.975
1666.81203	59061.575
1670.08756	55211.275
1673.36092	52813.075
1676.63211	51214.875
1679.90115	50045.875
1683.16801	49151.675
1686.43272	48524.275
1689.69527	48020.375
1692.95567	47661.575
1696.2139	47410.775
1699.46999	47224.975
1702.72392	47049.475
1705.97571	46904.875
1709.22535	46764.475
1712.47284	46694.375
1715.71819	46632.875
1718.96139	46426.075
1722.20246	46216.575
1725.44139	46046.775
1728.67818	45781.475
1731.91284	45498.875
1735.14537	45191.675
1738.37576	44996.375
1741.60403	44778.775
1744.83017	44641.675
1748.05418	44506.775
1751.27607	44438.275
1754.49584	44344.975
1757.71349	44234.175
1760.92903	44209.375
1764.14244	44233.975
1767.35375	44130.775
1770.56294	44087.675
1773.77002	44019.075
1776.97499	44022.475
1780.17785	43879.575
1783.37861	43844.975
1786.57727	43876.475
1789.77382	43670.875
1792.96828	43577.975
1796.16064	43499.075
1799.3509	43457.875
1802.53907	43301.375
1805.72514	43148.175
1808.90913	43031.275
1812.09102	42990.975
1815.27083	42952.075
1818.44856	42843.575
1821.6242	42791.375
1824.79776	42839.375
1827.96924	42834.775
1831.13864	42732.475
1834.30597	42852.975
1837.47122	42911.275
1840.6344	42838.275
1843.7955	42882.875
1846.95454	42843.175
1850.11151	42813.075
1853.26642	42772.475
1856.41926	42741.075
1859.57004	42726.575
1862.71876	42627.175
1865.86542	42556.775
1869.01003	42611.075
1872.15258	42505.575
1875.29308	42448.975
1878.43152	42383.475
1881.56792	42323.375
1884.70227	42250.575
1887.83457	42233.375
1890.96482	42231.275
1894.09304	42132.175
1897.21921	42077.775
1900.34335	42035.375
1903.46544	42008.975
1906.58551	41869.975
1909.70353	41840.675
1912.81953	41777.575
1915.93349	41675.975
1919.04543	41577.775
1922.15534	41503.575
1925.26322	41425.975
1928.36908	41346.275
1931.47292	41249.575
1934.57473	41149.975
1937.67453	41046.775
1940.77232	40921.075
1943.86808	40831.175
1946.96184	40683.575
1950.05358	40598.175
1953.14331	40486.775
1956.23103	40419.575
1959.31675	40324.775
1962.40046	40154.775
1965.48217	40064.875
1968.56188	39902.775
1971.63959	39794.775
1974.7153	39674.875
1977.78901	39537.475
1980.86073	39418.075
1983.93046	39316.775
1986.99819	39158.875
1990.06394	39100.175
1993.1277	39059.875
1996.18947	38892.775
1999.24925	38843.975
2002.30706	38663.975
2005.36288	38564.075
2008.41672	38482.375
2011.46859	38343.375
2014.51848	38266.675
2017.56639	38172.875
2020.61233	38054.375
2023.6563	37959.975
2026.6983	37931.175
2029.73833	37909.475
2032.7764	37768.075
2035.8125	37752.275
2038.84664	37677.375
2041.87881	37593.275
2044.90903	37504.775
2047.93729	37453.375
2050.96359	37401.675
2053.98794	37342.575
2057.01034	37301.075
2060.03078	37296.175
2063.04927	37233.675
2066.06582	37184.475
2069.08042	37172.575
2072.09307	37138.175
2075.10378	37124.075
2078.11255	37057.275
2081.11938	37086.475
2084.12426	37054.975
2087.12722	37063.975
2090.12824	37027.575
2093.12732	37014.875
2096.12447	37039.475
2099.11969	37050.475
2102.11299	37054.975
2105.10435	37066.075
2108.09379	37085.775
2111.08131	37092.675
2114.0669	37103.575
2117.05057	37109.275
2120.03233	37152.975
2123.01216	37189.775
2125.99008	37208.075
2128.96609	37194.975
2131.94018	37200.175
2134.91236	37207.975
2137.88263	37202.075
2140.851	37184.675
2143.81746	37242.675
2146.78201	37166.175
2149.74466	37247.775
2152.7054	37233.875
2155.66425	37278.175
2158.6212	37230.175
2161.57625	37258.875
2164.52941	37253.075
2167.48067	37295.375
2170.43004	37193.375
2173.37752	37203.275
2176.32311	37202.975
2179.26681	37201.375
2182.20863	37174.475
2185.14856	37182.875
2188.08661	37166.875
2191.02278	37190.875
2193.95707	37098.275
2196.88948	37091.275
2199.82001	37128.975
2202.74867	36965.775
2205.67545	36919.875
2208.60037	36902.775
2211.52341	36854.675
2214.44458	36840.675
2217.36388	36715.875
2220.28132	36738.075
2223.1969	36672.475
2226.11061	36585.775
2229.02246	36554.475
2231.93245	36535.375
2234.84058	36446.875
2237.74686	36400.075
2240.65128	36397.875
2243.55385	36349.275
2246.45456	36259.975
2249.35343	36165.075
2252.25044	36075.175
2255.14561	35991.275
2258.03893	35986.575
2260.93041	35873.875
2263.82004	35758.375
2266.70783	35675.475
2269.59378	35599.175
2272.4779	35558.975
2275.36017	35460.575
2278.24061	35361.675
2281.11922	35347.275
2283.996	35287.375
2286.87094	35205.675
2289.74405	35101.875
2292.61534	35054.375
2295.4848	35099.275
2298.35243	35153.275
2301.21824	35085.675
2304.08223	35074.175
2306.94439	35018.175
2309.80474	35040.875
2312.66327	34984.375
2315.51999	34956.775
2318.37489	34988.175
2321.22797	34943.575
2324.07925	34915.875
2326.92871	34889.875
2329.77637	34880.075
2332.62222	34799.575
2335.46626	34744.175
2338.3085	34703.375
2341.14893	34760.675
2343.98756	34730.575
2346.8244	34666.275
2349.65943	34706.975
2352.49267	34662.475
2355.32411	34676.475
2358.15376	34615.375
2360.98161	34583.475
2363.80768	34541.475
2366.63195	34549.775
2369.45444	34548.975
2372.27514	34471.775
2375.09405	34416.775
2377.91118	34355.875
2380.72652	34283.875
2383.54009	34157.675
2386.35187	34188.175
2389.16188	34077.675
2391.97011	34020.775
2394.77657	33976.075
2397.58125	33953.075
2400.38416	33906.475
2403.18529	33871.375
2405.98466	33859.675
2408.78226	33794.675
2411.57809	33716.275
2414.37216	33711.675
2417.16446	33709.175
2419.955	33686.075
2422.74378	33678.075
2425.5308	33642.175
2428.31606	33599.275
2431.09956	33587.575
2433.88131	33579.275
2436.6613	33500.575
2439.43954	33524.675
2442.21603	33509.575
2444.99077	33482.375
2447.76377	33476.075
2450.53501	33413.075
2453.30451	33493.475
2456.07226	33420.875
2458.83827	33459.275
2461.60254	33431.075
2464.36507	33451.975
2467.12586	33399.575
2469.88492	33447.975
2472.64224	33388.775
2475.39782	33347.175
2478.15167	33419.475
2480.90379	33397.375
2483.65417	33363.175
2486.40283	33380.775
2489.14976	33332.975
2491.89497	33280.075
2494.63845	33356.975
2497.3802	33298.575
2500.12024	33316.275
2502.85855	33341.775
2505.59514	33312.875
2508.33002	33313.575
2511.06318	33236.075
2513.79462	33223.275
2516.52435	33233.175
2519.25237	33271.075
2521.97867	33224.275
2524.70327	33230.975
2527.42616	33160.075
2530.14734	33168.175
2532.86681	33100.075
2535.58458	33096.075
2538.30065	33063.875
2541.01501	33056.275
2543.72768	33003.075
2546.43864	32974.975
2549.14791	32942.475
2551.85548	32913.075
2554.56136	32921.675
2557.26554	32871.975
2559.96803	32829.575
2562.66883	32836.275
2565.36794	32790.275
2568.06536	32775.575
2570.7611	32778.875
2573.45514	32720.175
2576.14751	32702.875
2578.83819	32625.775
2581.52719	32664.775
2584.21451	32585.375
2586.90015	32593.475
2589.58411	32547.275
2592.2664	32529.875
2594.94701	32458.275
2597.62594	32456.175
2600.30321	32444.775
2602.9788	32466.575
2605.65273	32404.275
2608.32498	32458.775
2610.99557	32454.175
2613.66449	32428.175
2616.33175	32426.175
2618.99734	32372.775
2621.66128	32360.275
2624.32355	32386.475
2626.98416	32310.875
2629.64311	32229.875
2632.30041	32275.875
2634.95605	32244.575
2637.61004	32211.275
2640.26238	32185.075
2642.91306	32197.775
2645.56209	32198.575
2648.20948	32207.975
2650.85521	32179.475
2653.4993	32238.975
2656.14175	32218.975
2658.78255	32232.975
2661.42171	32219.175
2664.05923	32267.375
2666.6951	32235.675
2669.32934	32304.875
2671.96194	32297.675
2674.59291	32325.275
2677.22224	32349.775
2679.84993	32295.975
2682.476	32245.175
2685.10043	32323.575
2687.72324	32335.775
2690.34441	32323.075
2692.96396	32281.275
2695.58188	32336.175
2698.19818	32311.475
2700.81285	32268.175
2703.4259	32306.775
2706.03733	32326.575
2708.64714	32350.175
2711.25533	32376.775
2713.86191	32354.575
2716.46687	32387.275
2719.07021	32404.975
2721.67194	32434.375
2724.27206	32395.975
2726.87057	32421.775
2729.46747	32474.075
2732.06276	32463.775
2734.65644	32458.675
2737.24852	32482.275
2739.83899	32460.575
2742.42786	32568.675
2745.01513	32466.275
2747.60079	32514.575
2750.18486	32518.175
2752.76733	32502.475
2755.3482	32426.575
2757.92747	32372.375
2760.50515	32359.675
2763.08123	32359.575
2765.65573	32354.175
2768.22863	32342.775
2770.79994	32301.375
2773.36967	32295.675
2775.9378	32308.975
2778.50435	32261.175
2781.06932	32198.975
2783.6327	32200.275
2786.1945	32160.575
2788.75471	32182.875
2791.31335	32123.675
2793.87041	32083.375
2796.42589	31981.475
2798.97979	31947.275
2801.53212	31896.075
2804.08288	31886.275
2806.63206	31762.575
2809.17967	31696.675
2811.72571	31674.275
2814.27018	31655.575
2816.81308	31591.975
2819.35442	31509.775
2821.89419	31474.975
2824.43239	31395.375
2826.96904	31312.475
2829.50412	31326.375
2832.03763	31227.275
2834.56959	31185.775
2837.1	31160.275
2839.62884	31167.475
2842.15613	31116.575
2844.68186	31119.975
2847.20604	31006.875
2849.72867	31047.675
2852.24974	30971.875
2854.76927	31003.975
2857.28724	30957.875
2859.80367	30915.375
2862.31855	30883.175
2864.83189	30819.975
2867.34368	30778.475
2869.85393	30773.775
2872.36264	30785.175
2874.8698	30736.175
2877.37543	30717.575
2879.87952	30728.475
2882.38207	30715.875
2884.88308	30714.775
2887.38256	30725.875
2889.88051	30656.875
2892.37692	30719.775
2894.8718	30699.675
2897.36515	30783.375
2899.85698	30776.875
2902.34727	30813.875
2904.83604	30741.175
2907.32328	30807.175
2909.809	30768.775
2912.29319	30852.175
2914.77587	30809.975
2917.25702	30796.375
2919.73665	30765.975
2922.21476	30802.975
2924.69136	30753.575
2927.16644	30741.875
2929.64	30735.075
2932.11205	30733.075
2934.58258	30619.175
2937.05161	30647.175
2939.51912	30635.175
2941.98513	30601.775
2944.44962	30544.775
2946.91261	30486.475
2949.37409	30548.175
2951.83407	30492.075
2954.29254	30467.975
2956.74951	30458.375
2959.20498	30427.675
2961.65895	30350.775
2964.11142	30345.475
2966.56239	30254.275
2969.01186	30302.375
2971.45984	30205.375
2973.90632	30144.075
2976.35131	30050.775
2978.7948	29992.275
2981.23681	29952.875
2983.67732	29876.875
2986.11635	29798.175
2988.55388	29705.175
2990.98993	29653.475
2993.4245	29532.075
2995.85758	29496.775
2998.28917	29458.475
3000.71928	29365.175
3003.14791	29298.675
3005.57506	29254.575
3008.00073	29166.175
3010.42493	29166.775
3012.84764	29105.475
3015.26888	29049.375
3017.68865	28999.375
3020.10694	28940.775
3022.52376	28833.975
3024.9391	28834.775
3027.35298	28780.875
3029.76539	28760.575
3032.17632	28731.775
3034.5858	28674.775
3036.9938	28610.975
3039.40034	28572.875
3041.80542	28530.775
3044.20903	28476.375
3046.61118	28453.275
3049.01187	28385.475
3051.4111	28353.975
3053.80888	28268.575
3056.20519	28247.275
3058.60005	28122.675
3060.99345	28084.175
3063.3854	28049.975
3065.7759	27973.175
3068.16494	27864.775
3070.55254	27704.875
3072.93868	27672.575
3075.32338	27573.275
3077.70662	27501.775
3080.08842	27428.375
3082.46878	27360.775
3084.84769	27328.675
3087.22515	27304.475
3089.60118	27318.075
3091.97576	27276.575
3094.3489	27239.475
3096.72061	27249.975
3099.09087	27184.975
3101.4597	27190.175
3103.82709	27105.175
3106.19305	27084.575
3108.55757	27044.475
3110.92066	26957.875
3113.28232	26902.775
3115.64255	26761.675
3118.00134	26730.775
3120.35871	26675.875
3122.71466	26624.375
