Data from AgNP_FTO_APTES_CRN_200uM_R6G_10uM_NaF_0.1M_Addition_RamanShift__15__19-34-28-177.txt Node

Date: Wed Dec 15 19:34:28 GMT 2021
User: TCL
Spectrometer: QEP01345
Trigger mode: 4
Integration Time (sec): 7.000000E0
Scans to average: 10
Electric dark correction enabled: true
Nonlinearity correction enabled: false
Boxcar width: 0
XAxis mode: Raman Shifts
Number of Pixels in Spectrum: 1044
>>>>>Begin Spectral Data<<<<<
46.04893	0.575
50.45542	-0.925
54.85868	-0.725
59.25871	-0.425
63.6555	46.675
68.04907	46.775
72.43941	54.775
76.82654	58.475
81.21044	59.675
85.59113	61.375
89.96862	64.875
94.34289	62.075
98.71396	66.275
103.08183	72.375
107.4465	73.875
111.80798	75.575
116.16626	73.575
120.52136	77.275
124.87327	78.675
129.222	77.575
133.56755	82.675
137.90993	92.475
142.24913	93.975
146.58517	98.975
150.91804	114.975
155.24774	132.475
159.57429	161.575
163.89768	201.775
168.21792	258.875
172.53501	345.975
176.84895	477.075
181.15975	673.375
185.46741	937.775
189.77193	1289.675
194.07331	1736.675
198.37157	2245.275
202.6667	2789.275
206.9587	3328.475
211.24758	3851.575
215.53334	4376.275
219.81599	4935.475
224.09553	5537.275
228.37195	6176.075
232.64527	6934.575
236.91549	7705.675
241.18261	8527.575
245.44663	9313.075
249.70755	10012.175
253.96539	10589.875
258.22014	11030.875
262.4718	11372.875
266.72039	11608.575
270.96589	11677.875
275.20832	11675.375
279.44768	11623.475
283.68397	11520.275
287.91719	11424.075
292.14735	11342.475
296.37445	11286.375
300.59849	11258.975
304.81948	11166.775
309.03742	11074.475
313.25231	10962.575
317.46415	10787.475
321.67296	10560.175
325.87872	10407.975
330.08145	10329.975
334.28114	10385.275
338.47781	10439.475
342.67145	10542.375
346.86207	10644.675
351.04966	10774.275
355.23424	10882.075
359.4158	11005.475
363.59435	11079.775
367.76989	11147.875
371.94243	11202.075
376.11196	11268.775
380.27849	11313.575
384.44203	11382.075
388.60257	11471.375
392.76012	11585.575
396.91468	11720.375
401.06626	11861.675
405.21485	11987.975
409.36047	12055.075
413.50311	11994.475
417.64277	11935.075
421.77947	11878.075
425.9132	11913.775
430.04396	11932.175
434.17176	12030.875
438.2966	12084.775
442.41849	12174.675
446.53742	12284.475
450.6534	12460.875
454.76644	12551.875
458.87653	12643.175
462.98368	12690.075
467.08789	12707.675
471.18916	12678.275
475.2875	12668.275
479.38291	12656.375
483.4754	12600.675
487.56496	12538.375
491.6516	12508.075
495.73531	12461.475
499.81612	12472.475
503.89401	12526.975
507.96899	12539.275
512.04106	12577.475
516.11023	12561.575
520.1765	12572.875
524.23987	12580.775
528.30034	12495.275
532.35792	12450.275
536.41261	12419.675
540.46441	12366.975
544.51333	12389.775
548.55936	12500.275
552.60252	12659.475
556.64279	12854.375
560.6802	12898.475
564.71473	12967.075
568.7464	13023.975
572.7752	13175.275
576.80114	13306.375
580.82422	13502.575
584.84444	13649.975
588.86181	13642.575
592.87633	13533.675
596.888	13435.175
600.89682	13451.075
604.9028	13633.475
608.90594	14198.575
612.90624	14727.075
616.90371	14284.175
620.89834	13140.975
624.89015	12594.175
628.87913	12527.675
632.86528	12637.675
636.84862	12713.475
640.82913	12711.375
644.80683	12566.075
648.78172	12468.275
652.75379	12428.275
656.72306	12463.575
660.68952	12570.875
664.65319	12600.275
668.61405	12569.275
672.57211	12536.875
676.52738	12596.975
680.47986	12648.775
684.42955	12627.775
688.37646	12620.775
692.32058	12635.475
696.26192	12680.175
700.20048	12730.675
704.13626	12786.075
708.06928	12845.475
711.99952	12845.675
715.927	12784.275
719.85171	12747.775
723.77365	12691.375
727.69284	12639.275
731.60928	12565.075
735.52295	12514.675
739.43388	12473.675
743.34206	12486.575
747.24749	12517.875
751.15017	12544.075
755.05012	12654.175
758.94733	12827.075
762.8418	13189.575
766.73354	13686.575
770.62254	14204.175
774.50882	14311.375
778.39237	13954.175
782.27321	13403.275
786.15132	12934.575
790.02671	12647.475
793.89938	12495.875
797.76935	12428.775
801.6366	12384.275
805.50115	12356.175
809.36299	12337.475
813.22213	12303.775
817.07857	12336.175
820.93231	12334.975
824.78336	12334.175
828.63172	12365.575
832.47738	12332.775
836.32036	12342.375
840.16066	12339.375
843.99827	12316.775
847.8332	12285.175
851.66546	12281.675
855.49504	12294.175
859.32195	12281.675
863.1462	12293.275
866.96777	12271.975
870.78668	12300.375
874.60293	12332.775
878.41652	12328.575
882.22745	12366.375
886.03573	12374.275
889.84136	12410.575
893.64433	12385.075
897.44466	12378.175
901.24235	12350.975
905.0374	12352.775
908.8298	12379.075
912.61957	12380.975
916.40671	12440.675
920.19121	12514.675
923.97308	12538.475
927.75233	12526.475
931.52895	12492.175
935.30295	12394.975
939.07433	12299.975
942.84309	12186.775
946.60924	12128.775
950.37278	12057.875
954.13371	12035.475
957.89203	11987.375
961.64774	11984.775
965.40086	11962.275
969.15137	11951.675
972.89929	11915.175
976.64461	11893.175
980.38733	11866.875
984.12747	11878.975
987.86502	11911.375
991.59999	11940.475
995.33237	11930.275
999.06217	12016.075
1002.78939	12070.075
1006.51404	12148.975
1010.23611	12236.075
1013.95561	12273.975
1017.67255	12291.475
1021.38692	12257.475
1025.09872	12219.375
1028.80796	12149.775
1032.51465	12132.475
1036.21877	12195.675
1039.92035	12188.775
1043.61937	12235.975
1047.31584	12314.075
1051.00976	12388.875
1054.70114	12436.875
1058.38998	12561.775
1062.07627	12661.275
1065.76003	12866.575
1069.44126	13046.775
1073.11995	13187.675
1076.79611	13304.475
1080.46974	13252.975
1084.14085	13150.075
1087.80943	13052.575
1091.47549	13022.875
1095.13903	13036.275
1098.80005	13003.475
1102.45857	12849.075
1106.11456	12663.675
1109.76805	12540.175
1113.41903	12434.875
1117.06751	12456.875
1120.71348	12533.575
1124.35696	12600.075
1127.99793	12776.475
1131.63641	12818.675
1135.2724	12755.475
1138.90589	12691.775
1142.5369	12640.475
1146.16542	12614.875
1149.79145	12647.775
1153.415	12690.675
1157.03607	12768.875
1160.65467	12873.375
1164.27079	13014.175
1167.88443	13259.175
1171.49561	13587.975
1175.10432	13983.575
1178.71056	14554.075
1182.31434	15109.675
1185.91565	15448.375
1189.51451	15574.575
1193.11091	15543.875
1196.70485	15250.075
1200.29634	14900.475
1203.88538	14532.575
1207.47197	14185.775
1211.05612	13945.075
1214.63782	13732.475
1218.21708	13568.975
1221.79391	13409.475
1225.36829	13318.775
1228.94024	13260.675
1232.50976	13249.675
1236.07685	13256.875
1239.6415	13282.575
1243.20374	13301.775
1246.76355	13359.675
1250.32093	13433.575
1253.8759	13526.575
1257.42845	13705.175
1260.97859	13873.675
1264.52631	14018.375
1268.07163	14197.375
1271.61453	14293.575
1275.15503	14443.875
1278.69312	14595.075
1282.22882	14721.275
1285.76211	14816.775
1289.29301	15001.175
1292.82151	15231.275
1296.34761	15472.075
1299.87133	15776.475
1303.39266	16085.375
1306.9116	16466.575
1310.42815	16849.975
1313.94233	17025.275
1317.45412	17091.675
1320.96354	17061.875
1324.47058	17037.675
1327.97525	17055.375
1331.47754	17111.675
1334.97747	17170.975
1338.47502	17386.275
1341.97022	17620.375
1345.46305	17895.875
1348.95352	18080.275
1352.44163	18047.375
1355.92738	17988.975
1359.41078	18023.275
1362.89183	18102.575
1366.37053	17795.375
1369.84688	16985.875
1373.32088	16094.275
1376.79254	15367.775
1380.26186	14940.475
1383.72883	14773.275
1387.19347	14600.375
1390.65578	14461.975
1394.11575	14322.375
1397.57339	14179.775
1401.0287	14100.875
1404.48168	14027.075
1407.93234	13932.575
1411.38068	13845.575
1414.82669	13650.275
1418.27039	13412.575
1421.71177	13175.875
1425.15083	12945.675
1428.58758	12797.275
1432.02203	12784.875
1435.45416	12835.275
1438.88399	12882.375
1442.31151	12955.875
1445.73673	13026.175
1449.15965	13143.775
1452.58027	13240.675
1455.9986	13337.075
1459.41463	13500.875
1462.82837	13649.475
1466.23982	13830.375
1469.64898	14013.175
1473.05586	14144.475
1476.46045	14270.975
1479.86276	14319.175
1483.26279	14391.975
1486.66054	14446.875
1490.05602	14601.075
1493.44922	14834.975
1496.84016	15193.475
1500.22882	15721.175
1503.61521	16374.675
1506.99934	16958.975
1510.38121	17282.075
1513.76081	17309.475
1517.13816	16953.475
1520.51324	16478.475
1523.88607	16050.575
1527.25665	15699.375
1530.62498	15447.675
1533.99105	15254.275
1537.35488	15054.175
1540.71647	14828.775
1544.07581	14619.675
1547.4329	14415.375
1550.78776	14282.675
1554.14038	14190.575
1557.49077	14192.375
1560.83892	14241.475
1564.18484	14337.675
1567.52853	14459.075
1570.86999	14593.175
1574.20922	14702.975
1577.54624	14800.575
1580.88103	14708.975
1584.2136	14614.175
1587.54395	14421.075
1590.87208	14356.875
1594.19801	14397.675
1597.52172	14544.575
1600.84321	14621.475
1604.16251	14410.975
1607.47959	14110.375
1610.79447	13749.975
1614.10715	13363.975
1617.41763	12918.875
1620.7259	12596.275
1624.03199	12335.975
1627.33587	12224.875
1630.63757	12221.475
1633.93707	12378.875
1637.23439	12687.475
1640.52951	13177.675
1643.82246	13874.575
1647.11321	14647.475
1650.40179	15186.875
1653.68819	15238.675
1656.97241	14655.775
1660.25446	13810.975
1663.53433	12944.075
1666.81203	12267.775
1670.08756	11767.075
1673.36092	11414.875
1676.63211	11181.275
1679.90115	11027.575
1683.16801	10906.875
1686.43272	10833.975
1689.69527	10778.275
1692.95567	10721.475
1696.2139	10709.475
1699.46999	10695.575
1702.72392	10684.275
1705.97571	10672.775
1709.22535	10601.775
1712.47284	10596.575
1715.71819	10585.575
1718.96139	10564.175
1722.20246	10505.775
1725.44139	10496.675
1728.67818	10444.575
1731.91284	10416.975
1735.14537	10380.975
1738.37576	10379.375
1741.60403	10305.575
1744.83017	10316.575
1748.05418	10284.775
1751.27607	10285.075
1754.49584	10295.675
1757.71349	10277.075
1760.92903	10275.775
1764.14244	10262.175
1767.35375	10263.175
1770.56294	10221.675
1773.77002	10210.975
1776.97499	10186.475
1780.17785	10159.575
1783.37861	10143.975
1786.57727	10109.175
1789.77382	10068.775
1792.96828	10039.675
1796.16064	10037.675
1799.3509	10011.175
1802.53907	9987.375
1805.72514	9976.875
1808.90913	9937.875
1812.09102	9898.175
1815.27083	9893.975
1818.44856	9884.175
1821.6242	9842.675
1824.79776	9861.075
1827.96924	9830.975
1831.13864	9813.975
1834.30597	9829.075
1837.47122	9815.275
1840.6344	9801.275
1843.7955	9807.775
1846.95454	9786.375
1850.11151	9764.675
1853.26642	9763.375
1856.41926	9769.075
1859.57004	9772.175
1862.71876	9731.675
1865.86542	9756.575
1869.01003	9724.475
1872.15258	9725.975
1875.29308	9699.375
1878.43152	9656.375
1881.56792	9658.975
1884.70227	9640.675
1887.83457	9626.975
1890.96482	9604.975
1894.09304	9591.775
1897.21921	9560.075
1900.34335	9561.175
1903.46544	9538.275
1906.58551	9524.975
1909.70353	9519.075
1912.81953	9485.275
1915.93349	9484.775
1919.04543	9448.375
1922.15534	9444.875
1925.26322	9448.875
1928.36908	9418.075
1931.47292	9407.575
1934.57473	9398.575
1937.67453	9368.575
1940.77232	9339.775
1943.86808	9310.675
1946.96184	9295.275
1950.05358	9258.375
1953.14331	9244.775
1956.23103	9203.175
1959.31675	9177.875
1962.40046	9148.975
1965.48217	9138.175
1968.56188	9106.675
1971.63959	9069.475
1974.7153	9038.175
1977.78901	9030.775
1980.86073	8983.875
1983.93046	8965.475
1986.99819	8924.875
1990.06394	8917.975
1993.1277	8866.775
1996.18947	8812.875
1999.24925	8804.475
2002.30706	8769.775
2005.36288	8762.375
2008.41672	8761.575
2011.46859	8700.275
2014.51848	8691.775
2017.56639	8673.275
2020.61233	8637.475
2023.6563	8600.575
2026.6983	8583.975
2029.73833	8561.475
2032.7764	8552.675
2035.8125	8529.575
2038.84664	8503.275
2041.87881	8493.975
2044.90903	8470.475
2047.93729	8439.575
2050.96359	8439.875
2053.98794	8441.175
2057.01034	8410.575
2060.03078	8404.775
2063.04927	8364.675
2066.06582	8381.175
2069.08042	8375.875
2072.09307	8364.475
2075.10378	8344.175
2078.11255	8343.875
2081.11938	8364.075
2084.12426	8337.475
2087.12722	8344.175
2090.12824	8346.075
2093.12732	8353.575
2096.12447	8351.175
2099.11969	8337.975
2102.11299	8340.775
2105.10435	8339.575
2108.09379	8336.775
2111.08131	8332.475
2114.0669	8324.975
2117.05057	8364.075
2120.03233	8340.975
2123.01216	8373.275
2125.99008	8360.975
2128.96609	8360.675
2131.94018	8373.075
2134.91236	8357.075
2137.88263	8376.175
2140.851	8378.475
2143.81746	8390.075
2146.78201	8358.975
2149.74466	8387.475
2152.7054	8372.775
2155.66425	8389.475
2158.6212	8367.275
2161.57625	8384.675
2164.52941	8356.575
2167.48067	8368.475
2170.43004	8356.975
2173.37752	8341.175
2176.32311	8341.875
2179.26681	8332.775
2182.20863	8325.875
2185.14856	8343.975
2188.08661	8314.475
2191.02278	8336.175
2193.95707	8321.875
2196.88948	8281.675
2199.82001	8276.375
2202.74867	8293.975
2205.67545	8260.775
2208.60037	8268.675
2211.52341	8250.775
2214.44458	8232.475
2217.36388	8199.575
2220.28132	8171.275
2223.1969	8160.775
2226.11061	8131.775
2229.02246	8115.975
2231.93245	8122.975
2234.84058	8103.975
2237.74686	8106.475
2240.65128	8097.975
2243.55385	8063.275
2246.45456	8044.075
2249.35343	8035.075
2252.25044	8033.675
2255.14561	8025.375
2258.03893	8014.675
2260.93041	7994.375
2263.82004	7937.875
2266.70783	7965.975
2269.59378	7933.975
2272.4779	7913.575
2275.36017	7891.075
2278.24061	7861.075
2281.11922	7852.475
2283.996	7835.875
2286.87094	7822.275
2289.74405	7797.075
2292.61534	7765.275
2295.4848	7762.875
2298.35243	7783.775
2301.21824	7755.275
2304.08223	7719.575
2306.94439	7734.775
2309.80474	7742.275
2312.66327	7731.575
2315.51999	7740.275
2318.37489	7688.675
2321.22797	7708.175
2324.07925	7668.175
2326.92871	7692.775
2329.77637	7667.275
2332.62222	7632.375
2335.46626	7621.775
2338.3085	7604.975
2341.14893	7591.775
2343.98756	7559.375
2346.8244	7571.075
2349.65943	7556.475
2352.49267	7570.975
2355.32411	7564.075
2358.15376	7559.875
2360.98161	7534.175
2363.80768	7536.775
2366.63195	7550.075
2369.45444	7524.475
2372.27514	7515.975
2375.09405	7481.675
2377.91118	7489.575
2380.72652	7486.675
2383.54009	7458.175
2386.35187	7443.575
2389.16188	7407.475
2391.97011	7384.175
2394.77657	7400.275
2397.58125	7393.275
2400.38416	7350.075
2403.18529	7350.775
2405.98466	7320.175
2408.78226	7327.175
2411.57809	7306.675
2414.37216	7313.275
2417.16446	7290.275
2419.955	7254.675
2422.74378	7262.875
2425.5308	7255.675
2428.31606	7232.775
2431.09956	7247.775
2433.88131	7224.275
2436.6613	7222.575
2439.43954	7211.975
2442.21603	7189.775
2444.99077	7194.875
2447.76377	7180.675
2450.53501	7161.575
2453.30451	7142.975
2456.07226	7159.175
2458.83827	7151.675
2461.60254	7119.375
2464.36507	7128.075
2467.12586	7109.375
2469.88492	7095.675
2472.64224	7106.875
2475.39782	7095.975
2478.15167	7083.475
2480.90379	7073.675
2483.65417	7091.575
2486.40283	7057.075
2489.14976	7050.975
2491.89497	7053.475
2494.63845	7074.075
2497.3802	7039.275
2500.12024	7023.975
2502.85855	7022.475
2505.59514	7014.675
2508.33002	6987.475
2511.06318	6981.675
2513.79462	6984.875
2516.52435	6981.575
2519.25237	6971.075
2521.97867	6957.275
2524.70327	6943.175
2527.42616	6937.175
2530.14734	6911.275
2532.86681	6881.975
2535.58458	6878.675
2538.30065	6876.675
2541.01501	6882.075
2543.72768	6857.975
2546.43864	6859.675
2549.14791	6826.175
2551.85548	6810.775
2554.56136	6781.775
2557.26554	6765.675
2559.96803	6770.475
2562.66883	6755.175
2565.36794	6766.575
2568.06536	6735.575
2570.7611	6735.475
2573.45514	6723.175
2576.14751	6707.975
2578.83819	6684.875
2581.52719	6684.775
2584.21451	6649.975
2586.90015	6633.975
2589.58411	6618.875
2592.2664	6621.275
2594.94701	6613.175
2597.62594	6582.675
2600.30321	6585.175
2602.9788	6558.175
2605.65273	6555.675
2608.32498	6533.775
2610.99557	6516.475
2613.66449	6517.975
2616.33175	6501.475
2618.99734	6483.675
2621.66128	6485.275
2624.32355	6463.875
2626.98416	6446.575
2629.64311	6447.175
2632.30041	6439.875
2634.95605	6415.475
2637.61004	6419.175
2640.26238	6409.275
2642.91306	6395.575
2645.56209	6382.475
2648.20948	6392.475
2650.85521	6370.175
2653.4993	6371.475
2656.14175	6392.675
2658.78255	6364.575
2661.42171	6355.575
2664.05923	6367.475
2666.6951	6356.775
2669.32934	6366.475
2671.96194	6343.875
2674.59291	6355.875
2677.22224	6358.275
2679.84993	6353.175
2682.476	6350.675
2685.10043	6338.475
2687.72324	6331.575
2690.34441	6337.475
2692.96396	6325.775
2695.58188	6334.275
2698.19818	6329.775
2700.81285	6331.075
2703.4259	6335.275
2706.03733	6377.875
2708.64714	6350.375
2711.25533	6349.075
2713.86191	6337.075
2716.46687	6326.775
2719.07021	6318.975
2721.67194	6295.075
2724.27206	6294.575
2726.87057	6300.675
2729.46747	6305.575
2732.06276	6311.975
2734.65644	6294.775
2737.24852	6291.375
2739.83899	6267.075
2742.42786	6263.375
2745.01513	6260.775
2747.60079	6238.975
2750.18486	6227.475
2752.76733	6238.475
2755.3482	6225.175
2757.92747	6225.075
2760.50515	6197.675
2763.08123	6192.675
2765.65573	6169.475
2768.22863	6176.375
2770.79994	6164.875
2773.36967	6151.675
2775.9378	6155.375
2778.50435	6147.475
2781.06932	6124.375
2783.6327	6126.375
2786.1945	6119.475
2788.75471	6102.975
2791.31335	6092.875
2793.87041	6069.575
2796.42589	6056.575
2798.97979	6055.375
2801.53212	6032.775
2804.08288	6045.975
2806.63206	5999.675
2809.17967	5999.575
2811.72571	5975.675
2814.27018	5970.175
2816.81308	5971.175
2819.35442	5951.475
2821.89419	5932.375
2824.43239	5930.475
2826.96904	5916.975
2829.50412	5921.275
2832.03763	5894.275
2834.56959	5902.175
2837.1	5901.675
2839.62884	5916.875
2842.15613	5900.375
2844.68186	5920.975
2847.20604	5902.975
2849.72867	5918.275
2852.24974	5882.375
2854.76927	5901.875
2857.28724	5903.975
2859.80367	5889.375
2862.31855	5855.875
2864.83189	5845.875
2867.34368	5859.475
2869.85393	5830.175
2872.36264	5835.175
2874.8698	5835.675
2877.37543	5839.275
2879.87952	5823.475
2882.38207	5832.275
2884.88308	5822.475
2887.38256	5815.575
2889.88051	5810.475
2892.37692	5819.675
2894.8718	5780.275
2897.36515	5806.975
2899.85698	5806.475
2902.34727	5804.675
2904.83604	5805.275
2907.32328	5814.275
2909.809	5822.075
2912.29319	5806.875
2914.77587	5822.775
2917.25702	5815.675
2919.73665	5777.075
2922.21476	5807.175
2924.69136	5788.775
2927.16644	5782.575
2929.64	5786.375
2932.11205	5770.375
2934.58258	5766.575
2937.05161	5796.775
2939.51912	5754.475
2941.98513	5769.275
2944.44962	5746.575
2946.91261	5737.075
2949.37409	5754.875
2951.83407	5739.575
2954.29254	5728.775
2956.74951	5694.675
2959.20498	5718.275
2961.65895	5678.875
2964.11142	5695.275
2966.56239	5673.075
2969.01186	5666.875
2971.45984	5656.075
2973.90632	5644.375
2976.35131	5634.775
2978.7948	5617.075
2981.23681	5604.975
2983.67732	5606.575
2986.11635	5599.975
2988.55388	5580.575
2990.98993	5580.475
2993.4245	5575.575
2995.85758	5550.475
2998.28917	5547.575
3000.71928	5525.575
3003.14791	5522.575
3005.57506	5515.775
3008.00073	5533.375
3010.42493	5504.275
3012.84764	5493.175
3015.26888	5486.275
3017.68865	5478.475
3020.10694	5479.275
3022.52376	5471.775
3024.9391	5457.275
3027.35298	5457.675
3029.76539	5441.775
3032.17632	5430.675
3034.5858	5415.275
3036.9938	5432.975
3039.40034	5419.975
3041.80542	5412.075
3044.20903	5394.875
3046.61118	5383.875
3049.01187	5385.375
3051.4111	5382.075
3053.80888	5361.975
3056.20519	5369.775
3058.60005	5350.175
3060.99345	5352.775
3063.3854	5324.375
3065.7759	5323.775
3068.16494	5324.275
3070.55254	5318.175
3072.93868	5314.075
3075.32338	5298.675
3077.70662	5288.375
3080.08842	5271.675
3082.46878	5266.475
3084.84769	5273.075
3087.22515	5282.975
3089.60118	5275.775
3091.97576	5279.375
3094.3489	5268.975
3096.72061	5283.575
3099.09087	5284.775
3101.4597	5264.475
3103.82709	5273.675
3106.19305	5252.275
3108.55757	5282.775
3110.92066	5244.575
3113.28232	5239.375
3115.64255	5225.775
3118.00134	5227.675
3120.35871	5234.075
3122.71466	5230.675
3125.06917	5210.775
3127.42226	5219.075
3129.77393	5225.375
3132.12417	5219.475
3134.47299	5228.975
3136.82039	5246.875
3139.16636	5251.775
3141.51092	5244.375
3143.85406	5235.475
3146.19579	5244.875
3148.53609	5242.375
3150.87499	5256.375
3153.21246	5261.875
3155.54853	5267.475
3157.88318	5267.975
3160.21642	5274.675
3162.54826	5257.575
3164.87868	5270.775
3167.2077	5284.575
3169.5353	5281.375
3171.86151	5272.875
3174.18631	5273.775
3176.5097	5287.575
3178.83169	5264.375
3181.15228	5270.875
3183.47147	5270.475
3185.78926	5291.875
3188.10565	5263.675
