Data from AgNP_FTO_APTES_CRN_10uM_R6G_10uM_NaF_0.1M_Addition_RamanShift__19__16-37-07-976.txt Node

Date: Wed Dec 15 16:37:07 GMT 2021
User: TCL
Spectrometer: QEP01345
Trigger mode: 4
Integration Time (sec): 7.000000E0
Scans to average: 10
Electric dark correction enabled: true
Nonlinearity correction enabled: false
Boxcar width: 0
XAxis mode: Raman Shifts
Number of Pixels in Spectrum: 1044
>>>>>Begin Spectral Data<<<<<
46.04893	1.4125
50.45542	-1.7875
54.85868	-1.1875
59.25871	-0.5875
63.6555	75.5125
68.04907	82.4125
72.43941	85.0125
76.82654	91.3125
81.21044	95.1125
85.59113	98.8125
89.96862	104.4125
94.34289	98.4125
98.71396	106.6125
103.08183	108.4125
107.4465	115.9125
111.80798	115.5125
116.16626	120.5125
120.52136	126.7125
124.87327	124.3125
129.222	134.1125
133.56755	139.0125
137.90993	148.9125
142.24913	161.3125
146.58517	180.9125
150.91804	207.9125
155.24774	244.3125
159.57429	301.0125
163.89768	378.3125
168.21792	492.3125
172.53501	674.4125
176.84895	931.8125
181.15975	1306.9125
185.46741	1817.6125
189.77193	2504.9125
194.07331	3339.5125
198.37157	4294.3125
202.6667	5330.3125
206.9587	6326.4125
211.24758	7330.4125
215.53334	8319.5125
219.81599	9359.4125
224.09553	10531.6125
228.37195	11826.7125
232.64527	13229.3125
236.91549	14720.4125
241.18261	16244.8125
245.44663	17653.6125
249.70755	18878.4125
253.96539	19951.1125
258.22014	20877.3125
262.4718	21631.3125
266.72039	22189.3125
270.96589	22467.7125
275.20832	22517.7125
279.44768	22347.5125
283.68397	22138.3125
287.91719	21972.8125
292.14735	21881.2125
296.37445	21917.5125
300.59849	21980.5125
304.81948	22107.9125
309.03742	22108.4125
313.25231	21855.9125
317.46415	21341.2125
321.67296	20685.4125
325.87872	20096.9125
330.08145	19817.4125
334.28114	19824.0125
338.47781	19943.9125
342.67145	20262.7125
346.86207	20647.2125
351.04966	21069.8125
355.23424	21620.1125
359.4158	22035.5125
363.59435	22275.4125
367.76989	22447.2125
371.94243	22522.0125
376.11196	22495.5125
380.27849	22563.1125
384.44203	22585.1125
388.60257	22657.4125
392.76012	22821.6125
396.91468	23075.3125
401.06626	23457.2125
405.21485	23673.2125
409.36047	23589.5125
413.50311	23169.6125
417.64277	22794.1125
421.77947	22613.3125
425.9132	22624.0125
430.04396	22763.2125
434.17176	22901.9125
438.2966	23096.9125
442.41849	23448.9125
446.53742	24075.4125
450.6534	24735.2125
454.76644	25264.2125
458.87653	25443.0125
462.98368	25323.2125
467.08789	25083.5125
471.18916	24817.5125
475.2875	24533.7125
479.38291	24343.2125
483.4754	24108.9125
487.56496	23772.3125
491.6516	23423.0125
495.73531	23130.1125
499.81612	23028.0125
503.89401	23159.6125
507.96899	23265.4125
512.04106	23319.7125
516.11023	23356.9125
520.1765	23386.0125
524.23987	23344.3125
528.30034	23282.6125
532.35792	22986.0125
536.41261	22602.0125
540.46441	22252.1125
544.51333	22106.4125
548.55936	22310.6125
552.60252	22748.9125
556.64279	23210.3125
560.6802	23540.7125
564.71473	23675.0125
568.7464	23957.9125
572.7752	24381.3125
576.80114	24699.9125
580.82422	24985.3125
584.84444	25356.7125
588.86181	25794.5125
592.87633	26300.4125
596.888	26852.5125
600.89682	27153.1125
604.9028	28068.1125
608.90594	30217.7125
612.90624	32524.0125
616.90371	30607.3125
620.89834	25441.3125
624.89015	23158.7125
628.87913	22957.5125
632.86528	23123.1125
636.84862	23103.1125
640.82913	22723.4125
644.80683	22044.6125
648.78172	21559.6125
652.75379	21399.6125
656.72306	21563.8125
660.68952	21959.0125
664.65319	21827.2125
668.61405	21440.9125
672.57211	21279.3125
676.52738	21329.5125
680.47986	21285.0125
684.42955	21188.9125
688.37646	21091.4125
692.32058	21144.4125
696.26192	21349.4125
700.20048	21639.6125
704.13626	21780.0125
708.06928	21828.2125
711.99952	21743.4125
715.927	21714.3125
719.85171	21737.9125
723.77365	21633.6125
727.69284	21389.5125
731.60928	21152.4125
735.52295	21070.5125
739.43388	21077.8125
743.34206	21123.0125
747.24749	21228.9125
751.15017	21417.1125
755.05012	21751.6125
758.94733	22397.2125
762.8418	23670.6125
766.73354	25602.0125
770.62254	27593.7125
774.50882	28139.2125
778.39237	26780.0125
782.27321	24605.5125
786.15132	22817.9125
790.02671	21743.6125
793.89938	21222.6125
797.76935	21120.1125
801.6366	21072.9125
805.50115	21017.3125
809.36299	20884.7125
813.22213	20727.1125
817.07857	20669.7125
820.93231	20609.9125
824.78336	20525.5125
828.63172	20575.3125
832.47738	20586.3125
836.32036	20712.5125
840.16066	20824.3125
843.99827	20869.1125
847.8332	20737.6125
851.66546	20586.8125
855.49504	20519.1125
859.32195	20497.4125
863.1462	20433.1125
866.96777	20343.7125
870.78668	20259.6125
874.60293	20237.0125
878.41652	20253.0125
882.22745	20348.5125
886.03573	20393.7125
889.84136	20357.8125
893.64433	20326.6125
897.44466	20231.8125
901.24235	20143.9125
905.0374	20100.6125
908.8298	20091.1125
912.61957	20159.4125
916.40671	20355.6125
920.19121	20588.6125
923.97308	20835.5125
927.75233	20970.8125
931.52895	20954.8125
935.30295	20696.2125
939.07433	20311.8125
942.84309	19909.6125
946.60924	19743.2125
950.37278	19696.8125
954.13371	19622.5125
957.89203	19535.0125
961.64774	19495.7125
965.40086	19455.8125
969.15137	19359.3125
972.89929	19296.8125
976.64461	19228.6125
980.38733	19235.4125
984.12747	19386.2125
987.86502	19553.0125
991.59999	19774.6125
995.33237	20177.5125
999.06217	20805.7125
1002.78939	21503.7125
1006.51404	21913.6125
1010.23611	22191.8125
1013.95561	22458.1125
1017.67255	22364.7125
1021.38692	22034.0125
1025.09872	21763.8125
1028.80796	21934.2125
1032.51465	22655.9125
1036.21877	23328.1125
1039.92035	23420.3125
1043.61937	23126.6125
1047.31584	22671.7125
1051.00976	22224.6125
1054.70114	22065.1125
1058.38998	22272.9125
1062.07627	22658.6125
1065.76003	23188.9125
1069.44126	23968.4125
1073.11995	24918.1125
1076.79611	25560.0125
1080.46974	25610.0125
1084.14085	25228.5125
1087.80943	24708.4125
1091.47549	24193.9125
1095.13903	23715.2125
1098.80005	23140.5125
1102.45857	22502.6125
1106.11456	22049.5125
1109.76805	21912.1125
1113.41903	21984.0125
1117.06751	22145.4125
1120.71348	22403.4125
1124.35696	22686.6125
1127.99793	23061.8125
1131.63641	23260.3125
1135.2724	23146.7125
1138.90589	22928.2125
1142.5369	22746.1125
1146.16542	22648.3125
1149.79145	22668.3125
1153.415	22838.7125
1157.03607	23154.4125
1160.65467	23756.1125
1164.27079	24762.7125
1167.88443	26127.7125
1171.49561	27979.1125
1175.10432	30358.6125
1178.71056	33368.0125
1182.31434	36115.0125
1185.91565	37255.8125
1189.51451	36789.9125
1193.11091	35289.6125
1196.70485	33381.7125
1200.29634	31639.2125
1203.88538	30402.0125
1207.47197	29620.8125
1211.05612	28971.7125
1214.63782	28460.2125
1218.21708	28143.1125
1221.79391	27841.1125
1225.36829	27714.3125
1228.94024	27470.2125
1232.50976	27046.2125
1236.07685	26635.9125
1239.6415	26397.3125
1243.20374	26354.4125
1246.76355	26498.0125
1250.32093	26917.1125
1253.8759	27508.1125
1257.42845	28299.8125
1260.97859	29154.1125
1264.52631	29930.5125
1268.07163	30779.4125
1271.61453	31797.3125
1275.15503	32816.3125
1278.69312	33912.9125
1282.22882	34774.9125
1285.76211	35626.7125
1289.29301	36569.4125
1292.82151	37798.5125
1296.34761	39447.2125
1299.87133	41566.7125
1303.39266	44166.4125
1306.9116	47179.1125
1310.42815	50120.4125
1313.94233	51923.5125
1317.45412	52021.1125
1320.96354	50911.8125
1324.47058	49555.6125
1327.97525	48252.3125
1331.47754	47233.3125
1334.97747	46560.1125
1338.47502	46295.0125
1341.97022	45982.7125
1345.46305	45487.7125
1348.95352	44953.6125
1352.44163	45002.7125
1355.92738	46128.1125
1359.41078	48602.6125
1362.89183	51060.8125
1366.37053	50502.0125
1369.84688	46448.0125
1373.32088	41491.0125
1376.79254	37882.4125
1380.26186	36280.8125
1383.72883	35833.7125
1387.19347	35550.9125
1390.65578	35074.5125
1394.11575	34841.3125
1397.57339	35109.9125
1401.0287	35773.4125
1404.48168	36284.9125
1407.93234	36342.2125
1411.38068	35731.8125
1414.82669	34629.2125
1418.27039	33078.5125
1421.71177	31694.9125
1425.15083	30568.5125
1428.58758	29926.6125
1432.02203	29988.8125
1435.45416	30589.1125
1438.88399	31409.6125
1442.31151	32171.4125
1445.73673	32715.2125
1449.15965	33249.2125
1452.58027	33723.8125
1455.9986	33940.8125
1459.41463	34280.4125
1462.82837	34991.8125
1466.23982	35802.4125
1469.64898	36527.2125
1473.05586	36905.3125
1476.46045	36922.1125
1479.86276	36658.1125
1483.26279	36227.2125
1486.66054	35929.4125
1490.05602	35898.7125
1493.44922	36093.0125
1496.84016	36483.6125
1500.22882	37359.5125
1503.61521	38700.5125
1506.99934	40477.6125
1510.38121	41948.0125
1513.76081	42439.5125
1517.13816	41432.4125
1520.51324	39472.9125
1523.88607	37624.8125
1527.25665	36332.8125
1530.62498	35716.3125
1533.99105	35402.9125
1537.35488	35111.7125
1540.71647	34688.1125
1544.07581	34120.2125
1547.4329	33499.3125
1550.78776	32978.9125
1554.14038	32687.4125
1557.49077	32570.0125
1560.83892	32537.1125
1564.18484	32753.6125
1567.52853	33204.8125
1570.86999	33999.2125
1574.20922	35248.7125
1577.54624	36641.5125
1580.88103	37575.1125
1584.2136	37938.7125
1587.54395	37908.1125
1590.87208	38109.2125
1594.19801	39173.8125
1597.52172	40742.0125
1600.84321	41180.9125
1604.16251	39336.0125
1607.47959	36295.2125
1610.79447	33064.6125
1614.10715	30235.5125
1617.41763	27971.9125
1620.7259	26357.4125
1624.03199	25586.2125
1627.33587	25571.3125
1630.63757	26335.6125
1633.93707	27923.8125
1637.23439	30551.0125
1640.52951	34260.8125
1643.82246	38401.5125
1647.11321	41599.7125
1650.40179	42345.6125
1653.68819	39726.2125
1656.97241	34790.2125
1660.25446	29748.8125
1663.53433	25984.0125
1666.81203	23534.5125
1670.08756	21969.9125
1673.36092	20955.1125
1676.63211	20294.5125
1679.90115	19841.8125
1683.16801	19528.8125
1686.43272	19325.1125
1689.69527	19130.5125
1692.95567	18981.8125
1696.2139	18928.4125
1699.46999	18839.9125
1702.72392	18805.3125
1705.97571	18722.8125
1709.22535	18665.1125
1712.47284	18590.0125
1715.71819	18590.8125
1718.96139	18516.9125
1722.20246	18452.8125
1725.44139	18391.3125
1728.67818	18253.0125
1731.91284	18160.4125
1735.14537	18055.7125
1738.37576	17939.4125
1741.60403	17911.9125
1744.83017	17904.5125
1748.05418	17866.7125
1751.27607	17795.8125
1754.49584	17769.6125
1757.71349	17790.7125
1760.92903	17785.7125
1764.14244	17758.4125
1767.35375	17742.8125
1770.56294	17728.4125
1773.77002	17697.8125
1776.97499	17655.8125
1780.17785	17630.9125
1783.37861	17575.5125
1786.57727	17504.7125
1789.77382	17488.8125
1792.96828	17452.5125
1796.16064	17410.0125
1799.3509	17396.6125
1802.53907	17369.5125
1805.72514	17281.2125
1808.90913	17251.2125
1812.09102	17213.5125
1815.27083	17179.6125
1818.44856	17174.9125
1821.6242	17111.6125
1824.79776	17095.1125
1827.96924	17103.8125
1831.13864	17143.7125
1834.30597	17132.4125
1837.47122	17088.0125
1840.6344	17143.1125
1843.7955	17123.9125
1846.95454	17129.5125
1850.11151	17129.2125
1853.26642	17109.9125
1856.41926	17089.9125
1859.57004	17103.8125
1862.71876	17072.7125
1865.86542	17081.9125
1869.01003	17039.5125
1872.15258	17059.1125
1875.29308	17061.0125
1878.43152	17014.6125
1881.56792	17016.4125
1884.70227	16976.4125
1887.83457	16980.8125
1890.96482	16993.4125
1894.09304	16970.5125
1897.21921	16950.6125
1900.34335	16944.3125
1903.46544	16924.5125
1906.58551	16930.3125
1909.70353	16915.8125
1912.81953	16918.1125
1915.93349	16899.6125
1919.04543	16836.0125
1922.15534	16794.5125
1925.26322	16776.3125
1928.36908	16733.6125
1931.47292	16703.5125
1934.57473	16643.1125
1937.67453	16615.8125
1940.77232	16560.9125
1943.86808	16514.6125
1946.96184	16478.7125
1950.05358	16405.0125
1953.14331	16384.4125
1956.23103	16309.6125
1959.31675	16278.7125
1962.40046	16234.5125
1965.48217	16184.1125
1968.56188	16170.7125
1971.63959	16105.0125
1974.7153	16044.3125
1977.78901	15998.3125
1980.86073	15930.1125
1983.93046	15919.0125
1986.99819	15881.1125
1990.06394	15841.9125
1993.1277	15773.0125
1996.18947	15719.5125
1999.24925	15640.6125
2002.30706	15676.2125
2005.36288	15614.6125
2008.41672	15597.1125
2011.46859	15531.7125
2014.51848	15488.4125
2017.56639	15435.8125
2020.61233	15392.2125
2023.6563	15375.3125
2026.6983	15360.9125
2029.73833	15341.6125
2032.7764	15325.6125
2035.8125	15294.2125
2038.84664	15264.0125
2041.87881	15218.4125
2044.90903	15226.6125
2047.93729	15220.3125
2050.96359	15202.3125
2053.98794	15197.6125
2057.01034	15152.9125
2060.03078	15189.3125
2063.04927	15153.0125
2066.06582	15157.5125
2069.08042	15123.4125
2072.09307	15114.7125
2075.10378	15089.2125
2078.11255	15073.7125
2081.11938	15086.4125
2084.12426	15094.2125
2087.12722	15086.9125
2090.12824	15055.9125
2093.12732	15074.1125
2096.12447	15109.2125
2099.11969	15069.6125
2102.11299	15077.1125
2105.10435	15109.9125
2108.09379	15104.5125
2111.08131	15117.0125
2114.0669	15152.9125
2117.05057	15146.4125
2120.03233	15154.1125
2123.01216	15147.5125
2125.99008	15169.5125
2128.96609	15175.9125
2131.94018	15183.6125
2134.91236	15209.6125
2137.88263	15216.6125
2140.851	15208.1125
2143.81746	15247.2125
2146.78201	15262.8125
2149.74466	15275.6125
2152.7054	15237.6125
2155.66425	15260.6125
2158.6212	15270.5125
2161.57625	15259.8125
2164.52941	15253.2125
2167.48067	15257.5125
2170.43004	15248.0125
2173.37752	15245.9125
2176.32311	15256.9125
2179.26681	15233.0125
2182.20863	15260.4125
2185.14856	15241.4125
2188.08661	15264.1125
2191.02278	15260.0125
2193.95707	15241.0125
2196.88948	15248.6125
2199.82001	15248.6125
2202.74867	15226.0125
2205.67545	15258.5125
2208.60037	15257.5125
2211.52341	15247.8125
2214.44458	15240.8125
2217.36388	15209.5125
2220.28132	15171.9125
2223.1969	15173.4125
2226.11061	15174.1125
2229.02246	15119.5125
2231.93245	15070.8125
2234.84058	15042.3125
2237.74686	15025.2125
2240.65128	15034.6125
2243.55385	15010.0125
2246.45456	14919.6125
2249.35343	14949.6125
2252.25044	14901.4125
2255.14561	14861.1125
2258.03893	14894.0125
2260.93041	14902.7125
2263.82004	14858.7125
2266.70783	14811.7125
2269.59378	14765.5125
2272.4779	14720.1125
2275.36017	14706.7125
2278.24061	14691.7125
2281.11922	14670.0125
2283.996	14638.5125
2286.87094	14647.5125
2289.74405	14608.7125
2292.61534	14592.7125
2295.4848	14576.4125
2298.35243	14587.5125
2301.21824	14587.3125
2304.08223	14597.9125
2306.94439	14601.1125
2309.80474	14606.6125
2312.66327	14613.3125
2315.51999	14601.0125
2318.37489	14610.4125
2321.22797	14600.2125
2324.07925	14592.0125
2326.92871	14575.1125
2329.77637	14578.9125
2332.62222	14598.7125
2335.46626	14578.2125
2338.3085	14568.9125
2341.14893	14568.9125
2343.98756	14584.1125
2346.8244	14578.0125
2349.65943	14600.7125
2352.49267	14584.7125
2355.32411	14576.9125
2358.15376	14600.8125
2360.98161	14537.1125
2363.80768	14574.0125
2366.63195	14561.0125
2369.45444	14512.7125
2372.27514	14506.0125
2375.09405	14471.5125
2377.91118	14418.3125
2380.72652	14383.9125
2383.54009	14396.0125
2386.35187	14370.4125
2389.16188	14324.0125
2391.97011	14331.8125
2394.77657	14311.6125
2397.58125	14291.5125
2400.38416	14255.4125
2403.18529	14236.6125
2405.98466	14224.5125
2408.78226	14215.2125
2411.57809	14148.2125
2414.37216	14158.8125
2417.16446	14136.5125
2419.955	14109.4125
2422.74378	14099.0125
2425.5308	14085.3125
2428.31606	14072.9125
2431.09956	14077.2125
2433.88131	14048.4125
2436.6613	14068.6125
2439.43954	14080.3125
2442.21603	14038.3125
2444.99077	14027.9125
2447.76377	14043.1125
2450.53501	14058.0125
2453.30451	14038.1125
2456.07226	14014.8125
2458.83827	14033.6125
2461.60254	14035.8125
2464.36507	14013.6125
2467.12586	14031.8125
2469.88492	14039.9125
2472.64224	14045.9125
2475.39782	14048.1125
2478.15167	14067.5125
2480.90379	14058.8125
2483.65417	14060.9125
2486.40283	14091.7125
2489.14976	14129.0125
2491.89497	14126.5125
2494.63845	14145.6125
2497.3802	14109.4125
2500.12024	14109.7125
2502.85855	14133.7125
2505.59514	14123.1125
2508.33002	14074.6125
2511.06318	14056.2125
2513.79462	14037.1125
2516.52435	14045.4125
2519.25237	14026.6125
2521.97867	14011.8125
2524.70327	14015.0125
2527.42616	14004.9125
2530.14734	13978.7125
2532.86681	13989.5125
2535.58458	13981.8125
2538.30065	13956.3125
2541.01501	13971.9125
2543.72768	13952.4125
2546.43864	13975.3125
2549.14791	13979.8125
2551.85548	13937.1125
2554.56136	13915.0125
2557.26554	13901.6125
2559.96803	13883.2125
2562.66883	13898.8125
2565.36794	13922.2125
2568.06536	13927.1125
2570.7611	13878.3125
2573.45514	13898.9125
2576.14751	13868.9125
2578.83819	13828.2125
2581.52719	13867.9125
2584.21451	13846.0125
2586.90015	13866.5125
2589.58411	13837.1125
2592.2664	13823.5125
2594.94701	13810.6125
2597.62594	13831.8125
2600.30321	13796.9125
2602.9788	13809.1125
2605.65273	13777.3125
2608.32498	13759.9125
2610.99557	13758.7125
2613.66449	13768.4125
2616.33175	13741.2125
2618.99734	13792.9125
2621.66128	13761.3125
2624.32355	13772.9125
2626.98416	13778.6125
2629.64311	13793.7125
2632.30041	13779.1125
2634.95605	13800.6125
2637.61004	13760.5125
2640.26238	13742.0125
2642.91306	13736.2125
2645.56209	13723.2125
2648.20948	13740.5125
2650.85521	13732.1125
2653.4993	13732.9125
2656.14175	13690.8125
2658.78255	13705.7125
2661.42171	13696.9125
2664.05923	13736.1125
2666.6951	13746.8125
2669.32934	13751.4125
2671.96194	13711.8125
2674.59291	13724.3125
2677.22224	13710.8125
2679.84993	13717.0125
2682.476	13702.9125
2685.10043	13689.7125
2687.72324	13697.8125
2690.34441	13691.2125
2692.96396	13705.1125
2695.58188	13707.8125
2698.19818	13688.5125
2700.81285	13693.9125
2703.4259	13704.1125
2706.03733	13781.6125
2708.64714	13757.6125
2711.25533	13750.9125
2713.86191	13746.2125
2716.46687	13762.9125
2719.07021	13766.0125
2721.67194	13776.8125
2724.27206	13740.6125
2726.87057	13763.8125
2729.46747	13766.3125
2732.06276	13765.9125
2734.65644	13762.4125
2737.24852	13777.1125
2739.83899	13761.8125
2742.42786	13779.5125
2745.01513	13740.8125
2747.60079	13722.8125
2750.18486	13738.2125
2752.76733	13756.1125
2755.3482	13775.5125
2757.92747	13754.4125
2760.50515	13734.2125
2763.08123	13717.4125
2765.65573	13712.2125
2768.22863	13728.3125
2770.79994	13709.4125
2773.36967	13706.8125
2775.9378	13710.8125
2778.50435	13686.3125
2781.06932	13691.0125
2783.6327	13686.9125
2786.1945	13706.4125
2788.75471	13666.9125
2791.31335	13665.3125
2793.87041	13636.7125
2796.42589	13602.1125
2798.97979	13590.6125
2801.53212	13592.2125
2804.08288	13596.0125
2806.63206	13561.0125
2809.17967	13529.3125
2811.72571	13502.8125
2814.27018	13470.5125
2816.81308	13471.4125
2819.35442	13465.6125
2821.89419	13429.3125
2824.43239	13446.5125
2826.96904	13434.5125
2829.50412	13432.8125
2832.03763	13421.7125
2834.56959	13391.0125
2837.1	13364.0125
2839.62884	13387.7125
2842.15613	13391.6125
2844.68186	13431.9125
2847.20604	13414.6125
2849.72867	13402.4125
2852.24974	13426.5125
2854.76927	13409.6125
2857.28724	13437.1125
2859.80367	13415.7125
2862.31855	13388.2125
2864.83189	13365.6125
2867.34368	13369.4125
2869.85393	13368.4125
2872.36264	13387.7125
2874.8698	13387.5125
2877.37543	13388.9125
2879.87952	13413.3125
2882.38207	13398.7125
2884.88308	13381.9125
2887.38256	13408.5125
2889.88051	13416.4125
2892.37692	13416.6125
2894.8718	13409.8125
2897.36515	13415.3125
2899.85698	13447.2125
2902.34727	13454.1125
2904.83604	13483.4125
2907.32328	13479.2125
2909.809	13488.1125
2912.29319	13516.7125
2914.77587	13510.1125
2917.25702	13484.7125
2919.73665	13477.2125
2922.21476	13498.8125
2924.69136	13489.1125
2927.16644	13498.0125
2929.64	13471.8125
2932.11205	13456.4125
2934.58258	13438.7125
2937.05161	13452.7125
2939.51912	13441.7125
2941.98513	13424.1125
2944.44962	13396.2125
2946.91261	13320.8125
2949.37409	13353.8125
2951.83407	13340.0125
2954.29254	13332.1125
2956.74951	13317.9125
2959.20498	13311.5125
2961.65895	13288.5125
2964.11142	13308.1125
2966.56239	13256.1125
2969.01186	13228.0125
2971.45984	13180.2125
2973.90632	13160.1125
2976.35131	13141.4125
2978.7948	13066.1125
2981.23681	13093.1125
2983.67732	13052.2125
2986.11635	13060.6125
2988.55388	13024.2125
2990.98993	12984.3125
2993.4245	12942.5125
2995.85758	12939.9125
2998.28917	12913.6125
3000.71928	12915.0125
3003.14791	12878.5125
3005.57506	12877.4125
3008.00073	12841.9125
3010.42493	12841.0125
3012.84764	12799.7125
3015.26888	12773.9125
3017.68865	12772.2125
3020.10694	12774.5125
3022.52376	12758.6125
3024.9391	12755.6125
